Cycle,Area(mm^2),PeakDynamic(W),SubthresholdLeakage(W),GateLeakage(W),RunTimeDynamic(W)
152000000,0.0324,0.013523,0.002678,0.000431,0.002468
152001000,0.0324,0.013523,0.002678,0.000431,0.004819
152002000,0.0324,0.013523,0.002678,0.000431,0.001645
152003000,0.0324,0.013523,0.002678,0.000431,0.001645
152004000,0.0324,0.013523,0.002678,0.000431,0.001763
152005000,0.0324,0.013523,0.002678,0.000431,0.001763
152006000,0.0324,0.013523,0.002678,0.000431,0.001763
152007000,0.0324,0.013523,0.002678,0.000431,0.001763
152008000,0.0324,0.013523,0.002678,0.000431,0.001880
152009000,0.0324,0.013523,0.002678,0.000431,0.001880
152010000,0.0324,0.013523,0.002678,0.000431,0.001998
152011000,0.0324,0.013523,0.002678,0.000431,0.001645
152012000,0.0324,0.013523,0.002678,0.000431,0.003526
152013000,0.0324,0.013523,0.002678,0.000431,0.000823
152014000,0.0324,0.013523,0.002678,0.000431,0.074395
152015000,0.0324,0.013523,0.002678,0.000431,0.741250
152016000,0.0324,0.013523,0.002678,0.000431,0.540512
152017000,0.0324,0.013523,0.002678,0.000431,0.135392
152018000,0.0324,0.013523,0.002678,0.000431,0.138448
152019000,0.0324,0.013523,0.002678,0.000431,0.562842
152020000,0.0324,0.013523,0.002678,0.000431,0.228945
152021000,0.0324,0.013523,0.002678,0.000431,0.331782
152022000,0.0324,0.013523,0.002678,0.000431,0.175705
152023000,0.0324,0.013523,0.002678,0.000431,0.169946
152024000,0.0324,0.013523,0.002678,0.000431,0.110241
152025000,0.0324,0.013523,0.002678,0.000431,0.447077
152026000,0.0324,0.013523,0.002678,0.000431,0.308159
152027000,0.0324,0.013523,0.002678,0.000431,0.187457
152028000,0.0324,0.013523,0.002678,0.000431,0.157488
152029000,0.0324,0.013523,0.002678,0.000431,0.130221
152030000,0.0324,0.013523,0.002678,0.000431,0.099781
152031000,0.0324,0.013523,0.002678,0.000431,0.098136
152032000,0.0324,0.013523,0.002678,0.000431,0.094610
152033000,0.0324,0.013523,0.002678,0.000431,0.080977
152034000,0.0324,0.013523,0.002678,0.000431,0.063230
152035000,0.0324,0.013523,0.002678,0.000431,0.057471
152036000,0.0324,0.013523,0.002678,0.000431,0.059234
152037000,0.0324,0.013523,0.002678,0.000431,0.050537
152038000,0.0324,0.013523,0.002678,0.000431,0.042780
152039000,0.0324,0.013523,0.002678,0.000431,0.036904
152040000,0.0324,0.013523,0.002678,0.000431,0.042428
152041000,0.0324,0.013523,0.002678,0.000431,0.034671
152042000,0.0324,0.013523,0.002678,0.000431,0.030557
152043000,0.0324,0.013523,0.002678,0.000431,0.021273
152044000,0.0324,0.013523,0.002678,0.000431,0.018569
152045000,0.0324,0.013523,0.002678,0.000431,0.020215
152046000,0.0324,0.013523,0.002678,0.000431,0.023976
152047000,0.0324,0.013523,0.002678,0.000431,0.019275
152048000,0.0324,0.013523,0.002678,0.000431,0.020685
152049000,0.0324,0.013523,0.002678,0.000431,0.018569
152050000,0.0324,0.013523,0.002678,0.000431,0.014338
152051000,0.0324,0.013523,0.002678,0.000431,0.013516
152052000,0.0324,0.013523,0.002678,0.000431,0.014456
152053000,0.0324,0.013523,0.002678,0.000431,0.014456
152054000,0.0324,0.013523,0.002678,0.000431,0.016336
152055000,0.0324,0.013523,0.002678,0.000431,0.011635
152056000,0.0324,0.013523,0.002678,0.000431,0.009402
152057000,0.0324,0.013523,0.002678,0.000431,0.009285
152058000,0.0324,0.013523,0.002678,0.000431,0.007757
152059000,0.0324,0.013523,0.002678,0.000431,0.011048
152060000,0.0324,0.013523,0.002678,0.000431,0.007639
152061000,0.0324,0.013523,0.002678,0.000431,0.005994
152062000,0.0324,0.013523,0.002678,0.000431,0.005171
152063000,0.0324,0.013523,0.002678,0.000431,0.005054
152064000,0.0324,0.013523,0.002678,0.000431,0.004584
152065000,0.0324,0.013523,0.002678,0.000431,0.005054
152066000,0.0324,0.013523,0.002678,0.000431,0.005171
152067000,0.0324,0.013523,0.002678,0.000431,0.004701
152068000,0.0324,0.013523,0.002678,0.000431,0.006464
152069000,0.0324,0.013523,0.002678,0.000431,0.004113
152070000,0.0324,0.013523,0.002678,0.000431,0.004113
152071000,0.0324,0.013523,0.002678,0.000431,0.004231
152072000,0.0324,0.013523,0.002678,0.000431,0.003996
152073000,0.0324,0.013523,0.002678,0.000431,0.004231
152074000,0.0324,0.013523,0.002678,0.000431,0.005406
152075000,0.0324,0.013523,0.002678,0.000431,0.004584
152076000,0.0324,0.013523,0.002678,0.000431,0.003173
152077000,0.0324,0.013523,0.002678,0.000431,0.005994
152078000,0.0324,0.013523,0.002678,0.000431,0.002468
152079000,0.0324,0.013523,0.002678,0.000431,0.002351
152080000,0.0324,0.013523,0.002678,0.000431,0.002351
152081000,0.0324,0.013523,0.002678,0.000431,0.002586
152082000,0.0324,0.013523,0.002678,0.000431,0.002116
152083000,0.0324,0.013523,0.002678,0.000431,0.002586
152084000,0.0324,0.013523,0.002678,0.000431,0.002468
152085000,0.0324,0.013523,0.002678,0.000431,0.001998
152086000,0.0324,0.013523,0.002678,0.000431,0.002233
152087000,0.0324,0.013523,0.002678,0.000431,0.002468
152088000,0.0324,0.013523,0.002678,0.000431,0.002468
152089000,0.0324,0.013523,0.002678,0.000431,0.002233
152090000,0.0324,0.013523,0.002678,0.000431,0.002468
152091000,0.0324,0.013523,0.002678,0.000431,0.002468
152092000,0.0324,0.013523,0.002678,0.000431,0.002351
152093000,0.0324,0.013523,0.002678,0.000431,0.002703
152094000,0.0324,0.013523,0.002678,0.000431,0.002233
152095000,0.0324,0.013523,0.002678,0.000431,0.002351
152096000,0.0324,0.013523,0.002678,0.000431,0.002233
152097000,0.0324,0.013523,0.002678,0.000431,0.002703
152098000,0.0324,0.013523,0.002678,0.000431,0.002586
152099000,0.0324,0.013523,0.002678,0.000431,0.002116
152100000,0.0324,0.013523,0.002678,0.000431,0.002586
152101000,0.0324,0.013523,0.002678,0.000431,0.002233
152102000,0.0324,0.013523,0.002678,0.000431,0.002586
152103000,0.0324,0.013523,0.002678,0.000431,0.002468
152104000,0.0324,0.013523,0.002678,0.000431,0.002351
152105000,0.0324,0.013523,0.002678,0.000431,0.004701
152106000,0.0324,0.013523,0.002678,0.000431,0.001410
152107000,0.0324,0.013523,0.002678,0.000431,0.001763
152108000,0.0324,0.013523,0.002678,0.000431,0.001645
152109000,0.0324,0.013523,0.002678,0.000431,0.001410
152110000,0.0324,0.013523,0.002678,0.000431,0.001645
152111000,0.0324,0.013523,0.002678,0.000431,0.001528
152112000,0.0324,0.013523,0.002678,0.000431,0.001528
152113000,0.0324,0.013523,0.002678,0.000431,0.001645
152114000,0.0324,0.013523,0.002678,0.000431,0.001645
152115000,0.0324,0.013523,0.002678,0.000431,0.001410
152116000,0.0324,0.013523,0.002678,0.000431,0.001645
152117000,0.0324,0.013523,0.002678,0.000431,0.001645
152118000,0.0324,0.013523,0.002678,0.000431,0.001645
152119000,0.0324,0.013523,0.002678,0.000431,0.001410
152120000,0.0324,0.013523,0.002678,0.000431,0.001645
152121000,0.0324,0.013523,0.002678,0.000431,0.001645
152122000,0.0324,0.013523,0.002678,0.000431,0.001410
152123000,0.0324,0.013523,0.002678,0.000431,0.001880
152124000,0.0324,0.013523,0.002678,0.000431,0.001175
152125000,0.0324,0.013523,0.002678,0.000431,0.001880
152126000,0.0324,0.013523,0.002678,0.000431,0.001410
152127000,0.0324,0.013523,0.002678,0.000431,0.001645
152128000,0.0324,0.013523,0.002678,0.000431,0.001880
152129000,0.0324,0.013523,0.002678,0.000431,0.001175
152130000,0.0324,0.013523,0.002678,0.000431,0.001880
152131000,0.0324,0.013523,0.002678,0.000431,0.001410
152132000,0.0324,0.013523,0.002678,0.000431,0.001645
152133000,0.0324,0.013523,0.002678,0.000431,0.001645
152134000,0.0324,0.013523,0.002678,0.000431,0.001410
152135000,0.0324,0.013523,0.002678,0.000431,0.001645
152136000,0.0324,0.013523,0.002678,0.000431,0.001645
152137000,0.0324,0.013523,0.002678,0.000431,0.001645
152138000,0.0324,0.013523,0.002678,0.000431,0.001410
152139000,0.0324,0.013523,0.002678,0.000431,0.001645
152140000,0.0324,0.013523,0.002678,0.000431,0.001645
152141000,0.0324,0.013523,0.002678,0.000431,0.001645
152142000,0.0324,0.013523,0.002678,0.000431,0.001410
152143000,0.0324,0.013523,0.002678,0.000431,0.001645
152144000,0.0324,0.013523,0.002678,0.000431,0.001410
152145000,0.0324,0.013523,0.002678,0.000431,0.001645
152146000,0.0324,0.013523,0.002678,0.000431,0.001880
152147000,0.0324,0.013523,0.002678,0.000431,0.001175
152148000,0.0324,0.013523,0.002678,0.000431,0.001880
152149000,0.0324,0.013523,0.002678,0.000431,0.001293
152150000,0.0324,0.013523,0.002678,0.000431,0.001763
152151000,0.0324,0.013523,0.002678,0.000431,0.001880
152152000,0.0324,0.013523,0.002678,0.000431,0.001175
152153000,0.0324,0.013523,0.002678,0.000431,0.001880
152154000,0.0324,0.013523,0.002678,0.000431,0.001293
152155000,0.0324,0.013523,0.002678,0.000431,0.001763
152156000,0.0324,0.013523,0.002678,0.000431,0.001645
152157000,0.0324,0.013523,0.002678,0.000431,0.001410
152158000,0.0324,0.013523,0.002678,0.000431,0.001645
152159000,0.0324,0.013523,0.002678,0.000431,0.001528
152160000,0.0324,0.013523,0.002678,0.000431,0.001763
152161000,0.0324,0.013523,0.002678,0.000431,0.001410
152162000,0.0324,0.013523,0.002678,0.000431,0.001645
152163000,0.0324,0.013523,0.002678,0.000431,0.001645
152164000,0.0324,0.013523,0.002678,0.000431,0.001528
152165000,0.0324,0.013523,0.002678,0.000431,0.001528
152166000,0.0324,0.013523,0.002678,0.000431,0.001645
152167000,0.0324,0.013523,0.002678,0.000431,0.001410
152168000,0.0324,0.013523,0.002678,0.000431,0.001645
152169000,0.0324,0.013523,0.002678,0.000431,0.001645
152170000,0.0324,0.013523,0.002678,0.000431,0.001645
152171000,0.0324,0.013523,0.002678,0.000431,0.001645
152172000,0.0324,0.013523,0.002678,0.000431,0.001410
152173000,0.0324,0.013523,0.002678,0.000431,0.001645
152174000,0.0324,0.013523,0.002678,0.000431,0.001410
152175000,0.0324,0.013523,0.002678,0.000431,0.001645
152176000,0.0324,0.013523,0.002678,0.000431,0.001880
152177000,0.0324,0.013523,0.002678,0.000431,0.001175
152178000,0.0324,0.013523,0.002678,0.000431,0.001880
152179000,0.0324,0.013523,0.002678,0.000431,0.001410
152180000,0.0324,0.013523,0.002678,0.000431,0.001645
152181000,0.0324,0.013523,0.002678,0.000431,0.001880
152182000,0.0324,0.013523,0.002678,0.000431,0.001175
152183000,0.0324,0.013523,0.002678,0.000431,0.001880
152184000,0.0324,0.013523,0.002678,0.000431,0.001410
152185000,0.0324,0.013523,0.002678,0.000431,0.001645
152186000,0.0324,0.013523,0.002678,0.000431,0.001645
152187000,0.0324,0.013523,0.002678,0.000431,0.001410
152188000,0.0324,0.013523,0.002678,0.000431,0.001880
152189000,0.0324,0.013523,0.002678,0.000431,0.001410
152190000,0.0324,0.013523,0.002678,0.000431,0.001645
152191000,0.0324,0.013523,0.002678,0.000431,0.001645
152192000,0.0324,0.013523,0.002678,0.000431,0.001410
152193000,0.0324,0.013523,0.002678,0.000431,0.001645
152194000,0.0324,0.013523,0.002678,0.000431,0.001645
152195000,0.0324,0.013523,0.002678,0.000431,0.001410
152196000,0.0324,0.013523,0.002678,0.000431,0.001645
152197000,0.0324,0.013523,0.002678,0.000431,0.001645
152198000,0.0324,0.013523,0.002678,0.000431,0.001410
152199000,0.0324,0.013523,0.002678,0.000431,0.001880
152200000,0.0324,0.013523,0.002678,0.000431,0.001175
152201000,0.0324,0.013523,0.002678,0.000431,0.001410
152202000,0.0324,0.013523,0.002678,0.000431,0.072632
152203000,0.0324,0.013523,0.002678,0.000431,0.690125
152204000,0.0324,0.013523,0.002678,0.000431,0.580472
152205000,0.0324,0.013523,0.002678,0.000431,0.135392
152206000,0.0324,0.013523,0.002678,0.000431,0.134922
152207000,0.0324,0.013523,0.002678,0.000431,0.575653
152208000,0.0324,0.013523,0.002678,0.000431,0.269022
152209000,0.0324,0.013523,0.002678,0.000431,0.300755
152210000,0.0324,0.013523,0.002678,0.000431,0.189926
152211000,0.0324,0.013523,0.002678,0.000431,0.155255
152212000,0.0324,0.013523,0.002678,0.000431,0.110241
152213000,0.0324,0.013523,0.002678,0.000431,0.416520
152214000,0.0324,0.013523,0.002678,0.000431,0.304045
152215000,0.0324,0.013523,0.002678,0.000431,0.139859
152216000,0.0324,0.013523,0.002678,0.000431,0.116470
152217000,0.0324,0.013523,0.002678,0.000431,0.110241
152218000,0.0324,0.013523,0.002678,0.000431,0.082035
152219000,0.0324,0.013523,0.002678,0.000431,0.061115
152220000,0.0324,0.013523,0.002678,0.000431,0.054063
152221000,0.0324,0.013523,0.002678,0.000431,0.045601
152222000,0.0324,0.013523,0.002678,0.000431,0.040077
152223000,0.0324,0.013523,0.002678,0.000431,0.034201
152224000,0.0324,0.013523,0.002678,0.000431,0.026091
152225000,0.0324,0.013523,0.002678,0.000431,0.027267
152226000,0.0324,0.013523,0.002678,0.000431,0.027972
152227000,0.0324,0.013523,0.002678,0.000431,0.022213
152228000,0.0324,0.013523,0.002678,0.000431,0.020332
152229000,0.0324,0.013523,0.002678,0.000431,0.013633
152230000,0.0324,0.013523,0.002678,0.000431,0.013281
152231000,0.0324,0.013523,0.002678,0.000431,0.013046
152232000,0.0324,0.013523,0.002678,0.000431,0.012576
152233000,0.0324,0.013523,0.002678,0.000431,0.011635
152234000,0.0324,0.013523,0.002678,0.000431,0.017042
152235000,0.0324,0.013523,0.002678,0.000431,0.009872
152236000,0.0324,0.013523,0.002678,0.000431,0.010930
152237000,0.0324,0.013523,0.002678,0.000431,0.012223
152238000,0.0324,0.013523,0.002678,0.000431,0.009167
152239000,0.0324,0.013523,0.002678,0.000431,0.007287
152240000,0.0324,0.013523,0.002678,0.000431,0.008580
152241000,0.0324,0.013523,0.002678,0.000431,0.007052
152242000,0.0324,0.013523,0.002678,0.000431,0.006229
152243000,0.0324,0.013523,0.002678,0.000431,0.009755
152244000,0.0324,0.013523,0.002678,0.000431,0.005406
152245000,0.0324,0.013523,0.002678,0.000431,0.007404
152246000,0.0324,0.013523,0.002678,0.000431,0.004936
152247000,0.0324,0.013523,0.002678,0.000431,0.004701
152248000,0.0324,0.013523,0.002678,0.000431,0.005054
152249000,0.0324,0.013523,0.002678,0.000431,0.004819
152250000,0.0324,0.013523,0.002678,0.000431,0.004936
152251000,0.0324,0.013523,0.002678,0.000431,0.004349
152252000,0.0324,0.013523,0.002678,0.000431,0.004113
152253000,0.0324,0.013523,0.002678,0.000431,0.004584
152254000,0.0324,0.013523,0.002678,0.000431,0.003761
152255000,0.0324,0.013523,0.002678,0.000431,0.004231
152256000,0.0324,0.013523,0.002678,0.000431,0.004349
152257000,0.0324,0.013523,0.002678,0.000431,0.003878
152258000,0.0324,0.013523,0.002678,0.000431,0.004349
152259000,0.0324,0.013523,0.002678,0.000431,0.004349
152260000,0.0324,0.013523,0.002678,0.000431,0.004231
152261000,0.0324,0.013523,0.002678,0.000431,0.004701
152262000,0.0324,0.013523,0.002678,0.000431,0.004584
152263000,0.0324,0.013523,0.002678,0.000431,0.003761
152264000,0.0324,0.013523,0.002678,0.000431,0.003291
152265000,0.0324,0.013523,0.002678,0.000431,0.003056
152266000,0.0324,0.013523,0.002678,0.000431,0.003761
152267000,0.0324,0.013523,0.002678,0.000431,0.003056
152268000,0.0324,0.013523,0.002678,0.000431,0.003526
152269000,0.0324,0.013523,0.002678,0.000431,0.003173
152270000,0.0324,0.013523,0.002678,0.000431,0.003408
152271000,0.0324,0.013523,0.002678,0.000431,0.003526
152272000,0.0324,0.013523,0.002678,0.000431,0.003056
152273000,0.0324,0.013523,0.002678,0.000431,0.003526
152274000,0.0324,0.013523,0.002678,0.000431,0.003291
152275000,0.0324,0.013523,0.002678,0.000431,0.003291
152276000,0.0324,0.013523,0.002678,0.000431,0.003526
152277000,0.0324,0.013523,0.002678,0.000431,0.003056
152278000,0.0324,0.013523,0.002678,0.000431,0.003291
152279000,0.0324,0.013523,0.002678,0.000431,0.003056
152280000,0.0324,0.013523,0.002678,0.000431,0.003291
152281000,0.0324,0.013523,0.002678,0.000431,0.003408
152282000,0.0324,0.013523,0.002678,0.000431,0.002938
152283000,0.0324,0.013523,0.002678,0.000431,0.003291
152284000,0.0324,0.013523,0.002678,0.000431,0.003056
152285000,0.0324,0.013523,0.002678,0.000431,0.003291
152286000,0.0324,0.013523,0.002678,0.000431,0.002938
152287000,0.0324,0.013523,0.002678,0.000431,0.003408
152288000,0.0324,0.013523,0.002678,0.000431,0.002703
152289000,0.0324,0.013523,0.002678,0.000431,0.002703
152290000,0.0324,0.013523,0.002678,0.000431,0.003056
152291000,0.0324,0.013523,0.002678,0.000431,0.003291
152292000,0.0324,0.013523,0.002678,0.000431,0.003056
152293000,0.0324,0.013523,0.002678,0.000431,0.003291
152294000,0.0324,0.013523,0.002678,0.000431,0.003408
152295000,0.0324,0.013523,0.002678,0.000431,0.002938
152296000,0.0324,0.013523,0.002678,0.000431,0.003291
152297000,0.0324,0.013523,0.002678,0.000431,0.003056
152298000,0.0324,0.013523,0.002678,0.000431,0.003056
152299000,0.0324,0.013523,0.002678,0.000431,0.003056
152300000,0.0324,0.013523,0.002678,0.000431,0.003291
152301000,0.0324,0.013523,0.002678,0.000431,0.002938
152302000,0.0324,0.013523,0.002678,0.000431,0.003056
152303000,0.0324,0.013523,0.002678,0.000431,0.002703
152304000,0.0324,0.013523,0.002678,0.000431,0.003761
152305000,0.0324,0.013523,0.002678,0.000431,0.002586
152306000,0.0324,0.013523,0.002678,0.000431,0.003291
152307000,0.0324,0.013523,0.002678,0.000431,0.003761
152308000,0.0324,0.013523,0.002678,0.000431,0.003291
152309000,0.0324,0.013523,0.002678,0.000431,0.003291
152310000,0.0324,0.013523,0.002678,0.000431,0.003291
152311000,0.0324,0.013523,0.002678,0.000431,0.003291
152312000,0.0324,0.013523,0.002678,0.000431,0.003761
152313000,0.0324,0.013523,0.002678,0.000431,0.003291
152314000,0.0324,0.013523,0.002678,0.000431,0.003291
152315000,0.0324,0.013523,0.002678,0.000431,0.003761
152316000,0.0324,0.013523,0.002678,0.000431,0.002821
152317000,0.0324,0.013523,0.002678,0.000431,0.003761
152318000,0.0324,0.013523,0.002678,0.000431,0.004349
152319000,0.0324,0.013523,0.002678,0.000431,0.000823
152320000,0.0324,0.013523,0.002678,0.000431,0.000823
152321000,0.0324,0.013523,0.002678,0.000431,0.000940
152322000,0.0324,0.013523,0.002678,0.000431,0.000940
152323000,0.0324,0.013523,0.002678,0.000431,0.000823
152324000,0.0324,0.013523,0.002678,0.000431,0.000823
152325000,0.0324,0.013523,0.002678,0.000431,0.000940
152326000,0.0324,0.013523,0.002678,0.000431,0.198505
152327000,0.0324,0.013523,0.002678,0.000431,0.589991
152328000,0.0324,0.013523,0.002678,0.000431,0.510307
152329000,0.0324,0.013523,0.002678,0.000431,0.134922
152330000,0.0324,0.013523,0.002678,0.000431,0.146205
152331000,0.0324,0.013523,0.002678,0.000431,0.562020
152332000,0.0324,0.013523,0.002678,0.000431,0.237877
152333000,0.0324,0.013523,0.002678,0.000431,0.344240
152334000,0.0324,0.013523,0.002678,0.000431,0.183932
152335000,0.0324,0.013523,0.002678,0.000431,0.157018
152336000,0.0324,0.013523,0.002678,0.000431,0.106128
152337000,0.0324,0.013523,0.002678,0.000431,0.424982
152338000,0.0324,0.013523,0.002678,0.000431,0.269140
152339000,0.0324,0.013523,0.002678,0.000431,0.151611
152340000,0.0324,0.013523,0.002678,0.000431,0.135863
152341000,0.0324,0.013523,0.002678,0.000431,0.110476
152342000,0.0324,0.013523,0.002678,0.000431,0.106010
152343000,0.0324,0.013523,0.002678,0.000431,0.089086
152344000,0.0324,0.013523,0.002678,0.000431,0.087676
152345000,0.0324,0.013523,0.002678,0.000431,0.071692
152346000,0.0324,0.013523,0.002678,0.000431,0.073338
152347000,0.0324,0.013523,0.002678,0.000431,0.063230
152348000,0.0324,0.013523,0.002678,0.000431,0.057941
152349000,0.0324,0.013523,0.002678,0.000431,0.051007
152350000,0.0324,0.013523,0.002678,0.000431,0.048187
152351000,0.0324,0.013523,0.002678,0.000431,0.047834
152352000,0.0324,0.013523,0.002678,0.000431,0.039725
152353000,0.0324,0.013523,0.002678,0.000431,0.042428
152354000,0.0324,0.013523,0.002678,0.000431,0.038549
152355000,0.0324,0.013523,0.002678,0.000431,0.040312
152356000,0.0324,0.013523,0.002678,0.000431,0.039019
152357000,0.0324,0.013523,0.002678,0.000431,0.036316
152358000,0.0324,0.013523,0.002678,0.000431,0.034788
152359000,0.0324,0.013523,0.002678,0.000431,0.033613
152360000,0.0324,0.013523,0.002678,0.000431,0.037256
152361000,0.0324,0.013523,0.002678,0.000431,0.033378
152362000,0.0324,0.013523,0.002678,0.000431,0.029735
152363000,0.0324,0.013523,0.002678,0.000431,0.030675
152364000,0.0324,0.013523,0.002678,0.000431,0.027384
152365000,0.0324,0.013523,0.002678,0.000431,0.027502
152366000,0.0324,0.013523,0.002678,0.000431,0.027854
152367000,0.0324,0.013523,0.002678,0.000431,0.023388
152368000,0.0324,0.013523,0.002678,0.000431,0.024328
152369000,0.0324,0.013523,0.002678,0.000431,0.024798
152370000,0.0324,0.013523,0.002678,0.000431,0.021038
152371000,0.0324,0.013523,0.002678,0.000431,0.019627
152372000,0.0324,0.013523,0.002678,0.000431,0.019510
152373000,0.0324,0.013523,0.002678,0.000431,0.020802
152374000,0.0324,0.013523,0.002678,0.000431,0.019040
152375000,0.0324,0.013523,0.002678,0.000431,0.018452
152376000,0.0324,0.013523,0.002678,0.000431,0.020215
152377000,0.0324,0.013523,0.002678,0.000431,0.020332
152378000,0.0324,0.013523,0.002678,0.000431,0.016454
152379000,0.0324,0.013523,0.002678,0.000431,0.016219
152380000,0.0324,0.013523,0.002678,0.000431,0.015984
152381000,0.0324,0.013523,0.002678,0.000431,0.015984
152382000,0.0324,0.013523,0.002678,0.000431,0.016454
152383000,0.0324,0.013523,0.002678,0.000431,0.016101
152384000,0.0324,0.013523,0.002678,0.000431,0.016219
152385000,0.0324,0.013523,0.002678,0.000431,0.016101
152386000,0.0324,0.013523,0.002678,0.000431,0.016219
152387000,0.0324,0.013523,0.002678,0.000431,0.015984
152388000,0.0324,0.013523,0.002678,0.000431,0.014926
152389000,0.0324,0.013523,0.002678,0.000431,0.018334
152390000,0.0324,0.013523,0.002678,0.000431,0.014338
152391000,0.0324,0.013523,0.002678,0.000431,0.014338
152392000,0.0324,0.013523,0.002678,0.000431,0.016101
152393000,0.0324,0.013523,0.002678,0.000431,0.017747
152394000,0.0324,0.013523,0.002678,0.000431,0.015984
152395000,0.0324,0.013523,0.002678,0.000431,0.011870
152396000,0.0324,0.013523,0.002678,0.000431,0.011988
152397000,0.0324,0.013523,0.002678,0.000431,0.012811
152398000,0.0324,0.013523,0.002678,0.000431,0.013633
152399000,0.0324,0.013523,0.002678,0.000431,0.012576
152400000,0.0324,0.013523,0.002678,0.000431,0.010460
152401000,0.0324,0.013523,0.002678,0.000431,0.010225
152402000,0.0324,0.013523,0.002678,0.000431,0.011048
152403000,0.0324,0.013523,0.002678,0.000431,0.012223
152404000,0.0324,0.013523,0.002678,0.000431,0.009520
152405000,0.0324,0.013523,0.002678,0.000431,0.009755
152406000,0.0324,0.013523,0.002678,0.000431,0.009050
152407000,0.0324,0.013523,0.002678,0.000431,0.011518
152408000,0.0324,0.013523,0.002678,0.000431,0.008815
152409000,0.0324,0.013523,0.002678,0.000431,0.008697
152410000,0.0324,0.013523,0.002678,0.000431,0.009520
152411000,0.0324,0.013523,0.002678,0.000431,0.007639
152412000,0.0324,0.013523,0.002678,0.000431,0.012458
152413000,0.0324,0.013523,0.002678,0.000431,0.009637
152414000,0.0324,0.013523,0.002678,0.000431,0.004701
152415000,0.0324,0.013523,0.002678,0.000431,0.005289
152416000,0.0324,0.013523,0.002678,0.000431,0.004113
152417000,0.0324,0.013523,0.002678,0.000431,0.005171
152418000,0.0324,0.013523,0.002678,0.000431,0.003408
152419000,0.0324,0.013523,0.002678,0.000431,0.002821
152420000,0.0324,0.013523,0.002678,0.000431,0.002821
152421000,0.0324,0.013523,0.002678,0.000431,0.002703
152422000,0.0324,0.013523,0.002678,0.000431,0.002821
152423000,0.0324,0.013523,0.002678,0.000431,0.003643
152424000,0.0324,0.013523,0.002678,0.000431,0.001763
152425000,0.0324,0.013523,0.002678,0.000431,0.002233
152426000,0.0324,0.013523,0.002678,0.000431,0.003056
152427000,0.0324,0.013523,0.002678,0.000431,0.002586
152428000,0.0324,0.013523,0.002678,0.000431,0.001058
152429000,0.0324,0.013523,0.002678,0.000431,0.000940
152430000,0.0324,0.013523,0.002678,0.000431,0.001410
152431000,0.0324,0.013523,0.002678,0.000431,0.000823
152432000,0.0324,0.013523,0.002678,0.000431,0.001410
152433000,0.0324,0.013523,0.002678,0.000431,0.001058
152434000,0.0324,0.013523,0.002678,0.000431,0.000940
152435000,0.0324,0.013523,0.002678,0.000431,0.001410
152436000,0.0324,0.013523,0.002678,0.000431,0.000705
152437000,0.0324,0.013523,0.002678,0.000431,0.001528
152438000,0.0324,0.013523,0.002678,0.000431,0.000940
152439000,0.0324,0.013523,0.002678,0.000431,0.001058
152440000,0.0324,0.013523,0.002678,0.000431,0.001293
152441000,0.0324,0.013523,0.002678,0.000431,0.000823
152442000,0.0324,0.013523,0.002678,0.000431,0.001528
152443000,0.0324,0.013523,0.002678,0.000431,0.000823
152444000,0.0324,0.013523,0.002678,0.000431,0.001058
152445000,0.0324,0.013523,0.002678,0.000431,0.001293
152446000,0.0324,0.013523,0.002678,0.000431,0.000940
152447000,0.0324,0.013523,0.002678,0.000431,0.001293
152448000,0.0324,0.013523,0.002678,0.000431,0.001058
152449000,0.0324,0.013523,0.002678,0.000431,0.000940
152450000,0.0324,0.013523,0.002678,0.000431,0.001410
152451000,0.0324,0.013523,0.002678,0.000431,0.000940
152452000,0.0324,0.013523,0.002678,0.000431,0.001058
152453000,0.0324,0.013523,0.002678,0.000431,0.001293
152454000,0.0324,0.013523,0.002678,0.000431,0.000940
152455000,0.0324,0.013523,0.002678,0.000431,0.001410
152456000,0.0324,0.013523,0.002678,0.000431,0.000823
152457000,0.0324,0.013523,0.002678,0.000431,0.001175
152458000,0.0324,0.013523,0.002678,0.000431,0.001293
152459000,0.0324,0.013523,0.002678,0.000431,0.000823
152460000,0.0324,0.013523,0.002678,0.000431,0.001528
152461000,0.0324,0.013523,0.002678,0.000431,0.000823
152462000,0.0324,0.013523,0.002678,0.000431,0.001175
152463000,0.0324,0.013523,0.002678,0.000431,0.001175
152464000,0.0324,0.013523,0.002678,0.000431,0.000940
152465000,0.0324,0.013523,0.002678,0.000431,0.001410
152466000,0.0324,0.013523,0.002678,0.000431,0.000823
152467000,0.0324,0.013523,0.002678,0.000431,0.001058
152468000,0.0324,0.013523,0.002678,0.000431,0.001293
152469000,0.0324,0.013523,0.002678,0.000431,0.001058
152470000,0.0324,0.013523,0.002678,0.000431,0.013868
152471000,0.0324,0.013523,0.002678,0.000431,0.640176
152472000,0.0324,0.013523,0.002678,0.000431,0.590109
152473000,0.0324,0.013523,0.002678,0.000431,0.134922
152474000,0.0324,0.013523,0.002678,0.000431,0.134922
152475000,0.0324,0.013523,0.002678,0.000431,0.529582
152476000,0.0324,0.013523,0.002678,0.000431,0.232941
152477000,0.0324,0.013523,0.002678,0.000431,0.263616
152478000,0.0324,0.013523,0.002678,0.000431,0.322615
152479000,0.0324,0.013523,0.002678,0.000431,0.141857
152480000,0.0324,0.013523,0.002678,0.000431,0.168770
152481000,0.0324,0.013523,0.002678,0.000431,0.129399
152482000,0.0324,0.013523,0.002678,0.000431,0.495029
152483000,0.0324,0.013523,0.002678,0.000431,0.182404
152484000,0.0324,0.013523,0.002678,0.000431,0.131984
152485000,0.0324,0.013523,0.002678,0.000431,0.108008
152486000,0.0324,0.013523,0.002678,0.000431,0.105423
152487000,0.0324,0.013523,0.002678,0.000431,0.094023
152488000,0.0324,0.013523,0.002678,0.000431,0.069107
152489000,0.0324,0.013523,0.002678,0.000431,0.054298
152490000,0.0324,0.013523,0.002678,0.000431,0.052418
152491000,0.0324,0.013523,0.002678,0.000431,0.045954
152492000,0.0324,0.013523,0.002678,0.000431,0.034906
152493000,0.0324,0.013523,0.002678,0.000431,0.028324
152494000,0.0324,0.013523,0.002678,0.000431,0.031380
152495000,0.0324,0.013523,0.002678,0.000431,0.028089
152496000,0.0324,0.013523,0.002678,0.000431,0.021390
152497000,0.0324,0.013523,0.002678,0.000431,0.022330
152498000,0.0324,0.013523,0.002678,0.000431,0.020097
152499000,0.0324,0.013523,0.002678,0.000431,0.017394
152500000,0.0324,0.013523,0.002678,0.000431,0.016807
152501000,0.0324,0.013523,0.002678,0.000431,0.011048
152502000,0.0324,0.013523,0.002678,0.000431,0.014809
152503000,0.0324,0.013523,0.002678,0.000431,0.010342
152504000,0.0324,0.013523,0.002678,0.000431,0.009872
152505000,0.0324,0.013523,0.002678,0.000431,0.008697
152506000,0.0324,0.013523,0.002678,0.000431,0.009990
152507000,0.0324,0.013523,0.002678,0.000431,0.007522
152508000,0.0324,0.013523,0.002678,0.000431,0.006229
152509000,0.0324,0.013523,0.002678,0.000431,0.004936
152510000,0.0324,0.013523,0.002678,0.000431,0.005054
152511000,0.0324,0.013523,0.002678,0.000431,0.004231
152512000,0.0324,0.013523,0.002678,0.000431,0.004819
152513000,0.0324,0.013523,0.002678,0.000431,0.005641
152514000,0.0324,0.013523,0.002678,0.000431,0.005171
152515000,0.0324,0.013523,0.002678,0.000431,0.003526
152516000,0.0324,0.013523,0.002678,0.000431,0.002821
152517000,0.0324,0.013523,0.002678,0.000431,0.005876
152518000,0.0324,0.013523,0.002678,0.000431,0.002233
152519000,0.0324,0.013523,0.002678,0.000431,0.002468
152520000,0.0324,0.013523,0.002678,0.000431,0.002586
152521000,0.0324,0.013523,0.002678,0.000431,0.002233
152522000,0.0324,0.013523,0.002678,0.000431,0.002468
152523000,0.0324,0.013523,0.002678,0.000431,0.002468
152524000,0.0324,0.013523,0.002678,0.000431,0.002351
152525000,0.0324,0.013523,0.002678,0.000431,0.002351
152526000,0.0324,0.013523,0.002678,0.000431,0.002586
152527000,0.0324,0.013523,0.002678,0.000431,0.002351
152528000,0.0324,0.013523,0.002678,0.000431,0.002586
152529000,0.0324,0.013523,0.002678,0.000431,0.002116
152530000,0.0324,0.013523,0.002678,0.000431,0.002586
152531000,0.0324,0.013523,0.002678,0.000431,0.004584
152532000,0.0324,0.013523,0.002678,0.000431,0.000823
152533000,0.0324,0.013523,0.002678,0.000431,0.000940
152534000,0.0324,0.013523,0.002678,0.000431,0.000705
152535000,0.0324,0.013523,0.002678,0.000431,0.000940
152536000,0.0324,0.013523,0.002678,0.000431,0.000823
152537000,0.0324,0.013523,0.002678,0.000431,0.000823
152538000,0.0324,0.013523,0.002678,0.000431,0.000823
152539000,0.0324,0.013523,0.002678,0.000431,0.000823
152540000,0.0324,0.013523,0.002678,0.000431,0.000940
152541000,0.0324,0.013523,0.002678,0.000431,0.000705
152542000,0.0324,0.013523,0.002678,0.000431,0.000940
152543000,0.0324,0.013523,0.002678,0.000431,0.000823
152544000,0.0324,0.013523,0.002678,0.000431,0.000823
152545000,0.0324,0.013523,0.002678,0.000431,0.000823
152546000,0.0324,0.013523,0.002678,0.000431,0.000823
152547000,0.0324,0.013523,0.002678,0.000431,0.000705
152548000,0.0324,0.013523,0.002678,0.000431,0.000940
152549000,0.0324,0.013523,0.002678,0.000431,0.000940
152550000,0.0324,0.013523,0.002678,0.000431,0.000705
152551000,0.0324,0.013523,0.002678,0.000431,0.000940
152552000,0.0324,0.013523,0.002678,0.000431,0.000705
152553000,0.0324,0.013523,0.002678,0.000431,0.000940
152554000,0.0324,0.013523,0.002678,0.000431,0.000940
152555000,0.0324,0.013523,0.002678,0.000431,0.000705
152556000,0.0324,0.013523,0.002678,0.000431,0.000940
152557000,0.0324,0.013523,0.002678,0.000431,0.000705
152558000,0.0324,0.013523,0.002678,0.000431,0.000940
152559000,0.0324,0.013523,0.002678,0.000431,0.000823
152560000,0.0324,0.013523,0.002678,0.000431,0.000823
152561000,0.0324,0.013523,0.002678,0.000431,0.000823
152562000,0.0324,0.013523,0.002678,0.000431,0.000823
152563000,0.0324,0.013523,0.002678,0.000431,0.000940
152564000,0.0324,0.013523,0.002678,0.000431,0.000705
152565000,0.0324,0.013523,0.002678,0.000431,0.000940
152566000,0.0324,0.013523,0.002678,0.000431,0.000823
152567000,0.0324,0.013523,0.002678,0.000431,0.000705
152568000,0.0324,0.013523,0.002678,0.000431,0.000940
152569000,0.0324,0.013523,0.002678,0.000431,0.000823
152570000,0.0324,0.013523,0.002678,0.000431,0.000823
152571000,0.0324,0.013523,0.002678,0.000431,0.000823
152572000,0.0324,0.013523,0.002678,0.000431,0.000823
152573000,0.0324,0.013523,0.002678,0.000431,0.000823
152574000,0.0324,0.013523,0.002678,0.000431,0.000940
152575000,0.0324,0.013523,0.002678,0.000431,0.000823
152576000,0.0324,0.013523,0.002678,0.000431,0.000823
152577000,0.0324,0.013523,0.002678,0.000431,0.000705
152578000,0.0324,0.013523,0.002678,0.000431,0.000940
152579000,0.0324,0.013523,0.002678,0.000431,0.000940
152580000,0.0324,0.013523,0.002678,0.000431,0.000705
152581000,0.0324,0.013523,0.002678,0.000431,0.000940
152582000,0.0324,0.013523,0.002678,0.000431,0.000705
152583000,0.0324,0.013523,0.002678,0.000431,0.000940
152584000,0.0324,0.013523,0.002678,0.000431,0.000823
152585000,0.0324,0.013523,0.002678,0.000431,0.000823
152586000,0.0324,0.013523,0.002678,0.000431,0.000940
152587000,0.0324,0.013523,0.002678,0.000431,0.000705
152588000,0.0324,0.013523,0.002678,0.000431,0.000940
152589000,0.0324,0.013523,0.002678,0.000431,0.000823
152590000,0.0324,0.013523,0.002678,0.000431,0.000823
152591000,0.0324,0.013523,0.002678,0.000431,0.000823
152592000,0.0324,0.013523,0.002678,0.000431,0.000823
152593000,0.0324,0.013523,0.002678,0.000431,0.000823
152594000,0.0324,0.013523,0.002678,0.000431,0.000823
152595000,0.0324,0.013523,0.002678,0.000431,0.000940
152596000,0.0324,0.013523,0.002678,0.000431,0.000705
152597000,0.0324,0.013523,0.002678,0.000431,0.000940
152598000,0.0324,0.013523,0.002678,0.000431,0.000823
152599000,0.0324,0.013523,0.002678,0.000431,0.000823
152600000,0.0324,0.013523,0.002678,0.000431,0.000823
152601000,0.0324,0.013523,0.002678,0.000431,0.000823
152602000,0.0324,0.013523,0.002678,0.000431,0.000940
152603000,0.0324,0.013523,0.002678,0.000431,0.000705
152604000,0.0324,0.013523,0.002678,0.000431,0.000940
152605000,0.0324,0.013523,0.002678,0.000431,0.000705
152606000,0.0324,0.013523,0.002678,0.000431,0.000940
152607000,0.0324,0.013523,0.002678,0.000431,0.000940
152608000,0.0324,0.013523,0.002678,0.000431,0.000705
152609000,0.0324,0.013523,0.002678,0.000431,0.000940
152610000,0.0324,0.013523,0.002678,0.000431,0.000705
152611000,0.0324,0.013523,0.002678,0.000431,0.000940
152612000,0.0324,0.013523,0.002678,0.000431,0.000823
152613000,0.0324,0.013523,0.002678,0.000431,0.000823
152614000,0.0324,0.013523,0.002678,0.000431,0.000823
152615000,0.0324,0.013523,0.002678,0.000431,0.000823
152616000,0.0324,0.013523,0.002678,0.000431,0.000940
152617000,0.0324,0.013523,0.002678,0.000431,0.000705
152618000,0.0324,0.013523,0.002678,0.000431,0.000940
152619000,0.0324,0.013523,0.002678,0.000431,0.000823
152620000,0.0324,0.013523,0.002678,0.000431,0.000705
152621000,0.0324,0.013523,0.002678,0.000431,0.000940
152622000,0.0324,0.013523,0.002678,0.000431,0.000823
152623000,0.0324,0.013523,0.002678,0.000431,0.000823
152624000,0.0324,0.013523,0.002678,0.000431,0.000823
152625000,0.0324,0.013523,0.002678,0.000431,0.000823
152626000,0.0324,0.013523,0.002678,0.000431,0.000823
152627000,0.0324,0.013523,0.002678,0.000431,0.000940
152628000,0.0324,0.013523,0.002678,0.000431,0.000705
152629000,0.0324,0.013523,0.002678,0.000431,0.000940
152630000,0.0324,0.013523,0.002678,0.000431,0.000705
152631000,0.0324,0.013523,0.002678,0.000431,0.000940
152632000,0.0324,0.013523,0.002678,0.000431,0.000940
152633000,0.0324,0.013523,0.002678,0.000431,0.000705
152634000,0.0324,0.013523,0.002678,0.000431,0.000940
152635000,0.0324,0.013523,0.002678,0.000431,0.000705
152636000,0.0324,0.013523,0.002678,0.000431,0.000940
152637000,0.0324,0.013523,0.002678,0.000431,0.000823
152638000,0.0324,0.013523,0.002678,0.000431,0.000823
152639000,0.0324,0.013523,0.002678,0.000431,0.000823
152640000,0.0324,0.013523,0.002678,0.000431,0.000823
152641000,0.0324,0.013523,0.002678,0.000431,0.000940
152642000,0.0324,0.013523,0.002678,0.000431,0.000705
152643000,0.0324,0.013523,0.002678,0.000431,0.000940
152644000,0.0324,0.013523,0.002678,0.000431,0.000823
152645000,0.0324,0.013523,0.002678,0.000431,0.000823
152646000,0.0324,0.013523,0.002678,0.000431,0.000823
152647000,0.0324,0.013523,0.002678,0.000431,0.000823
152648000,0.0324,0.013523,0.002678,0.000431,0.000823
152649000,0.0324,0.013523,0.002678,0.000431,0.000823
152650000,0.0324,0.013523,0.002678,0.000431,0.000940
152651000,0.0324,0.013523,0.002678,0.000431,0.000705
152652000,0.0324,0.013523,0.002678,0.000431,0.000940
152653000,0.0324,0.013523,0.002678,0.000431,0.000705
152654000,0.0324,0.013523,0.002678,0.000431,0.000940
152655000,0.0324,0.013523,0.002678,0.000431,0.000940
152656000,0.0324,0.013523,0.002678,0.000431,0.000705
152657000,0.0324,0.013523,0.002678,0.000431,0.000940
152658000,0.0324,0.013523,0.002678,0.000431,0.000705
152659000,0.0324,0.013523,0.002678,0.000431,0.000940
152660000,0.0324,0.013523,0.002678,0.000431,0.000823
152661000,0.0324,0.013523,0.002678,0.000431,0.000823
152662000,0.0324,0.013523,0.002678,0.000431,0.000823
152663000,0.0324,0.013523,0.002678,0.000431,0.000823
152664000,0.0324,0.013523,0.002678,0.000431,0.000940
152665000,0.0324,0.013523,0.002678,0.000431,0.000823
152666000,0.0324,0.013523,0.002678,0.000431,0.000823
152667000,0.0324,0.013523,0.002678,0.000431,0.000823
152668000,0.0324,0.013523,0.002678,0.000431,0.000823
152669000,0.0324,0.013523,0.002678,0.000431,0.000823
152670000,0.0324,0.013523,0.002678,0.000431,0.000823
152671000,0.0324,0.013523,0.002678,0.000431,0.230943
152672000,0.0324,0.013523,0.002678,0.000431,0.644407
152673000,0.0324,0.013523,0.002678,0.000431,0.441906
152674000,0.0324,0.013523,0.002678,0.000431,0.134452
152675000,0.0324,0.013523,0.002678,0.000431,0.149143
152676000,0.0324,0.013523,0.002678,0.000431,0.565193
152677000,0.0324,0.013523,0.002678,0.000431,0.232353
152678000,0.0324,0.013523,0.002678,0.000431,0.328491
152679000,0.0324,0.013523,0.002678,0.000431,0.167478
152680000,0.0324,0.013523,0.002678,0.000431,0.169241
152681000,0.0324,0.013523,0.002678,0.000431,0.109654
152682000,0.0324,0.013523,0.002678,0.000431,0.372094
152683000,0.0324,0.013523,0.002678,0.000431,0.323908
152684000,0.0324,0.013523,0.002678,0.000431,0.152434
152685000,0.0324,0.013523,0.002678,0.000431,0.123875
152686000,0.0324,0.013523,0.002678,0.000431,0.096373
152687000,0.0324,0.013523,0.002678,0.000431,0.099781
152688000,0.0324,0.013523,0.002678,0.000431,0.079919
152689000,0.0324,0.013523,0.002678,0.000431,0.074395
152690000,0.0324,0.013523,0.002678,0.000431,0.065933
152691000,0.0324,0.013523,0.002678,0.000431,0.059822
152692000,0.0324,0.013523,0.002678,0.000431,0.045131
152693000,0.0324,0.013523,0.002678,0.000431,0.048774
152694000,0.0324,0.013523,0.002678,0.000431,0.038667
152695000,0.0324,0.013523,0.002678,0.000431,0.034083
152696000,0.0324,0.013523,0.002678,0.000431,0.033496
152697000,0.0324,0.013523,0.002678,0.000431,0.031262
152698000,0.0324,0.013523,0.002678,0.000431,0.029500
152699000,0.0324,0.013523,0.002678,0.000431,0.027031
152700000,0.0324,0.013523,0.002678,0.000431,0.026209
152701000,0.0324,0.013523,0.002678,0.000431,0.029852
152702000,0.0324,0.013523,0.002678,0.000431,0.024916
152703000,0.0324,0.013523,0.002678,0.000431,0.025151
152704000,0.0324,0.013523,0.002678,0.000431,0.023271
152705000,0.0324,0.013523,0.002678,0.000431,0.024798
152706000,0.0324,0.013523,0.002678,0.000431,0.027972
152707000,0.0324,0.013523,0.002678,0.000431,0.018922
152708000,0.0324,0.013523,0.002678,0.000431,0.019510
152709000,0.0324,0.013523,0.002678,0.000431,0.018217
152710000,0.0324,0.013523,0.002678,0.000431,0.016454
152711000,0.0324,0.013523,0.002678,0.000431,0.018099
152712000,0.0324,0.013523,0.002678,0.000431,0.015866
152713000,0.0324,0.013523,0.002678,0.000431,0.015044
152714000,0.0324,0.013523,0.002678,0.000431,0.013163
152715000,0.0324,0.013523,0.002678,0.000431,0.014809
152716000,0.0324,0.013523,0.002678,0.000431,0.012105
152717000,0.0324,0.013523,0.002678,0.000431,0.011518
152718000,0.0324,0.013523,0.002678,0.000431,0.010695
152719000,0.0324,0.013523,0.002678,0.000431,0.008580
152720000,0.0324,0.013523,0.002678,0.000431,0.012811
152721000,0.0324,0.013523,0.002678,0.000431,0.007169
152722000,0.0324,0.013523,0.002678,0.000431,0.007639
152723000,0.0324,0.013523,0.002678,0.000431,0.007169
152724000,0.0324,0.013523,0.002678,0.000431,0.005406
152725000,0.0324,0.013523,0.002678,0.000431,0.006934
152726000,0.0324,0.013523,0.002678,0.000431,0.008932
152727000,0.0324,0.013523,0.002678,0.000431,0.001880
152728000,0.0324,0.013523,0.002678,0.000431,0.002703
152729000,0.0324,0.013523,0.002678,0.000431,0.002233
152730000,0.0324,0.013523,0.002678,0.000431,0.000940
152731000,0.0324,0.013523,0.002678,0.000431,0.000823
152732000,0.0324,0.013523,0.002678,0.000431,0.000823
152733000,0.0324,0.013523,0.002678,0.000431,0.000940
152734000,0.0324,0.013523,0.002678,0.000431,0.000940
152735000,0.0324,0.013523,0.002678,0.000431,0.000823
152736000,0.0324,0.013523,0.002678,0.000431,0.000823
152737000,0.0324,0.013523,0.002678,0.000431,0.000940
152738000,0.0324,0.013523,0.002678,0.000431,0.000940
152739000,0.0324,0.013523,0.002678,0.000431,0.000940
152740000,0.0324,0.013523,0.002678,0.000431,0.000823
152741000,0.0324,0.013523,0.002678,0.000431,0.000823
152742000,0.0324,0.013523,0.002678,0.000431,0.000940
152743000,0.0324,0.013523,0.002678,0.000431,0.000940
152744000,0.0324,0.013523,0.002678,0.000431,0.000705
152745000,0.0324,0.013523,0.002678,0.000431,0.000940
152746000,0.0324,0.013523,0.002678,0.000431,0.000940
152747000,0.0324,0.013523,0.002678,0.000431,0.000940
152748000,0.0324,0.013523,0.002678,0.000431,0.000705
152749000,0.0324,0.013523,0.002678,0.000431,0.000940
152750000,0.0324,0.013523,0.002678,0.000431,0.000940
152751000,0.0324,0.013523,0.002678,0.000431,0.000823
152752000,0.0324,0.013523,0.002678,0.000431,0.000940
152753000,0.0324,0.013523,0.002678,0.000431,0.000823
152754000,0.0324,0.013523,0.002678,0.000431,0.000940
152755000,0.0324,0.013523,0.002678,0.000431,0.000823
152756000,0.0324,0.013523,0.002678,0.000431,0.000823
152757000,0.0324,0.013523,0.002678,0.000431,0.000940
152758000,0.0324,0.013523,0.002678,0.000431,0.000823
152759000,0.0324,0.013523,0.002678,0.000431,0.000823
152760000,0.0324,0.013523,0.002678,0.000431,0.000940
152761000,0.0324,0.013523,0.002678,0.000431,0.000940
152762000,0.0324,0.013523,0.002678,0.000431,0.000940
152763000,0.0324,0.013523,0.002678,0.000431,0.000705
152764000,0.0324,0.013523,0.002678,0.000431,0.000940
152765000,0.0324,0.013523,0.002678,0.000431,0.000940
152766000,0.0324,0.013523,0.002678,0.000431,0.003056
152767000,0.0324,0.013523,0.002678,0.000431,0.514421
152768000,0.0324,0.013523,0.002678,0.000431,0.696590
152769000,0.0324,0.013523,0.002678,0.000431,0.135510
152770000,0.0324,0.013523,0.002678,0.000431,0.154197
152771000,0.0324,0.013523,0.002678,0.000431,0.534518
152772000,0.0324,0.013523,0.002678,0.000431,0.251275
152773000,0.0324,0.013523,0.002678,0.000431,0.276661
152774000,0.0324,0.013523,0.002678,0.000431,0.265144
152775000,0.0324,0.013523,0.002678,0.000431,0.143972
152776000,0.0324,0.013523,0.002678,0.000431,0.160308
152777000,0.0324,0.013523,0.002678,0.000431,0.180758
152778000,0.0324,0.013523,0.002678,0.000431,0.504431
152779000,0.0324,0.013523,0.002678,0.000431,0.220248
152780000,0.0324,0.013523,0.002678,0.000431,0.185459
152781000,0.0324,0.013523,0.002678,0.000431,0.163717
152782000,0.0324,0.013523,0.002678,0.000431,0.145970
152783000,0.0324,0.013523,0.002678,0.000431,0.116705
152784000,0.0324,0.013523,0.002678,0.000431,0.106598
152785000,0.0324,0.013523,0.002678,0.000431,0.099194
152786000,0.0324,0.013523,0.002678,0.000431,0.079332
152787000,0.0324,0.013523,0.002678,0.000431,0.076276
152788000,0.0324,0.013523,0.002678,0.000431,0.066874
152789000,0.0324,0.013523,0.002678,0.000431,0.069812
152790000,0.0324,0.013523,0.002678,0.000431,0.060057
152791000,0.0324,0.013523,0.002678,0.000431,0.053945
152792000,0.0324,0.013523,0.002678,0.000431,0.039725
152793000,0.0324,0.013523,0.002678,0.000431,0.040665
152794000,0.0324,0.013523,0.002678,0.000431,0.036551
152795000,0.0324,0.013523,0.002678,0.000431,0.034318
152796000,0.0324,0.013523,0.002678,0.000431,0.033613
152797000,0.0324,0.013523,0.002678,0.000431,0.028559
152798000,0.0324,0.013523,0.002678,0.000431,0.025269
152799000,0.0324,0.013523,0.002678,0.000431,0.024916
152800000,0.0324,0.013523,0.002678,0.000431,0.020215
152801000,0.0324,0.013523,0.002678,0.000431,0.023388
152802000,0.0324,0.013523,0.002678,0.000431,0.019862
152803000,0.0324,0.013523,0.002678,0.000431,0.021273
152804000,0.0324,0.013523,0.002678,0.000431,0.020097
152805000,0.0324,0.013523,0.002678,0.000431,0.017042
152806000,0.0324,0.013523,0.002678,0.000431,0.018687
152807000,0.0324,0.013523,0.002678,0.000431,0.019862
152808000,0.0324,0.013523,0.002678,0.000431,0.018922
152809000,0.0324,0.013523,0.002678,0.000431,0.016101
152810000,0.0324,0.013523,0.002678,0.000431,0.014221
152811000,0.0324,0.013523,0.002678,0.000431,0.013281
152812000,0.0324,0.013523,0.002678,0.000431,0.013633
152813000,0.0324,0.013523,0.002678,0.000431,0.012576
152814000,0.0324,0.013523,0.002678,0.000431,0.016924
152815000,0.0324,0.013523,0.002678,0.000431,0.011048
152816000,0.0324,0.013523,0.002678,0.000431,0.012105
152817000,0.0324,0.013523,0.002678,0.000431,0.013398
152818000,0.0324,0.013523,0.002678,0.000431,0.010342
152819000,0.0324,0.013523,0.002678,0.000431,0.009990
152820000,0.0324,0.013523,0.002678,0.000431,0.009872
152821000,0.0324,0.013523,0.002678,0.000431,0.011400
152822000,0.0324,0.013523,0.002678,0.000431,0.007522
152823000,0.0324,0.013523,0.002678,0.000431,0.007169
152824000,0.0324,0.013523,0.002678,0.000431,0.007992
152825000,0.0324,0.013523,0.002678,0.000431,0.010107
152826000,0.0324,0.013523,0.002678,0.000431,0.006699
152827000,0.0324,0.013523,0.002678,0.000431,0.006699
152828000,0.0324,0.013523,0.002678,0.000431,0.006347
152829000,0.0324,0.013523,0.002678,0.000431,0.006699
152830000,0.0324,0.013523,0.002678,0.000431,0.006699
152831000,0.0324,0.013523,0.002678,0.000431,0.006582
152832000,0.0324,0.013523,0.002678,0.000431,0.006699
152833000,0.0324,0.013523,0.002678,0.000431,0.006229
152834000,0.0324,0.013523,0.002678,0.000431,0.006699
152835000,0.0324,0.013523,0.002678,0.000431,0.006699
152836000,0.0324,0.013523,0.002678,0.000431,0.006582
152837000,0.0324,0.013523,0.002678,0.000431,0.008697
152838000,0.0324,0.013523,0.002678,0.000431,0.005289
152839000,0.0324,0.013523,0.002678,0.000431,0.009872
152840000,0.0324,0.013523,0.002678,0.000431,0.003408
152841000,0.0324,0.013523,0.002678,0.000431,0.003291
152842000,0.0324,0.013523,0.002678,0.000431,0.003408
152843000,0.0324,0.013523,0.002678,0.000431,0.003056
152844000,0.0324,0.013523,0.002678,0.000431,0.003526
152845000,0.0324,0.013523,0.002678,0.000431,0.003408
152846000,0.0324,0.013523,0.002678,0.000431,0.003408
152847000,0.0324,0.013523,0.002678,0.000431,0.003173
152848000,0.0324,0.013523,0.002678,0.000431,0.003408
152849000,0.0324,0.013523,0.002678,0.000431,0.003408
152850000,0.0324,0.013523,0.002678,0.000431,0.005406
152851000,0.0324,0.013523,0.002678,0.000431,0.002821
152852000,0.0324,0.013523,0.002678,0.000431,0.002233
152853000,0.0324,0.013523,0.002678,0.000431,0.002586
152854000,0.0324,0.013523,0.002678,0.000431,0.002351
152855000,0.0324,0.013523,0.002678,0.000431,0.002821
152856000,0.0324,0.013523,0.002678,0.000431,0.002468
152857000,0.0324,0.013523,0.002678,0.000431,0.002468
152858000,0.0324,0.013523,0.002678,0.000431,0.002351
152859000,0.0324,0.013523,0.002678,0.000431,0.002586
152860000,0.0324,0.013523,0.002678,0.000431,0.002703
152861000,0.0324,0.013523,0.002678,0.000431,0.002233
152862000,0.0324,0.013523,0.002678,0.000431,0.002821
152863000,0.0324,0.013523,0.002678,0.000431,0.002116
152864000,0.0324,0.013523,0.002678,0.000431,0.002703
152865000,0.0324,0.013523,0.002678,0.000431,0.002586
152866000,0.0324,0.013523,0.002678,0.000431,0.002468
152867000,0.0324,0.013523,0.002678,0.000431,0.002468
152868000,0.0324,0.013523,0.002678,0.000431,0.002468
152869000,0.0324,0.013523,0.002678,0.000431,0.002468
152870000,0.0324,0.013523,0.002678,0.000431,0.002468
152871000,0.0324,0.013523,0.002678,0.000431,0.002586
152872000,0.0324,0.013523,0.002678,0.000431,0.002351
152873000,0.0324,0.013523,0.002678,0.000431,0.002821
152874000,0.0324,0.013523,0.002678,0.000431,0.002116
152875000,0.0324,0.013523,0.002678,0.000431,0.002821
152876000,0.0324,0.013523,0.002678,0.000431,0.002233
152877000,0.0324,0.013523,0.002678,0.000431,0.002938
152878000,0.0324,0.013523,0.002678,0.000431,0.002703
152879000,0.0324,0.013523,0.002678,0.000431,0.002233
152880000,0.0324,0.013523,0.002678,0.000431,0.005054
152881000,0.0324,0.013523,0.002678,0.000431,0.001410
152882000,0.0324,0.013523,0.002678,0.000431,0.001880
152883000,0.0324,0.013523,0.002678,0.000431,0.001645
152884000,0.0324,0.013523,0.002678,0.000431,0.001645
152885000,0.0324,0.013523,0.002678,0.000431,0.001645
152886000,0.0324,0.013523,0.002678,0.000431,0.001410
152887000,0.0324,0.013523,0.002678,0.000431,0.001645
152888000,0.0324,0.013523,0.002678,0.000431,0.001175
152889000,0.0324,0.013523,0.002678,0.000431,0.001763
152890000,0.0324,0.013523,0.002678,0.000431,0.001528
152891000,0.0324,0.013523,0.002678,0.000431,0.001410
152892000,0.0324,0.013523,0.002678,0.000431,0.001645
152893000,0.0324,0.013523,0.002678,0.000431,0.001528
152894000,0.0324,0.013523,0.002678,0.000431,0.001528
152895000,0.0324,0.013523,0.002678,0.000431,0.001645
152896000,0.0324,0.013523,0.002678,0.000431,0.001293
152897000,0.0324,0.013523,0.002678,0.000431,0.001763
152898000,0.0324,0.013523,0.002678,0.000431,0.001645
152899000,0.0324,0.013523,0.002678,0.000431,0.001175
152900000,0.0324,0.013523,0.002678,0.000431,0.001763
152901000,0.0324,0.013523,0.002678,0.000431,0.001763
152902000,0.0324,0.013523,0.002678,0.000431,0.001175
152903000,0.0324,0.013523,0.002678,0.000431,0.001645
152904000,0.0324,0.013523,0.002678,0.000431,0.001528
152905000,0.0324,0.013523,0.002678,0.000431,0.001528
152906000,0.0324,0.013523,0.002678,0.000431,0.001645
152907000,0.0324,0.013523,0.002678,0.000431,0.001293
152908000,0.0324,0.013523,0.002678,0.000431,0.001763
152909000,0.0324,0.013523,0.002678,0.000431,0.001645
152910000,0.0324,0.013523,0.002678,0.000431,0.001410
152911000,0.0324,0.013523,0.002678,0.000431,0.001528
152912000,0.0324,0.013523,0.002678,0.000431,0.001763
152913000,0.0324,0.013523,0.002678,0.000431,0.001410
152914000,0.0324,0.013523,0.002678,0.000431,0.001058
152915000,0.0324,0.013523,0.002678,0.000431,0.000823
152916000,0.0324,0.013523,0.002678,0.000431,0.000940
152917000,0.0324,0.013523,0.002678,0.000431,0.000823
152918000,0.0324,0.013523,0.002678,0.000431,0.000823
152919000,0.0324,0.013523,0.002678,0.000431,0.000823
152920000,0.0324,0.013523,0.002678,0.000431,0.000705
152921000,0.0324,0.013523,0.002678,0.000431,0.000940
152922000,0.0324,0.013523,0.002678,0.000431,0.000940
152923000,0.0324,0.013523,0.002678,0.000431,0.000705
152924000,0.0324,0.013523,0.002678,0.000431,0.000940
152925000,0.0324,0.013523,0.002678,0.000431,0.000705
152926000,0.0324,0.013523,0.002678,0.000431,0.000940
152927000,0.0324,0.013523,0.002678,0.000431,0.000940
152928000,0.0324,0.013523,0.002678,0.000431,0.000705
152929000,0.0324,0.013523,0.002678,0.000431,0.000940
152930000,0.0324,0.013523,0.002678,0.000431,0.000823
152931000,0.0324,0.013523,0.002678,0.000431,0.000823
152932000,0.0324,0.013523,0.002678,0.000431,0.000940
152933000,0.0324,0.013523,0.002678,0.000431,0.000940
152934000,0.0324,0.013523,0.002678,0.000431,0.000940
152935000,0.0324,0.013523,0.002678,0.000431,0.000705
152936000,0.0324,0.013523,0.002678,0.000431,0.000940
152937000,0.0324,0.013523,0.002678,0.000431,0.000940
152938000,0.0324,0.013523,0.002678,0.000431,0.000823
152939000,0.0324,0.013523,0.002678,0.000431,0.000823
152940000,0.0324,0.013523,0.002678,0.000431,0.000940
152941000,0.0324,0.013523,0.002678,0.000431,0.000705
152942000,0.0324,0.013523,0.002678,0.000431,0.000940
152943000,0.0324,0.013523,0.002678,0.000431,0.000823
152944000,0.0324,0.013523,0.002678,0.000431,0.000823
152945000,0.0324,0.013523,0.002678,0.000431,0.000940
152946000,0.0324,0.013523,0.002678,0.000431,0.000823
152947000,0.0324,0.013523,0.002678,0.000431,0.000823
152948000,0.0324,0.013523,0.002678,0.000431,0.000940
152949000,0.0324,0.013523,0.002678,0.000431,0.000705
152950000,0.0324,0.013523,0.002678,0.000431,0.000940
152951000,0.0324,0.013523,0.002678,0.000431,0.000823
152952000,0.0324,0.013523,0.002678,0.000431,0.000823
152953000,0.0324,0.013523,0.002678,0.000431,0.000940
152954000,0.0324,0.013523,0.002678,0.000431,0.000823
152955000,0.0324,0.013523,0.002678,0.000431,0.000823
152956000,0.0324,0.013523,0.002678,0.000431,0.000940
152957000,0.0324,0.013523,0.002678,0.000431,0.000705
152958000,0.0324,0.013523,0.002678,0.000431,0.000940
152959000,0.0324,0.013523,0.002678,0.000431,0.000823
152960000,0.0324,0.013523,0.002678,0.000431,0.000823
152961000,0.0324,0.013523,0.002678,0.000431,0.000940
152962000,0.0324,0.013523,0.002678,0.000431,0.000823
152963000,0.0324,0.013523,0.002678,0.000431,0.000823
152964000,0.0324,0.013523,0.002678,0.000431,0.000940
152965000,0.0324,0.013523,0.002678,0.000431,0.000705
152966000,0.0324,0.013523,0.002678,0.000431,0.000940
152967000,0.0324,0.013523,0.002678,0.000431,0.000823
152968000,0.0324,0.013523,0.002678,0.000431,0.000823
152969000,0.0324,0.013523,0.002678,0.000431,0.000940
152970000,0.0324,0.013523,0.002678,0.000431,0.000823
152971000,0.0324,0.013523,0.002678,0.000431,0.000823
152972000,0.0324,0.013523,0.002678,0.000431,0.000940
152973000,0.0324,0.013523,0.002678,0.000431,0.000705
152974000,0.0324,0.013523,0.002678,0.000431,0.000940
152975000,0.0324,0.013523,0.002678,0.000431,0.000823
152976000,0.0324,0.013523,0.002678,0.000431,0.000823
152977000,0.0324,0.013523,0.002678,0.000431,0.000940
152978000,0.0324,0.013523,0.002678,0.000431,0.000823
152979000,0.0324,0.013523,0.002678,0.000431,0.000823
152980000,0.0324,0.013523,0.002678,0.000431,0.000823
152981000,0.0324,0.013523,0.002678,0.000431,0.000823
152982000,0.0324,0.013523,0.002678,0.000431,0.000940
152983000,0.0324,0.013523,0.002678,0.000431,0.000823
152984000,0.0324,0.013523,0.002678,0.000431,0.000823
152985000,0.0324,0.013523,0.002678,0.000431,0.000940
152986000,0.0324,0.013523,0.002678,0.000431,0.000823
152987000,0.0324,0.013523,0.002678,0.000431,0.000823
152988000,0.0324,0.013523,0.002678,0.000431,0.000823
152989000,0.0324,0.013523,0.002678,0.000431,0.000823
152990000,0.0324,0.013523,0.002678,0.000431,0.000940
152991000,0.0324,0.013523,0.002678,0.000431,0.000823
152992000,0.0324,0.013523,0.002678,0.000431,0.000823
152993000,0.0324,0.013523,0.002678,0.000431,0.000940
152994000,0.0324,0.013523,0.002678,0.000431,0.000705
152995000,0.0324,0.013523,0.002678,0.000431,0.000940
152996000,0.0324,0.013523,0.002678,0.000431,0.000823
152997000,0.0324,0.013523,0.002678,0.000431,0.000823
152998000,0.0324,0.013523,0.002678,0.000431,0.000940
152999000,0.0324,0.013523,0.002678,0.000431,0.000823
