Cycle,Area(mm^2),PeakDynamic(W),SubthresholdLeakage(W),GateLeakage(W),RunTimeDynamic(W)
37000000,0.0324,0.013523,0.002678,0.000431,0.000823
37001000,0.0324,0.013523,0.002678,0.000431,0.000823
37002000,0.0324,0.013523,0.002678,0.000431,0.000940
37003000,0.0324,0.013523,0.002678,0.000431,0.000705
37004000,0.0324,0.013523,0.002678,0.000431,0.000940
37005000,0.0324,0.013523,0.002678,0.000431,0.000823
37006000,0.0324,0.013523,0.002678,0.000431,0.000823
37007000,0.0324,0.013523,0.002678,0.000431,0.000823
37008000,0.0324,0.013523,0.002678,0.000431,0.000823
37009000,0.0324,0.013523,0.002678,0.000431,0.000823
37010000,0.0324,0.013523,0.002678,0.000431,0.000823
37011000,0.0324,0.013523,0.002678,0.000431,0.000823
37012000,0.0324,0.013523,0.002678,0.000431,0.000823
37013000,0.0324,0.013523,0.002678,0.000431,0.000940
37014000,0.0324,0.013523,0.002678,0.000431,0.000823
37015000,0.0324,0.013523,0.002678,0.000431,0.000823
37016000,0.0324,0.013523,0.002678,0.000431,0.000705
37017000,0.0324,0.013523,0.002678,0.000431,0.000940
37018000,0.0324,0.013523,0.002678,0.000431,0.000940
37019000,0.0324,0.013523,0.002678,0.000431,0.000705
37020000,0.0324,0.013523,0.002678,0.000431,0.000940
37021000,0.0324,0.013523,0.002678,0.000431,0.000705
37022000,0.0324,0.013523,0.002678,0.000431,0.000940
37023000,0.0324,0.013523,0.002678,0.000431,0.000823
37024000,0.0324,0.013523,0.002678,0.000431,0.000823
37025000,0.0324,0.013523,0.002678,0.000431,0.000940
37026000,0.0324,0.013523,0.002678,0.000431,0.000705
37027000,0.0324,0.013523,0.002678,0.000431,0.000940
37028000,0.0324,0.013523,0.002678,0.000431,0.000823
37029000,0.0324,0.013523,0.002678,0.000431,0.000823
37030000,0.0324,0.013523,0.002678,0.000431,0.000823
37031000,0.0324,0.013523,0.002678,0.000431,0.002116
37032000,0.0324,0.013523,0.002678,0.000431,0.388901
37033000,0.0324,0.013523,0.002678,0.000431,0.717745
37034000,0.0324,0.013523,0.002678,0.000431,0.147145
37035000,0.0324,0.013523,0.002678,0.000431,0.134922
37036000,0.0324,0.013523,0.002678,0.000431,0.174412
37037000,0.0324,0.013523,0.002678,0.000431,0.633359
37038000,0.0324,0.013523,0.002678,0.000431,0.236702
37039000,0.0324,0.013523,0.002678,0.000431,0.298522
37040000,0.0324,0.013523,0.002678,0.000431,0.196037
37041000,0.0324,0.013523,0.002678,0.000431,0.138331
37042000,0.0324,0.013523,0.002678,0.000431,0.141504
37043000,0.0324,0.013523,0.002678,0.000431,0.234469
37044000,0.0324,0.013523,0.002678,0.000431,0.385963
37045000,0.0324,0.013523,0.002678,0.000431,0.089086
37046000,0.0324,0.013523,0.002678,0.000431,0.066521
37047000,0.0324,0.013523,0.002678,0.000431,0.047951
37048000,0.0324,0.013523,0.002678,0.000431,0.044661
37049000,0.0324,0.013523,0.002678,0.000431,0.035729
37050000,0.0324,0.013523,0.002678,0.000431,0.033966
37051000,0.0324,0.013523,0.002678,0.000431,0.028677
37052000,0.0324,0.013523,0.002678,0.000431,0.024328
37053000,0.0324,0.013523,0.002678,0.000431,0.022918
37054000,0.0324,0.013523,0.002678,0.000431,0.022565
37055000,0.0324,0.013523,0.002678,0.000431,0.019627
37056000,0.0324,0.013523,0.002678,0.000431,0.016807
37057000,0.0324,0.013523,0.002678,0.000431,0.016336
37058000,0.0324,0.013523,0.002678,0.000431,0.018687
37059000,0.0324,0.013523,0.002678,0.000431,0.014103
37060000,0.0324,0.013523,0.002678,0.000431,0.018099
37061000,0.0324,0.013523,0.002678,0.000431,0.014573
37062000,0.0324,0.013523,0.002678,0.000431,0.011165
37063000,0.0324,0.013523,0.002678,0.000431,0.010695
37064000,0.0324,0.013523,0.002678,0.000431,0.013633
37065000,0.0324,0.013523,0.002678,0.000431,0.008697
37066000,0.0324,0.013523,0.002678,0.000431,0.009990
37067000,0.0324,0.013523,0.002678,0.000431,0.010578
37068000,0.0324,0.013523,0.002678,0.000431,0.008932
37069000,0.0324,0.013523,0.002678,0.000431,0.007874
37070000,0.0324,0.013523,0.002678,0.000431,0.008227
37071000,0.0324,0.013523,0.002678,0.000431,0.010695
37072000,0.0324,0.013523,0.002678,0.000431,0.006229
37073000,0.0324,0.013523,0.002678,0.000431,0.008462
37074000,0.0324,0.013523,0.002678,0.000431,0.007522
37075000,0.0324,0.013523,0.002678,0.000431,0.006699
37076000,0.0324,0.013523,0.002678,0.000431,0.005994
37077000,0.0324,0.013523,0.002678,0.000431,0.005524
37078000,0.0324,0.013523,0.002678,0.000431,0.005994
37079000,0.0324,0.013523,0.002678,0.000431,0.005759
37080000,0.0324,0.013523,0.002678,0.000431,0.005876
37081000,0.0324,0.013523,0.002678,0.000431,0.005641
37082000,0.0324,0.013523,0.002678,0.000431,0.005994
37083000,0.0324,0.013523,0.002678,0.000431,0.005641
37084000,0.0324,0.013523,0.002678,0.000431,0.005524
37085000,0.0324,0.013523,0.002678,0.000431,0.005171
37086000,0.0324,0.013523,0.002678,0.000431,0.005406
37087000,0.0324,0.013523,0.002678,0.000431,0.004819
37088000,0.0324,0.013523,0.002678,0.000431,0.005171
37089000,0.0324,0.013523,0.002678,0.000431,0.006464
37090000,0.0324,0.013523,0.002678,0.000431,0.005171
37091000,0.0324,0.013523,0.002678,0.000431,0.002468
37092000,0.0324,0.013523,0.002678,0.000431,0.002586
37093000,0.0324,0.013523,0.002678,0.000431,0.002468
37094000,0.0324,0.013523,0.002678,0.000431,0.002586
37095000,0.0324,0.013523,0.002678,0.000431,0.004113
37096000,0.0324,0.013523,0.002678,0.000431,0.001645
37097000,0.0324,0.013523,0.002678,0.000431,0.001763
37098000,0.0324,0.013523,0.002678,0.000431,0.001528
37099000,0.0324,0.013523,0.002678,0.000431,0.001763
37100000,0.0324,0.013523,0.002678,0.000431,0.001645
37101000,0.0324,0.013523,0.002678,0.000431,0.001645
37102000,0.0324,0.013523,0.002678,0.000431,0.001645
37103000,0.0324,0.013523,0.002678,0.000431,0.001645
37104000,0.0324,0.013523,0.002678,0.000431,0.001763
37105000,0.0324,0.013523,0.002678,0.000431,0.001645
37106000,0.0324,0.013523,0.002678,0.000431,0.001763
37107000,0.0324,0.013523,0.002678,0.000431,0.001645
37108000,0.0324,0.013523,0.002678,0.000431,0.001528
37109000,0.0324,0.013523,0.002678,0.000431,0.001763
37110000,0.0324,0.013523,0.002678,0.000431,0.001763
37111000,0.0324,0.013523,0.002678,0.000431,0.001528
37112000,0.0324,0.013523,0.002678,0.000431,0.001763
37113000,0.0324,0.013523,0.002678,0.000431,0.001528
37114000,0.0324,0.013523,0.002678,0.000431,0.001763
37115000,0.0324,0.013523,0.002678,0.000431,0.001763
37116000,0.0324,0.013523,0.002678,0.000431,0.001645
37117000,0.0324,0.013523,0.002678,0.000431,0.001763
37118000,0.0324,0.013523,0.002678,0.000431,0.003173
37119000,0.0324,0.013523,0.002678,0.000431,0.000940
37120000,0.0324,0.013523,0.002678,0.000431,0.000940
37121000,0.0324,0.013523,0.002678,0.000431,0.000705
37122000,0.0324,0.013523,0.002678,0.000431,0.000940
37123000,0.0324,0.013523,0.002678,0.000431,0.000705
37124000,0.0324,0.013523,0.002678,0.000431,0.000940
37125000,0.0324,0.013523,0.002678,0.000431,0.000823
37126000,0.0324,0.013523,0.002678,0.000431,0.000823
37127000,0.0324,0.013523,0.002678,0.000431,0.000940
37128000,0.0324,0.013523,0.002678,0.000431,0.000705
37129000,0.0324,0.013523,0.002678,0.000431,0.000940
37130000,0.0324,0.013523,0.002678,0.000431,0.000823
37131000,0.0324,0.013523,0.002678,0.000431,0.000823
37132000,0.0324,0.013523,0.002678,0.000431,0.000823
37133000,0.0324,0.013523,0.002678,0.000431,0.000823
37134000,0.0324,0.013523,0.002678,0.000431,0.000940
37135000,0.0324,0.013523,0.002678,0.000431,0.000705
37136000,0.0324,0.013523,0.002678,0.000431,0.000940
37137000,0.0324,0.013523,0.002678,0.000431,0.000823
37138000,0.0324,0.013523,0.002678,0.000431,0.000823
37139000,0.0324,0.013523,0.002678,0.000431,0.000823
37140000,0.0324,0.013523,0.002678,0.000431,0.000823
37141000,0.0324,0.013523,0.002678,0.000431,0.000705
37142000,0.0324,0.013523,0.002678,0.000431,0.000940
37143000,0.0324,0.013523,0.002678,0.000431,0.000940
37144000,0.0324,0.013523,0.002678,0.000431,0.000705
37145000,0.0324,0.013523,0.002678,0.000431,0.000940
37146000,0.0324,0.013523,0.002678,0.000431,0.000705
37147000,0.0324,0.013523,0.002678,0.000431,0.000940
37148000,0.0324,0.013523,0.002678,0.000431,0.000940
37149000,0.0324,0.013523,0.002678,0.000431,0.000705
37150000,0.0324,0.013523,0.002678,0.000431,0.000940
37151000,0.0324,0.013523,0.002678,0.000431,0.000705
37152000,0.0324,0.013523,0.002678,0.000431,0.000940
37153000,0.0324,0.013523,0.002678,0.000431,0.000823
37154000,0.0324,0.013523,0.002678,0.000431,0.000823
37155000,0.0324,0.013523,0.002678,0.000431,0.000823
37156000,0.0324,0.013523,0.002678,0.000431,0.000823
37157000,0.0324,0.013523,0.002678,0.000431,0.000940
37158000,0.0324,0.013523,0.002678,0.000431,0.000705
37159000,0.0324,0.013523,0.002678,0.000431,0.000940
37160000,0.0324,0.013523,0.002678,0.000431,0.000823
37161000,0.0324,0.013523,0.002678,0.000431,0.000705
37162000,0.0324,0.013523,0.002678,0.000431,0.000940
37163000,0.0324,0.013523,0.002678,0.000431,0.000823
37164000,0.0324,0.013523,0.002678,0.000431,0.000823
37165000,0.0324,0.013523,0.002678,0.000431,0.000823
37166000,0.0324,0.013523,0.002678,0.000431,0.000823
37167000,0.0324,0.013523,0.002678,0.000431,0.000823
37168000,0.0324,0.013523,0.002678,0.000431,0.000940
37169000,0.0324,0.013523,0.002678,0.000431,0.000823
37170000,0.0324,0.013523,0.002678,0.000431,0.000823
37171000,0.0324,0.013523,0.002678,0.000431,0.000705
37172000,0.0324,0.013523,0.002678,0.000431,0.000940
37173000,0.0324,0.013523,0.002678,0.000431,0.000940
37174000,0.0324,0.013523,0.002678,0.000431,0.000705
37175000,0.0324,0.013523,0.002678,0.000431,0.000940
37176000,0.0324,0.013523,0.002678,0.000431,0.000705
37177000,0.0324,0.013523,0.002678,0.000431,0.000940
37178000,0.0324,0.013523,0.002678,0.000431,0.000823
37179000,0.0324,0.013523,0.002678,0.000431,0.000823
37180000,0.0324,0.013523,0.002678,0.000431,0.000940
37181000,0.0324,0.013523,0.002678,0.000431,0.000705
37182000,0.0324,0.013523,0.002678,0.000431,0.000940
37183000,0.0324,0.013523,0.002678,0.000431,0.000823
37184000,0.0324,0.013523,0.002678,0.000431,0.000823
37185000,0.0324,0.013523,0.002678,0.000431,0.000823
37186000,0.0324,0.013523,0.002678,0.000431,0.000823
37187000,0.0324,0.013523,0.002678,0.000431,0.000823
37188000,0.0324,0.013523,0.002678,0.000431,0.000823
37189000,0.0324,0.013523,0.002678,0.000431,0.000940
37190000,0.0324,0.013523,0.002678,0.000431,0.000705
37191000,0.0324,0.013523,0.002678,0.000431,0.000940
37192000,0.0324,0.013523,0.002678,0.000431,0.000823
37193000,0.0324,0.013523,0.002678,0.000431,0.000823
37194000,0.0324,0.013523,0.002678,0.000431,0.000823
37195000,0.0324,0.013523,0.002678,0.000431,0.000823
37196000,0.0324,0.013523,0.002678,0.000431,0.000940
37197000,0.0324,0.013523,0.002678,0.000431,0.000705
37198000,0.0324,0.013523,0.002678,0.000431,0.000940
37199000,0.0324,0.013523,0.002678,0.000431,0.000705
37200000,0.0324,0.013523,0.002678,0.000431,0.000940
37201000,0.0324,0.013523,0.002678,0.000431,0.000940
37202000,0.0324,0.013523,0.002678,0.000431,0.000705
37203000,0.0324,0.013523,0.002678,0.000431,0.000940
37204000,0.0324,0.013523,0.002678,0.000431,0.000705
37205000,0.0324,0.013523,0.002678,0.000431,0.000940
37206000,0.0324,0.013523,0.002678,0.000431,0.000823
37207000,0.0324,0.013523,0.002678,0.000431,0.000823
37208000,0.0324,0.013523,0.002678,0.000431,0.000823
37209000,0.0324,0.013523,0.002678,0.000431,0.000823
37210000,0.0324,0.013523,0.002678,0.000431,0.000940
37211000,0.0324,0.013523,0.002678,0.000431,0.000705
37212000,0.0324,0.013523,0.002678,0.000431,0.000940
37213000,0.0324,0.013523,0.002678,0.000431,0.000823
37214000,0.0324,0.013523,0.002678,0.000431,0.000823
37215000,0.0324,0.013523,0.002678,0.000431,0.000823
37216000,0.0324,0.013523,0.002678,0.000431,0.000823
37217000,0.0324,0.013523,0.002678,0.000431,0.000823
37218000,0.0324,0.013523,0.002678,0.000431,0.000823
37219000,0.0324,0.013523,0.002678,0.000431,0.000823
37220000,0.0324,0.013523,0.002678,0.000431,0.000823
37221000,0.0324,0.013523,0.002678,0.000431,0.000940
37222000,0.0324,0.013523,0.002678,0.000431,0.000823
37223000,0.0324,0.013523,0.002678,0.000431,0.000823
37224000,0.0324,0.013523,0.002678,0.000431,0.000705
37225000,0.0324,0.013523,0.002678,0.000431,0.000940
37226000,0.0324,0.013523,0.002678,0.000431,0.000940
37227000,0.0324,0.013523,0.002678,0.000431,0.000705
37228000,0.0324,0.013523,0.002678,0.000431,0.000940
37229000,0.0324,0.013523,0.002678,0.000431,0.000705
37230000,0.0324,0.013523,0.002678,0.000431,0.000940
37231000,0.0324,0.013523,0.002678,0.000431,0.000823
37232000,0.0324,0.013523,0.002678,0.000431,0.000823
37233000,0.0324,0.013523,0.002678,0.000431,0.000940
37234000,0.0324,0.013523,0.002678,0.000431,0.000705
37235000,0.0324,0.013523,0.002678,0.000431,0.000940
37236000,0.0324,0.013523,0.002678,0.000431,0.000823
37237000,0.0324,0.013523,0.002678,0.000431,0.000823
37238000,0.0324,0.013523,0.002678,0.000431,0.000823
37239000,0.0324,0.013523,0.002678,0.000431,0.000823
37240000,0.0324,0.013523,0.002678,0.000431,0.000823
37241000,0.0324,0.013523,0.002678,0.000431,0.000823
37242000,0.0324,0.013523,0.002678,0.000431,0.000940
37243000,0.0324,0.013523,0.002678,0.000431,0.000705
37244000,0.0324,0.013523,0.002678,0.000431,0.000940
37245000,0.0324,0.013523,0.002678,0.000431,0.000823
37246000,0.0324,0.013523,0.002678,0.000431,0.014103
37247000,0.0324,0.013523,0.002678,0.000431,0.548739
37248000,0.0324,0.013523,0.002678,0.000431,0.593400
37249000,0.0324,0.013523,0.002678,0.000431,0.134452
37250000,0.0324,0.013523,0.002678,0.000431,0.131632
37251000,0.0324,0.013523,0.002678,0.000431,0.411936
37252000,0.0324,0.013523,0.002678,0.000431,0.354818
37253000,0.0324,0.013523,0.002678,0.000431,0.250218
37254000,0.0324,0.013523,0.002678,0.000431,0.290765
37255000,0.0324,0.013523,0.002678,0.000431,0.162777
37256000,0.0324,0.013523,0.002678,0.000431,0.149731
37257000,0.0324,0.013523,0.002678,0.000431,0.156312
37258000,0.0324,0.013523,0.002678,0.000431,0.182521
37259000,0.0324,0.013523,0.002678,0.000431,0.428508
37260000,0.0324,0.013523,0.002678,0.000431,0.088499
37261000,0.0324,0.013523,0.002678,0.000431,0.055238
37262000,0.0324,0.013523,0.002678,0.000431,0.052183
37263000,0.0324,0.013523,0.002678,0.000431,0.046424
37264000,0.0324,0.013523,0.002678,0.000431,0.037844
37265000,0.0324,0.013523,0.002678,0.000431,0.025739
37266000,0.0324,0.013523,0.002678,0.000431,0.018217
37267000,0.0324,0.013523,0.002678,0.000431,0.012928
37268000,0.0324,0.013523,0.002678,0.000431,0.011870
37269000,0.0324,0.013523,0.002678,0.000431,0.011870
37270000,0.0324,0.013523,0.002678,0.000431,0.011870
37271000,0.0324,0.013523,0.002678,0.000431,0.010813
37272000,0.0324,0.013523,0.002678,0.000431,0.012458
37273000,0.0324,0.013523,0.002678,0.000431,0.013281
37274000,0.0324,0.013523,0.002678,0.000431,0.009402
37275000,0.0324,0.013523,0.002678,0.000431,0.009167
37276000,0.0324,0.013523,0.002678,0.000431,0.009755
37277000,0.0324,0.013523,0.002678,0.000431,0.011518
37278000,0.0324,0.013523,0.002678,0.000431,0.008580
37279000,0.0324,0.013523,0.002678,0.000431,0.008227
37280000,0.0324,0.013523,0.002678,0.000431,0.008697
37281000,0.0324,0.013523,0.002678,0.000431,0.008697
37282000,0.0324,0.013523,0.002678,0.000431,0.008462
37283000,0.0324,0.013523,0.002678,0.000431,0.010107
37284000,0.0324,0.013523,0.002678,0.000431,0.008109
37285000,0.0324,0.013523,0.002678,0.000431,0.007639
37286000,0.0324,0.013523,0.002678,0.000431,0.014221
37287000,0.0324,0.013523,0.002678,0.000431,0.008580
37288000,0.0324,0.013523,0.002678,0.000431,0.003996
37289000,0.0324,0.013523,0.002678,0.000431,0.006464
37290000,0.0324,0.013523,0.002678,0.000431,0.001410
37291000,0.0324,0.013523,0.002678,0.000431,0.001880
37292000,0.0324,0.013523,0.002678,0.000431,0.001880
37293000,0.0324,0.013523,0.002678,0.000431,0.001410
37294000,0.0324,0.013523,0.002678,0.000431,0.001880
37295000,0.0324,0.013523,0.002678,0.000431,0.001528
37296000,0.0324,0.013523,0.002678,0.000431,0.001763
37297000,0.0324,0.013523,0.002678,0.000431,0.001763
37298000,0.0324,0.013523,0.002678,0.000431,0.002821
37299000,0.0324,0.013523,0.002678,0.000431,0.002351
37300000,0.0324,0.013523,0.002678,0.000431,0.000705
37301000,0.0324,0.013523,0.002678,0.000431,0.000940
37302000,0.0324,0.013523,0.002678,0.000431,0.000823
37303000,0.0324,0.013523,0.002678,0.000431,0.000823
37304000,0.0324,0.013523,0.002678,0.000431,0.000823
37305000,0.0324,0.013523,0.002678,0.000431,0.000823
37306000,0.0324,0.013523,0.002678,0.000431,0.000823
37307000,0.0324,0.013523,0.002678,0.000431,0.000823
37308000,0.0324,0.013523,0.002678,0.000431,0.000940
37309000,0.0324,0.013523,0.002678,0.000431,0.000705
37310000,0.0324,0.013523,0.002678,0.000431,0.000940
37311000,0.0324,0.013523,0.002678,0.000431,0.000823
37312000,0.0324,0.013523,0.002678,0.000431,0.000823
37313000,0.0324,0.013523,0.002678,0.000431,0.000705
37314000,0.0324,0.013523,0.002678,0.000431,0.000940
37315000,0.0324,0.013523,0.002678,0.000431,0.000940
37316000,0.0324,0.013523,0.002678,0.000431,0.000705
37317000,0.0324,0.013523,0.002678,0.000431,0.000940
37318000,0.0324,0.013523,0.002678,0.000431,0.000705
37319000,0.0324,0.013523,0.002678,0.000431,0.000940
37320000,0.0324,0.013523,0.002678,0.000431,0.000823
37321000,0.0324,0.013523,0.002678,0.000431,0.000823
37322000,0.0324,0.013523,0.002678,0.000431,0.000823
37323000,0.0324,0.013523,0.002678,0.000431,0.000823
37324000,0.0324,0.013523,0.002678,0.000431,0.000940
37325000,0.0324,0.013523,0.002678,0.000431,0.000705
37326000,0.0324,0.013523,0.002678,0.000431,0.000940
37327000,0.0324,0.013523,0.002678,0.000431,0.000705
37328000,0.0324,0.013523,0.002678,0.000431,0.000823
37329000,0.0324,0.013523,0.002678,0.000431,0.000940
37330000,0.0324,0.013523,0.002678,0.000431,0.000823
37331000,0.0324,0.013523,0.002678,0.000431,0.000823
37332000,0.0324,0.013523,0.002678,0.000431,0.000823
37333000,0.0324,0.013523,0.002678,0.000431,0.000823
37334000,0.0324,0.013523,0.002678,0.000431,0.000823
37335000,0.0324,0.013523,0.002678,0.000431,0.000940
37336000,0.0324,0.013523,0.002678,0.000431,0.000823
37337000,0.0324,0.013523,0.002678,0.000431,0.000823
37338000,0.0324,0.013523,0.002678,0.000431,0.000705
37339000,0.0324,0.013523,0.002678,0.000431,0.000940
37340000,0.0324,0.013523,0.002678,0.000431,0.000940
37341000,0.0324,0.013523,0.002678,0.000431,0.000705
37342000,0.0324,0.013523,0.002678,0.000431,0.000940
37343000,0.0324,0.013523,0.002678,0.000431,0.000705
37344000,0.0324,0.013523,0.002678,0.000431,0.000940
37345000,0.0324,0.013523,0.002678,0.000431,0.000823
37346000,0.0324,0.013523,0.002678,0.000431,0.000823
37347000,0.0324,0.013523,0.002678,0.000431,0.000823
37348000,0.0324,0.013523,0.002678,0.000431,0.000823
37349000,0.0324,0.013523,0.002678,0.000431,0.000940
37350000,0.0324,0.013523,0.002678,0.000431,0.000823
37351000,0.0324,0.013523,0.002678,0.000431,0.000823
37352000,0.0324,0.013523,0.002678,0.000431,0.000823
37353000,0.0324,0.013523,0.002678,0.000431,0.000823
37354000,0.0324,0.013523,0.002678,0.000431,0.000823
37355000,0.0324,0.013523,0.002678,0.000431,0.000823
37356000,0.0324,0.013523,0.002678,0.000431,0.000823
37357000,0.0324,0.013523,0.002678,0.000431,0.000823
37358000,0.0324,0.013523,0.002678,0.000431,0.000940
37359000,0.0324,0.013523,0.002678,0.000431,0.000705
37360000,0.0324,0.013523,0.002678,0.000431,0.000940
37361000,0.0324,0.013523,0.002678,0.000431,0.000705
37362000,0.0324,0.013523,0.002678,0.000431,0.000940
37363000,0.0324,0.013523,0.002678,0.000431,0.000940
37364000,0.0324,0.013523,0.002678,0.000431,0.000705
37365000,0.0324,0.013523,0.002678,0.000431,0.000940
37366000,0.0324,0.013523,0.002678,0.000431,0.000705
37367000,0.0324,0.013523,0.002678,0.000431,0.000940
37368000,0.0324,0.013523,0.002678,0.000431,0.000823
37369000,0.0324,0.013523,0.002678,0.000431,0.000823
37370000,0.0324,0.013523,0.002678,0.000431,0.000823
37371000,0.0324,0.013523,0.002678,0.000431,0.000823
37372000,0.0324,0.013523,0.002678,0.000431,0.000823
37373000,0.0324,0.013523,0.002678,0.000431,0.000823
37374000,0.0324,0.013523,0.002678,0.000431,0.000940
37375000,0.0324,0.013523,0.002678,0.000431,0.000823
37376000,0.0324,0.013523,0.002678,0.000431,0.000705
37377000,0.0324,0.013523,0.002678,0.000431,0.000940
37378000,0.0324,0.013523,0.002678,0.000431,0.000823
37379000,0.0324,0.013523,0.002678,0.000431,0.000823
37380000,0.0324,0.013523,0.002678,0.000431,0.000823
37381000,0.0324,0.013523,0.002678,0.000431,0.000823
37382000,0.0324,0.013523,0.002678,0.000431,0.000823
37383000,0.0324,0.013523,0.002678,0.000431,0.000940
37384000,0.0324,0.013523,0.002678,0.000431,0.000823
37385000,0.0324,0.013523,0.002678,0.000431,0.000823
37386000,0.0324,0.013523,0.002678,0.000431,0.000705
37387000,0.0324,0.013523,0.002678,0.000431,0.000940
37388000,0.0324,0.013523,0.002678,0.000431,0.000940
37389000,0.0324,0.013523,0.002678,0.000431,0.000705
37390000,0.0324,0.013523,0.002678,0.000431,0.000940
37391000,0.0324,0.013523,0.002678,0.000431,0.000705
37392000,0.0324,0.013523,0.002678,0.000431,0.000940
37393000,0.0324,0.013523,0.002678,0.000431,0.000823
37394000,0.0324,0.013523,0.002678,0.000431,0.000823
37395000,0.0324,0.013523,0.002678,0.000431,0.000940
37396000,0.0324,0.013523,0.002678,0.000431,0.000705
37397000,0.0324,0.013523,0.002678,0.000431,0.000940
37398000,0.0324,0.013523,0.002678,0.000431,0.000823
37399000,0.0324,0.013523,0.002678,0.000431,0.000823
37400000,0.0324,0.013523,0.002678,0.000431,0.000823
37401000,0.0324,0.013523,0.002678,0.000431,0.000823
37402000,0.0324,0.013523,0.002678,0.000431,0.000940
37403000,0.0324,0.013523,0.002678,0.000431,0.000705
37404000,0.0324,0.013523,0.002678,0.000431,0.000940
37405000,0.0324,0.013523,0.002678,0.000431,0.000823
37406000,0.0324,0.013523,0.002678,0.000431,0.000823
37407000,0.0324,0.013523,0.002678,0.000431,0.000823
37408000,0.0324,0.013523,0.002678,0.000431,0.000823
37409000,0.0324,0.013523,0.002678,0.000431,0.000823
37410000,0.0324,0.013523,0.002678,0.000431,0.000823
37411000,0.0324,0.013523,0.002678,0.000431,0.000940
37412000,0.0324,0.013523,0.002678,0.000431,0.000705
37413000,0.0324,0.013523,0.002678,0.000431,0.000940
37414000,0.0324,0.013523,0.002678,0.000431,0.000705
37415000,0.0324,0.013523,0.002678,0.000431,0.000940
37416000,0.0324,0.013523,0.002678,0.000431,0.000940
37417000,0.0324,0.013523,0.002678,0.000431,0.000705
37418000,0.0324,0.013523,0.002678,0.000431,0.000940
37419000,0.0324,0.013523,0.002678,0.000431,0.000705
37420000,0.0324,0.013523,0.002678,0.000431,0.000940
37421000,0.0324,0.013523,0.002678,0.000431,0.000823
37422000,0.0324,0.013523,0.002678,0.000431,0.000823
37423000,0.0324,0.013523,0.002678,0.000431,0.000823
37424000,0.0324,0.013523,0.002678,0.000431,0.000823
37425000,0.0324,0.013523,0.002678,0.000431,0.000940
37426000,0.0324,0.013523,0.002678,0.000431,0.000705
37427000,0.0324,0.013523,0.002678,0.000431,0.000940
37428000,0.0324,0.013523,0.002678,0.000431,0.000823
37429000,0.0324,0.013523,0.002678,0.000431,0.000823
37430000,0.0324,0.013523,0.002678,0.000431,0.000823
37431000,0.0324,0.013523,0.002678,0.000431,0.000823
37432000,0.0324,0.013523,0.002678,0.000431,0.000823
37433000,0.0324,0.013523,0.002678,0.000431,0.000823
37434000,0.0324,0.013523,0.002678,0.000431,0.000823
37435000,0.0324,0.013523,0.002678,0.000431,0.000823
37436000,0.0324,0.013523,0.002678,0.000431,0.000940
37437000,0.0324,0.013523,0.002678,0.000431,0.000705
37438000,0.0324,0.013523,0.002678,0.000431,0.000940
37439000,0.0324,0.013523,0.002678,0.000431,0.000705
37440000,0.0324,0.013523,0.002678,0.000431,0.000940
37441000,0.0324,0.013523,0.002678,0.000431,0.000940
37442000,0.0324,0.013523,0.002678,0.000431,0.000705
37443000,0.0324,0.013523,0.002678,0.000431,0.000940
37444000,0.0324,0.013523,0.002678,0.000431,0.000705
37445000,0.0324,0.013523,0.002678,0.000431,0.000940
37446000,0.0324,0.013523,0.002678,0.000431,0.000823
37447000,0.0324,0.013523,0.002678,0.000431,0.000823
37448000,0.0324,0.013523,0.002678,0.000431,0.000823
37449000,0.0324,0.013523,0.002678,0.000431,0.000823
37450000,0.0324,0.013523,0.002678,0.000431,0.000940
37451000,0.0324,0.013523,0.002678,0.000431,0.000705
37452000,0.0324,0.013523,0.002678,0.000431,0.000940
37453000,0.0324,0.013523,0.002678,0.000431,0.000823
37454000,0.0324,0.013523,0.002678,0.000431,0.000823
37455000,0.0324,0.013523,0.002678,0.000431,0.000823
37456000,0.0324,0.013523,0.002678,0.000431,0.000823
37457000,0.0324,0.013523,0.002678,0.000431,0.000705
37458000,0.0324,0.013523,0.002678,0.000431,0.000940
37459000,0.0324,0.013523,0.002678,0.000431,0.000940
37460000,0.0324,0.013523,0.002678,0.000431,0.000705
37461000,0.0324,0.013523,0.002678,0.000431,0.000940
37462000,0.0324,0.013523,0.002678,0.000431,0.000705
37463000,0.0324,0.013523,0.002678,0.000431,0.000940
37464000,0.0324,0.013523,0.002678,0.000431,0.000940
37465000,0.0324,0.013523,0.002678,0.000431,0.000705
37466000,0.0324,0.013523,0.002678,0.000431,0.000940
37467000,0.0324,0.013523,0.002678,0.000431,0.000705
37468000,0.0324,0.013523,0.002678,0.000431,0.000940
37469000,0.0324,0.013523,0.002678,0.000431,0.000823
37470000,0.0324,0.013523,0.002678,0.000431,0.000823
37471000,0.0324,0.013523,0.002678,0.000431,0.000823
37472000,0.0324,0.013523,0.002678,0.000431,0.000823
37473000,0.0324,0.013523,0.002678,0.000431,0.000940
37474000,0.0324,0.013523,0.002678,0.000431,0.000705
37475000,0.0324,0.013523,0.002678,0.000431,0.000940
37476000,0.0324,0.013523,0.002678,0.000431,0.000940
37477000,0.0324,0.013523,0.002678,0.000431,0.000940
37478000,0.0324,0.013523,0.002678,0.000431,0.000705
37479000,0.0324,0.013523,0.002678,0.000431,0.000940
37480000,0.0324,0.013523,0.002678,0.000431,0.001763
37481000,0.0324,0.013523,0.002678,0.000431,0.358931
37482000,0.0324,0.013523,0.002678,0.000431,0.696237
37483000,0.0324,0.013523,0.002678,0.000431,0.177820
37484000,0.0324,0.013523,0.002678,0.000431,0.133512
37485000,0.0324,0.013523,0.002678,0.000431,0.139506
37486000,0.0324,0.013523,0.002678,0.000431,0.593517
37487000,0.0324,0.013523,0.002678,0.000431,0.223186
37488000,0.0324,0.013523,0.002678,0.000431,0.313095
37489000,0.0324,0.013523,0.002678,0.000431,0.240345
37490000,0.0324,0.013523,0.002678,0.000431,0.144325
37491000,0.0324,0.013523,0.002678,0.000431,0.158898
37492000,0.0324,0.013523,0.002678,0.000431,0.168065
37493000,0.0324,0.013523,0.002678,0.000431,0.468350
37494000,0.0324,0.013523,0.002678,0.000431,0.086618
37495000,0.0324,0.013523,0.002678,0.000431,0.074278
37496000,0.0324,0.013523,0.002678,0.000431,0.070282
37497000,0.0324,0.013523,0.002678,0.000431,0.043838
37498000,0.0324,0.013523,0.002678,0.000431,0.029382
37499000,0.0324,0.013523,0.002678,0.000431,0.022800
37500000,0.0324,0.013523,0.002678,0.000431,0.017864
37501000,0.0324,0.013523,0.002678,0.000431,0.014926
37502000,0.0324,0.013523,0.002678,0.000431,0.014573
37503000,0.0324,0.013523,0.002678,0.000431,0.015631
37504000,0.0324,0.013523,0.002678,0.000431,0.010225
37505000,0.0324,0.013523,0.002678,0.000431,0.011870
37506000,0.0324,0.013523,0.002678,0.000431,0.009050
37507000,0.0324,0.013523,0.002678,0.000431,0.009402
37508000,0.0324,0.013523,0.002678,0.000431,0.009050
37509000,0.0324,0.013523,0.002678,0.000431,0.011400
37510000,0.0324,0.013523,0.002678,0.000431,0.007639
37511000,0.0324,0.013523,0.002678,0.000431,0.007874
37512000,0.0324,0.013523,0.002678,0.000431,0.007169
37513000,0.0324,0.013523,0.002678,0.000431,0.009050
37514000,0.0324,0.013523,0.002678,0.000431,0.006347
37515000,0.0324,0.013523,0.002678,0.000431,0.006934
37516000,0.0324,0.013523,0.002678,0.000431,0.006934
37517000,0.0324,0.013523,0.002678,0.000431,0.008345
37518000,0.0324,0.013523,0.002678,0.000431,0.006699
37519000,0.0324,0.013523,0.002678,0.000431,0.005994
37520000,0.0324,0.013523,0.002678,0.000431,0.007522
37521000,0.0324,0.013523,0.002678,0.000431,0.004113
37522000,0.0324,0.013523,0.002678,0.000431,0.004231
37523000,0.0324,0.013523,0.002678,0.000431,0.004466
37524000,0.0324,0.013523,0.002678,0.000431,0.004349
37525000,0.0324,0.013523,0.002678,0.000431,0.005641
37526000,0.0324,0.013523,0.002678,0.000431,0.003291
37527000,0.0324,0.013523,0.002678,0.000431,0.003526
37528000,0.0324,0.013523,0.002678,0.000431,0.003526
37529000,0.0324,0.013523,0.002678,0.000431,0.003291
37530000,0.0324,0.013523,0.002678,0.000431,0.003408
37531000,0.0324,0.013523,0.002678,0.000431,0.003526
37532000,0.0324,0.013523,0.002678,0.000431,0.003643
37533000,0.0324,0.013523,0.002678,0.000431,0.003173
37534000,0.0324,0.013523,0.002678,0.000431,0.003291
37535000,0.0324,0.013523,0.002678,0.000431,0.003761
37536000,0.0324,0.013523,0.002678,0.000431,0.003643
37537000,0.0324,0.013523,0.002678,0.000431,0.002938
37538000,0.0324,0.013523,0.002678,0.000431,0.007287
37539000,0.0324,0.013523,0.002678,0.000431,0.001880
37540000,0.0324,0.013523,0.002678,0.000431,0.001880
37541000,0.0324,0.013523,0.002678,0.000431,0.001528
37542000,0.0324,0.013523,0.002678,0.000431,0.001763
37543000,0.0324,0.013523,0.002678,0.000431,0.001880
37544000,0.0324,0.013523,0.002678,0.000431,0.001763
37545000,0.0324,0.013523,0.002678,0.000431,0.001645
37546000,0.0324,0.013523,0.002678,0.000431,0.001763
37547000,0.0324,0.013523,0.002678,0.000431,0.001880
37548000,0.0324,0.013523,0.002678,0.000431,0.001763
37549000,0.0324,0.013523,0.002678,0.000431,0.001528
37550000,0.0324,0.013523,0.002678,0.000431,0.001880
37551000,0.0324,0.013523,0.002678,0.000431,0.001763
37552000,0.0324,0.013523,0.002678,0.000431,0.001645
37553000,0.0324,0.013523,0.002678,0.000431,0.001880
37554000,0.0324,0.013523,0.002678,0.000431,0.001763
37555000,0.0324,0.013523,0.002678,0.000431,0.001880
37556000,0.0324,0.013523,0.002678,0.000431,0.001528
37557000,0.0324,0.013523,0.002678,0.000431,0.001763
37558000,0.0324,0.013523,0.002678,0.000431,0.001880
37559000,0.0324,0.013523,0.002678,0.000431,0.001645
37560000,0.0324,0.013523,0.002678,0.000431,0.001645
37561000,0.0324,0.013523,0.002678,0.000431,0.001880
37562000,0.0324,0.013523,0.002678,0.000431,0.001880
37563000,0.0324,0.013523,0.002678,0.000431,0.001763
37564000,0.0324,0.013523,0.002678,0.000431,0.002821
37565000,0.0324,0.013523,0.002678,0.000431,0.000940
37566000,0.0324,0.013523,0.002678,0.000431,0.000940
37567000,0.0324,0.013523,0.002678,0.000431,0.000823
37568000,0.0324,0.013523,0.002678,0.000431,0.000823
37569000,0.0324,0.013523,0.002678,0.000431,0.000940
37570000,0.0324,0.013523,0.002678,0.000431,0.000940
37571000,0.0324,0.013523,0.002678,0.000431,0.000823
37572000,0.0324,0.013523,0.002678,0.000431,0.015044
37573000,0.0324,0.013523,0.002678,0.000431,0.598806
37574000,0.0324,0.013523,0.002678,0.000431,0.584115
37575000,0.0324,0.013523,0.002678,0.000431,0.133512
37576000,0.0324,0.013523,0.002678,0.000431,0.133512
37577000,0.0324,0.013523,0.002678,0.000431,0.533695
37578000,0.0324,0.013523,0.002678,0.000431,0.228945
37579000,0.0324,0.013523,0.002678,0.000431,0.235879
37580000,0.0324,0.013523,0.002678,0.000431,0.322145
37581000,0.0324,0.013523,0.002678,0.000431,0.146675
37582000,0.0324,0.013523,0.002678,0.000431,0.172766
37583000,0.0324,0.013523,0.002678,0.000431,0.100369
37584000,0.0324,0.013523,0.002678,0.000431,0.439555
37585000,0.0324,0.013523,0.002678,0.000431,0.148556
37586000,0.0324,0.013523,0.002678,0.000431,0.058294
37587000,0.0324,0.013523,0.002678,0.000431,0.050537
37588000,0.0324,0.013523,0.002678,0.000431,0.037374
37589000,0.0324,0.013523,0.002678,0.000431,0.038902
37590000,0.0324,0.013523,0.002678,0.000431,0.035846
37591000,0.0324,0.013523,0.002678,0.000431,0.030792
37592000,0.0324,0.013523,0.002678,0.000431,0.032908
37593000,0.0324,0.013523,0.002678,0.000431,0.027972
37594000,0.0324,0.013523,0.002678,0.000431,0.023741
37595000,0.0324,0.013523,0.002678,0.000431,0.026914
37596000,0.0324,0.013523,0.002678,0.000431,0.023623
37597000,0.0324,0.013523,0.002678,0.000431,0.017982
37598000,0.0324,0.013523,0.002678,0.000431,0.018922
37599000,0.0324,0.013523,0.002678,0.000431,0.018099
37600000,0.0324,0.013523,0.002678,0.000431,0.018805
37601000,0.0324,0.013523,0.002678,0.000431,0.018452
37602000,0.0324,0.013523,0.002678,0.000431,0.018687
37603000,0.0324,0.013523,0.002678,0.000431,0.016219
37604000,0.0324,0.013523,0.002678,0.000431,0.016571
37605000,0.0324,0.013523,0.002678,0.000431,0.019745
37606000,0.0324,0.013523,0.002678,0.000431,0.013633
37607000,0.0324,0.013523,0.002678,0.000431,0.017042
37608000,0.0324,0.013523,0.002678,0.000431,0.015749
37609000,0.0324,0.013523,0.002678,0.000431,0.017747
37610000,0.0324,0.013523,0.002678,0.000431,0.013633
37611000,0.0324,0.013523,0.002678,0.000431,0.013751
37612000,0.0324,0.013523,0.002678,0.000431,0.016336
37613000,0.0324,0.013523,0.002678,0.000431,0.011988
37614000,0.0324,0.013523,0.002678,0.000431,0.011165
37615000,0.0324,0.013523,0.002678,0.000431,0.011518
37616000,0.0324,0.013523,0.002678,0.000431,0.010695
37617000,0.0324,0.013523,0.002678,0.000431,0.010578
37618000,0.0324,0.013523,0.002678,0.000431,0.010813
37619000,0.0324,0.013523,0.002678,0.000431,0.009637
37620000,0.0324,0.013523,0.002678,0.000431,0.008932
37621000,0.0324,0.013523,0.002678,0.000431,0.008815
37622000,0.0324,0.013523,0.002678,0.000431,0.008345
37623000,0.0324,0.013523,0.002678,0.000431,0.011283
37624000,0.0324,0.013523,0.002678,0.000431,0.007287
37625000,0.0324,0.013523,0.002678,0.000431,0.008109
37626000,0.0324,0.013523,0.002678,0.000431,0.007874
37627000,0.0324,0.013523,0.002678,0.000431,0.008697
37628000,0.0324,0.013523,0.002678,0.000431,0.008345
37629000,0.0324,0.013523,0.002678,0.000431,0.007404
37630000,0.0324,0.013523,0.002678,0.000431,0.009755
37631000,0.0324,0.013523,0.002678,0.000431,0.009285
37632000,0.0324,0.013523,0.002678,0.000431,0.006464
37633000,0.0324,0.013523,0.002678,0.000431,0.006817
37634000,0.0324,0.013523,0.002678,0.000431,0.006582
37635000,0.0324,0.013523,0.002678,0.000431,0.006699
37636000,0.0324,0.013523,0.002678,0.000431,0.007052
37637000,0.0324,0.013523,0.002678,0.000431,0.005994
37638000,0.0324,0.013523,0.002678,0.000431,0.007522
37639000,0.0324,0.013523,0.002678,0.000431,0.005994
37640000,0.0324,0.013523,0.002678,0.000431,0.004936
37641000,0.0324,0.013523,0.002678,0.000431,0.005289
37642000,0.0324,0.013523,0.002678,0.000431,0.004936
37643000,0.0324,0.013523,0.002678,0.000431,0.005171
37644000,0.0324,0.013523,0.002678,0.000431,0.005054
37645000,0.0324,0.013523,0.002678,0.000431,0.005054
37646000,0.0324,0.013523,0.002678,0.000431,0.005406
37647000,0.0324,0.013523,0.002678,0.000431,0.004701
37648000,0.0324,0.013523,0.002678,0.000431,0.005406
37649000,0.0324,0.013523,0.002678,0.000431,0.005171
37650000,0.0324,0.013523,0.002678,0.000431,0.004819
37651000,0.0324,0.013523,0.002678,0.000431,0.005289
37652000,0.0324,0.013523,0.002678,0.000431,0.005054
37653000,0.0324,0.013523,0.002678,0.000431,0.005289
37654000,0.0324,0.013523,0.002678,0.000431,0.005054
37655000,0.0324,0.013523,0.002678,0.000431,0.005054
37656000,0.0324,0.013523,0.002678,0.000431,0.005054
37657000,0.0324,0.013523,0.002678,0.000431,0.005054
37658000,0.0324,0.013523,0.002678,0.000431,0.007052
37659000,0.0324,0.013523,0.002678,0.000431,0.004466
37660000,0.0324,0.013523,0.002678,0.000431,0.006347
37661000,0.0324,0.013523,0.002678,0.000431,0.003761
37662000,0.0324,0.013523,0.002678,0.000431,0.003526
37663000,0.0324,0.013523,0.002678,0.000431,0.003291
37664000,0.0324,0.013523,0.002678,0.000431,0.003291
37665000,0.0324,0.013523,0.002678,0.000431,0.003291
37666000,0.0324,0.013523,0.002678,0.000431,0.003761
37667000,0.0324,0.013523,0.002678,0.000431,0.003056
37668000,0.0324,0.013523,0.002678,0.000431,0.003526
37669000,0.0324,0.013523,0.002678,0.000431,0.003291
37670000,0.0324,0.013523,0.002678,0.000431,0.003526
37671000,0.0324,0.013523,0.002678,0.000431,0.003526
37672000,0.0324,0.013523,0.002678,0.000431,0.003173
37673000,0.0324,0.013523,0.002678,0.000431,0.003408
37674000,0.0324,0.013523,0.002678,0.000431,0.003291
37675000,0.0324,0.013523,0.002678,0.000431,0.003643
37676000,0.0324,0.013523,0.002678,0.000431,0.003173
37677000,0.0324,0.013523,0.002678,0.000431,0.003526
37678000,0.0324,0.013523,0.002678,0.000431,0.003291
37679000,0.0324,0.013523,0.002678,0.000431,0.003408
37680000,0.0324,0.013523,0.002678,0.000431,0.003408
37681000,0.0324,0.013523,0.002678,0.000431,0.003408
37682000,0.0324,0.013523,0.002678,0.000431,0.003526
37683000,0.0324,0.013523,0.002678,0.000431,0.003173
37684000,0.0324,0.013523,0.002678,0.000431,0.003526
37685000,0.0324,0.013523,0.002678,0.000431,0.003408
37686000,0.0324,0.013523,0.002678,0.000431,0.003291
37687000,0.0324,0.013523,0.002678,0.000431,0.003408
37688000,0.0324,0.013523,0.002678,0.000431,0.003408
37689000,0.0324,0.013523,0.002678,0.000431,0.003643
37690000,0.0324,0.013523,0.002678,0.000431,0.002938
37691000,0.0324,0.013523,0.002678,0.000431,0.003643
37692000,0.0324,0.013523,0.002678,0.000431,0.003408
37693000,0.0324,0.013523,0.002678,0.000431,0.003291
37694000,0.0324,0.013523,0.002678,0.000431,0.003643
37695000,0.0324,0.013523,0.002678,0.000431,0.004349
37696000,0.0324,0.013523,0.002678,0.000431,0.002821
37697000,0.0324,0.013523,0.002678,0.000431,0.002233
37698000,0.0324,0.013523,0.002678,0.000431,0.002586
37699000,0.0324,0.013523,0.002678,0.000431,0.002586
37700000,0.0324,0.013523,0.002678,0.000431,0.002703
37701000,0.0324,0.013523,0.002678,0.000431,0.002468
37702000,0.0324,0.013523,0.002678,0.000431,0.002468
37703000,0.0324,0.013523,0.002678,0.000431,0.002586
37704000,0.0324,0.013523,0.002678,0.000431,0.002586
37705000,0.0324,0.013523,0.002678,0.000431,0.002586
37706000,0.0324,0.013523,0.002678,0.000431,0.002468
37707000,0.0324,0.013523,0.002678,0.000431,0.002703
37708000,0.0324,0.013523,0.002678,0.000431,0.002351
37709000,0.0324,0.013523,0.002678,0.000431,0.002703
37710000,0.0324,0.013523,0.002678,0.000431,0.002468
37711000,0.0324,0.013523,0.002678,0.000431,0.002586
37712000,0.0324,0.013523,0.002678,0.000431,0.002586
37713000,0.0324,0.013523,0.002678,0.000431,0.002468
37714000,0.0324,0.013523,0.002678,0.000431,0.002703
37715000,0.0324,0.013523,0.002678,0.000431,0.002586
37716000,0.0324,0.013523,0.002678,0.000431,0.002468
37717000,0.0324,0.013523,0.002678,0.000431,0.002351
37718000,0.0324,0.013523,0.002678,0.000431,0.002703
37719000,0.0324,0.013523,0.002678,0.000431,0.002703
37720000,0.0324,0.013523,0.002678,0.000431,0.002233
37721000,0.0324,0.013523,0.002678,0.000431,0.002821
37722000,0.0324,0.013523,0.002678,0.000431,0.002468
37723000,0.0324,0.013523,0.002678,0.000431,0.003761
37724000,0.0324,0.013523,0.002678,0.000431,0.001763
37725000,0.0324,0.013523,0.002678,0.000431,0.001528
37726000,0.0324,0.013523,0.002678,0.000431,0.001763
37727000,0.0324,0.013523,0.002678,0.000431,0.001645
37728000,0.0324,0.013523,0.002678,0.000431,0.001763
37729000,0.0324,0.013523,0.002678,0.000431,0.001645
37730000,0.0324,0.013523,0.002678,0.000431,0.001645
37731000,0.0324,0.013523,0.002678,0.000431,0.001645
37732000,0.0324,0.013523,0.002678,0.000431,0.001763
37733000,0.0324,0.013523,0.002678,0.000431,0.001645
37734000,0.0324,0.013523,0.002678,0.000431,0.001645
37735000,0.0324,0.013523,0.002678,0.000431,0.001763
37736000,0.0324,0.013523,0.002678,0.000431,0.001528
37737000,0.0324,0.013523,0.002678,0.000431,0.001763
37738000,0.0324,0.013523,0.002678,0.000431,0.001763
37739000,0.0324,0.013523,0.002678,0.000431,0.001528
37740000,0.0324,0.013523,0.002678,0.000431,0.001645
37741000,0.0324,0.013523,0.002678,0.000431,0.001763
37742000,0.0324,0.013523,0.002678,0.000431,0.001763
37743000,0.0324,0.013523,0.002678,0.000431,0.001528
37744000,0.0324,0.013523,0.002678,0.000431,0.001763
37745000,0.0324,0.013523,0.002678,0.000431,0.001528
37746000,0.0324,0.013523,0.002678,0.000431,0.001763
37747000,0.0324,0.013523,0.002678,0.000431,0.001763
37748000,0.0324,0.013523,0.002678,0.000431,0.001528
37749000,0.0324,0.013523,0.002678,0.000431,0.001763
37750000,0.0324,0.013523,0.002678,0.000431,0.001528
37751000,0.0324,0.013523,0.002678,0.000431,0.001763
37752000,0.0324,0.013523,0.002678,0.000431,0.001763
37753000,0.0324,0.013523,0.002678,0.000431,0.001645
37754000,0.0324,0.013523,0.002678,0.000431,0.001763
37755000,0.0324,0.013523,0.002678,0.000431,0.001528
37756000,0.0324,0.013523,0.002678,0.000431,0.001645
37757000,0.0324,0.013523,0.002678,0.000431,0.001763
37758000,0.0324,0.013523,0.002678,0.000431,0.001763
37759000,0.0324,0.013523,0.002678,0.000431,0.001528
37760000,0.0324,0.013523,0.002678,0.000431,0.001763
37761000,0.0324,0.013523,0.002678,0.000431,0.001645
37762000,0.0324,0.013523,0.002678,0.000431,0.001763
37763000,0.0324,0.013523,0.002678,0.000431,0.001645
37764000,0.0324,0.013523,0.002678,0.000431,0.001645
37765000,0.0324,0.013523,0.002678,0.000431,0.001763
37766000,0.0324,0.013523,0.002678,0.000431,0.001528
37767000,0.0324,0.013523,0.002678,0.000431,0.001763
37768000,0.0324,0.013523,0.002678,0.000431,0.001763
37769000,0.0324,0.013523,0.002678,0.000431,0.001528
37770000,0.0324,0.013523,0.002678,0.000431,0.003056
37771000,0.0324,0.013523,0.002678,0.000431,0.002468
37772000,0.0324,0.013523,0.002678,0.000431,0.000823
37773000,0.0324,0.013523,0.002678,0.000431,0.000823
37774000,0.0324,0.013523,0.002678,0.000431,0.000940
37775000,0.0324,0.013523,0.002678,0.000431,0.000705
37776000,0.0324,0.013523,0.002678,0.000431,0.000940
37777000,0.0324,0.013523,0.002678,0.000431,0.000823
37778000,0.0324,0.013523,0.002678,0.000431,0.000823
37779000,0.0324,0.013523,0.002678,0.000431,0.000705
37780000,0.0324,0.013523,0.002678,0.000431,0.000940
37781000,0.0324,0.013523,0.002678,0.000431,0.000940
37782000,0.0324,0.013523,0.002678,0.000431,0.000705
37783000,0.0324,0.013523,0.002678,0.000431,0.000940
37784000,0.0324,0.013523,0.002678,0.000431,0.000705
37785000,0.0324,0.013523,0.002678,0.000431,0.000940
37786000,0.0324,0.013523,0.002678,0.000431,0.000940
37787000,0.0324,0.013523,0.002678,0.000431,0.000705
37788000,0.0324,0.013523,0.002678,0.000431,0.000940
37789000,0.0324,0.013523,0.002678,0.000431,0.000705
37790000,0.0324,0.013523,0.002678,0.000431,0.000940
37791000,0.0324,0.013523,0.002678,0.000431,0.000823
37792000,0.0324,0.013523,0.002678,0.000431,0.000823
37793000,0.0324,0.013523,0.002678,0.000431,0.000823
37794000,0.0324,0.013523,0.002678,0.000431,0.000823
37795000,0.0324,0.013523,0.002678,0.000431,0.000940
37796000,0.0324,0.013523,0.002678,0.000431,0.000705
37797000,0.0324,0.013523,0.002678,0.000431,0.000940
37798000,0.0324,0.013523,0.002678,0.000431,0.000823
37799000,0.0324,0.013523,0.002678,0.000431,0.001645
37800000,0.0324,0.013523,0.002678,0.000431,0.371154
37801000,0.0324,0.013523,0.002678,0.000431,0.692946
37802000,0.0324,0.013523,0.002678,0.000431,0.157018
37803000,0.0324,0.013523,0.002678,0.000431,0.133512
37804000,0.0324,0.013523,0.002678,0.000431,0.169476
37805000,0.0324,0.013523,0.002678,0.000431,0.598101
37806000,0.0324,0.013523,0.002678,0.000431,0.265144
37807000,0.0324,0.013523,0.002678,0.000431,0.292763
37808000,0.0324,0.013523,0.002678,0.000431,0.232706
37809000,0.0324,0.013523,0.002678,0.000431,0.137508
37810000,0.0324,0.013523,0.002678,0.000431,0.139859
37811000,0.0324,0.013523,0.002678,0.000431,0.237524
37812000,0.0324,0.013523,0.002678,0.000431,0.417225
37813000,0.0324,0.013523,0.002678,0.000431,0.085796
37814000,0.0324,0.013523,0.002678,0.000431,0.057236
37815000,0.0324,0.013523,0.002678,0.000431,0.049009
37816000,0.0324,0.013523,0.002678,0.000431,0.037139
37817000,0.0324,0.013523,0.002678,0.000431,0.026444
37818000,0.0324,0.013523,0.002678,0.000431,0.030322
37819000,0.0324,0.013523,0.002678,0.000431,0.025386
37820000,0.0324,0.013523,0.002678,0.000431,0.015396
37821000,0.0324,0.013523,0.002678,0.000431,0.015749
37822000,0.0324,0.013523,0.002678,0.000431,0.013516
37823000,0.0324,0.013523,0.002678,0.000431,0.010342
37824000,0.0324,0.013523,0.002678,0.000431,0.012105
37825000,0.0324,0.013523,0.002678,0.000431,0.008932
37826000,0.0324,0.013523,0.002678,0.000431,0.014221
37827000,0.0324,0.013523,0.002678,0.000431,0.008109
37828000,0.0324,0.013523,0.002678,0.000431,0.007874
37829000,0.0324,0.013523,0.002678,0.000431,0.008109
37830000,0.0324,0.013523,0.002678,0.000431,0.007874
37831000,0.0324,0.013523,0.002678,0.000431,0.007404
37832000,0.0324,0.013523,0.002678,0.000431,0.007992
37833000,0.0324,0.013523,0.002678,0.000431,0.007287
37834000,0.0324,0.013523,0.002678,0.000431,0.006699
37835000,0.0324,0.013523,0.002678,0.000431,0.006699
37836000,0.0324,0.013523,0.002678,0.000431,0.006347
37837000,0.0324,0.013523,0.002678,0.000431,0.010225
37838000,0.0324,0.013523,0.002678,0.000431,0.004349
37839000,0.0324,0.013523,0.002678,0.000431,0.006347
37840000,0.0324,0.013523,0.002678,0.000431,0.004231
37841000,0.0324,0.013523,0.002678,0.000431,0.003996
37842000,0.0324,0.013523,0.002678,0.000431,0.003996
37843000,0.0324,0.013523,0.002678,0.000431,0.003996
37844000,0.0324,0.013523,0.002678,0.000431,0.003643
37845000,0.0324,0.013523,0.002678,0.000431,0.005641
37846000,0.0324,0.013523,0.002678,0.000431,0.005171
37847000,0.0324,0.013523,0.002678,0.000431,0.003056
37848000,0.0324,0.013523,0.002678,0.000431,0.003408
37849000,0.0324,0.013523,0.002678,0.000431,0.003173
37850000,0.0324,0.013523,0.002678,0.000431,0.002821
37851000,0.0324,0.013523,0.002678,0.000431,0.003291
37852000,0.0324,0.013523,0.002678,0.000431,0.003056
37853000,0.0324,0.013523,0.002678,0.000431,0.003408
37854000,0.0324,0.013523,0.002678,0.000431,0.003173
37855000,0.0324,0.013523,0.002678,0.000431,0.002821
37856000,0.0324,0.013523,0.002678,0.000431,0.003408
37857000,0.0324,0.013523,0.002678,0.000431,0.003173
37858000,0.0324,0.013523,0.002678,0.000431,0.003173
37859000,0.0324,0.013523,0.002678,0.000431,0.005524
37860000,0.0324,0.013523,0.002678,0.000431,0.001998
37861000,0.0324,0.013523,0.002678,0.000431,0.002821
37862000,0.0324,0.013523,0.002678,0.000431,0.002351
37863000,0.0324,0.013523,0.002678,0.000431,0.002351
37864000,0.0324,0.013523,0.002678,0.000431,0.001880
37865000,0.0324,0.013523,0.002678,0.000431,0.002351
37866000,0.0324,0.013523,0.002678,0.000431,0.002586
37867000,0.0324,0.013523,0.002678,0.000431,0.002351
37868000,0.0324,0.013523,0.002678,0.000431,0.001058
37869000,0.0324,0.013523,0.002678,0.000431,0.000823
37870000,0.0324,0.013523,0.002678,0.000431,0.000940
37871000,0.0324,0.013523,0.002678,0.000431,0.000823
37872000,0.0324,0.013523,0.002678,0.000431,0.000940
37873000,0.0324,0.013523,0.002678,0.000431,0.002233
37874000,0.0324,0.013523,0.002678,0.000431,0.415932
37875000,0.0324,0.013523,0.002678,0.000431,0.719743
37876000,0.0324,0.013523,0.002678,0.000431,0.145382
37877000,0.0324,0.013523,0.002678,0.000431,0.133394
37878000,0.0324,0.013523,0.002678,0.000431,0.234351
37879000,0.0324,0.013523,0.002678,0.000431,0.501140
37880000,0.0324,0.013523,0.002678,0.000431,0.239993
37881000,0.0324,0.013523,0.002678,0.000431,0.340479
37882000,0.0324,0.013523,0.002678,0.000431,0.177703
37883000,0.0324,0.013523,0.002678,0.000431,0.155490
37884000,0.0324,0.013523,0.002678,0.000431,0.116588
37885000,0.0324,0.013523,0.002678,0.000431,0.324025
37886000,0.0324,0.013523,0.002678,0.000431,0.307571
37887000,0.0324,0.013523,0.002678,0.000431,0.081565
37888000,0.0324,0.013523,0.002678,0.000431,0.058999
37889000,0.0324,0.013523,0.002678,0.000431,0.049009
37890000,0.0324,0.013523,0.002678,0.000431,0.044191
37891000,0.0324,0.013523,0.002678,0.000431,0.029500
37892000,0.0324,0.013523,0.002678,0.000431,0.026796
37893000,0.0324,0.013523,0.002678,0.000431,0.024093
37894000,0.0324,0.013523,0.002678,0.000431,0.027737
37895000,0.0324,0.013523,0.002678,0.000431,0.013751
37896000,0.0324,0.013523,0.002678,0.000431,0.014809
37897000,0.0324,0.013523,0.002678,0.000431,0.011635
37898000,0.0324,0.013523,0.002678,0.000431,0.011518
37899000,0.0324,0.013523,0.002678,0.000431,0.010225
37900000,0.0324,0.013523,0.002678,0.000431,0.013281
37901000,0.0324,0.013523,0.002678,0.000431,0.007992
37902000,0.0324,0.013523,0.002678,0.000431,0.007992
37903000,0.0324,0.013523,0.002678,0.000431,0.006817
37904000,0.0324,0.013523,0.002678,0.000431,0.008109
37905000,0.0324,0.013523,0.002678,0.000431,0.007639
37906000,0.0324,0.013523,0.002678,0.000431,0.009402
37907000,0.0324,0.013523,0.002678,0.000431,0.008227
37908000,0.0324,0.013523,0.002678,0.000431,0.011048
37909000,0.0324,0.013523,0.002678,0.000431,0.005171
37910000,0.0324,0.013523,0.002678,0.000431,0.004936
37911000,0.0324,0.013523,0.002678,0.000431,0.005054
37912000,0.0324,0.013523,0.002678,0.000431,0.004936
37913000,0.0324,0.013523,0.002678,0.000431,0.006229
37914000,0.0324,0.013523,0.002678,0.000431,0.004231
37915000,0.0324,0.013523,0.002678,0.000431,0.004113
37916000,0.0324,0.013523,0.002678,0.000431,0.004113
37917000,0.0324,0.013523,0.002678,0.000431,0.004349
37918000,0.0324,0.013523,0.002678,0.000431,0.004231
37919000,0.0324,0.013523,0.002678,0.000431,0.004113
37920000,0.0324,0.013523,0.002678,0.000431,0.004584
37921000,0.0324,0.013523,0.002678,0.000431,0.003878
37922000,0.0324,0.013523,0.002678,0.000431,0.004349
37923000,0.0324,0.013523,0.002678,0.000431,0.003996
37924000,0.0324,0.013523,0.002678,0.000431,0.004466
37925000,0.0324,0.013523,0.002678,0.000431,0.004466
37926000,0.0324,0.013523,0.002678,0.000431,0.003878
37927000,0.0324,0.013523,0.002678,0.000431,0.004584
37928000,0.0324,0.013523,0.002678,0.000431,0.004113
37929000,0.0324,0.013523,0.002678,0.000431,0.004466
37930000,0.0324,0.013523,0.002678,0.000431,0.006229
37931000,0.0324,0.013523,0.002678,0.000431,0.003291
37932000,0.0324,0.013523,0.002678,0.000431,0.003526
37933000,0.0324,0.013523,0.002678,0.000431,0.003408
37934000,0.0324,0.013523,0.002678,0.000431,0.003408
37935000,0.0324,0.013523,0.002678,0.000431,0.003408
37936000,0.0324,0.013523,0.002678,0.000431,0.003526
37937000,0.0324,0.013523,0.002678,0.000431,0.003291
37938000,0.0324,0.013523,0.002678,0.000431,0.005406
37939000,0.0324,0.013523,0.002678,0.000431,0.002586
37940000,0.0324,0.013523,0.002678,0.000431,0.002468
37941000,0.0324,0.013523,0.002678,0.000431,0.002586
37942000,0.0324,0.013523,0.002678,0.000431,0.002468
37943000,0.0324,0.013523,0.002678,0.000431,0.003643
37944000,0.0324,0.013523,0.002678,0.000431,0.002703
37945000,0.0324,0.013523,0.002678,0.000431,0.001763
37946000,0.0324,0.013523,0.002678,0.000431,0.001645
37947000,0.0324,0.013523,0.002678,0.000431,0.001880
37948000,0.0324,0.013523,0.002678,0.000431,0.001645
37949000,0.0324,0.013523,0.002678,0.000431,0.001645
37950000,0.0324,0.013523,0.002678,0.000431,0.001880
37951000,0.0324,0.013523,0.002678,0.000431,0.001528
37952000,0.0324,0.013523,0.002678,0.000431,0.001880
37953000,0.0324,0.013523,0.002678,0.000431,0.001645
37954000,0.0324,0.013523,0.002678,0.000431,0.001763
37955000,0.0324,0.013523,0.002678,0.000431,0.001645
37956000,0.0324,0.013523,0.002678,0.000431,0.001645
37957000,0.0324,0.013523,0.002678,0.000431,0.001880
37958000,0.0324,0.013523,0.002678,0.000431,0.001528
37959000,0.0324,0.013523,0.002678,0.000431,0.001880
37960000,0.0324,0.013523,0.002678,0.000431,0.001528
37961000,0.0324,0.013523,0.002678,0.000431,0.001763
37962000,0.0324,0.013523,0.002678,0.000431,0.001880
37963000,0.0324,0.013523,0.002678,0.000431,0.001528
37964000,0.0324,0.013523,0.002678,0.000431,0.001763
37965000,0.0324,0.013523,0.002678,0.000431,0.001763
37966000,0.0324,0.013523,0.002678,0.000431,0.001645
37967000,0.0324,0.013523,0.002678,0.000431,0.001645
37968000,0.0324,0.013523,0.002678,0.000431,0.001880
37969000,0.0324,0.013523,0.002678,0.000431,0.001763
37970000,0.0324,0.013523,0.002678,0.000431,0.001645
37971000,0.0324,0.013523,0.002678,0.000431,0.001528
37972000,0.0324,0.013523,0.002678,0.000431,0.001880
37973000,0.0324,0.013523,0.002678,0.000431,0.001763
37974000,0.0324,0.013523,0.002678,0.000431,0.001645
37975000,0.0324,0.013523,0.002678,0.000431,0.001763
37976000,0.0324,0.013523,0.002678,0.000431,0.001645
37977000,0.0324,0.013523,0.002678,0.000431,0.001763
37978000,0.0324,0.013523,0.002678,0.000431,0.001645
37979000,0.0324,0.013523,0.002678,0.000431,0.001763
37980000,0.0324,0.013523,0.002678,0.000431,0.002586
37981000,0.0324,0.013523,0.002678,0.000431,0.001998
37982000,0.0324,0.013523,0.002678,0.000431,0.000940
37983000,0.0324,0.013523,0.002678,0.000431,0.000823
37984000,0.0324,0.013523,0.002678,0.000431,0.000823
37985000,0.0324,0.013523,0.002678,0.000431,0.000823
37986000,0.0324,0.013523,0.002678,0.000431,0.000823
37987000,0.0324,0.013523,0.002678,0.000431,0.000823
37988000,0.0324,0.013523,0.002678,0.000431,0.000823
37989000,0.0324,0.013523,0.002678,0.000431,0.000940
37990000,0.0324,0.013523,0.002678,0.000431,0.000705
37991000,0.0324,0.013523,0.002678,0.000431,0.000940
37992000,0.0324,0.013523,0.002678,0.000431,0.000823
37993000,0.0324,0.013523,0.002678,0.000431,0.000823
37994000,0.0324,0.013523,0.002678,0.000431,0.000705
37995000,0.0324,0.013523,0.002678,0.000431,0.000940
37996000,0.0324,0.013523,0.002678,0.000431,0.000940
37997000,0.0324,0.013523,0.002678,0.000431,0.000705
37998000,0.0324,0.013523,0.002678,0.000431,0.000940
37999000,0.0324,0.013523,0.002678,0.000431,0.000705
