Cycle,Area(mm^2),PeakDynamic(W),SubthresholdLeakage(W),GateLeakage(W),RunTimeDynamic(W)
108000000,0.0324,0.013523,0.002678,0.000431,0.000940
108001000,0.0324,0.013523,0.002678,0.000431,0.000705
108002000,0.0324,0.013523,0.002678,0.000431,0.000940
108003000,0.0324,0.013523,0.002678,0.000431,0.000823
108004000,0.0324,0.013523,0.002678,0.000431,0.000823
108005000,0.0324,0.013523,0.002678,0.000431,0.000823
108006000,0.0324,0.013523,0.002678,0.000431,0.000823
108007000,0.0324,0.013523,0.002678,0.000431,0.000940
108008000,0.0324,0.013523,0.002678,0.000431,0.000705
108009000,0.0324,0.013523,0.002678,0.000431,0.000940
108010000,0.0324,0.013523,0.002678,0.000431,0.000823
108011000,0.0324,0.013523,0.002678,0.000431,0.000823
108012000,0.0324,0.013523,0.002678,0.000431,0.000823
108013000,0.0324,0.013523,0.002678,0.000431,0.000823
108014000,0.0324,0.013523,0.002678,0.000431,0.000823
108015000,0.0324,0.013523,0.002678,0.000431,0.000823
108016000,0.0324,0.013523,0.002678,0.000431,0.000823
108017000,0.0324,0.013523,0.002678,0.000431,0.000940
108018000,0.0324,0.013523,0.002678,0.000431,0.000823
108019000,0.0324,0.013523,0.002678,0.000431,0.000823
108020000,0.0324,0.013523,0.002678,0.000431,0.000823
108021000,0.0324,0.013523,0.002678,0.000431,0.000705
108022000,0.0324,0.013523,0.002678,0.000431,0.000940
108023000,0.0324,0.013523,0.002678,0.000431,0.000940
108024000,0.0324,0.013523,0.002678,0.000431,0.000705
108025000,0.0324,0.013523,0.002678,0.000431,0.000940
108026000,0.0324,0.013523,0.002678,0.000431,0.000705
108027000,0.0324,0.013523,0.002678,0.000431,0.000940
108028000,0.0324,0.013523,0.002678,0.000431,0.000940
108029000,0.0324,0.013523,0.002678,0.000431,0.000705
108030000,0.0324,0.013523,0.002678,0.000431,0.000940
108031000,0.0324,0.013523,0.002678,0.000431,0.000705
108032000,0.0324,0.013523,0.002678,0.000431,0.000940
108033000,0.0324,0.013523,0.002678,0.000431,0.000823
108034000,0.0324,0.013523,0.002678,0.000431,0.000823
108035000,0.0324,0.013523,0.002678,0.000431,0.000940
108036000,0.0324,0.013523,0.002678,0.000431,0.000705
108037000,0.0324,0.013523,0.002678,0.000431,0.000940
108038000,0.0324,0.013523,0.002678,0.000431,0.000823
108039000,0.0324,0.013523,0.002678,0.000431,0.000823
108040000,0.0324,0.013523,0.002678,0.000431,0.000823
108041000,0.0324,0.013523,0.002678,0.000431,0.073925
108042000,0.0324,0.013523,0.002678,0.000431,0.489035
108043000,0.0324,0.013523,0.002678,0.000431,0.549444
108044000,0.0324,0.013523,0.002678,0.000431,0.132572
108045000,0.0324,0.013523,0.002678,0.000431,0.133042
108046000,0.0324,0.013523,0.002678,0.000431,0.556849
108047000,0.0324,0.013523,0.002678,0.000431,0.224714
108048000,0.0324,0.013523,0.002678,0.000431,0.261500
108049000,0.0324,0.013523,0.002678,0.000431,0.334368
108050000,0.0324,0.013523,0.002678,0.000431,0.135392
108051000,0.0324,0.013523,0.002678,0.000431,0.141386
108052000,0.0324,0.013523,0.002678,0.000431,0.139506
108053000,0.0324,0.013523,0.002678,0.000431,0.229885
108054000,0.0324,0.013523,0.002678,0.000431,0.355523
108055000,0.0324,0.013523,0.002678,0.000431,0.046659
108056000,0.0324,0.013523,0.002678,0.000431,0.040430
108057000,0.0324,0.013523,0.002678,0.000431,0.029735
108058000,0.0324,0.013523,0.002678,0.000431,0.021743
108059000,0.0324,0.013523,0.002678,0.000431,0.022213
108060000,0.0324,0.013523,0.002678,0.000431,0.018805
108061000,0.0324,0.013523,0.002678,0.000431,0.020450
108062000,0.0324,0.013523,0.002678,0.000431,0.016101
108063000,0.0324,0.013523,0.002678,0.000431,0.012458
108064000,0.0324,0.013523,0.002678,0.000431,0.013046
108065000,0.0324,0.013523,0.002678,0.000431,0.013281
108066000,0.0324,0.013523,0.002678,0.000431,0.013046
108067000,0.0324,0.013523,0.002678,0.000431,0.011988
108068000,0.0324,0.013523,0.002678,0.000431,0.012576
108069000,0.0324,0.013523,0.002678,0.000431,0.012340
108070000,0.0324,0.013523,0.002678,0.000431,0.011988
108071000,0.0324,0.013523,0.002678,0.000431,0.015161
108072000,0.0324,0.013523,0.002678,0.000431,0.011048
108073000,0.0324,0.013523,0.002678,0.000431,0.011283
108074000,0.0324,0.013523,0.002678,0.000431,0.010695
108075000,0.0324,0.013523,0.002678,0.000431,0.010460
108076000,0.0324,0.013523,0.002678,0.000431,0.010930
108077000,0.0324,0.013523,0.002678,0.000431,0.010578
108078000,0.0324,0.013523,0.002678,0.000431,0.011753
108079000,0.0324,0.013523,0.002678,0.000431,0.009990
108080000,0.0324,0.013523,0.002678,0.000431,0.011870
108081000,0.0324,0.013523,0.002678,0.000431,0.010107
108082000,0.0324,0.013523,0.002678,0.000431,0.008462
108083000,0.0324,0.013523,0.002678,0.000431,0.007992
108084000,0.0324,0.013523,0.002678,0.000431,0.011753
108085000,0.0324,0.013523,0.002678,0.000431,0.007169
108086000,0.0324,0.013523,0.002678,0.000431,0.005054
108087000,0.0324,0.013523,0.002678,0.000431,0.005289
108088000,0.0324,0.013523,0.002678,0.000431,0.009285
108089000,0.0324,0.013523,0.002678,0.000431,0.003643
108090000,0.0324,0.013523,0.002678,0.000431,0.003291
108091000,0.0324,0.013523,0.002678,0.000431,0.003291
108092000,0.0324,0.013523,0.002678,0.000431,0.003056
108093000,0.0324,0.013523,0.002678,0.000431,0.003526
108094000,0.0324,0.013523,0.002678,0.000431,0.003526
108095000,0.0324,0.013523,0.002678,0.000431,0.003173
108096000,0.0324,0.013523,0.002678,0.000431,0.003408
108097000,0.0324,0.013523,0.002678,0.000431,0.003173
108098000,0.0324,0.013523,0.002678,0.000431,0.004819
108099000,0.0324,0.013523,0.002678,0.000431,0.002586
108100000,0.0324,0.013523,0.002678,0.000431,0.002468
108101000,0.0324,0.013523,0.002678,0.000431,0.002703
108102000,0.0324,0.013523,0.002678,0.000431,0.002351
108103000,0.0324,0.013523,0.002678,0.000431,0.002586
108104000,0.0324,0.013523,0.002678,0.000431,0.002586
108105000,0.0324,0.013523,0.002678,0.000431,0.003173
108106000,0.0324,0.013523,0.002678,0.000431,0.002703
108107000,0.0324,0.013523,0.002678,0.000431,0.001645
108108000,0.0324,0.013523,0.002678,0.000431,0.001645
108109000,0.0324,0.013523,0.002678,0.000431,0.001763
108110000,0.0324,0.013523,0.002678,0.000431,0.001645
108111000,0.0324,0.013523,0.002678,0.000431,0.001645
108112000,0.0324,0.013523,0.002678,0.000431,0.001645
108113000,0.0324,0.013523,0.002678,0.000431,0.001763
108114000,0.0324,0.013523,0.002678,0.000431,0.001645
108115000,0.0324,0.013523,0.002678,0.000431,0.001645
108116000,0.0324,0.013523,0.002678,0.000431,0.001645
108117000,0.0324,0.013523,0.002678,0.000431,0.001528
108118000,0.0324,0.013523,0.002678,0.000431,0.001763
108119000,0.0324,0.013523,0.002678,0.000431,0.001763
108120000,0.0324,0.013523,0.002678,0.000431,0.001645
108121000,0.0324,0.013523,0.002678,0.000431,0.001763
108122000,0.0324,0.013523,0.002678,0.000431,0.001528
108123000,0.0324,0.013523,0.002678,0.000431,0.001645
108124000,0.0324,0.013523,0.002678,0.000431,0.001880
108125000,0.0324,0.013523,0.002678,0.000431,0.001645
108126000,0.0324,0.013523,0.002678,0.000431,0.001645
108127000,0.0324,0.013523,0.002678,0.000431,0.001645
108128000,0.0324,0.013523,0.002678,0.000431,0.001645
108129000,0.0324,0.013523,0.002678,0.000431,0.001763
108130000,0.0324,0.013523,0.002678,0.000431,0.001645
108131000,0.0324,0.013523,0.002678,0.000431,0.001645
108132000,0.0324,0.013523,0.002678,0.000431,0.001763
108133000,0.0324,0.013523,0.002678,0.000431,0.001645
108134000,0.0324,0.013523,0.002678,0.000431,0.001645
108135000,0.0324,0.013523,0.002678,0.000431,0.001763
108136000,0.0324,0.013523,0.002678,0.000431,0.001528
108137000,0.0324,0.013523,0.002678,0.000431,0.001763
108138000,0.0324,0.013523,0.002678,0.000431,0.001645
108139000,0.0324,0.013523,0.002678,0.000431,0.001645
108140000,0.0324,0.013523,0.002678,0.000431,0.001528
108141000,0.0324,0.013523,0.002678,0.000431,0.001880
108142000,0.0324,0.013523,0.002678,0.000431,0.001645
108143000,0.0324,0.013523,0.002678,0.000431,0.001645
108144000,0.0324,0.013523,0.002678,0.000431,0.001763
108145000,0.0324,0.013523,0.002678,0.000431,0.001528
108146000,0.0324,0.013523,0.002678,0.000431,0.001645
108147000,0.0324,0.013523,0.002678,0.000431,0.001763
108148000,0.0324,0.013523,0.002678,0.000431,0.001763
108149000,0.0324,0.013523,0.002678,0.000431,0.001645
108150000,0.0324,0.013523,0.002678,0.000431,0.001645
108151000,0.0324,0.013523,0.002678,0.000431,0.001645
108152000,0.0324,0.013523,0.002678,0.000431,0.001763
108153000,0.0324,0.013523,0.002678,0.000431,0.001645
108154000,0.0324,0.013523,0.002678,0.000431,0.001645
108155000,0.0324,0.013523,0.002678,0.000431,0.001763
108156000,0.0324,0.013523,0.002678,0.000431,0.001528
108157000,0.0324,0.013523,0.002678,0.000431,0.001763
108158000,0.0324,0.013523,0.002678,0.000431,0.001763
108159000,0.0324,0.013523,0.002678,0.000431,0.001645
108160000,0.0324,0.013523,0.002678,0.000431,0.001645
108161000,0.0324,0.013523,0.002678,0.000431,0.001645
108162000,0.0324,0.013523,0.002678,0.000431,0.001645
108163000,0.0324,0.013523,0.002678,0.000431,0.001645
108164000,0.0324,0.013523,0.002678,0.000431,0.001763
108165000,0.0324,0.013523,0.002678,0.000431,0.001528
108166000,0.0324,0.013523,0.002678,0.000431,0.001645
108167000,0.0324,0.013523,0.002678,0.000431,0.001880
108168000,0.0324,0.013523,0.002678,0.000431,0.001645
108169000,0.0324,0.013523,0.002678,0.000431,0.001645
108170000,0.0324,0.013523,0.002678,0.000431,0.001528
108171000,0.0324,0.013523,0.002678,0.000431,0.001763
108172000,0.0324,0.013523,0.002678,0.000431,0.001763
108173000,0.0324,0.013523,0.002678,0.000431,0.001645
108174000,0.0324,0.013523,0.002678,0.000431,0.001763
108175000,0.0324,0.013523,0.002678,0.000431,0.001528
108176000,0.0324,0.013523,0.002678,0.000431,0.001645
108177000,0.0324,0.013523,0.002678,0.000431,0.001763
108178000,0.0324,0.013523,0.002678,0.000431,0.001763
108179000,0.0324,0.013523,0.002678,0.000431,0.001645
108180000,0.0324,0.013523,0.002678,0.000431,0.001645
108181000,0.0324,0.013523,0.002678,0.000431,0.001645
108182000,0.0324,0.013523,0.002678,0.000431,0.001763
108183000,0.0324,0.013523,0.002678,0.000431,0.001645
108184000,0.0324,0.013523,0.002678,0.000431,0.001645
108185000,0.0324,0.013523,0.002678,0.000431,0.001645
108186000,0.0324,0.013523,0.002678,0.000431,0.001645
108187000,0.0324,0.013523,0.002678,0.000431,0.001763
108188000,0.0324,0.013523,0.002678,0.000431,0.001645
108189000,0.0324,0.013523,0.002678,0.000431,0.001645
108190000,0.0324,0.013523,0.002678,0.000431,0.001763
108191000,0.0324,0.013523,0.002678,0.000431,0.001645
108192000,0.0324,0.013523,0.002678,0.000431,0.001645
108193000,0.0324,0.013523,0.002678,0.000431,0.001528
108194000,0.0324,0.013523,0.002678,0.000431,0.001763
108195000,0.0324,0.013523,0.002678,0.000431,0.001763
108196000,0.0324,0.013523,0.002678,0.000431,0.001645
108197000,0.0324,0.013523,0.002678,0.000431,0.001645
108198000,0.0324,0.013523,0.002678,0.000431,0.001645
108199000,0.0324,0.013523,0.002678,0.000431,0.001645
108200000,0.0324,0.013523,0.002678,0.000431,0.001645
108201000,0.0324,0.013523,0.002678,0.000431,0.001645
108202000,0.0324,0.013523,0.002678,0.000431,0.001880
108203000,0.0324,0.013523,0.002678,0.000431,0.001410
108204000,0.0324,0.013523,0.002678,0.000431,0.001763
108205000,0.0324,0.013523,0.002678,0.000431,0.001763
108206000,0.0324,0.013523,0.002678,0.000431,0.001645
108207000,0.0324,0.013523,0.002678,0.000431,0.001645
108208000,0.0324,0.013523,0.002678,0.000431,0.001645
108209000,0.0324,0.013523,0.002678,0.000431,0.003643
108210000,0.0324,0.013523,0.002678,0.000431,0.000940
108211000,0.0324,0.013523,0.002678,0.000431,0.000940
108212000,0.0324,0.013523,0.002678,0.000431,0.000823
108213000,0.0324,0.013523,0.002678,0.000431,0.000823
108214000,0.0324,0.013523,0.002678,0.000431,0.000705
108215000,0.0324,0.013523,0.002678,0.000431,0.000940
108216000,0.0324,0.013523,0.002678,0.000431,0.000940
108217000,0.0324,0.013523,0.002678,0.000431,0.000705
108218000,0.0324,0.013523,0.002678,0.000431,0.000940
108219000,0.0324,0.013523,0.002678,0.000431,0.000705
108220000,0.0324,0.013523,0.002678,0.000431,0.000940
108221000,0.0324,0.013523,0.002678,0.000431,0.000823
108222000,0.0324,0.013523,0.002678,0.000431,0.000823
108223000,0.0324,0.013523,0.002678,0.000431,0.000823
108224000,0.0324,0.013523,0.002678,0.000431,0.000823
108225000,0.0324,0.013523,0.002678,0.000431,0.000940
108226000,0.0324,0.013523,0.002678,0.000431,0.000823
108227000,0.0324,0.013523,0.002678,0.000431,0.000823
108228000,0.0324,0.013523,0.002678,0.000431,0.000823
108229000,0.0324,0.013523,0.002678,0.000431,0.000823
108230000,0.0324,0.013523,0.002678,0.000431,0.000823
108231000,0.0324,0.013523,0.002678,0.000431,0.000823
108232000,0.0324,0.013523,0.002678,0.000431,0.000940
108233000,0.0324,0.013523,0.002678,0.000431,0.000705
108234000,0.0324,0.013523,0.002678,0.000431,0.000940
108235000,0.0324,0.013523,0.002678,0.000431,0.000823
108236000,0.0324,0.013523,0.002678,0.000431,0.000823
108237000,0.0324,0.013523,0.002678,0.000431,0.000705
108238000,0.0324,0.013523,0.002678,0.000431,0.000940
108239000,0.0324,0.013523,0.002678,0.000431,0.000940
108240000,0.0324,0.013523,0.002678,0.000431,0.000705
108241000,0.0324,0.013523,0.002678,0.000431,0.000940
108242000,0.0324,0.013523,0.002678,0.000431,0.000705
108243000,0.0324,0.013523,0.002678,0.000431,0.000940
108244000,0.0324,0.013523,0.002678,0.000431,0.000823
108245000,0.0324,0.013523,0.002678,0.000431,0.000823
108246000,0.0324,0.013523,0.002678,0.000431,0.000940
108247000,0.0324,0.013523,0.002678,0.000431,0.000705
108248000,0.0324,0.013523,0.002678,0.000431,0.000940
108249000,0.0324,0.013523,0.002678,0.000431,0.000823
108250000,0.0324,0.013523,0.002678,0.000431,0.000823
108251000,0.0324,0.013523,0.002678,0.000431,0.000823
108252000,0.0324,0.013523,0.002678,0.000431,0.000823
108253000,0.0324,0.013523,0.002678,0.000431,0.000823
108254000,0.0324,0.013523,0.002678,0.000431,0.000823
108255000,0.0324,0.013523,0.002678,0.000431,0.000940
108256000,0.0324,0.013523,0.002678,0.000431,0.010930
108257000,0.0324,0.013523,0.002678,0.000431,0.449193
108258000,0.0324,0.013523,0.002678,0.000431,0.615613
108259000,0.0324,0.013523,0.002678,0.000431,0.132102
108260000,0.0324,0.013523,0.002678,0.000431,0.133512
108261000,0.0324,0.013523,0.002678,0.000431,0.211316
108262000,0.0324,0.013523,0.002678,0.000431,0.525469
108263000,0.0324,0.013523,0.002678,0.000431,0.253156
108264000,0.0324,0.013523,0.002678,0.000431,0.257622
108265000,0.0324,0.013523,0.002678,0.000431,0.236467
108266000,0.0324,0.013523,0.002678,0.000431,0.143384
108267000,0.0324,0.013523,0.002678,0.000431,0.176175
108268000,0.0324,0.013523,0.002678,0.000431,0.097666
108269000,0.0324,0.013523,0.002678,0.000431,0.468702
108270000,0.0324,0.013523,0.002678,0.000431,0.106833
108271000,0.0324,0.013523,0.002678,0.000431,0.054416
108272000,0.0324,0.013523,0.002678,0.000431,0.049479
108273000,0.0324,0.013523,0.002678,0.000431,0.055708
108274000,0.0324,0.013523,0.002678,0.000431,0.039372
108275000,0.0324,0.013523,0.002678,0.000431,0.038784
108276000,0.0324,0.013523,0.002678,0.000431,0.033966
108277000,0.0324,0.013523,0.002678,0.000431,0.031145
108278000,0.0324,0.013523,0.002678,0.000431,0.030910
108279000,0.0324,0.013523,0.002678,0.000431,0.026679
108280000,0.0324,0.013523,0.002678,0.000431,0.025034
108281000,0.0324,0.013523,0.002678,0.000431,0.021860
108282000,0.0324,0.013523,0.002678,0.000431,0.029265
108283000,0.0324,0.013523,0.002678,0.000431,0.017864
108284000,0.0324,0.013523,0.002678,0.000431,0.017629
108285000,0.0324,0.013523,0.002678,0.000431,0.016454
108286000,0.0324,0.013523,0.002678,0.000431,0.015514
108287000,0.0324,0.013523,0.002678,0.000431,0.014221
108288000,0.0324,0.013523,0.002678,0.000431,0.017864
108289000,0.0324,0.013523,0.002678,0.000431,0.014573
108290000,0.0324,0.013523,0.002678,0.000431,0.011165
108291000,0.0324,0.013523,0.002678,0.000431,0.014926
108292000,0.0324,0.013523,0.002678,0.000431,0.010695
108293000,0.0324,0.013523,0.002678,0.000431,0.011988
108294000,0.0324,0.013523,0.002678,0.000431,0.008932
108295000,0.0324,0.013523,0.002678,0.000431,0.009755
108296000,0.0324,0.013523,0.002678,0.000431,0.007287
108297000,0.0324,0.013523,0.002678,0.000431,0.007287
108298000,0.0324,0.013523,0.002678,0.000431,0.007404
108299000,0.0324,0.013523,0.002678,0.000431,0.007639
108300000,0.0324,0.013523,0.002678,0.000431,0.007757
108301000,0.0324,0.013523,0.002678,0.000431,0.007169
108302000,0.0324,0.013523,0.002678,0.000431,0.007287
108303000,0.0324,0.013523,0.002678,0.000431,0.007639
108304000,0.0324,0.013523,0.002678,0.000431,0.007052
108305000,0.0324,0.013523,0.002678,0.000431,0.007639
108306000,0.0324,0.013523,0.002678,0.000431,0.007522
108307000,0.0324,0.013523,0.002678,0.000431,0.006934
108308000,0.0324,0.013523,0.002678,0.000431,0.007757
108309000,0.0324,0.013523,0.002678,0.000431,0.007639
108310000,0.0324,0.013523,0.002678,0.000431,0.007169
108311000,0.0324,0.013523,0.002678,0.000431,0.007287
108312000,0.0324,0.013523,0.002678,0.000431,0.007639
108313000,0.0324,0.013523,0.002678,0.000431,0.007404
108314000,0.0324,0.013523,0.002678,0.000431,0.007287
108315000,0.0324,0.013523,0.002678,0.000431,0.010107
108316000,0.0324,0.013523,0.002678,0.000431,0.006229
108317000,0.0324,0.013523,0.002678,0.000431,0.006817
108318000,0.0324,0.013523,0.002678,0.000431,0.006699
108319000,0.0324,0.013523,0.002678,0.000431,0.006111
108320000,0.0324,0.013523,0.002678,0.000431,0.007169
108321000,0.0324,0.013523,0.002678,0.000431,0.005994
108322000,0.0324,0.013523,0.002678,0.000431,0.007052
108323000,0.0324,0.013523,0.002678,0.000431,0.006464
108324000,0.0324,0.013523,0.002678,0.000431,0.006464
108325000,0.0324,0.013523,0.002678,0.000431,0.007169
108326000,0.0324,0.013523,0.002678,0.000431,0.006582
108327000,0.0324,0.013523,0.002678,0.000431,0.006111
108328000,0.0324,0.013523,0.002678,0.000431,0.006229
108329000,0.0324,0.013523,0.002678,0.000431,0.006817
108330000,0.0324,0.013523,0.002678,0.000431,0.005054
108331000,0.0324,0.013523,0.002678,0.000431,0.007287
108332000,0.0324,0.013523,0.002678,0.000431,0.003643
108333000,0.0324,0.013523,0.002678,0.000431,0.003526
108334000,0.0324,0.013523,0.002678,0.000431,0.003173
108335000,0.0324,0.013523,0.002678,0.000431,0.004936
108336000,0.0324,0.013523,0.002678,0.000431,0.002351
108337000,0.0324,0.013523,0.002678,0.000431,0.003291
108338000,0.0324,0.013523,0.002678,0.000431,0.000823
108339000,0.0324,0.013523,0.002678,0.000431,0.000940
108340000,0.0324,0.013523,0.002678,0.000431,0.000823
108341000,0.0324,0.013523,0.002678,0.000431,0.000940
108342000,0.0324,0.013523,0.002678,0.000431,0.000823
108343000,0.0324,0.013523,0.002678,0.000431,0.000823
108344000,0.0324,0.013523,0.002678,0.000431,0.000940
108345000,0.0324,0.013523,0.002678,0.000431,0.000940
108346000,0.0324,0.013523,0.002678,0.000431,0.000823
108347000,0.0324,0.013523,0.002678,0.000431,0.000823
108348000,0.0324,0.013523,0.002678,0.000431,0.000940
108349000,0.0324,0.013523,0.002678,0.000431,0.000940
108350000,0.0324,0.013523,0.002678,0.000431,0.000705
108351000,0.0324,0.013523,0.002678,0.000431,0.000940
108352000,0.0324,0.013523,0.002678,0.000431,0.000940
108353000,0.0324,0.013523,0.002678,0.000431,0.000940
108354000,0.0324,0.013523,0.002678,0.000431,0.000705
108355000,0.0324,0.013523,0.002678,0.000431,0.000940
108356000,0.0324,0.013523,0.002678,0.000431,0.000940
108357000,0.0324,0.013523,0.002678,0.000431,0.000823
108358000,0.0324,0.013523,0.002678,0.000431,0.000940
108359000,0.0324,0.013523,0.002678,0.000431,0.000823
108360000,0.0324,0.013523,0.002678,0.000431,0.000940
108361000,0.0324,0.013523,0.002678,0.000431,0.000823
108362000,0.0324,0.013523,0.002678,0.000431,0.000823
108363000,0.0324,0.013523,0.002678,0.000431,0.000940
108364000,0.0324,0.013523,0.002678,0.000431,0.000823
108365000,0.0324,0.013523,0.002678,0.000431,0.000940
108366000,0.0324,0.013523,0.002678,0.000431,0.000823
108367000,0.0324,0.013523,0.002678,0.000431,0.000940
108368000,0.0324,0.013523,0.002678,0.000431,0.000940
108369000,0.0324,0.013523,0.002678,0.000431,0.000705
108370000,0.0324,0.013523,0.002678,0.000431,0.000940
108371000,0.0324,0.013523,0.002678,0.000431,0.000940
108372000,0.0324,0.013523,0.002678,0.000431,0.000940
108373000,0.0324,0.013523,0.002678,0.000431,0.000705
108374000,0.0324,0.013523,0.002678,0.000431,0.000940
108375000,0.0324,0.013523,0.002678,0.000431,0.000940
108376000,0.0324,0.013523,0.002678,0.000431,0.000823
108377000,0.0324,0.013523,0.002678,0.000431,0.000823
108378000,0.0324,0.013523,0.002678,0.000431,0.000940
108379000,0.0324,0.013523,0.002678,0.000431,0.000823
108380000,0.0324,0.013523,0.002678,0.000431,0.000940
108381000,0.0324,0.013523,0.002678,0.000431,0.000823
108382000,0.0324,0.013523,0.002678,0.000431,0.000940
108383000,0.0324,0.013523,0.002678,0.000431,0.000823
108384000,0.0324,0.013523,0.002678,0.000431,0.000823
108385000,0.0324,0.013523,0.002678,0.000431,0.000940
108386000,0.0324,0.013523,0.002678,0.000431,0.000940
108387000,0.0324,0.013523,0.002678,0.000431,0.000823
108388000,0.0324,0.013523,0.002678,0.000431,0.000823
108389000,0.0324,0.013523,0.002678,0.000431,0.000940
108390000,0.0324,0.013523,0.002678,0.000431,0.000940
108391000,0.0324,0.013523,0.002678,0.000431,0.000823
108392000,0.0324,0.013523,0.002678,0.000431,0.000823
108393000,0.0324,0.013523,0.002678,0.000431,0.000940
108394000,0.0324,0.013523,0.002678,0.000431,0.000940
108395000,0.0324,0.013523,0.002678,0.000431,0.000823
108396000,0.0324,0.013523,0.002678,0.000431,0.000823
108397000,0.0324,0.013523,0.002678,0.000431,0.000940
108398000,0.0324,0.013523,0.002678,0.000431,0.000823
108399000,0.0324,0.013523,0.002678,0.000431,0.000940
108400000,0.0324,0.013523,0.002678,0.000431,0.000823
108401000,0.0324,0.013523,0.002678,0.000431,0.000940
108402000,0.0324,0.013523,0.002678,0.000431,0.000823
108403000,0.0324,0.013523,0.002678,0.000431,0.000823
108404000,0.0324,0.013523,0.002678,0.000431,0.000940
108405000,0.0324,0.013523,0.002678,0.000431,0.000940
108406000,0.0324,0.013523,0.002678,0.000431,0.000823
108407000,0.0324,0.013523,0.002678,0.000431,0.000823
108408000,0.0324,0.013523,0.002678,0.000431,0.000940
108409000,0.0324,0.013523,0.002678,0.000431,0.000940
108410000,0.0324,0.013523,0.002678,0.000431,0.002586
108411000,0.0324,0.013523,0.002678,0.000431,0.389253
108412000,0.0324,0.013523,0.002678,0.000431,0.699763
108413000,0.0324,0.013523,0.002678,0.000431,0.137390
108414000,0.0324,0.013523,0.002678,0.000431,0.134452
108415000,0.0324,0.013523,0.002678,0.000431,0.143384
108416000,0.0324,0.013523,0.002678,0.000431,0.585055
108417000,0.0324,0.013523,0.002678,0.000431,0.243401
108418000,0.0324,0.013523,0.002678,0.000431,0.296876
108419000,0.0324,0.013523,0.002678,0.000431,0.247514
108420000,0.0324,0.013523,0.002678,0.000431,0.143619
108421000,0.0324,0.013523,0.002678,0.000431,0.166302
108422000,0.0324,0.013523,0.002678,0.000431,0.124697
108423000,0.0324,0.013523,0.002678,0.000431,0.445549
108424000,0.0324,0.013523,0.002678,0.000431,0.075453
108425000,0.0324,0.013523,0.002678,0.000431,0.050067
108426000,0.0324,0.013523,0.002678,0.000431,0.040900
108427000,0.0324,0.013523,0.002678,0.000431,0.038902
108428000,0.0324,0.013523,0.002678,0.000431,0.033613
108429000,0.0324,0.013523,0.002678,0.000431,0.028559
108430000,0.0324,0.013523,0.002678,0.000431,0.024328
108431000,0.0324,0.013523,0.002678,0.000431,0.023388
108432000,0.0324,0.013523,0.002678,0.000431,0.021273
108433000,0.0324,0.013523,0.002678,0.000431,0.021508
108434000,0.0324,0.013523,0.002678,0.000431,0.017394
108435000,0.0324,0.013523,0.002678,0.000431,0.017394
108436000,0.0324,0.013523,0.002678,0.000431,0.017394
108437000,0.0324,0.013523,0.002678,0.000431,0.019040
108438000,0.0324,0.013523,0.002678,0.000431,0.020802
108439000,0.0324,0.013523,0.002678,0.000431,0.014573
108440000,0.0324,0.013523,0.002678,0.000431,0.015161
108441000,0.0324,0.013523,0.002678,0.000431,0.016336
108442000,0.0324,0.013523,0.002678,0.000431,0.014338
108443000,0.0324,0.013523,0.002678,0.000431,0.013398
108444000,0.0324,0.013523,0.002678,0.000431,0.014103
108445000,0.0324,0.013523,0.002678,0.000431,0.014809
108446000,0.0324,0.013523,0.002678,0.000431,0.011518
108447000,0.0324,0.013523,0.002678,0.000431,0.015631
108448000,0.0324,0.013523,0.002678,0.000431,0.011753
108449000,0.0324,0.013523,0.002678,0.000431,0.012223
108450000,0.0324,0.013523,0.002678,0.000431,0.010107
108451000,0.0324,0.013523,0.002678,0.000431,0.009520
108452000,0.0324,0.013523,0.002678,0.000431,0.010695
108453000,0.0324,0.013523,0.002678,0.000431,0.010578
108454000,0.0324,0.013523,0.002678,0.000431,0.010695
108455000,0.0324,0.013523,0.002678,0.000431,0.010578
108456000,0.0324,0.013523,0.002678,0.000431,0.007874
108457000,0.0324,0.013523,0.002678,0.000431,0.011283
108458000,0.0324,0.013523,0.002678,0.000431,0.007757
108459000,0.0324,0.013523,0.002678,0.000431,0.006699
108460000,0.0324,0.013523,0.002678,0.000431,0.008580
108461000,0.0324,0.013523,0.002678,0.000431,0.007639
108462000,0.0324,0.013523,0.002678,0.000431,0.006699
108463000,0.0324,0.013523,0.002678,0.000431,0.006582
108464000,0.0324,0.013523,0.002678,0.000431,0.006111
108465000,0.0324,0.013523,0.002678,0.000431,0.006817
108466000,0.0324,0.013523,0.002678,0.000431,0.006347
108467000,0.0324,0.013523,0.002678,0.000431,0.006464
108468000,0.0324,0.013523,0.002678,0.000431,0.006347
108469000,0.0324,0.013523,0.002678,0.000431,0.006699
108470000,0.0324,0.013523,0.002678,0.000431,0.006229
108471000,0.0324,0.013523,0.002678,0.000431,0.006464
108472000,0.0324,0.013523,0.002678,0.000431,0.006817
108473000,0.0324,0.013523,0.002678,0.000431,0.006347
108474000,0.0324,0.013523,0.002678,0.000431,0.006347
108475000,0.0324,0.013523,0.002678,0.000431,0.006582
108476000,0.0324,0.013523,0.002678,0.000431,0.006699
108477000,0.0324,0.013523,0.002678,0.000431,0.005994
108478000,0.0324,0.013523,0.002678,0.000431,0.006582
108479000,0.0324,0.013523,0.002678,0.000431,0.008109
108480000,0.0324,0.013523,0.002678,0.000431,0.005994
108481000,0.0324,0.013523,0.002678,0.000431,0.005406
108482000,0.0324,0.013523,0.002678,0.000431,0.005406
108483000,0.0324,0.013523,0.002678,0.000431,0.005994
108484000,0.0324,0.013523,0.002678,0.000431,0.005406
108485000,0.0324,0.013523,0.002678,0.000431,0.005641
108486000,0.0324,0.013523,0.002678,0.000431,0.005641
108487000,0.0324,0.013523,0.002678,0.000431,0.005524
108488000,0.0324,0.013523,0.002678,0.000431,0.005876
108489000,0.0324,0.013523,0.002678,0.000431,0.005876
108490000,0.0324,0.013523,0.002678,0.000431,0.005524
108491000,0.0324,0.013523,0.002678,0.000431,0.005759
108492000,0.0324,0.013523,0.002678,0.000431,0.006464
108493000,0.0324,0.013523,0.002678,0.000431,0.005759
108494000,0.0324,0.013523,0.002678,0.000431,0.006699
108495000,0.0324,0.013523,0.002678,0.000431,0.003878
108496000,0.0324,0.013523,0.002678,0.000431,0.004113
108497000,0.0324,0.013523,0.002678,0.000431,0.003996
108498000,0.0324,0.013523,0.002678,0.000431,0.003996
108499000,0.0324,0.013523,0.002678,0.000431,0.003878
108500000,0.0324,0.013523,0.002678,0.000431,0.005524
108501000,0.0324,0.013523,0.002678,0.000431,0.002116
108502000,0.0324,0.013523,0.002678,0.000431,0.002351
108503000,0.0324,0.013523,0.002678,0.000431,0.002586
108504000,0.0324,0.013523,0.002678,0.000431,0.001998
108505000,0.0324,0.013523,0.002678,0.000431,0.001645
108506000,0.0324,0.013523,0.002678,0.000431,0.001763
108507000,0.0324,0.013523,0.002678,0.000431,0.001645
108508000,0.0324,0.013523,0.002678,0.000431,0.001645
108509000,0.0324,0.013523,0.002678,0.000431,0.001763
108510000,0.0324,0.013523,0.002678,0.000431,0.001880
108511000,0.0324,0.013523,0.002678,0.000431,0.001528
108512000,0.0324,0.013523,0.002678,0.000431,0.001763
108513000,0.0324,0.013523,0.002678,0.000431,0.001645
108514000,0.0324,0.013523,0.002678,0.000431,0.001880
108515000,0.0324,0.013523,0.002678,0.000431,0.001763
108516000,0.0324,0.013523,0.002678,0.000431,0.001528
108517000,0.0324,0.013523,0.002678,0.000431,0.003761
108518000,0.0324,0.013523,0.002678,0.000431,0.000823
108519000,0.0324,0.013523,0.002678,0.000431,0.000940
108520000,0.0324,0.013523,0.002678,0.000431,0.000823
108521000,0.0324,0.013523,0.002678,0.000431,0.000823
108522000,0.0324,0.013523,0.002678,0.000431,0.000823
108523000,0.0324,0.013523,0.002678,0.000431,0.000823
108524000,0.0324,0.013523,0.002678,0.000431,0.000940
108525000,0.0324,0.013523,0.002678,0.000431,0.003526
108526000,0.0324,0.013523,0.002678,0.000431,0.378206
108527000,0.0324,0.013523,0.002678,0.000431,0.697060
108528000,0.0324,0.013523,0.002678,0.000431,0.135980
108529000,0.0324,0.013523,0.002678,0.000431,0.134922
108530000,0.0324,0.013523,0.002678,0.000431,0.140916
108531000,0.0324,0.013523,0.002678,0.000431,0.589404
108532000,0.0324,0.013523,0.002678,0.000431,0.247514
108533000,0.0324,0.013523,0.002678,0.000431,0.275486
108534000,0.0324,0.013523,0.002678,0.000431,0.248220
108535000,0.0324,0.013523,0.002678,0.000431,0.138918
108536000,0.0324,0.013523,0.002678,0.000431,0.185107
108537000,0.0324,0.013523,0.002678,0.000431,0.082505
108538000,0.0324,0.013523,0.002678,0.000431,0.464589
108539000,0.0324,0.013523,0.002678,0.000431,0.068636
108540000,0.0324,0.013523,0.002678,0.000431,0.028089
108541000,0.0324,0.013523,0.002678,0.000431,0.019510
108542000,0.0324,0.013523,0.002678,0.000431,0.018334
108543000,0.0324,0.013523,0.002678,0.000431,0.020685
108544000,0.0324,0.013523,0.002678,0.000431,0.015161
108545000,0.0324,0.013523,0.002678,0.000431,0.011988
108546000,0.0324,0.013523,0.002678,0.000431,0.013046
108547000,0.0324,0.013523,0.002678,0.000431,0.011165
108548000,0.0324,0.013523,0.002678,0.000431,0.011048
108549000,0.0324,0.013523,0.002678,0.000431,0.008815
108550000,0.0324,0.013523,0.002678,0.000431,0.009402
108551000,0.0324,0.013523,0.002678,0.000431,0.011283
108552000,0.0324,0.013523,0.002678,0.000431,0.007757
108553000,0.0324,0.013523,0.002678,0.000431,0.007639
108554000,0.0324,0.013523,0.002678,0.000431,0.007639
108555000,0.0324,0.013523,0.002678,0.000431,0.007874
108556000,0.0324,0.013523,0.002678,0.000431,0.007287
108557000,0.0324,0.013523,0.002678,0.000431,0.007639
108558000,0.0324,0.013523,0.002678,0.000431,0.007404
108559000,0.0324,0.013523,0.002678,0.000431,0.007992
108560000,0.0324,0.013523,0.002678,0.000431,0.007522
108561000,0.0324,0.013523,0.002678,0.000431,0.007522
108562000,0.0324,0.013523,0.002678,0.000431,0.009990
108563000,0.0324,0.013523,0.002678,0.000431,0.006347
108564000,0.0324,0.013523,0.002678,0.000431,0.007874
108565000,0.0324,0.013523,0.002678,0.000431,0.006699
108566000,0.0324,0.013523,0.002678,0.000431,0.007639
108567000,0.0324,0.013523,0.002678,0.000431,0.006347
108568000,0.0324,0.013523,0.002678,0.000431,0.003761
108569000,0.0324,0.013523,0.002678,0.000431,0.004466
108570000,0.0324,0.013523,0.002678,0.000431,0.004113
108571000,0.0324,0.013523,0.002678,0.000431,0.004584
108572000,0.0324,0.013523,0.002678,0.000431,0.003996
108573000,0.0324,0.013523,0.002678,0.000431,0.004231
108574000,0.0324,0.013523,0.002678,0.000431,0.004466
108575000,0.0324,0.013523,0.002678,0.000431,0.004231
108576000,0.0324,0.013523,0.002678,0.000431,0.004231
108577000,0.0324,0.013523,0.002678,0.000431,0.004113
108578000,0.0324,0.013523,0.002678,0.000431,0.004584
108579000,0.0324,0.013523,0.002678,0.000431,0.004113
108580000,0.0324,0.013523,0.002678,0.000431,0.004113
108581000,0.0324,0.013523,0.002678,0.000431,0.004466
108582000,0.0324,0.013523,0.002678,0.000431,0.004349
108583000,0.0324,0.013523,0.002678,0.000431,0.005759
108584000,0.0324,0.013523,0.002678,0.000431,0.005054
108585000,0.0324,0.013523,0.002678,0.000431,0.003526
108586000,0.0324,0.013523,0.002678,0.000431,0.003526
108587000,0.0324,0.013523,0.002678,0.000431,0.003526
108588000,0.0324,0.013523,0.002678,0.000431,0.003291
108589000,0.0324,0.013523,0.002678,0.000431,0.003526
108590000,0.0324,0.013523,0.002678,0.000431,0.003056
108591000,0.0324,0.013523,0.002678,0.000431,0.003526
108592000,0.0324,0.013523,0.002678,0.000431,0.003643
108593000,0.0324,0.013523,0.002678,0.000431,0.003408
108594000,0.0324,0.013523,0.002678,0.000431,0.003526
108595000,0.0324,0.013523,0.002678,0.000431,0.003291
108596000,0.0324,0.013523,0.002678,0.000431,0.005641
108597000,0.0324,0.013523,0.002678,0.000431,0.004466
108598000,0.0324,0.013523,0.002678,0.000431,0.001763
108599000,0.0324,0.013523,0.002678,0.000431,0.001528
108600000,0.0324,0.013523,0.002678,0.000431,0.001880
108601000,0.0324,0.013523,0.002678,0.000431,0.001763
108602000,0.0324,0.013523,0.002678,0.000431,0.001645
108603000,0.0324,0.013523,0.002678,0.000431,0.001645
108604000,0.0324,0.013523,0.002678,0.000431,0.001763
108605000,0.0324,0.013523,0.002678,0.000431,0.001645
108606000,0.0324,0.013523,0.002678,0.000431,0.001763
108607000,0.0324,0.013523,0.002678,0.000431,0.001763
108608000,0.0324,0.013523,0.002678,0.000431,0.001645
108609000,0.0324,0.013523,0.002678,0.000431,0.001645
108610000,0.0324,0.013523,0.002678,0.000431,0.001763
108611000,0.0324,0.013523,0.002678,0.000431,0.001763
108612000,0.0324,0.013523,0.002678,0.000431,0.001763
108613000,0.0324,0.013523,0.002678,0.000431,0.001645
108614000,0.0324,0.013523,0.002678,0.000431,0.001528
108615000,0.0324,0.013523,0.002678,0.000431,0.001880
108616000,0.0324,0.013523,0.002678,0.000431,0.001880
108617000,0.0324,0.013523,0.002678,0.000431,0.001528
108618000,0.0324,0.013523,0.002678,0.000431,0.001763
108619000,0.0324,0.013523,0.002678,0.000431,0.001645
108620000,0.0324,0.013523,0.002678,0.000431,0.001880
108621000,0.0324,0.013523,0.002678,0.000431,0.001763
108622000,0.0324,0.013523,0.002678,0.000431,0.001528
108623000,0.0324,0.013523,0.002678,0.000431,0.001880
108624000,0.0324,0.013523,0.002678,0.000431,0.001528
108625000,0.0324,0.013523,0.002678,0.000431,0.001880
108626000,0.0324,0.013523,0.002678,0.000431,0.001645
108627000,0.0324,0.013523,0.002678,0.000431,0.001763
108628000,0.0324,0.013523,0.002678,0.000431,0.001645
108629000,0.0324,0.013523,0.002678,0.000431,0.001645
108630000,0.0324,0.013523,0.002678,0.000431,0.001880
108631000,0.0324,0.013523,0.002678,0.000431,0.001645
108632000,0.0324,0.013523,0.002678,0.000431,0.001645
108633000,0.0324,0.013523,0.002678,0.000431,0.001763
108634000,0.0324,0.013523,0.002678,0.000431,0.001763
108635000,0.0324,0.013523,0.002678,0.000431,0.001880
108636000,0.0324,0.013523,0.002678,0.000431,0.001410
108637000,0.0324,0.013523,0.002678,0.000431,0.001880
108638000,0.0324,0.013523,0.002678,0.000431,0.001763
108639000,0.0324,0.013523,0.002678,0.000431,0.001645
108640000,0.0324,0.013523,0.002678,0.000431,0.001645
108641000,0.0324,0.013523,0.002678,0.000431,0.001763
108642000,0.0324,0.013523,0.002678,0.000431,0.001763
108643000,0.0324,0.013523,0.002678,0.000431,0.001645
108644000,0.0324,0.013523,0.002678,0.000431,0.001645
108645000,0.0324,0.013523,0.002678,0.000431,0.001763
108646000,0.0324,0.013523,0.002678,0.000431,0.001763
108647000,0.0324,0.013523,0.002678,0.000431,0.001763
108648000,0.0324,0.013523,0.002678,0.000431,0.001645
108649000,0.0324,0.013523,0.002678,0.000431,0.001645
108650000,0.0324,0.013523,0.002678,0.000431,0.001763
108651000,0.0324,0.013523,0.002678,0.000431,0.001763
108652000,0.0324,0.013523,0.002678,0.000431,0.001645
108653000,0.0324,0.013523,0.002678,0.000431,0.001880
108654000,0.0324,0.013523,0.002678,0.000431,0.001645
108655000,0.0324,0.013523,0.002678,0.000431,0.001645
108656000,0.0324,0.013523,0.002678,0.000431,0.001763
108657000,0.0324,0.013523,0.002678,0.000431,0.001763
108658000,0.0324,0.013523,0.002678,0.000431,0.001763
108659000,0.0324,0.013523,0.002678,0.000431,0.001528
108660000,0.0324,0.013523,0.002678,0.000431,0.001880
108661000,0.0324,0.013523,0.002678,0.000431,0.001763
108662000,0.0324,0.013523,0.002678,0.000431,0.001645
108663000,0.0324,0.013523,0.002678,0.000431,0.001645
108664000,0.0324,0.013523,0.002678,0.000431,0.001763
108665000,0.0324,0.013523,0.002678,0.000431,0.001763
108666000,0.0324,0.013523,0.002678,0.000431,0.001880
108667000,0.0324,0.013523,0.002678,0.000431,0.001528
108668000,0.0324,0.013523,0.002678,0.000431,0.001645
108669000,0.0324,0.013523,0.002678,0.000431,0.001763
108670000,0.0324,0.013523,0.002678,0.000431,0.001763
108671000,0.0324,0.013523,0.002678,0.000431,0.001645
108672000,0.0324,0.013523,0.002678,0.000431,0.001880
108673000,0.0324,0.013523,0.002678,0.000431,0.001528
108674000,0.0324,0.013523,0.002678,0.000431,0.001763
108675000,0.0324,0.013523,0.002678,0.000431,0.001763
108676000,0.0324,0.013523,0.002678,0.000431,0.001763
108677000,0.0324,0.013523,0.002678,0.000431,0.001763
108678000,0.0324,0.013523,0.002678,0.000431,0.001528
108679000,0.0324,0.013523,0.002678,0.000431,0.001880
108680000,0.0324,0.013523,0.002678,0.000431,0.001645
108681000,0.0324,0.013523,0.002678,0.000431,0.001763
108682000,0.0324,0.013523,0.002678,0.000431,0.001645
108683000,0.0324,0.013523,0.002678,0.000431,0.003761
108684000,0.0324,0.013523,0.002678,0.000431,0.000823
108685000,0.0324,0.013523,0.002678,0.000431,0.000823
108686000,0.0324,0.013523,0.002678,0.000431,0.000940
108687000,0.0324,0.013523,0.002678,0.000431,0.000940
108688000,0.0324,0.013523,0.002678,0.000431,0.000823
108689000,0.0324,0.013523,0.002678,0.000431,0.000823
108690000,0.0324,0.013523,0.002678,0.000431,0.000940
108691000,0.0324,0.013523,0.002678,0.000431,0.000940
108692000,0.0324,0.013523,0.002678,0.000431,0.000705
108693000,0.0324,0.013523,0.002678,0.000431,0.000940
108694000,0.0324,0.013523,0.002678,0.000431,0.000940
108695000,0.0324,0.013523,0.002678,0.000431,0.000940
108696000,0.0324,0.013523,0.002678,0.000431,0.000705
108697000,0.0324,0.013523,0.002678,0.000431,0.000940
108698000,0.0324,0.013523,0.002678,0.000431,0.000940
108699000,0.0324,0.013523,0.002678,0.000431,0.000823
108700000,0.0324,0.013523,0.002678,0.000431,0.000823
108701000,0.0324,0.013523,0.002678,0.000431,0.000940
108702000,0.0324,0.013523,0.002678,0.000431,0.000940
108703000,0.0324,0.013523,0.002678,0.000431,0.000823
108704000,0.0324,0.013523,0.002678,0.000431,0.000823
108705000,0.0324,0.013523,0.002678,0.000431,0.000940
108706000,0.0324,0.013523,0.002678,0.000431,0.000823
108707000,0.0324,0.013523,0.002678,0.000431,0.000940
108708000,0.0324,0.013523,0.002678,0.000431,0.000823
108709000,0.0324,0.013523,0.002678,0.000431,0.000940
108710000,0.0324,0.013523,0.002678,0.000431,0.000823
108711000,0.0324,0.013523,0.002678,0.000431,0.000823
108712000,0.0324,0.013523,0.002678,0.000431,0.000940
108713000,0.0324,0.013523,0.002678,0.000431,0.000940
108714000,0.0324,0.013523,0.002678,0.000431,0.000940
108715000,0.0324,0.013523,0.002678,0.000431,0.000705
108716000,0.0324,0.013523,0.002678,0.000431,0.000940
108717000,0.0324,0.013523,0.002678,0.000431,0.000940
108718000,0.0324,0.013523,0.002678,0.000431,0.000823
108719000,0.0324,0.013523,0.002678,0.000431,0.000823
108720000,0.0324,0.013523,0.002678,0.000431,0.000940
108721000,0.0324,0.013523,0.002678,0.000431,0.000823
108722000,0.0324,0.013523,0.002678,0.000431,0.000940
108723000,0.0324,0.013523,0.002678,0.000431,0.000823
108724000,0.0324,0.013523,0.002678,0.000431,0.000940
108725000,0.0324,0.013523,0.002678,0.000431,0.000823
108726000,0.0324,0.013523,0.002678,0.000431,0.015044
108727000,0.0324,0.013523,0.002678,0.000431,0.456950
108728000,0.0324,0.013523,0.002678,0.000431,0.598101
108729000,0.0324,0.013523,0.002678,0.000431,0.133512
108730000,0.0324,0.013523,0.002678,0.000431,0.131161
108731000,0.0324,0.013523,0.002678,0.000431,0.389253
108732000,0.0324,0.013523,0.002678,0.000431,0.462121
108733000,0.0324,0.013523,0.002678,0.000431,0.221306
108734000,0.0324,0.013523,0.002678,0.000431,0.330607
108735000,0.0324,0.013523,0.002678,0.000431,0.171004
108736000,0.0324,0.013523,0.002678,0.000431,0.145030
108737000,0.0324,0.013523,0.002678,0.000431,0.115648
108738000,0.0324,0.013523,0.002678,0.000431,0.298169
108739000,0.0324,0.013523,0.002678,0.000431,0.290647
108740000,0.0324,0.013523,0.002678,0.000431,0.041017
108741000,0.0324,0.013523,0.002678,0.000431,0.036434
108742000,0.0324,0.013523,0.002678,0.000431,0.032673
108743000,0.0324,0.013523,0.002678,0.000431,0.031380
108744000,0.0324,0.013523,0.002678,0.000431,0.026091
108745000,0.0324,0.013523,0.002678,0.000431,0.020920
108746000,0.0324,0.013523,0.002678,0.000431,0.022918
108747000,0.0324,0.013523,0.002678,0.000431,0.017394
108748000,0.0324,0.013523,0.002678,0.000431,0.016807
108749000,0.0324,0.013523,0.002678,0.000431,0.020920
108750000,0.0324,0.013523,0.002678,0.000431,0.015279
108751000,0.0324,0.013523,0.002678,0.000431,0.013163
108752000,0.0324,0.013523,0.002678,0.000431,0.016219
108753000,0.0324,0.013523,0.002678,0.000431,0.008932
108754000,0.0324,0.013523,0.002678,0.000431,0.011635
108755000,0.0324,0.013523,0.002678,0.000431,0.008815
108756000,0.0324,0.013523,0.002678,0.000431,0.008580
108757000,0.0324,0.013523,0.002678,0.000431,0.008580
108758000,0.0324,0.013523,0.002678,0.000431,0.008109
108759000,0.0324,0.013523,0.002678,0.000431,0.007874
108760000,0.0324,0.013523,0.002678,0.000431,0.008815
108761000,0.0324,0.013523,0.002678,0.000431,0.009637
108762000,0.0324,0.013523,0.002678,0.000431,0.005641
108763000,0.0324,0.013523,0.002678,0.000431,0.007639
108764000,0.0324,0.013523,0.002678,0.000431,0.005171
108765000,0.0324,0.013523,0.002678,0.000431,0.004349
108766000,0.0324,0.013523,0.002678,0.000431,0.004113
108767000,0.0324,0.013523,0.002678,0.000431,0.004349
108768000,0.0324,0.013523,0.002678,0.000431,0.004466
108769000,0.0324,0.013523,0.002678,0.000431,0.004113
108770000,0.0324,0.013523,0.002678,0.000431,0.004349
108771000,0.0324,0.013523,0.002678,0.000431,0.004113
108772000,0.0324,0.013523,0.002678,0.000431,0.004349
108773000,0.0324,0.013523,0.002678,0.000431,0.004349
108774000,0.0324,0.013523,0.002678,0.000431,0.004349
108775000,0.0324,0.013523,0.002678,0.000431,0.003996
108776000,0.0324,0.013523,0.002678,0.000431,0.004349
108777000,0.0324,0.013523,0.002678,0.000431,0.004231
108778000,0.0324,0.013523,0.002678,0.000431,0.004349
108779000,0.0324,0.013523,0.002678,0.000431,0.004466
108780000,0.0324,0.013523,0.002678,0.000431,0.003996
108781000,0.0324,0.013523,0.002678,0.000431,0.004113
108782000,0.0324,0.013523,0.002678,0.000431,0.004584
108783000,0.0324,0.013523,0.002678,0.000431,0.004349
108784000,0.0324,0.013523,0.002678,0.000431,0.004349
108785000,0.0324,0.013523,0.002678,0.000431,0.004231
108786000,0.0324,0.013523,0.002678,0.000431,0.004466
108787000,0.0324,0.013523,0.002678,0.000431,0.004113
108788000,0.0324,0.013523,0.002678,0.000431,0.004349
108789000,0.0324,0.013523,0.002678,0.000431,0.004466
108790000,0.0324,0.013523,0.002678,0.000431,0.003878
108791000,0.0324,0.013523,0.002678,0.000431,0.004701
108792000,0.0324,0.013523,0.002678,0.000431,0.003878
108793000,0.0324,0.013523,0.002678,0.000431,0.004584
108794000,0.0324,0.013523,0.002678,0.000431,0.004466
108795000,0.0324,0.013523,0.002678,0.000431,0.002351
108796000,0.0324,0.013523,0.002678,0.000431,0.002586
108797000,0.0324,0.013523,0.002678,0.000431,0.002468
108798000,0.0324,0.013523,0.002678,0.000431,0.002703
108799000,0.0324,0.013523,0.002678,0.000431,0.002351
108800000,0.0324,0.013523,0.002678,0.000431,0.002586
108801000,0.0324,0.013523,0.002678,0.000431,0.002351
108802000,0.0324,0.013523,0.002678,0.000431,0.002703
108803000,0.0324,0.013523,0.002678,0.000431,0.002468
108804000,0.0324,0.013523,0.002678,0.000431,0.002468
108805000,0.0324,0.013523,0.002678,0.000431,0.002586
108806000,0.0324,0.013523,0.002678,0.000431,0.002351
108807000,0.0324,0.013523,0.002678,0.000431,0.002821
108808000,0.0324,0.013523,0.002678,0.000431,0.002351
108809000,0.0324,0.013523,0.002678,0.000431,0.002586
108810000,0.0324,0.013523,0.002678,0.000431,0.002233
108811000,0.0324,0.013523,0.002678,0.000431,0.002703
108812000,0.0324,0.013523,0.002678,0.000431,0.002703
108813000,0.0324,0.013523,0.002678,0.000431,0.002233
108814000,0.0324,0.013523,0.002678,0.000431,0.002821
108815000,0.0324,0.013523,0.002678,0.000431,0.002233
108816000,0.0324,0.013523,0.002678,0.000431,0.002703
108817000,0.0324,0.013523,0.002678,0.000431,0.002468
108818000,0.0324,0.013523,0.002678,0.000431,0.002468
108819000,0.0324,0.013523,0.002678,0.000431,0.002586
108820000,0.0324,0.013523,0.002678,0.000431,0.002351
108821000,0.0324,0.013523,0.002678,0.000431,0.002703
108822000,0.0324,0.013523,0.002678,0.000431,0.002351
108823000,0.0324,0.013523,0.002678,0.000431,0.002703
108824000,0.0324,0.013523,0.002678,0.000431,0.002233
108825000,0.0324,0.013523,0.002678,0.000431,0.002703
108826000,0.0324,0.013523,0.002678,0.000431,0.002586
108827000,0.0324,0.013523,0.002678,0.000431,0.002351
108828000,0.0324,0.013523,0.002678,0.000431,0.002586
108829000,0.0324,0.013523,0.002678,0.000431,0.002351
108830000,0.0324,0.013523,0.002678,0.000431,0.002703
108831000,0.0324,0.013523,0.002678,0.000431,0.002468
108832000,0.0324,0.013523,0.002678,0.000431,0.002586
108833000,0.0324,0.013523,0.002678,0.000431,0.002351
108834000,0.0324,0.013523,0.002678,0.000431,0.002586
108835000,0.0324,0.013523,0.002678,0.000431,0.002468
108836000,0.0324,0.013523,0.002678,0.000431,0.004349
108837000,0.0324,0.013523,0.002678,0.000431,0.001998
108838000,0.0324,0.013523,0.002678,0.000431,0.001410
108839000,0.0324,0.013523,0.002678,0.000431,0.001880
108840000,0.0324,0.013523,0.002678,0.000431,0.001410
108841000,0.0324,0.013523,0.002678,0.000431,0.001880
108842000,0.0324,0.013523,0.002678,0.000431,0.001763
108843000,0.0324,0.013523,0.002678,0.000431,0.001528
108844000,0.0324,0.013523,0.002678,0.000431,0.001763
108845000,0.0324,0.013523,0.002678,0.000431,0.001528
108846000,0.0324,0.013523,0.002678,0.000431,0.001763
108847000,0.0324,0.013523,0.002678,0.000431,0.001645
108848000,0.0324,0.013523,0.002678,0.000431,0.001645
108849000,0.0324,0.013523,0.002678,0.000431,0.001645
108850000,0.0324,0.013523,0.002678,0.000431,0.001763
108851000,0.0324,0.013523,0.002678,0.000431,0.001763
108852000,0.0324,0.013523,0.002678,0.000431,0.001528
108853000,0.0324,0.013523,0.002678,0.000431,0.001645
108854000,0.0324,0.013523,0.002678,0.000431,0.001763
108855000,0.0324,0.013523,0.002678,0.000431,0.001763
108856000,0.0324,0.013523,0.002678,0.000431,0.001763
108857000,0.0324,0.013523,0.002678,0.000431,0.001528
108858000,0.0324,0.013523,0.002678,0.000431,0.001763
108859000,0.0324,0.013523,0.002678,0.000431,0.001763
108860000,0.0324,0.013523,0.002678,0.000431,0.001763
108861000,0.0324,0.013523,0.002678,0.000431,0.001645
108862000,0.0324,0.013523,0.002678,0.000431,0.001763
108863000,0.0324,0.013523,0.002678,0.000431,0.001645
108864000,0.0324,0.013523,0.002678,0.000431,0.001763
108865000,0.0324,0.013523,0.002678,0.000431,0.001763
108866000,0.0324,0.013523,0.002678,0.000431,0.001528
108867000,0.0324,0.013523,0.002678,0.000431,0.001763
108868000,0.0324,0.013523,0.002678,0.000431,0.001645
108869000,0.0324,0.013523,0.002678,0.000431,0.001645
108870000,0.0324,0.013523,0.002678,0.000431,0.001763
108871000,0.0324,0.013523,0.002678,0.000431,0.001645
108872000,0.0324,0.013523,0.002678,0.000431,0.001645
108873000,0.0324,0.013523,0.002678,0.000431,0.001528
108874000,0.0324,0.013523,0.002678,0.000431,0.001880
108875000,0.0324,0.013523,0.002678,0.000431,0.001763
108876000,0.0324,0.013523,0.002678,0.000431,0.001528
108877000,0.0324,0.013523,0.002678,0.000431,0.001763
108878000,0.0324,0.013523,0.002678,0.000431,0.001528
108879000,0.0324,0.013523,0.002678,0.000431,0.001763
108880000,0.0324,0.013523,0.002678,0.000431,0.001645
108881000,0.0324,0.013523,0.002678,0.000431,0.001763
108882000,0.0324,0.013523,0.002678,0.000431,0.001645
108883000,0.0324,0.013523,0.002678,0.000431,0.001528
108884000,0.0324,0.013523,0.002678,0.000431,0.001880
108885000,0.0324,0.013523,0.002678,0.000431,0.001645
108886000,0.0324,0.013523,0.002678,0.000431,0.001645
108887000,0.0324,0.013523,0.002678,0.000431,0.001645
108888000,0.0324,0.013523,0.002678,0.000431,0.001528
108889000,0.0324,0.013523,0.002678,0.000431,0.001645
108890000,0.0324,0.013523,0.002678,0.000431,0.001880
108891000,0.0324,0.013523,0.002678,0.000431,0.001528
108892000,0.0324,0.013523,0.002678,0.000431,0.001763
108893000,0.0324,0.013523,0.002678,0.000431,0.001410
108894000,0.0324,0.013523,0.002678,0.000431,0.001880
108895000,0.0324,0.013523,0.002678,0.000431,0.001880
108896000,0.0324,0.013523,0.002678,0.000431,0.001410
108897000,0.0324,0.013523,0.002678,0.000431,0.001880
108898000,0.0324,0.013523,0.002678,0.000431,0.001410
108899000,0.0324,0.013523,0.002678,0.000431,0.001880
108900000,0.0324,0.013523,0.002678,0.000431,0.001528
108901000,0.0324,0.013523,0.002678,0.000431,0.001763
108902000,0.0324,0.013523,0.002678,0.000431,0.001763
108903000,0.0324,0.013523,0.002678,0.000431,0.001528
108904000,0.0324,0.013523,0.002678,0.000431,0.001763
108905000,0.0324,0.013523,0.002678,0.000431,0.001645
108906000,0.0324,0.013523,0.002678,0.000431,0.001645
108907000,0.0324,0.013523,0.002678,0.000431,0.001645
108908000,0.0324,0.013523,0.002678,0.000431,0.001645
108909000,0.0324,0.013523,0.002678,0.000431,0.001645
108910000,0.0324,0.013523,0.002678,0.000431,0.001763
108911000,0.0324,0.013523,0.002678,0.000431,0.001763
108912000,0.0324,0.013523,0.002678,0.000431,0.001528
108913000,0.0324,0.013523,0.002678,0.000431,0.001528
108914000,0.0324,0.013523,0.002678,0.000431,0.001880
108915000,0.0324,0.013523,0.002678,0.000431,0.001763
108916000,0.0324,0.013523,0.002678,0.000431,0.001528
108917000,0.0324,0.013523,0.002678,0.000431,0.001763
108918000,0.0324,0.013523,0.002678,0.000431,0.001410
108919000,0.0324,0.013523,0.002678,0.000431,0.001880
108920000,0.0324,0.013523,0.002678,0.000431,0.001763
108921000,0.0324,0.013523,0.002678,0.000431,0.001528
108922000,0.0324,0.013523,0.002678,0.000431,0.001880
108923000,0.0324,0.013523,0.002678,0.000431,0.001410
108924000,0.0324,0.013523,0.002678,0.000431,0.001880
108925000,0.0324,0.013523,0.002678,0.000431,0.001763
108926000,0.0324,0.013523,0.002678,0.000431,0.001528
108927000,0.0324,0.013523,0.002678,0.000431,0.001763
108928000,0.0324,0.013523,0.002678,0.000431,0.001528
108929000,0.0324,0.013523,0.002678,0.000431,0.001763
108930000,0.0324,0.013523,0.002678,0.000431,0.001645
108931000,0.0324,0.013523,0.002678,0.000431,0.001763
108932000,0.0324,0.013523,0.002678,0.000431,0.001528
108933000,0.0324,0.013523,0.002678,0.000431,0.001763
108934000,0.0324,0.013523,0.002678,0.000431,0.001763
108935000,0.0324,0.013523,0.002678,0.000431,0.001528
108936000,0.0324,0.013523,0.002678,0.000431,0.001645
108937000,0.0324,0.013523,0.002678,0.000431,0.001763
108938000,0.0324,0.013523,0.002678,0.000431,0.001763
108939000,0.0324,0.013523,0.002678,0.000431,0.001528
108940000,0.0324,0.013523,0.002678,0.000431,0.001763
108941000,0.0324,0.013523,0.002678,0.000431,0.001528
108942000,0.0324,0.013523,0.002678,0.000431,0.001763
108943000,0.0324,0.013523,0.002678,0.000431,0.001763
108944000,0.0324,0.013523,0.002678,0.000431,0.001528
108945000,0.0324,0.013523,0.002678,0.000431,0.001880
108946000,0.0324,0.013523,0.002678,0.000431,0.001645
108947000,0.0324,0.013523,0.002678,0.000431,0.001645
108948000,0.0324,0.013523,0.002678,0.000431,0.001763
108949000,0.0324,0.013523,0.002678,0.000431,0.001645
108950000,0.0324,0.013523,0.002678,0.000431,0.001645
108951000,0.0324,0.013523,0.002678,0.000431,0.001645
108952000,0.0324,0.013523,0.002678,0.000431,0.001645
108953000,0.0324,0.013523,0.002678,0.000431,0.001763
108954000,0.0324,0.013523,0.002678,0.000431,0.001645
108955000,0.0324,0.013523,0.002678,0.000431,0.001645
108956000,0.0324,0.013523,0.002678,0.000431,0.001645
108957000,0.0324,0.013523,0.002678,0.000431,0.001763
108958000,0.0324,0.013523,0.002678,0.000431,0.001645
108959000,0.0324,0.013523,0.002678,0.000431,0.001645
108960000,0.0324,0.013523,0.002678,0.000431,0.001645
108961000,0.0324,0.013523,0.002678,0.000431,0.001528
108962000,0.0324,0.013523,0.002678,0.000431,0.001763
108963000,0.0324,0.013523,0.002678,0.000431,0.001763
108964000,0.0324,0.013523,0.002678,0.000431,0.001645
108965000,0.0324,0.013523,0.002678,0.000431,0.001763
108966000,0.0324,0.013523,0.002678,0.000431,0.001528
108967000,0.0324,0.013523,0.002678,0.000431,0.001645
108968000,0.0324,0.013523,0.002678,0.000431,0.001880
108969000,0.0324,0.013523,0.002678,0.000431,0.001645
108970000,0.0324,0.013523,0.002678,0.000431,0.001645
108971000,0.0324,0.013523,0.002678,0.000431,0.001645
108972000,0.0324,0.013523,0.002678,0.000431,0.001645
108973000,0.0324,0.013523,0.002678,0.000431,0.001763
108974000,0.0324,0.013523,0.002678,0.000431,0.001645
108975000,0.0324,0.013523,0.002678,0.000431,0.001645
108976000,0.0324,0.013523,0.002678,0.000431,0.001763
108977000,0.0324,0.013523,0.002678,0.000431,0.001645
108978000,0.0324,0.013523,0.002678,0.000431,0.001645
108979000,0.0324,0.013523,0.002678,0.000431,0.002938
108980000,0.0324,0.013523,0.002678,0.000431,0.000940
108981000,0.0324,0.013523,0.002678,0.000431,0.000823
108982000,0.0324,0.013523,0.002678,0.000431,0.000940
108983000,0.0324,0.013523,0.002678,0.000431,0.203794
108984000,0.0324,0.013523,0.002678,0.000431,0.599864
108985000,0.0324,0.013523,0.002678,0.000431,0.357051
108986000,0.0324,0.013523,0.002678,0.000431,0.130691
108987000,0.0324,0.013523,0.002678,0.000431,0.134452
108988000,0.0324,0.013523,0.002678,0.000431,0.573890
108989000,0.0324,0.013523,0.002678,0.000431,0.237877
108990000,0.0324,0.013523,0.002678,0.000431,0.267964
108991000,0.0324,0.013523,0.002678,0.000431,0.283596
108992000,0.0324,0.013523,0.002678,0.000431,0.137273
108993000,0.0324,0.013523,0.002678,0.000431,0.140681
108994000,0.0324,0.013523,0.002678,0.000431,0.116235
108995000,0.0324,0.013523,0.002678,0.000431,0.357403
108996000,0.0324,0.013523,0.002678,0.000431,0.266671
108997000,0.0324,0.013523,0.002678,0.000431,0.086618
108998000,0.0324,0.013523,0.002678,0.000431,0.087206
108999000,0.0324,0.013523,0.002678,0.000431,0.070164
