Cycle,Area(mm^2),PeakDynamic(W),SubthresholdLeakage(W),GateLeakage(W),RunTimeDynamic(W)
115000000,0.0324,0.013523,0.002678,0.000431,0.001763
115001000,0.0324,0.013523,0.002678,0.000431,0.001645
115002000,0.0324,0.013523,0.002678,0.000431,0.001645
115003000,0.0324,0.013523,0.002678,0.000431,0.001763
115004000,0.0324,0.013523,0.002678,0.000431,0.001528
115005000,0.0324,0.013523,0.002678,0.000431,0.001880
115006000,0.0324,0.013523,0.002678,0.000431,0.001528
115007000,0.0324,0.013523,0.002678,0.000431,0.001763
115008000,0.0324,0.013523,0.002678,0.000431,0.001645
115009000,0.0324,0.013523,0.002678,0.000431,0.001645
115010000,0.0324,0.013523,0.002678,0.000431,0.001410
115011000,0.0324,0.013523,0.002678,0.000431,0.001880
115012000,0.0324,0.013523,0.002678,0.000431,0.001880
115013000,0.0324,0.013523,0.002678,0.000431,0.001410
115014000,0.0324,0.013523,0.002678,0.000431,0.001880
115015000,0.0324,0.013523,0.002678,0.000431,0.001410
115016000,0.0324,0.013523,0.002678,0.000431,0.001880
115017000,0.0324,0.013523,0.002678,0.000431,0.001645
115018000,0.0324,0.013523,0.002678,0.000431,0.001645
115019000,0.0324,0.013523,0.002678,0.000431,0.001763
115020000,0.0324,0.013523,0.002678,0.000431,0.001528
115021000,0.0324,0.013523,0.002678,0.000431,0.001880
115022000,0.0324,0.013523,0.002678,0.000431,0.001645
115023000,0.0324,0.013523,0.002678,0.000431,0.001645
115024000,0.0324,0.013523,0.002678,0.000431,0.001763
115025000,0.0324,0.013523,0.002678,0.000431,0.002821
115026000,0.0324,0.013523,0.002678,0.000431,0.000823
115027000,0.0324,0.013523,0.002678,0.000431,0.000823
115028000,0.0324,0.013523,0.002678,0.000431,0.000940
115029000,0.0324,0.013523,0.002678,0.000431,0.000705
115030000,0.0324,0.013523,0.002678,0.000431,0.000823
115031000,0.0324,0.013523,0.002678,0.000431,0.000940
115032000,0.0324,0.013523,0.002678,0.000431,0.000823
115033000,0.0324,0.013523,0.002678,0.000431,0.000823
115034000,0.0324,0.013523,0.002678,0.000431,0.000823
115035000,0.0324,0.013523,0.002678,0.000431,0.000823
115036000,0.0324,0.013523,0.002678,0.000431,0.000823
115037000,0.0324,0.013523,0.002678,0.000431,0.000940
115038000,0.0324,0.013523,0.002678,0.000431,0.000705
115039000,0.0324,0.013523,0.002678,0.000431,0.000940
115040000,0.0324,0.013523,0.002678,0.000431,0.000705
115041000,0.0324,0.013523,0.002678,0.000431,0.000940
115042000,0.0324,0.013523,0.002678,0.000431,0.000823
115043000,0.0324,0.013523,0.002678,0.000431,0.000823
115044000,0.0324,0.013523,0.002678,0.000431,0.000940
115045000,0.0324,0.013523,0.002678,0.000431,0.000705
115046000,0.0324,0.013523,0.002678,0.000431,0.000940
115047000,0.0324,0.013523,0.002678,0.000431,0.000823
115048000,0.0324,0.013523,0.002678,0.000431,0.000823
115049000,0.0324,0.013523,0.002678,0.000431,0.000940
115050000,0.0324,0.013523,0.002678,0.000431,0.000705
115051000,0.0324,0.013523,0.002678,0.000431,0.000940
115052000,0.0324,0.013523,0.002678,0.000431,0.000823
115053000,0.0324,0.013523,0.002678,0.000431,0.000823
115054000,0.0324,0.013523,0.002678,0.000431,0.000940
115055000,0.0324,0.013523,0.002678,0.000431,0.000823
115056000,0.0324,0.013523,0.002678,0.000431,0.000823
115057000,0.0324,0.013523,0.002678,0.000431,0.000940
115058000,0.0324,0.013523,0.002678,0.000431,0.000705
115059000,0.0324,0.013523,0.002678,0.000431,0.000940
115060000,0.0324,0.013523,0.002678,0.000431,0.000823
115061000,0.0324,0.013523,0.002678,0.000431,0.000823
115062000,0.0324,0.013523,0.002678,0.000431,0.000940
115063000,0.0324,0.013523,0.002678,0.000431,0.000823
115064000,0.0324,0.013523,0.002678,0.000431,0.000823
115065000,0.0324,0.013523,0.002678,0.000431,0.000940
115066000,0.0324,0.013523,0.002678,0.000431,0.000705
115067000,0.0324,0.013523,0.002678,0.000431,0.000940
115068000,0.0324,0.013523,0.002678,0.000431,0.000823
115069000,0.0324,0.013523,0.002678,0.000431,0.000823
115070000,0.0324,0.013523,0.002678,0.000431,0.000940
115071000,0.0324,0.013523,0.002678,0.000431,0.000823
115072000,0.0324,0.013523,0.002678,0.000431,0.000823
115073000,0.0324,0.013523,0.002678,0.000431,0.000940
115074000,0.0324,0.013523,0.002678,0.000431,0.000705
115075000,0.0324,0.013523,0.002678,0.000431,0.000940
115076000,0.0324,0.013523,0.002678,0.000431,0.000823
115077000,0.0324,0.013523,0.002678,0.000431,0.000823
115078000,0.0324,0.013523,0.002678,0.000431,0.000940
115079000,0.0324,0.013523,0.002678,0.000431,0.000823
115080000,0.0324,0.013523,0.002678,0.000431,0.000823
115081000,0.0324,0.013523,0.002678,0.000431,0.060527
115082000,0.0324,0.013523,0.002678,0.000431,0.504078
115083000,0.0324,0.013523,0.002678,0.000431,0.608208
115084000,0.0324,0.013523,0.002678,0.000431,0.130691
115085000,0.0324,0.013523,0.002678,0.000431,0.134452
115086000,0.0324,0.013523,0.002678,0.000431,0.552382
115087000,0.0324,0.013523,0.002678,0.000431,0.277719
115088000,0.0324,0.013523,0.002678,0.000431,0.249630
115089000,0.0324,0.013523,0.002678,0.000431,0.289119
115090000,0.0324,0.013523,0.002678,0.000431,0.145265
115091000,0.0324,0.013523,0.002678,0.000431,0.148438
115092000,0.0324,0.013523,0.002678,0.000431,0.119174
115093000,0.0324,0.013523,0.002678,0.000431,0.306396
115094000,0.0324,0.013523,0.002678,0.000431,0.319912
115095000,0.0324,0.013523,0.002678,0.000431,0.086031
115096000,0.0324,0.013523,0.002678,0.000431,0.087676
115097000,0.0324,0.013523,0.002678,0.000431,0.076158
115098000,0.0324,0.013523,0.002678,0.000431,0.072397
115099000,0.0324,0.013523,0.002678,0.000431,0.067226
115100000,0.0324,0.013523,0.002678,0.000431,0.057354
115101000,0.0324,0.013523,0.002678,0.000431,0.053358
115102000,0.0324,0.013523,0.002678,0.000431,0.059352
115103000,0.0324,0.013523,0.002678,0.000431,0.049597
115104000,0.0324,0.013523,0.002678,0.000431,0.051360
115105000,0.0324,0.013523,0.002678,0.000431,0.045366
115106000,0.0324,0.013523,0.002678,0.000431,0.048304
115107000,0.0324,0.013523,0.002678,0.000431,0.040430
115108000,0.0324,0.013523,0.002678,0.000431,0.037256
115109000,0.0324,0.013523,0.002678,0.000431,0.037021
115110000,0.0324,0.013523,0.002678,0.000431,0.031850
115111000,0.0324,0.013523,0.002678,0.000431,0.028442
115112000,0.0324,0.013523,0.002678,0.000431,0.028677
115113000,0.0324,0.013523,0.002678,0.000431,0.029617
115114000,0.0324,0.013523,0.002678,0.000431,0.029029
115115000,0.0324,0.013523,0.002678,0.000431,0.026209
115116000,0.0324,0.013523,0.002678,0.000431,0.024681
115117000,0.0324,0.013523,0.002678,0.000431,0.023271
115118000,0.0324,0.013523,0.002678,0.000431,0.023858
115119000,0.0324,0.013523,0.002678,0.000431,0.022095
115120000,0.0324,0.013523,0.002678,0.000431,0.020920
115121000,0.0324,0.013523,0.002678,0.000431,0.018334
115122000,0.0324,0.013523,0.002678,0.000431,0.018687
115123000,0.0324,0.013523,0.002678,0.000431,0.016454
115124000,0.0324,0.013523,0.002678,0.000431,0.018569
115125000,0.0324,0.013523,0.002678,0.000431,0.017864
115126000,0.0324,0.013523,0.002678,0.000431,0.018687
115127000,0.0324,0.013523,0.002678,0.000431,0.017864
115128000,0.0324,0.013523,0.002678,0.000431,0.016219
115129000,0.0324,0.013523,0.002678,0.000431,0.017394
115130000,0.0324,0.013523,0.002678,0.000431,0.015749
115131000,0.0324,0.013523,0.002678,0.000431,0.013751
115132000,0.0324,0.013523,0.002678,0.000431,0.013398
115133000,0.0324,0.013523,0.002678,0.000431,0.015161
115134000,0.0324,0.013523,0.002678,0.000431,0.012105
115135000,0.0324,0.013523,0.002678,0.000431,0.013398
115136000,0.0324,0.013523,0.002678,0.000431,0.009990
115137000,0.0324,0.013523,0.002678,0.000431,0.009285
115138000,0.0324,0.013523,0.002678,0.000431,0.007992
115139000,0.0324,0.013523,0.002678,0.000431,0.007639
115140000,0.0324,0.013523,0.002678,0.000431,0.007992
115141000,0.0324,0.013523,0.002678,0.000431,0.008815
115142000,0.0324,0.013523,0.002678,0.000431,0.007052
115143000,0.0324,0.013523,0.002678,0.000431,0.005876
115144000,0.0324,0.013523,0.002678,0.000431,0.006582
115145000,0.0324,0.013523,0.002678,0.000431,0.007757
115146000,0.0324,0.013523,0.002678,0.000431,0.004819
115147000,0.0324,0.013523,0.002678,0.000431,0.005759
115148000,0.0324,0.013523,0.002678,0.000431,0.005524
115149000,0.0324,0.013523,0.002678,0.000431,0.005759
115150000,0.0324,0.013523,0.002678,0.000431,0.005524
115151000,0.0324,0.013523,0.002678,0.000431,0.005171
115152000,0.0324,0.013523,0.002678,0.000431,0.005759
115153000,0.0324,0.013523,0.002678,0.000431,0.005289
115154000,0.0324,0.013523,0.002678,0.000431,0.005641
115155000,0.0324,0.013523,0.002678,0.000431,0.005641
115156000,0.0324,0.013523,0.002678,0.000431,0.004936
115157000,0.0324,0.013523,0.002678,0.000431,0.005876
115158000,0.0324,0.013523,0.002678,0.000431,0.005524
115159000,0.0324,0.013523,0.002678,0.000431,0.005054
115160000,0.0324,0.013523,0.002678,0.000431,0.005876
115161000,0.0324,0.013523,0.002678,0.000431,0.005406
115162000,0.0324,0.013523,0.002678,0.000431,0.005524
115163000,0.0324,0.013523,0.002678,0.000431,0.005641
115164000,0.0324,0.013523,0.002678,0.000431,0.005171
115165000,0.0324,0.013523,0.002678,0.000431,0.004584
115166000,0.0324,0.013523,0.002678,0.000431,0.003173
115167000,0.0324,0.013523,0.002678,0.000431,0.004231
115168000,0.0324,0.013523,0.002678,0.000431,0.004349
115169000,0.0324,0.013523,0.002678,0.000431,0.003291
115170000,0.0324,0.013523,0.002678,0.000431,0.004466
115171000,0.0324,0.013523,0.002678,0.000431,0.003291
115172000,0.0324,0.013523,0.002678,0.000431,0.004113
115173000,0.0324,0.013523,0.002678,0.000431,0.003996
115174000,0.0324,0.013523,0.002678,0.000431,0.003761
115175000,0.0324,0.013523,0.002678,0.000431,0.004113
115176000,0.0324,0.013523,0.002678,0.000431,0.003761
115177000,0.0324,0.013523,0.002678,0.000431,0.003761
115178000,0.0324,0.013523,0.002678,0.000431,0.005406
115179000,0.0324,0.013523,0.002678,0.000431,0.002703
115180000,0.0324,0.013523,0.002678,0.000431,0.004349
115181000,0.0324,0.013523,0.002678,0.000431,0.001645
115182000,0.0324,0.013523,0.002678,0.000431,0.001645
115183000,0.0324,0.013523,0.002678,0.000431,0.001645
115184000,0.0324,0.013523,0.002678,0.000431,0.001763
115185000,0.0324,0.013523,0.002678,0.000431,0.001645
115186000,0.0324,0.013523,0.002678,0.000431,0.001645
115187000,0.0324,0.013523,0.002678,0.000431,0.001763
115188000,0.0324,0.013523,0.002678,0.000431,0.001645
115189000,0.0324,0.013523,0.002678,0.000431,0.001645
115190000,0.0324,0.013523,0.002678,0.000431,0.001645
115191000,0.0324,0.013523,0.002678,0.000431,0.001763
115192000,0.0324,0.013523,0.002678,0.000431,0.001645
115193000,0.0324,0.013523,0.002678,0.000431,0.001645
115194000,0.0324,0.013523,0.002678,0.000431,0.001645
115195000,0.0324,0.013523,0.002678,0.000431,0.001528
115196000,0.0324,0.013523,0.002678,0.000431,0.001763
115197000,0.0324,0.013523,0.002678,0.000431,0.001763
115198000,0.0324,0.013523,0.002678,0.000431,0.001645
115199000,0.0324,0.013523,0.002678,0.000431,0.003408
115200000,0.0324,0.013523,0.002678,0.000431,0.000940
115201000,0.0324,0.013523,0.002678,0.000431,0.000705
115202000,0.0324,0.013523,0.002678,0.000431,0.000940
115203000,0.0324,0.013523,0.002678,0.000431,0.000940
115204000,0.0324,0.013523,0.002678,0.000431,0.000705
115205000,0.0324,0.013523,0.002678,0.000431,0.000940
115206000,0.0324,0.013523,0.002678,0.000431,0.000705
115207000,0.0324,0.013523,0.002678,0.000431,0.000940
115208000,0.0324,0.013523,0.002678,0.000431,0.000823
115209000,0.0324,0.013523,0.002678,0.000431,0.000823
115210000,0.0324,0.013523,0.002678,0.000431,0.000823
115211000,0.0324,0.013523,0.002678,0.000431,0.002351
115212000,0.0324,0.013523,0.002678,0.000431,0.355993
115213000,0.0324,0.013523,0.002678,0.000431,0.678725
115214000,0.0324,0.013523,0.002678,0.000431,0.194979
115215000,0.0324,0.013523,0.002678,0.000431,0.131867
115216000,0.0324,0.013523,0.002678,0.000431,0.157605
115217000,0.0324,0.013523,0.002678,0.000431,0.582940
115218000,0.0324,0.013523,0.002678,0.000431,0.232001
115219000,0.0324,0.013523,0.002678,0.000431,0.337541
115220000,0.0324,0.013523,0.002678,0.000431,0.233058
115221000,0.0324,0.013523,0.002678,0.000431,0.144090
115222000,0.0324,0.013523,0.002678,0.000431,0.128223
115223000,0.0324,0.013523,0.002678,0.000431,0.256446
115224000,0.0324,0.013523,0.002678,0.000431,0.361517
115225000,0.0324,0.013523,0.002678,0.000431,0.077098
115226000,0.0324,0.013523,0.002678,0.000431,0.069929
115227000,0.0324,0.013523,0.002678,0.000431,0.056649
115228000,0.0324,0.013523,0.002678,0.000431,0.058176
115229000,0.0324,0.013523,0.002678,0.000431,0.051242
115230000,0.0324,0.013523,0.002678,0.000431,0.040195
115231000,0.0324,0.013523,0.002678,0.000431,0.039960
115232000,0.0324,0.013523,0.002678,0.000431,0.037021
115233000,0.0324,0.013523,0.002678,0.000431,0.030675
115234000,0.0324,0.013523,0.002678,0.000431,0.031850
115235000,0.0324,0.013523,0.002678,0.000431,0.029265
115236000,0.0324,0.013523,0.002678,0.000431,0.030557
115237000,0.0324,0.013523,0.002678,0.000431,0.027267
115238000,0.0324,0.013523,0.002678,0.000431,0.026209
115239000,0.0324,0.013523,0.002678,0.000431,0.023153
115240000,0.0324,0.013523,0.002678,0.000431,0.023506
115241000,0.0324,0.013523,0.002678,0.000431,0.023741
115242000,0.0324,0.013523,0.002678,0.000431,0.017629
115243000,0.0324,0.013523,0.002678,0.000431,0.016336
115244000,0.0324,0.013523,0.002678,0.000431,0.017982
115245000,0.0324,0.013523,0.002678,0.000431,0.013751
115246000,0.0324,0.013523,0.002678,0.000431,0.012105
115247000,0.0324,0.013523,0.002678,0.000431,0.014221
115248000,0.0324,0.013523,0.002678,0.000431,0.011400
115249000,0.0324,0.013523,0.002678,0.000431,0.014691
115250000,0.0324,0.013523,0.002678,0.000431,0.008462
115251000,0.0324,0.013523,0.002678,0.000431,0.008697
115252000,0.0324,0.013523,0.002678,0.000431,0.008227
115253000,0.0324,0.013523,0.002678,0.000431,0.008697
115254000,0.0324,0.013523,0.002678,0.000431,0.009637
115255000,0.0324,0.013523,0.002678,0.000431,0.008697
115256000,0.0324,0.013523,0.002678,0.000431,0.009520
115257000,0.0324,0.013523,0.002678,0.000431,0.008109
115258000,0.0324,0.013523,0.002678,0.000431,0.006111
115259000,0.0324,0.013523,0.002678,0.000431,0.005759
115260000,0.0324,0.013523,0.002678,0.000431,0.006229
115261000,0.0324,0.013523,0.002678,0.000431,0.008932
115262000,0.0324,0.013523,0.002678,0.000431,0.004936
115263000,0.0324,0.013523,0.002678,0.000431,0.005054
115264000,0.0324,0.013523,0.002678,0.000431,0.005289
115265000,0.0324,0.013523,0.002678,0.000431,0.005171
115266000,0.0324,0.013523,0.002678,0.000431,0.004819
115267000,0.0324,0.013523,0.002678,0.000431,0.005054
115268000,0.0324,0.013523,0.002678,0.000431,0.005289
115269000,0.0324,0.013523,0.002678,0.000431,0.005289
115270000,0.0324,0.013523,0.002678,0.000431,0.004701
115271000,0.0324,0.013523,0.002678,0.000431,0.005171
115272000,0.0324,0.013523,0.002678,0.000431,0.005171
115273000,0.0324,0.013523,0.002678,0.000431,0.005289
115274000,0.0324,0.013523,0.002678,0.000431,0.005054
115275000,0.0324,0.013523,0.002678,0.000431,0.004819
115276000,0.0324,0.013523,0.002678,0.000431,0.005406
115277000,0.0324,0.013523,0.002678,0.000431,0.004819
115278000,0.0324,0.013523,0.002678,0.000431,0.005406
115279000,0.0324,0.013523,0.002678,0.000431,0.005289
115280000,0.0324,0.013523,0.002678,0.000431,0.004819
115281000,0.0324,0.013523,0.002678,0.000431,0.005054
115282000,0.0324,0.013523,0.002678,0.000431,0.005054
115283000,0.0324,0.013523,0.002678,0.000431,0.005406
115284000,0.0324,0.013523,0.002678,0.000431,0.005054
115285000,0.0324,0.013523,0.002678,0.000431,0.005054
115286000,0.0324,0.013523,0.002678,0.000431,0.004936
115287000,0.0324,0.013523,0.002678,0.000431,0.005289
115288000,0.0324,0.013523,0.002678,0.000431,0.007522
115289000,0.0324,0.013523,0.002678,0.000431,0.003996
115290000,0.0324,0.013523,0.002678,0.000431,0.004349
115291000,0.0324,0.013523,0.002678,0.000431,0.004231
115292000,0.0324,0.013523,0.002678,0.000431,0.004349
115293000,0.0324,0.013523,0.002678,0.000431,0.004113
115294000,0.0324,0.013523,0.002678,0.000431,0.004349
115295000,0.0324,0.013523,0.002678,0.000431,0.004231
115296000,0.0324,0.013523,0.002678,0.000431,0.004113
115297000,0.0324,0.013523,0.002678,0.000431,0.004231
115298000,0.0324,0.013523,0.002678,0.000431,0.003996
115299000,0.0324,0.013523,0.002678,0.000431,0.004701
115300000,0.0324,0.013523,0.002678,0.000431,0.003878
115301000,0.0324,0.013523,0.002678,0.000431,0.004349
115302000,0.0324,0.013523,0.002678,0.000431,0.004231
115303000,0.0324,0.013523,0.002678,0.000431,0.004113
115304000,0.0324,0.013523,0.002678,0.000431,0.004113
115305000,0.0324,0.013523,0.002678,0.000431,0.004466
115306000,0.0324,0.013523,0.002678,0.000431,0.004349
115307000,0.0324,0.013523,0.002678,0.000431,0.004231
115308000,0.0324,0.013523,0.002678,0.000431,0.003878
115309000,0.0324,0.013523,0.002678,0.000431,0.004349
115310000,0.0324,0.013523,0.002678,0.000431,0.006111
115311000,0.0324,0.013523,0.002678,0.000431,0.003173
115312000,0.0324,0.013523,0.002678,0.000431,0.003408
115313000,0.0324,0.013523,0.002678,0.000431,0.003526
115314000,0.0324,0.013523,0.002678,0.000431,0.003291
115315000,0.0324,0.013523,0.002678,0.000431,0.003408
115316000,0.0324,0.013523,0.002678,0.000431,0.003408
115317000,0.0324,0.013523,0.002678,0.000431,0.003526
115318000,0.0324,0.013523,0.002678,0.000431,0.003173
115319000,0.0324,0.013523,0.002678,0.000431,0.003526
115320000,0.0324,0.013523,0.002678,0.000431,0.003056
115321000,0.0324,0.013523,0.002678,0.000431,0.003643
115322000,0.0324,0.013523,0.002678,0.000431,0.003526
115323000,0.0324,0.013523,0.002678,0.000431,0.003056
115324000,0.0324,0.013523,0.002678,0.000431,0.003643
115325000,0.0324,0.013523,0.002678,0.000431,0.003173
115326000,0.0324,0.013523,0.002678,0.000431,0.003643
115327000,0.0324,0.013523,0.002678,0.000431,0.003291
115328000,0.0324,0.013523,0.002678,0.000431,0.003408
115329000,0.0324,0.013523,0.002678,0.000431,0.003408
115330000,0.0324,0.013523,0.002678,0.000431,0.003291
115331000,0.0324,0.013523,0.002678,0.000431,0.003643
115332000,0.0324,0.013523,0.002678,0.000431,0.003173
115333000,0.0324,0.013523,0.002678,0.000431,0.003643
115334000,0.0324,0.013523,0.002678,0.000431,0.003173
115335000,0.0324,0.013523,0.002678,0.000431,0.003408
115336000,0.0324,0.013523,0.002678,0.000431,0.003408
115337000,0.0324,0.013523,0.002678,0.000431,0.003291
115338000,0.0324,0.013523,0.002678,0.000431,0.003643
115339000,0.0324,0.013523,0.002678,0.000431,0.006229
115340000,0.0324,0.013523,0.002678,0.000431,0.002703
115341000,0.0324,0.013523,0.002678,0.000431,0.002586
115342000,0.0324,0.013523,0.002678,0.000431,0.002468
115343000,0.0324,0.013523,0.002678,0.000431,0.002586
115344000,0.0324,0.013523,0.002678,0.000431,0.002586
115345000,0.0324,0.013523,0.002678,0.000431,0.002351
115346000,0.0324,0.013523,0.002678,0.000431,0.002586
115347000,0.0324,0.013523,0.002678,0.000431,0.005171
115348000,0.0324,0.013523,0.002678,0.000431,0.001880
115349000,0.0324,0.013523,0.002678,0.000431,0.001528
115350000,0.0324,0.013523,0.002678,0.000431,0.001763
115351000,0.0324,0.013523,0.002678,0.000431,0.001763
115352000,0.0324,0.013523,0.002678,0.000431,0.001528
115353000,0.0324,0.013523,0.002678,0.000431,0.001763
115354000,0.0324,0.013523,0.002678,0.000431,0.001880
115355000,0.0324,0.013523,0.002678,0.000431,0.001645
115356000,0.0324,0.013523,0.002678,0.000431,0.001763
115357000,0.0324,0.013523,0.002678,0.000431,0.001528
115358000,0.0324,0.013523,0.002678,0.000431,0.001880
115359000,0.0324,0.013523,0.002678,0.000431,0.001763
115360000,0.0324,0.013523,0.002678,0.000431,0.001645
115361000,0.0324,0.013523,0.002678,0.000431,0.001763
115362000,0.0324,0.013523,0.002678,0.000431,0.001645
115363000,0.0324,0.013523,0.002678,0.000431,0.001880
115364000,0.0324,0.013523,0.002678,0.000431,0.001528
115365000,0.0324,0.013523,0.002678,0.000431,0.001763
115366000,0.0324,0.013523,0.002678,0.000431,0.001763
115367000,0.0324,0.013523,0.002678,0.000431,0.001763
115368000,0.0324,0.013523,0.002678,0.000431,0.001645
115369000,0.0324,0.013523,0.002678,0.000431,0.001645
115370000,0.0324,0.013523,0.002678,0.000431,0.002703
115371000,0.0324,0.013523,0.002678,0.000431,0.001880
115372000,0.0324,0.013523,0.002678,0.000431,0.000823
115373000,0.0324,0.013523,0.002678,0.000431,0.000940
115374000,0.0324,0.013523,0.002678,0.000431,0.000823
115375000,0.0324,0.013523,0.002678,0.000431,0.000823
115376000,0.0324,0.013523,0.002678,0.000431,0.000823
115377000,0.0324,0.013523,0.002678,0.000431,0.000823
115378000,0.0324,0.013523,0.002678,0.000431,0.000823
115379000,0.0324,0.013523,0.002678,0.000431,0.000940
115380000,0.0324,0.013523,0.002678,0.000431,0.000823
115381000,0.0324,0.013523,0.002678,0.000431,0.000823
115382000,0.0324,0.013523,0.002678,0.000431,0.000705
115383000,0.0324,0.013523,0.002678,0.000431,0.000940
115384000,0.0324,0.013523,0.002678,0.000431,0.000940
115385000,0.0324,0.013523,0.002678,0.000431,0.000705
115386000,0.0324,0.013523,0.002678,0.000431,0.000940
115387000,0.0324,0.013523,0.002678,0.000431,0.000705
115388000,0.0324,0.013523,0.002678,0.000431,0.000940
115389000,0.0324,0.013523,0.002678,0.000431,0.000823
115390000,0.0324,0.013523,0.002678,0.000431,0.000823
115391000,0.0324,0.013523,0.002678,0.000431,0.000823
115392000,0.0324,0.013523,0.002678,0.000431,0.000823
115393000,0.0324,0.013523,0.002678,0.000431,0.000940
115394000,0.0324,0.013523,0.002678,0.000431,0.000823
115395000,0.0324,0.013523,0.002678,0.000431,0.000823
115396000,0.0324,0.013523,0.002678,0.000431,0.000823
115397000,0.0324,0.013523,0.002678,0.000431,0.000823
115398000,0.0324,0.013523,0.002678,0.000431,0.000823
115399000,0.0324,0.013523,0.002678,0.000431,0.000823
115400000,0.0324,0.013523,0.002678,0.000431,0.000940
115401000,0.0324,0.013523,0.002678,0.000431,0.000705
115402000,0.0324,0.013523,0.002678,0.000431,0.000940
115403000,0.0324,0.013523,0.002678,0.000431,0.000823
115404000,0.0324,0.013523,0.002678,0.000431,0.000823
115405000,0.0324,0.013523,0.002678,0.000431,0.000705
115406000,0.0324,0.013523,0.002678,0.000431,0.000940
115407000,0.0324,0.013523,0.002678,0.000431,0.000940
115408000,0.0324,0.013523,0.002678,0.000431,0.000705
115409000,0.0324,0.013523,0.002678,0.000431,0.000940
115410000,0.0324,0.013523,0.002678,0.000431,0.000705
115411000,0.0324,0.013523,0.002678,0.000431,0.000940
115412000,0.0324,0.013523,0.002678,0.000431,0.000823
115413000,0.0324,0.013523,0.002678,0.000431,0.000823
115414000,0.0324,0.013523,0.002678,0.000431,0.000940
115415000,0.0324,0.013523,0.002678,0.000431,0.000705
115416000,0.0324,0.013523,0.002678,0.000431,0.000940
115417000,0.0324,0.013523,0.002678,0.000431,0.000823
115418000,0.0324,0.013523,0.002678,0.000431,0.000823
115419000,0.0324,0.013523,0.002678,0.000431,0.000823
115420000,0.0324,0.013523,0.002678,0.000431,0.000823
115421000,0.0324,0.013523,0.002678,0.000431,0.000823
115422000,0.0324,0.013523,0.002678,0.000431,0.000823
115423000,0.0324,0.013523,0.002678,0.000431,0.000940
115424000,0.0324,0.013523,0.002678,0.000431,0.000705
115425000,0.0324,0.013523,0.002678,0.000431,0.000823
115426000,0.0324,0.013523,0.002678,0.000431,0.000940
115427000,0.0324,0.013523,0.002678,0.000431,0.000823
115428000,0.0324,0.013523,0.002678,0.000431,0.000823
115429000,0.0324,0.013523,0.002678,0.000431,0.000823
115430000,0.0324,0.013523,0.002678,0.000431,0.000705
115431000,0.0324,0.013523,0.002678,0.000431,0.000940
115432000,0.0324,0.013523,0.002678,0.000431,0.000940
115433000,0.0324,0.013523,0.002678,0.000431,0.000705
115434000,0.0324,0.013523,0.002678,0.000431,0.000940
115435000,0.0324,0.013523,0.002678,0.000431,0.000705
115436000,0.0324,0.013523,0.002678,0.000431,0.000940
115437000,0.0324,0.013523,0.002678,0.000431,0.000940
115438000,0.0324,0.013523,0.002678,0.000431,0.000705
115439000,0.0324,0.013523,0.002678,0.000431,0.000940
115440000,0.0324,0.013523,0.002678,0.000431,0.000705
115441000,0.0324,0.013523,0.002678,0.000431,0.000940
115442000,0.0324,0.013523,0.002678,0.000431,0.000823
115443000,0.0324,0.013523,0.002678,0.000431,0.000823
115444000,0.0324,0.013523,0.002678,0.000431,0.000823
115445000,0.0324,0.013523,0.002678,0.000431,0.000823
115446000,0.0324,0.013523,0.002678,0.000431,0.000940
115447000,0.0324,0.013523,0.002678,0.000431,0.000705
115448000,0.0324,0.013523,0.002678,0.000431,0.000940
115449000,0.0324,0.013523,0.002678,0.000431,0.000823
115450000,0.0324,0.013523,0.002678,0.000431,0.000823
115451000,0.0324,0.013523,0.002678,0.000431,0.000823
115452000,0.0324,0.013523,0.002678,0.000431,0.000823
115453000,0.0324,0.013523,0.002678,0.000431,0.000823
115454000,0.0324,0.013523,0.002678,0.000431,0.000823
115455000,0.0324,0.013523,0.002678,0.000431,0.000940
115456000,0.0324,0.013523,0.002678,0.000431,0.000705
115457000,0.0324,0.013523,0.002678,0.000431,0.000940
115458000,0.0324,0.013523,0.002678,0.000431,0.000705
115459000,0.0324,0.013523,0.002678,0.000431,0.000940
115460000,0.0324,0.013523,0.002678,0.000431,0.000940
115461000,0.0324,0.013523,0.002678,0.000431,0.000705
115462000,0.0324,0.013523,0.002678,0.000431,0.000940
115463000,0.0324,0.013523,0.002678,0.000431,0.000705
115464000,0.0324,0.013523,0.002678,0.000431,0.000940
115465000,0.0324,0.013523,0.002678,0.000431,0.000823
115466000,0.0324,0.013523,0.002678,0.000431,0.000823
115467000,0.0324,0.013523,0.002678,0.000431,0.000940
115468000,0.0324,0.013523,0.002678,0.000431,0.000705
115469000,0.0324,0.013523,0.002678,0.000431,0.000940
115470000,0.0324,0.013523,0.002678,0.000431,0.000823
115471000,0.0324,0.013523,0.002678,0.000431,0.000823
115472000,0.0324,0.013523,0.002678,0.000431,0.000823
115473000,0.0324,0.013523,0.002678,0.000431,0.000823
115474000,0.0324,0.013523,0.002678,0.000431,0.000940
115475000,0.0324,0.013523,0.002678,0.000431,0.000705
115476000,0.0324,0.013523,0.002678,0.000431,0.000705
115477000,0.0324,0.013523,0.002678,0.000431,0.001058
115478000,0.0324,0.013523,0.002678,0.000431,0.000823
115479000,0.0324,0.013523,0.002678,0.000431,0.000823
115480000,0.0324,0.013523,0.002678,0.000431,0.000823
115481000,0.0324,0.013523,0.002678,0.000431,0.000823
115482000,0.0324,0.013523,0.002678,0.000431,0.000823
115483000,0.0324,0.013523,0.002678,0.000431,0.000940
115484000,0.0324,0.013523,0.002678,0.000431,0.000705
115485000,0.0324,0.013523,0.002678,0.000431,0.000940
115486000,0.0324,0.013523,0.002678,0.000431,0.000705
115487000,0.0324,0.013523,0.002678,0.000431,0.000940
115488000,0.0324,0.013523,0.002678,0.000431,0.000940
115489000,0.0324,0.013523,0.002678,0.000431,0.000705
115490000,0.0324,0.013523,0.002678,0.000431,0.000940
115491000,0.0324,0.013523,0.002678,0.000431,0.000705
115492000,0.0324,0.013523,0.002678,0.000431,0.000940
115493000,0.0324,0.013523,0.002678,0.000431,0.000823
115494000,0.0324,0.013523,0.002678,0.000431,0.000823
115495000,0.0324,0.013523,0.002678,0.000431,0.000823
115496000,0.0324,0.013523,0.002678,0.000431,0.000823
115497000,0.0324,0.013523,0.002678,0.000431,0.000940
115498000,0.0324,0.013523,0.002678,0.000431,0.000705
115499000,0.0324,0.013523,0.002678,0.000431,0.000940
115500000,0.0324,0.013523,0.002678,0.000431,0.000823
115501000,0.0324,0.013523,0.002678,0.000431,0.000823
115502000,0.0324,0.013523,0.002678,0.000431,0.000823
115503000,0.0324,0.013523,0.002678,0.000431,0.000823
115504000,0.0324,0.013523,0.002678,0.000431,0.000823
115505000,0.0324,0.013523,0.002678,0.000431,0.000823
115506000,0.0324,0.013523,0.002678,0.000431,0.000823
115507000,0.0324,0.013523,0.002678,0.000431,0.000823
115508000,0.0324,0.013523,0.002678,0.000431,0.000940
115509000,0.0324,0.013523,0.002678,0.000431,0.000823
115510000,0.0324,0.013523,0.002678,0.000431,0.000823
115511000,0.0324,0.013523,0.002678,0.000431,0.000705
115512000,0.0324,0.013523,0.002678,0.000431,0.000940
115513000,0.0324,0.013523,0.002678,0.000431,0.000940
115514000,0.0324,0.013523,0.002678,0.000431,0.000705
115515000,0.0324,0.013523,0.002678,0.000431,0.000940
115516000,0.0324,0.013523,0.002678,0.000431,0.000705
115517000,0.0324,0.013523,0.002678,0.000431,0.000940
115518000,0.0324,0.013523,0.002678,0.000431,0.000823
115519000,0.0324,0.013523,0.002678,0.000431,0.000823
115520000,0.0324,0.013523,0.002678,0.000431,0.000940
115521000,0.0324,0.013523,0.002678,0.000431,0.000705
115522000,0.0324,0.013523,0.002678,0.000431,0.000940
115523000,0.0324,0.013523,0.002678,0.000431,0.000823
115524000,0.0324,0.013523,0.002678,0.000431,0.000823
115525000,0.0324,0.013523,0.002678,0.000431,0.000823
115526000,0.0324,0.013523,0.002678,0.000431,0.000823
115527000,0.0324,0.013523,0.002678,0.000431,0.000823
115528000,0.0324,0.013523,0.002678,0.000431,0.000823
115529000,0.0324,0.013523,0.002678,0.000431,0.000940
115530000,0.0324,0.013523,0.002678,0.000431,0.000823
115531000,0.0324,0.013523,0.002678,0.000431,0.000823
115532000,0.0324,0.013523,0.002678,0.000431,0.000823
115533000,0.0324,0.013523,0.002678,0.000431,0.000823
115534000,0.0324,0.013523,0.002678,0.000431,0.000705
115535000,0.0324,0.013523,0.002678,0.000431,0.000940
115536000,0.0324,0.013523,0.002678,0.000431,0.000940
115537000,0.0324,0.013523,0.002678,0.000431,0.000705
115538000,0.0324,0.013523,0.002678,0.000431,0.000940
115539000,0.0324,0.013523,0.002678,0.000431,0.000705
115540000,0.0324,0.013523,0.002678,0.000431,0.000940
115541000,0.0324,0.013523,0.002678,0.000431,0.000823
115542000,0.0324,0.013523,0.002678,0.000431,0.000823
115543000,0.0324,0.013523,0.002678,0.000431,0.000940
115544000,0.0324,0.013523,0.002678,0.000431,0.000705
115545000,0.0324,0.013523,0.002678,0.000431,0.000823
115546000,0.0324,0.013523,0.002678,0.000431,0.000823
115547000,0.0324,0.013523,0.002678,0.000431,0.000823
115548000,0.0324,0.013523,0.002678,0.000431,0.000823
115549000,0.0324,0.013523,0.002678,0.000431,0.000823
115550000,0.0324,0.013523,0.002678,0.000431,0.000823
115551000,0.0324,0.013523,0.002678,0.000431,0.000823
115552000,0.0324,0.013523,0.002678,0.000431,0.000823
115553000,0.0324,0.013523,0.002678,0.000431,0.000823
115554000,0.0324,0.013523,0.002678,0.000431,0.000823
115555000,0.0324,0.013523,0.002678,0.000431,0.000940
115556000,0.0324,0.013523,0.002678,0.000431,0.000823
115557000,0.0324,0.013523,0.002678,0.000431,0.000823
115558000,0.0324,0.013523,0.002678,0.000431,0.000705
115559000,0.0324,0.013523,0.002678,0.000431,0.000940
115560000,0.0324,0.013523,0.002678,0.000431,0.000940
115561000,0.0324,0.013523,0.002678,0.000431,0.000705
115562000,0.0324,0.013523,0.002678,0.000431,0.000940
115563000,0.0324,0.013523,0.002678,0.000431,0.158663
115564000,0.0324,0.013523,0.002678,0.000431,0.487859
115565000,0.0324,0.013523,0.002678,0.000431,0.537574
115566000,0.0324,0.013523,0.002678,0.000431,0.132102
115567000,0.0324,0.013523,0.002678,0.000431,0.133982
115568000,0.0324,0.013523,0.002678,0.000431,0.568484
115569000,0.0324,0.013523,0.002678,0.000431,0.242461
115570000,0.0324,0.013523,0.002678,0.000431,0.228710
115571000,0.0324,0.013523,0.002678,0.000431,0.306866
115572000,0.0324,0.013523,0.002678,0.000431,0.141151
115573000,0.0324,0.013523,0.002678,0.000431,0.149496
115574000,0.0324,0.013523,0.002678,0.000431,0.124110
115575000,0.0324,0.013523,0.002678,0.000431,0.301812
115576000,0.0324,0.013523,0.002678,0.000431,0.315093
115577000,0.0324,0.013523,0.002678,0.000431,0.085090
115578000,0.0324,0.013523,0.002678,0.000431,0.070634
115579000,0.0324,0.013523,0.002678,0.000431,0.062407
115580000,0.0324,0.013523,0.002678,0.000431,0.055121
115581000,0.0324,0.013523,0.002678,0.000431,0.045836
115582000,0.0324,0.013523,0.002678,0.000431,0.040312
115583000,0.0324,0.013523,0.002678,0.000431,0.040077
115584000,0.0324,0.013523,0.002678,0.000431,0.038432
115585000,0.0324,0.013523,0.002678,0.000431,0.035729
115586000,0.0324,0.013523,0.002678,0.000431,0.037139
115587000,0.0324,0.013523,0.002678,0.000431,0.034788
115588000,0.0324,0.013523,0.002678,0.000431,0.028677
115589000,0.0324,0.013523,0.002678,0.000431,0.026561
115590000,0.0324,0.013523,0.002678,0.000431,0.027502
115591000,0.0324,0.013523,0.002678,0.000431,0.023623
115592000,0.0324,0.013523,0.002678,0.000431,0.024328
115593000,0.0324,0.013523,0.002678,0.000431,0.021038
115594000,0.0324,0.013523,0.002678,0.000431,0.020920
115595000,0.0324,0.013523,0.002678,0.000431,0.019627
115596000,0.0324,0.013523,0.002678,0.000431,0.016924
115597000,0.0324,0.013523,0.002678,0.000431,0.018334
115598000,0.0324,0.013523,0.002678,0.000431,0.020450
115599000,0.0324,0.013523,0.002678,0.000431,0.018217
115600000,0.0324,0.013523,0.002678,0.000431,0.016807
115601000,0.0324,0.013523,0.002678,0.000431,0.014926
115602000,0.0324,0.013523,0.002678,0.000431,0.016101
115603000,0.0324,0.013523,0.002678,0.000431,0.016101
115604000,0.0324,0.013523,0.002678,0.000431,0.014221
115605000,0.0324,0.013523,0.002678,0.000431,0.014809
115606000,0.0324,0.013523,0.002678,0.000431,0.015044
115607000,0.0324,0.013523,0.002678,0.000431,0.013046
115608000,0.0324,0.013523,0.002678,0.000431,0.012105
115609000,0.0324,0.013523,0.002678,0.000431,0.012693
115610000,0.0324,0.013523,0.002678,0.000431,0.012576
115611000,0.0324,0.013523,0.002678,0.000431,0.012928
115612000,0.0324,0.013523,0.002678,0.000431,0.012928
115613000,0.0324,0.013523,0.002678,0.000431,0.013986
115614000,0.0324,0.013523,0.002678,0.000431,0.011518
115615000,0.0324,0.013523,0.002678,0.000431,0.011988
115616000,0.0324,0.013523,0.002678,0.000431,0.013281
115617000,0.0324,0.013523,0.002678,0.000431,0.011283
115618000,0.0324,0.013523,0.002678,0.000431,0.013633
115619000,0.0324,0.013523,0.002678,0.000431,0.009402
115620000,0.0324,0.013523,0.002678,0.000431,0.010225
115621000,0.0324,0.013523,0.002678,0.000431,0.009872
115622000,0.0324,0.013523,0.002678,0.000431,0.010225
115623000,0.0324,0.013523,0.002678,0.000431,0.009637
115624000,0.0324,0.013523,0.002678,0.000431,0.006111
115625000,0.0324,0.013523,0.002678,0.000431,0.007052
115626000,0.0324,0.013523,0.002678,0.000431,0.006582
115627000,0.0324,0.013523,0.002678,0.000431,0.006464
115628000,0.0324,0.013523,0.002678,0.000431,0.008932
115629000,0.0324,0.013523,0.002678,0.000431,0.005759
115630000,0.0324,0.013523,0.002678,0.000431,0.005876
115631000,0.0324,0.013523,0.002678,0.000431,0.005994
115632000,0.0324,0.013523,0.002678,0.000431,0.005289
115633000,0.0324,0.013523,0.002678,0.000431,0.006347
115634000,0.0324,0.013523,0.002678,0.000431,0.004701
115635000,0.0324,0.013523,0.002678,0.000431,0.006111
115636000,0.0324,0.013523,0.002678,0.000431,0.005054
115637000,0.0324,0.013523,0.002678,0.000431,0.006464
115638000,0.0324,0.013523,0.002678,0.000431,0.005171
115639000,0.0324,0.013523,0.002678,0.000431,0.005876
115640000,0.0324,0.013523,0.002678,0.000431,0.005994
115641000,0.0324,0.013523,0.002678,0.000431,0.005406
115642000,0.0324,0.013523,0.002678,0.000431,0.005876
115643000,0.0324,0.013523,0.002678,0.000431,0.005876
115644000,0.0324,0.013523,0.002678,0.000431,0.005406
115645000,0.0324,0.013523,0.002678,0.000431,0.005994
115646000,0.0324,0.013523,0.002678,0.000431,0.005406
115647000,0.0324,0.013523,0.002678,0.000431,0.005759
115648000,0.0324,0.013523,0.002678,0.000431,0.006464
115649000,0.0324,0.013523,0.002678,0.000431,0.005054
115650000,0.0324,0.013523,0.002678,0.000431,0.006229
115651000,0.0324,0.013523,0.002678,0.000431,0.005406
115652000,0.0324,0.013523,0.002678,0.000431,0.005994
115653000,0.0324,0.013523,0.002678,0.000431,0.005759
115654000,0.0324,0.013523,0.002678,0.000431,0.005641
115655000,0.0324,0.013523,0.002678,0.000431,0.006111
115656000,0.0324,0.013523,0.002678,0.000431,0.005524
115657000,0.0324,0.013523,0.002678,0.000431,0.005641
115658000,0.0324,0.013523,0.002678,0.000431,0.007874
115659000,0.0324,0.013523,0.002678,0.000431,0.004936
115660000,0.0324,0.013523,0.002678,0.000431,0.004701
115661000,0.0324,0.013523,0.002678,0.000431,0.005054
115662000,0.0324,0.013523,0.002678,0.000431,0.004936
115663000,0.0324,0.013523,0.002678,0.000431,0.004819
115664000,0.0324,0.013523,0.002678,0.000431,0.004819
115665000,0.0324,0.013523,0.002678,0.000431,0.004936
115666000,0.0324,0.013523,0.002678,0.000431,0.004936
115667000,0.0324,0.013523,0.002678,0.000431,0.004466
115668000,0.0324,0.013523,0.002678,0.000431,0.005524
115669000,0.0324,0.013523,0.002678,0.000431,0.004349
115670000,0.0324,0.013523,0.002678,0.000431,0.005054
115671000,0.0324,0.013523,0.002678,0.000431,0.004819
115672000,0.0324,0.013523,0.002678,0.000431,0.004819
115673000,0.0324,0.013523,0.002678,0.000431,0.005289
115674000,0.0324,0.013523,0.002678,0.000431,0.004349
115675000,0.0324,0.013523,0.002678,0.000431,0.005054
115676000,0.0324,0.013523,0.002678,0.000431,0.004936
115677000,0.0324,0.013523,0.002678,0.000431,0.004584
115678000,0.0324,0.013523,0.002678,0.000431,0.005171
115679000,0.0324,0.013523,0.002678,0.000431,0.004349
115680000,0.0324,0.013523,0.002678,0.000431,0.005289
115681000,0.0324,0.013523,0.002678,0.000431,0.003761
115682000,0.0324,0.013523,0.002678,0.000431,0.004936
115683000,0.0324,0.013523,0.002678,0.000431,0.004701
115684000,0.0324,0.013523,0.002678,0.000431,0.007169
115685000,0.0324,0.013523,0.002678,0.000431,0.005054
115686000,0.0324,0.013523,0.002678,0.000431,0.003291
115687000,0.0324,0.013523,0.002678,0.000431,0.003291
115688000,0.0324,0.013523,0.002678,0.000431,0.002938
115689000,0.0324,0.013523,0.002678,0.000431,0.003643
115690000,0.0324,0.013523,0.002678,0.000431,0.005524
115691000,0.0324,0.013523,0.002678,0.000431,0.002821
115692000,0.0324,0.013523,0.002678,0.000431,0.002351
115693000,0.0324,0.013523,0.002678,0.000431,0.002116
115694000,0.0324,0.013523,0.002678,0.000431,0.002468
115695000,0.0324,0.013523,0.002678,0.000431,0.001998
115696000,0.0324,0.013523,0.002678,0.000431,0.002468
115697000,0.0324,0.013523,0.002678,0.000431,0.002468
115698000,0.0324,0.013523,0.002678,0.000431,0.002116
115699000,0.0324,0.013523,0.002678,0.000431,0.002351
115700000,0.0324,0.013523,0.002678,0.000431,0.002351
115701000,0.0324,0.013523,0.002678,0.000431,0.002116
115702000,0.0324,0.013523,0.002678,0.000431,0.002821
115703000,0.0324,0.013523,0.002678,0.000431,0.001645
115704000,0.0324,0.013523,0.002678,0.000431,0.002821
115705000,0.0324,0.013523,0.002678,0.000431,0.001880
115706000,0.0324,0.013523,0.002678,0.000431,0.002586
115707000,0.0324,0.013523,0.002678,0.000431,0.002468
115708000,0.0324,0.013523,0.002678,0.000431,0.001998
115709000,0.0324,0.013523,0.002678,0.000431,0.002821
115710000,0.0324,0.013523,0.002678,0.000431,0.001880
115711000,0.0324,0.013523,0.002678,0.000431,0.002586
115712000,0.0324,0.013523,0.002678,0.000431,0.002116
115713000,0.0324,0.013523,0.002678,0.000431,0.002351
115714000,0.0324,0.013523,0.002678,0.000431,0.002468
115715000,0.0324,0.013523,0.002678,0.000431,0.002116
115716000,0.0324,0.013523,0.002678,0.000431,0.002351
115717000,0.0324,0.013523,0.002678,0.000431,0.002468
115718000,0.0324,0.013523,0.002678,0.000431,0.001998
115719000,0.0324,0.013523,0.002678,0.000431,0.002468
115720000,0.0324,0.013523,0.002678,0.000431,0.002351
115721000,0.0324,0.013523,0.002678,0.000431,0.002116
115722000,0.0324,0.013523,0.002678,0.000431,0.002821
115723000,0.0324,0.013523,0.002678,0.000431,0.001645
115724000,0.0324,0.013523,0.002678,0.000431,0.002821
115725000,0.0324,0.013523,0.002678,0.000431,0.002351
115726000,0.0324,0.013523,0.002678,0.000431,0.002116
115727000,0.0324,0.013523,0.002678,0.000431,0.002468
115728000,0.0324,0.013523,0.002678,0.000431,0.001998
115729000,0.0324,0.013523,0.002678,0.000431,0.002468
115730000,0.0324,0.013523,0.002678,0.000431,0.002468
115731000,0.0324,0.013523,0.002678,0.000431,0.001998
115732000,0.0324,0.013523,0.002678,0.000431,0.002468
115733000,0.0324,0.013523,0.002678,0.000431,0.002351
115734000,0.0324,0.013523,0.002678,0.000431,0.002116
115735000,0.0324,0.013523,0.002678,0.000431,0.002821
115736000,0.0324,0.013523,0.002678,0.000431,0.001645
115737000,0.0324,0.013523,0.002678,0.000431,0.002821
115738000,0.0324,0.013523,0.002678,0.000431,0.001880
115739000,0.0324,0.013523,0.002678,0.000431,0.002586
115740000,0.0324,0.013523,0.002678,0.000431,0.002468
115741000,0.0324,0.013523,0.002678,0.000431,0.001998
115742000,0.0324,0.013523,0.002678,0.000431,0.002468
115743000,0.0324,0.013523,0.002678,0.000431,0.002233
115744000,0.0324,0.013523,0.002678,0.000431,0.002586
115745000,0.0324,0.013523,0.002678,0.000431,0.002116
115746000,0.0324,0.013523,0.002678,0.000431,0.002351
115747000,0.0324,0.013523,0.002678,0.000431,0.002468
115748000,0.0324,0.013523,0.002678,0.000431,0.002116
115749000,0.0324,0.013523,0.002678,0.000431,0.002351
115750000,0.0324,0.013523,0.002678,0.000431,0.002468
115751000,0.0324,0.013523,0.002678,0.000431,0.001998
115752000,0.0324,0.013523,0.002678,0.000431,0.002468
115753000,0.0324,0.013523,0.002678,0.000431,0.002351
115754000,0.0324,0.013523,0.002678,0.000431,0.002116
115755000,0.0324,0.013523,0.002678,0.000431,0.002821
115756000,0.0324,0.013523,0.002678,0.000431,0.001645
115757000,0.0324,0.013523,0.002678,0.000431,0.002821
115758000,0.0324,0.013523,0.002678,0.000431,0.002351
115759000,0.0324,0.013523,0.002678,0.000431,0.002116
115760000,0.0324,0.013523,0.002678,0.000431,0.002468
115761000,0.0324,0.013523,0.002678,0.000431,0.001998
115762000,0.0324,0.013523,0.002678,0.000431,0.002468
115763000,0.0324,0.013523,0.002678,0.000431,0.002468
115764000,0.0324,0.013523,0.002678,0.000431,0.001998
115765000,0.0324,0.013523,0.002678,0.000431,0.002468
115766000,0.0324,0.013523,0.002678,0.000431,0.002351
115767000,0.0324,0.013523,0.002678,0.000431,0.002116
115768000,0.0324,0.013523,0.002678,0.000431,0.002821
115769000,0.0324,0.013523,0.002678,0.000431,0.001645
115770000,0.0324,0.013523,0.002678,0.000431,0.002821
115771000,0.0324,0.013523,0.002678,0.000431,0.001880
115772000,0.0324,0.013523,0.002678,0.000431,0.002586
115773000,0.0324,0.013523,0.002678,0.000431,0.002468
115774000,0.0324,0.013523,0.002678,0.000431,0.001998
115775000,0.0324,0.013523,0.002678,0.000431,0.001998
115776000,0.0324,0.013523,0.002678,0.000431,0.001998
115777000,0.0324,0.013523,0.002678,0.000431,0.002468
115778000,0.0324,0.013523,0.002678,0.000431,0.001998
115779000,0.0324,0.013523,0.002678,0.000431,0.002821
115780000,0.0324,0.013523,0.002678,0.000431,0.001645
115781000,0.0324,0.013523,0.002678,0.000431,0.002821
115782000,0.0324,0.013523,0.002678,0.000431,0.002351
115783000,0.0324,0.013523,0.002678,0.000431,0.002116
115784000,0.0324,0.013523,0.002678,0.000431,0.002468
115785000,0.0324,0.013523,0.002678,0.000431,0.001998
115786000,0.0324,0.013523,0.002678,0.000431,0.002821
115787000,0.0324,0.013523,0.002678,0.000431,0.002116
115788000,0.0324,0.013523,0.002678,0.000431,0.002351
115789000,0.0324,0.013523,0.002678,0.000431,0.002233
115790000,0.0324,0.013523,0.002678,0.000431,0.002233
115791000,0.0324,0.013523,0.002678,0.000431,0.002468
115792000,0.0324,0.013523,0.002678,0.000431,0.002468
115793000,0.0324,0.013523,0.002678,0.000431,0.001998
115794000,0.0324,0.013523,0.002678,0.000431,0.002468
115795000,0.0324,0.013523,0.002678,0.000431,0.001880
115796000,0.0324,0.013523,0.002678,0.000431,0.002586
115797000,0.0324,0.013523,0.002678,0.000431,0.002821
115798000,0.0324,0.013523,0.002678,0.000431,0.001645
115799000,0.0324,0.013523,0.002678,0.000431,0.002821
115800000,0.0324,0.013523,0.002678,0.000431,0.001998
115801000,0.0324,0.013523,0.002678,0.000431,0.001645
115802000,0.0324,0.013523,0.002678,0.000431,0.001645
115803000,0.0324,0.013523,0.002678,0.000431,0.000823
115804000,0.0324,0.013523,0.002678,0.000431,0.000940
115805000,0.0324,0.013523,0.002678,0.000431,0.182169
115806000,0.0324,0.013523,0.002678,0.000431,0.487037
115807000,0.0324,0.013523,0.002678,0.000431,0.530405
115808000,0.0324,0.013523,0.002678,0.000431,0.133512
115809000,0.0324,0.013523,0.002678,0.000431,0.136568
115810000,0.0324,0.013523,0.002678,0.000431,0.569071
115811000,0.0324,0.013523,0.002678,0.000431,0.251980
115812000,0.0324,0.013523,0.002678,0.000431,0.235879
115813000,0.0324,0.013523,0.002678,0.000431,0.312155
115814000,0.0324,0.013523,0.002678,0.000431,0.149026
115815000,0.0324,0.013523,0.002678,0.000431,0.155725
115816000,0.0324,0.013523,0.002678,0.000431,0.105540
115817000,0.0324,0.013523,0.002678,0.000431,0.434384
115818000,0.0324,0.013523,0.002678,0.000431,0.149848
115819000,0.0324,0.013523,0.002678,0.000431,0.065816
115820000,0.0324,0.013523,0.002678,0.000431,0.057824
115821000,0.0324,0.013523,0.002678,0.000431,0.044896
115822000,0.0324,0.013523,0.002678,0.000431,0.043015
115823000,0.0324,0.013523,0.002678,0.000431,0.034788
115824000,0.0324,0.013523,0.002678,0.000431,0.029029
115825000,0.0324,0.013523,0.002678,0.000431,0.027267
115826000,0.0324,0.013523,0.002678,0.000431,0.025151
115827000,0.0324,0.013523,0.002678,0.000431,0.026091
115828000,0.0324,0.013523,0.002678,0.000431,0.025856
115829000,0.0324,0.013523,0.002678,0.000431,0.022800
115830000,0.0324,0.013523,0.002678,0.000431,0.024916
115831000,0.0324,0.013523,0.002678,0.000431,0.024681
115832000,0.0324,0.013523,0.002678,0.000431,0.020802
115833000,0.0324,0.013523,0.002678,0.000431,0.019627
115834000,0.0324,0.013523,0.002678,0.000431,0.019040
115835000,0.0324,0.013523,0.002678,0.000431,0.020215
115836000,0.0324,0.013523,0.002678,0.000431,0.019275
115837000,0.0324,0.013523,0.002678,0.000431,0.020450
115838000,0.0324,0.013523,0.002678,0.000431,0.015749
115839000,0.0324,0.013523,0.002678,0.000431,0.012693
115840000,0.0324,0.013523,0.002678,0.000431,0.010342
115841000,0.0324,0.013523,0.002678,0.000431,0.010930
115842000,0.0324,0.013523,0.002678,0.000431,0.009520
115843000,0.0324,0.013523,0.002678,0.000431,0.008815
115844000,0.0324,0.013523,0.002678,0.000431,0.009285
115845000,0.0324,0.013523,0.002678,0.000431,0.010695
115846000,0.0324,0.013523,0.002678,0.000431,0.008462
115847000,0.0324,0.013523,0.002678,0.000431,0.009872
115848000,0.0324,0.013523,0.002678,0.000431,0.006934
115849000,0.0324,0.013523,0.002678,0.000431,0.007639
115850000,0.0324,0.013523,0.002678,0.000431,0.007522
115851000,0.0324,0.013523,0.002678,0.000431,0.007169
115852000,0.0324,0.013523,0.002678,0.000431,0.007287
115853000,0.0324,0.013523,0.002678,0.000431,0.007757
115854000,0.0324,0.013523,0.002678,0.000431,0.007287
115855000,0.0324,0.013523,0.002678,0.000431,0.007639
115856000,0.0324,0.013523,0.002678,0.000431,0.007404
115857000,0.0324,0.013523,0.002678,0.000431,0.008697
115858000,0.0324,0.013523,0.002678,0.000431,0.007757
115859000,0.0324,0.013523,0.002678,0.000431,0.006934
115860000,0.0324,0.013523,0.002678,0.000431,0.006934
115861000,0.0324,0.013523,0.002678,0.000431,0.006347
115862000,0.0324,0.013523,0.002678,0.000431,0.006582
115863000,0.0324,0.013523,0.002678,0.000431,0.006582
115864000,0.0324,0.013523,0.002678,0.000431,0.006699
115865000,0.0324,0.013523,0.002678,0.000431,0.006582
115866000,0.0324,0.013523,0.002678,0.000431,0.006699
115867000,0.0324,0.013523,0.002678,0.000431,0.006229
115868000,0.0324,0.013523,0.002678,0.000431,0.006817
115869000,0.0324,0.013523,0.002678,0.000431,0.006347
115870000,0.0324,0.013523,0.002678,0.000431,0.008697
115871000,0.0324,0.013523,0.002678,0.000431,0.005876
115872000,0.0324,0.013523,0.002678,0.000431,0.005524
115873000,0.0324,0.013523,0.002678,0.000431,0.006111
115874000,0.0324,0.013523,0.002678,0.000431,0.005641
115875000,0.0324,0.013523,0.002678,0.000431,0.005759
115876000,0.0324,0.013523,0.002678,0.000431,0.005759
115877000,0.0324,0.013523,0.002678,0.000431,0.005641
115878000,0.0324,0.013523,0.002678,0.000431,0.005876
115879000,0.0324,0.013523,0.002678,0.000431,0.005759
115880000,0.0324,0.013523,0.002678,0.000431,0.005759
115881000,0.0324,0.013523,0.002678,0.000431,0.005524
115882000,0.0324,0.013523,0.002678,0.000431,0.006229
115883000,0.0324,0.013523,0.002678,0.000431,0.005759
115884000,0.0324,0.013523,0.002678,0.000431,0.005759
115885000,0.0324,0.013523,0.002678,0.000431,0.005406
115886000,0.0324,0.013523,0.002678,0.000431,0.007757
115887000,0.0324,0.013523,0.002678,0.000431,0.004466
115888000,0.0324,0.013523,0.002678,0.000431,0.005641
115889000,0.0324,0.013523,0.002678,0.000431,0.005759
115890000,0.0324,0.013523,0.002678,0.000431,0.002233
115891000,0.0324,0.013523,0.002678,0.000431,0.002821
115892000,0.0324,0.013523,0.002678,0.000431,0.002468
115893000,0.0324,0.013523,0.002678,0.000431,0.002468
115894000,0.0324,0.013523,0.002678,0.000431,0.002468
115895000,0.0324,0.013523,0.002678,0.000431,0.002468
115896000,0.0324,0.013523,0.002678,0.000431,0.002586
115897000,0.0324,0.013523,0.002678,0.000431,0.002233
115898000,0.0324,0.013523,0.002678,0.000431,0.002821
115899000,0.0324,0.013523,0.002678,0.000431,0.004113
115900000,0.0324,0.013523,0.002678,0.000431,0.001763
115901000,0.0324,0.013523,0.002678,0.000431,0.001763
115902000,0.0324,0.013523,0.002678,0.000431,0.001645
115903000,0.0324,0.013523,0.002678,0.000431,0.001528
115904000,0.0324,0.013523,0.002678,0.000431,0.001763
115905000,0.0324,0.013523,0.002678,0.000431,0.001763
115906000,0.0324,0.013523,0.002678,0.000431,0.001528
115907000,0.0324,0.013523,0.002678,0.000431,0.001880
115908000,0.0324,0.013523,0.002678,0.000431,0.001528
115909000,0.0324,0.013523,0.002678,0.000431,0.001763
115910000,0.0324,0.013523,0.002678,0.000431,0.001528
115911000,0.0324,0.013523,0.002678,0.000431,0.001763
115912000,0.0324,0.013523,0.002678,0.000431,0.001880
115913000,0.0324,0.013523,0.002678,0.000431,0.001410
115914000,0.0324,0.013523,0.002678,0.000431,0.001880
115915000,0.0324,0.013523,0.002678,0.000431,0.001528
115916000,0.0324,0.013523,0.002678,0.000431,0.001763
115917000,0.0324,0.013523,0.002678,0.000431,0.001645
115918000,0.0324,0.013523,0.002678,0.000431,0.001645
115919000,0.0324,0.013523,0.002678,0.000431,0.001880
115920000,0.0324,0.013523,0.002678,0.000431,0.001528
115921000,0.0324,0.013523,0.002678,0.000431,0.001763
115922000,0.0324,0.013523,0.002678,0.000431,0.001763
115923000,0.0324,0.013523,0.002678,0.000431,0.001528
115924000,0.0324,0.013523,0.002678,0.000431,0.001763
115925000,0.0324,0.013523,0.002678,0.000431,0.001645
115926000,0.0324,0.013523,0.002678,0.000431,0.001645
115927000,0.0324,0.013523,0.002678,0.000431,0.001645
115928000,0.0324,0.013523,0.002678,0.000431,0.001645
115929000,0.0324,0.013523,0.002678,0.000431,0.001763
115930000,0.0324,0.013523,0.002678,0.000431,0.001645
115931000,0.0324,0.013523,0.002678,0.000431,0.001645
115932000,0.0324,0.013523,0.002678,0.000431,0.001763
115933000,0.0324,0.013523,0.002678,0.000431,0.001528
115934000,0.0324,0.013523,0.002678,0.000431,0.001763
115935000,0.0324,0.013523,0.002678,0.000431,0.001763
115936000,0.0324,0.013523,0.002678,0.000431,0.001528
115937000,0.0324,0.013523,0.002678,0.000431,0.001763
115938000,0.0324,0.013523,0.002678,0.000431,0.001645
115939000,0.0324,0.013523,0.002678,0.000431,0.001763
115940000,0.0324,0.013523,0.002678,0.000431,0.001645
115941000,0.0324,0.013523,0.002678,0.000431,0.001528
115942000,0.0324,0.013523,0.002678,0.000431,0.001763
115943000,0.0324,0.013523,0.002678,0.000431,0.001763
115944000,0.0324,0.013523,0.002678,0.000431,0.001645
115945000,0.0324,0.013523,0.002678,0.000431,0.001645
115946000,0.0324,0.013523,0.002678,0.000431,0.001645
115947000,0.0324,0.013523,0.002678,0.000431,0.001763
115948000,0.0324,0.013523,0.002678,0.000431,0.001645
115949000,0.0324,0.013523,0.002678,0.000431,0.001645
115950000,0.0324,0.013523,0.002678,0.000431,0.001763
115951000,0.0324,0.013523,0.002678,0.000431,0.001528
115952000,0.0324,0.013523,0.002678,0.000431,0.001763
115953000,0.0324,0.013523,0.002678,0.000431,0.001645
115954000,0.0324,0.013523,0.002678,0.000431,0.001645
115955000,0.0324,0.013523,0.002678,0.000431,0.001763
115956000,0.0324,0.013523,0.002678,0.000431,0.001645
115957000,0.0324,0.013523,0.002678,0.000431,0.001763
115958000,0.0324,0.013523,0.002678,0.000431,0.001410
115959000,0.0324,0.013523,0.002678,0.000431,0.001880
115960000,0.0324,0.013523,0.002678,0.000431,0.001763
115961000,0.0324,0.013523,0.002678,0.000431,0.001528
115962000,0.0324,0.013523,0.002678,0.000431,0.001763
115963000,0.0324,0.013523,0.002678,0.000431,0.001528
115964000,0.0324,0.013523,0.002678,0.000431,0.001880
115965000,0.0324,0.013523,0.002678,0.000431,0.001528
115966000,0.0324,0.013523,0.002678,0.000431,0.001645
115967000,0.0324,0.013523,0.002678,0.000431,0.001880
115968000,0.0324,0.013523,0.002678,0.000431,0.001528
115969000,0.0324,0.013523,0.002678,0.000431,0.001763
115970000,0.0324,0.013523,0.002678,0.000431,0.001528
115971000,0.0324,0.013523,0.002678,0.000431,0.001763
115972000,0.0324,0.013523,0.002678,0.000431,0.001645
115973000,0.0324,0.013523,0.002678,0.000431,0.001645
115974000,0.0324,0.013523,0.002678,0.000431,0.001645
115975000,0.0324,0.013523,0.002678,0.000431,0.001528
115976000,0.0324,0.013523,0.002678,0.000431,0.001880
115977000,0.0324,0.013523,0.002678,0.000431,0.001645
115978000,0.0324,0.013523,0.002678,0.000431,0.001645
115979000,0.0324,0.013523,0.002678,0.000431,0.001763
115980000,0.0324,0.013523,0.002678,0.000431,0.001528
115981000,0.0324,0.013523,0.002678,0.000431,0.001645
115982000,0.0324,0.013523,0.002678,0.000431,0.001880
115983000,0.0324,0.013523,0.002678,0.000431,0.001645
115984000,0.0324,0.013523,0.002678,0.000431,0.001645
115985000,0.0324,0.013523,0.002678,0.000431,0.001645
115986000,0.0324,0.013523,0.002678,0.000431,0.001645
115987000,0.0324,0.013523,0.002678,0.000431,0.001763
115988000,0.0324,0.013523,0.002678,0.000431,0.001645
115989000,0.0324,0.013523,0.002678,0.000431,0.001645
115990000,0.0324,0.013523,0.002678,0.000431,0.001763
115991000,0.0324,0.013523,0.002678,0.000431,0.001645
115992000,0.0324,0.013523,0.002678,0.000431,0.001645
115993000,0.0324,0.013523,0.002678,0.000431,0.001763
115994000,0.0324,0.013523,0.002678,0.000431,0.001645
115995000,0.0324,0.013523,0.002678,0.000431,0.001645
115996000,0.0324,0.013523,0.002678,0.000431,0.001645
115997000,0.0324,0.013523,0.002678,0.000431,0.001645
115998000,0.0324,0.013523,0.002678,0.000431,0.001645
115999000,0.0324,0.013523,0.002678,0.000431,0.001763
