Cycle,Area(mm^2),PeakDynamic(W),SubthresholdLeakage(W),GateLeakage(W),RunTimeDynamic(W)
141000000,0.0324,0.013523,0.002678,0.000431,0.004936
141001000,0.0324,0.013523,0.002678,0.000431,0.004701
141002000,0.0324,0.013523,0.002678,0.000431,0.004936
141003000,0.0324,0.013523,0.002678,0.000431,0.004466
141004000,0.0324,0.013523,0.002678,0.000431,0.005171
141005000,0.0324,0.013523,0.002678,0.000431,0.004936
141006000,0.0324,0.013523,0.002678,0.000431,0.004349
141007000,0.0324,0.013523,0.002678,0.000431,0.006582
141008000,0.0324,0.013523,0.002678,0.000431,0.005054
141009000,0.0324,0.013523,0.002678,0.000431,0.003526
141010000,0.0324,0.013523,0.002678,0.000431,0.002821
141011000,0.0324,0.013523,0.002678,0.000431,0.003291
141012000,0.0324,0.013523,0.002678,0.000431,0.002938
141013000,0.0324,0.013523,0.002678,0.000431,0.003408
141014000,0.0324,0.013523,0.002678,0.000431,0.003291
141015000,0.0324,0.013523,0.002678,0.000431,0.002821
141016000,0.0324,0.013523,0.002678,0.000431,0.003526
141017000,0.0324,0.013523,0.002678,0.000431,0.002938
141018000,0.0324,0.013523,0.002678,0.000431,0.003408
141019000,0.0324,0.013523,0.002678,0.000431,0.002821
141020000,0.0324,0.013523,0.002678,0.000431,0.003291
141021000,0.0324,0.013523,0.002678,0.000431,0.002938
141022000,0.0324,0.013523,0.002678,0.000431,0.003291
141023000,0.0324,0.013523,0.002678,0.000431,0.003408
141024000,0.0324,0.013523,0.002678,0.000431,0.002821
141025000,0.0324,0.013523,0.002678,0.000431,0.003291
141026000,0.0324,0.013523,0.002678,0.000431,0.002938
141027000,0.0324,0.013523,0.002678,0.000431,0.003408
141028000,0.0324,0.013523,0.002678,0.000431,0.003056
141029000,0.0324,0.013523,0.002678,0.000431,0.003291
141030000,0.0324,0.013523,0.002678,0.000431,0.002821
141031000,0.0324,0.013523,0.002678,0.000431,0.003408
141032000,0.0324,0.013523,0.002678,0.000431,0.003173
141033000,0.0324,0.013523,0.002678,0.000431,0.003056
141034000,0.0324,0.013523,0.002678,0.000431,0.003291
141035000,0.0324,0.013523,0.002678,0.000431,0.003056
141036000,0.0324,0.013523,0.002678,0.000431,0.003408
141037000,0.0324,0.013523,0.002678,0.000431,0.002938
141038000,0.0324,0.013523,0.002678,0.000431,0.003291
141039000,0.0324,0.013523,0.002678,0.000431,0.003056
141040000,0.0324,0.013523,0.002678,0.000431,0.003056
141041000,0.0324,0.013523,0.002678,0.000431,0.003056
141042000,0.0324,0.013523,0.002678,0.000431,0.003291
141043000,0.0324,0.013523,0.002678,0.000431,0.003291
141044000,0.0324,0.013523,0.002678,0.000431,0.002821
141045000,0.0324,0.013523,0.002678,0.000431,0.003291
141046000,0.0324,0.013523,0.002678,0.000431,0.003056
141047000,0.0324,0.013523,0.002678,0.000431,0.003526
141048000,0.0324,0.013523,0.002678,0.000431,0.002821
141049000,0.0324,0.013523,0.002678,0.000431,0.003291
141050000,0.0324,0.013523,0.002678,0.000431,0.004936
141051000,0.0324,0.013523,0.002678,0.000431,0.014573
141052000,0.0324,0.013523,0.002678,0.000431,0.635827
141053000,0.0324,0.013523,0.002678,0.000431,0.583880
141054000,0.0324,0.013523,0.002678,0.000431,0.132807
141055000,0.0324,0.013523,0.002678,0.000431,0.135628
141056000,0.0324,0.013523,0.002678,0.000431,0.551442
141057000,0.0324,0.013523,0.002678,0.000431,0.272313
141058000,0.0324,0.013523,0.002678,0.000431,0.249982
141059000,0.0324,0.013523,0.002678,0.000431,0.296759
141060000,0.0324,0.013523,0.002678,0.000431,0.139153
141061000,0.0324,0.013523,0.002678,0.000431,0.154785
141062000,0.0324,0.013523,0.002678,0.000431,0.224479
141063000,0.0324,0.013523,0.002678,0.000431,0.475989
141064000,0.0324,0.013523,0.002678,0.000431,0.168535
141065000,0.0324,0.013523,0.002678,0.000431,0.158898
141066000,0.0324,0.013523,0.002678,0.000431,0.119409
141067000,0.0324,0.013523,0.002678,0.000431,0.093670
141068000,0.0324,0.013523,0.002678,0.000431,0.087206
141069000,0.0324,0.013523,0.002678,0.000431,0.056884
141070000,0.0324,0.013523,0.002678,0.000431,0.062172
141071000,0.0324,0.013523,0.002678,0.000431,0.041370
141072000,0.0324,0.013523,0.002678,0.000431,0.039489
141073000,0.0324,0.013523,0.002678,0.000431,0.037374
141074000,0.0324,0.013523,0.002678,0.000431,0.032085
141075000,0.0324,0.013523,0.002678,0.000431,0.024681
141076000,0.0324,0.013523,0.002678,0.000431,0.022918
141077000,0.0324,0.013523,0.002678,0.000431,0.017277
141078000,0.0324,0.013523,0.002678,0.000431,0.017159
141079000,0.0324,0.013523,0.002678,0.000431,0.010813
141080000,0.0324,0.013523,0.002678,0.000431,0.010930
141081000,0.0324,0.013523,0.002678,0.000431,0.009285
141082000,0.0324,0.013523,0.002678,0.000431,0.007992
141083000,0.0324,0.013523,0.002678,0.000431,0.008580
141084000,0.0324,0.013523,0.002678,0.000431,0.007404
141085000,0.0324,0.013523,0.002678,0.000431,0.007874
141086000,0.0324,0.013523,0.002678,0.000431,0.008227
141087000,0.0324,0.013523,0.002678,0.000431,0.006934
141088000,0.0324,0.013523,0.002678,0.000431,0.010930
141089000,0.0324,0.013523,0.002678,0.000431,0.006817
141090000,0.0324,0.013523,0.002678,0.000431,0.006934
141091000,0.0324,0.013523,0.002678,0.000431,0.007287
141092000,0.0324,0.013523,0.002678,0.000431,0.006464
141093000,0.0324,0.013523,0.002678,0.000431,0.007639
141094000,0.0324,0.013523,0.002678,0.000431,0.006464
141095000,0.0324,0.013523,0.002678,0.000431,0.006934
141096000,0.0324,0.013523,0.002678,0.000431,0.007404
141097000,0.0324,0.013523,0.002678,0.000431,0.006817
141098000,0.0324,0.013523,0.002678,0.000431,0.006934
141099000,0.0324,0.013523,0.002678,0.000431,0.006934
141100000,0.0324,0.013523,0.002678,0.000431,0.007052
141101000,0.0324,0.013523,0.002678,0.000431,0.009050
141102000,0.0324,0.013523,0.002678,0.000431,0.006111
141103000,0.0324,0.013523,0.002678,0.000431,0.006111
141104000,0.0324,0.013523,0.002678,0.000431,0.005994
141105000,0.0324,0.013523,0.002678,0.000431,0.005876
141106000,0.0324,0.013523,0.002678,0.000431,0.006347
141107000,0.0324,0.013523,0.002678,0.000431,0.005759
141108000,0.0324,0.013523,0.002678,0.000431,0.006111
141109000,0.0324,0.013523,0.002678,0.000431,0.006111
141110000,0.0324,0.013523,0.002678,0.000431,0.005876
141111000,0.0324,0.013523,0.002678,0.000431,0.005994
141112000,0.0324,0.013523,0.002678,0.000431,0.005524
141113000,0.0324,0.013523,0.002678,0.000431,0.006229
141114000,0.0324,0.013523,0.002678,0.000431,0.010695
141115000,0.0324,0.013523,0.002678,0.000431,0.004349
141116000,0.0324,0.013523,0.002678,0.000431,0.004584
141117000,0.0324,0.013523,0.002678,0.000431,0.004231
141118000,0.0324,0.013523,0.002678,0.000431,0.004466
141119000,0.0324,0.013523,0.002678,0.000431,0.004349
141120000,0.0324,0.013523,0.002678,0.000431,0.005759
141121000,0.0324,0.013523,0.002678,0.000431,0.003526
141122000,0.0324,0.013523,0.002678,0.000431,0.003643
141123000,0.0324,0.013523,0.002678,0.000431,0.003526
141124000,0.0324,0.013523,0.002678,0.000431,0.003878
141125000,0.0324,0.013523,0.002678,0.000431,0.003291
141126000,0.0324,0.013523,0.002678,0.000431,0.004936
141127000,0.0324,0.013523,0.002678,0.000431,0.003996
141128000,0.0324,0.013523,0.002678,0.000431,0.002586
141129000,0.0324,0.013523,0.002678,0.000431,0.002821
141130000,0.0324,0.013523,0.002678,0.000431,0.002586
141131000,0.0324,0.013523,0.002678,0.000431,0.003056
141132000,0.0324,0.013523,0.002678,0.000431,0.002586
141133000,0.0324,0.013523,0.002678,0.000431,0.002821
141134000,0.0324,0.013523,0.002678,0.000431,0.003173
141135000,0.0324,0.013523,0.002678,0.000431,0.002468
141136000,0.0324,0.013523,0.002678,0.000431,0.002821
141137000,0.0324,0.013523,0.002678,0.000431,0.002938
141138000,0.0324,0.013523,0.002678,0.000431,0.002586
141139000,0.0324,0.013523,0.002678,0.000431,0.002938
141140000,0.0324,0.013523,0.002678,0.000431,0.002468
141141000,0.0324,0.013523,0.002678,0.000431,0.002821
141142000,0.0324,0.013523,0.002678,0.000431,0.002938
141143000,0.0324,0.013523,0.002678,0.000431,0.003878
141144000,0.0324,0.013523,0.002678,0.000431,0.003291
141145000,0.0324,0.013523,0.002678,0.000431,0.002468
141146000,0.0324,0.013523,0.002678,0.000431,0.000940
141147000,0.0324,0.013523,0.002678,0.000431,0.000705
141148000,0.0324,0.013523,0.002678,0.000431,0.000940
141149000,0.0324,0.013523,0.002678,0.000431,0.000823
141150000,0.0324,0.013523,0.002678,0.000431,0.000823
141151000,0.0324,0.013523,0.002678,0.000431,0.000940
141152000,0.0324,0.013523,0.002678,0.000431,0.000940
141153000,0.0324,0.013523,0.002678,0.000431,0.000940
141154000,0.0324,0.013523,0.002678,0.000431,0.000705
141155000,0.0324,0.013523,0.002678,0.000431,0.000940
141156000,0.0324,0.013523,0.002678,0.000431,0.000940
141157000,0.0324,0.013523,0.002678,0.000431,0.000823
141158000,0.0324,0.013523,0.002678,0.000431,0.000940
141159000,0.0324,0.013523,0.002678,0.000431,0.000823
141160000,0.0324,0.013523,0.002678,0.000431,0.000940
141161000,0.0324,0.013523,0.002678,0.000431,0.000940
141162000,0.0324,0.013523,0.002678,0.000431,0.277837
141163000,0.0324,0.013523,0.002678,0.000431,0.800132
141164000,0.0324,0.013523,0.002678,0.000431,0.306631
141165000,0.0324,0.013523,0.002678,0.000431,0.134452
141166000,0.0324,0.013523,0.002678,0.000431,0.444021
141167000,0.0324,0.013523,0.002678,0.000431,0.345298
141168000,0.0324,0.013523,0.002678,0.000431,0.290882
141169000,0.0324,0.013523,0.002678,0.000431,0.271255
141170000,0.0324,0.013523,0.002678,0.000431,0.148438
141171000,0.0324,0.013523,0.002678,0.000431,0.106951
141172000,0.0324,0.013523,0.002678,0.000431,0.436382
141173000,0.0324,0.013523,0.002678,0.000431,0.329902
141174000,0.0324,0.013523,0.002678,0.000431,0.159721
141175000,0.0324,0.013523,0.002678,0.000431,0.146558
141176000,0.0324,0.013523,0.002678,0.000431,0.120936
141177000,0.0324,0.013523,0.002678,0.000431,0.098724
141178000,0.0324,0.013523,0.002678,0.000431,0.068519
141179000,0.0324,0.013523,0.002678,0.000431,0.069694
141180000,0.0324,0.013523,0.002678,0.000431,0.062407
141181000,0.0324,0.013523,0.002678,0.000431,0.042663
141182000,0.0324,0.013523,0.002678,0.000431,0.032085
141183000,0.0324,0.013523,0.002678,0.000431,0.026326
141184000,0.0324,0.013523,0.002678,0.000431,0.026326
141185000,0.0324,0.013523,0.002678,0.000431,0.029265
141186000,0.0324,0.013523,0.002678,0.000431,0.025504
141187000,0.0324,0.013523,0.002678,0.000431,0.019980
141188000,0.0324,0.013523,0.002678,0.000431,0.018922
141189000,0.0324,0.013523,0.002678,0.000431,0.016924
141190000,0.0324,0.013523,0.002678,0.000431,0.020332
141191000,0.0324,0.013523,0.002678,0.000431,0.015866
141192000,0.0324,0.013523,0.002678,0.000431,0.015514
141193000,0.0324,0.013523,0.002678,0.000431,0.019157
141194000,0.0324,0.013523,0.002678,0.000431,0.015044
141195000,0.0324,0.013523,0.002678,0.000431,0.015161
141196000,0.0324,0.013523,0.002678,0.000431,0.013516
141197000,0.0324,0.013523,0.002678,0.000431,0.012458
141198000,0.0324,0.013523,0.002678,0.000431,0.012928
141199000,0.0324,0.013523,0.002678,0.000431,0.012811
141200000,0.0324,0.013523,0.002678,0.000431,0.010460
141201000,0.0324,0.013523,0.002678,0.000431,0.011635
141202000,0.0324,0.013523,0.002678,0.000431,0.011283
141203000,0.0324,0.013523,0.002678,0.000431,0.011753
141204000,0.0324,0.013523,0.002678,0.000431,0.011753
141205000,0.0324,0.013523,0.002678,0.000431,0.008345
141206000,0.0324,0.013523,0.002678,0.000431,0.008227
141207000,0.0324,0.013523,0.002678,0.000431,0.008345
141208000,0.0324,0.013523,0.002678,0.000431,0.008109
141209000,0.0324,0.013523,0.002678,0.000431,0.008227
141210000,0.0324,0.013523,0.002678,0.000431,0.008462
141211000,0.0324,0.013523,0.002678,0.000431,0.007522
141212000,0.0324,0.013523,0.002678,0.000431,0.007757
141213000,0.0324,0.013523,0.002678,0.000431,0.007522
141214000,0.0324,0.013523,0.002678,0.000431,0.007757
141215000,0.0324,0.013523,0.002678,0.000431,0.008227
141216000,0.0324,0.013523,0.002678,0.000431,0.007169
141217000,0.0324,0.013523,0.002678,0.000431,0.007992
141218000,0.0324,0.013523,0.002678,0.000431,0.007522
141219000,0.0324,0.013523,0.002678,0.000431,0.007757
141220000,0.0324,0.013523,0.002678,0.000431,0.009167
141221000,0.0324,0.013523,0.002678,0.000431,0.008580
141222000,0.0324,0.013523,0.002678,0.000431,0.008227
141223000,0.0324,0.013523,0.002678,0.000431,0.005759
141224000,0.0324,0.013523,0.002678,0.000431,0.005994
141225000,0.0324,0.013523,0.002678,0.000431,0.007757
141226000,0.0324,0.013523,0.002678,0.000431,0.005171
141227000,0.0324,0.013523,0.002678,0.000431,0.005171
141228000,0.0324,0.013523,0.002678,0.000431,0.005289
141229000,0.0324,0.013523,0.002678,0.000431,0.007639
141230000,0.0324,0.013523,0.002678,0.000431,0.004584
141231000,0.0324,0.013523,0.002678,0.000431,0.004113
141232000,0.0324,0.013523,0.002678,0.000431,0.004231
141233000,0.0324,0.013523,0.002678,0.000431,0.004466
141234000,0.0324,0.013523,0.002678,0.000431,0.004231
141235000,0.0324,0.013523,0.002678,0.000431,0.004349
141236000,0.0324,0.013523,0.002678,0.000431,0.004113
141237000,0.0324,0.013523,0.002678,0.000431,0.004231
141238000,0.0324,0.013523,0.002678,0.000431,0.004466
141239000,0.0324,0.013523,0.002678,0.000431,0.004231
141240000,0.0324,0.013523,0.002678,0.000431,0.004113
141241000,0.0324,0.013523,0.002678,0.000431,0.004584
141242000,0.0324,0.013523,0.002678,0.000431,0.004349
141243000,0.0324,0.013523,0.002678,0.000431,0.004113
141244000,0.0324,0.013523,0.002678,0.000431,0.004113
141245000,0.0324,0.013523,0.002678,0.000431,0.004349
141246000,0.0324,0.013523,0.002678,0.000431,0.004701
141247000,0.0324,0.013523,0.002678,0.000431,0.003878
141248000,0.0324,0.013523,0.002678,0.000431,0.004466
141249000,0.0324,0.013523,0.002678,0.000431,0.004466
141250000,0.0324,0.013523,0.002678,0.000431,0.004231
141251000,0.0324,0.013523,0.002678,0.000431,0.004113
141252000,0.0324,0.013523,0.002678,0.000431,0.004466
141253000,0.0324,0.013523,0.002678,0.000431,0.004584
141254000,0.0324,0.013523,0.002678,0.000431,0.003878
141255000,0.0324,0.013523,0.002678,0.000431,0.004231
141256000,0.0324,0.013523,0.002678,0.000431,0.004701
141257000,0.0324,0.013523,0.002678,0.000431,0.004231
141258000,0.0324,0.013523,0.002678,0.000431,0.004113
141259000,0.0324,0.013523,0.002678,0.000431,0.004349
141260000,0.0324,0.013523,0.002678,0.000431,0.004466
141261000,0.0324,0.013523,0.002678,0.000431,0.004231
141262000,0.0324,0.013523,0.002678,0.000431,0.003878
141263000,0.0324,0.013523,0.002678,0.000431,0.004701
141264000,0.0324,0.013523,0.002678,0.000431,0.004113
141265000,0.0324,0.013523,0.002678,0.000431,0.004584
141266000,0.0324,0.013523,0.002678,0.000431,0.004231
141267000,0.0324,0.013523,0.002678,0.000431,0.006111
141268000,0.0324,0.013523,0.002678,0.000431,0.003408
141269000,0.0324,0.013523,0.002678,0.000431,0.003291
141270000,0.0324,0.013523,0.002678,0.000431,0.003761
141271000,0.0324,0.013523,0.002678,0.000431,0.003526
141272000,0.0324,0.013523,0.002678,0.000431,0.003291
141273000,0.0324,0.013523,0.002678,0.000431,0.003526
141274000,0.0324,0.013523,0.002678,0.000431,0.003291
141275000,0.0324,0.013523,0.002678,0.000431,0.003526
141276000,0.0324,0.013523,0.002678,0.000431,0.003526
141277000,0.0324,0.013523,0.002678,0.000431,0.003291
141278000,0.0324,0.013523,0.002678,0.000431,0.003408
141279000,0.0324,0.013523,0.002678,0.000431,0.003173
141280000,0.0324,0.013523,0.002678,0.000431,0.003526
141281000,0.0324,0.013523,0.002678,0.000431,0.003408
141282000,0.0324,0.013523,0.002678,0.000431,0.003291
141283000,0.0324,0.013523,0.002678,0.000431,0.003291
141284000,0.0324,0.013523,0.002678,0.000431,0.003408
141285000,0.0324,0.013523,0.002678,0.000431,0.003761
141286000,0.0324,0.013523,0.002678,0.000431,0.003173
141287000,0.0324,0.013523,0.002678,0.000431,0.003526
141288000,0.0324,0.013523,0.002678,0.000431,0.003408
141289000,0.0324,0.013523,0.002678,0.000431,0.003291
141290000,0.0324,0.013523,0.002678,0.000431,0.003526
141291000,0.0324,0.013523,0.002678,0.000431,0.002468
141292000,0.0324,0.013523,0.002678,0.000431,0.002703
141293000,0.0324,0.013523,0.002678,0.000431,0.002468
141294000,0.0324,0.013523,0.002678,0.000431,0.004701
141295000,0.0324,0.013523,0.002678,0.000431,0.001880
141296000,0.0324,0.013523,0.002678,0.000431,0.001763
141297000,0.0324,0.013523,0.002678,0.000431,0.001763
141298000,0.0324,0.013523,0.002678,0.000431,0.001763
141299000,0.0324,0.013523,0.002678,0.000431,0.001880
141300000,0.0324,0.013523,0.002678,0.000431,0.001645
141301000,0.0324,0.013523,0.002678,0.000431,0.001880
141302000,0.0324,0.013523,0.002678,0.000431,0.001528
141303000,0.0324,0.013523,0.002678,0.000431,0.001998
141304000,0.0324,0.013523,0.002678,0.000431,0.001645
141305000,0.0324,0.013523,0.002678,0.000431,0.001880
141306000,0.0324,0.013523,0.002678,0.000431,0.001763
141307000,0.0324,0.013523,0.002678,0.000431,0.001528
141308000,0.0324,0.013523,0.002678,0.000431,0.002116
141309000,0.0324,0.013523,0.002678,0.000431,0.001645
141310000,0.0324,0.013523,0.002678,0.000431,0.001880
141311000,0.0324,0.013523,0.002678,0.000431,0.001645
141312000,0.0324,0.013523,0.002678,0.000431,0.001645
141313000,0.0324,0.013523,0.002678,0.000431,0.001880
141314000,0.0324,0.013523,0.002678,0.000431,0.001645
141315000,0.0324,0.013523,0.002678,0.000431,0.001998
141316000,0.0324,0.013523,0.002678,0.000431,0.001645
141317000,0.0324,0.013523,0.002678,0.000431,0.001645
141318000,0.0324,0.013523,0.002678,0.000431,0.001998
141319000,0.0324,0.013523,0.002678,0.000431,0.001645
141320000,0.0324,0.013523,0.002678,0.000431,0.001763
141321000,0.0324,0.013523,0.002678,0.000431,0.001763
141322000,0.0324,0.013523,0.002678,0.000431,0.001645
141323000,0.0324,0.013523,0.002678,0.000431,0.001880
141324000,0.0324,0.013523,0.002678,0.000431,0.001880
141325000,0.0324,0.013523,0.002678,0.000431,0.001645
141326000,0.0324,0.013523,0.002678,0.000431,0.001880
141327000,0.0324,0.013523,0.002678,0.000431,0.001528
141328000,0.0324,0.013523,0.002678,0.000431,0.001998
141329000,0.0324,0.013523,0.002678,0.000431,0.001880
141330000,0.0324,0.013523,0.002678,0.000431,0.001645
141331000,0.0324,0.013523,0.002678,0.000431,0.001880
141332000,0.0324,0.013523,0.002678,0.000431,0.001528
141333000,0.0324,0.013523,0.002678,0.000431,0.001998
141334000,0.0324,0.013523,0.002678,0.000431,0.001645
141335000,0.0324,0.013523,0.002678,0.000431,0.001763
141336000,0.0324,0.013523,0.002678,0.000431,0.001880
141337000,0.0324,0.013523,0.002678,0.000431,0.001528
141338000,0.0324,0.013523,0.002678,0.000431,0.002116
141339000,0.0324,0.013523,0.002678,0.000431,0.001528
141340000,0.0324,0.013523,0.002678,0.000431,0.001880
141341000,0.0324,0.013523,0.002678,0.000431,0.001763
141342000,0.0324,0.013523,0.002678,0.000431,0.001645
141343000,0.0324,0.013523,0.002678,0.000431,0.001763
141344000,0.0324,0.013523,0.002678,0.000431,0.001763
141345000,0.0324,0.013523,0.002678,0.000431,0.001880
141346000,0.0324,0.013523,0.002678,0.000431,0.001645
141347000,0.0324,0.013523,0.002678,0.000431,0.001880
141348000,0.0324,0.013523,0.002678,0.000431,0.001645
141349000,0.0324,0.013523,0.002678,0.000431,0.001880
141350000,0.0324,0.013523,0.002678,0.000431,0.001763
141351000,0.0324,0.013523,0.002678,0.000431,0.001763
141352000,0.0324,0.013523,0.002678,0.000431,0.001880
141353000,0.0324,0.013523,0.002678,0.000431,0.001645
141354000,0.0324,0.013523,0.002678,0.000431,0.001880
141355000,0.0324,0.013523,0.002678,0.000431,0.001528
141356000,0.0324,0.013523,0.002678,0.000431,0.001998
141357000,0.0324,0.013523,0.002678,0.000431,0.001645
141358000,0.0324,0.013523,0.002678,0.000431,0.001880
141359000,0.0324,0.013523,0.002678,0.000431,0.001763
141360000,0.0324,0.013523,0.002678,0.000431,0.001528
141361000,0.0324,0.013523,0.002678,0.000431,0.002116
141362000,0.0324,0.013523,0.002678,0.000431,0.001528
141363000,0.0324,0.013523,0.002678,0.000431,0.001880
141364000,0.0324,0.013523,0.002678,0.000431,0.001763
141365000,0.0324,0.013523,0.002678,0.000431,0.001645
141366000,0.0324,0.013523,0.002678,0.000431,0.001880
141367000,0.0324,0.013523,0.002678,0.000431,0.001645
141368000,0.0324,0.013523,0.002678,0.000431,0.001880
141369000,0.0324,0.013523,0.002678,0.000431,0.001645
141370000,0.0324,0.013523,0.002678,0.000431,0.001763
141371000,0.0324,0.013523,0.002678,0.000431,0.001880
141372000,0.0324,0.013523,0.002678,0.000431,0.001763
141373000,0.0324,0.013523,0.002678,0.000431,0.001763
141374000,0.0324,0.013523,0.002678,0.000431,0.001763
141375000,0.0324,0.013523,0.002678,0.000431,0.001645
141376000,0.0324,0.013523,0.002678,0.000431,0.001880
141377000,0.0324,0.013523,0.002678,0.000431,0.001880
141378000,0.0324,0.013523,0.002678,0.000431,0.001645
141379000,0.0324,0.013523,0.002678,0.000431,0.001880
141380000,0.0324,0.013523,0.002678,0.000431,0.001528
141381000,0.0324,0.013523,0.002678,0.000431,0.001998
141382000,0.0324,0.013523,0.002678,0.000431,0.001763
141383000,0.0324,0.013523,0.002678,0.000431,0.001645
141384000,0.0324,0.013523,0.002678,0.000431,0.001998
141385000,0.0324,0.013523,0.002678,0.000431,0.001528
141386000,0.0324,0.013523,0.002678,0.000431,0.001998
141387000,0.0324,0.013523,0.002678,0.000431,0.001645
141388000,0.0324,0.013523,0.002678,0.000431,0.001763
141389000,0.0324,0.013523,0.002678,0.000431,0.001763
141390000,0.0324,0.013523,0.002678,0.000431,0.001645
141391000,0.0324,0.013523,0.002678,0.000431,0.002116
141392000,0.0324,0.013523,0.002678,0.000431,0.001410
141393000,0.0324,0.013523,0.002678,0.000431,0.001998
141394000,0.0324,0.013523,0.002678,0.000431,0.002586
141395000,0.0324,0.013523,0.002678,0.000431,0.002116
141396000,0.0324,0.013523,0.002678,0.000431,0.000940
141397000,0.0324,0.013523,0.002678,0.000431,0.000940
141398000,0.0324,0.013523,0.002678,0.000431,0.001058
141399000,0.0324,0.013523,0.002678,0.000431,0.000823
141400000,0.0324,0.013523,0.002678,0.000431,0.000940
141401000,0.0324,0.013523,0.002678,0.000431,0.000940
141402000,0.0324,0.013523,0.002678,0.000431,0.000940
141403000,0.0324,0.013523,0.002678,0.000431,0.000823
141404000,0.0324,0.013523,0.002678,0.000431,0.001058
141405000,0.0324,0.013523,0.002678,0.000431,0.000940
141406000,0.0324,0.013523,0.002678,0.000431,0.000940
141407000,0.0324,0.013523,0.002678,0.000431,0.000940
141408000,0.0324,0.013523,0.002678,0.000431,0.000823
141409000,0.0324,0.013523,0.002678,0.000431,0.001058
141410000,0.0324,0.013523,0.002678,0.000431,0.000823
141411000,0.0324,0.013523,0.002678,0.000431,0.001058
141412000,0.0324,0.013523,0.002678,0.000431,0.000940
141413000,0.0324,0.013523,0.002678,0.000431,0.000705
141414000,0.0324,0.013523,0.002678,0.000431,0.001175
141415000,0.0324,0.013523,0.002678,0.000431,0.000705
141416000,0.0324,0.013523,0.002678,0.000431,0.001058
141417000,0.0324,0.013523,0.002678,0.000431,0.000940
141418000,0.0324,0.013523,0.002678,0.000431,0.000823
141419000,0.0324,0.013523,0.002678,0.000431,0.001058
141420000,0.0324,0.013523,0.002678,0.000431,0.000823
141421000,0.0324,0.013523,0.002678,0.000431,0.001058
141422000,0.0324,0.013523,0.002678,0.000431,0.000823
141423000,0.0324,0.013523,0.002678,0.000431,0.000940
141424000,0.0324,0.013523,0.002678,0.000431,0.000940
141425000,0.0324,0.013523,0.002678,0.000431,0.000940
141426000,0.0324,0.013523,0.002678,0.000431,0.000940
141427000,0.0324,0.013523,0.002678,0.000431,0.000940
141428000,0.0324,0.013523,0.002678,0.000431,0.000940
141429000,0.0324,0.013523,0.002678,0.000431,0.000940
141430000,0.0324,0.013523,0.002678,0.000431,0.000940
141431000,0.0324,0.013523,0.002678,0.000431,0.000940
141432000,0.0324,0.013523,0.002678,0.000431,0.000940
141433000,0.0324,0.013523,0.002678,0.000431,0.000823
141434000,0.0324,0.013523,0.002678,0.000431,0.001058
141435000,0.0324,0.013523,0.002678,0.000431,0.000823
141436000,0.0324,0.013523,0.002678,0.000431,0.000940
141437000,0.0324,0.013523,0.002678,0.000431,0.001058
141438000,0.0324,0.013523,0.002678,0.000431,0.000705
141439000,0.0324,0.013523,0.002678,0.000431,0.001175
141440000,0.0324,0.013523,0.002678,0.000431,0.000823
141441000,0.0324,0.013523,0.002678,0.000431,0.000940
141442000,0.0324,0.013523,0.002678,0.000431,0.000940
141443000,0.0324,0.013523,0.002678,0.000431,0.000823
141444000,0.0324,0.013523,0.002678,0.000431,0.001058
141445000,0.0324,0.013523,0.002678,0.000431,0.000823
141446000,0.0324,0.013523,0.002678,0.000431,0.001058
141447000,0.0324,0.013523,0.002678,0.000431,0.000940
141448000,0.0324,0.013523,0.002678,0.000431,0.000823
141449000,0.0324,0.013523,0.002678,0.000431,0.000940
141450000,0.0324,0.013523,0.002678,0.000431,0.000940
141451000,0.0324,0.013523,0.002678,0.000431,0.001058
141452000,0.0324,0.013523,0.002678,0.000431,0.000823
141453000,0.0324,0.013523,0.002678,0.000431,0.000940
141454000,0.0324,0.013523,0.002678,0.000431,0.000940
141455000,0.0324,0.013523,0.002678,0.000431,0.000940
141456000,0.0324,0.013523,0.002678,0.000431,0.000823
141457000,0.0324,0.013523,0.002678,0.000431,0.001058
141458000,0.0324,0.013523,0.002678,0.000431,0.000940
141459000,0.0324,0.013523,0.002678,0.000431,0.000940
141460000,0.0324,0.013523,0.002678,0.000431,0.000940
141461000,0.0324,0.013523,0.002678,0.000431,0.000823
141462000,0.0324,0.013523,0.002678,0.000431,0.001058
141463000,0.0324,0.013523,0.002678,0.000431,0.000823
141464000,0.0324,0.013523,0.002678,0.000431,0.001058
141465000,0.0324,0.013523,0.002678,0.000431,0.000823
141466000,0.0324,0.013523,0.002678,0.000431,0.000823
141467000,0.0324,0.013523,0.002678,0.000431,0.001175
141468000,0.0324,0.013523,0.002678,0.000431,0.000705
141469000,0.0324,0.013523,0.002678,0.000431,0.001058
141470000,0.0324,0.013523,0.002678,0.000431,0.000940
141471000,0.0324,0.013523,0.002678,0.000431,0.000823
141472000,0.0324,0.013523,0.002678,0.000431,0.001058
141473000,0.0324,0.013523,0.002678,0.000431,0.000823
141474000,0.0324,0.013523,0.002678,0.000431,0.000940
141475000,0.0324,0.013523,0.002678,0.000431,0.000940
141476000,0.0324,0.013523,0.002678,0.000431,0.000940
141477000,0.0324,0.013523,0.002678,0.000431,0.000940
141478000,0.0324,0.013523,0.002678,0.000431,0.000940
141479000,0.0324,0.013523,0.002678,0.000431,0.000940
141480000,0.0324,0.013523,0.002678,0.000431,0.000940
141481000,0.0324,0.013523,0.002678,0.000431,0.000940
141482000,0.0324,0.013523,0.002678,0.000431,0.000940
141483000,0.0324,0.013523,0.002678,0.000431,0.000940
141484000,0.0324,0.013523,0.002678,0.000431,0.000940
141485000,0.0324,0.013523,0.002678,0.000431,0.000940
141486000,0.0324,0.013523,0.002678,0.000431,0.000823
141487000,0.0324,0.013523,0.002678,0.000431,0.001058
141488000,0.0324,0.013523,0.002678,0.000431,0.000823
141489000,0.0324,0.013523,0.002678,0.000431,0.000940
141490000,0.0324,0.013523,0.002678,0.000431,0.000940
141491000,0.0324,0.013523,0.002678,0.000431,0.000823
141492000,0.0324,0.013523,0.002678,0.000431,0.001175
141493000,0.0324,0.013523,0.002678,0.000431,0.000705
141494000,0.0324,0.013523,0.002678,0.000431,0.001058
141495000,0.0324,0.013523,0.002678,0.000431,0.000940
141496000,0.0324,0.013523,0.002678,0.000431,0.000823
141497000,0.0324,0.013523,0.002678,0.000431,0.000940
141498000,0.0324,0.013523,0.002678,0.000431,0.000940
141499000,0.0324,0.013523,0.002678,0.000431,0.001058
141500000,0.0324,0.013523,0.002678,0.000431,0.000823
141501000,0.0324,0.013523,0.002678,0.000431,0.000940
141502000,0.0324,0.013523,0.002678,0.000431,0.000940
141503000,0.0324,0.013523,0.002678,0.000431,0.000940
141504000,0.0324,0.013523,0.002678,0.000431,0.000823
141505000,0.0324,0.013523,0.002678,0.000431,0.001058
141506000,0.0324,0.013523,0.002678,0.000431,0.000940
141507000,0.0324,0.013523,0.002678,0.000431,0.001175
141508000,0.0324,0.013523,0.002678,0.000431,0.000823
141509000,0.0324,0.013523,0.002678,0.000431,0.001058
141510000,0.0324,0.013523,0.002678,0.000431,0.000823
141511000,0.0324,0.013523,0.002678,0.000431,0.000940
141512000,0.0324,0.013523,0.002678,0.000431,0.001058
141513000,0.0324,0.013523,0.002678,0.000431,0.000823
141514000,0.0324,0.013523,0.002678,0.000431,0.001058
141515000,0.0324,0.013523,0.002678,0.000431,0.000823
141516000,0.0324,0.013523,0.002678,0.000431,0.000940
141517000,0.0324,0.013523,0.002678,0.000431,0.000940
141518000,0.0324,0.013523,0.002678,0.000431,0.000823
141519000,0.0324,0.013523,0.002678,0.000431,0.001175
141520000,0.0324,0.013523,0.002678,0.000431,0.000705
141521000,0.0324,0.013523,0.002678,0.000431,0.001058
141522000,0.0324,0.013523,0.002678,0.000431,0.000940
141523000,0.0324,0.013523,0.002678,0.000431,0.000823
141524000,0.0324,0.013523,0.002678,0.000431,0.000940
141525000,0.0324,0.013523,0.002678,0.000431,0.000940
141526000,0.0324,0.013523,0.002678,0.000431,0.001058
141527000,0.0324,0.013523,0.002678,0.000431,0.000823
141528000,0.0324,0.013523,0.002678,0.000431,0.000940
141529000,0.0324,0.013523,0.002678,0.000431,0.000940
141530000,0.0324,0.013523,0.002678,0.000431,0.000940
141531000,0.0324,0.013523,0.002678,0.000431,0.000823
141532000,0.0324,0.013523,0.002678,0.000431,0.001058
141533000,0.0324,0.013523,0.002678,0.000431,0.000940
141534000,0.0324,0.013523,0.002678,0.000431,0.000940
141535000,0.0324,0.013523,0.002678,0.000431,0.000940
141536000,0.0324,0.013523,0.002678,0.000431,0.000823
141537000,0.0324,0.013523,0.002678,0.000431,0.001058
141538000,0.0324,0.013523,0.002678,0.000431,0.000823
141539000,0.0324,0.013523,0.002678,0.000431,0.001058
141540000,0.0324,0.013523,0.002678,0.000431,0.000823
141541000,0.0324,0.013523,0.002678,0.000431,0.000823
141542000,0.0324,0.013523,0.002678,0.000431,0.001175
141543000,0.0324,0.013523,0.002678,0.000431,0.000705
141544000,0.0324,0.013523,0.002678,0.000431,0.001058
141545000,0.0324,0.013523,0.002678,0.000431,0.000940
141546000,0.0324,0.013523,0.002678,0.000431,0.000823
141547000,0.0324,0.013523,0.002678,0.000431,0.001058
141548000,0.0324,0.013523,0.002678,0.000431,0.000823
141549000,0.0324,0.013523,0.002678,0.000431,0.000940
141550000,0.0324,0.013523,0.002678,0.000431,0.000940
141551000,0.0324,0.013523,0.002678,0.000431,0.000940
141552000,0.0324,0.013523,0.002678,0.000431,0.000940
141553000,0.0324,0.013523,0.002678,0.000431,0.000940
141554000,0.0324,0.013523,0.002678,0.000431,0.000940
141555000,0.0324,0.013523,0.002678,0.000431,0.000940
141556000,0.0324,0.013523,0.002678,0.000431,0.000940
141557000,0.0324,0.013523,0.002678,0.000431,0.000940
141558000,0.0324,0.013523,0.002678,0.000431,0.000940
141559000,0.0324,0.013523,0.002678,0.000431,0.000940
141560000,0.0324,0.013523,0.002678,0.000431,0.000940
141561000,0.0324,0.013523,0.002678,0.000431,0.000823
141562000,0.0324,0.013523,0.002678,0.000431,0.001058
141563000,0.0324,0.013523,0.002678,0.000431,0.000823
141564000,0.0324,0.013523,0.002678,0.000431,0.000940
141565000,0.0324,0.013523,0.002678,0.000431,0.001058
141566000,0.0324,0.013523,0.002678,0.000431,0.000705
141567000,0.0324,0.013523,0.002678,0.000431,0.001175
141568000,0.0324,0.013523,0.002678,0.000431,0.000823
141569000,0.0324,0.013523,0.002678,0.000431,0.000940
141570000,0.0324,0.013523,0.002678,0.000431,0.000940
141571000,0.0324,0.013523,0.002678,0.000431,0.000823
141572000,0.0324,0.013523,0.002678,0.000431,0.001058
141573000,0.0324,0.013523,0.002678,0.000431,0.000823
141574000,0.0324,0.013523,0.002678,0.000431,0.001058
141575000,0.0324,0.013523,0.002678,0.000431,0.000823
141576000,0.0324,0.013523,0.002678,0.000431,0.000940
141577000,0.0324,0.013523,0.002678,0.000431,0.000940
141578000,0.0324,0.013523,0.002678,0.000431,0.000940
141579000,0.0324,0.013523,0.002678,0.000431,0.001058
141580000,0.0324,0.013523,0.002678,0.000431,0.000823
141581000,0.0324,0.013523,0.002678,0.000431,0.000940
141582000,0.0324,0.013523,0.002678,0.000431,0.001058
141583000,0.0324,0.013523,0.002678,0.000431,0.001058
141584000,0.0324,0.013523,0.002678,0.000431,0.016571
141585000,0.0324,0.013523,0.002678,0.000431,0.711516
141586000,0.0324,0.013523,0.002678,0.000431,0.586231
141587000,0.0324,0.013523,0.002678,0.000431,0.134452
141588000,0.0324,0.013523,0.002678,0.000431,0.135392
141589000,0.0324,0.013523,0.002678,0.000431,0.553088
141590000,0.0324,0.013523,0.002678,0.000431,0.243871
141591000,0.0324,0.013523,0.002678,0.000431,0.360224
141592000,0.0324,0.013523,0.002678,0.000431,0.209670
141593000,0.0324,0.013523,0.002678,0.000431,0.159956
141594000,0.0324,0.013523,0.002678,0.000431,0.107656
141595000,0.0324,0.013523,0.002678,0.000431,0.539807
141596000,0.0324,0.013523,0.002678,0.000431,0.256094
141597000,0.0324,0.013523,0.002678,0.000431,0.187810
141598000,0.0324,0.013523,0.002678,0.000431,0.145265
141599000,0.0324,0.013523,0.002678,0.000431,0.105658
141600000,0.0324,0.013523,0.002678,0.000431,0.081094
141601000,0.0324,0.013523,0.002678,0.000431,0.074983
141602000,0.0324,0.013523,0.002678,0.000431,0.034671
141603000,0.0324,0.013523,0.002678,0.000431,0.033731
141604000,0.0324,0.013523,0.002678,0.000431,0.027972
141605000,0.0324,0.013523,0.002678,0.000431,0.014456
141606000,0.0324,0.013523,0.002678,0.000431,0.015984
141607000,0.0324,0.013523,0.002678,0.000431,0.015631
141608000,0.0324,0.013523,0.002678,0.000431,0.013281
141609000,0.0324,0.013523,0.002678,0.000431,0.017159
141610000,0.0324,0.013523,0.002678,0.000431,0.011870
141611000,0.0324,0.013523,0.002678,0.000431,0.019392
141612000,0.0324,0.013523,0.002678,0.000431,0.009520
141613000,0.0324,0.013523,0.002678,0.000431,0.010225
141614000,0.0324,0.013523,0.002678,0.000431,0.009167
141615000,0.0324,0.013523,0.002678,0.000431,0.010225
141616000,0.0324,0.013523,0.002678,0.000431,0.009520
141617000,0.0324,0.013523,0.002678,0.000431,0.009167
141618000,0.0324,0.013523,0.002678,0.000431,0.009167
141619000,0.0324,0.013523,0.002678,0.000431,0.009285
141620000,0.0324,0.013523,0.002678,0.000431,0.009285
141621000,0.0324,0.013523,0.002678,0.000431,0.011283
141622000,0.0324,0.013523,0.002678,0.000431,0.011165
141623000,0.0324,0.013523,0.002678,0.000431,0.008462
141624000,0.0324,0.013523,0.002678,0.000431,0.008227
141625000,0.0324,0.013523,0.002678,0.000431,0.006817
141626000,0.0324,0.013523,0.002678,0.000431,0.006699
141627000,0.0324,0.013523,0.002678,0.000431,0.006464
141628000,0.0324,0.013523,0.002678,0.000431,0.006464
141629000,0.0324,0.013523,0.002678,0.000431,0.006111
141630000,0.0324,0.013523,0.002678,0.000431,0.007639
141631000,0.0324,0.013523,0.002678,0.000431,0.006111
141632000,0.0324,0.013523,0.002678,0.000431,0.005171
141633000,0.0324,0.013523,0.002678,0.000431,0.003173
141634000,0.0324,0.013523,0.002678,0.000431,0.003643
141635000,0.0324,0.013523,0.002678,0.000431,0.003408
141636000,0.0324,0.013523,0.002678,0.000431,0.007052
141637000,0.0324,0.013523,0.002678,0.000431,0.001880
141638000,0.0324,0.013523,0.002678,0.000431,0.001645
141639000,0.0324,0.013523,0.002678,0.000431,0.001763
141640000,0.0324,0.013523,0.002678,0.000431,0.001763
141641000,0.0324,0.013523,0.002678,0.000431,0.001645
141642000,0.0324,0.013523,0.002678,0.000431,0.001645
141643000,0.0324,0.013523,0.002678,0.000431,0.001763
141644000,0.0324,0.013523,0.002678,0.000431,0.001763
141645000,0.0324,0.013523,0.002678,0.000431,0.001645
141646000,0.0324,0.013523,0.002678,0.000431,0.001763
141647000,0.0324,0.013523,0.002678,0.000431,0.001645
141648000,0.0324,0.013523,0.002678,0.000431,0.001763
141649000,0.0324,0.013523,0.002678,0.000431,0.001763
141650000,0.0324,0.013523,0.002678,0.000431,0.001645
141651000,0.0324,0.013523,0.002678,0.000431,0.001645
141652000,0.0324,0.013523,0.002678,0.000431,0.001880
141653000,0.0324,0.013523,0.002678,0.000431,0.001645
141654000,0.0324,0.013523,0.002678,0.000431,0.001645
141655000,0.0324,0.013523,0.002678,0.000431,0.001763
141656000,0.0324,0.013523,0.002678,0.000431,0.001763
141657000,0.0324,0.013523,0.002678,0.000431,0.001763
141658000,0.0324,0.013523,0.002678,0.000431,0.001645
141659000,0.0324,0.013523,0.002678,0.000431,0.001763
141660000,0.0324,0.013523,0.002678,0.000431,0.001528
141661000,0.0324,0.013523,0.002678,0.000431,0.001763
141662000,0.0324,0.013523,0.002678,0.000431,0.001880
141663000,0.0324,0.013523,0.002678,0.000431,0.001645
141664000,0.0324,0.013523,0.002678,0.000431,0.001645
141665000,0.0324,0.013523,0.002678,0.000431,0.001763
141666000,0.0324,0.013523,0.002678,0.000431,0.001998
141667000,0.0324,0.013523,0.002678,0.000431,0.001645
141668000,0.0324,0.013523,0.002678,0.000431,0.001645
141669000,0.0324,0.013523,0.002678,0.000431,0.001880
141670000,0.0324,0.013523,0.002678,0.000431,0.001763
141671000,0.0324,0.013523,0.002678,0.000431,0.001645
141672000,0.0324,0.013523,0.002678,0.000431,0.001645
141673000,0.0324,0.013523,0.002678,0.000431,0.001763
141674000,0.0324,0.013523,0.002678,0.000431,0.001763
141675000,0.0324,0.013523,0.002678,0.000431,0.001645
141676000,0.0324,0.013523,0.002678,0.000431,0.001763
141677000,0.0324,0.013523,0.002678,0.000431,0.001645
141678000,0.0324,0.013523,0.002678,0.000431,0.001645
141679000,0.0324,0.013523,0.002678,0.000431,0.001880
141680000,0.0324,0.013523,0.002678,0.000431,0.001645
141681000,0.0324,0.013523,0.002678,0.000431,0.001763
141682000,0.0324,0.013523,0.002678,0.000431,0.001645
141683000,0.0324,0.013523,0.002678,0.000431,0.001645
141684000,0.0324,0.013523,0.002678,0.000431,0.001763
141685000,0.0324,0.013523,0.002678,0.000431,0.001645
141686000,0.0324,0.013523,0.002678,0.000431,0.001763
141687000,0.0324,0.013523,0.002678,0.000431,0.001645
141688000,0.0324,0.013523,0.002678,0.000431,0.001763
141689000,0.0324,0.013523,0.002678,0.000431,0.001880
141690000,0.0324,0.013523,0.002678,0.000431,0.001528
141691000,0.0324,0.013523,0.002678,0.000431,0.001763
141692000,0.0324,0.013523,0.002678,0.000431,0.001763
141693000,0.0324,0.013523,0.002678,0.000431,0.001763
141694000,0.0324,0.013523,0.002678,0.000431,0.001645
141695000,0.0324,0.013523,0.002678,0.000431,0.001645
141696000,0.0324,0.013523,0.002678,0.000431,0.001763
141697000,0.0324,0.013523,0.002678,0.000431,0.001645
141698000,0.0324,0.013523,0.002678,0.000431,0.001763
141699000,0.0324,0.013523,0.002678,0.000431,0.001645
141700000,0.0324,0.013523,0.002678,0.000431,0.001880
141701000,0.0324,0.013523,0.002678,0.000431,0.001645
141702000,0.0324,0.013523,0.002678,0.000431,0.001645
141703000,0.0324,0.013523,0.002678,0.000431,0.001645
141704000,0.0324,0.013523,0.002678,0.000431,0.001880
141705000,0.0324,0.013523,0.002678,0.000431,0.001763
141706000,0.0324,0.013523,0.002678,0.000431,0.001763
141707000,0.0324,0.013523,0.002678,0.000431,0.001645
141708000,0.0324,0.013523,0.002678,0.000431,0.001880
141709000,0.0324,0.013523,0.002678,0.000431,0.001645
141710000,0.0324,0.013523,0.002678,0.000431,0.001763
141711000,0.0324,0.013523,0.002678,0.000431,0.001763
141712000,0.0324,0.013523,0.002678,0.000431,0.001763
141713000,0.0324,0.013523,0.002678,0.000431,0.001645
141714000,0.0324,0.013523,0.002678,0.000431,0.001763
141715000,0.0324,0.013523,0.002678,0.000431,0.001763
141716000,0.0324,0.013523,0.002678,0.000431,0.001645
141717000,0.0324,0.013523,0.002678,0.000431,0.001645
141718000,0.0324,0.013523,0.002678,0.000431,0.001763
141719000,0.0324,0.013523,0.002678,0.000431,0.001763
141720000,0.0324,0.013523,0.002678,0.000431,0.001645
141721000,0.0324,0.013523,0.002678,0.000431,0.001645
141722000,0.0324,0.013523,0.002678,0.000431,0.001880
141723000,0.0324,0.013523,0.002678,0.000431,0.001763
141724000,0.0324,0.013523,0.002678,0.000431,0.001528
141725000,0.0324,0.013523,0.002678,0.000431,0.001763
141726000,0.0324,0.013523,0.002678,0.000431,0.001645
141727000,0.0324,0.013523,0.002678,0.000431,0.001880
141728000,0.0324,0.013523,0.002678,0.000431,0.001645
141729000,0.0324,0.013523,0.002678,0.000431,0.001645
141730000,0.0324,0.013523,0.002678,0.000431,0.001880
141731000,0.0324,0.013523,0.002678,0.000431,0.001528
141732000,0.0324,0.013523,0.002678,0.000431,0.001763
141733000,0.0324,0.013523,0.002678,0.000431,0.001763
141734000,0.0324,0.013523,0.002678,0.000431,0.001763
141735000,0.0324,0.013523,0.002678,0.000431,0.001763
141736000,0.0324,0.013523,0.002678,0.000431,0.001528
141737000,0.0324,0.013523,0.002678,0.000431,0.001880
141738000,0.0324,0.013523,0.002678,0.000431,0.001645
141739000,0.0324,0.013523,0.002678,0.000431,0.001763
141740000,0.0324,0.013523,0.002678,0.000431,0.001645
141741000,0.0324,0.013523,0.002678,0.000431,0.001763
141742000,0.0324,0.013523,0.002678,0.000431,0.001645
141743000,0.0324,0.013523,0.002678,0.000431,0.001645
141744000,0.0324,0.013523,0.002678,0.000431,0.001880
141745000,0.0324,0.013523,0.002678,0.000431,0.001645
141746000,0.0324,0.013523,0.002678,0.000431,0.001763
141747000,0.0324,0.013523,0.002678,0.000431,0.001645
141748000,0.0324,0.013523,0.002678,0.000431,0.001763
141749000,0.0324,0.013523,0.002678,0.000431,0.001763
141750000,0.0324,0.013523,0.002678,0.000431,0.001645
141751000,0.0324,0.013523,0.002678,0.000431,0.001645
141752000,0.0324,0.013523,0.002678,0.000431,0.001763
141753000,0.0324,0.013523,0.002678,0.000431,0.001763
141754000,0.0324,0.013523,0.002678,0.000431,0.001645
141755000,0.0324,0.013523,0.002678,0.000431,0.001763
141756000,0.0324,0.013523,0.002678,0.000431,0.001763
141757000,0.0324,0.013523,0.002678,0.000431,0.001645
141758000,0.0324,0.013523,0.002678,0.000431,0.001528
141759000,0.0324,0.013523,0.002678,0.000431,0.001880
141760000,0.0324,0.013523,0.002678,0.000431,0.001880
141761000,0.0324,0.013523,0.002678,0.000431,0.001528
141762000,0.0324,0.013523,0.002678,0.000431,0.001763
141763000,0.0324,0.013523,0.002678,0.000431,0.001645
141764000,0.0324,0.013523,0.002678,0.000431,0.001880
141765000,0.0324,0.013523,0.002678,0.000431,0.001528
141766000,0.0324,0.013523,0.002678,0.000431,0.001763
141767000,0.0324,0.013523,0.002678,0.000431,0.001880
141768000,0.0324,0.013523,0.002678,0.000431,0.001645
141769000,0.0324,0.013523,0.002678,0.000431,0.001645
141770000,0.0324,0.013523,0.002678,0.000431,0.001763
141771000,0.0324,0.013523,0.002678,0.000431,0.001763
141772000,0.0324,0.013523,0.002678,0.000431,0.001645
141773000,0.0324,0.013523,0.002678,0.000431,0.001763
141774000,0.0324,0.013523,0.002678,0.000431,0.001645
141775000,0.0324,0.013523,0.002678,0.000431,0.001763
141776000,0.0324,0.013523,0.002678,0.000431,0.001763
141777000,0.0324,0.013523,0.002678,0.000431,0.001645
141778000,0.0324,0.013523,0.002678,0.000431,0.001645
141779000,0.0324,0.013523,0.002678,0.000431,0.001763
141780000,0.0324,0.013523,0.002678,0.000431,0.001763
141781000,0.0324,0.013523,0.002678,0.000431,0.001645
141782000,0.0324,0.013523,0.002678,0.000431,0.001763
141783000,0.0324,0.013523,0.002678,0.000431,0.001763
141784000,0.0324,0.013523,0.002678,0.000431,0.001528
141785000,0.0324,0.013523,0.002678,0.000431,0.001880
141786000,0.0324,0.013523,0.002678,0.000431,0.001763
141787000,0.0324,0.013523,0.002678,0.000431,0.001763
141788000,0.0324,0.013523,0.002678,0.000431,0.001410
141789000,0.0324,0.013523,0.002678,0.000431,0.001880
141790000,0.0324,0.013523,0.002678,0.000431,0.001880
141791000,0.0324,0.013523,0.002678,0.000431,0.001528
141792000,0.0324,0.013523,0.002678,0.000431,0.001763
141793000,0.0324,0.013523,0.002678,0.000431,0.001645
141794000,0.0324,0.013523,0.002678,0.000431,0.001763
141795000,0.0324,0.013523,0.002678,0.000431,0.001763
141796000,0.0324,0.013523,0.002678,0.000431,0.001645
141797000,0.0324,0.013523,0.002678,0.000431,0.001880
141798000,0.0324,0.013523,0.002678,0.000431,0.001528
141799000,0.0324,0.013523,0.002678,0.000431,0.001763
141800000,0.0324,0.013523,0.002678,0.000431,0.001645
141801000,0.0324,0.013523,0.002678,0.000431,0.001880
141802000,0.0324,0.013523,0.002678,0.000431,0.001645
141803000,0.0324,0.013523,0.002678,0.000431,0.001645
141804000,0.0324,0.013523,0.002678,0.000431,0.001880
141805000,0.0324,0.013523,0.002678,0.000431,0.001645
141806000,0.0324,0.013523,0.002678,0.000431,0.190748
141807000,0.0324,0.013523,0.002678,0.000431,0.728322
141808000,0.0324,0.013523,0.002678,0.000431,0.478575
141809000,0.0324,0.013523,0.002678,0.000431,0.142444
141810000,0.0324,0.013523,0.002678,0.000431,0.337071
141811000,0.0324,0.013523,0.002678,0.000431,0.400771
141812000,0.0324,0.013523,0.002678,0.000431,0.269140
141813000,0.0324,0.013523,0.002678,0.000431,0.297581
141814000,0.0324,0.013523,0.002678,0.000431,0.156312
141815000,0.0324,0.013523,0.002678,0.000431,0.122229
141816000,0.0324,0.013523,0.002678,0.000431,0.338951
141817000,0.0324,0.013523,0.002678,0.000431,0.444727
141818000,0.0324,0.013523,0.002678,0.000431,0.211668
141819000,0.0324,0.013523,0.002678,0.000431,0.182404
141820000,0.0324,0.013523,0.002678,0.000431,0.144442
141821000,0.0324,0.013523,0.002678,0.000431,0.116470
141822000,0.0324,0.013523,0.002678,0.000431,0.088381
141823000,0.0324,0.013523,0.002678,0.000431,0.075806
141824000,0.0324,0.013523,0.002678,0.000431,0.052300
141825000,0.0324,0.013523,0.002678,0.000431,0.040547
141826000,0.0324,0.013523,0.002678,0.000431,0.043603
141827000,0.0324,0.013523,0.002678,0.000431,0.048069
141828000,0.0324,0.013523,0.002678,0.000431,0.029617
141829000,0.0324,0.013523,0.002678,0.000431,0.018922
141830000,0.0324,0.013523,0.002678,0.000431,0.020332
141831000,0.0324,0.013523,0.002678,0.000431,0.019627
141832000,0.0324,0.013523,0.002678,0.000431,0.021625
141833000,0.0324,0.013523,0.002678,0.000431,0.020920
141834000,0.0324,0.013523,0.002678,0.000431,0.021625
141835000,0.0324,0.013523,0.002678,0.000431,0.011753
141836000,0.0324,0.013523,0.002678,0.000431,0.016807
141837000,0.0324,0.013523,0.002678,0.000431,0.011048
141838000,0.0324,0.013523,0.002678,0.000431,0.010813
141839000,0.0324,0.013523,0.002678,0.000431,0.012340
141840000,0.0324,0.013523,0.002678,0.000431,0.008345
141841000,0.0324,0.013523,0.002678,0.000431,0.005994
141842000,0.0324,0.013523,0.002678,0.000431,0.002116
141843000,0.0324,0.013523,0.002678,0.000431,0.001880
141844000,0.0324,0.013523,0.002678,0.000431,0.002468
141845000,0.0324,0.013523,0.002678,0.000431,0.002586
141846000,0.0324,0.013523,0.002678,0.000431,0.001998
141847000,0.0324,0.013523,0.002678,0.000431,0.003056
141848000,0.0324,0.013523,0.002678,0.000431,0.000940
141849000,0.0324,0.013523,0.002678,0.000431,0.000705
141850000,0.0324,0.013523,0.002678,0.000431,0.000940
141851000,0.0324,0.013523,0.002678,0.000431,0.000705
141852000,0.0324,0.013523,0.002678,0.000431,0.000940
141853000,0.0324,0.013523,0.002678,0.000431,0.000940
141854000,0.0324,0.013523,0.002678,0.000431,0.000705
141855000,0.0324,0.013523,0.002678,0.000431,0.000940
141856000,0.0324,0.013523,0.002678,0.000431,0.000705
141857000,0.0324,0.013523,0.002678,0.000431,0.000940
141858000,0.0324,0.013523,0.002678,0.000431,0.000823
141859000,0.0324,0.013523,0.002678,0.000431,0.000823
141860000,0.0324,0.013523,0.002678,0.000431,0.000823
141861000,0.0324,0.013523,0.002678,0.000431,0.000823
141862000,0.0324,0.013523,0.002678,0.000431,0.000940
141863000,0.0324,0.013523,0.002678,0.000431,0.000705
141864000,0.0324,0.013523,0.002678,0.000431,0.000940
141865000,0.0324,0.013523,0.002678,0.000431,0.000705
141866000,0.0324,0.013523,0.002678,0.000431,0.000823
141867000,0.0324,0.013523,0.002678,0.000431,0.000940
141868000,0.0324,0.013523,0.002678,0.000431,0.000823
141869000,0.0324,0.013523,0.002678,0.000431,0.000823
141870000,0.0324,0.013523,0.002678,0.000431,0.000823
141871000,0.0324,0.013523,0.002678,0.000431,0.000940
141872000,0.0324,0.013523,0.002678,0.000431,0.002586
141873000,0.0324,0.013523,0.002678,0.000431,0.389018
141874000,0.0324,0.013523,0.002678,0.000431,0.788967
141875000,0.0324,0.013523,0.002678,0.000431,0.266084
141876000,0.0324,0.013523,0.002678,0.000431,0.138918
141877000,0.0324,0.013523,0.002678,0.000431,0.507252
141878000,0.0324,0.013523,0.002678,0.000431,0.319794
141879000,0.0324,0.013523,0.002678,0.000431,0.302635
141880000,0.0324,0.013523,0.002678,0.000431,0.232353
141881000,0.0324,0.013523,0.002678,0.000431,0.154785
141882000,0.0324,0.013523,0.002678,0.000431,0.110006
141883000,0.0324,0.013523,0.002678,0.000431,0.392897
141884000,0.0324,0.013523,0.002678,0.000431,0.404767
141885000,0.0324,0.013523,0.002678,0.000431,0.216017
141886000,0.0324,0.013523,0.002678,0.000431,0.178760
141887000,0.0324,0.013523,0.002678,0.000431,0.137626
141888000,0.0324,0.013523,0.002678,0.000431,0.117293
141889000,0.0324,0.013523,0.002678,0.000431,0.086501
141890000,0.0324,0.013523,0.002678,0.000431,0.078391
141891000,0.0324,0.013523,0.002678,0.000431,0.064876
141892000,0.0324,0.013523,0.002678,0.000431,0.056884
141893000,0.0324,0.013523,0.002678,0.000431,0.041723
141894000,0.0324,0.013523,0.002678,0.000431,0.037609
141895000,0.0324,0.013523,0.002678,0.000431,0.038549
141896000,0.0324,0.013523,0.002678,0.000431,0.022800
141897000,0.0324,0.013523,0.002678,0.000431,0.024328
141898000,0.0324,0.013523,0.002678,0.000431,0.018334
141899000,0.0324,0.013523,0.002678,0.000431,0.009755
141900000,0.0324,0.013523,0.002678,0.000431,0.011048
141901000,0.0324,0.013523,0.002678,0.000431,0.013516
141902000,0.0324,0.013523,0.002678,0.000431,0.013633
141903000,0.0324,0.013523,0.002678,0.000431,0.009167
141904000,0.0324,0.013523,0.002678,0.000431,0.007404
141905000,0.0324,0.013523,0.002678,0.000431,0.003526
141906000,0.0324,0.013523,0.002678,0.000431,0.003291
141907000,0.0324,0.013523,0.002678,0.000431,0.003526
141908000,0.0324,0.013523,0.002678,0.000431,0.003291
141909000,0.0324,0.013523,0.002678,0.000431,0.003173
141910000,0.0324,0.013523,0.002678,0.000431,0.003408
141911000,0.0324,0.013523,0.002678,0.000431,0.003408
141912000,0.0324,0.013523,0.002678,0.000431,0.003526
141913000,0.0324,0.013523,0.002678,0.000431,0.003173
141914000,0.0324,0.013523,0.002678,0.000431,0.003408
141915000,0.0324,0.013523,0.002678,0.000431,0.003291
141916000,0.0324,0.013523,0.002678,0.000431,0.003408
141917000,0.0324,0.013523,0.002678,0.000431,0.003291
141918000,0.0324,0.013523,0.002678,0.000431,0.003408
141919000,0.0324,0.013523,0.002678,0.000431,0.003526
141920000,0.0324,0.013523,0.002678,0.000431,0.003291
141921000,0.0324,0.013523,0.002678,0.000431,0.003761
141922000,0.0324,0.013523,0.002678,0.000431,0.003173
141923000,0.0324,0.013523,0.002678,0.000431,0.003526
141924000,0.0324,0.013523,0.002678,0.000431,0.004466
141925000,0.0324,0.013523,0.002678,0.000431,0.003761
141926000,0.0324,0.013523,0.002678,0.000431,0.002821
141927000,0.0324,0.013523,0.002678,0.000431,0.002233
141928000,0.0324,0.013523,0.002678,0.000431,0.002468
141929000,0.0324,0.013523,0.002678,0.000431,0.002468
141930000,0.0324,0.013523,0.002678,0.000431,0.002351
141931000,0.0324,0.013523,0.002678,0.000431,0.004113
141932000,0.0324,0.013523,0.002678,0.000431,0.003643
141933000,0.0324,0.013523,0.002678,0.000431,0.001645
141934000,0.0324,0.013523,0.002678,0.000431,0.001645
141935000,0.0324,0.013523,0.002678,0.000431,0.001763
141936000,0.0324,0.013523,0.002678,0.000431,0.001645
141937000,0.0324,0.013523,0.002678,0.000431,0.001645
141938000,0.0324,0.013523,0.002678,0.000431,0.001763
141939000,0.0324,0.013523,0.002678,0.000431,0.001528
141940000,0.0324,0.013523,0.002678,0.000431,0.001763
141941000,0.0324,0.013523,0.002678,0.000431,0.001763
141942000,0.0324,0.013523,0.002678,0.000431,0.001645
141943000,0.0324,0.013523,0.002678,0.000431,0.001645
141944000,0.0324,0.013523,0.002678,0.000431,0.003408
141945000,0.0324,0.013523,0.002678,0.000431,0.000940
141946000,0.0324,0.013523,0.002678,0.000431,0.000823
141947000,0.0324,0.013523,0.002678,0.000431,0.000940
141948000,0.0324,0.013523,0.002678,0.000431,0.000705
141949000,0.0324,0.013523,0.002678,0.000431,0.000940
141950000,0.0324,0.013523,0.002678,0.000431,0.000823
141951000,0.0324,0.013523,0.002678,0.000431,0.000823
141952000,0.0324,0.013523,0.002678,0.000431,0.000705
141953000,0.0324,0.013523,0.002678,0.000431,0.000940
141954000,0.0324,0.013523,0.002678,0.000431,0.000940
141955000,0.0324,0.013523,0.002678,0.000431,0.000705
141956000,0.0324,0.013523,0.002678,0.000431,0.000940
141957000,0.0324,0.013523,0.002678,0.000431,0.000705
141958000,0.0324,0.013523,0.002678,0.000431,0.000940
141959000,0.0324,0.013523,0.002678,0.000431,0.000823
141960000,0.0324,0.013523,0.002678,0.000431,0.001998
141961000,0.0324,0.013523,0.002678,0.000431,0.518652
141962000,0.0324,0.013523,0.002678,0.000431,0.772865
141963000,0.0324,0.013523,0.002678,0.000431,0.163717
141964000,0.0324,0.013523,0.002678,0.000431,0.137155
141965000,0.0324,0.013523,0.002678,0.000431,0.591519
141966000,0.0324,0.013523,0.002678,0.000431,0.243518
141967000,0.0324,0.013523,0.002678,0.000431,0.348236
141968000,0.0324,0.013523,0.002678,0.000431,0.204969
141969000,0.0324,0.013523,0.002678,0.000431,0.164775
141970000,0.0324,0.013523,0.002678,0.000431,0.123522
141971000,0.0324,0.013523,0.002678,0.000431,0.559669
141972000,0.0324,0.013523,0.002678,0.000431,0.219308
141973000,0.0324,0.013523,0.002678,0.000431,0.179230
141974000,0.0324,0.013523,0.002678,0.000431,0.143972
141975000,0.0324,0.013523,0.002678,0.000431,0.123992
141976000,0.0324,0.013523,0.002678,0.000431,0.113885
141977000,0.0324,0.013523,0.002678,0.000431,0.096373
141978000,0.0324,0.013523,0.002678,0.000431,0.069812
141979000,0.0324,0.013523,0.002678,0.000431,0.064876
141980000,0.0324,0.013523,0.002678,0.000431,0.051360
141981000,0.0324,0.013523,0.002678,0.000431,0.048069
141982000,0.0324,0.013523,0.002678,0.000431,0.044778
141983000,0.0324,0.013523,0.002678,0.000431,0.032908
141984000,0.0324,0.013523,0.002678,0.000431,0.035846
141985000,0.0324,0.013523,0.002678,0.000431,0.028089
141986000,0.0324,0.013523,0.002678,0.000431,0.017982
141987000,0.0324,0.013523,0.002678,0.000431,0.020685
141988000,0.0324,0.013523,0.002678,0.000431,0.017159
141989000,0.0324,0.013523,0.002678,0.000431,0.019275
141990000,0.0324,0.013523,0.002678,0.000431,0.012693
141991000,0.0324,0.013523,0.002678,0.000431,0.013633
141992000,0.0324,0.013523,0.002678,0.000431,0.011400
141993000,0.0324,0.013523,0.002678,0.000431,0.010578
141994000,0.0324,0.013523,0.002678,0.000431,0.014691
141995000,0.0324,0.013523,0.002678,0.000431,0.008697
141996000,0.0324,0.013523,0.002678,0.000431,0.010460
141997000,0.0324,0.013523,0.002678,0.000431,0.007522
141998000,0.0324,0.013523,0.002678,0.000431,0.006699
141999000,0.0324,0.013523,0.002678,0.000431,0.007169
