Cycle,Area(mm^2),PeakDynamic(W),SubthresholdLeakage(W),GateLeakage(W),RunTimeDynamic(W)
83000000,0.0324,0.013523,0.002678,0.000431,0.001528
83001000,0.0324,0.013523,0.002678,0.000431,0.001763
83002000,0.0324,0.013523,0.002678,0.000431,0.001645
83003000,0.0324,0.013523,0.002678,0.000431,0.001645
83004000,0.0324,0.013523,0.002678,0.000431,0.001528
83005000,0.0324,0.013523,0.002678,0.000431,0.001880
83006000,0.0324,0.013523,0.002678,0.000431,0.001763
83007000,0.0324,0.013523,0.002678,0.000431,0.001528
83008000,0.0324,0.013523,0.002678,0.000431,0.001763
83009000,0.0324,0.013523,0.002678,0.000431,0.001528
83010000,0.0324,0.013523,0.002678,0.000431,0.003173
83011000,0.0324,0.013523,0.002678,0.000431,0.000823
83012000,0.0324,0.013523,0.002678,0.000431,0.000823
83013000,0.0324,0.013523,0.002678,0.000431,0.000940
83014000,0.0324,0.013523,0.002678,0.000431,0.000705
83015000,0.0324,0.013523,0.002678,0.000431,0.000940
83016000,0.0324,0.013523,0.002678,0.000431,0.000705
83017000,0.0324,0.013523,0.002678,0.000431,0.000940
83018000,0.0324,0.013523,0.002678,0.000431,0.000823
83019000,0.0324,0.013523,0.002678,0.000431,0.000823
83020000,0.0324,0.013523,0.002678,0.000431,0.000823
83021000,0.0324,0.013523,0.002678,0.000431,0.000823
83022000,0.0324,0.013523,0.002678,0.000431,0.000940
83023000,0.0324,0.013523,0.002678,0.000431,0.000705
83024000,0.0324,0.013523,0.002678,0.000431,0.000823
83025000,0.0324,0.013523,0.002678,0.000431,0.000940
83026000,0.0324,0.013523,0.002678,0.000431,0.000823
83027000,0.0324,0.013523,0.002678,0.000431,0.000823
83028000,0.0324,0.013523,0.002678,0.000431,0.000823
83029000,0.0324,0.013523,0.002678,0.000431,0.000705
83030000,0.0324,0.013523,0.002678,0.000431,0.000940
83031000,0.0324,0.013523,0.002678,0.000431,0.000940
83032000,0.0324,0.013523,0.002678,0.000431,0.000705
83033000,0.0324,0.013523,0.002678,0.000431,0.000940
83034000,0.0324,0.013523,0.002678,0.000431,0.000705
83035000,0.0324,0.013523,0.002678,0.000431,0.000940
83036000,0.0324,0.013523,0.002678,0.000431,0.000823
83037000,0.0324,0.013523,0.002678,0.000431,0.000823
83038000,0.0324,0.013523,0.002678,0.000431,0.000940
83039000,0.0324,0.013523,0.002678,0.000431,0.000705
83040000,0.0324,0.013523,0.002678,0.000431,0.000940
83041000,0.0324,0.013523,0.002678,0.000431,0.000823
83042000,0.0324,0.013523,0.002678,0.000431,0.000823
83043000,0.0324,0.013523,0.002678,0.000431,0.000823
83044000,0.0324,0.013523,0.002678,0.000431,0.000823
83045000,0.0324,0.013523,0.002678,0.000431,0.000823
83046000,0.0324,0.013523,0.002678,0.000431,0.000823
83047000,0.0324,0.013523,0.002678,0.000431,0.000940
83048000,0.0324,0.013523,0.002678,0.000431,0.000705
83049000,0.0324,0.013523,0.002678,0.000431,0.000940
83050000,0.0324,0.013523,0.002678,0.000431,0.000823
83051000,0.0324,0.013523,0.002678,0.000431,0.000823
83052000,0.0324,0.013523,0.002678,0.000431,0.000705
83053000,0.0324,0.013523,0.002678,0.000431,0.000940
83054000,0.0324,0.013523,0.002678,0.000431,0.000940
83055000,0.0324,0.013523,0.002678,0.000431,0.000705
83056000,0.0324,0.013523,0.002678,0.000431,0.000940
83057000,0.0324,0.013523,0.002678,0.000431,0.000705
83058000,0.0324,0.013523,0.002678,0.000431,0.000940
83059000,0.0324,0.013523,0.002678,0.000431,0.000823
83060000,0.0324,0.013523,0.002678,0.000431,0.000823
83061000,0.0324,0.013523,0.002678,0.000431,0.000940
83062000,0.0324,0.013523,0.002678,0.000431,0.000705
83063000,0.0324,0.013523,0.002678,0.000431,0.000940
83064000,0.0324,0.013523,0.002678,0.000431,0.000823
83065000,0.0324,0.013523,0.002678,0.000431,0.000823
83066000,0.0324,0.013523,0.002678,0.000431,0.000823
83067000,0.0324,0.013523,0.002678,0.000431,0.000823
83068000,0.0324,0.013523,0.002678,0.000431,0.000823
83069000,0.0324,0.013523,0.002678,0.000431,0.081330
83070000,0.0324,0.013523,0.002678,0.000431,0.562842
83071000,0.0324,0.013523,0.002678,0.000431,0.554145
83072000,0.0324,0.013523,0.002678,0.000431,0.134452
83073000,0.0324,0.013523,0.002678,0.000431,0.133042
83074000,0.0324,0.013523,0.002678,0.000431,0.574008
83075000,0.0324,0.013523,0.002678,0.000431,0.280892
83076000,0.0324,0.013523,0.002678,0.000431,0.244694
83077000,0.0324,0.013523,0.002678,0.000431,0.307571
83078000,0.0324,0.013523,0.002678,0.000431,0.137743
83079000,0.0324,0.013523,0.002678,0.000431,0.170181
83080000,0.0324,0.013523,0.002678,0.000431,0.140916
83081000,0.0324,0.013523,0.002678,0.000431,0.457772
83082000,0.0324,0.013523,0.002678,0.000431,0.110124
83083000,0.0324,0.013523,0.002678,0.000431,0.085090
83084000,0.0324,0.013523,0.002678,0.000431,0.074630
83085000,0.0324,0.013523,0.002678,0.000431,0.062760
83086000,0.0324,0.013523,0.002678,0.000431,0.048774
83087000,0.0324,0.013523,0.002678,0.000431,0.047364
83088000,0.0324,0.013523,0.002678,0.000431,0.041370
83089000,0.0324,0.013523,0.002678,0.000431,0.042663
83090000,0.0324,0.013523,0.002678,0.000431,0.032555
83091000,0.0324,0.013523,0.002678,0.000431,0.028089
83092000,0.0324,0.013523,0.002678,0.000431,0.026914
83093000,0.0324,0.013523,0.002678,0.000431,0.025621
83094000,0.0324,0.013523,0.002678,0.000431,0.020802
83095000,0.0324,0.013523,0.002678,0.000431,0.022095
83096000,0.0324,0.013523,0.002678,0.000431,0.019510
83097000,0.0324,0.013523,0.002678,0.000431,0.015514
83098000,0.0324,0.013523,0.002678,0.000431,0.014926
83099000,0.0324,0.013523,0.002678,0.000431,0.014809
83100000,0.0324,0.013523,0.002678,0.000431,0.015396
83101000,0.0324,0.013523,0.002678,0.000431,0.014926
83102000,0.0324,0.013523,0.002678,0.000431,0.015984
83103000,0.0324,0.013523,0.002678,0.000431,0.017042
83104000,0.0324,0.013523,0.002678,0.000431,0.014456
83105000,0.0324,0.013523,0.002678,0.000431,0.013046
83106000,0.0324,0.013523,0.002678,0.000431,0.012458
83107000,0.0324,0.013523,0.002678,0.000431,0.012458
83108000,0.0324,0.013523,0.002678,0.000431,0.012928
83109000,0.0324,0.013523,0.002678,0.000431,0.012223
83110000,0.0324,0.013523,0.002678,0.000431,0.015514
83111000,0.0324,0.013523,0.002678,0.000431,0.011165
83112000,0.0324,0.013523,0.002678,0.000431,0.010225
83113000,0.0324,0.013523,0.002678,0.000431,0.012458
83114000,0.0324,0.013523,0.002678,0.000431,0.012928
83115000,0.0324,0.013523,0.002678,0.000431,0.009402
83116000,0.0324,0.013523,0.002678,0.000431,0.007522
83117000,0.0324,0.013523,0.002678,0.000431,0.006934
83118000,0.0324,0.013523,0.002678,0.000431,0.007757
83119000,0.0324,0.013523,0.002678,0.000431,0.009990
83120000,0.0324,0.013523,0.002678,0.000431,0.006464
83121000,0.0324,0.013523,0.002678,0.000431,0.006582
83122000,0.0324,0.013523,0.002678,0.000431,0.006229
83123000,0.0324,0.013523,0.002678,0.000431,0.007169
83124000,0.0324,0.013523,0.002678,0.000431,0.006347
83125000,0.0324,0.013523,0.002678,0.000431,0.006464
83126000,0.0324,0.013523,0.002678,0.000431,0.005759
83127000,0.0324,0.013523,0.002678,0.000431,0.005876
83128000,0.0324,0.013523,0.002678,0.000431,0.005759
83129000,0.0324,0.013523,0.002678,0.000431,0.005641
83130000,0.0324,0.013523,0.002678,0.000431,0.006229
83131000,0.0324,0.013523,0.002678,0.000431,0.007052
83132000,0.0324,0.013523,0.002678,0.000431,0.004819
83133000,0.0324,0.013523,0.002678,0.000431,0.005054
83134000,0.0324,0.013523,0.002678,0.000431,0.004701
83135000,0.0324,0.013523,0.002678,0.000431,0.005171
83136000,0.0324,0.013523,0.002678,0.000431,0.007169
83137000,0.0324,0.013523,0.002678,0.000431,0.003996
83138000,0.0324,0.013523,0.002678,0.000431,0.004231
83139000,0.0324,0.013523,0.002678,0.000431,0.005994
83140000,0.0324,0.013523,0.002678,0.000431,0.002703
83141000,0.0324,0.013523,0.002678,0.000431,0.003526
83142000,0.0324,0.013523,0.002678,0.000431,0.003643
83143000,0.0324,0.013523,0.002678,0.000431,0.002586
83144000,0.0324,0.013523,0.002678,0.000431,0.003996
83145000,0.0324,0.013523,0.002678,0.000431,0.001763
83146000,0.0324,0.013523,0.002678,0.000431,0.001763
83147000,0.0324,0.013523,0.002678,0.000431,0.001645
83148000,0.0324,0.013523,0.002678,0.000431,0.001645
83149000,0.0324,0.013523,0.002678,0.000431,0.001763
83150000,0.0324,0.013523,0.002678,0.000431,0.001763
83151000,0.0324,0.013523,0.002678,0.000431,0.001645
83152000,0.0324,0.013523,0.002678,0.000431,0.001645
83153000,0.0324,0.013523,0.002678,0.000431,0.001880
83154000,0.0324,0.013523,0.002678,0.000431,0.001645
83155000,0.0324,0.013523,0.002678,0.000431,0.001645
83156000,0.0324,0.013523,0.002678,0.000431,0.001763
83157000,0.0324,0.013523,0.002678,0.000431,0.001645
83158000,0.0324,0.013523,0.002678,0.000431,0.001763
83159000,0.0324,0.013523,0.002678,0.000431,0.001763
83160000,0.0324,0.013523,0.002678,0.000431,0.001645
83161000,0.0324,0.013523,0.002678,0.000431,0.001880
83162000,0.0324,0.013523,0.002678,0.000431,0.001410
83163000,0.0324,0.013523,0.002678,0.000431,0.001880
83164000,0.0324,0.013523,0.002678,0.000431,0.001645
83165000,0.0324,0.013523,0.002678,0.000431,0.001880
83166000,0.0324,0.013523,0.002678,0.000431,0.001528
83167000,0.0324,0.013523,0.002678,0.000431,0.001763
83168000,0.0324,0.013523,0.002678,0.000431,0.001880
83169000,0.0324,0.013523,0.002678,0.000431,0.001528
83170000,0.0324,0.013523,0.002678,0.000431,0.001763
83171000,0.0324,0.013523,0.002678,0.000431,0.001763
83172000,0.0324,0.013523,0.002678,0.000431,0.001763
83173000,0.0324,0.013523,0.002678,0.000431,0.001645
83174000,0.0324,0.013523,0.002678,0.000431,0.001645
83175000,0.0324,0.013523,0.002678,0.000431,0.001880
83176000,0.0324,0.013523,0.002678,0.000431,0.001528
83177000,0.0324,0.013523,0.002678,0.000431,0.001880
83178000,0.0324,0.013523,0.002678,0.000431,0.001645
83179000,0.0324,0.013523,0.002678,0.000431,0.001763
83180000,0.0324,0.013523,0.002678,0.000431,0.001763
83181000,0.0324,0.013523,0.002678,0.000431,0.001528
83182000,0.0324,0.013523,0.002678,0.000431,0.001763
83183000,0.0324,0.013523,0.002678,0.000431,0.001763
83184000,0.0324,0.013523,0.002678,0.000431,0.003643
83185000,0.0324,0.013523,0.002678,0.000431,0.000940
83186000,0.0324,0.013523,0.002678,0.000431,0.000940
83187000,0.0324,0.013523,0.002678,0.000431,0.000705
83188000,0.0324,0.013523,0.002678,0.000431,0.000940
83189000,0.0324,0.013523,0.002678,0.000431,0.000705
83190000,0.0324,0.013523,0.002678,0.000431,0.000940
83191000,0.0324,0.013523,0.002678,0.000431,0.000940
83192000,0.0324,0.013523,0.002678,0.000431,0.000705
83193000,0.0324,0.013523,0.002678,0.000431,0.000940
83194000,0.0324,0.013523,0.002678,0.000431,0.000705
83195000,0.0324,0.013523,0.002678,0.000431,0.000940
83196000,0.0324,0.013523,0.002678,0.000431,0.000823
83197000,0.0324,0.013523,0.002678,0.000431,0.000823
83198000,0.0324,0.013523,0.002678,0.000431,0.000823
83199000,0.0324,0.013523,0.002678,0.000431,0.000823
83200000,0.0324,0.013523,0.002678,0.000431,0.000940
83201000,0.0324,0.013523,0.002678,0.000431,0.000705
83202000,0.0324,0.013523,0.002678,0.000431,0.000940
83203000,0.0324,0.013523,0.002678,0.000431,0.001998
83204000,0.0324,0.013523,0.002678,0.000431,0.381496
83205000,0.0324,0.013523,0.002678,0.000431,0.664504
83206000,0.0324,0.013523,0.002678,0.000431,0.211786
83207000,0.0324,0.013523,0.002678,0.000431,0.132337
83208000,0.0324,0.013523,0.002678,0.000431,0.179466
83209000,0.0324,0.013523,0.002678,0.000431,0.617728
83210000,0.0324,0.013523,0.002678,0.000431,0.239875
83211000,0.0324,0.013523,0.002678,0.000431,0.288414
83212000,0.0324,0.013523,0.002678,0.000431,0.172414
83213000,0.0324,0.013523,0.002678,0.000431,0.152081
83214000,0.0324,0.013523,0.002678,0.000431,0.134335
83215000,0.0324,0.013523,0.002678,0.000431,0.248572
83216000,0.0324,0.013523,0.002678,0.000431,0.339774
83217000,0.0324,0.013523,0.002678,0.000431,0.049479
83218000,0.0324,0.013523,0.002678,0.000431,0.035376
83219000,0.0324,0.013523,0.002678,0.000431,0.036669
83220000,0.0324,0.013523,0.002678,0.000431,0.025386
83221000,0.0324,0.013523,0.002678,0.000431,0.023858
83222000,0.0324,0.013523,0.002678,0.000431,0.023271
83223000,0.0324,0.013523,0.002678,0.000431,0.023623
83224000,0.0324,0.013523,0.002678,0.000431,0.027267
83225000,0.0324,0.013523,0.002678,0.000431,0.020215
83226000,0.0324,0.013523,0.002678,0.000431,0.015631
83227000,0.0324,0.013523,0.002678,0.000431,0.014573
83228000,0.0324,0.013523,0.002678,0.000431,0.014456
83229000,0.0324,0.013523,0.002678,0.000431,0.016571
83230000,0.0324,0.013523,0.002678,0.000431,0.012223
83231000,0.0324,0.013523,0.002678,0.000431,0.011988
83232000,0.0324,0.013523,0.002678,0.000431,0.011165
83233000,0.0324,0.013523,0.002678,0.000431,0.013046
83234000,0.0324,0.013523,0.002678,0.000431,0.010695
83235000,0.0324,0.013523,0.002678,0.000431,0.008697
83236000,0.0324,0.013523,0.002678,0.000431,0.008109
83237000,0.0324,0.013523,0.002678,0.000431,0.008462
83238000,0.0324,0.013523,0.002678,0.000431,0.008109
83239000,0.0324,0.013523,0.002678,0.000431,0.008580
83240000,0.0324,0.013523,0.002678,0.000431,0.007992
83241000,0.0324,0.013523,0.002678,0.000431,0.007757
83242000,0.0324,0.013523,0.002678,0.000431,0.007992
83243000,0.0324,0.013523,0.002678,0.000431,0.009872
83244000,0.0324,0.013523,0.002678,0.000431,0.007522
83245000,0.0324,0.013523,0.002678,0.000431,0.005054
83246000,0.0324,0.013523,0.002678,0.000431,0.006347
83247000,0.0324,0.013523,0.002678,0.000431,0.005759
83248000,0.0324,0.013523,0.002678,0.000431,0.003408
83249000,0.0324,0.013523,0.002678,0.000431,0.003291
83250000,0.0324,0.013523,0.002678,0.000431,0.004584
83251000,0.0324,0.013523,0.002678,0.000431,0.002586
83252000,0.0324,0.013523,0.002678,0.000431,0.002703
83253000,0.0324,0.013523,0.002678,0.000431,0.003996
83254000,0.0324,0.013523,0.002678,0.000431,0.001880
83255000,0.0324,0.013523,0.002678,0.000431,0.001880
83256000,0.0324,0.013523,0.002678,0.000431,0.001528
83257000,0.0324,0.013523,0.002678,0.000431,0.001763
83258000,0.0324,0.013523,0.002678,0.000431,0.001763
83259000,0.0324,0.013523,0.002678,0.000431,0.001763
83260000,0.0324,0.013523,0.002678,0.000431,0.001763
83261000,0.0324,0.013523,0.002678,0.000431,0.001528
83262000,0.0324,0.013523,0.002678,0.000431,0.003996
83263000,0.0324,0.013523,0.002678,0.000431,0.000823
83264000,0.0324,0.013523,0.002678,0.000431,0.000940
83265000,0.0324,0.013523,0.002678,0.000431,0.000823
83266000,0.0324,0.013523,0.002678,0.000431,0.000823
83267000,0.0324,0.013523,0.002678,0.000431,0.000823
83268000,0.0324,0.013523,0.002678,0.000431,0.000823
83269000,0.0324,0.013523,0.002678,0.000431,0.000940
83270000,0.0324,0.013523,0.002678,0.000431,0.000705
83271000,0.0324,0.013523,0.002678,0.000431,0.000940
83272000,0.0324,0.013523,0.002678,0.000431,0.000823
83273000,0.0324,0.013523,0.002678,0.000431,0.000823
83274000,0.0324,0.013523,0.002678,0.000431,0.000705
83275000,0.0324,0.013523,0.002678,0.000431,0.000940
83276000,0.0324,0.013523,0.002678,0.000431,0.000940
83277000,0.0324,0.013523,0.002678,0.000431,0.000705
83278000,0.0324,0.013523,0.002678,0.000431,0.000940
83279000,0.0324,0.013523,0.002678,0.000431,0.000705
83280000,0.0324,0.013523,0.002678,0.000431,0.000940
83281000,0.0324,0.013523,0.002678,0.000431,0.000823
83282000,0.0324,0.013523,0.002678,0.000431,0.000823
83283000,0.0324,0.013523,0.002678,0.000431,0.000823
83284000,0.0324,0.013523,0.002678,0.000431,0.000823
83285000,0.0324,0.013523,0.002678,0.000431,0.000705
83286000,0.0324,0.013523,0.002678,0.000431,0.000940
83287000,0.0324,0.013523,0.002678,0.000431,0.000823
83288000,0.0324,0.013523,0.002678,0.000431,0.000823
83289000,0.0324,0.013523,0.002678,0.000431,0.000940
83290000,0.0324,0.013523,0.002678,0.000431,0.000705
83291000,0.0324,0.013523,0.002678,0.000431,0.000940
83292000,0.0324,0.013523,0.002678,0.000431,0.000823
83293000,0.0324,0.013523,0.002678,0.000431,0.000823
83294000,0.0324,0.013523,0.002678,0.000431,0.000823
83295000,0.0324,0.013523,0.002678,0.000431,0.000823
83296000,0.0324,0.013523,0.002678,0.000431,0.000823
83297000,0.0324,0.013523,0.002678,0.000431,0.000823
83298000,0.0324,0.013523,0.002678,0.000431,0.192276
83299000,0.0324,0.013523,0.002678,0.000431,0.474226
83300000,0.0324,0.013523,0.002678,0.000431,0.479750
83301000,0.0324,0.013523,0.002678,0.000431,0.133042
83302000,0.0324,0.013523,0.002678,0.000431,0.131632
83303000,0.0324,0.013523,0.002678,0.000431,0.615965
83304000,0.0324,0.013523,0.002678,0.000431,0.278894
83305000,0.0324,0.013523,0.002678,0.000431,0.275369
83306000,0.0324,0.013523,0.002678,0.000431,0.243166
83307000,0.0324,0.013523,0.002678,0.000431,0.137273
83308000,0.0324,0.013523,0.002678,0.000431,0.152081
83309000,0.0324,0.013523,0.002678,0.000431,0.100369
83310000,0.0324,0.013523,0.002678,0.000431,0.433444
83311000,0.0324,0.013523,0.002678,0.000431,0.147733
83312000,0.0324,0.013523,0.002678,0.000431,0.050302
83313000,0.0324,0.013523,0.002678,0.000431,0.043368
83314000,0.0324,0.013523,0.002678,0.000431,0.037962
83315000,0.0324,0.013523,0.002678,0.000431,0.035611
83316000,0.0324,0.013523,0.002678,0.000431,0.029852
83317000,0.0324,0.013523,0.002678,0.000431,0.031027
83318000,0.0324,0.013523,0.002678,0.000431,0.024916
83319000,0.0324,0.013523,0.002678,0.000431,0.018452
83320000,0.0324,0.013523,0.002678,0.000431,0.017864
83321000,0.0324,0.013523,0.002678,0.000431,0.015396
83322000,0.0324,0.013523,0.002678,0.000431,0.014691
83323000,0.0324,0.013523,0.002678,0.000431,0.014456
83324000,0.0324,0.013523,0.002678,0.000431,0.015514
83325000,0.0324,0.013523,0.002678,0.000431,0.014926
83326000,0.0324,0.013523,0.002678,0.000431,0.018334
83327000,0.0324,0.013523,0.002678,0.000431,0.013398
83328000,0.0324,0.013523,0.002678,0.000431,0.013281
83329000,0.0324,0.013523,0.002678,0.000431,0.012340
83330000,0.0324,0.013523,0.002678,0.000431,0.009872
83331000,0.0324,0.013523,0.002678,0.000431,0.010930
83332000,0.0324,0.013523,0.002678,0.000431,0.009167
83333000,0.0324,0.013523,0.002678,0.000431,0.009285
83334000,0.0324,0.013523,0.002678,0.000431,0.008932
83335000,0.0324,0.013523,0.002678,0.000431,0.008345
83336000,0.0324,0.013523,0.002678,0.000431,0.008345
83337000,0.0324,0.013523,0.002678,0.000431,0.008580
83338000,0.0324,0.013523,0.002678,0.000431,0.008697
83339000,0.0324,0.013523,0.002678,0.000431,0.010460
83340000,0.0324,0.013523,0.002678,0.000431,0.006699
83341000,0.0324,0.013523,0.002678,0.000431,0.005994
83342000,0.0324,0.013523,0.002678,0.000431,0.005759
83343000,0.0324,0.013523,0.002678,0.000431,0.005641
83344000,0.0324,0.013523,0.002678,0.000431,0.005759
83345000,0.0324,0.013523,0.002678,0.000431,0.005289
83346000,0.0324,0.013523,0.002678,0.000431,0.006111
83347000,0.0324,0.013523,0.002678,0.000431,0.005759
83348000,0.0324,0.013523,0.002678,0.000431,0.005289
83349000,0.0324,0.013523,0.002678,0.000431,0.006229
83350000,0.0324,0.013523,0.002678,0.000431,0.005289
83351000,0.0324,0.013523,0.002678,0.000431,0.005994
83352000,0.0324,0.013523,0.002678,0.000431,0.005524
83353000,0.0324,0.013523,0.002678,0.000431,0.005876
83354000,0.0324,0.013523,0.002678,0.000431,0.006111
83355000,0.0324,0.013523,0.002678,0.000431,0.004819
83356000,0.0324,0.013523,0.002678,0.000431,0.007874
83357000,0.0324,0.013523,0.002678,0.000431,0.004466
83358000,0.0324,0.013523,0.002678,0.000431,0.005289
83359000,0.0324,0.013523,0.002678,0.000431,0.005054
83360000,0.0324,0.013523,0.002678,0.000431,0.003291
83361000,0.0324,0.013523,0.002678,0.000431,0.005289
83362000,0.0324,0.013523,0.002678,0.000431,0.002586
83363000,0.0324,0.013523,0.002678,0.000431,0.002351
83364000,0.0324,0.013523,0.002678,0.000431,0.002586
83365000,0.0324,0.013523,0.002678,0.000431,0.002351
83366000,0.0324,0.013523,0.002678,0.000431,0.002821
83367000,0.0324,0.013523,0.002678,0.000431,0.002351
83368000,0.0324,0.013523,0.002678,0.000431,0.002586
83369000,0.0324,0.013523,0.002678,0.000431,0.002586
83370000,0.0324,0.013523,0.002678,0.000431,0.002468
83371000,0.0324,0.013523,0.002678,0.000431,0.002703
83372000,0.0324,0.013523,0.002678,0.000431,0.002351
83373000,0.0324,0.013523,0.002678,0.000431,0.002586
83374000,0.0324,0.013523,0.002678,0.000431,0.002586
83375000,0.0324,0.013523,0.002678,0.000431,0.002586
83376000,0.0324,0.013523,0.002678,0.000431,0.003408
83377000,0.0324,0.013523,0.002678,0.000431,0.001645
83378000,0.0324,0.013523,0.002678,0.000431,0.001645
83379000,0.0324,0.013523,0.002678,0.000431,0.001645
83380000,0.0324,0.013523,0.002678,0.000431,0.001763
83381000,0.0324,0.013523,0.002678,0.000431,0.001645
83382000,0.0324,0.013523,0.002678,0.000431,0.001763
83383000,0.0324,0.013523,0.002678,0.000431,0.001528
83384000,0.0324,0.013523,0.002678,0.000431,0.001763
83385000,0.0324,0.013523,0.002678,0.000431,0.001763
83386000,0.0324,0.013523,0.002678,0.000431,0.001528
83387000,0.0324,0.013523,0.002678,0.000431,0.001880
83388000,0.0324,0.013523,0.002678,0.000431,0.001410
83389000,0.0324,0.013523,0.002678,0.000431,0.001880
83390000,0.0324,0.013523,0.002678,0.000431,0.001528
83391000,0.0324,0.013523,0.002678,0.000431,0.001763
83392000,0.0324,0.013523,0.002678,0.000431,0.001763
83393000,0.0324,0.013523,0.002678,0.000431,0.001528
83394000,0.0324,0.013523,0.002678,0.000431,0.001880
83395000,0.0324,0.013523,0.002678,0.000431,0.001410
83396000,0.0324,0.013523,0.002678,0.000431,0.001880
83397000,0.0324,0.013523,0.002678,0.000431,0.001645
83398000,0.0324,0.013523,0.002678,0.000431,0.001645
83399000,0.0324,0.013523,0.002678,0.000431,0.001645
83400000,0.0324,0.013523,0.002678,0.000431,0.001645
83401000,0.0324,0.013523,0.002678,0.000431,0.001763
83402000,0.0324,0.013523,0.002678,0.000431,0.001528
83403000,0.0324,0.013523,0.002678,0.000431,0.001763
83404000,0.0324,0.013523,0.002678,0.000431,0.001645
83405000,0.0324,0.013523,0.002678,0.000431,0.001763
83406000,0.0324,0.013523,0.002678,0.000431,0.001645
83407000,0.0324,0.013523,0.002678,0.000431,0.001645
83408000,0.0324,0.013523,0.002678,0.000431,0.001528
83409000,0.0324,0.013523,0.002678,0.000431,0.001763
83410000,0.0324,0.013523,0.002678,0.000431,0.001880
83411000,0.0324,0.013523,0.002678,0.000431,0.001410
83412000,0.0324,0.013523,0.002678,0.000431,0.001880
83413000,0.0324,0.013523,0.002678,0.000431,0.001410
83414000,0.0324,0.013523,0.002678,0.000431,0.001880
83415000,0.0324,0.013523,0.002678,0.000431,0.001763
83416000,0.0324,0.013523,0.002678,0.000431,0.001528
83417000,0.0324,0.013523,0.002678,0.000431,0.001880
83418000,0.0324,0.013523,0.002678,0.000431,0.001410
83419000,0.0324,0.013523,0.002678,0.000431,0.001880
83420000,0.0324,0.013523,0.002678,0.000431,0.002703
83421000,0.0324,0.013523,0.002678,0.000431,0.000705
83422000,0.0324,0.013523,0.002678,0.000431,0.000940
83423000,0.0324,0.013523,0.002678,0.000431,0.040077
83424000,0.0324,0.013523,0.002678,0.000431,0.473991
83425000,0.0324,0.013523,0.002678,0.000431,0.602097
83426000,0.0324,0.013523,0.002678,0.000431,0.130691
83427000,0.0324,0.013523,0.002678,0.000431,0.134335
83428000,0.0324,0.013523,0.002678,0.000431,0.536986
83429000,0.0324,0.013523,0.002678,0.000431,0.298639
83430000,0.0324,0.013523,0.002678,0.000431,0.240463
83431000,0.0324,0.013523,0.002678,0.000431,0.285476
83432000,0.0324,0.013523,0.002678,0.000431,0.139976
83433000,0.0324,0.013523,0.002678,0.000431,0.138683
83434000,0.0324,0.013523,0.002678,0.000431,0.145852
83435000,0.0324,0.013523,0.002678,0.000431,0.236467
83436000,0.0324,0.013523,0.002678,0.000431,0.371507
83437000,0.0324,0.013523,0.002678,0.000431,0.053945
83438000,0.0324,0.013523,0.002678,0.000431,0.047364
83439000,0.0324,0.013523,0.002678,0.000431,0.030910
83440000,0.0324,0.013523,0.002678,0.000431,0.025856
83441000,0.0324,0.013523,0.002678,0.000431,0.024563
83442000,0.0324,0.013523,0.002678,0.000431,0.022213
83443000,0.0324,0.013523,0.002678,0.000431,0.020215
83444000,0.0324,0.013523,0.002678,0.000431,0.016336
83445000,0.0324,0.013523,0.002678,0.000431,0.017394
83446000,0.0324,0.013523,0.002678,0.000431,0.016101
83447000,0.0324,0.013523,0.002678,0.000431,0.012576
83448000,0.0324,0.013523,0.002678,0.000431,0.011283
83449000,0.0324,0.013523,0.002678,0.000431,0.012223
83450000,0.0324,0.013523,0.002678,0.000431,0.013046
83451000,0.0324,0.013523,0.002678,0.000431,0.015631
83452000,0.0324,0.013523,0.002678,0.000431,0.009050
83453000,0.0324,0.013523,0.002678,0.000431,0.008345
83454000,0.0324,0.013523,0.002678,0.000431,0.007639
83455000,0.0324,0.013523,0.002678,0.000431,0.004701
83456000,0.0324,0.013523,0.002678,0.000431,0.005171
83457000,0.0324,0.013523,0.002678,0.000431,0.004819
83458000,0.0324,0.013523,0.002678,0.000431,0.004936
83459000,0.0324,0.013523,0.002678,0.000431,0.005054
83460000,0.0324,0.013523,0.002678,0.000431,0.005054
83461000,0.0324,0.013523,0.002678,0.000431,0.004584
83462000,0.0324,0.013523,0.002678,0.000431,0.005171
83463000,0.0324,0.013523,0.002678,0.000431,0.005054
83464000,0.0324,0.013523,0.002678,0.000431,0.006111
83465000,0.0324,0.013523,0.002678,0.000431,0.004819
83466000,0.0324,0.013523,0.002678,0.000431,0.003761
83467000,0.0324,0.013523,0.002678,0.000431,0.004113
83468000,0.0324,0.013523,0.002678,0.000431,0.003878
83469000,0.0324,0.013523,0.002678,0.000431,0.004349
83470000,0.0324,0.013523,0.002678,0.000431,0.004819
83471000,0.0324,0.013523,0.002678,0.000431,0.003173
83472000,0.0324,0.013523,0.002678,0.000431,0.004701
83473000,0.0324,0.013523,0.002678,0.000431,0.003878
83474000,0.0324,0.013523,0.002678,0.000431,0.004231
83475000,0.0324,0.013523,0.002678,0.000431,0.004231
83476000,0.0324,0.013523,0.002678,0.000431,0.003878
83477000,0.0324,0.013523,0.002678,0.000431,0.004231
83478000,0.0324,0.013523,0.002678,0.000431,0.004113
83479000,0.0324,0.013523,0.002678,0.000431,0.006111
83480000,0.0324,0.013523,0.002678,0.000431,0.003056
83481000,0.0324,0.013523,0.002678,0.000431,0.003526
83482000,0.0324,0.013523,0.002678,0.000431,0.003291
83483000,0.0324,0.013523,0.002678,0.000431,0.003291
83484000,0.0324,0.013523,0.002678,0.000431,0.003173
83485000,0.0324,0.013523,0.002678,0.000431,0.003408
83486000,0.0324,0.013523,0.002678,0.000431,0.002938
83487000,0.0324,0.013523,0.002678,0.000431,0.003408
83488000,0.0324,0.013523,0.002678,0.000431,0.003643
83489000,0.0324,0.013523,0.002678,0.000431,0.003056
83490000,0.0324,0.013523,0.002678,0.000431,0.003408
83491000,0.0324,0.013523,0.002678,0.000431,0.003173
83492000,0.0324,0.013523,0.002678,0.000431,0.003408
83493000,0.0324,0.013523,0.002678,0.000431,0.003173
83494000,0.0324,0.013523,0.002678,0.000431,0.003173
83495000,0.0324,0.013523,0.002678,0.000431,0.003761
83496000,0.0324,0.013523,0.002678,0.000431,0.002703
83497000,0.0324,0.013523,0.002678,0.000431,0.003526
83498000,0.0324,0.013523,0.002678,0.000431,0.003761
83499000,0.0324,0.013523,0.002678,0.000431,0.002703
83500000,0.0324,0.013523,0.002678,0.000431,0.003643
83501000,0.0324,0.013523,0.002678,0.000431,0.002938
83502000,0.0324,0.013523,0.002678,0.000431,0.003526
83503000,0.0324,0.013523,0.002678,0.000431,0.003408
83504000,0.0324,0.013523,0.002678,0.000431,0.003056
83505000,0.0324,0.013523,0.002678,0.000431,0.003643
83506000,0.0324,0.013523,0.002678,0.000431,0.003056
83507000,0.0324,0.013523,0.002678,0.000431,0.003526
83508000,0.0324,0.013523,0.002678,0.000431,0.003056
83509000,0.0324,0.013523,0.002678,0.000431,0.003408
83510000,0.0324,0.013523,0.002678,0.000431,0.003291
83511000,0.0324,0.013523,0.002678,0.000431,0.003408
83512000,0.0324,0.013523,0.002678,0.000431,0.003173
83513000,0.0324,0.013523,0.002678,0.000431,0.003173
83514000,0.0324,0.013523,0.002678,0.000431,0.003526
83515000,0.0324,0.013523,0.002678,0.000431,0.003056
83516000,0.0324,0.013523,0.002678,0.000431,0.003643
83517000,0.0324,0.013523,0.002678,0.000431,0.003056
83518000,0.0324,0.013523,0.002678,0.000431,0.003408
83519000,0.0324,0.013523,0.002678,0.000431,0.003173
83520000,0.0324,0.013523,0.002678,0.000431,0.003291
83521000,0.0324,0.013523,0.002678,0.000431,0.006699
83522000,0.0324,0.013523,0.002678,0.000431,0.001058
83523000,0.0324,0.013523,0.002678,0.000431,0.000940
83524000,0.0324,0.013523,0.002678,0.000431,0.000823
83525000,0.0324,0.013523,0.002678,0.000431,0.000823
83526000,0.0324,0.013523,0.002678,0.000431,0.000940
83527000,0.0324,0.013523,0.002678,0.000431,0.000823
83528000,0.0324,0.013523,0.002678,0.000431,0.000940
83529000,0.0324,0.013523,0.002678,0.000431,0.000823
83530000,0.0324,0.013523,0.002678,0.000431,0.204852
83531000,0.0324,0.013523,0.002678,0.000431,0.520062
83532000,0.0324,0.013523,0.002678,0.000431,0.459065
83533000,0.0324,0.013523,0.002678,0.000431,0.132102
83534000,0.0324,0.013523,0.002678,0.000431,0.134922
83535000,0.0324,0.013523,0.002678,0.000431,0.618551
83536000,0.0324,0.013523,0.002678,0.000431,0.254213
83537000,0.0324,0.013523,0.002678,0.000431,0.279247
83538000,0.0324,0.013523,0.002678,0.000431,0.254213
83539000,0.0324,0.013523,0.002678,0.000431,0.144795
83540000,0.0324,0.013523,0.002678,0.000431,0.138566
83541000,0.0324,0.013523,0.002678,0.000431,0.226007
83542000,0.0324,0.013523,0.002678,0.000431,0.394542
83543000,0.0324,0.013523,0.002678,0.000431,0.072632
83544000,0.0324,0.013523,0.002678,0.000431,0.059704
83545000,0.0324,0.013523,0.002678,0.000431,0.044426
83546000,0.0324,0.013523,0.002678,0.000431,0.036551
83547000,0.0324,0.013523,0.002678,0.000431,0.033966
83548000,0.0324,0.013523,0.002678,0.000431,0.030205
83549000,0.0324,0.013523,0.002678,0.000431,0.027384
83550000,0.0324,0.013523,0.002678,0.000431,0.018805
83551000,0.0324,0.013523,0.002678,0.000431,0.024916
83552000,0.0324,0.013523,0.002678,0.000431,0.015396
83553000,0.0324,0.013523,0.002678,0.000431,0.010460
83554000,0.0324,0.013523,0.002678,0.000431,0.010342
83555000,0.0324,0.013523,0.002678,0.000431,0.013046
83556000,0.0324,0.013523,0.002678,0.000431,0.008580
83557000,0.0324,0.013523,0.002678,0.000431,0.009520
83558000,0.0324,0.013523,0.002678,0.000431,0.010695
83559000,0.0324,0.013523,0.002678,0.000431,0.008815
83560000,0.0324,0.013523,0.002678,0.000431,0.011283
83561000,0.0324,0.013523,0.002678,0.000431,0.007992
83562000,0.0324,0.013523,0.002678,0.000431,0.005289
83563000,0.0324,0.013523,0.002678,0.000431,0.004584
83564000,0.0324,0.013523,0.002678,0.000431,0.005289
83565000,0.0324,0.013523,0.002678,0.000431,0.005054
83566000,0.0324,0.013523,0.002678,0.000431,0.005054
83567000,0.0324,0.013523,0.002678,0.000431,0.004819
83568000,0.0324,0.013523,0.002678,0.000431,0.005171
83569000,0.0324,0.013523,0.002678,0.000431,0.004231
83570000,0.0324,0.013523,0.002678,0.000431,0.005641
83571000,0.0324,0.013523,0.002678,0.000431,0.005289
83572000,0.0324,0.013523,0.002678,0.000431,0.004584
83573000,0.0324,0.013523,0.002678,0.000431,0.005524
83574000,0.0324,0.013523,0.002678,0.000431,0.004349
83575000,0.0324,0.013523,0.002678,0.000431,0.005641
83576000,0.0324,0.013523,0.002678,0.000431,0.004819
83577000,0.0324,0.013523,0.002678,0.000431,0.005054
83578000,0.0324,0.013523,0.002678,0.000431,0.005054
83579000,0.0324,0.013523,0.002678,0.000431,0.004819
83580000,0.0324,0.013523,0.002678,0.000431,0.005406
83581000,0.0324,0.013523,0.002678,0.000431,0.004584
83582000,0.0324,0.013523,0.002678,0.000431,0.005524
83583000,0.0324,0.013523,0.002678,0.000431,0.006817
83584000,0.0324,0.013523,0.002678,0.000431,0.004231
83585000,0.0324,0.013523,0.002678,0.000431,0.004113
83586000,0.0324,0.013523,0.002678,0.000431,0.004231
83587000,0.0324,0.013523,0.002678,0.000431,0.004113
83588000,0.0324,0.013523,0.002678,0.000431,0.004113
83589000,0.0324,0.013523,0.002678,0.000431,0.003996
83590000,0.0324,0.013523,0.002678,0.000431,0.004231
83591000,0.0324,0.013523,0.002678,0.000431,0.004584
83592000,0.0324,0.013523,0.002678,0.000431,0.003526
83593000,0.0324,0.013523,0.002678,0.000431,0.004819
83594000,0.0324,0.013523,0.002678,0.000431,0.003996
83595000,0.0324,0.013523,0.002678,0.000431,0.004231
83596000,0.0324,0.013523,0.002678,0.000431,0.003996
83597000,0.0324,0.013523,0.002678,0.000431,0.004113
83598000,0.0324,0.013523,0.002678,0.000431,0.004584
83599000,0.0324,0.013523,0.002678,0.000431,0.003878
83600000,0.0324,0.013523,0.002678,0.000431,0.004466
83601000,0.0324,0.013523,0.002678,0.000431,0.003996
83602000,0.0324,0.013523,0.002678,0.000431,0.004231
83603000,0.0324,0.013523,0.002678,0.000431,0.004113
83604000,0.0324,0.013523,0.002678,0.000431,0.004349
83605000,0.0324,0.013523,0.002678,0.000431,0.004113
83606000,0.0324,0.013523,0.002678,0.000431,0.003996
83607000,0.0324,0.013523,0.002678,0.000431,0.003996
83608000,0.0324,0.013523,0.002678,0.000431,0.004349
83609000,0.0324,0.013523,0.002678,0.000431,0.006464
83610000,0.0324,0.013523,0.002678,0.000431,0.002703
83611000,0.0324,0.013523,0.002678,0.000431,0.003761
83612000,0.0324,0.013523,0.002678,0.000431,0.002938
83613000,0.0324,0.013523,0.002678,0.000431,0.003643
83614000,0.0324,0.013523,0.002678,0.000431,0.003291
83615000,0.0324,0.013523,0.002678,0.000431,0.003291
83616000,0.0324,0.013523,0.002678,0.000431,0.003291
83617000,0.0324,0.013523,0.002678,0.000431,0.003291
83618000,0.0324,0.013523,0.002678,0.000431,0.003643
83619000,0.0324,0.013523,0.002678,0.000431,0.002938
83620000,0.0324,0.013523,0.002678,0.000431,0.003761
83621000,0.0324,0.013523,0.002678,0.000431,0.003291
83622000,0.0324,0.013523,0.002678,0.000431,0.003291
83623000,0.0324,0.013523,0.002678,0.000431,0.003173
83624000,0.0324,0.013523,0.002678,0.000431,0.003408
83625000,0.0324,0.013523,0.002678,0.000431,0.003408
83626000,0.0324,0.013523,0.002678,0.000431,0.003173
83627000,0.0324,0.013523,0.002678,0.000431,0.003643
83628000,0.0324,0.013523,0.002678,0.000431,0.002938
83629000,0.0324,0.013523,0.002678,0.000431,0.003761
83630000,0.0324,0.013523,0.002678,0.000431,0.002821
83631000,0.0324,0.013523,0.002678,0.000431,0.003761
83632000,0.0324,0.013523,0.002678,0.000431,0.003408
83633000,0.0324,0.013523,0.002678,0.000431,0.003173
83634000,0.0324,0.013523,0.002678,0.000431,0.003761
83635000,0.0324,0.013523,0.002678,0.000431,0.002821
83636000,0.0324,0.013523,0.002678,0.000431,0.003761
83637000,0.0324,0.013523,0.002678,0.000431,0.003056
83638000,0.0324,0.013523,0.002678,0.000431,0.003526
83639000,0.0324,0.013523,0.002678,0.000431,0.003291
83640000,0.0324,0.013523,0.002678,0.000431,0.003173
83641000,0.0324,0.013523,0.002678,0.000431,0.003526
83642000,0.0324,0.013523,0.002678,0.000431,0.003291
83643000,0.0324,0.013523,0.002678,0.000431,0.003291
83644000,0.0324,0.013523,0.002678,0.000431,0.005994
83645000,0.0324,0.013523,0.002678,0.000431,0.002938
83646000,0.0324,0.013523,0.002678,0.000431,0.000705
83647000,0.0324,0.013523,0.002678,0.000431,0.000940
83648000,0.0324,0.013523,0.002678,0.000431,0.000940
83649000,0.0324,0.013523,0.002678,0.000431,0.000705
83650000,0.0324,0.013523,0.002678,0.000431,0.000940
83651000,0.0324,0.013523,0.002678,0.000431,0.000705
83652000,0.0324,0.013523,0.002678,0.000431,0.000940
83653000,0.0324,0.013523,0.002678,0.000431,0.000823
83654000,0.0324,0.013523,0.002678,0.000431,0.000823
83655000,0.0324,0.013523,0.002678,0.000431,0.000940
83656000,0.0324,0.013523,0.002678,0.000431,0.000705
83657000,0.0324,0.013523,0.002678,0.000431,0.000940
83658000,0.0324,0.013523,0.002678,0.000431,0.000823
83659000,0.0324,0.013523,0.002678,0.000431,0.000823
83660000,0.0324,0.013523,0.002678,0.000431,0.000823
83661000,0.0324,0.013523,0.002678,0.000431,0.000823
83662000,0.0324,0.013523,0.002678,0.000431,0.000823
83663000,0.0324,0.013523,0.002678,0.000431,0.000823
83664000,0.0324,0.013523,0.002678,0.000431,0.000940
83665000,0.0324,0.013523,0.002678,0.000431,0.000705
83666000,0.0324,0.013523,0.002678,0.000431,0.000823
83667000,0.0324,0.013523,0.002678,0.000431,0.000940
83668000,0.0324,0.013523,0.002678,0.000431,0.000823
83669000,0.0324,0.013523,0.002678,0.000431,0.000823
83670000,0.0324,0.013523,0.002678,0.000431,0.000823
83671000,0.0324,0.013523,0.002678,0.000431,0.000823
83672000,0.0324,0.013523,0.002678,0.000431,0.000823
83673000,0.0324,0.013523,0.002678,0.000431,0.000940
83674000,0.0324,0.013523,0.002678,0.000431,0.000823
83675000,0.0324,0.013523,0.002678,0.000431,0.000823
83676000,0.0324,0.013523,0.002678,0.000431,0.000705
83677000,0.0324,0.013523,0.002678,0.000431,0.000940
83678000,0.0324,0.013523,0.002678,0.000431,0.000940
83679000,0.0324,0.013523,0.002678,0.000431,0.000705
83680000,0.0324,0.013523,0.002678,0.000431,0.000940
83681000,0.0324,0.013523,0.002678,0.000431,0.018217
83682000,0.0324,0.013523,0.002678,0.000431,0.537809
83683000,0.0324,0.013523,0.002678,0.000431,0.593987
83684000,0.0324,0.013523,0.002678,0.000431,0.132572
83685000,0.0324,0.013523,0.002678,0.000431,0.136803
83686000,0.0324,0.013523,0.002678,0.000431,0.567661
83687000,0.0324,0.013523,0.002678,0.000431,0.239522
83688000,0.0324,0.013523,0.002678,0.000431,0.258680
83689000,0.0324,0.013523,0.002678,0.000431,0.317561
83690000,0.0324,0.013523,0.002678,0.000431,0.151024
83691000,0.0324,0.013523,0.002678,0.000431,0.155490
83692000,0.0324,0.013523,0.002678,0.000431,0.107538
83693000,0.0324,0.013523,0.002678,0.000431,0.422161
83694000,0.0324,0.013523,0.002678,0.000431,0.200856
83695000,0.0324,0.013523,0.002678,0.000431,0.076511
83696000,0.0324,0.013523,0.002678,0.000431,0.065463
83697000,0.0324,0.013523,0.002678,0.000431,0.055708
83698000,0.0324,0.013523,0.002678,0.000431,0.048304
83699000,0.0324,0.013523,0.002678,0.000431,0.044308
83700000,0.0324,0.013523,0.002678,0.000431,0.043250
83701000,0.0324,0.013523,0.002678,0.000431,0.035258
83702000,0.0324,0.013523,0.002678,0.000431,0.029735
83703000,0.0324,0.013523,0.002678,0.000431,0.025504
83704000,0.0324,0.013523,0.002678,0.000431,0.023036
83705000,0.0324,0.013523,0.002678,0.000431,0.019627
83706000,0.0324,0.013523,0.002678,0.000431,0.017747
83707000,0.0324,0.013523,0.002678,0.000431,0.019157
83708000,0.0324,0.013523,0.002678,0.000431,0.018922
83709000,0.0324,0.013523,0.002678,0.000431,0.015631
83710000,0.0324,0.013523,0.002678,0.000431,0.014809
83711000,0.0324,0.013523,0.002678,0.000431,0.016101
83712000,0.0324,0.013523,0.002678,0.000431,0.013516
83713000,0.0324,0.013523,0.002678,0.000431,0.013516
83714000,0.0324,0.013523,0.002678,0.000431,0.008932
83715000,0.0324,0.013523,0.002678,0.000431,0.009402
83716000,0.0324,0.013523,0.002678,0.000431,0.007404
83717000,0.0324,0.013523,0.002678,0.000431,0.007757
83718000,0.0324,0.013523,0.002678,0.000431,0.007287
83719000,0.0324,0.013523,0.002678,0.000431,0.007522
83720000,0.0324,0.013523,0.002678,0.000431,0.007522
83721000,0.0324,0.013523,0.002678,0.000431,0.007639
83722000,0.0324,0.013523,0.002678,0.000431,0.007639
83723000,0.0324,0.013523,0.002678,0.000431,0.007169
83724000,0.0324,0.013523,0.002678,0.000431,0.007874
83725000,0.0324,0.013523,0.002678,0.000431,0.007287
83726000,0.0324,0.013523,0.002678,0.000431,0.008109
83727000,0.0324,0.013523,0.002678,0.000431,0.007287
83728000,0.0324,0.013523,0.002678,0.000431,0.009050
83729000,0.0324,0.013523,0.002678,0.000431,0.007992
83730000,0.0324,0.013523,0.002678,0.000431,0.005994
83731000,0.0324,0.013523,0.002678,0.000431,0.007169
83732000,0.0324,0.013523,0.002678,0.000431,0.006464
83733000,0.0324,0.013523,0.002678,0.000431,0.004113
83734000,0.0324,0.013523,0.002678,0.000431,0.004584
83735000,0.0324,0.013523,0.002678,0.000431,0.004113
83736000,0.0324,0.013523,0.002678,0.000431,0.004349
83737000,0.0324,0.013523,0.002678,0.000431,0.005289
83738000,0.0324,0.013523,0.002678,0.000431,0.006464
83739000,0.0324,0.013523,0.002678,0.000431,0.003408
83740000,0.0324,0.013523,0.002678,0.000431,0.001645
83741000,0.0324,0.013523,0.002678,0.000431,0.001763
83742000,0.0324,0.013523,0.002678,0.000431,0.002938
83743000,0.0324,0.013523,0.002678,0.000431,0.002116
83744000,0.0324,0.013523,0.002678,0.000431,0.000823
83745000,0.0324,0.013523,0.002678,0.000431,0.000823
83746000,0.0324,0.013523,0.002678,0.000431,0.000823
83747000,0.0324,0.013523,0.002678,0.000431,0.000940
83748000,0.0324,0.013523,0.002678,0.000431,0.000823
83749000,0.0324,0.013523,0.002678,0.000431,0.000823
83750000,0.0324,0.013523,0.002678,0.000431,0.000823
83751000,0.0324,0.013523,0.002678,0.000431,0.000823
83752000,0.0324,0.013523,0.002678,0.000431,0.000823
83753000,0.0324,0.013523,0.002678,0.000431,0.000823
83754000,0.0324,0.013523,0.002678,0.000431,0.000940
83755000,0.0324,0.013523,0.002678,0.000431,0.000705
83756000,0.0324,0.013523,0.002678,0.000431,0.000823
83757000,0.0324,0.013523,0.002678,0.000431,0.000940
83758000,0.0324,0.013523,0.002678,0.000431,0.000705
83759000,0.0324,0.013523,0.002678,0.000431,0.000940
83760000,0.0324,0.013523,0.002678,0.000431,0.000823
83761000,0.0324,0.013523,0.002678,0.000431,0.000823
83762000,0.0324,0.013523,0.002678,0.000431,0.000823
83763000,0.0324,0.013523,0.002678,0.000431,0.000823
83764000,0.0324,0.013523,0.002678,0.000431,0.000823
83765000,0.0324,0.013523,0.002678,0.000431,0.000823
83766000,0.0324,0.013523,0.002678,0.000431,0.000823
83767000,0.0324,0.013523,0.002678,0.000431,0.000940
83768000,0.0324,0.013523,0.002678,0.000431,0.000823
83769000,0.0324,0.013523,0.002678,0.000431,0.000823
83770000,0.0324,0.013523,0.002678,0.000431,0.000705
83771000,0.0324,0.013523,0.002678,0.000431,0.000940
83772000,0.0324,0.013523,0.002678,0.000431,0.000940
83773000,0.0324,0.013523,0.002678,0.000431,0.000705
83774000,0.0324,0.013523,0.002678,0.000431,0.000940
83775000,0.0324,0.013523,0.002678,0.000431,0.000705
83776000,0.0324,0.013523,0.002678,0.000431,0.000940
83777000,0.0324,0.013523,0.002678,0.000431,0.000823
83778000,0.0324,0.013523,0.002678,0.000431,0.000823
83779000,0.0324,0.013523,0.002678,0.000431,0.000940
83780000,0.0324,0.013523,0.002678,0.000431,0.000705
83781000,0.0324,0.013523,0.002678,0.000431,0.000940
83782000,0.0324,0.013523,0.002678,0.000431,0.000823
83783000,0.0324,0.013523,0.002678,0.000431,0.000823
83784000,0.0324,0.013523,0.002678,0.000431,0.000823
83785000,0.0324,0.013523,0.002678,0.000431,0.000823
83786000,0.0324,0.013523,0.002678,0.000431,0.000823
83787000,0.0324,0.013523,0.002678,0.000431,0.000823
83788000,0.0324,0.013523,0.002678,0.000431,0.000940
83789000,0.0324,0.013523,0.002678,0.000431,0.000823
83790000,0.0324,0.013523,0.002678,0.000431,0.000823
83791000,0.0324,0.013523,0.002678,0.000431,0.000823
83792000,0.0324,0.013523,0.002678,0.000431,0.000823
83793000,0.0324,0.013523,0.002678,0.000431,0.000705
83794000,0.0324,0.013523,0.002678,0.000431,0.000940
83795000,0.0324,0.013523,0.002678,0.000431,0.000940
83796000,0.0324,0.013523,0.002678,0.000431,0.000705
83797000,0.0324,0.013523,0.002678,0.000431,0.000940
83798000,0.0324,0.013523,0.002678,0.000431,0.000705
83799000,0.0324,0.013523,0.002678,0.000431,0.000823
83800000,0.0324,0.013523,0.002678,0.000431,0.000823
83801000,0.0324,0.013523,0.002678,0.000431,0.000940
83802000,0.0324,0.013523,0.002678,0.000431,0.000705
83803000,0.0324,0.013523,0.002678,0.000431,0.000823
83804000,0.0324,0.013523,0.002678,0.000431,0.070987
83805000,0.0324,0.013523,0.002678,0.000431,0.506429
83806000,0.0324,0.013523,0.002678,0.000431,0.604447
83807000,0.0324,0.013523,0.002678,0.000431,0.131632
83808000,0.0324,0.013523,0.002678,0.000431,0.134452
83809000,0.0324,0.013523,0.002678,0.000431,0.549327
83810000,0.0324,0.013523,0.002678,0.000431,0.219543
83811000,0.0324,0.013523,0.002678,0.000431,0.260442
83812000,0.0324,0.013523,0.002678,0.000431,0.325200
83813000,0.0324,0.013523,0.002678,0.000431,0.138566
83814000,0.0324,0.013523,0.002678,0.000431,0.144207
83815000,0.0324,0.013523,0.002678,0.000431,0.124227
83816000,0.0324,0.013523,0.002678,0.000431,0.312037
83817000,0.0324,0.013523,0.002678,0.000431,0.288297
83818000,0.0324,0.013523,0.002678,0.000431,0.059469
83819000,0.0324,0.013523,0.002678,0.000431,0.050302
83820000,0.0324,0.013523,0.002678,0.000431,0.046424
83821000,0.0324,0.013523,0.002678,0.000431,0.037844
83822000,0.0324,0.013523,0.002678,0.000431,0.034788
83823000,0.0324,0.013523,0.002678,0.000431,0.029500
83824000,0.0324,0.013523,0.002678,0.000431,0.029382
83825000,0.0324,0.013523,0.002678,0.000431,0.020920
83826000,0.0324,0.013523,0.002678,0.000431,0.020567
83827000,0.0324,0.013523,0.002678,0.000431,0.019862
83828000,0.0324,0.013523,0.002678,0.000431,0.018217
83829000,0.0324,0.013523,0.002678,0.000431,0.018922
83830000,0.0324,0.013523,0.002678,0.000431,0.019627
83831000,0.0324,0.013523,0.002678,0.000431,0.017629
83832000,0.0324,0.013523,0.002678,0.000431,0.017394
83833000,0.0324,0.013523,0.002678,0.000431,0.018452
83834000,0.0324,0.013523,0.002678,0.000431,0.016807
83835000,0.0324,0.013523,0.002678,0.000431,0.015984
83836000,0.0324,0.013523,0.002678,0.000431,0.015279
83837000,0.0324,0.013523,0.002678,0.000431,0.015749
83838000,0.0324,0.013523,0.002678,0.000431,0.016101
83839000,0.0324,0.013523,0.002678,0.000431,0.016689
83840000,0.0324,0.013523,0.002678,0.000431,0.015161
83841000,0.0324,0.013523,0.002678,0.000431,0.014221
83842000,0.0324,0.013523,0.002678,0.000431,0.015044
83843000,0.0324,0.013523,0.002678,0.000431,0.014926
83844000,0.0324,0.013523,0.002678,0.000431,0.015749
83845000,0.0324,0.013523,0.002678,0.000431,0.014456
83846000,0.0324,0.013523,0.002678,0.000431,0.013986
83847000,0.0324,0.013523,0.002678,0.000431,0.014691
83848000,0.0324,0.013523,0.002678,0.000431,0.012576
83849000,0.0324,0.013523,0.002678,0.000431,0.010578
83850000,0.0324,0.013523,0.002678,0.000431,0.011283
83851000,0.0324,0.013523,0.002678,0.000431,0.010460
83852000,0.0324,0.013523,0.002678,0.000431,0.010342
83853000,0.0324,0.013523,0.002678,0.000431,0.010107
83854000,0.0324,0.013523,0.002678,0.000431,0.007522
83855000,0.0324,0.013523,0.002678,0.000431,0.008109
83856000,0.0324,0.013523,0.002678,0.000431,0.007522
83857000,0.0324,0.013523,0.002678,0.000431,0.007757
83858000,0.0324,0.013523,0.002678,0.000431,0.009637
83859000,0.0324,0.013523,0.002678,0.000431,0.007052
83860000,0.0324,0.013523,0.002678,0.000431,0.006699
83861000,0.0324,0.013523,0.002678,0.000431,0.006817
83862000,0.0324,0.013523,0.002678,0.000431,0.007052
83863000,0.0324,0.013523,0.002678,0.000431,0.006817
83864000,0.0324,0.013523,0.002678,0.000431,0.006699
83865000,0.0324,0.013523,0.002678,0.000431,0.006817
83866000,0.0324,0.013523,0.002678,0.000431,0.006817
83867000,0.0324,0.013523,0.002678,0.000431,0.007169
83868000,0.0324,0.013523,0.002678,0.000431,0.006817
83869000,0.0324,0.013523,0.002678,0.000431,0.006699
83870000,0.0324,0.013523,0.002678,0.000431,0.007052
83871000,0.0324,0.013523,0.002678,0.000431,0.006111
83872000,0.0324,0.013523,0.002678,0.000431,0.005876
83873000,0.0324,0.013523,0.002678,0.000431,0.006347
83874000,0.0324,0.013523,0.002678,0.000431,0.005641
83875000,0.0324,0.013523,0.002678,0.000431,0.006229
83876000,0.0324,0.013523,0.002678,0.000431,0.005641
83877000,0.0324,0.013523,0.002678,0.000431,0.006347
83878000,0.0324,0.013523,0.002678,0.000431,0.006111
83879000,0.0324,0.013523,0.002678,0.000431,0.005759
83880000,0.0324,0.013523,0.002678,0.000431,0.008227
83881000,0.0324,0.013523,0.002678,0.000431,0.006582
83882000,0.0324,0.013523,0.002678,0.000431,0.004466
83883000,0.0324,0.013523,0.002678,0.000431,0.003996
83884000,0.0324,0.013523,0.002678,0.000431,0.004113
83885000,0.0324,0.013523,0.002678,0.000431,0.006464
83886000,0.0324,0.013523,0.002678,0.000431,0.003173
83887000,0.0324,0.013523,0.002678,0.000431,0.003643
83888000,0.0324,0.013523,0.002678,0.000431,0.003056
83889000,0.0324,0.013523,0.002678,0.000431,0.003291
83890000,0.0324,0.013523,0.002678,0.000431,0.003526
83891000,0.0324,0.013523,0.002678,0.000431,0.003408
83892000,0.0324,0.013523,0.002678,0.000431,0.005406
83893000,0.0324,0.013523,0.002678,0.000431,0.002468
83894000,0.0324,0.013523,0.002678,0.000431,0.002468
83895000,0.0324,0.013523,0.002678,0.000431,0.002468
83896000,0.0324,0.013523,0.002678,0.000431,0.002821
83897000,0.0324,0.013523,0.002678,0.000431,0.002351
83898000,0.0324,0.013523,0.002678,0.000431,0.002586
83899000,0.0324,0.013523,0.002678,0.000431,0.002116
83900000,0.0324,0.013523,0.002678,0.000431,0.002821
83901000,0.0324,0.013523,0.002678,0.000431,0.002821
83902000,0.0324,0.013523,0.002678,0.000431,0.002233
83903000,0.0324,0.013523,0.002678,0.000431,0.002703
83904000,0.0324,0.013523,0.002678,0.000431,0.002351
83905000,0.0324,0.013523,0.002678,0.000431,0.002821
83906000,0.0324,0.013523,0.002678,0.000431,0.002468
83907000,0.0324,0.013523,0.002678,0.000431,0.002468
83908000,0.0324,0.013523,0.002678,0.000431,0.002703
83909000,0.0324,0.013523,0.002678,0.000431,0.002468
83910000,0.0324,0.013523,0.002678,0.000431,0.002703
83911000,0.0324,0.013523,0.002678,0.000431,0.003761
83912000,0.0324,0.013523,0.002678,0.000431,0.001645
83913000,0.0324,0.013523,0.002678,0.000431,0.001645
83914000,0.0324,0.013523,0.002678,0.000431,0.001645
83915000,0.0324,0.013523,0.002678,0.000431,0.001645
83916000,0.0324,0.013523,0.002678,0.000431,0.001645
83917000,0.0324,0.013523,0.002678,0.000431,0.001880
83918000,0.0324,0.013523,0.002678,0.000431,0.001645
83919000,0.0324,0.013523,0.002678,0.000431,0.001880
83920000,0.0324,0.013523,0.002678,0.000431,0.001645
83921000,0.0324,0.013523,0.002678,0.000431,0.001645
83922000,0.0324,0.013523,0.002678,0.000431,0.001645
83923000,0.0324,0.013523,0.002678,0.000431,0.001880
83924000,0.0324,0.013523,0.002678,0.000431,0.001645
83925000,0.0324,0.013523,0.002678,0.000431,0.001645
83926000,0.0324,0.013523,0.002678,0.000431,0.001880
83927000,0.0324,0.013523,0.002678,0.000431,0.001645
83928000,0.0324,0.013523,0.002678,0.000431,0.001645
83929000,0.0324,0.013523,0.002678,0.000431,0.001763
83930000,0.0324,0.013523,0.002678,0.000431,0.001763
83931000,0.0324,0.013523,0.002678,0.000431,0.001763
83932000,0.0324,0.013523,0.002678,0.000431,0.001528
83933000,0.0324,0.013523,0.002678,0.000431,0.001880
83934000,0.0324,0.013523,0.002678,0.000431,0.001763
83935000,0.0324,0.013523,0.002678,0.000431,0.001645
83936000,0.0324,0.013523,0.002678,0.000431,0.001645
83937000,0.0324,0.013523,0.002678,0.000431,0.001763
83938000,0.0324,0.013523,0.002678,0.000431,0.001645
83939000,0.0324,0.013523,0.002678,0.000431,0.001645
83940000,0.0324,0.013523,0.002678,0.000431,0.001880
83941000,0.0324,0.013523,0.002678,0.000431,0.001645
83942000,0.0324,0.013523,0.002678,0.000431,0.001645
83943000,0.0324,0.013523,0.002678,0.000431,0.001763
83944000,0.0324,0.013523,0.002678,0.000431,0.001763
83945000,0.0324,0.013523,0.002678,0.000431,0.001763
83946000,0.0324,0.013523,0.002678,0.000431,0.001645
83947000,0.0324,0.013523,0.002678,0.000431,0.001528
83948000,0.0324,0.013523,0.002678,0.000431,0.001880
83949000,0.0324,0.013523,0.002678,0.000431,0.003291
83950000,0.0324,0.013523,0.002678,0.000431,0.002586
83951000,0.0324,0.013523,0.002678,0.000431,0.000823
83952000,0.0324,0.013523,0.002678,0.000431,0.000940
83953000,0.0324,0.013523,0.002678,0.000431,0.000823
83954000,0.0324,0.013523,0.002678,0.000431,0.000940
83955000,0.0324,0.013523,0.002678,0.000431,0.000823
83956000,0.0324,0.013523,0.002678,0.000431,0.000940
83957000,0.0324,0.013523,0.002678,0.000431,0.000823
83958000,0.0324,0.013523,0.002678,0.000431,0.000823
83959000,0.0324,0.013523,0.002678,0.000431,0.000940
83960000,0.0324,0.013523,0.002678,0.000431,0.000940
83961000,0.0324,0.013523,0.002678,0.000431,0.000823
83962000,0.0324,0.013523,0.002678,0.000431,0.000823
83963000,0.0324,0.013523,0.002678,0.000431,0.000940
83964000,0.0324,0.013523,0.002678,0.000431,0.000940
83965000,0.0324,0.013523,0.002678,0.000431,0.000705
83966000,0.0324,0.013523,0.002678,0.000431,0.000940
83967000,0.0324,0.013523,0.002678,0.000431,0.000940
83968000,0.0324,0.013523,0.002678,0.000431,0.000940
83969000,0.0324,0.013523,0.002678,0.000431,0.000823
83970000,0.0324,0.013523,0.002678,0.000431,0.000823
83971000,0.0324,0.013523,0.002678,0.000431,0.000940
83972000,0.0324,0.013523,0.002678,0.000431,0.000823
83973000,0.0324,0.013523,0.002678,0.000431,0.000940
83974000,0.0324,0.013523,0.002678,0.000431,0.000823
83975000,0.0324,0.013523,0.002678,0.000431,0.000940
83976000,0.0324,0.013523,0.002678,0.000431,0.000823
83977000,0.0324,0.013523,0.002678,0.000431,0.000823
83978000,0.0324,0.013523,0.002678,0.000431,0.000940
83979000,0.0324,0.013523,0.002678,0.000431,0.000940
83980000,0.0324,0.013523,0.002678,0.000431,0.000705
83981000,0.0324,0.013523,0.002678,0.000431,0.000940
83982000,0.0324,0.013523,0.002678,0.000431,0.000940
83983000,0.0324,0.013523,0.002678,0.000431,0.000940
83984000,0.0324,0.013523,0.002678,0.000431,0.000705
83985000,0.0324,0.013523,0.002678,0.000431,0.000940
83986000,0.0324,0.013523,0.002678,0.000431,0.000940
83987000,0.0324,0.013523,0.002678,0.000431,0.000823
83988000,0.0324,0.013523,0.002678,0.000431,0.000823
83989000,0.0324,0.013523,0.002678,0.000431,0.000940
83990000,0.0324,0.013523,0.002678,0.000431,0.000940
83991000,0.0324,0.013523,0.002678,0.000431,0.000823
83992000,0.0324,0.013523,0.002678,0.000431,0.000823
83993000,0.0324,0.013523,0.002678,0.000431,0.000940
83994000,0.0324,0.013523,0.002678,0.000431,0.000823
83995000,0.0324,0.013523,0.002678,0.000431,0.000940
83996000,0.0324,0.013523,0.002678,0.000431,0.000823
83997000,0.0324,0.013523,0.002678,0.000431,0.000940
83998000,0.0324,0.013523,0.002678,0.000431,0.000823
83999000,0.0324,0.013523,0.002678,0.000431,0.000823
