Cycle,Area(mm^2),PeakDynamic(W),SubthresholdLeakage(W),GateLeakage(W),RunTimeDynamic(W)
113000000,0.0324,0.013523,0.002678,0.000431,0.003761
113001000,0.0324,0.013523,0.002678,0.000431,0.003056
113002000,0.0324,0.013523,0.002678,0.000431,0.003878
113003000,0.0324,0.013523,0.002678,0.000431,0.003526
113004000,0.0324,0.013523,0.002678,0.000431,0.003761
113005000,0.0324,0.013523,0.002678,0.000431,0.003291
113006000,0.0324,0.013523,0.002678,0.000431,0.003643
113007000,0.0324,0.013523,0.002678,0.000431,0.003878
113008000,0.0324,0.013523,0.002678,0.000431,0.003173
113009000,0.0324,0.013523,0.002678,0.000431,0.003878
113010000,0.0324,0.013523,0.002678,0.000431,0.003526
113011000,0.0324,0.013523,0.002678,0.000431,0.003526
113012000,0.0324,0.013523,0.002678,0.000431,0.003291
113013000,0.0324,0.013523,0.002678,0.000431,0.003761
113014000,0.0324,0.013523,0.002678,0.000431,0.004819
113015000,0.0324,0.013523,0.002678,0.000431,0.001763
113016000,0.0324,0.013523,0.002678,0.000431,0.003408
113017000,0.0324,0.013523,0.002678,0.000431,0.207085
113018000,0.0324,0.013523,0.002678,0.000431,0.586818
113019000,0.0324,0.013523,0.002678,0.000431,0.370801
113020000,0.0324,0.013523,0.002678,0.000431,0.130691
113021000,0.0324,0.013523,0.002678,0.000431,0.133042
113022000,0.0324,0.013523,0.002678,0.000431,0.585525
113023000,0.0324,0.013523,0.002678,0.000431,0.243753
113024000,0.0324,0.013523,0.002678,0.000431,0.294526
113025000,0.0324,0.013523,0.002678,0.000431,0.265614
113026000,0.0324,0.013523,0.002678,0.000431,0.135510
113027000,0.0324,0.013523,0.002678,0.000431,0.147968
113028000,0.0324,0.013523,0.002678,0.000431,0.106245
113029000,0.0324,0.013523,0.002678,0.000431,0.385610
113030000,0.0324,0.013523,0.002678,0.000431,0.210375
113031000,0.0324,0.013523,0.002678,0.000431,0.069107
113032000,0.0324,0.013523,0.002678,0.000431,0.058176
113033000,0.0324,0.013523,0.002678,0.000431,0.044073
113034000,0.0324,0.013523,0.002678,0.000431,0.037491
113035000,0.0324,0.013523,0.002678,0.000431,0.033260
113036000,0.0324,0.013523,0.002678,0.000431,0.029735
113037000,0.0324,0.013523,0.002678,0.000431,0.024446
113038000,0.0324,0.013523,0.002678,0.000431,0.027502
113039000,0.0324,0.013523,0.002678,0.000431,0.023036
113040000,0.0324,0.013523,0.002678,0.000431,0.021625
113041000,0.0324,0.013523,0.002678,0.000431,0.019745
113042000,0.0324,0.013523,0.002678,0.000431,0.017864
113043000,0.0324,0.013523,0.002678,0.000431,0.015044
113044000,0.0324,0.013523,0.002678,0.000431,0.016924
113045000,0.0324,0.013523,0.002678,0.000431,0.014573
113046000,0.0324,0.013523,0.002678,0.000431,0.015161
113047000,0.0324,0.013523,0.002678,0.000431,0.014103
113048000,0.0324,0.013523,0.002678,0.000431,0.015396
113049000,0.0324,0.013523,0.002678,0.000431,0.015044
113050000,0.0324,0.013523,0.002678,0.000431,0.013281
113051000,0.0324,0.013523,0.002678,0.000431,0.013516
113052000,0.0324,0.013523,0.002678,0.000431,0.013281
113053000,0.0324,0.013523,0.002678,0.000431,0.013046
113054000,0.0324,0.013523,0.002678,0.000431,0.015396
113055000,0.0324,0.013523,0.002678,0.000431,0.013516
113056000,0.0324,0.013523,0.002678,0.000431,0.011635
113057000,0.0324,0.013523,0.002678,0.000431,0.010460
113058000,0.0324,0.013523,0.002678,0.000431,0.011048
113059000,0.0324,0.013523,0.002678,0.000431,0.008697
113060000,0.0324,0.013523,0.002678,0.000431,0.007404
113061000,0.0324,0.013523,0.002678,0.000431,0.007522
113062000,0.0324,0.013523,0.002678,0.000431,0.007287
113063000,0.0324,0.013523,0.002678,0.000431,0.007757
113064000,0.0324,0.013523,0.002678,0.000431,0.007522
113065000,0.0324,0.013523,0.002678,0.000431,0.007404
113066000,0.0324,0.013523,0.002678,0.000431,0.007874
113067000,0.0324,0.013523,0.002678,0.000431,0.007052
113068000,0.0324,0.013523,0.002678,0.000431,0.011048
113069000,0.0324,0.013523,0.002678,0.000431,0.005994
113070000,0.0324,0.013523,0.002678,0.000431,0.005641
113071000,0.0324,0.013523,0.002678,0.000431,0.005994
113072000,0.0324,0.013523,0.002678,0.000431,0.007169
113073000,0.0324,0.013523,0.002678,0.000431,0.004231
113074000,0.0324,0.013523,0.002678,0.000431,0.004231
113075000,0.0324,0.013523,0.002678,0.000431,0.004113
113076000,0.0324,0.013523,0.002678,0.000431,0.004349
113077000,0.0324,0.013523,0.002678,0.000431,0.004231
113078000,0.0324,0.013523,0.002678,0.000431,0.004113
113079000,0.0324,0.013523,0.002678,0.000431,0.004113
113080000,0.0324,0.013523,0.002678,0.000431,0.004466
113081000,0.0324,0.013523,0.002678,0.000431,0.004231
113082000,0.0324,0.013523,0.002678,0.000431,0.003996
113083000,0.0324,0.013523,0.002678,0.000431,0.005759
113084000,0.0324,0.013523,0.002678,0.000431,0.003408
113085000,0.0324,0.013523,0.002678,0.000431,0.003173
113086000,0.0324,0.013523,0.002678,0.000431,0.003408
113087000,0.0324,0.013523,0.002678,0.000431,0.003643
113088000,0.0324,0.013523,0.002678,0.000431,0.003173
113089000,0.0324,0.013523,0.002678,0.000431,0.003643
113090000,0.0324,0.013523,0.002678,0.000431,0.002938
113091000,0.0324,0.013523,0.002678,0.000431,0.003761
113092000,0.0324,0.013523,0.002678,0.000431,0.003643
113093000,0.0324,0.013523,0.002678,0.000431,0.003056
113094000,0.0324,0.013523,0.002678,0.000431,0.003643
113095000,0.0324,0.013523,0.002678,0.000431,0.002938
113096000,0.0324,0.013523,0.002678,0.000431,0.003761
113097000,0.0324,0.013523,0.002678,0.000431,0.003408
113098000,0.0324,0.013523,0.002678,0.000431,0.003291
113099000,0.0324,0.013523,0.002678,0.000431,0.005054
113100000,0.0324,0.013523,0.002678,0.000431,0.002351
113101000,0.0324,0.013523,0.002678,0.000431,0.002703
113102000,0.0324,0.013523,0.002678,0.000431,0.002468
113103000,0.0324,0.013523,0.002678,0.000431,0.002703
113104000,0.0324,0.013523,0.002678,0.000431,0.002703
113105000,0.0324,0.013523,0.002678,0.000431,0.002233
113106000,0.0324,0.013523,0.002678,0.000431,0.002703
113107000,0.0324,0.013523,0.002678,0.000431,0.002586
113108000,0.0324,0.013523,0.002678,0.000431,0.002468
113109000,0.0324,0.013523,0.002678,0.000431,0.002468
113110000,0.0324,0.013523,0.002678,0.000431,0.002586
113111000,0.0324,0.013523,0.002678,0.000431,0.002703
113112000,0.0324,0.013523,0.002678,0.000431,0.002468
113113000,0.0324,0.013523,0.002678,0.000431,0.002586
113114000,0.0324,0.013523,0.002678,0.000431,0.002586
113115000,0.0324,0.013523,0.002678,0.000431,0.002351
113116000,0.0324,0.013523,0.002678,0.000431,0.002703
113117000,0.0324,0.013523,0.002678,0.000431,0.002586
113118000,0.0324,0.013523,0.002678,0.000431,0.002351
113119000,0.0324,0.013523,0.002678,0.000431,0.002703
113120000,0.0324,0.013523,0.002678,0.000431,0.002468
113121000,0.0324,0.013523,0.002678,0.000431,0.002586
113122000,0.0324,0.013523,0.002678,0.000431,0.002703
113123000,0.0324,0.013523,0.002678,0.000431,0.002351
113124000,0.0324,0.013523,0.002678,0.000431,0.002703
113125000,0.0324,0.013523,0.002678,0.000431,0.002586
113126000,0.0324,0.013523,0.002678,0.000431,0.002586
113127000,0.0324,0.013523,0.002678,0.000431,0.002586
113128000,0.0324,0.013523,0.002678,0.000431,0.002351
113129000,0.0324,0.013523,0.002678,0.000431,0.002703
113130000,0.0324,0.013523,0.002678,0.000431,0.002586
113131000,0.0324,0.013523,0.002678,0.000431,0.002586
113132000,0.0324,0.013523,0.002678,0.000431,0.003878
113133000,0.0324,0.013523,0.002678,0.000431,0.003408
113134000,0.0324,0.013523,0.002678,0.000431,0.002351
113135000,0.0324,0.013523,0.002678,0.000431,0.000940
113136000,0.0324,0.013523,0.002678,0.000431,0.000823
113137000,0.0324,0.013523,0.002678,0.000431,0.000940
113138000,0.0324,0.013523,0.002678,0.000431,0.000823
113139000,0.0324,0.013523,0.002678,0.000431,0.000823
113140000,0.0324,0.013523,0.002678,0.000431,0.000940
113141000,0.0324,0.013523,0.002678,0.000431,0.008462
113142000,0.0324,0.013523,0.002678,0.000431,0.462238
113143000,0.0324,0.013523,0.002678,0.000431,0.628658
113144000,0.0324,0.013523,0.002678,0.000431,0.136920
113145000,0.0324,0.013523,0.002678,0.000431,0.131984
113146000,0.0324,0.013523,0.002678,0.000431,0.173707
113147000,0.0324,0.013523,0.002678,0.000431,0.574713
113148000,0.0324,0.013523,0.002678,0.000431,0.244459
113149000,0.0324,0.013523,0.002678,0.000431,0.302753
113150000,0.0324,0.013523,0.002678,0.000431,0.213901
113151000,0.0324,0.013523,0.002678,0.000431,0.137273
113152000,0.0324,0.013523,0.002678,0.000431,0.175235
113153000,0.0324,0.013523,0.002678,0.000431,0.110476
113154000,0.0324,0.013523,0.002678,0.000431,0.487272
113155000,0.0324,0.013523,0.002678,0.000431,0.160191
113156000,0.0324,0.013523,0.002678,0.000431,0.106833
113157000,0.0324,0.013523,0.002678,0.000431,0.095668
113158000,0.0324,0.013523,0.002678,0.000431,0.072515
113159000,0.0324,0.013523,0.002678,0.000431,0.068519
113160000,0.0324,0.013523,0.002678,0.000431,0.054180
113161000,0.0324,0.013523,0.002678,0.000431,0.037844
113162000,0.0324,0.013523,0.002678,0.000431,0.034318
113163000,0.0324,0.013523,0.002678,0.000431,0.034083
113164000,0.0324,0.013523,0.002678,0.000431,0.025739
113165000,0.0324,0.013523,0.002678,0.000431,0.021978
113166000,0.0324,0.013523,0.002678,0.000431,0.021155
113167000,0.0324,0.013523,0.002678,0.000431,0.015161
113168000,0.0324,0.013523,0.002678,0.000431,0.019392
113169000,0.0324,0.013523,0.002678,0.000431,0.016571
113170000,0.0324,0.013523,0.002678,0.000431,0.016924
113171000,0.0324,0.013523,0.002678,0.000431,0.014926
113172000,0.0324,0.013523,0.002678,0.000431,0.011870
113173000,0.0324,0.013523,0.002678,0.000431,0.013163
113174000,0.0324,0.013523,0.002678,0.000431,0.009285
113175000,0.0324,0.013523,0.002678,0.000431,0.009755
113176000,0.0324,0.013523,0.002678,0.000431,0.010107
113177000,0.0324,0.013523,0.002678,0.000431,0.009872
113178000,0.0324,0.013523,0.002678,0.000431,0.009520
113179000,0.0324,0.013523,0.002678,0.000431,0.010225
113180000,0.0324,0.013523,0.002678,0.000431,0.009402
113181000,0.0324,0.013523,0.002678,0.000431,0.009872
113182000,0.0324,0.013523,0.002678,0.000431,0.009755
113183000,0.0324,0.013523,0.002678,0.000431,0.010225
113184000,0.0324,0.013523,0.002678,0.000431,0.009755
113185000,0.0324,0.013523,0.002678,0.000431,0.010107
113186000,0.0324,0.013523,0.002678,0.000431,0.006934
113187000,0.0324,0.013523,0.002678,0.000431,0.006934
113188000,0.0324,0.013523,0.002678,0.000431,0.006582
113189000,0.0324,0.013523,0.002678,0.000431,0.006817
113190000,0.0324,0.013523,0.002678,0.000431,0.006934
113191000,0.0324,0.013523,0.002678,0.000431,0.006699
113192000,0.0324,0.013523,0.002678,0.000431,0.007052
113193000,0.0324,0.013523,0.002678,0.000431,0.007052
113194000,0.0324,0.013523,0.002678,0.000431,0.006699
113195000,0.0324,0.013523,0.002678,0.000431,0.006582
113196000,0.0324,0.013523,0.002678,0.000431,0.008697
113197000,0.0324,0.013523,0.002678,0.000431,0.005289
113198000,0.0324,0.013523,0.002678,0.000431,0.005289
113199000,0.0324,0.013523,0.002678,0.000431,0.005289
113200000,0.0324,0.013523,0.002678,0.000431,0.005171
113201000,0.0324,0.013523,0.002678,0.000431,0.005406
113202000,0.0324,0.013523,0.002678,0.000431,0.005171
113203000,0.0324,0.013523,0.002678,0.000431,0.005524
113204000,0.0324,0.013523,0.002678,0.000431,0.005289
113205000,0.0324,0.013523,0.002678,0.000431,0.005054
113206000,0.0324,0.013523,0.002678,0.000431,0.005759
113207000,0.0324,0.013523,0.002678,0.000431,0.005994
113208000,0.0324,0.013523,0.002678,0.000431,0.004584
113209000,0.0324,0.013523,0.002678,0.000431,0.004466
113210000,0.0324,0.013523,0.002678,0.000431,0.004349
113211000,0.0324,0.013523,0.002678,0.000431,0.004466
113212000,0.0324,0.013523,0.002678,0.000431,0.004231
113213000,0.0324,0.013523,0.002678,0.000431,0.004113
113214000,0.0324,0.013523,0.002678,0.000431,0.004936
113215000,0.0324,0.013523,0.002678,0.000431,0.004349
113216000,0.0324,0.013523,0.002678,0.000431,0.004231
113217000,0.0324,0.013523,0.002678,0.000431,0.004584
113218000,0.0324,0.013523,0.002678,0.000431,0.004113
113219000,0.0324,0.013523,0.002678,0.000431,0.004819
113220000,0.0324,0.013523,0.002678,0.000431,0.004113
113221000,0.0324,0.013523,0.002678,0.000431,0.004584
113222000,0.0324,0.013523,0.002678,0.000431,0.004231
113223000,0.0324,0.013523,0.002678,0.000431,0.004466
113224000,0.0324,0.013523,0.002678,0.000431,0.004349
113225000,0.0324,0.013523,0.002678,0.000431,0.004466
113226000,0.0324,0.013523,0.002678,0.000431,0.004584
113227000,0.0324,0.013523,0.002678,0.000431,0.003996
113228000,0.0324,0.013523,0.002678,0.000431,0.004819
113229000,0.0324,0.013523,0.002678,0.000431,0.004349
113230000,0.0324,0.013523,0.002678,0.000431,0.004349
113231000,0.0324,0.013523,0.002678,0.000431,0.004466
113232000,0.0324,0.013523,0.002678,0.000431,0.004701
113233000,0.0324,0.013523,0.002678,0.000431,0.004466
113234000,0.0324,0.013523,0.002678,0.000431,0.004113
113235000,0.0324,0.013523,0.002678,0.000431,0.004936
113236000,0.0324,0.013523,0.002678,0.000431,0.003996
113237000,0.0324,0.013523,0.002678,0.000431,0.004584
113238000,0.0324,0.013523,0.002678,0.000431,0.004349
113239000,0.0324,0.013523,0.002678,0.000431,0.004466
113240000,0.0324,0.013523,0.002678,0.000431,0.004466
113241000,0.0324,0.013523,0.002678,0.000431,0.004349
113242000,0.0324,0.013523,0.002678,0.000431,0.004231
113243000,0.0324,0.013523,0.002678,0.000431,0.004819
113244000,0.0324,0.013523,0.002678,0.000431,0.004113
113245000,0.0324,0.013523,0.002678,0.000431,0.004349
113246000,0.0324,0.013523,0.002678,0.000431,0.004701
113247000,0.0324,0.013523,0.002678,0.000431,0.004113
113248000,0.0324,0.013523,0.002678,0.000431,0.004936
113249000,0.0324,0.013523,0.002678,0.000431,0.003643
113250000,0.0324,0.013523,0.002678,0.000431,0.004819
113251000,0.0324,0.013523,0.002678,0.000431,0.004349
113252000,0.0324,0.013523,0.002678,0.000431,0.004349
113253000,0.0324,0.013523,0.002678,0.000431,0.004936
113254000,0.0324,0.013523,0.002678,0.000431,0.003643
113255000,0.0324,0.013523,0.002678,0.000431,0.005054
113256000,0.0324,0.013523,0.002678,0.000431,0.003996
113257000,0.0324,0.013523,0.002678,0.000431,0.004466
113258000,0.0324,0.013523,0.002678,0.000431,0.004584
113259000,0.0324,0.013523,0.002678,0.000431,0.004113
113260000,0.0324,0.013523,0.002678,0.000431,0.004466
113261000,0.0324,0.013523,0.002678,0.000431,0.004466
113262000,0.0324,0.013523,0.002678,0.000431,0.004701
113263000,0.0324,0.013523,0.002678,0.000431,0.004113
113264000,0.0324,0.013523,0.002678,0.000431,0.004584
113265000,0.0324,0.013523,0.002678,0.000431,0.004349
113266000,0.0324,0.013523,0.002678,0.000431,0.004701
113267000,0.0324,0.013523,0.002678,0.000431,0.003996
113268000,0.0324,0.013523,0.002678,0.000431,0.004584
113269000,0.0324,0.013523,0.002678,0.000431,0.004349
113270000,0.0324,0.013523,0.002678,0.000431,0.004349
113271000,0.0324,0.013523,0.002678,0.000431,0.004466
113272000,0.0324,0.013523,0.002678,0.000431,0.004231
113273000,0.0324,0.013523,0.002678,0.000431,0.004701
113274000,0.0324,0.013523,0.002678,0.000431,0.004231
113275000,0.0324,0.013523,0.002678,0.000431,0.005054
113276000,0.0324,0.013523,0.002678,0.000431,0.004113
113277000,0.0324,0.013523,0.002678,0.000431,0.004349
113278000,0.0324,0.013523,0.002678,0.000431,0.006934
113279000,0.0324,0.013523,0.002678,0.000431,0.002938
113280000,0.0324,0.013523,0.002678,0.000431,0.003408
113281000,0.0324,0.013523,0.002678,0.000431,0.003173
113282000,0.0324,0.013523,0.002678,0.000431,0.003408
113283000,0.0324,0.013523,0.002678,0.000431,0.003291
113284000,0.0324,0.013523,0.002678,0.000431,0.003056
113285000,0.0324,0.013523,0.002678,0.000431,0.003526
113286000,0.0324,0.013523,0.002678,0.000431,0.003291
113287000,0.0324,0.013523,0.002678,0.000431,0.004936
113288000,0.0324,0.013523,0.002678,0.000431,0.004231
113289000,0.0324,0.013523,0.002678,0.000431,0.002938
113290000,0.0324,0.013523,0.002678,0.000431,0.000823
113291000,0.0324,0.013523,0.002678,0.000431,0.000823
113292000,0.0324,0.013523,0.002678,0.000431,0.000940
113293000,0.0324,0.013523,0.002678,0.000431,0.000705
113294000,0.0324,0.013523,0.002678,0.000431,0.000940
113295000,0.0324,0.013523,0.002678,0.000431,0.000823
113296000,0.0324,0.013523,0.002678,0.000431,0.000823
113297000,0.0324,0.013523,0.002678,0.000431,0.000705
113298000,0.0324,0.013523,0.002678,0.000431,0.000940
113299000,0.0324,0.013523,0.002678,0.000431,0.000940
113300000,0.0324,0.013523,0.002678,0.000431,0.000705
113301000,0.0324,0.013523,0.002678,0.000431,0.000940
113302000,0.0324,0.013523,0.002678,0.000431,0.000705
113303000,0.0324,0.013523,0.002678,0.000431,0.000940
113304000,0.0324,0.013523,0.002678,0.000431,0.000823
113305000,0.0324,0.013523,0.002678,0.000431,0.000823
113306000,0.0324,0.013523,0.002678,0.000431,0.000705
113307000,0.0324,0.013523,0.002678,0.000431,0.000940
113308000,0.0324,0.013523,0.002678,0.000431,0.000823
113309000,0.0324,0.013523,0.002678,0.000431,0.000823
113310000,0.0324,0.013523,0.002678,0.000431,0.067109
113311000,0.0324,0.013523,0.002678,0.000431,0.567426
113312000,0.0324,0.013523,0.002678,0.000431,0.601627
113313000,0.0324,0.013523,0.002678,0.000431,0.134922
113314000,0.0324,0.013523,0.002678,0.000431,0.134922
113315000,0.0324,0.013523,0.002678,0.000431,0.586231
113316000,0.0324,0.013523,0.002678,0.000431,0.267024
113317000,0.0324,0.013523,0.002678,0.000431,0.252333
113318000,0.0324,0.013523,0.002678,0.000431,0.315563
113319000,0.0324,0.013523,0.002678,0.000431,0.144090
113320000,0.0324,0.013523,0.002678,0.000431,0.163247
113321000,0.0324,0.013523,0.002678,0.000431,0.135040
113322000,0.0324,0.013523,0.002678,0.000431,0.481983
113323000,0.0324,0.013523,0.002678,0.000431,0.143032
113324000,0.0324,0.013523,0.002678,0.000431,0.097196
113325000,0.0324,0.013523,0.002678,0.000431,0.084503
113326000,0.0324,0.013523,0.002678,0.000431,0.077804
113327000,0.0324,0.013523,0.002678,0.000431,0.062290
113328000,0.0324,0.013523,0.002678,0.000431,0.054651
113329000,0.0324,0.013523,0.002678,0.000431,0.053123
113330000,0.0324,0.013523,0.002678,0.000431,0.043956
113331000,0.0324,0.013523,0.002678,0.000431,0.039019
113332000,0.0324,0.013523,0.002678,0.000431,0.035141
113333000,0.0324,0.013523,0.002678,0.000431,0.031615
113334000,0.0324,0.013523,0.002678,0.000431,0.033731
113335000,0.0324,0.013523,0.002678,0.000431,0.021390
113336000,0.0324,0.013523,0.002678,0.000431,0.024681
113337000,0.0324,0.013523,0.002678,0.000431,0.025739
113338000,0.0324,0.013523,0.002678,0.000431,0.019862
113339000,0.0324,0.013523,0.002678,0.000431,0.019745
113340000,0.0324,0.013523,0.002678,0.000431,0.017747
113341000,0.0324,0.013523,0.002678,0.000431,0.018334
113342000,0.0324,0.013523,0.002678,0.000431,0.017042
113343000,0.0324,0.013523,0.002678,0.000431,0.015396
113344000,0.0324,0.013523,0.002678,0.000431,0.014691
113345000,0.0324,0.013523,0.002678,0.000431,0.013633
113346000,0.0324,0.013523,0.002678,0.000431,0.012928
113347000,0.0324,0.013523,0.002678,0.000431,0.014573
113348000,0.0324,0.013523,0.002678,0.000431,0.013633
113349000,0.0324,0.013523,0.002678,0.000431,0.015749
113350000,0.0324,0.013523,0.002678,0.000431,0.010813
113351000,0.0324,0.013523,0.002678,0.000431,0.015514
113352000,0.0324,0.013523,0.002678,0.000431,0.011988
113353000,0.0324,0.013523,0.002678,0.000431,0.009872
113354000,0.0324,0.013523,0.002678,0.000431,0.012458
113355000,0.0324,0.013523,0.002678,0.000431,0.007052
113356000,0.0324,0.013523,0.002678,0.000431,0.008227
113357000,0.0324,0.013523,0.002678,0.000431,0.007287
113358000,0.0324,0.013523,0.002678,0.000431,0.009520
113359000,0.0324,0.013523,0.002678,0.000431,0.007404
113360000,0.0324,0.013523,0.002678,0.000431,0.007052
113361000,0.0324,0.013523,0.002678,0.000431,0.007522
113362000,0.0324,0.013523,0.002678,0.000431,0.008462
113363000,0.0324,0.013523,0.002678,0.000431,0.004584
113364000,0.0324,0.013523,0.002678,0.000431,0.005524
113365000,0.0324,0.013523,0.002678,0.000431,0.005171
113366000,0.0324,0.013523,0.002678,0.000431,0.004466
113367000,0.0324,0.013523,0.002678,0.000431,0.005641
113368000,0.0324,0.013523,0.002678,0.000431,0.004819
113369000,0.0324,0.013523,0.002678,0.000431,0.005641
113370000,0.0324,0.013523,0.002678,0.000431,0.004584
113371000,0.0324,0.013523,0.002678,0.000431,0.005406
113372000,0.0324,0.013523,0.002678,0.000431,0.004819
113373000,0.0324,0.013523,0.002678,0.000431,0.005289
113374000,0.0324,0.013523,0.002678,0.000431,0.005406
113375000,0.0324,0.013523,0.002678,0.000431,0.004936
113376000,0.0324,0.013523,0.002678,0.000431,0.005054
113377000,0.0324,0.013523,0.002678,0.000431,0.005171
113378000,0.0324,0.013523,0.002678,0.000431,0.005171
113379000,0.0324,0.013523,0.002678,0.000431,0.005171
113380000,0.0324,0.013523,0.002678,0.000431,0.005406
113381000,0.0324,0.013523,0.002678,0.000431,0.004466
113382000,0.0324,0.013523,0.002678,0.000431,0.005876
113383000,0.0324,0.013523,0.002678,0.000431,0.004584
113384000,0.0324,0.013523,0.002678,0.000431,0.005289
113385000,0.0324,0.013523,0.002678,0.000431,0.004701
113386000,0.0324,0.013523,0.002678,0.000431,0.005054
113387000,0.0324,0.013523,0.002678,0.000431,0.005994
113388000,0.0324,0.013523,0.002678,0.000431,0.004466
113389000,0.0324,0.013523,0.002678,0.000431,0.005524
113390000,0.0324,0.013523,0.002678,0.000431,0.004466
113391000,0.0324,0.013523,0.002678,0.000431,0.004819
113392000,0.0324,0.013523,0.002678,0.000431,0.004231
113393000,0.0324,0.013523,0.002678,0.000431,0.004819
113394000,0.0324,0.013523,0.002678,0.000431,0.004113
113395000,0.0324,0.013523,0.002678,0.000431,0.004584
113396000,0.0324,0.013523,0.002678,0.000431,0.004349
113397000,0.0324,0.013523,0.002678,0.000431,0.004466
113398000,0.0324,0.013523,0.002678,0.000431,0.004231
113399000,0.0324,0.013523,0.002678,0.000431,0.004584
113400000,0.0324,0.013523,0.002678,0.000431,0.004231
113401000,0.0324,0.013523,0.002678,0.000431,0.004349
113402000,0.0324,0.013523,0.002678,0.000431,0.005054
113403000,0.0324,0.013523,0.002678,0.000431,0.003761
113404000,0.0324,0.013523,0.002678,0.000431,0.005171
113405000,0.0324,0.013523,0.002678,0.000431,0.003643
113406000,0.0324,0.013523,0.002678,0.000431,0.004936
113407000,0.0324,0.013523,0.002678,0.000431,0.004231
113408000,0.0324,0.013523,0.002678,0.000431,0.004231
113409000,0.0324,0.013523,0.002678,0.000431,0.005054
113410000,0.0324,0.013523,0.002678,0.000431,0.004701
113411000,0.0324,0.013523,0.002678,0.000431,0.005994
113412000,0.0324,0.013523,0.002678,0.000431,0.003056
113413000,0.0324,0.013523,0.002678,0.000431,0.003996
113414000,0.0324,0.013523,0.002678,0.000431,0.003173
113415000,0.0324,0.013523,0.002678,0.000431,0.003643
113416000,0.0324,0.013523,0.002678,0.000431,0.003643
113417000,0.0324,0.013523,0.002678,0.000431,0.003996
113418000,0.0324,0.013523,0.002678,0.000431,0.003291
113419000,0.0324,0.013523,0.002678,0.000431,0.004936
113420000,0.0324,0.013523,0.002678,0.000431,0.002821
113421000,0.0324,0.013523,0.002678,0.000431,0.001880
113422000,0.0324,0.013523,0.002678,0.000431,0.002821
113423000,0.0324,0.013523,0.002678,0.000431,0.001998
113424000,0.0324,0.013523,0.002678,0.000431,0.002703
113425000,0.0324,0.013523,0.002678,0.000431,0.002468
113426000,0.0324,0.013523,0.002678,0.000431,0.002233
113427000,0.0324,0.013523,0.002678,0.000431,0.002468
113428000,0.0324,0.013523,0.002678,0.000431,0.002351
113429000,0.0324,0.013523,0.002678,0.000431,0.002351
113430000,0.0324,0.013523,0.002678,0.000431,0.002468
113431000,0.0324,0.013523,0.002678,0.000431,0.002233
113432000,0.0324,0.013523,0.002678,0.000431,0.002468
113433000,0.0324,0.013523,0.002678,0.000431,0.002351
113434000,0.0324,0.013523,0.002678,0.000431,0.002351
113435000,0.0324,0.013523,0.002678,0.000431,0.002821
113436000,0.0324,0.013523,0.002678,0.000431,0.001880
113437000,0.0324,0.013523,0.002678,0.000431,0.002821
113438000,0.0324,0.013523,0.002678,0.000431,0.002116
113439000,0.0324,0.013523,0.002678,0.000431,0.002586
113440000,0.0324,0.013523,0.002678,0.000431,0.002468
113441000,0.0324,0.013523,0.002678,0.000431,0.002233
113442000,0.0324,0.013523,0.002678,0.000431,0.002468
113443000,0.0324,0.013523,0.002678,0.000431,0.002468
113444000,0.0324,0.013523,0.002678,0.000431,0.002468
113445000,0.0324,0.013523,0.002678,0.000431,0.002233
113446000,0.0324,0.013523,0.002678,0.000431,0.002586
113447000,0.0324,0.013523,0.002678,0.000431,0.002351
113448000,0.0324,0.013523,0.002678,0.000431,0.002586
113449000,0.0324,0.013523,0.002678,0.000431,0.003878
113450000,0.0324,0.013523,0.002678,0.000431,0.001645
113451000,0.0324,0.013523,0.002678,0.000431,0.001293
113452000,0.0324,0.013523,0.002678,0.000431,0.001763
113453000,0.0324,0.013523,0.002678,0.000431,0.001880
113454000,0.0324,0.013523,0.002678,0.000431,0.001175
113455000,0.0324,0.013523,0.002678,0.000431,0.001880
113456000,0.0324,0.013523,0.002678,0.000431,0.001293
113457000,0.0324,0.013523,0.002678,0.000431,0.001763
113458000,0.0324,0.013523,0.002678,0.000431,0.001645
113459000,0.0324,0.013523,0.002678,0.000431,0.001410
113460000,0.0324,0.013523,0.002678,0.000431,0.001645
113461000,0.0324,0.013523,0.002678,0.000431,0.001528
113462000,0.0324,0.013523,0.002678,0.000431,0.001763
113463000,0.0324,0.013523,0.002678,0.000431,0.001410
113464000,0.0324,0.013523,0.002678,0.000431,0.001645
113465000,0.0324,0.013523,0.002678,0.000431,0.001645
113466000,0.0324,0.013523,0.002678,0.000431,0.001410
113467000,0.0324,0.013523,0.002678,0.000431,0.001645
113468000,0.0324,0.013523,0.002678,0.000431,0.001645
113469000,0.0324,0.013523,0.002678,0.000431,0.001410
113470000,0.0324,0.013523,0.002678,0.000431,0.001645
113471000,0.0324,0.013523,0.002678,0.000431,0.001410
113472000,0.0324,0.013523,0.002678,0.000431,0.001645
113473000,0.0324,0.013523,0.002678,0.000431,0.001880
113474000,0.0324,0.013523,0.002678,0.000431,0.001175
113475000,0.0324,0.013523,0.002678,0.000431,0.001880
113476000,0.0324,0.013523,0.002678,0.000431,0.001410
113477000,0.0324,0.013523,0.002678,0.000431,0.001645
113478000,0.0324,0.013523,0.002678,0.000431,0.001645
113479000,0.0324,0.013523,0.002678,0.000431,0.001410
113480000,0.0324,0.013523,0.002678,0.000431,0.001645
113481000,0.0324,0.013523,0.002678,0.000431,0.001645
113482000,0.0324,0.013523,0.002678,0.000431,0.001645
113483000,0.0324,0.013523,0.002678,0.000431,0.001410
113484000,0.0324,0.013523,0.002678,0.000431,0.001645
113485000,0.0324,0.013523,0.002678,0.000431,0.001645
113486000,0.0324,0.013523,0.002678,0.000431,0.001645
113487000,0.0324,0.013523,0.002678,0.000431,0.001410
113488000,0.0324,0.013523,0.002678,0.000431,0.001645
113489000,0.0324,0.013523,0.002678,0.000431,0.001293
113490000,0.0324,0.013523,0.002678,0.000431,0.001763
113491000,0.0324,0.013523,0.002678,0.000431,0.001880
113492000,0.0324,0.013523,0.002678,0.000431,0.001175
113493000,0.0324,0.013523,0.002678,0.000431,0.001880
113494000,0.0324,0.013523,0.002678,0.000431,0.001293
113495000,0.0324,0.013523,0.002678,0.000431,0.001763
113496000,0.0324,0.013523,0.002678,0.000431,0.001645
113497000,0.0324,0.013523,0.002678,0.000431,0.001410
113498000,0.0324,0.013523,0.002678,0.000431,0.001645
113499000,0.0324,0.013523,0.002678,0.000431,0.001528
113500000,0.0324,0.013523,0.002678,0.000431,0.001763
113501000,0.0324,0.013523,0.002678,0.000431,0.001410
113502000,0.0324,0.013523,0.002678,0.000431,0.001645
113503000,0.0324,0.013523,0.002678,0.000431,0.001645
113504000,0.0324,0.013523,0.002678,0.000431,0.001528
113505000,0.0324,0.013523,0.002678,0.000431,0.001528
113506000,0.0324,0.013523,0.002678,0.000431,0.001645
113507000,0.0324,0.013523,0.002678,0.000431,0.001410
113508000,0.0324,0.013523,0.002678,0.000431,0.001645
113509000,0.0324,0.013523,0.002678,0.000431,0.001410
113510000,0.0324,0.013523,0.002678,0.000431,0.001645
113511000,0.0324,0.013523,0.002678,0.000431,0.001880
113512000,0.0324,0.013523,0.002678,0.000431,0.001175
113513000,0.0324,0.013523,0.002678,0.000431,0.001880
113514000,0.0324,0.013523,0.002678,0.000431,0.001410
113515000,0.0324,0.013523,0.002678,0.000431,0.001645
113516000,0.0324,0.013523,0.002678,0.000431,0.001645
113517000,0.0324,0.013523,0.002678,0.000431,0.001410
113518000,0.0324,0.013523,0.002678,0.000431,0.010107
113519000,0.0324,0.013523,0.002678,0.000431,0.543098
113520000,0.0324,0.013523,0.002678,0.000431,0.630186
113521000,0.0324,0.013523,0.002678,0.000431,0.139976
113522000,0.0324,0.013523,0.002678,0.000431,0.135863
113523000,0.0324,0.013523,0.002678,0.000431,0.444844
113524000,0.0324,0.013523,0.002678,0.000431,0.405002
113525000,0.0324,0.013523,0.002678,0.000431,0.273841
113526000,0.0324,0.013523,0.002678,0.000431,0.262088
113527000,0.0324,0.013523,0.002678,0.000431,0.138918
113528000,0.0324,0.013523,0.002678,0.000431,0.155607
113529000,0.0324,0.013523,0.002678,0.000431,0.114943
113530000,0.0324,0.013523,0.002678,0.000431,0.420868
113531000,0.0324,0.013523,0.002678,0.000431,0.237407
113532000,0.0324,0.013523,0.002678,0.000431,0.115178
113533000,0.0324,0.013523,0.002678,0.000431,0.095198
113534000,0.0324,0.013523,0.002678,0.000431,0.085443
113535000,0.0324,0.013523,0.002678,0.000431,0.061937
113536000,0.0324,0.013523,0.002678,0.000431,0.056414
113537000,0.0324,0.013523,0.002678,0.000431,0.051477
113538000,0.0324,0.013523,0.002678,0.000431,0.053945
113539000,0.0324,0.013523,0.002678,0.000431,0.035964
113540000,0.0324,0.013523,0.002678,0.000431,0.031968
113541000,0.0324,0.013523,0.002678,0.000431,0.030322
113542000,0.0324,0.013523,0.002678,0.000431,0.023976
113543000,0.0324,0.013523,0.002678,0.000431,0.023858
113544000,0.0324,0.013523,0.002678,0.000431,0.021038
113545000,0.0324,0.013523,0.002678,0.000431,0.020332
113546000,0.0324,0.013523,0.002678,0.000431,0.013281
113547000,0.0324,0.013523,0.002678,0.000431,0.012105
113548000,0.0324,0.013523,0.002678,0.000431,0.010813
113549000,0.0324,0.013523,0.002678,0.000431,0.011283
113550000,0.0324,0.013523,0.002678,0.000431,0.011518
113551000,0.0324,0.013523,0.002678,0.000431,0.008815
113552000,0.0324,0.013523,0.002678,0.000431,0.009755
113553000,0.0324,0.013523,0.002678,0.000431,0.012105
113554000,0.0324,0.013523,0.002678,0.000431,0.004936
113555000,0.0324,0.013523,0.002678,0.000431,0.005171
113556000,0.0324,0.013523,0.002678,0.000431,0.005054
113557000,0.0324,0.013523,0.002678,0.000431,0.004819
113558000,0.0324,0.013523,0.002678,0.000431,0.004936
113559000,0.0324,0.013523,0.002678,0.000431,0.005054
113560000,0.0324,0.013523,0.002678,0.000431,0.004819
113561000,0.0324,0.013523,0.002678,0.000431,0.005171
113562000,0.0324,0.013523,0.002678,0.000431,0.006934
113563000,0.0324,0.013523,0.002678,0.000431,0.004349
113564000,0.0324,0.013523,0.002678,0.000431,0.004113
113565000,0.0324,0.013523,0.002678,0.000431,0.003996
113566000,0.0324,0.013523,0.002678,0.000431,0.005641
113567000,0.0324,0.013523,0.002678,0.000431,0.003056
113568000,0.0324,0.013523,0.002678,0.000431,0.003408
113569000,0.0324,0.013523,0.002678,0.000431,0.003291
113570000,0.0324,0.013523,0.002678,0.000431,0.003173
113571000,0.0324,0.013523,0.002678,0.000431,0.003408
113572000,0.0324,0.013523,0.002678,0.000431,0.003173
113573000,0.0324,0.013523,0.002678,0.000431,0.003291
113574000,0.0324,0.013523,0.002678,0.000431,0.003056
113575000,0.0324,0.013523,0.002678,0.000431,0.003526
113576000,0.0324,0.013523,0.002678,0.000431,0.003291
113577000,0.0324,0.013523,0.002678,0.000431,0.003056
113578000,0.0324,0.013523,0.002678,0.000431,0.003408
113579000,0.0324,0.013523,0.002678,0.000431,0.003173
113580000,0.0324,0.013523,0.002678,0.000431,0.005171
113581000,0.0324,0.013523,0.002678,0.000431,0.002468
113582000,0.0324,0.013523,0.002678,0.000431,0.002233
113583000,0.0324,0.013523,0.002678,0.000431,0.002703
113584000,0.0324,0.013523,0.002678,0.000431,0.002351
113585000,0.0324,0.013523,0.002678,0.000431,0.002351
113586000,0.0324,0.013523,0.002678,0.000431,0.002468
113587000,0.0324,0.013523,0.002678,0.000431,0.002351
113588000,0.0324,0.013523,0.002678,0.000431,0.002468
113589000,0.0324,0.013523,0.002678,0.000431,0.002468
113590000,0.0324,0.013523,0.002678,0.000431,0.002233
113591000,0.0324,0.013523,0.002678,0.000431,0.002351
113592000,0.0324,0.013523,0.002678,0.000431,0.002586
113593000,0.0324,0.013523,0.002678,0.000431,0.002351
113594000,0.0324,0.013523,0.002678,0.000431,0.002586
113595000,0.0324,0.013523,0.002678,0.000431,0.002351
113596000,0.0324,0.013523,0.002678,0.000431,0.002351
113597000,0.0324,0.013523,0.002678,0.000431,0.002233
113598000,0.0324,0.013523,0.002678,0.000431,0.002703
113599000,0.0324,0.013523,0.002678,0.000431,0.002586
113600000,0.0324,0.013523,0.002678,0.000431,0.002116
113601000,0.0324,0.013523,0.002678,0.000431,0.002586
113602000,0.0324,0.013523,0.002678,0.000431,0.002233
113603000,0.0324,0.013523,0.002678,0.000431,0.002586
113604000,0.0324,0.013523,0.002678,0.000431,0.002468
113605000,0.0324,0.013523,0.002678,0.000431,0.002233
113606000,0.0324,0.013523,0.002678,0.000431,0.002703
113607000,0.0324,0.013523,0.002678,0.000431,0.002233
113608000,0.0324,0.013523,0.002678,0.000431,0.002468
113609000,0.0324,0.013523,0.002678,0.000431,0.002586
113610000,0.0324,0.013523,0.002678,0.000431,0.002233
113611000,0.0324,0.013523,0.002678,0.000431,0.002468
113612000,0.0324,0.013523,0.002678,0.000431,0.002233
113613000,0.0324,0.013523,0.002678,0.000431,0.002468
113614000,0.0324,0.013523,0.002678,0.000431,0.002468
113615000,0.0324,0.013523,0.002678,0.000431,0.002468
113616000,0.0324,0.013523,0.002678,0.000431,0.002116
113617000,0.0324,0.013523,0.002678,0.000431,0.002586
113618000,0.0324,0.013523,0.002678,0.000431,0.002586
113619000,0.0324,0.013523,0.002678,0.000431,0.002351
113620000,0.0324,0.013523,0.002678,0.000431,0.002351
113621000,0.0324,0.013523,0.002678,0.000431,0.002351
113622000,0.0324,0.013523,0.002678,0.000431,0.002351
113623000,0.0324,0.013523,0.002678,0.000431,0.002468
113624000,0.0324,0.013523,0.002678,0.000431,0.002703
113625000,0.0324,0.013523,0.002678,0.000431,0.002116
113626000,0.0324,0.013523,0.002678,0.000431,0.002586
113627000,0.0324,0.013523,0.002678,0.000431,0.002116
113628000,0.0324,0.013523,0.002678,0.000431,0.002586
113629000,0.0324,0.013523,0.002678,0.000431,0.002703
113630000,0.0324,0.013523,0.002678,0.000431,0.001998
113631000,0.0324,0.013523,0.002678,0.000431,0.002821
113632000,0.0324,0.013523,0.002678,0.000431,0.002116
113633000,0.0324,0.013523,0.002678,0.000431,0.004349
113634000,0.0324,0.013523,0.002678,0.000431,0.001645
113635000,0.0324,0.013523,0.002678,0.000431,0.001410
113636000,0.0324,0.013523,0.002678,0.000431,0.001645
113637000,0.0324,0.013523,0.002678,0.000431,0.001645
113638000,0.0324,0.013523,0.002678,0.000431,0.001645
113639000,0.0324,0.013523,0.002678,0.000431,0.001410
113640000,0.0324,0.013523,0.002678,0.000431,0.073338
113641000,0.0324,0.013523,0.002678,0.000431,0.584115
113642000,0.0324,0.013523,0.002678,0.000431,0.564958
113643000,0.0324,0.013523,0.002678,0.000431,0.145970
113644000,0.0324,0.013523,0.002678,0.000431,0.133394
113645000,0.0324,0.013523,0.002678,0.000431,0.605388
113646000,0.0324,0.013523,0.002678,0.000431,0.261383
113647000,0.0324,0.013523,0.002678,0.000431,0.305103
113648000,0.0324,0.013523,0.002678,0.000431,0.274428
113649000,0.0324,0.013523,0.002678,0.000431,0.152904
113650000,0.0324,0.013523,0.002678,0.000431,0.111769
113651000,0.0324,0.013523,0.002678,0.000431,0.313918
113652000,0.0324,0.013523,0.002678,0.000431,0.349059
113653000,0.0324,0.013523,0.002678,0.000431,0.117528
113654000,0.0324,0.013523,0.002678,0.000431,0.097313
113655000,0.0324,0.013523,0.002678,0.000431,0.072985
113656000,0.0324,0.013523,0.002678,0.000431,0.068049
113657000,0.0324,0.013523,0.002678,0.000431,0.055473
113658000,0.0324,0.013523,0.002678,0.000431,0.054180
113659000,0.0324,0.013523,0.002678,0.000431,0.053475
113660000,0.0324,0.013523,0.002678,0.000431,0.041370
113661000,0.0324,0.013523,0.002678,0.000431,0.033613
113662000,0.0324,0.013523,0.002678,0.000431,0.025856
113663000,0.0324,0.013523,0.002678,0.000431,0.020920
113664000,0.0324,0.013523,0.002678,0.000431,0.025739
113665000,0.0324,0.013523,0.002678,0.000431,0.021978
113666000,0.0324,0.013523,0.002678,0.000431,0.018334
113667000,0.0324,0.013523,0.002678,0.000431,0.018099
113668000,0.0324,0.013523,0.002678,0.000431,0.015279
113669000,0.0324,0.013523,0.002678,0.000431,0.016101
113670000,0.0324,0.013523,0.002678,0.000431,0.014809
113671000,0.0324,0.013523,0.002678,0.000431,0.013516
113672000,0.0324,0.013523,0.002678,0.000431,0.011870
113673000,0.0324,0.013523,0.002678,0.000431,0.011518
113674000,0.0324,0.013523,0.002678,0.000431,0.011870
113675000,0.0324,0.013523,0.002678,0.000431,0.011283
113676000,0.0324,0.013523,0.002678,0.000431,0.013986
113677000,0.0324,0.013523,0.002678,0.000431,0.010930
113678000,0.0324,0.013523,0.002678,0.000431,0.012811
113679000,0.0324,0.013523,0.002678,0.000431,0.010107
113680000,0.0324,0.013523,0.002678,0.000431,0.009637
113681000,0.0324,0.013523,0.002678,0.000431,0.010107
113682000,0.0324,0.013523,0.002678,0.000431,0.010107
113683000,0.0324,0.013523,0.002678,0.000431,0.009167
113684000,0.0324,0.013523,0.002678,0.000431,0.011518
113685000,0.0324,0.013523,0.002678,0.000431,0.007874
113686000,0.0324,0.013523,0.002678,0.000431,0.008109
113687000,0.0324,0.013523,0.002678,0.000431,0.008345
113688000,0.0324,0.013523,0.002678,0.000431,0.008345
113689000,0.0324,0.013523,0.002678,0.000431,0.007992
113690000,0.0324,0.013523,0.002678,0.000431,0.008345
113691000,0.0324,0.013523,0.002678,0.000431,0.008109
113692000,0.0324,0.013523,0.002678,0.000431,0.008462
113693000,0.0324,0.013523,0.002678,0.000431,0.009167
113694000,0.0324,0.013523,0.002678,0.000431,0.005994
113695000,0.0324,0.013523,0.002678,0.000431,0.006111
113696000,0.0324,0.013523,0.002678,0.000431,0.005759
113697000,0.0324,0.013523,0.002678,0.000431,0.007169
113698000,0.0324,0.013523,0.002678,0.000431,0.006111
113699000,0.0324,0.013523,0.002678,0.000431,0.005524
113700000,0.0324,0.013523,0.002678,0.000431,0.006464
113701000,0.0324,0.013523,0.002678,0.000431,0.006464
113702000,0.0324,0.013523,0.002678,0.000431,0.004231
113703000,0.0324,0.013523,0.002678,0.000431,0.004349
113704000,0.0324,0.013523,0.002678,0.000431,0.004113
113705000,0.0324,0.013523,0.002678,0.000431,0.004231
113706000,0.0324,0.013523,0.002678,0.000431,0.004231
113707000,0.0324,0.013523,0.002678,0.000431,0.004349
113708000,0.0324,0.013523,0.002678,0.000431,0.004231
113709000,0.0324,0.013523,0.002678,0.000431,0.004231
113710000,0.0324,0.013523,0.002678,0.000431,0.004231
113711000,0.0324,0.013523,0.002678,0.000431,0.004231
113712000,0.0324,0.013523,0.002678,0.000431,0.004466
113713000,0.0324,0.013523,0.002678,0.000431,0.004113
113714000,0.0324,0.013523,0.002678,0.000431,0.004349
113715000,0.0324,0.013523,0.002678,0.000431,0.004231
113716000,0.0324,0.013523,0.002678,0.000431,0.004113
113717000,0.0324,0.013523,0.002678,0.000431,0.004231
113718000,0.0324,0.013523,0.002678,0.000431,0.004231
113719000,0.0324,0.013523,0.002678,0.000431,0.004231
113720000,0.0324,0.013523,0.002678,0.000431,0.004349
113721000,0.0324,0.013523,0.002678,0.000431,0.004349
113722000,0.0324,0.013523,0.002678,0.000431,0.004231
113723000,0.0324,0.013523,0.002678,0.000431,0.003996
113724000,0.0324,0.013523,0.002678,0.000431,0.004349
113725000,0.0324,0.013523,0.002678,0.000431,0.004231
113726000,0.0324,0.013523,0.002678,0.000431,0.004113
113727000,0.0324,0.013523,0.002678,0.000431,0.004113
113728000,0.0324,0.013523,0.002678,0.000431,0.004584
113729000,0.0324,0.013523,0.002678,0.000431,0.003996
113730000,0.0324,0.013523,0.002678,0.000431,0.004231
113731000,0.0324,0.013523,0.002678,0.000431,0.003996
113732000,0.0324,0.013523,0.002678,0.000431,0.004466
113733000,0.0324,0.013523,0.002678,0.000431,0.004113
113734000,0.0324,0.013523,0.002678,0.000431,0.004231
113735000,0.0324,0.013523,0.002678,0.000431,0.004466
113736000,0.0324,0.013523,0.002678,0.000431,0.003996
113737000,0.0324,0.013523,0.002678,0.000431,0.004231
113738000,0.0324,0.013523,0.002678,0.000431,0.004349
113739000,0.0324,0.013523,0.002678,0.000431,0.004349
113740000,0.0324,0.013523,0.002678,0.000431,0.004466
113741000,0.0324,0.013523,0.002678,0.000431,0.003761
113742000,0.0324,0.013523,0.002678,0.000431,0.004466
113743000,0.0324,0.013523,0.002678,0.000431,0.007169
113744000,0.0324,0.013523,0.002678,0.000431,0.003643
113745000,0.0324,0.013523,0.002678,0.000431,0.003408
113746000,0.0324,0.013523,0.002678,0.000431,0.003291
113747000,0.0324,0.013523,0.002678,0.000431,0.003643
113748000,0.0324,0.013523,0.002678,0.000431,0.003173
113749000,0.0324,0.013523,0.002678,0.000431,0.003526
113750000,0.0324,0.013523,0.002678,0.000431,0.003526
113751000,0.0324,0.013523,0.002678,0.000431,0.003408
113752000,0.0324,0.013523,0.002678,0.000431,0.003408
113753000,0.0324,0.013523,0.002678,0.000431,0.003408
113754000,0.0324,0.013523,0.002678,0.000431,0.003408
113755000,0.0324,0.013523,0.002678,0.000431,0.003526
113756000,0.0324,0.013523,0.002678,0.000431,0.003291
113757000,0.0324,0.013523,0.002678,0.000431,0.003291
113758000,0.0324,0.013523,0.002678,0.000431,0.003408
113759000,0.0324,0.013523,0.002678,0.000431,0.003761
113760000,0.0324,0.013523,0.002678,0.000431,0.003056
113761000,0.0324,0.013523,0.002678,0.000431,0.003526
113762000,0.0324,0.013523,0.002678,0.000431,0.003526
113763000,0.0324,0.013523,0.002678,0.000431,0.003408
113764000,0.0324,0.013523,0.002678,0.000431,0.003173
113765000,0.0324,0.013523,0.002678,0.000431,0.003526
113766000,0.0324,0.013523,0.002678,0.000431,0.003526
113767000,0.0324,0.013523,0.002678,0.000431,0.003408
113768000,0.0324,0.013523,0.002678,0.000431,0.003173
113769000,0.0324,0.013523,0.002678,0.000431,0.003643
113770000,0.0324,0.013523,0.002678,0.000431,0.005406
113771000,0.0324,0.013523,0.002678,0.000431,0.002703
113772000,0.0324,0.013523,0.002678,0.000431,0.002233
113773000,0.0324,0.013523,0.002678,0.000431,0.002703
113774000,0.0324,0.013523,0.002678,0.000431,0.002586
113775000,0.0324,0.013523,0.002678,0.000431,0.002586
113776000,0.0324,0.013523,0.002678,0.000431,0.002351
113777000,0.0324,0.013523,0.002678,0.000431,0.002586
113778000,0.0324,0.013523,0.002678,0.000431,0.002703
113779000,0.0324,0.013523,0.002678,0.000431,0.002351
113780000,0.0324,0.013523,0.002678,0.000431,0.002468
113781000,0.0324,0.013523,0.002678,0.000431,0.002821
113782000,0.0324,0.013523,0.002678,0.000431,0.002586
113783000,0.0324,0.013523,0.002678,0.000431,0.002233
113784000,0.0324,0.013523,0.002678,0.000431,0.002586
113785000,0.0324,0.013523,0.002678,0.000431,0.002703
113786000,0.0324,0.013523,0.002678,0.000431,0.002468
113787000,0.0324,0.013523,0.002678,0.000431,0.002351
113788000,0.0324,0.013523,0.002678,0.000431,0.002703
113789000,0.0324,0.013523,0.002678,0.000431,0.002586
113790000,0.0324,0.013523,0.002678,0.000431,0.002468
113791000,0.0324,0.013523,0.002678,0.000431,0.002468
113792000,0.0324,0.013523,0.002678,0.000431,0.002586
113793000,0.0324,0.013523,0.002678,0.000431,0.002586
113794000,0.0324,0.013523,0.002678,0.000431,0.002703
113795000,0.0324,0.013523,0.002678,0.000431,0.005759
113796000,0.0324,0.013523,0.002678,0.000431,0.000940
113797000,0.0324,0.013523,0.002678,0.000431,0.000940
113798000,0.0324,0.013523,0.002678,0.000431,0.000823
113799000,0.0324,0.013523,0.002678,0.000431,0.000823
113800000,0.0324,0.013523,0.002678,0.000431,0.000940
113801000,0.0324,0.013523,0.002678,0.000431,0.000940
113802000,0.0324,0.013523,0.002678,0.000431,0.000823
113803000,0.0324,0.013523,0.002678,0.000431,0.000823
113804000,0.0324,0.013523,0.002678,0.000431,0.000940
113805000,0.0324,0.013523,0.002678,0.000431,0.000823
113806000,0.0324,0.013523,0.002678,0.000431,0.000940
113807000,0.0324,0.013523,0.002678,0.000431,0.000823
113808000,0.0324,0.013523,0.002678,0.000431,0.000940
113809000,0.0324,0.013523,0.002678,0.000431,0.000823
113810000,0.0324,0.013523,0.002678,0.000431,0.000823
113811000,0.0324,0.013523,0.002678,0.000431,0.000940
113812000,0.0324,0.013523,0.002678,0.000431,0.000940
113813000,0.0324,0.013523,0.002678,0.000431,0.000823
113814000,0.0324,0.013523,0.002678,0.000431,0.000823
113815000,0.0324,0.013523,0.002678,0.000431,0.000940
113816000,0.0324,0.013523,0.002678,0.000431,0.000940
113817000,0.0324,0.013523,0.002678,0.000431,0.000705
113818000,0.0324,0.013523,0.002678,0.000431,0.000940
113819000,0.0324,0.013523,0.002678,0.000431,0.000940
113820000,0.0324,0.013523,0.002678,0.000431,0.000823
113821000,0.0324,0.013523,0.002678,0.000431,0.000940
113822000,0.0324,0.013523,0.002678,0.000431,0.000823
113823000,0.0324,0.013523,0.002678,0.000431,0.000940
113824000,0.0324,0.013523,0.002678,0.000431,0.000823
113825000,0.0324,0.013523,0.002678,0.000431,0.000823
113826000,0.0324,0.013523,0.002678,0.000431,0.000940
113827000,0.0324,0.013523,0.002678,0.000431,0.000940
113828000,0.0324,0.013523,0.002678,0.000431,0.000823
113829000,0.0324,0.013523,0.002678,0.000431,0.000823
113830000,0.0324,0.013523,0.002678,0.000431,0.000940
113831000,0.0324,0.013523,0.002678,0.000431,0.000940
113832000,0.0324,0.013523,0.002678,0.000431,0.000705
113833000,0.0324,0.013523,0.002678,0.000431,0.000940
113834000,0.0324,0.013523,0.002678,0.000431,0.000940
113835000,0.0324,0.013523,0.002678,0.000431,0.000940
113836000,0.0324,0.013523,0.002678,0.000431,0.000705
113837000,0.0324,0.013523,0.002678,0.000431,0.000940
113838000,0.0324,0.013523,0.002678,0.000431,0.000940
113839000,0.0324,0.013523,0.002678,0.000431,0.000823
113840000,0.0324,0.013523,0.002678,0.000431,0.000823
113841000,0.0324,0.013523,0.002678,0.000431,0.000940
113842000,0.0324,0.013523,0.002678,0.000431,0.000940
113843000,0.0324,0.013523,0.002678,0.000431,0.000823
113844000,0.0324,0.013523,0.002678,0.000431,0.000823
113845000,0.0324,0.013523,0.002678,0.000431,0.000940
113846000,0.0324,0.013523,0.002678,0.000431,0.000823
113847000,0.0324,0.013523,0.002678,0.000431,0.000940
113848000,0.0324,0.013523,0.002678,0.000431,0.000823
113849000,0.0324,0.013523,0.002678,0.000431,0.000940
113850000,0.0324,0.013523,0.002678,0.000431,0.000823
113851000,0.0324,0.013523,0.002678,0.000431,0.000823
113852000,0.0324,0.013523,0.002678,0.000431,0.000940
113853000,0.0324,0.013523,0.002678,0.000431,0.000940
113854000,0.0324,0.013523,0.002678,0.000431,0.000940
113855000,0.0324,0.013523,0.002678,0.000431,0.000705
113856000,0.0324,0.013523,0.002678,0.000431,0.000940
113857000,0.0324,0.013523,0.002678,0.000431,0.000940
113858000,0.0324,0.013523,0.002678,0.000431,0.000940
113859000,0.0324,0.013523,0.002678,0.000431,0.000823
113860000,0.0324,0.013523,0.002678,0.000431,0.000940
113861000,0.0324,0.013523,0.002678,0.000431,0.000823
113862000,0.0324,0.013523,0.002678,0.000431,0.000940
113863000,0.0324,0.013523,0.002678,0.000431,0.000823
113864000,0.0324,0.013523,0.002678,0.000431,0.000823
113865000,0.0324,0.013523,0.002678,0.000431,0.000940
113866000,0.0324,0.013523,0.002678,0.000431,0.000940
113867000,0.0324,0.013523,0.002678,0.000431,0.000823
113868000,0.0324,0.013523,0.002678,0.000431,0.000823
113869000,0.0324,0.013523,0.002678,0.000431,0.000940
113870000,0.0324,0.013523,0.002678,0.000431,0.000940
113871000,0.0324,0.013523,0.002678,0.000431,0.000705
113872000,0.0324,0.013523,0.002678,0.000431,0.000940
113873000,0.0324,0.013523,0.002678,0.000431,0.000940
113874000,0.0324,0.013523,0.002678,0.000431,0.000823
113875000,0.0324,0.013523,0.002678,0.000431,0.000940
113876000,0.0324,0.013523,0.002678,0.000431,0.000823
113877000,0.0324,0.013523,0.002678,0.000431,0.000940
113878000,0.0324,0.013523,0.002678,0.000431,0.000823
113879000,0.0324,0.013523,0.002678,0.000431,0.000823
113880000,0.0324,0.013523,0.002678,0.000431,0.000940
113881000,0.0324,0.013523,0.002678,0.000431,0.000940
113882000,0.0324,0.013523,0.002678,0.000431,0.000823
113883000,0.0324,0.013523,0.002678,0.000431,0.000823
113884000,0.0324,0.013523,0.002678,0.000431,0.000940
113885000,0.0324,0.013523,0.002678,0.000431,0.000940
113886000,0.0324,0.013523,0.002678,0.000431,0.000705
113887000,0.0324,0.013523,0.002678,0.000431,0.000940
113888000,0.0324,0.013523,0.002678,0.000431,0.000940
113889000,0.0324,0.013523,0.002678,0.000431,0.000940
113890000,0.0324,0.013523,0.002678,0.000431,0.000705
113891000,0.0324,0.013523,0.002678,0.000431,0.000940
113892000,0.0324,0.013523,0.002678,0.000431,0.000940
113893000,0.0324,0.013523,0.002678,0.000431,0.000823
113894000,0.0324,0.013523,0.002678,0.000431,0.000823
113895000,0.0324,0.013523,0.002678,0.000431,0.000940
113896000,0.0324,0.013523,0.002678,0.000431,0.000940
113897000,0.0324,0.013523,0.002678,0.000431,0.000823
113898000,0.0324,0.013523,0.002678,0.000431,0.000823
113899000,0.0324,0.013523,0.002678,0.000431,0.000940
113900000,0.0324,0.013523,0.002678,0.000431,0.000823
113901000,0.0324,0.013523,0.002678,0.000431,0.000940
113902000,0.0324,0.013523,0.002678,0.000431,0.000823
113903000,0.0324,0.013523,0.002678,0.000431,0.000940
113904000,0.0324,0.013523,0.002678,0.000431,0.000823
113905000,0.0324,0.013523,0.002678,0.000431,0.000823
113906000,0.0324,0.013523,0.002678,0.000431,0.000940
113907000,0.0324,0.013523,0.002678,0.000431,0.000940
113908000,0.0324,0.013523,0.002678,0.000431,0.000940
113909000,0.0324,0.013523,0.002678,0.000431,0.000705
113910000,0.0324,0.013523,0.002678,0.000431,0.000940
113911000,0.0324,0.013523,0.002678,0.000431,0.000940
113912000,0.0324,0.013523,0.002678,0.000431,0.000823
113913000,0.0324,0.013523,0.002678,0.000431,0.000823
113914000,0.0324,0.013523,0.002678,0.000431,0.000940
113915000,0.0324,0.013523,0.002678,0.000431,0.000823
113916000,0.0324,0.013523,0.002678,0.000431,0.000940
113917000,0.0324,0.013523,0.002678,0.000431,0.000823
113918000,0.0324,0.013523,0.002678,0.000431,0.000940
113919000,0.0324,0.013523,0.002678,0.000431,0.000823
113920000,0.0324,0.013523,0.002678,0.000431,0.000823
113921000,0.0324,0.013523,0.002678,0.000431,0.000940
113922000,0.0324,0.013523,0.002678,0.000431,0.000940
113923000,0.0324,0.013523,0.002678,0.000431,0.000823
113924000,0.0324,0.013523,0.002678,0.000431,0.000823
113925000,0.0324,0.013523,0.002678,0.000431,0.000940
113926000,0.0324,0.013523,0.002678,0.000431,0.000940
113927000,0.0324,0.013523,0.002678,0.000431,0.000705
113928000,0.0324,0.013523,0.002678,0.000431,0.000940
113929000,0.0324,0.013523,0.002678,0.000431,0.000940
113930000,0.0324,0.013523,0.002678,0.000431,0.000940
113931000,0.0324,0.013523,0.002678,0.000431,0.000705
113932000,0.0324,0.013523,0.002678,0.000431,0.000940
113933000,0.0324,0.013523,0.002678,0.000431,0.000940
113934000,0.0324,0.013523,0.002678,0.000431,0.000823
113935000,0.0324,0.013523,0.002678,0.000431,0.000940
113936000,0.0324,0.013523,0.002678,0.000431,0.000823
113937000,0.0324,0.013523,0.002678,0.000431,0.000940
113938000,0.0324,0.013523,0.002678,0.000431,0.000823
113939000,0.0324,0.013523,0.002678,0.000431,0.000823
113940000,0.0324,0.013523,0.002678,0.000431,0.000940
113941000,0.0324,0.013523,0.002678,0.000431,0.000940
113942000,0.0324,0.013523,0.002678,0.000431,0.000823
113943000,0.0324,0.013523,0.002678,0.000431,0.000823
113944000,0.0324,0.013523,0.002678,0.000431,0.000940
113945000,0.0324,0.013523,0.002678,0.000431,0.000940
113946000,0.0324,0.013523,0.002678,0.000431,0.000705
113947000,0.0324,0.013523,0.002678,0.000431,0.000940
113948000,0.0324,0.013523,0.002678,0.000431,0.000940
113949000,0.0324,0.013523,0.002678,0.000431,0.000940
113950000,0.0324,0.013523,0.002678,0.000431,0.000705
113951000,0.0324,0.013523,0.002678,0.000431,0.000940
113952000,0.0324,0.013523,0.002678,0.000431,0.000940
113953000,0.0324,0.013523,0.002678,0.000431,0.000823
113954000,0.0324,0.013523,0.002678,0.000431,0.000823
113955000,0.0324,0.013523,0.002678,0.000431,0.000940
113956000,0.0324,0.013523,0.002678,0.000431,0.000823
113957000,0.0324,0.013523,0.002678,0.000431,0.000940
113958000,0.0324,0.013523,0.002678,0.000431,0.000823
113959000,0.0324,0.013523,0.002678,0.000431,0.000940
113960000,0.0324,0.013523,0.002678,0.000431,0.000823
113961000,0.0324,0.013523,0.002678,0.000431,0.000823
113962000,0.0324,0.013523,0.002678,0.000431,0.000940
113963000,0.0324,0.013523,0.002678,0.000431,0.000940
113964000,0.0324,0.013523,0.002678,0.000431,0.000823
113965000,0.0324,0.013523,0.002678,0.000431,0.000823
113966000,0.0324,0.013523,0.002678,0.000431,0.000940
113967000,0.0324,0.013523,0.002678,0.000431,0.000940
113968000,0.0324,0.013523,0.002678,0.000431,0.000823
113969000,0.0324,0.013523,0.002678,0.000431,0.000823
113970000,0.0324,0.013523,0.002678,0.000431,0.000940
113971000,0.0324,0.013523,0.002678,0.000431,0.000940
113972000,0.0324,0.013523,0.002678,0.000431,0.000823
113973000,0.0324,0.013523,0.002678,0.000431,0.000823
113974000,0.0324,0.013523,0.002678,0.000431,0.000940
113975000,0.0324,0.013523,0.002678,0.000431,0.000823
113976000,0.0324,0.013523,0.002678,0.000431,0.000940
113977000,0.0324,0.013523,0.002678,0.000431,0.000823
113978000,0.0324,0.013523,0.002678,0.000431,0.000940
113979000,0.0324,0.013523,0.002678,0.000431,0.000823
113980000,0.0324,0.013523,0.002678,0.000431,0.000823
113981000,0.0324,0.013523,0.002678,0.000431,0.000940
113982000,0.0324,0.013523,0.002678,0.000431,0.000940
113983000,0.0324,0.013523,0.002678,0.000431,0.000823
113984000,0.0324,0.013523,0.002678,0.000431,0.000823
113985000,0.0324,0.013523,0.002678,0.000431,0.000940
113986000,0.0324,0.013523,0.002678,0.000431,0.000940
113987000,0.0324,0.013523,0.002678,0.000431,0.000705
113988000,0.0324,0.013523,0.002678,0.000431,0.000940
113989000,0.0324,0.013523,0.002678,0.000431,0.000940
113990000,0.0324,0.013523,0.002678,0.000431,0.000940
113991000,0.0324,0.013523,0.002678,0.000431,0.000823
113992000,0.0324,0.013523,0.002678,0.000431,0.000823
113993000,0.0324,0.013523,0.002678,0.000431,0.000940
113994000,0.0324,0.013523,0.002678,0.000431,0.000940
113995000,0.0324,0.013523,0.002678,0.000431,0.000823
113996000,0.0324,0.013523,0.002678,0.000431,0.000823
113997000,0.0324,0.013523,0.002678,0.000431,0.000940
113998000,0.0324,0.013523,0.002678,0.000431,0.000940
113999000,0.0324,0.013523,0.002678,0.000431,0.000823
