Cycle,Area(mm^2),PeakDynamic(W),SubthresholdLeakage(W),GateLeakage(W),RunTimeDynamic(W)
135000000,0.0324,0.013523,0.002678,0.000431,0.002468
135001000,0.0324,0.013523,0.002678,0.000431,0.002586
135002000,0.0324,0.013523,0.002678,0.000431,0.002586
135003000,0.0324,0.013523,0.002678,0.000431,0.002586
135004000,0.0324,0.013523,0.002678,0.000431,0.002351
135005000,0.0324,0.013523,0.002678,0.000431,0.002703
135006000,0.0324,0.013523,0.002678,0.000431,0.002703
135007000,0.0324,0.013523,0.002678,0.000431,0.002233
135008000,0.0324,0.013523,0.002678,0.000431,0.002703
135009000,0.0324,0.013523,0.002678,0.000431,0.002586
135010000,0.0324,0.013523,0.002678,0.000431,0.002468
135011000,0.0324,0.013523,0.002678,0.000431,0.002586
135012000,0.0324,0.013523,0.002678,0.000431,0.002586
135013000,0.0324,0.013523,0.002678,0.000431,0.002586
135014000,0.0324,0.013523,0.002678,0.000431,0.002468
135015000,0.0324,0.013523,0.002678,0.000431,0.002586
135016000,0.0324,0.013523,0.002678,0.000431,0.002468
135017000,0.0324,0.013523,0.002678,0.000431,0.002703
135018000,0.0324,0.013523,0.002678,0.000431,0.002586
135019000,0.0324,0.013523,0.002678,0.000431,0.002351
135020000,0.0324,0.013523,0.002678,0.000431,0.002703
135021000,0.0324,0.013523,0.002678,0.000431,0.002468
135022000,0.0324,0.013523,0.002678,0.000431,0.002468
135023000,0.0324,0.013523,0.002678,0.000431,0.002703
135024000,0.0324,0.013523,0.002678,0.000431,0.002468
135025000,0.0324,0.013523,0.002678,0.000431,0.002703
135026000,0.0324,0.013523,0.002678,0.000431,0.002351
135027000,0.0324,0.013523,0.002678,0.000431,0.002703
135028000,0.0324,0.013523,0.002678,0.000431,0.002586
135029000,0.0324,0.013523,0.002678,0.000431,0.002351
135030000,0.0324,0.013523,0.002678,0.000431,0.002586
135031000,0.0324,0.013523,0.002678,0.000431,0.002703
135032000,0.0324,0.013523,0.002678,0.000431,0.002586
135033000,0.0324,0.013523,0.002678,0.000431,0.002468
135034000,0.0324,0.013523,0.002678,0.000431,0.002468
135035000,0.0324,0.013523,0.002678,0.000431,0.002703
135036000,0.0324,0.013523,0.002678,0.000431,0.002468
135037000,0.0324,0.013523,0.002678,0.000431,0.002586
135038000,0.0324,0.013523,0.002678,0.000431,0.002586
135039000,0.0324,0.013523,0.002678,0.000431,0.002468
135040000,0.0324,0.013523,0.002678,0.000431,0.005524
135041000,0.0324,0.013523,0.002678,0.000431,0.001763
135042000,0.0324,0.013523,0.002678,0.000431,0.001645
135043000,0.0324,0.013523,0.002678,0.000431,0.001880
135044000,0.0324,0.013523,0.002678,0.000431,0.001645
135045000,0.0324,0.013523,0.002678,0.000431,0.001645
135046000,0.0324,0.013523,0.002678,0.000431,0.001880
135047000,0.0324,0.013523,0.002678,0.000431,0.001645
135048000,0.0324,0.013523,0.002678,0.000431,0.001763
135049000,0.0324,0.013523,0.002678,0.000431,0.001528
135050000,0.0324,0.013523,0.002678,0.000431,0.001880
135051000,0.0324,0.013523,0.002678,0.000431,0.001645
135052000,0.0324,0.013523,0.002678,0.000431,0.001763
135053000,0.0324,0.013523,0.002678,0.000431,0.001645
135054000,0.0324,0.013523,0.002678,0.000431,0.001763
135055000,0.0324,0.013523,0.002678,0.000431,0.001763
135056000,0.0324,0.013523,0.002678,0.000431,0.001645
135057000,0.0324,0.013523,0.002678,0.000431,0.001763
135058000,0.0324,0.013523,0.002678,0.000431,0.001763
135059000,0.0324,0.013523,0.002678,0.000431,0.001645
135060000,0.0324,0.013523,0.002678,0.000431,0.001645
135061000,0.0324,0.013523,0.002678,0.000431,0.001763
135062000,0.0324,0.013523,0.002678,0.000431,0.001880
135063000,0.0324,0.013523,0.002678,0.000431,0.001410
135064000,0.0324,0.013523,0.002678,0.000431,0.001763
135065000,0.0324,0.013523,0.002678,0.000431,0.001880
135066000,0.0324,0.013523,0.002678,0.000431,0.001763
135067000,0.0324,0.013523,0.002678,0.000431,0.001645
135068000,0.0324,0.013523,0.002678,0.000431,0.001645
135069000,0.0324,0.013523,0.002678,0.000431,0.001645
135070000,0.0324,0.013523,0.002678,0.000431,0.001763
135071000,0.0324,0.013523,0.002678,0.000431,0.001880
135072000,0.0324,0.013523,0.002678,0.000431,0.001528
135073000,0.0324,0.013523,0.002678,0.000431,0.001880
135074000,0.0324,0.013523,0.002678,0.000431,0.001528
135075000,0.0324,0.013523,0.002678,0.000431,0.001763
135076000,0.0324,0.013523,0.002678,0.000431,0.001880
135077000,0.0324,0.013523,0.002678,0.000431,0.001645
135078000,0.0324,0.013523,0.002678,0.000431,0.001763
135079000,0.0324,0.013523,0.002678,0.000431,0.001528
135080000,0.0324,0.013523,0.002678,0.000431,0.001880
135081000,0.0324,0.013523,0.002678,0.000431,0.001763
135082000,0.0324,0.013523,0.002678,0.000431,0.004701
135083000,0.0324,0.013523,0.002678,0.000431,0.000940
135084000,0.0324,0.013523,0.002678,0.000431,0.000940
135085000,0.0324,0.013523,0.002678,0.000431,0.000940
135086000,0.0324,0.013523,0.002678,0.000431,0.000705
135087000,0.0324,0.013523,0.002678,0.000431,0.000940
135088000,0.0324,0.013523,0.002678,0.000431,0.000940
135089000,0.0324,0.013523,0.002678,0.000431,0.000823
135090000,0.0324,0.013523,0.002678,0.000431,0.000823
135091000,0.0324,0.013523,0.002678,0.000431,0.000940
135092000,0.0324,0.013523,0.002678,0.000431,0.000823
135093000,0.0324,0.013523,0.002678,0.000431,0.000940
135094000,0.0324,0.013523,0.002678,0.000431,0.000823
135095000,0.0324,0.013523,0.002678,0.000431,0.000940
135096000,0.0324,0.013523,0.002678,0.000431,0.000823
135097000,0.0324,0.013523,0.002678,0.000431,0.000823
135098000,0.0324,0.013523,0.002678,0.000431,0.000940
135099000,0.0324,0.013523,0.002678,0.000431,0.000940
135100000,0.0324,0.013523,0.002678,0.000431,0.000823
135101000,0.0324,0.013523,0.002678,0.000431,0.000823
135102000,0.0324,0.013523,0.002678,0.000431,0.000940
135103000,0.0324,0.013523,0.002678,0.000431,0.000940
135104000,0.0324,0.013523,0.002678,0.000431,0.000823
135105000,0.0324,0.013523,0.002678,0.000431,0.000823
135106000,0.0324,0.013523,0.002678,0.000431,0.000940
135107000,0.0324,0.013523,0.002678,0.000431,0.000940
135108000,0.0324,0.013523,0.002678,0.000431,0.000823
135109000,0.0324,0.013523,0.002678,0.000431,0.000823
135110000,0.0324,0.013523,0.002678,0.000431,0.000940
135111000,0.0324,0.013523,0.002678,0.000431,0.000823
135112000,0.0324,0.013523,0.002678,0.000431,0.000940
135113000,0.0324,0.013523,0.002678,0.000431,0.000823
135114000,0.0324,0.013523,0.002678,0.000431,0.000940
135115000,0.0324,0.013523,0.002678,0.000431,0.000823
135116000,0.0324,0.013523,0.002678,0.000431,0.000823
135117000,0.0324,0.013523,0.002678,0.000431,0.000940
135118000,0.0324,0.013523,0.002678,0.000431,0.000940
135119000,0.0324,0.013523,0.002678,0.000431,0.000823
135120000,0.0324,0.013523,0.002678,0.000431,0.000823
135121000,0.0324,0.013523,0.002678,0.000431,0.000940
135122000,0.0324,0.013523,0.002678,0.000431,0.000940
135123000,0.0324,0.013523,0.002678,0.000431,0.000705
135124000,0.0324,0.013523,0.002678,0.000431,0.000940
135125000,0.0324,0.013523,0.002678,0.000431,0.000940
135126000,0.0324,0.013523,0.002678,0.000431,0.000940
135127000,0.0324,0.013523,0.002678,0.000431,0.000823
135128000,0.0324,0.013523,0.002678,0.000431,0.000823
135129000,0.0324,0.013523,0.002678,0.000431,0.000940
135130000,0.0324,0.013523,0.002678,0.000431,0.000823
135131000,0.0324,0.013523,0.002678,0.000431,0.000940
135132000,0.0324,0.013523,0.002678,0.000431,0.000823
135133000,0.0324,0.013523,0.002678,0.000431,0.000940
135134000,0.0324,0.013523,0.002678,0.000431,0.000823
135135000,0.0324,0.013523,0.002678,0.000431,0.000823
135136000,0.0324,0.013523,0.002678,0.000431,0.000940
135137000,0.0324,0.013523,0.002678,0.000431,0.000940
135138000,0.0324,0.013523,0.002678,0.000431,0.000705
135139000,0.0324,0.013523,0.002678,0.000431,0.000940
135140000,0.0324,0.013523,0.002678,0.000431,0.000940
135141000,0.0324,0.013523,0.002678,0.000431,0.000940
135142000,0.0324,0.013523,0.002678,0.000431,0.000940
135143000,0.0324,0.013523,0.002678,0.000431,0.000823
135144000,0.0324,0.013523,0.002678,0.000431,0.000823
135145000,0.0324,0.013523,0.002678,0.000431,0.000940
135146000,0.0324,0.013523,0.002678,0.000431,0.000823
135147000,0.0324,0.013523,0.002678,0.000431,0.000940
135148000,0.0324,0.013523,0.002678,0.000431,0.000823
135149000,0.0324,0.013523,0.002678,0.000431,0.000940
135150000,0.0324,0.013523,0.002678,0.000431,0.000823
135151000,0.0324,0.013523,0.002678,0.000431,0.000823
135152000,0.0324,0.013523,0.002678,0.000431,0.000940
135153000,0.0324,0.013523,0.002678,0.000431,0.000940
135154000,0.0324,0.013523,0.002678,0.000431,0.000823
135155000,0.0324,0.013523,0.002678,0.000431,0.000823
135156000,0.0324,0.013523,0.002678,0.000431,0.000940
135157000,0.0324,0.013523,0.002678,0.000431,0.000940
135158000,0.0324,0.013523,0.002678,0.000431,0.000823
135159000,0.0324,0.013523,0.002678,0.000431,0.000823
135160000,0.0324,0.013523,0.002678,0.000431,0.000940
135161000,0.0324,0.013523,0.002678,0.000431,0.000823
135162000,0.0324,0.013523,0.002678,0.000431,0.000940
135163000,0.0324,0.013523,0.002678,0.000431,0.000823
135164000,0.0324,0.013523,0.002678,0.000431,0.000940
135165000,0.0324,0.013523,0.002678,0.000431,0.000823
135166000,0.0324,0.013523,0.002678,0.000431,0.000823
135167000,0.0324,0.013523,0.002678,0.000431,0.000940
135168000,0.0324,0.013523,0.002678,0.000431,0.000940
135169000,0.0324,0.013523,0.002678,0.000431,0.000823
135170000,0.0324,0.013523,0.002678,0.000431,0.000823
135171000,0.0324,0.013523,0.002678,0.000431,0.000940
135172000,0.0324,0.013523,0.002678,0.000431,0.000940
135173000,0.0324,0.013523,0.002678,0.000431,0.000705
135174000,0.0324,0.013523,0.002678,0.000431,0.000940
135175000,0.0324,0.013523,0.002678,0.000431,0.000940
135176000,0.0324,0.013523,0.002678,0.000431,0.000940
135177000,0.0324,0.013523,0.002678,0.000431,0.000705
135178000,0.0324,0.013523,0.002678,0.000431,0.000940
135179000,0.0324,0.013523,0.002678,0.000431,0.000940
135180000,0.0324,0.013523,0.002678,0.000431,0.000823
135181000,0.0324,0.013523,0.002678,0.000431,0.000940
135182000,0.0324,0.013523,0.002678,0.000431,0.000823
135183000,0.0324,0.013523,0.002678,0.000431,0.000940
135184000,0.0324,0.013523,0.002678,0.000431,0.000823
135185000,0.0324,0.013523,0.002678,0.000431,0.000823
135186000,0.0324,0.013523,0.002678,0.000431,0.000940
135187000,0.0324,0.013523,0.002678,0.000431,0.000823
135188000,0.0324,0.013523,0.002678,0.000431,0.000940
135189000,0.0324,0.013523,0.002678,0.000431,0.000823
135190000,0.0324,0.013523,0.002678,0.000431,0.000940
135191000,0.0324,0.013523,0.002678,0.000431,0.000940
135192000,0.0324,0.013523,0.002678,0.000431,0.000705
135193000,0.0324,0.013523,0.002678,0.000431,0.000940
135194000,0.0324,0.013523,0.002678,0.000431,0.000940
135195000,0.0324,0.013523,0.002678,0.000431,0.000940
135196000,0.0324,0.013523,0.002678,0.000431,0.000705
135197000,0.0324,0.013523,0.002678,0.000431,0.000940
135198000,0.0324,0.013523,0.002678,0.000431,0.000940
135199000,0.0324,0.013523,0.002678,0.000431,0.000823
135200000,0.0324,0.013523,0.002678,0.000431,0.000823
135201000,0.0324,0.013523,0.002678,0.000431,0.000940
135202000,0.0324,0.013523,0.002678,0.000431,0.000823
135203000,0.0324,0.013523,0.002678,0.000431,0.000940
135204000,0.0324,0.013523,0.002678,0.000431,0.000823
135205000,0.0324,0.013523,0.002678,0.000431,0.000940
135206000,0.0324,0.013523,0.002678,0.000431,0.000823
135207000,0.0324,0.013523,0.002678,0.000431,0.000823
135208000,0.0324,0.013523,0.002678,0.000431,0.000940
135209000,0.0324,0.013523,0.002678,0.000431,0.000940
135210000,0.0324,0.013523,0.002678,0.000431,0.000823
135211000,0.0324,0.013523,0.002678,0.000431,0.000823
135212000,0.0324,0.013523,0.002678,0.000431,0.000940
135213000,0.0324,0.013523,0.002678,0.000431,0.071575
135214000,0.0324,0.013523,0.002678,0.000431,0.766636
135215000,0.0324,0.013523,0.002678,0.000431,0.549679
135216000,0.0324,0.013523,0.002678,0.000431,0.135863
135217000,0.0324,0.013523,0.002678,0.000431,0.169593
135218000,0.0324,0.013523,0.002678,0.000431,0.605270
135219000,0.0324,0.013523,0.002678,0.000431,0.279835
135220000,0.0324,0.013523,0.002678,0.000431,0.301577
135221000,0.0324,0.013523,0.002678,0.000431,0.153727
135222000,0.0324,0.013523,0.002678,0.000431,0.157488
135223000,0.0324,0.013523,0.002678,0.000431,0.180876
135224000,0.0324,0.013523,0.002678,0.000431,0.515479
135225000,0.0324,0.013523,0.002678,0.000431,0.191101
135226000,0.0324,0.013523,0.002678,0.000431,0.157958
135227000,0.0324,0.013523,0.002678,0.000431,0.135392
135228000,0.0324,0.013523,0.002678,0.000431,0.107421
135229000,0.0324,0.013523,0.002678,0.000431,0.083680
135230000,0.0324,0.013523,0.002678,0.000431,0.062290
135231000,0.0324,0.013523,0.002678,0.000431,0.048304
135232000,0.0324,0.013523,0.002678,0.000431,0.052535
135233000,0.0324,0.013523,0.002678,0.000431,0.047951
135234000,0.0324,0.013523,0.002678,0.000431,0.027737
135235000,0.0324,0.013523,0.002678,0.000431,0.029617
135236000,0.0324,0.013523,0.002678,0.000431,0.025856
135237000,0.0324,0.013523,0.002678,0.000431,0.019862
135238000,0.0324,0.013523,0.002678,0.000431,0.021155
135239000,0.0324,0.013523,0.002678,0.000431,0.019392
135240000,0.0324,0.013523,0.002678,0.000431,0.014456
135241000,0.0324,0.013523,0.002678,0.000431,0.012105
135242000,0.0324,0.013523,0.002678,0.000431,0.012340
135243000,0.0324,0.013523,0.002678,0.000431,0.012105
135244000,0.0324,0.013523,0.002678,0.000431,0.011988
135245000,0.0324,0.013523,0.002678,0.000431,0.014809
135246000,0.0324,0.013523,0.002678,0.000431,0.011988
135247000,0.0324,0.013523,0.002678,0.000431,0.010578
135248000,0.0324,0.013523,0.002678,0.000431,0.008462
135249000,0.0324,0.013523,0.002678,0.000431,0.010813
135250000,0.0324,0.013523,0.002678,0.000431,0.007639
135251000,0.0324,0.013523,0.002678,0.000431,0.008227
135252000,0.0324,0.013523,0.002678,0.000431,0.008462
135253000,0.0324,0.013523,0.002678,0.000431,0.007287
135254000,0.0324,0.013523,0.002678,0.000431,0.008815
135255000,0.0324,0.013523,0.002678,0.000431,0.007169
135256000,0.0324,0.013523,0.002678,0.000431,0.007522
135257000,0.0324,0.013523,0.002678,0.000431,0.007287
135258000,0.0324,0.013523,0.002678,0.000431,0.009872
135259000,0.0324,0.013523,0.002678,0.000431,0.006699
135260000,0.0324,0.013523,0.002678,0.000431,0.010578
135261000,0.0324,0.013523,0.002678,0.000431,0.005524
135262000,0.0324,0.013523,0.002678,0.000431,0.005994
135263000,0.0324,0.013523,0.002678,0.000431,0.005994
135264000,0.0324,0.013523,0.002678,0.000431,0.005171
135265000,0.0324,0.013523,0.002678,0.000431,0.006582
135266000,0.0324,0.013523,0.002678,0.000431,0.005406
135267000,0.0324,0.013523,0.002678,0.000431,0.006347
135268000,0.0324,0.013523,0.002678,0.000431,0.005171
135269000,0.0324,0.013523,0.002678,0.000431,0.005876
135270000,0.0324,0.013523,0.002678,0.000431,0.005994
135271000,0.0324,0.013523,0.002678,0.000431,0.007052
135272000,0.0324,0.013523,0.002678,0.000431,0.004349
135273000,0.0324,0.013523,0.002678,0.000431,0.004584
135274000,0.0324,0.013523,0.002678,0.000431,0.002351
135275000,0.0324,0.013523,0.002678,0.000431,0.002116
135276000,0.0324,0.013523,0.002678,0.000431,0.001998
135277000,0.0324,0.013523,0.002678,0.000431,0.002116
135278000,0.0324,0.013523,0.002678,0.000431,0.001880
135279000,0.0324,0.013523,0.002678,0.000431,0.005054
135280000,0.0324,0.013523,0.002678,0.000431,0.096491
135281000,0.0324,0.013523,0.002678,0.000431,0.755001
135282000,0.0324,0.013523,0.002678,0.000431,0.507957
135283000,0.0324,0.013523,0.002678,0.000431,0.135275
135284000,0.0324,0.013523,0.002678,0.000431,0.161014
135285000,0.0324,0.013523,0.002678,0.000431,0.543803
135286000,0.0324,0.013523,0.002678,0.000431,0.273371
135287000,0.0324,0.013523,0.002678,0.000431,0.311567
135288000,0.0324,0.013523,0.002678,0.000431,0.145500
135289000,0.0324,0.013523,0.002678,0.000431,0.190866
135290000,0.0324,0.013523,0.002678,0.000431,0.085325
135291000,0.0324,0.013523,0.002678,0.000431,0.580942
135292000,0.0324,0.013523,0.002678,0.000431,0.262911
135293000,0.0324,0.013523,0.002678,0.000431,0.190513
135294000,0.0324,0.013523,0.002678,0.000431,0.143619
135295000,0.0324,0.013523,0.002678,0.000431,0.100487
135296000,0.0324,0.013523,0.002678,0.000431,0.070282
135297000,0.0324,0.013523,0.002678,0.000431,0.063230
135298000,0.0324,0.013523,0.002678,0.000431,0.049714
135299000,0.0324,0.013523,0.002678,0.000431,0.039489
135300000,0.0324,0.013523,0.002678,0.000431,0.030087
135301000,0.0324,0.013523,0.002678,0.000431,0.029029
135302000,0.0324,0.013523,0.002678,0.000431,0.031262
135303000,0.0324,0.013523,0.002678,0.000431,0.022683
135304000,0.0324,0.013523,0.002678,0.000431,0.022565
135305000,0.0324,0.013523,0.002678,0.000431,0.022330
135306000,0.0324,0.013523,0.002678,0.000431,0.026914
135307000,0.0324,0.013523,0.002678,0.000431,0.017629
135308000,0.0324,0.013523,0.002678,0.000431,0.015866
135309000,0.0324,0.013523,0.002678,0.000431,0.019040
135310000,0.0324,0.013523,0.002678,0.000431,0.015161
135311000,0.0324,0.013523,0.002678,0.000431,0.012223
135312000,0.0324,0.013523,0.002678,0.000431,0.013398
135313000,0.0324,0.013523,0.002678,0.000431,0.009990
135314000,0.0324,0.013523,0.002678,0.000431,0.011400
135315000,0.0324,0.013523,0.002678,0.000431,0.011518
135316000,0.0324,0.013523,0.002678,0.000431,0.009402
135317000,0.0324,0.013523,0.002678,0.000431,0.009402
135318000,0.0324,0.013523,0.002678,0.000431,0.008932
135319000,0.0324,0.013523,0.002678,0.000431,0.013163
135320000,0.0324,0.013523,0.002678,0.000431,0.008227
135321000,0.0324,0.013523,0.002678,0.000431,0.008815
135322000,0.0324,0.013523,0.002678,0.000431,0.009050
135323000,0.0324,0.013523,0.002678,0.000431,0.012693
135324000,0.0324,0.013523,0.002678,0.000431,0.011165
135325000,0.0324,0.013523,0.002678,0.000431,0.004466
135326000,0.0324,0.013523,0.002678,0.000431,0.003643
135327000,0.0324,0.013523,0.002678,0.000431,0.004701
135328000,0.0324,0.013523,0.002678,0.000431,0.005406
135329000,0.0324,0.013523,0.002678,0.000431,0.005171
135330000,0.0324,0.013523,0.002678,0.000431,0.003291
135331000,0.0324,0.013523,0.002678,0.000431,0.003173
135332000,0.0324,0.013523,0.002678,0.000431,0.003526
135333000,0.0324,0.013523,0.002678,0.000431,0.003291
135334000,0.0324,0.013523,0.002678,0.000431,0.003173
135335000,0.0324,0.013523,0.002678,0.000431,0.003291
135336000,0.0324,0.013523,0.002678,0.000431,0.003408
135337000,0.0324,0.013523,0.002678,0.000431,0.003173
135338000,0.0324,0.013523,0.002678,0.000431,0.003408
135339000,0.0324,0.013523,0.002678,0.000431,0.003291
135340000,0.0324,0.013523,0.002678,0.000431,0.003291
135341000,0.0324,0.013523,0.002678,0.000431,0.003173
135342000,0.0324,0.013523,0.002678,0.000431,0.003291
135343000,0.0324,0.013523,0.002678,0.000431,0.003643
135344000,0.0324,0.013523,0.002678,0.000431,0.004113
135345000,0.0324,0.013523,0.002678,0.000431,0.002586
135346000,0.0324,0.013523,0.002678,0.000431,0.002116
135347000,0.0324,0.013523,0.002678,0.000431,0.002586
135348000,0.0324,0.013523,0.002678,0.000431,0.002821
135349000,0.0324,0.013523,0.002678,0.000431,0.001880
135350000,0.0324,0.013523,0.002678,0.000431,0.002586
135351000,0.0324,0.013523,0.002678,0.000431,0.001998
135352000,0.0324,0.013523,0.002678,0.000431,0.002703
135353000,0.0324,0.013523,0.002678,0.000431,0.005524
135354000,0.0324,0.013523,0.002678,0.000431,0.000823
135355000,0.0324,0.013523,0.002678,0.000431,0.000940
135356000,0.0324,0.013523,0.002678,0.000431,0.000705
135357000,0.0324,0.013523,0.002678,0.000431,0.000940
135358000,0.0324,0.013523,0.002678,0.000431,0.000823
135359000,0.0324,0.013523,0.002678,0.000431,0.000823
135360000,0.0324,0.013523,0.002678,0.000431,0.000823
135361000,0.0324,0.013523,0.002678,0.000431,0.000823
135362000,0.0324,0.013523,0.002678,0.000431,0.001763
135363000,0.0324,0.013523,0.002678,0.000431,0.360576
135364000,0.0324,0.013523,0.002678,0.000431,0.826458
135365000,0.0324,0.013523,0.002678,0.000431,0.273606
135366000,0.0324,0.013523,0.002678,0.000431,0.134922
135367000,0.0324,0.013523,0.002678,0.000431,0.505724
135368000,0.0324,0.013523,0.002678,0.000431,0.347061
135369000,0.0324,0.013523,0.002678,0.000431,0.239170
135370000,0.0324,0.013523,0.002678,0.000431,0.248455
135371000,0.0324,0.013523,0.002678,0.000431,0.147733
135372000,0.0324,0.013523,0.002678,0.000431,0.122934
135373000,0.0324,0.013523,0.002678,0.000431,0.356110
135374000,0.0324,0.013523,0.002678,0.000431,0.406765
135375000,0.0324,0.013523,0.002678,0.000431,0.194744
135376000,0.0324,0.013523,0.002678,0.000431,0.149378
135377000,0.0324,0.013523,0.002678,0.000431,0.121172
135378000,0.0324,0.013523,0.002678,0.000431,0.111299
135379000,0.0324,0.013523,0.002678,0.000431,0.089674
135380000,0.0324,0.013523,0.002678,0.000431,0.073103
135381000,0.0324,0.013523,0.002678,0.000431,0.060762
135382000,0.0324,0.013523,0.002678,0.000431,0.054886
135383000,0.0324,0.013523,0.002678,0.000431,0.049949
135384000,0.0324,0.013523,0.002678,0.000431,0.037491
135385000,0.0324,0.013523,0.002678,0.000431,0.036669
135386000,0.0324,0.013523,0.002678,0.000431,0.031498
135387000,0.0324,0.013523,0.002678,0.000431,0.039489
135388000,0.0324,0.013523,0.002678,0.000431,0.023976
135389000,0.0324,0.013523,0.002678,0.000431,0.022918
135390000,0.0324,0.013523,0.002678,0.000431,0.021743
135391000,0.0324,0.013523,0.002678,0.000431,0.023741
135392000,0.0324,0.013523,0.002678,0.000431,0.021038
135393000,0.0324,0.013523,0.002678,0.000431,0.019980
135394000,0.0324,0.013523,0.002678,0.000431,0.019980
135395000,0.0324,0.013523,0.002678,0.000431,0.021155
135396000,0.0324,0.013523,0.002678,0.000431,0.017629
135397000,0.0324,0.013523,0.002678,0.000431,0.016571
135398000,0.0324,0.013523,0.002678,0.000431,0.017982
135399000,0.0324,0.013523,0.002678,0.000431,0.015749
135400000,0.0324,0.013523,0.002678,0.000431,0.015279
135401000,0.0324,0.013523,0.002678,0.000431,0.016689
135402000,0.0324,0.013523,0.002678,0.000431,0.015396
135403000,0.0324,0.013523,0.002678,0.000431,0.015749
135404000,0.0324,0.013523,0.002678,0.000431,0.014926
135405000,0.0324,0.013523,0.002678,0.000431,0.017394
135406000,0.0324,0.013523,0.002678,0.000431,0.015396
135407000,0.0324,0.013523,0.002678,0.000431,0.013868
135408000,0.0324,0.013523,0.002678,0.000431,0.014691
135409000,0.0324,0.013523,0.002678,0.000431,0.013868
135410000,0.0324,0.013523,0.002678,0.000431,0.014221
135411000,0.0324,0.013523,0.002678,0.000431,0.015044
135412000,0.0324,0.013523,0.002678,0.000431,0.013516
135413000,0.0324,0.013523,0.002678,0.000431,0.020685
135414000,0.0324,0.013523,0.002678,0.000431,0.008462
135415000,0.0324,0.013523,0.002678,0.000431,0.007404
135416000,0.0324,0.013523,0.002678,0.000431,0.008697
135417000,0.0324,0.013523,0.002678,0.000431,0.008227
135418000,0.0324,0.013523,0.002678,0.000431,0.009755
135419000,0.0324,0.013523,0.002678,0.000431,0.006699
135420000,0.0324,0.013523,0.002678,0.000431,0.006111
135421000,0.0324,0.013523,0.002678,0.000431,0.006582
135422000,0.0324,0.013523,0.002678,0.000431,0.006934
135423000,0.0324,0.013523,0.002678,0.000431,0.005994
135424000,0.0324,0.013523,0.002678,0.000431,0.008580
135425000,0.0324,0.013523,0.002678,0.000431,0.005876
135426000,0.0324,0.013523,0.002678,0.000431,0.004701
135427000,0.0324,0.013523,0.002678,0.000431,0.005994
135428000,0.0324,0.013523,0.002678,0.000431,0.005289
135429000,0.0324,0.013523,0.002678,0.000431,0.004701
135430000,0.0324,0.013523,0.002678,0.000431,0.006699
135431000,0.0324,0.013523,0.002678,0.000431,0.005994
135432000,0.0324,0.013523,0.002678,0.000431,0.006347
135433000,0.0324,0.013523,0.002678,0.000431,0.003408
135434000,0.0324,0.013523,0.002678,0.000431,0.002233
135435000,0.0324,0.013523,0.002678,0.000431,0.002586
135436000,0.0324,0.013523,0.002678,0.000431,0.001998
135437000,0.0324,0.013523,0.002678,0.000431,0.001880
135438000,0.0324,0.013523,0.002678,0.000431,0.001645
135439000,0.0324,0.013523,0.002678,0.000431,0.002703
135440000,0.0324,0.013523,0.002678,0.000431,0.001998
135441000,0.0324,0.013523,0.002678,0.000431,0.000823
135442000,0.0324,0.013523,0.002678,0.000431,0.000940
135443000,0.0324,0.013523,0.002678,0.000431,0.000705
135444000,0.0324,0.013523,0.002678,0.000431,0.000940
135445000,0.0324,0.013523,0.002678,0.000431,0.000823
135446000,0.0324,0.013523,0.002678,0.000431,0.000823
135447000,0.0324,0.013523,0.002678,0.000431,0.000823
135448000,0.0324,0.013523,0.002678,0.000431,0.000823
135449000,0.0324,0.013523,0.002678,0.000431,0.000705
135450000,0.0324,0.013523,0.002678,0.000431,0.000940
135451000,0.0324,0.013523,0.002678,0.000431,0.000940
135452000,0.0324,0.013523,0.002678,0.000431,0.000705
135453000,0.0324,0.013523,0.002678,0.000431,0.000940
135454000,0.0324,0.013523,0.002678,0.000431,0.000705
135455000,0.0324,0.013523,0.002678,0.000431,0.000940
135456000,0.0324,0.013523,0.002678,0.000431,0.000940
135457000,0.0324,0.013523,0.002678,0.000431,0.000705
135458000,0.0324,0.013523,0.002678,0.000431,0.000940
135459000,0.0324,0.013523,0.002678,0.000431,0.000705
135460000,0.0324,0.013523,0.002678,0.000431,0.000940
135461000,0.0324,0.013523,0.002678,0.000431,0.000823
135462000,0.0324,0.013523,0.002678,0.000431,0.000823
135463000,0.0324,0.013523,0.002678,0.000431,0.000823
135464000,0.0324,0.013523,0.002678,0.000431,0.000823
135465000,0.0324,0.013523,0.002678,0.000431,0.000940
135466000,0.0324,0.013523,0.002678,0.000431,0.000705
135467000,0.0324,0.013523,0.002678,0.000431,0.000940
135468000,0.0324,0.013523,0.002678,0.000431,0.000823
135469000,0.0324,0.013523,0.002678,0.000431,0.000823
135470000,0.0324,0.013523,0.002678,0.000431,0.000823
135471000,0.0324,0.013523,0.002678,0.000431,0.000823
135472000,0.0324,0.013523,0.002678,0.000431,0.000823
135473000,0.0324,0.013523,0.002678,0.000431,0.000823
135474000,0.0324,0.013523,0.002678,0.000431,0.000823
135475000,0.0324,0.013523,0.002678,0.000431,0.000823
135476000,0.0324,0.013523,0.002678,0.000431,0.000940
135477000,0.0324,0.013523,0.002678,0.000431,0.000823
135478000,0.0324,0.013523,0.002678,0.000431,0.000823
135479000,0.0324,0.013523,0.002678,0.000431,0.000705
135480000,0.0324,0.013523,0.002678,0.000431,0.000940
135481000,0.0324,0.013523,0.002678,0.000431,0.000940
135482000,0.0324,0.013523,0.002678,0.000431,0.000705
135483000,0.0324,0.013523,0.002678,0.000431,0.000940
135484000,0.0324,0.013523,0.002678,0.000431,0.000705
135485000,0.0324,0.013523,0.002678,0.000431,0.000940
135486000,0.0324,0.013523,0.002678,0.000431,0.000823
135487000,0.0324,0.013523,0.002678,0.000431,0.000823
135488000,0.0324,0.013523,0.002678,0.000431,0.000940
135489000,0.0324,0.013523,0.002678,0.000431,0.000705
135490000,0.0324,0.013523,0.002678,0.000431,0.000940
135491000,0.0324,0.013523,0.002678,0.000431,0.000823
135492000,0.0324,0.013523,0.002678,0.000431,0.000823
135493000,0.0324,0.013523,0.002678,0.000431,0.000823
135494000,0.0324,0.013523,0.002678,0.000431,0.000823
135495000,0.0324,0.013523,0.002678,0.000431,0.000823
135496000,0.0324,0.013523,0.002678,0.000431,0.000823
135497000,0.0324,0.013523,0.002678,0.000431,0.000940
135498000,0.0324,0.013523,0.002678,0.000431,0.000823
135499000,0.0324,0.013523,0.002678,0.000431,0.000823
135500000,0.0324,0.013523,0.002678,0.000431,0.000823
135501000,0.0324,0.013523,0.002678,0.000431,0.000823
135502000,0.0324,0.013523,0.002678,0.000431,0.000705
135503000,0.0324,0.013523,0.002678,0.000431,0.000940
135504000,0.0324,0.013523,0.002678,0.000431,0.000940
135505000,0.0324,0.013523,0.002678,0.000431,0.000705
135506000,0.0324,0.013523,0.002678,0.000431,0.000940
135507000,0.0324,0.013523,0.002678,0.000431,0.000705
135508000,0.0324,0.013523,0.002678,0.000431,0.000940
135509000,0.0324,0.013523,0.002678,0.000431,0.000823
135510000,0.0324,0.013523,0.002678,0.000431,0.000823
135511000,0.0324,0.013523,0.002678,0.000431,0.000940
135512000,0.0324,0.013523,0.002678,0.000431,0.000705
135513000,0.0324,0.013523,0.002678,0.000431,0.000940
135514000,0.0324,0.013523,0.002678,0.000431,0.000823
135515000,0.0324,0.013523,0.002678,0.000431,0.000823
135516000,0.0324,0.013523,0.002678,0.000431,0.000823
135517000,0.0324,0.013523,0.002678,0.000431,0.000823
135518000,0.0324,0.013523,0.002678,0.000431,0.000940
135519000,0.0324,0.013523,0.002678,0.000431,0.014691
135520000,0.0324,0.013523,0.002678,0.000431,0.735726
135521000,0.0324,0.013523,0.002678,0.000431,0.573538
135522000,0.0324,0.013523,0.002678,0.000431,0.134570
135523000,0.0324,0.013523,0.002678,0.000431,0.134452
135524000,0.0324,0.013523,0.002678,0.000431,0.558847
135525000,0.0324,0.013523,0.002678,0.000431,0.275369
135526000,0.0324,0.013523,0.002678,0.000431,0.333780
135527000,0.0324,0.013523,0.002678,0.000431,0.198035
135528000,0.0324,0.013523,0.002678,0.000431,0.164657
135529000,0.0324,0.013523,0.002678,0.000431,0.107538
135530000,0.0324,0.013523,0.002678,0.000431,0.527937
135531000,0.0324,0.013523,0.002678,0.000431,0.239757
135532000,0.0324,0.013523,0.002678,0.000431,0.169476
135533000,0.0324,0.013523,0.002678,0.000431,0.131161
135534000,0.0324,0.013523,0.002678,0.000431,0.120701
135535000,0.0324,0.013523,0.002678,0.000431,0.087676
135536000,0.0324,0.013523,0.002678,0.000431,0.077098
135537000,0.0324,0.013523,0.002678,0.000431,0.058882
135538000,0.0324,0.013523,0.002678,0.000431,0.044191
135539000,0.0324,0.013523,0.002678,0.000431,0.045248
135540000,0.0324,0.013523,0.002678,0.000431,0.031380
135541000,0.0324,0.013523,0.002678,0.000431,0.028442
135542000,0.0324,0.013523,0.002678,0.000431,0.026444
135543000,0.0324,0.013523,0.002678,0.000431,0.029500
135544000,0.0324,0.013523,0.002678,0.000431,0.023388
135545000,0.0324,0.013523,0.002678,0.000431,0.023388
135546000,0.0324,0.013523,0.002678,0.000431,0.017277
135547000,0.0324,0.013523,0.002678,0.000431,0.019980
135548000,0.0324,0.013523,0.002678,0.000431,0.017747
135549000,0.0324,0.013523,0.002678,0.000431,0.011988
135550000,0.0324,0.013523,0.002678,0.000431,0.009402
135551000,0.0324,0.013523,0.002678,0.000431,0.013046
135552000,0.0324,0.013523,0.002678,0.000431,0.008932
135553000,0.0324,0.013523,0.002678,0.000431,0.007404
135554000,0.0324,0.013523,0.002678,0.000431,0.007404
135555000,0.0324,0.013523,0.002678,0.000431,0.008462
135556000,0.0324,0.013523,0.002678,0.000431,0.008932
135557000,0.0324,0.013523,0.002678,0.000431,0.007757
135558000,0.0324,0.013523,0.002678,0.000431,0.004936
135559000,0.0324,0.013523,0.002678,0.000431,0.006111
135560000,0.0324,0.013523,0.002678,0.000431,0.006699
135561000,0.0324,0.013523,0.002678,0.000431,0.006347
135562000,0.0324,0.013523,0.002678,0.000431,0.002468
135563000,0.0324,0.013523,0.002678,0.000431,0.007757
135564000,0.0324,0.013523,0.002678,0.000431,0.259385
135565000,0.0324,0.013523,0.002678,0.000431,0.765814
135566000,0.0324,0.013523,0.002678,0.000431,0.375503
135567000,0.0324,0.013523,0.002678,0.000431,0.134805
135568000,0.0324,0.013523,0.002678,0.000431,0.389018
135569000,0.0324,0.013523,0.002678,0.000431,0.412054
135570000,0.0324,0.013523,0.002678,0.000431,0.292293
135571000,0.0324,0.013523,0.002678,0.000431,0.262205
135572000,0.0324,0.013523,0.002678,0.000431,0.153727
135573000,0.0324,0.013523,0.002678,0.000431,0.121407
135574000,0.0324,0.013523,0.002678,0.000431,0.343652
135575000,0.0324,0.013523,0.002678,0.000431,0.405237
135576000,0.0324,0.013523,0.002678,0.000431,0.178525
135577000,0.0324,0.013523,0.002678,0.000431,0.156783
135578000,0.0324,0.013523,0.002678,0.000431,0.125873
135579000,0.0324,0.013523,0.002678,0.000431,0.114355
135580000,0.0324,0.013523,0.002678,0.000431,0.086148
135581000,0.0324,0.013523,0.002678,0.000431,0.066051
135582000,0.0324,0.013523,0.002678,0.000431,0.053593
135583000,0.0324,0.013523,0.002678,0.000431,0.035611
135584000,0.0324,0.013523,0.002678,0.000431,0.037021
135585000,0.0324,0.013523,0.002678,0.000431,0.031968
135586000,0.0324,0.013523,0.002678,0.000431,0.026796
135587000,0.0324,0.013523,0.002678,0.000431,0.024563
135588000,0.0324,0.013523,0.002678,0.000431,0.023388
135589000,0.0324,0.013523,0.002678,0.000431,0.023271
135590000,0.0324,0.013523,0.002678,0.000431,0.026326
135591000,0.0324,0.013523,0.002678,0.000431,0.018687
135592000,0.0324,0.013523,0.002678,0.000431,0.019627
135593000,0.0324,0.013523,0.002678,0.000431,0.019157
135594000,0.0324,0.013523,0.002678,0.000431,0.018922
135595000,0.0324,0.013523,0.002678,0.000431,0.018922
135596000,0.0324,0.013523,0.002678,0.000431,0.018334
135597000,0.0324,0.013523,0.002678,0.000431,0.015631
135598000,0.0324,0.013523,0.002678,0.000431,0.016454
135599000,0.0324,0.013523,0.002678,0.000431,0.015514
135600000,0.0324,0.013523,0.002678,0.000431,0.015279
135601000,0.0324,0.013523,0.002678,0.000431,0.011518
135602000,0.0324,0.013523,0.002678,0.000431,0.014573
135603000,0.0324,0.013523,0.002678,0.000431,0.012340
135604000,0.0324,0.013523,0.002678,0.000431,0.010695
135605000,0.0324,0.013523,0.002678,0.000431,0.009990
135606000,0.0324,0.013523,0.002678,0.000431,0.010107
135607000,0.0324,0.013523,0.002678,0.000431,0.010225
135608000,0.0324,0.013523,0.002678,0.000431,0.009402
135609000,0.0324,0.013523,0.002678,0.000431,0.010342
135610000,0.0324,0.013523,0.002678,0.000431,0.010107
135611000,0.0324,0.013523,0.002678,0.000431,0.010107
135612000,0.0324,0.013523,0.002678,0.000431,0.012223
135613000,0.0324,0.013523,0.002678,0.000431,0.009285
135614000,0.0324,0.013523,0.002678,0.000431,0.009167
135615000,0.0324,0.013523,0.002678,0.000431,0.009520
135616000,0.0324,0.013523,0.002678,0.000431,0.008697
135617000,0.0324,0.013523,0.002678,0.000431,0.009990
135618000,0.0324,0.013523,0.002678,0.000431,0.007052
135619000,0.0324,0.013523,0.002678,0.000431,0.006582
135620000,0.0324,0.013523,0.002678,0.000431,0.006934
135621000,0.0324,0.013523,0.002678,0.000431,0.007522
135622000,0.0324,0.013523,0.002678,0.000431,0.007639
135623000,0.0324,0.013523,0.002678,0.000431,0.005876
135624000,0.0324,0.013523,0.002678,0.000431,0.005524
135625000,0.0324,0.013523,0.002678,0.000431,0.005171
135626000,0.0324,0.013523,0.002678,0.000431,0.005289
135627000,0.0324,0.013523,0.002678,0.000431,0.005054
135628000,0.0324,0.013523,0.002678,0.000431,0.005171
135629000,0.0324,0.013523,0.002678,0.000431,0.005406
135630000,0.0324,0.013523,0.002678,0.000431,0.005289
135631000,0.0324,0.013523,0.002678,0.000431,0.005054
135632000,0.0324,0.013523,0.002678,0.000431,0.005171
135633000,0.0324,0.013523,0.002678,0.000431,0.005524
135634000,0.0324,0.013523,0.002678,0.000431,0.005171
135635000,0.0324,0.013523,0.002678,0.000431,0.004819
135636000,0.0324,0.013523,0.002678,0.000431,0.007992
135637000,0.0324,0.013523,0.002678,0.000431,0.004349
135638000,0.0324,0.013523,0.002678,0.000431,0.006699
135639000,0.0324,0.013523,0.002678,0.000431,0.003291
135640000,0.0324,0.013523,0.002678,0.000431,0.003526
135641000,0.0324,0.013523,0.002678,0.000431,0.003526
135642000,0.0324,0.013523,0.002678,0.000431,0.003056
135643000,0.0324,0.013523,0.002678,0.000431,0.003761
135644000,0.0324,0.013523,0.002678,0.000431,0.005406
135645000,0.0324,0.013523,0.002678,0.000431,0.002468
135646000,0.0324,0.013523,0.002678,0.000431,0.002586
135647000,0.0324,0.013523,0.002678,0.000431,0.002468
135648000,0.0324,0.013523,0.002678,0.000431,0.002821
135649000,0.0324,0.013523,0.002678,0.000431,0.002821
135650000,0.0324,0.013523,0.002678,0.000431,0.002351
135651000,0.0324,0.013523,0.002678,0.000431,0.002703
135652000,0.0324,0.013523,0.002678,0.000431,0.002468
135653000,0.0324,0.013523,0.002678,0.000431,0.002821
135654000,0.0324,0.013523,0.002678,0.000431,0.002351
135655000,0.0324,0.013523,0.002678,0.000431,0.002703
135656000,0.0324,0.013523,0.002678,0.000431,0.002586
135657000,0.0324,0.013523,0.002678,0.000431,0.002586
135658000,0.0324,0.013523,0.002678,0.000431,0.002586
135659000,0.0324,0.013523,0.002678,0.000431,0.002586
135660000,0.0324,0.013523,0.002678,0.000431,0.002703
135661000,0.0324,0.013523,0.002678,0.000431,0.005054
135662000,0.0324,0.013523,0.002678,0.000431,0.001763
135663000,0.0324,0.013523,0.002678,0.000431,0.001645
135664000,0.0324,0.013523,0.002678,0.000431,0.001763
135665000,0.0324,0.013523,0.002678,0.000431,0.001880
135666000,0.0324,0.013523,0.002678,0.000431,0.001528
135667000,0.0324,0.013523,0.002678,0.000431,0.001763
135668000,0.0324,0.013523,0.002678,0.000431,0.001645
135669000,0.0324,0.013523,0.002678,0.000431,0.001645
135670000,0.0324,0.013523,0.002678,0.000431,0.001645
135671000,0.0324,0.013523,0.002678,0.000431,0.001645
135672000,0.0324,0.013523,0.002678,0.000431,0.001880
135673000,0.0324,0.013523,0.002678,0.000431,0.001645
135674000,0.0324,0.013523,0.002678,0.000431,0.001645
135675000,0.0324,0.013523,0.002678,0.000431,0.001645
135676000,0.0324,0.013523,0.002678,0.000431,0.001645
135677000,0.0324,0.013523,0.002678,0.000431,0.001763
135678000,0.0324,0.013523,0.002678,0.000431,0.001645
135679000,0.0324,0.013523,0.002678,0.000431,0.001763
135680000,0.0324,0.013523,0.002678,0.000431,0.001645
135681000,0.0324,0.013523,0.002678,0.000431,0.001880
135682000,0.0324,0.013523,0.002678,0.000431,0.001528
135683000,0.0324,0.013523,0.002678,0.000431,0.001763
135684000,0.0324,0.013523,0.002678,0.000431,0.001763
135685000,0.0324,0.013523,0.002678,0.000431,0.001763
135686000,0.0324,0.013523,0.002678,0.000431,0.001528
135687000,0.0324,0.013523,0.002678,0.000431,0.001763
135688000,0.0324,0.013523,0.002678,0.000431,0.001763
135689000,0.0324,0.013523,0.002678,0.000431,0.002938
135690000,0.0324,0.013523,0.002678,0.000431,0.000823
135691000,0.0324,0.013523,0.002678,0.000431,0.000823
135692000,0.0324,0.013523,0.002678,0.000431,0.000823
135693000,0.0324,0.013523,0.002678,0.000431,0.000940
135694000,0.0324,0.013523,0.002678,0.000431,0.000705
135695000,0.0324,0.013523,0.002678,0.000431,0.000940
135696000,0.0324,0.013523,0.002678,0.000431,0.000823
135697000,0.0324,0.013523,0.002678,0.000431,0.000823
135698000,0.0324,0.013523,0.002678,0.000431,0.000705
135699000,0.0324,0.013523,0.002678,0.000431,0.000940
135700000,0.0324,0.013523,0.002678,0.000431,0.000940
135701000,0.0324,0.013523,0.002678,0.000431,0.000705
135702000,0.0324,0.013523,0.002678,0.000431,0.000940
135703000,0.0324,0.013523,0.002678,0.000431,0.000705
135704000,0.0324,0.013523,0.002678,0.000431,0.000940
135705000,0.0324,0.013523,0.002678,0.000431,0.000823
135706000,0.0324,0.013523,0.002678,0.000431,0.000823
135707000,0.0324,0.013523,0.002678,0.000431,0.000940
135708000,0.0324,0.013523,0.002678,0.000431,0.000705
135709000,0.0324,0.013523,0.002678,0.000431,0.000940
135710000,0.0324,0.013523,0.002678,0.000431,0.000823
135711000,0.0324,0.013523,0.002678,0.000431,0.000823
135712000,0.0324,0.013523,0.002678,0.000431,0.000823
135713000,0.0324,0.013523,0.002678,0.000431,0.000823
135714000,0.0324,0.013523,0.002678,0.000431,0.000940
135715000,0.0324,0.013523,0.002678,0.000431,0.000705
135716000,0.0324,0.013523,0.002678,0.000431,0.000940
135717000,0.0324,0.013523,0.002678,0.000431,0.000823
135718000,0.0324,0.013523,0.002678,0.000431,0.000823
135719000,0.0324,0.013523,0.002678,0.000431,0.000823
135720000,0.0324,0.013523,0.002678,0.000431,0.000823
135721000,0.0324,0.013523,0.002678,0.000431,0.000823
135722000,0.0324,0.013523,0.002678,0.000431,0.000823
135723000,0.0324,0.013523,0.002678,0.000431,0.000823
135724000,0.0324,0.013523,0.002678,0.000431,0.000823
135725000,0.0324,0.013523,0.002678,0.000431,0.000940
135726000,0.0324,0.013523,0.002678,0.000431,0.000823
135727000,0.0324,0.013523,0.002678,0.000431,0.000823
135728000,0.0324,0.013523,0.002678,0.000431,0.000705
135729000,0.0324,0.013523,0.002678,0.000431,0.000940
135730000,0.0324,0.013523,0.002678,0.000431,0.000940
135731000,0.0324,0.013523,0.002678,0.000431,0.000705
135732000,0.0324,0.013523,0.002678,0.000431,0.000940
135733000,0.0324,0.013523,0.002678,0.000431,0.000705
135734000,0.0324,0.013523,0.002678,0.000431,0.000940
135735000,0.0324,0.013523,0.002678,0.000431,0.000823
135736000,0.0324,0.013523,0.002678,0.000431,0.000823
135737000,0.0324,0.013523,0.002678,0.000431,0.000940
135738000,0.0324,0.013523,0.002678,0.000431,0.000705
135739000,0.0324,0.013523,0.002678,0.000431,0.000940
135740000,0.0324,0.013523,0.002678,0.000431,0.000823
135741000,0.0324,0.013523,0.002678,0.000431,0.000823
135742000,0.0324,0.013523,0.002678,0.000431,0.000823
135743000,0.0324,0.013523,0.002678,0.000431,0.000823
135744000,0.0324,0.013523,0.002678,0.000431,0.000823
135745000,0.0324,0.013523,0.002678,0.000431,0.000823
135746000,0.0324,0.013523,0.002678,0.000431,0.000940
135747000,0.0324,0.013523,0.002678,0.000431,0.000823
135748000,0.0324,0.013523,0.002678,0.000431,0.000823
135749000,0.0324,0.013523,0.002678,0.000431,0.000823
135750000,0.0324,0.013523,0.002678,0.000431,0.000823
135751000,0.0324,0.013523,0.002678,0.000431,0.000705
135752000,0.0324,0.013523,0.002678,0.000431,0.000940
135753000,0.0324,0.013523,0.002678,0.000431,0.000823
135754000,0.0324,0.013523,0.002678,0.000431,0.000823
135755000,0.0324,0.013523,0.002678,0.000431,0.000823
135756000,0.0324,0.013523,0.002678,0.000431,0.000823
135757000,0.0324,0.013523,0.002678,0.000431,0.000705
135758000,0.0324,0.013523,0.002678,0.000431,0.000940
135759000,0.0324,0.013523,0.002678,0.000431,0.000940
135760000,0.0324,0.013523,0.002678,0.000431,0.000705
135761000,0.0324,0.013523,0.002678,0.000431,0.000940
135762000,0.0324,0.013523,0.002678,0.000431,0.000705
135763000,0.0324,0.013523,0.002678,0.000431,0.000940
135764000,0.0324,0.013523,0.002678,0.000431,0.000705
135765000,0.0324,0.013523,0.002678,0.000431,0.000940
135766000,0.0324,0.013523,0.002678,0.000431,0.000705
135767000,0.0324,0.013523,0.002678,0.000431,0.000940
135768000,0.0324,0.013523,0.002678,0.000431,0.000823
135769000,0.0324,0.013523,0.002678,0.000431,0.000823
135770000,0.0324,0.013523,0.002678,0.000431,0.000705
135771000,0.0324,0.013523,0.002678,0.000431,0.000940
135772000,0.0324,0.013523,0.002678,0.000431,0.000940
135773000,0.0324,0.013523,0.002678,0.000431,0.000705
135774000,0.0324,0.013523,0.002678,0.000431,0.000940
135775000,0.0324,0.013523,0.002678,0.000431,0.000705
135776000,0.0324,0.013523,0.002678,0.000431,0.000940
135777000,0.0324,0.013523,0.002678,0.000431,0.000823
135778000,0.0324,0.013523,0.002678,0.000431,0.000823
135779000,0.0324,0.013523,0.002678,0.000431,0.000940
135780000,0.0324,0.013523,0.002678,0.000431,0.000705
135781000,0.0324,0.013523,0.002678,0.000431,0.000940
135782000,0.0324,0.013523,0.002678,0.000431,0.000823
135783000,0.0324,0.013523,0.002678,0.000431,0.000823
135784000,0.0324,0.013523,0.002678,0.000431,0.000823
135785000,0.0324,0.013523,0.002678,0.000431,0.000823
135786000,0.0324,0.013523,0.002678,0.000431,0.000823
135787000,0.0324,0.013523,0.002678,0.000431,0.000823
135788000,0.0324,0.013523,0.002678,0.000431,0.000940
135789000,0.0324,0.013523,0.002678,0.000431,0.000705
135790000,0.0324,0.013523,0.002678,0.000431,0.000823
135791000,0.0324,0.013523,0.002678,0.000431,0.000940
135792000,0.0324,0.013523,0.002678,0.000431,0.000823
135793000,0.0324,0.013523,0.002678,0.000431,0.000823
135794000,0.0324,0.013523,0.002678,0.000431,0.000823
135795000,0.0324,0.013523,0.002678,0.000431,0.000705
135796000,0.0324,0.013523,0.002678,0.000431,0.000940
135797000,0.0324,0.013523,0.002678,0.000431,0.000940
135798000,0.0324,0.013523,0.002678,0.000431,0.000823
135799000,0.0324,0.013523,0.002678,0.000431,0.000823
135800000,0.0324,0.013523,0.002678,0.000431,0.000705
135801000,0.0324,0.013523,0.002678,0.000431,0.000940
135802000,0.0324,0.013523,0.002678,0.000431,0.000940
135803000,0.0324,0.013523,0.002678,0.000431,0.000705
135804000,0.0324,0.013523,0.002678,0.000431,0.000940
135805000,0.0324,0.013523,0.002678,0.000431,0.000705
135806000,0.0324,0.013523,0.002678,0.000431,0.000940
135807000,0.0324,0.013523,0.002678,0.000431,0.000823
135808000,0.0324,0.013523,0.002678,0.000431,0.000823
135809000,0.0324,0.013523,0.002678,0.000431,0.000823
135810000,0.0324,0.013523,0.002678,0.000431,0.000823
135811000,0.0324,0.013523,0.002678,0.000431,0.000940
135812000,0.0324,0.013523,0.002678,0.000431,0.000705
135813000,0.0324,0.013523,0.002678,0.000431,0.000940
135814000,0.0324,0.013523,0.002678,0.000431,0.000823
135815000,0.0324,0.013523,0.002678,0.000431,0.000823
135816000,0.0324,0.013523,0.002678,0.000431,0.000823
135817000,0.0324,0.013523,0.002678,0.000431,0.000823
135818000,0.0324,0.013523,0.002678,0.000431,0.000940
135819000,0.0324,0.013523,0.002678,0.000431,0.000705
135820000,0.0324,0.013523,0.002678,0.000431,0.000940
135821000,0.0324,0.013523,0.002678,0.000431,0.000705
135822000,0.0324,0.013523,0.002678,0.000431,0.000940
135823000,0.0324,0.013523,0.002678,0.000431,0.000705
135824000,0.0324,0.013523,0.002678,0.000431,0.000940
135825000,0.0324,0.013523,0.002678,0.000431,0.000940
135826000,0.0324,0.013523,0.002678,0.000431,0.000705
135827000,0.0324,0.013523,0.002678,0.000431,0.000940
135828000,0.0324,0.013523,0.002678,0.000431,0.000705
135829000,0.0324,0.013523,0.002678,0.000431,0.000940
135830000,0.0324,0.013523,0.002678,0.000431,0.000823
135831000,0.0324,0.013523,0.002678,0.000431,0.000823
135832000,0.0324,0.013523,0.002678,0.000431,0.000823
135833000,0.0324,0.013523,0.002678,0.000431,0.000823
135834000,0.0324,0.013523,0.002678,0.000431,0.000940
135835000,0.0324,0.013523,0.002678,0.000431,0.000705
135836000,0.0324,0.013523,0.002678,0.000431,0.000940
135837000,0.0324,0.013523,0.002678,0.000431,0.000823
135838000,0.0324,0.013523,0.002678,0.000431,0.000823
135839000,0.0324,0.013523,0.002678,0.000431,0.000823
135840000,0.0324,0.013523,0.002678,0.000431,0.000823
135841000,0.0324,0.013523,0.002678,0.000431,0.000823
135842000,0.0324,0.013523,0.002678,0.000431,0.000823
135843000,0.0324,0.013523,0.002678,0.000431,0.000823
135844000,0.0324,0.013523,0.002678,0.000431,0.000823
135845000,0.0324,0.013523,0.002678,0.000431,0.000940
135846000,0.0324,0.013523,0.002678,0.000431,0.000823
135847000,0.0324,0.013523,0.002678,0.000431,0.000823
135848000,0.0324,0.013523,0.002678,0.000431,0.000705
135849000,0.0324,0.013523,0.002678,0.000431,0.000940
135850000,0.0324,0.013523,0.002678,0.000431,0.000940
135851000,0.0324,0.013523,0.002678,0.000431,0.000705
135852000,0.0324,0.013523,0.002678,0.000431,0.000940
135853000,0.0324,0.013523,0.002678,0.000431,0.000705
135854000,0.0324,0.013523,0.002678,0.000431,0.000940
135855000,0.0324,0.013523,0.002678,0.000431,0.000823
135856000,0.0324,0.013523,0.002678,0.000431,0.000823
135857000,0.0324,0.013523,0.002678,0.000431,0.000940
135858000,0.0324,0.013523,0.002678,0.000431,0.000705
135859000,0.0324,0.013523,0.002678,0.000431,0.000940
135860000,0.0324,0.013523,0.002678,0.000431,0.000823
135861000,0.0324,0.013523,0.002678,0.000431,0.000823
135862000,0.0324,0.013523,0.002678,0.000431,0.000823
135863000,0.0324,0.013523,0.002678,0.000431,0.000823
135864000,0.0324,0.013523,0.002678,0.000431,0.000940
135865000,0.0324,0.013523,0.002678,0.000431,0.000705
135866000,0.0324,0.013523,0.002678,0.000431,0.000940
135867000,0.0324,0.013523,0.002678,0.000431,0.000823
135868000,0.0324,0.013523,0.002678,0.000431,0.013516
135869000,0.0324,0.013523,0.002678,0.000431,0.671203
135870000,0.0324,0.013523,0.002678,0.000431,0.630656
135871000,0.0324,0.013523,0.002678,0.000431,0.134922
135872000,0.0324,0.013523,0.002678,0.000431,0.135040
135873000,0.0324,0.013523,0.002678,0.000431,0.595515
135874000,0.0324,0.013523,0.002678,0.000431,0.238230
135875000,0.0324,0.013523,0.002678,0.000431,0.316974
135876000,0.0324,0.013523,0.002678,0.000431,0.221423
135877000,0.0324,0.013523,0.002678,0.000431,0.160308
135878000,0.0324,0.013523,0.002678,0.000431,0.101427
135879000,0.0324,0.013523,0.002678,0.000431,0.496674
135880000,0.0324,0.013523,0.002678,0.000431,0.245516
135881000,0.0324,0.013523,0.002678,0.000431,0.153727
135882000,0.0324,0.013523,0.002678,0.000431,0.133394
135883000,0.0324,0.013523,0.002678,0.000431,0.110594
135884000,0.0324,0.013523,0.002678,0.000431,0.084738
135885000,0.0324,0.013523,0.002678,0.000431,0.078979
135886000,0.0324,0.013523,0.002678,0.000431,0.067344
135887000,0.0324,0.013523,0.002678,0.000431,0.047011
135888000,0.0324,0.013523,0.002678,0.000431,0.046776
135889000,0.0324,0.013523,0.002678,0.000431,0.032085
135890000,0.0324,0.013523,0.002678,0.000431,0.026679
135891000,0.0324,0.013523,0.002678,0.000431,0.022683
135892000,0.0324,0.013523,0.002678,0.000431,0.025151
135893000,0.0324,0.013523,0.002678,0.000431,0.022918
135894000,0.0324,0.013523,0.002678,0.000431,0.015984
135895000,0.0324,0.013523,0.002678,0.000431,0.010342
135896000,0.0324,0.013523,0.002678,0.000431,0.009755
135897000,0.0324,0.013523,0.002678,0.000431,0.009872
135898000,0.0324,0.013523,0.002678,0.000431,0.009755
135899000,0.0324,0.013523,0.002678,0.000431,0.010930
135900000,0.0324,0.013523,0.002678,0.000431,0.009285
135901000,0.0324,0.013523,0.002678,0.000431,0.010107
135902000,0.0324,0.013523,0.002678,0.000431,0.010107
135903000,0.0324,0.013523,0.002678,0.000431,0.009990
135904000,0.0324,0.013523,0.002678,0.000431,0.010107
135905000,0.0324,0.013523,0.002678,0.000431,0.009755
135906000,0.0324,0.013523,0.002678,0.000431,0.010225
135907000,0.0324,0.013523,0.002678,0.000431,0.009990
135908000,0.0324,0.013523,0.002678,0.000431,0.009637
135909000,0.0324,0.013523,0.002678,0.000431,0.010695
135910000,0.0324,0.013523,0.002678,0.000431,0.009755
135911000,0.0324,0.013523,0.002678,0.000431,0.012928
135912000,0.0324,0.013523,0.002678,0.000431,0.009637
135913000,0.0324,0.013523,0.002678,0.000431,0.010225
135914000,0.0324,0.013523,0.002678,0.000431,0.006111
135915000,0.0324,0.013523,0.002678,0.000431,0.006699
135916000,0.0324,0.013523,0.002678,0.000431,0.006699
135917000,0.0324,0.013523,0.002678,0.000431,0.006817
135918000,0.0324,0.013523,0.002678,0.000431,0.007052
135919000,0.0324,0.013523,0.002678,0.000431,0.005289
135920000,0.0324,0.013523,0.002678,0.000431,0.004701
135921000,0.0324,0.013523,0.002678,0.000431,0.005171
135922000,0.0324,0.013523,0.002678,0.000431,0.005054
135923000,0.0324,0.013523,0.002678,0.000431,0.004819
135924000,0.0324,0.013523,0.002678,0.000431,0.006111
135925000,0.0324,0.013523,0.002678,0.000431,0.003291
135926000,0.0324,0.013523,0.002678,0.000431,0.003291
135927000,0.0324,0.013523,0.002678,0.000431,0.002938
135928000,0.0324,0.013523,0.002678,0.000431,0.002821
135929000,0.0324,0.013523,0.002678,0.000431,0.002468
135930000,0.0324,0.013523,0.002678,0.000431,0.002703
135931000,0.0324,0.013523,0.002678,0.000431,0.004231
135932000,0.0324,0.013523,0.002678,0.000431,0.002586
135933000,0.0324,0.013523,0.002678,0.000431,0.001763
135934000,0.0324,0.013523,0.002678,0.000431,0.001645
135935000,0.0324,0.013523,0.002678,0.000431,0.001645
135936000,0.0324,0.013523,0.002678,0.000431,0.001763
135937000,0.0324,0.013523,0.002678,0.000431,0.001528
135938000,0.0324,0.013523,0.002678,0.000431,0.001645
135939000,0.0324,0.013523,0.002678,0.000431,0.003408
135940000,0.0324,0.013523,0.002678,0.000431,0.000940
135941000,0.0324,0.013523,0.002678,0.000431,0.000823
135942000,0.0324,0.013523,0.002678,0.000431,0.000823
135943000,0.0324,0.013523,0.002678,0.000431,0.000823
135944000,0.0324,0.013523,0.002678,0.000431,0.000823
135945000,0.0324,0.013523,0.002678,0.000431,0.000705
135946000,0.0324,0.013523,0.002678,0.000431,0.000940
135947000,0.0324,0.013523,0.002678,0.000431,0.000823
135948000,0.0324,0.013523,0.002678,0.000431,0.000823
135949000,0.0324,0.013523,0.002678,0.000431,0.000940
135950000,0.0324,0.013523,0.002678,0.000431,0.003056
135951000,0.0324,0.013523,0.002678,0.000431,0.584233
135952000,0.0324,0.013523,0.002678,0.000431,0.677197
135953000,0.0324,0.013523,0.002678,0.000431,0.138096
135954000,0.0324,0.013523,0.002678,0.000431,0.135980
135955000,0.0324,0.013523,0.002678,0.000431,0.538632
135956000,0.0324,0.013523,0.002678,0.000431,0.233528
135957000,0.0324,0.013523,0.002678,0.000431,0.363280
135958000,0.0324,0.013523,0.002678,0.000431,0.235526
135959000,0.0324,0.013523,0.002678,0.000431,0.151964
135960000,0.0324,0.013523,0.002678,0.000431,0.111769
135961000,0.0324,0.013523,0.002678,0.000431,0.438380
135962000,0.0324,0.013523,0.002678,0.000431,0.274076
135963000,0.0324,0.013523,0.002678,0.000431,0.147145
135964000,0.0324,0.013523,0.002678,0.000431,0.123640
135965000,0.0324,0.013523,0.002678,0.000431,0.113415
135966000,0.0324,0.013523,0.002678,0.000431,0.071927
135967000,0.0324,0.013523,0.002678,0.000431,0.060292
135968000,0.0324,0.013523,0.002678,0.000431,0.053945
135969000,0.0324,0.013523,0.002678,0.000431,0.048187
135970000,0.0324,0.013523,0.002678,0.000431,0.033731
135971000,0.0324,0.013523,0.002678,0.000431,0.030910
135972000,0.0324,0.013523,0.002678,0.000431,0.030087
135973000,0.0324,0.013523,0.002678,0.000431,0.025151
135974000,0.0324,0.013523,0.002678,0.000431,0.030792
135975000,0.0324,0.013523,0.002678,0.000431,0.027502
135976000,0.0324,0.013523,0.002678,0.000431,0.024916
135977000,0.0324,0.013523,0.002678,0.000431,0.020450
135978000,0.0324,0.013523,0.002678,0.000431,0.017864
135979000,0.0324,0.013523,0.002678,0.000431,0.017629
135980000,0.0324,0.013523,0.002678,0.000431,0.018099
135981000,0.0324,0.013523,0.002678,0.000431,0.013986
135982000,0.0324,0.013523,0.002678,0.000431,0.011165
135983000,0.0324,0.013523,0.002678,0.000431,0.011518
135984000,0.0324,0.013523,0.002678,0.000431,0.010695
135985000,0.0324,0.013523,0.002678,0.000431,0.011753
135986000,0.0324,0.013523,0.002678,0.000431,0.010578
135987000,0.0324,0.013523,0.002678,0.000431,0.010578
135988000,0.0324,0.013523,0.002678,0.000431,0.014691
135989000,0.0324,0.013523,0.002678,0.000431,0.009872
135990000,0.0324,0.013523,0.002678,0.000431,0.009990
135991000,0.0324,0.013523,0.002678,0.000431,0.009755
135992000,0.0324,0.013523,0.002678,0.000431,0.011400
135993000,0.0324,0.013523,0.002678,0.000431,0.009637
135994000,0.0324,0.013523,0.002678,0.000431,0.009520
135995000,0.0324,0.013523,0.002678,0.000431,0.009402
135996000,0.0324,0.013523,0.002678,0.000431,0.006699
135997000,0.0324,0.013523,0.002678,0.000431,0.008109
135998000,0.0324,0.013523,0.002678,0.000431,0.006934
135999000,0.0324,0.013523,0.002678,0.000431,0.005994
