Cycle,Area(mm^2),PeakDynamic(W),SubthresholdLeakage(W),GateLeakage(W),RunTimeDynamic(W)
94000000,0.0324,0.013523,0.002678,0.000431,0.004113
94001000,0.0324,0.013523,0.002678,0.000431,0.003878
94002000,0.0324,0.013523,0.002678,0.000431,0.003643
94003000,0.0324,0.013523,0.002678,0.000431,0.004701
94004000,0.0324,0.013523,0.002678,0.000431,0.003878
94005000,0.0324,0.013523,0.002678,0.000431,0.003878
94006000,0.0324,0.013523,0.002678,0.000431,0.004113
94007000,0.0324,0.013523,0.002678,0.000431,0.004113
94008000,0.0324,0.013523,0.002678,0.000431,0.004113
94009000,0.0324,0.013523,0.002678,0.000431,0.003878
94010000,0.0324,0.013523,0.002678,0.000431,0.004113
94011000,0.0324,0.013523,0.002678,0.000431,0.004113
94012000,0.0324,0.013523,0.002678,0.000431,0.005289
94013000,0.0324,0.013523,0.002678,0.000431,0.003408
94014000,0.0324,0.013523,0.002678,0.000431,0.003291
94015000,0.0324,0.013523,0.002678,0.000431,0.003173
94016000,0.0324,0.013523,0.002678,0.000431,0.002938
94017000,0.0324,0.013523,0.002678,0.000431,0.003408
94018000,0.0324,0.013523,0.002678,0.000431,0.003173
94019000,0.0324,0.013523,0.002678,0.000431,0.003056
94020000,0.0324,0.013523,0.002678,0.000431,0.003761
94021000,0.0324,0.013523,0.002678,0.000431,0.002821
94022000,0.0324,0.013523,0.002678,0.000431,0.003173
94023000,0.0324,0.013523,0.002678,0.000431,0.003291
94024000,0.0324,0.013523,0.002678,0.000431,0.003291
94025000,0.0324,0.013523,0.002678,0.000431,0.003173
94026000,0.0324,0.013523,0.002678,0.000431,0.002586
94027000,0.0324,0.013523,0.002678,0.000431,0.002468
94028000,0.0324,0.013523,0.002678,0.000431,0.002468
94029000,0.0324,0.013523,0.002678,0.000431,0.002821
94030000,0.0324,0.013523,0.002678,0.000431,0.002468
94031000,0.0324,0.013523,0.002678,0.000431,0.002586
94032000,0.0324,0.013523,0.002678,0.000431,0.002233
94033000,0.0324,0.013523,0.002678,0.000431,0.002821
94034000,0.0324,0.013523,0.002678,0.000431,0.002703
94035000,0.0324,0.013523,0.002678,0.000431,0.002233
94036000,0.0324,0.013523,0.002678,0.000431,0.002821
94037000,0.0324,0.013523,0.002678,0.000431,0.002233
94038000,0.0324,0.013523,0.002678,0.000431,0.002703
94039000,0.0324,0.013523,0.002678,0.000431,0.002468
94040000,0.0324,0.013523,0.002678,0.000431,0.004349
94041000,0.0324,0.013523,0.002678,0.000431,0.001880
94042000,0.0324,0.013523,0.002678,0.000431,0.001645
94043000,0.0324,0.013523,0.002678,0.000431,0.003291
94044000,0.0324,0.013523,0.002678,0.000431,0.000705
94045000,0.0324,0.013523,0.002678,0.000431,0.000940
94046000,0.0324,0.013523,0.002678,0.000431,0.000823
94047000,0.0324,0.013523,0.002678,0.000431,0.000705
94048000,0.0324,0.013523,0.002678,0.000431,0.000940
94049000,0.0324,0.013523,0.002678,0.000431,0.000823
94050000,0.0324,0.013523,0.002678,0.000431,0.000823
94051000,0.0324,0.013523,0.002678,0.000431,0.000823
94052000,0.0324,0.013523,0.002678,0.000431,0.000823
94053000,0.0324,0.013523,0.002678,0.000431,0.000823
94054000,0.0324,0.013523,0.002678,0.000431,0.000940
94055000,0.0324,0.013523,0.002678,0.000431,0.000705
94056000,0.0324,0.013523,0.002678,0.000431,0.000940
94057000,0.0324,0.013523,0.002678,0.000431,0.000705
94058000,0.0324,0.013523,0.002678,0.000431,0.000940
94059000,0.0324,0.013523,0.002678,0.000431,0.000940
94060000,0.0324,0.013523,0.002678,0.000431,0.000705
94061000,0.0324,0.013523,0.002678,0.000431,0.000940
94062000,0.0324,0.013523,0.002678,0.000431,0.000705
94063000,0.0324,0.013523,0.002678,0.000431,0.000940
94064000,0.0324,0.013523,0.002678,0.000431,0.000823
94065000,0.0324,0.013523,0.002678,0.000431,0.000823
94066000,0.0324,0.013523,0.002678,0.000431,0.000823
94067000,0.0324,0.013523,0.002678,0.000431,0.000823
94068000,0.0324,0.013523,0.002678,0.000431,0.000940
94069000,0.0324,0.013523,0.002678,0.000431,0.000705
94070000,0.0324,0.013523,0.002678,0.000431,0.000940
94071000,0.0324,0.013523,0.002678,0.000431,0.000823
94072000,0.0324,0.013523,0.002678,0.000431,0.000823
94073000,0.0324,0.013523,0.002678,0.000431,0.000823
94074000,0.0324,0.013523,0.002678,0.000431,0.000823
94075000,0.0324,0.013523,0.002678,0.000431,0.000823
94076000,0.0324,0.013523,0.002678,0.000431,0.000823
94077000,0.0324,0.013523,0.002678,0.000431,0.000940
94078000,0.0324,0.013523,0.002678,0.000431,0.000823
94079000,0.0324,0.013523,0.002678,0.000431,0.000823
94080000,0.0324,0.013523,0.002678,0.000431,0.000705
94081000,0.0324,0.013523,0.002678,0.000431,0.000940
94082000,0.0324,0.013523,0.002678,0.000431,0.000940
94083000,0.0324,0.013523,0.002678,0.000431,0.000705
94084000,0.0324,0.013523,0.002678,0.000431,0.000940
94085000,0.0324,0.013523,0.002678,0.000431,0.000705
94086000,0.0324,0.013523,0.002678,0.000431,0.000940
94087000,0.0324,0.013523,0.002678,0.000431,0.000823
94088000,0.0324,0.013523,0.002678,0.000431,0.000823
94089000,0.0324,0.013523,0.002678,0.000431,0.000823
94090000,0.0324,0.013523,0.002678,0.000431,0.000823
94091000,0.0324,0.013523,0.002678,0.000431,0.000940
94092000,0.0324,0.013523,0.002678,0.000431,0.000823
94093000,0.0324,0.013523,0.002678,0.000431,0.000823
94094000,0.0324,0.013523,0.002678,0.000431,0.002468
94095000,0.0324,0.013523,0.002678,0.000431,0.342595
94096000,0.0324,0.013523,0.002678,0.000431,0.683661
94097000,0.0324,0.013523,0.002678,0.000431,0.138096
94098000,0.0324,0.013523,0.002678,0.000431,0.134922
94099000,0.0324,0.013523,0.002678,0.000431,0.130691
94100000,0.0324,0.013523,0.002678,0.000431,0.587993
94101000,0.0324,0.013523,0.002678,0.000431,0.238582
94102000,0.0324,0.013523,0.002678,0.000431,0.261383
94103000,0.0324,0.013523,0.002678,0.000431,0.279600
94104000,0.0324,0.013523,0.002678,0.000431,0.137743
94105000,0.0324,0.013523,0.002678,0.000431,0.147028
94106000,0.0324,0.013523,0.002678,0.000431,0.107656
94107000,0.0324,0.013523,0.002678,0.000431,0.398068
94108000,0.0324,0.013523,0.002678,0.000431,0.202031
94109000,0.0324,0.013523,0.002678,0.000431,0.056061
94110000,0.0324,0.013523,0.002678,0.000431,0.045718
94111000,0.0324,0.013523,0.002678,0.000431,0.037021
94112000,0.0324,0.013523,0.002678,0.000431,0.029382
94113000,0.0324,0.013523,0.002678,0.000431,0.034318
94114000,0.0324,0.013523,0.002678,0.000431,0.025856
94115000,0.0324,0.013523,0.002678,0.000431,0.027384
94116000,0.0324,0.013523,0.002678,0.000431,0.021390
94117000,0.0324,0.013523,0.002678,0.000431,0.022800
94118000,0.0324,0.013523,0.002678,0.000431,0.014809
94119000,0.0324,0.013523,0.002678,0.000431,0.010930
94120000,0.0324,0.013523,0.002678,0.000431,0.012811
94121000,0.0324,0.013523,0.002678,0.000431,0.012223
94122000,0.0324,0.013523,0.002678,0.000431,0.008580
94123000,0.0324,0.013523,0.002678,0.000431,0.013281
94124000,0.0324,0.013523,0.002678,0.000431,0.007404
94125000,0.0324,0.013523,0.002678,0.000431,0.007404
94126000,0.0324,0.013523,0.002678,0.000431,0.009167
94127000,0.0324,0.013523,0.002678,0.000431,0.005759
94128000,0.0324,0.013523,0.002678,0.000431,0.008109
94129000,0.0324,0.013523,0.002678,0.000431,0.006229
94130000,0.0324,0.013523,0.002678,0.000431,0.005289
94131000,0.0324,0.013523,0.002678,0.000431,0.005054
94132000,0.0324,0.013523,0.002678,0.000431,0.005524
94133000,0.0324,0.013523,0.002678,0.000431,0.005406
94134000,0.0324,0.013523,0.002678,0.000431,0.005054
94135000,0.0324,0.013523,0.002678,0.000431,0.005759
94136000,0.0324,0.013523,0.002678,0.000431,0.005171
94137000,0.0324,0.013523,0.002678,0.000431,0.005289
94138000,0.0324,0.013523,0.002678,0.000431,0.004936
94139000,0.0324,0.013523,0.002678,0.000431,0.005759
94140000,0.0324,0.013523,0.002678,0.000431,0.005641
94141000,0.0324,0.013523,0.002678,0.000431,0.004819
94142000,0.0324,0.013523,0.002678,0.000431,0.005171
94143000,0.0324,0.013523,0.002678,0.000431,0.005876
94144000,0.0324,0.013523,0.002678,0.000431,0.005289
94145000,0.0324,0.013523,0.002678,0.000431,0.005054
94146000,0.0324,0.013523,0.002678,0.000431,0.005876
94147000,0.0324,0.013523,0.002678,0.000431,0.005054
94148000,0.0324,0.013523,0.002678,0.000431,0.006699
94149000,0.0324,0.013523,0.002678,0.000431,0.005524
94150000,0.0324,0.013523,0.002678,0.000431,0.004231
94151000,0.0324,0.013523,0.002678,0.000431,0.004113
94152000,0.0324,0.013523,0.002678,0.000431,0.004819
94153000,0.0324,0.013523,0.002678,0.000431,0.004701
94154000,0.0324,0.013523,0.002678,0.000431,0.003878
94155000,0.0324,0.013523,0.002678,0.000431,0.004936
94156000,0.0324,0.013523,0.002678,0.000431,0.004584
94157000,0.0324,0.013523,0.002678,0.000431,0.006464
94158000,0.0324,0.013523,0.002678,0.000431,0.005641
94159000,0.0324,0.013523,0.002678,0.000431,0.003643
94160000,0.0324,0.013523,0.002678,0.000431,0.002586
94161000,0.0324,0.013523,0.002678,0.000431,0.002938
94162000,0.0324,0.013523,0.002678,0.000431,0.002821
94163000,0.0324,0.013523,0.002678,0.000431,0.002703
94164000,0.0324,0.013523,0.002678,0.000431,0.002468
94165000,0.0324,0.013523,0.002678,0.000431,0.003056
94166000,0.0324,0.013523,0.002678,0.000431,0.002938
94167000,0.0324,0.013523,0.002678,0.000431,0.002586
94168000,0.0324,0.013523,0.002678,0.000431,0.002468
94169000,0.0324,0.013523,0.002678,0.000431,0.003408
94170000,0.0324,0.013523,0.002678,0.000431,0.002586
94171000,0.0324,0.013523,0.002678,0.000431,0.002586
94172000,0.0324,0.013523,0.002678,0.000431,0.003291
94173000,0.0324,0.013523,0.002678,0.000431,0.002586
94174000,0.0324,0.013523,0.002678,0.000431,0.002586
94175000,0.0324,0.013523,0.002678,0.000431,0.003291
94176000,0.0324,0.013523,0.002678,0.000431,0.002586
94177000,0.0324,0.013523,0.002678,0.000431,0.002586
94178000,0.0324,0.013523,0.002678,0.000431,0.002938
94179000,0.0324,0.013523,0.002678,0.000431,0.002938
94180000,0.0324,0.013523,0.002678,0.000431,0.002586
94181000,0.0324,0.013523,0.002678,0.000431,0.002938
94182000,0.0324,0.013523,0.002678,0.000431,0.002821
94183000,0.0324,0.013523,0.002678,0.000431,0.002703
94184000,0.0324,0.013523,0.002678,0.000431,0.002468
94185000,0.0324,0.013523,0.002678,0.000431,0.003056
94186000,0.0324,0.013523,0.002678,0.000431,0.002938
94187000,0.0324,0.013523,0.002678,0.000431,0.002586
94188000,0.0324,0.013523,0.002678,0.000431,0.002468
94189000,0.0324,0.013523,0.002678,0.000431,0.003408
94190000,0.0324,0.013523,0.002678,0.000431,0.002586
94191000,0.0324,0.013523,0.002678,0.000431,0.002586
94192000,0.0324,0.013523,0.002678,0.000431,0.002938
94193000,0.0324,0.013523,0.002678,0.000431,0.002938
94194000,0.0324,0.013523,0.002678,0.000431,0.002116
94195000,0.0324,0.013523,0.002678,0.000431,0.003761
94196000,0.0324,0.013523,0.002678,0.000431,0.002116
94197000,0.0324,0.013523,0.002678,0.000431,0.003056
94198000,0.0324,0.013523,0.002678,0.000431,0.002938
94199000,0.0324,0.013523,0.002678,0.000431,0.002938
94200000,0.0324,0.013523,0.002678,0.000431,0.002116
94201000,0.0324,0.013523,0.002678,0.000431,0.003291
94202000,0.0324,0.013523,0.002678,0.000431,0.002586
94203000,0.0324,0.013523,0.002678,0.000431,0.003056
94204000,0.0324,0.013523,0.002678,0.000431,0.002468
94205000,0.0324,0.013523,0.002678,0.000431,0.003056
94206000,0.0324,0.013523,0.002678,0.000431,0.002938
94207000,0.0324,0.013523,0.002678,0.000431,0.002586
94208000,0.0324,0.013523,0.002678,0.000431,0.002468
94209000,0.0324,0.013523,0.002678,0.000431,0.002703
94210000,0.0324,0.013523,0.002678,0.000431,0.003291
94211000,0.0324,0.013523,0.002678,0.000431,0.002116
94212000,0.0324,0.013523,0.002678,0.000431,0.003056
94213000,0.0324,0.013523,0.002678,0.000431,0.003291
94214000,0.0324,0.013523,0.002678,0.000431,0.001763
94215000,0.0324,0.013523,0.002678,0.000431,0.003408
94216000,0.0324,0.013523,0.002678,0.000431,0.002938
94217000,0.0324,0.013523,0.002678,0.000431,0.002233
94218000,0.0324,0.013523,0.002678,0.000431,0.003291
94219000,0.0324,0.013523,0.002678,0.000431,0.002821
94220000,0.0324,0.013523,0.002678,0.000431,0.001880
94221000,0.0324,0.013523,0.002678,0.000431,0.003761
94222000,0.0324,0.013523,0.002678,0.000431,0.002468
94223000,0.0324,0.013523,0.002678,0.000431,0.002703
94224000,0.0324,0.013523,0.002678,0.000431,0.003173
94225000,0.0324,0.013523,0.002678,0.000431,0.002703
94226000,0.0324,0.013523,0.002678,0.000431,0.002586
94227000,0.0324,0.013523,0.002678,0.000431,0.001528
94228000,0.0324,0.013523,0.002678,0.000431,0.000940
94229000,0.0324,0.013523,0.002678,0.000431,0.000705
94230000,0.0324,0.013523,0.002678,0.000431,0.000940
94231000,0.0324,0.013523,0.002678,0.000431,0.000823
94232000,0.0324,0.013523,0.002678,0.000431,0.000823
94233000,0.0324,0.013523,0.002678,0.000431,0.000823
94234000,0.0324,0.013523,0.002678,0.000431,0.000823
94235000,0.0324,0.013523,0.002678,0.000431,0.000940
94236000,0.0324,0.013523,0.002678,0.000431,0.000705
94237000,0.0324,0.013523,0.002678,0.000431,0.000940
94238000,0.0324,0.013523,0.002678,0.000431,0.000705
94239000,0.0324,0.013523,0.002678,0.000431,0.000940
94240000,0.0324,0.013523,0.002678,0.000431,0.000823
94241000,0.0324,0.013523,0.002678,0.000431,0.000823
94242000,0.0324,0.013523,0.002678,0.000431,0.000940
94243000,0.0324,0.013523,0.002678,0.000431,0.000705
94244000,0.0324,0.013523,0.002678,0.000431,0.000940
94245000,0.0324,0.013523,0.002678,0.000431,0.000823
94246000,0.0324,0.013523,0.002678,0.000431,0.000823
94247000,0.0324,0.013523,0.002678,0.000431,0.000823
94248000,0.0324,0.013523,0.002678,0.000431,0.000823
94249000,0.0324,0.013523,0.002678,0.000431,0.000823
94250000,0.0324,0.013523,0.002678,0.000431,0.000823
94251000,0.0324,0.013523,0.002678,0.000431,0.000940
94252000,0.0324,0.013523,0.002678,0.000431,0.000823
94253000,0.0324,0.013523,0.002678,0.000431,0.001763
94254000,0.0324,0.013523,0.002678,0.000431,0.273958
94255000,0.0324,0.013523,0.002678,0.000431,0.620079
94256000,0.0324,0.013523,0.002678,0.000431,0.292880
94257000,0.0324,0.013523,0.002678,0.000431,0.132102
94258000,0.0324,0.013523,0.002678,0.000431,0.133277
94259000,0.0324,0.013523,0.002678,0.000431,0.596103
94260000,0.0324,0.013523,0.002678,0.000431,0.238112
94261000,0.0324,0.013523,0.002678,0.000431,0.306161
94262000,0.0324,0.013523,0.002678,0.000431,0.271960
94263000,0.0324,0.013523,0.002678,0.000431,0.141974
94264000,0.0324,0.013523,0.002678,0.000431,0.153962
94265000,0.0324,0.013523,0.002678,0.000431,0.151611
94266000,0.0324,0.013523,0.002678,0.000431,0.441553
94267000,0.0324,0.013523,0.002678,0.000431,0.077451
94268000,0.0324,0.013523,0.002678,0.000431,0.058647
94269000,0.0324,0.013523,0.002678,0.000431,0.056296
94270000,0.0324,0.013523,0.002678,0.000431,0.043603
94271000,0.0324,0.013523,0.002678,0.000431,0.037727
94272000,0.0324,0.013523,0.002678,0.000431,0.036434
94273000,0.0324,0.013523,0.002678,0.000431,0.031733
94274000,0.0324,0.013523,0.002678,0.000431,0.027149
94275000,0.0324,0.013523,0.002678,0.000431,0.025386
94276000,0.0324,0.013523,0.002678,0.000431,0.029852
94277000,0.0324,0.013523,0.002678,0.000431,0.021155
94278000,0.0324,0.013523,0.002678,0.000431,0.021860
94279000,0.0324,0.013523,0.002678,0.000431,0.020685
94280000,0.0324,0.013523,0.002678,0.000431,0.018217
94281000,0.0324,0.013523,0.002678,0.000431,0.021273
94282000,0.0324,0.013523,0.002678,0.000431,0.019040
94283000,0.0324,0.013523,0.002678,0.000431,0.018922
94284000,0.0324,0.013523,0.002678,0.000431,0.019275
94285000,0.0324,0.013523,0.002678,0.000431,0.020685
94286000,0.0324,0.013523,0.002678,0.000431,0.017277
94287000,0.0324,0.013523,0.002678,0.000431,0.012928
94288000,0.0324,0.013523,0.002678,0.000431,0.013633
94289000,0.0324,0.013523,0.002678,0.000431,0.015279
94290000,0.0324,0.013523,0.002678,0.000431,0.016807
94291000,0.0324,0.013523,0.002678,0.000431,0.009990
94292000,0.0324,0.013523,0.002678,0.000431,0.009990
94293000,0.0324,0.013523,0.002678,0.000431,0.009990
94294000,0.0324,0.013523,0.002678,0.000431,0.009755
94295000,0.0324,0.013523,0.002678,0.000431,0.012105
94296000,0.0324,0.013523,0.002678,0.000431,0.009167
94297000,0.0324,0.013523,0.002678,0.000431,0.009050
94298000,0.0324,0.013523,0.002678,0.000431,0.009872
94299000,0.0324,0.013523,0.002678,0.000431,0.012576
94300000,0.0324,0.013523,0.002678,0.000431,0.009050
94301000,0.0324,0.013523,0.002678,0.000431,0.007404
94302000,0.0324,0.013523,0.002678,0.000431,0.007287
94303000,0.0324,0.013523,0.002678,0.000431,0.005994
94304000,0.0324,0.013523,0.002678,0.000431,0.005994
94305000,0.0324,0.013523,0.002678,0.000431,0.005524
94306000,0.0324,0.013523,0.002678,0.000431,0.005994
94307000,0.0324,0.013523,0.002678,0.000431,0.005994
94308000,0.0324,0.013523,0.002678,0.000431,0.005994
94309000,0.0324,0.013523,0.002678,0.000431,0.005759
94310000,0.0324,0.013523,0.002678,0.000431,0.005759
94311000,0.0324,0.013523,0.002678,0.000431,0.005994
94312000,0.0324,0.013523,0.002678,0.000431,0.007874
94313000,0.0324,0.013523,0.002678,0.000431,0.005171
94314000,0.0324,0.013523,0.002678,0.000431,0.005171
94315000,0.0324,0.013523,0.002678,0.000431,0.004819
94316000,0.0324,0.013523,0.002678,0.000431,0.005876
94317000,0.0324,0.013523,0.002678,0.000431,0.004466
94318000,0.0324,0.013523,0.002678,0.000431,0.004113
94319000,0.0324,0.013523,0.002678,0.000431,0.004349
94320000,0.0324,0.013523,0.002678,0.000431,0.004113
94321000,0.0324,0.013523,0.002678,0.000431,0.004231
94322000,0.0324,0.013523,0.002678,0.000431,0.004113
94323000,0.0324,0.013523,0.002678,0.000431,0.004231
94324000,0.0324,0.013523,0.002678,0.000431,0.004231
94325000,0.0324,0.013523,0.002678,0.000431,0.004349
94326000,0.0324,0.013523,0.002678,0.000431,0.003878
94327000,0.0324,0.013523,0.002678,0.000431,0.004349
94328000,0.0324,0.013523,0.002678,0.000431,0.004349
94329000,0.0324,0.013523,0.002678,0.000431,0.003996
94330000,0.0324,0.013523,0.002678,0.000431,0.003996
94331000,0.0324,0.013523,0.002678,0.000431,0.004349
94332000,0.0324,0.013523,0.002678,0.000431,0.004584
94333000,0.0324,0.013523,0.002678,0.000431,0.003996
94334000,0.0324,0.013523,0.002678,0.000431,0.003996
94335000,0.0324,0.013523,0.002678,0.000431,0.004349
94336000,0.0324,0.013523,0.002678,0.000431,0.004231
94337000,0.0324,0.013523,0.002678,0.000431,0.004231
94338000,0.0324,0.013523,0.002678,0.000431,0.003996
94339000,0.0324,0.013523,0.002678,0.000431,0.004584
94340000,0.0324,0.013523,0.002678,0.000431,0.003878
94341000,0.0324,0.013523,0.002678,0.000431,0.004113
94342000,0.0324,0.013523,0.002678,0.000431,0.004584
94343000,0.0324,0.013523,0.002678,0.000431,0.004231
94344000,0.0324,0.013523,0.002678,0.000431,0.003878
94345000,0.0324,0.013523,0.002678,0.000431,0.004113
94346000,0.0324,0.013523,0.002678,0.000431,0.004466
94347000,0.0324,0.013523,0.002678,0.000431,0.004349
94348000,0.0324,0.013523,0.002678,0.000431,0.004584
94349000,0.0324,0.013523,0.002678,0.000431,0.004936
94350000,0.0324,0.013523,0.002678,0.000431,0.003408
94351000,0.0324,0.013523,0.002678,0.000431,0.003291
94352000,0.0324,0.013523,0.002678,0.000431,0.003173
94353000,0.0324,0.013523,0.002678,0.000431,0.003526
94354000,0.0324,0.013523,0.002678,0.000431,0.003291
94355000,0.0324,0.013523,0.002678,0.000431,0.003408
94356000,0.0324,0.013523,0.002678,0.000431,0.003408
94357000,0.0324,0.013523,0.002678,0.000431,0.003291
94358000,0.0324,0.013523,0.002678,0.000431,0.003526
94359000,0.0324,0.013523,0.002678,0.000431,0.003056
94360000,0.0324,0.013523,0.002678,0.000431,0.003526
94361000,0.0324,0.013523,0.002678,0.000431,0.003526
94362000,0.0324,0.013523,0.002678,0.000431,0.003291
94363000,0.0324,0.013523,0.002678,0.000431,0.003291
94364000,0.0324,0.013523,0.002678,0.000431,0.002938
94365000,0.0324,0.013523,0.002678,0.000431,0.002586
94366000,0.0324,0.013523,0.002678,0.000431,0.003996
94367000,0.0324,0.013523,0.002678,0.000431,0.003173
94368000,0.0324,0.013523,0.002678,0.000431,0.001763
94369000,0.0324,0.013523,0.002678,0.000431,0.001763
94370000,0.0324,0.013523,0.002678,0.000431,0.001763
94371000,0.0324,0.013523,0.002678,0.000431,0.001528
94372000,0.0324,0.013523,0.002678,0.000431,0.001880
94373000,0.0324,0.013523,0.002678,0.000431,0.001645
94374000,0.0324,0.013523,0.002678,0.000431,0.001645
94375000,0.0324,0.013523,0.002678,0.000431,0.001763
94376000,0.0324,0.013523,0.002678,0.000431,0.001763
94377000,0.0324,0.013523,0.002678,0.000431,0.001645
94378000,0.0324,0.013523,0.002678,0.000431,0.001763
94379000,0.0324,0.013523,0.002678,0.000431,0.001645
94380000,0.0324,0.013523,0.002678,0.000431,0.001763
94381000,0.0324,0.013523,0.002678,0.000431,0.001763
94382000,0.0324,0.013523,0.002678,0.000431,0.001645
94383000,0.0324,0.013523,0.002678,0.000431,0.001763
94384000,0.0324,0.013523,0.002678,0.000431,0.001645
94385000,0.0324,0.013523,0.002678,0.000431,0.001880
94386000,0.0324,0.013523,0.002678,0.000431,0.001645
94387000,0.0324,0.013523,0.002678,0.000431,0.001645
94388000,0.0324,0.013523,0.002678,0.000431,0.001880
94389000,0.0324,0.013523,0.002678,0.000431,0.001528
94390000,0.0324,0.013523,0.002678,0.000431,0.001763
94391000,0.0324,0.013523,0.002678,0.000431,0.001763
94392000,0.0324,0.013523,0.002678,0.000431,0.001645
94393000,0.0324,0.013523,0.002678,0.000431,0.001880
94394000,0.0324,0.013523,0.002678,0.000431,0.001528
94395000,0.0324,0.013523,0.002678,0.000431,0.001880
94396000,0.0324,0.013523,0.002678,0.000431,0.001645
94397000,0.0324,0.013523,0.002678,0.000431,0.001645
94398000,0.0324,0.013523,0.002678,0.000431,0.001763
94399000,0.0324,0.013523,0.002678,0.000431,0.001763
94400000,0.0324,0.013523,0.002678,0.000431,0.001645
94401000,0.0324,0.013523,0.002678,0.000431,0.001645
94402000,0.0324,0.013523,0.002678,0.000431,0.001880
94403000,0.0324,0.013523,0.002678,0.000431,0.001645
94404000,0.0324,0.013523,0.002678,0.000431,0.001645
94405000,0.0324,0.013523,0.002678,0.000431,0.001763
94406000,0.0324,0.013523,0.002678,0.000431,0.001763
94407000,0.0324,0.013523,0.002678,0.000431,0.001645
94408000,0.0324,0.013523,0.002678,0.000431,0.001645
94409000,0.0324,0.013523,0.002678,0.000431,0.001880
94410000,0.0324,0.013523,0.002678,0.000431,0.001645
94411000,0.0324,0.013523,0.002678,0.000431,0.003291
94412000,0.0324,0.013523,0.002678,0.000431,0.000823
94413000,0.0324,0.013523,0.002678,0.000431,0.000940
94414000,0.0324,0.013523,0.002678,0.000431,0.000823
94415000,0.0324,0.013523,0.002678,0.000431,0.000823
94416000,0.0324,0.013523,0.002678,0.000431,0.000940
94417000,0.0324,0.013523,0.002678,0.000431,0.000705
94418000,0.0324,0.013523,0.002678,0.000431,0.000823
94419000,0.0324,0.013523,0.002678,0.000431,0.070869
94420000,0.0324,0.013523,0.002678,0.000431,0.484569
94421000,0.0324,0.013523,0.002678,0.000431,0.604918
94422000,0.0324,0.013523,0.002678,0.000431,0.132102
94423000,0.0324,0.013523,0.002678,0.000431,0.133512
94424000,0.0324,0.013523,0.002678,0.000431,0.555321
94425000,0.0324,0.013523,0.002678,0.000431,0.236702
94426000,0.0324,0.013523,0.002678,0.000431,0.284066
94427000,0.0324,0.013523,0.002678,0.000431,0.329902
94428000,0.0324,0.013523,0.002678,0.000431,0.144795
94429000,0.0324,0.013523,0.002678,0.000431,0.148908
94430000,0.0324,0.013523,0.002678,0.000431,0.107068
94431000,0.0324,0.013523,0.002678,0.000431,0.401476
94432000,0.0324,0.013523,0.002678,0.000431,0.183697
94433000,0.0324,0.013523,0.002678,0.000431,0.058294
94434000,0.0324,0.013523,0.002678,0.000431,0.042663
94435000,0.0324,0.013523,0.002678,0.000431,0.039489
94436000,0.0324,0.013523,0.002678,0.000431,0.032673
94437000,0.0324,0.013523,0.002678,0.000431,0.027737
94438000,0.0324,0.013523,0.002678,0.000431,0.027972
94439000,0.0324,0.013523,0.002678,0.000431,0.028089
94440000,0.0324,0.013523,0.002678,0.000431,0.020215
94441000,0.0324,0.013523,0.002678,0.000431,0.021743
94442000,0.0324,0.013523,0.002678,0.000431,0.019627
94443000,0.0324,0.013523,0.002678,0.000431,0.019275
94444000,0.0324,0.013523,0.002678,0.000431,0.020097
94445000,0.0324,0.013523,0.002678,0.000431,0.014573
94446000,0.0324,0.013523,0.002678,0.000431,0.015279
94447000,0.0324,0.013523,0.002678,0.000431,0.016924
94448000,0.0324,0.013523,0.002678,0.000431,0.012340
94449000,0.0324,0.013523,0.002678,0.000431,0.017747
94450000,0.0324,0.013523,0.002678,0.000431,0.010225
94451000,0.0324,0.013523,0.002678,0.000431,0.009755
94452000,0.0324,0.013523,0.002678,0.000431,0.011870
94453000,0.0324,0.013523,0.002678,0.000431,0.009050
94454000,0.0324,0.013523,0.002678,0.000431,0.009402
94455000,0.0324,0.013523,0.002678,0.000431,0.007874
94456000,0.0324,0.013523,0.002678,0.000431,0.011753
94457000,0.0324,0.013523,0.002678,0.000431,0.005994
94458000,0.0324,0.013523,0.002678,0.000431,0.004936
94459000,0.0324,0.013523,0.002678,0.000431,0.006111
94460000,0.0324,0.013523,0.002678,0.000431,0.005876
94461000,0.0324,0.013523,0.002678,0.000431,0.005289
94462000,0.0324,0.013523,0.002678,0.000431,0.005641
94463000,0.0324,0.013523,0.002678,0.000431,0.005876
94464000,0.0324,0.013523,0.002678,0.000431,0.005289
94465000,0.0324,0.013523,0.002678,0.000431,0.005759
94466000,0.0324,0.013523,0.002678,0.000431,0.005759
94467000,0.0324,0.013523,0.002678,0.000431,0.005289
94468000,0.0324,0.013523,0.002678,0.000431,0.005759
94469000,0.0324,0.013523,0.002678,0.000431,0.005406
94470000,0.0324,0.013523,0.002678,0.000431,0.005876
94471000,0.0324,0.013523,0.002678,0.000431,0.005876
94472000,0.0324,0.013523,0.002678,0.000431,0.005289
94473000,0.0324,0.013523,0.002678,0.000431,0.005524
94474000,0.0324,0.013523,0.002678,0.000431,0.005524
94475000,0.0324,0.013523,0.002678,0.000431,0.004936
94476000,0.0324,0.013523,0.002678,0.000431,0.004466
94477000,0.0324,0.013523,0.002678,0.000431,0.004349
94478000,0.0324,0.013523,0.002678,0.000431,0.005524
94479000,0.0324,0.013523,0.002678,0.000431,0.003643
94480000,0.0324,0.013523,0.002678,0.000431,0.003408
94481000,0.0324,0.013523,0.002678,0.000431,0.003526
94482000,0.0324,0.013523,0.002678,0.000431,0.003408
94483000,0.0324,0.013523,0.002678,0.000431,0.003291
94484000,0.0324,0.013523,0.002678,0.000431,0.004349
94485000,0.0324,0.013523,0.002678,0.000431,0.003408
94486000,0.0324,0.013523,0.002678,0.000431,0.002468
94487000,0.0324,0.013523,0.002678,0.000431,0.002468
94488000,0.0324,0.013523,0.002678,0.000431,0.002468
94489000,0.0324,0.013523,0.002678,0.000431,0.002586
94490000,0.0324,0.013523,0.002678,0.000431,0.002468
94491000,0.0324,0.013523,0.002678,0.000431,0.002586
94492000,0.0324,0.013523,0.002678,0.000431,0.002468
94493000,0.0324,0.013523,0.002678,0.000431,0.002586
94494000,0.0324,0.013523,0.002678,0.000431,0.002468
94495000,0.0324,0.013523,0.002678,0.000431,0.002586
94496000,0.0324,0.013523,0.002678,0.000431,0.002351
94497000,0.0324,0.013523,0.002678,0.000431,0.002586
94498000,0.0324,0.013523,0.002678,0.000431,0.002586
94499000,0.0324,0.013523,0.002678,0.000431,0.002351
94500000,0.0324,0.013523,0.002678,0.000431,0.002586
94501000,0.0324,0.013523,0.002678,0.000431,0.002468
94502000,0.0324,0.013523,0.002678,0.000431,0.002468
94503000,0.0324,0.013523,0.002678,0.000431,0.002586
94504000,0.0324,0.013523,0.002678,0.000431,0.002586
94505000,0.0324,0.013523,0.002678,0.000431,0.002586
94506000,0.0324,0.013523,0.002678,0.000431,0.003996
94507000,0.0324,0.013523,0.002678,0.000431,0.001645
94508000,0.0324,0.013523,0.002678,0.000431,0.001880
94509000,0.0324,0.013523,0.002678,0.000431,0.001645
94510000,0.0324,0.013523,0.002678,0.000431,0.001645
94511000,0.0324,0.013523,0.002678,0.000431,0.001645
94512000,0.0324,0.013523,0.002678,0.000431,0.001645
94513000,0.0324,0.013523,0.002678,0.000431,0.001763
94514000,0.0324,0.013523,0.002678,0.000431,0.001645
94515000,0.0324,0.013523,0.002678,0.000431,0.001763
94516000,0.0324,0.013523,0.002678,0.000431,0.003408
94517000,0.0324,0.013523,0.002678,0.000431,0.000705
94518000,0.0324,0.013523,0.002678,0.000431,0.000940
94519000,0.0324,0.013523,0.002678,0.000431,0.000823
94520000,0.0324,0.013523,0.002678,0.000431,0.000823
94521000,0.0324,0.013523,0.002678,0.000431,0.000823
94522000,0.0324,0.013523,0.002678,0.000431,0.000823
94523000,0.0324,0.013523,0.002678,0.000431,0.000823
94524000,0.0324,0.013523,0.002678,0.000431,0.000823
94525000,0.0324,0.013523,0.002678,0.000431,0.000940
94526000,0.0324,0.013523,0.002678,0.000431,0.000705
94527000,0.0324,0.013523,0.002678,0.000431,0.000940
94528000,0.0324,0.013523,0.002678,0.000431,0.000823
94529000,0.0324,0.013523,0.002678,0.000431,0.000823
94530000,0.0324,0.013523,0.002678,0.000431,0.000705
94531000,0.0324,0.013523,0.002678,0.000431,0.000940
94532000,0.0324,0.013523,0.002678,0.000431,0.000940
94533000,0.0324,0.013523,0.002678,0.000431,0.000705
94534000,0.0324,0.013523,0.002678,0.000431,0.000940
94535000,0.0324,0.013523,0.002678,0.000431,0.000705
94536000,0.0324,0.013523,0.002678,0.000431,0.000940
94537000,0.0324,0.013523,0.002678,0.000431,0.000823
94538000,0.0324,0.013523,0.002678,0.000431,0.000823
94539000,0.0324,0.013523,0.002678,0.000431,0.000940
94540000,0.0324,0.013523,0.002678,0.000431,0.000705
94541000,0.0324,0.013523,0.002678,0.000431,0.000940
94542000,0.0324,0.013523,0.002678,0.000431,0.000823
94543000,0.0324,0.013523,0.002678,0.000431,0.000823
94544000,0.0324,0.013523,0.002678,0.000431,0.000940
94545000,0.0324,0.013523,0.002678,0.000431,0.000940
94546000,0.0324,0.013523,0.002678,0.000431,0.000823
94547000,0.0324,0.013523,0.002678,0.000431,0.000823
94548000,0.0324,0.013523,0.002678,0.000431,0.000940
94549000,0.0324,0.013523,0.002678,0.000431,0.188398
94550000,0.0324,0.013523,0.002678,0.000431,0.436382
94551000,0.0324,0.013523,0.002678,0.000431,0.525469
94552000,0.0324,0.013523,0.002678,0.000431,0.133747
94553000,0.0324,0.013523,0.002678,0.000431,0.132102
94554000,0.0324,0.013523,0.002678,0.000431,0.566251
94555000,0.0324,0.013523,0.002678,0.000431,0.241168
94556000,0.0324,0.013523,0.002678,0.000431,0.275369
94557000,0.0324,0.013523,0.002678,0.000431,0.263851
94558000,0.0324,0.013523,0.002678,0.000431,0.138683
94559000,0.0324,0.013523,0.002678,0.000431,0.150319
94560000,0.0324,0.013523,0.002678,0.000431,0.130574
94561000,0.0324,0.013523,0.002678,0.000431,0.258915
94562000,0.0324,0.013523,0.002678,0.000431,0.357403
94563000,0.0324,0.013523,0.002678,0.000431,0.074395
94564000,0.0324,0.013523,0.002678,0.000431,0.064053
94565000,0.0324,0.013523,0.002678,0.000431,0.051595
94566000,0.0324,0.013523,0.002678,0.000431,0.044543
94567000,0.0324,0.013523,0.002678,0.000431,0.035141
94568000,0.0324,0.013523,0.002678,0.000431,0.026561
94569000,0.0324,0.013523,0.002678,0.000431,0.029617
94570000,0.0324,0.013523,0.002678,0.000431,0.019862
94571000,0.0324,0.013523,0.002678,0.000431,0.017747
94572000,0.0324,0.013523,0.002678,0.000431,0.017159
94573000,0.0324,0.013523,0.002678,0.000431,0.016807
94574000,0.0324,0.013523,0.002678,0.000431,0.014221
94575000,0.0324,0.013523,0.002678,0.000431,0.016571
94576000,0.0324,0.013523,0.002678,0.000431,0.014338
94577000,0.0324,0.013523,0.002678,0.000431,0.010460
94578000,0.0324,0.013523,0.002678,0.000431,0.009755
94579000,0.0324,0.013523,0.002678,0.000431,0.010578
94580000,0.0324,0.013523,0.002678,0.000431,0.010460
94581000,0.0324,0.013523,0.002678,0.000431,0.011165
94582000,0.0324,0.013523,0.002678,0.000431,0.009990
94583000,0.0324,0.013523,0.002678,0.000431,0.013633
94584000,0.0324,0.013523,0.002678,0.000431,0.012105
94585000,0.0324,0.013523,0.002678,0.000431,0.007639
94586000,0.0324,0.013523,0.002678,0.000431,0.008815
94587000,0.0324,0.013523,0.002678,0.000431,0.006229
94588000,0.0324,0.013523,0.002678,0.000431,0.006464
94589000,0.0324,0.013523,0.002678,0.000431,0.006582
94590000,0.0324,0.013523,0.002678,0.000431,0.006347
94591000,0.0324,0.013523,0.002678,0.000431,0.006934
94592000,0.0324,0.013523,0.002678,0.000431,0.008227
94593000,0.0324,0.013523,0.002678,0.000431,0.003761
94594000,0.0324,0.013523,0.002678,0.000431,0.004231
94595000,0.0324,0.013523,0.002678,0.000431,0.005171
94596000,0.0324,0.013523,0.002678,0.000431,0.003408
94597000,0.0324,0.013523,0.002678,0.000431,0.003291
94598000,0.0324,0.013523,0.002678,0.000431,0.003173
94599000,0.0324,0.013523,0.002678,0.000431,0.002938
94600000,0.0324,0.013523,0.002678,0.000431,0.003056
94601000,0.0324,0.013523,0.002678,0.000431,0.003408
94602000,0.0324,0.013523,0.002678,0.000431,0.002821
94603000,0.0324,0.013523,0.002678,0.000431,0.003526
94604000,0.0324,0.013523,0.002678,0.000431,0.003056
94605000,0.0324,0.013523,0.002678,0.000431,0.003408
94606000,0.0324,0.013523,0.002678,0.000431,0.003291
94607000,0.0324,0.013523,0.002678,0.000431,0.002938
94608000,0.0324,0.013523,0.002678,0.000431,0.003643
94609000,0.0324,0.013523,0.002678,0.000431,0.003173
94610000,0.0324,0.013523,0.002678,0.000431,0.003291
94611000,0.0324,0.013523,0.002678,0.000431,0.003173
94612000,0.0324,0.013523,0.002678,0.000431,0.004349
94613000,0.0324,0.013523,0.002678,0.000431,0.002351
94614000,0.0324,0.013523,0.002678,0.000431,0.002586
94615000,0.0324,0.013523,0.002678,0.000431,0.002351
94616000,0.0324,0.013523,0.002678,0.000431,0.002351
94617000,0.0324,0.013523,0.002678,0.000431,0.002468
94618000,0.0324,0.013523,0.002678,0.000431,0.002468
94619000,0.0324,0.013523,0.002678,0.000431,0.002586
94620000,0.0324,0.013523,0.002678,0.000431,0.002116
94621000,0.0324,0.013523,0.002678,0.000431,0.002586
94622000,0.0324,0.013523,0.002678,0.000431,0.002351
94623000,0.0324,0.013523,0.002678,0.000431,0.002586
94624000,0.0324,0.013523,0.002678,0.000431,0.002351
94625000,0.0324,0.013523,0.002678,0.000431,0.004113
94626000,0.0324,0.013523,0.002678,0.000431,0.001293
94627000,0.0324,0.013523,0.002678,0.000431,0.001763
94628000,0.0324,0.013523,0.002678,0.000431,0.001880
94629000,0.0324,0.013523,0.002678,0.000431,0.001175
94630000,0.0324,0.013523,0.002678,0.000431,0.001880
94631000,0.0324,0.013523,0.002678,0.000431,0.001293
94632000,0.0324,0.013523,0.002678,0.000431,0.001763
94633000,0.0324,0.013523,0.002678,0.000431,0.001645
94634000,0.0324,0.013523,0.002678,0.000431,0.001410
94635000,0.0324,0.013523,0.002678,0.000431,0.001880
94636000,0.0324,0.013523,0.002678,0.000431,0.001293
94637000,0.0324,0.013523,0.002678,0.000431,0.001175
94638000,0.0324,0.013523,0.002678,0.000431,0.000705
94639000,0.0324,0.013523,0.002678,0.000431,0.002351
94640000,0.0324,0.013523,0.002678,0.000431,0.366453
94641000,0.0324,0.013523,0.002678,0.000431,0.687892
94642000,0.0324,0.013523,0.002678,0.000431,0.172414
94643000,0.0324,0.013523,0.002678,0.000431,0.132572
94644000,0.0324,0.013523,0.002678,0.000431,0.150671
94645000,0.0324,0.013523,0.002678,0.000431,0.627248
94646000,0.0324,0.013523,0.002678,0.000431,0.259385
94647000,0.0324,0.013523,0.002678,0.000431,0.242343
94648000,0.0324,0.013523,0.002678,0.000431,0.222246
94649000,0.0324,0.013523,0.002678,0.000431,0.152552
94650000,0.0324,0.013523,0.002678,0.000431,0.161249
94651000,0.0324,0.013523,0.002678,0.000431,0.132454
94652000,0.0324,0.013523,0.002678,0.000431,0.463179
94653000,0.0324,0.013523,0.002678,0.000431,0.111182
94654000,0.0324,0.013523,0.002678,0.000431,0.082622
94655000,0.0324,0.013523,0.002678,0.000431,0.066991
94656000,0.0324,0.013523,0.002678,0.000431,0.058176
94657000,0.0324,0.013523,0.002678,0.000431,0.048657
94658000,0.0324,0.013523,0.002678,0.000431,0.039960
94659000,0.0324,0.013523,0.002678,0.000431,0.032203
94660000,0.0324,0.013523,0.002678,0.000431,0.029500
94661000,0.0324,0.013523,0.002678,0.000431,0.030205
94662000,0.0324,0.013523,0.002678,0.000431,0.025034
94663000,0.0324,0.013523,0.002678,0.000431,0.025269
94664000,0.0324,0.013523,0.002678,0.000431,0.021625
94665000,0.0324,0.013523,0.002678,0.000431,0.023036
94666000,0.0324,0.013523,0.002678,0.000431,0.021625
94667000,0.0324,0.013523,0.002678,0.000431,0.021508
94668000,0.0324,0.013523,0.002678,0.000431,0.015631
94669000,0.0324,0.013523,0.002678,0.000431,0.021625
94670000,0.0324,0.013523,0.002678,0.000431,0.012223
94671000,0.0324,0.013523,0.002678,0.000431,0.012458
94672000,0.0324,0.013523,0.002678,0.000431,0.013751
94673000,0.0324,0.013523,0.002678,0.000431,0.011518
94674000,0.0324,0.013523,0.002678,0.000431,0.011165
94675000,0.0324,0.013523,0.002678,0.000431,0.012105
94676000,0.0324,0.013523,0.002678,0.000431,0.013516
94677000,0.0324,0.013523,0.002678,0.000431,0.007874
94678000,0.0324,0.013523,0.002678,0.000431,0.011048
94679000,0.0324,0.013523,0.002678,0.000431,0.007052
94680000,0.0324,0.013523,0.002678,0.000431,0.005289
94681000,0.0324,0.013523,0.002678,0.000431,0.005994
94682000,0.0324,0.013523,0.002678,0.000431,0.005876
94683000,0.0324,0.013523,0.002678,0.000431,0.003291
94684000,0.0324,0.013523,0.002678,0.000431,0.003408
94685000,0.0324,0.013523,0.002678,0.000431,0.003291
94686000,0.0324,0.013523,0.002678,0.000431,0.003526
94687000,0.0324,0.013523,0.002678,0.000431,0.003526
94688000,0.0324,0.013523,0.002678,0.000431,0.003056
94689000,0.0324,0.013523,0.002678,0.000431,0.003643
94690000,0.0324,0.013523,0.002678,0.000431,0.003173
94691000,0.0324,0.013523,0.002678,0.000431,0.003643
94692000,0.0324,0.013523,0.002678,0.000431,0.003173
94693000,0.0324,0.013523,0.002678,0.000431,0.003526
94694000,0.0324,0.013523,0.002678,0.000431,0.003291
94695000,0.0324,0.013523,0.002678,0.000431,0.003408
94696000,0.0324,0.013523,0.002678,0.000431,0.003643
94697000,0.0324,0.013523,0.002678,0.000431,0.003056
94698000,0.0324,0.013523,0.002678,0.000431,0.003643
94699000,0.0324,0.013523,0.002678,0.000431,0.003291
94700000,0.0324,0.013523,0.002678,0.000431,0.003526
94701000,0.0324,0.013523,0.002678,0.000431,0.003291
94702000,0.0324,0.013523,0.002678,0.000431,0.003408
94703000,0.0324,0.013523,0.002678,0.000431,0.003526
94704000,0.0324,0.013523,0.002678,0.000431,0.003173
94705000,0.0324,0.013523,0.002678,0.000431,0.006699
94706000,0.0324,0.013523,0.002678,0.000431,0.003056
94707000,0.0324,0.013523,0.002678,0.000431,0.001763
94708000,0.0324,0.013523,0.002678,0.000431,0.001645
94709000,0.0324,0.013523,0.002678,0.000431,0.001763
94710000,0.0324,0.013523,0.002678,0.000431,0.001763
94711000,0.0324,0.013523,0.002678,0.000431,0.001528
94712000,0.0324,0.013523,0.002678,0.000431,0.001880
94713000,0.0324,0.013523,0.002678,0.000431,0.001645
94714000,0.0324,0.013523,0.002678,0.000431,0.001880
94715000,0.0324,0.013523,0.002678,0.000431,0.001410
94716000,0.0324,0.013523,0.002678,0.000431,0.001880
94717000,0.0324,0.013523,0.002678,0.000431,0.001763
94718000,0.0324,0.013523,0.002678,0.000431,0.001645
94719000,0.0324,0.013523,0.002678,0.000431,0.001763
94720000,0.0324,0.013523,0.002678,0.000431,0.001645
94721000,0.0324,0.013523,0.002678,0.000431,0.001880
94722000,0.0324,0.013523,0.002678,0.000431,0.001645
94723000,0.0324,0.013523,0.002678,0.000431,0.001645
94724000,0.0324,0.013523,0.002678,0.000431,0.001763
94725000,0.0324,0.013523,0.002678,0.000431,0.002821
94726000,0.0324,0.013523,0.002678,0.000431,0.002351
94727000,0.0324,0.013523,0.002678,0.000431,0.000705
94728000,0.0324,0.013523,0.002678,0.000431,0.000940
94729000,0.0324,0.013523,0.002678,0.000431,0.000823
94730000,0.0324,0.013523,0.002678,0.000431,0.000823
94731000,0.0324,0.013523,0.002678,0.000431,0.000823
94732000,0.0324,0.013523,0.002678,0.000431,0.000823
94733000,0.0324,0.013523,0.002678,0.000431,0.000823
94734000,0.0324,0.013523,0.002678,0.000431,0.000823
94735000,0.0324,0.013523,0.002678,0.000431,0.000823
94736000,0.0324,0.013523,0.002678,0.000431,0.000823
94737000,0.0324,0.013523,0.002678,0.000431,0.000940
94738000,0.0324,0.013523,0.002678,0.000431,0.000823
94739000,0.0324,0.013523,0.002678,0.000431,0.000823
94740000,0.0324,0.013523,0.002678,0.000431,0.000705
94741000,0.0324,0.013523,0.002678,0.000431,0.000940
94742000,0.0324,0.013523,0.002678,0.000431,0.000940
94743000,0.0324,0.013523,0.002678,0.000431,0.000705
94744000,0.0324,0.013523,0.002678,0.000431,0.000940
94745000,0.0324,0.013523,0.002678,0.000431,0.000705
94746000,0.0324,0.013523,0.002678,0.000431,0.000940
94747000,0.0324,0.013523,0.002678,0.000431,0.000823
94748000,0.0324,0.013523,0.002678,0.000431,0.000823
94749000,0.0324,0.013523,0.002678,0.000431,0.000940
94750000,0.0324,0.013523,0.002678,0.000431,0.000705
94751000,0.0324,0.013523,0.002678,0.000431,0.000940
94752000,0.0324,0.013523,0.002678,0.000431,0.000823
94753000,0.0324,0.013523,0.002678,0.000431,0.000823
94754000,0.0324,0.013523,0.002678,0.000431,0.000823
94755000,0.0324,0.013523,0.002678,0.000431,0.000823
94756000,0.0324,0.013523,0.002678,0.000431,0.000823
94757000,0.0324,0.013523,0.002678,0.000431,0.000823
94758000,0.0324,0.013523,0.002678,0.000431,0.000940
94759000,0.0324,0.013523,0.002678,0.000431,0.000705
94760000,0.0324,0.013523,0.002678,0.000431,0.000940
94761000,0.0324,0.013523,0.002678,0.000431,0.000823
94762000,0.0324,0.013523,0.002678,0.000431,0.000823
94763000,0.0324,0.013523,0.002678,0.000431,0.000705
94764000,0.0324,0.013523,0.002678,0.000431,0.000940
94765000,0.0324,0.013523,0.002678,0.000431,0.000940
94766000,0.0324,0.013523,0.002678,0.000431,0.000705
94767000,0.0324,0.013523,0.002678,0.000431,0.000940
94768000,0.0324,0.013523,0.002678,0.000431,0.000705
94769000,0.0324,0.013523,0.002678,0.000431,0.000940
94770000,0.0324,0.013523,0.002678,0.000431,0.000823
94771000,0.0324,0.013523,0.002678,0.000431,0.000823
94772000,0.0324,0.013523,0.002678,0.000431,0.000823
94773000,0.0324,0.013523,0.002678,0.000431,0.000823
94774000,0.0324,0.013523,0.002678,0.000431,0.000940
94775000,0.0324,0.013523,0.002678,0.000431,0.000705
94776000,0.0324,0.013523,0.002678,0.000431,0.000940
94777000,0.0324,0.013523,0.002678,0.000431,0.000823
94778000,0.0324,0.013523,0.002678,0.000431,0.000823
94779000,0.0324,0.013523,0.002678,0.000431,0.000823
94780000,0.0324,0.013523,0.002678,0.000431,0.000823
94781000,0.0324,0.013523,0.002678,0.000431,0.000940
94782000,0.0324,0.013523,0.002678,0.000431,0.000705
94783000,0.0324,0.013523,0.002678,0.000431,0.000823
94784000,0.0324,0.013523,0.002678,0.000431,0.000823
94785000,0.0324,0.013523,0.002678,0.000431,0.000940
94786000,0.0324,0.013523,0.002678,0.000431,0.000823
94787000,0.0324,0.013523,0.002678,0.000431,0.000823
94788000,0.0324,0.013523,0.002678,0.000431,0.000705
94789000,0.0324,0.013523,0.002678,0.000431,0.000940
94790000,0.0324,0.013523,0.002678,0.000431,0.000940
94791000,0.0324,0.013523,0.002678,0.000431,0.000705
94792000,0.0324,0.013523,0.002678,0.000431,0.000940
94793000,0.0324,0.013523,0.002678,0.000431,0.000705
94794000,0.0324,0.013523,0.002678,0.000431,0.000940
94795000,0.0324,0.013523,0.002678,0.000431,0.000823
94796000,0.0324,0.013523,0.002678,0.000431,0.000823
94797000,0.0324,0.013523,0.002678,0.000431,0.000940
94798000,0.0324,0.013523,0.002678,0.000431,0.000705
94799000,0.0324,0.013523,0.002678,0.000431,0.000940
94800000,0.0324,0.013523,0.002678,0.000431,0.000823
94801000,0.0324,0.013523,0.002678,0.000431,0.000823
94802000,0.0324,0.013523,0.002678,0.000431,0.000823
94803000,0.0324,0.013523,0.002678,0.000431,0.000823
94804000,0.0324,0.013523,0.002678,0.000431,0.000823
94805000,0.0324,0.013523,0.002678,0.000431,0.000823
94806000,0.0324,0.013523,0.002678,0.000431,0.000940
94807000,0.0324,0.013523,0.002678,0.000431,0.000705
94808000,0.0324,0.013523,0.002678,0.000431,0.000940
94809000,0.0324,0.013523,0.002678,0.000431,0.000823
94810000,0.0324,0.013523,0.002678,0.000431,0.000823
94811000,0.0324,0.013523,0.002678,0.000431,0.000823
94812000,0.0324,0.013523,0.002678,0.000431,0.000823
94813000,0.0324,0.013523,0.002678,0.000431,0.000940
94814000,0.0324,0.013523,0.002678,0.000431,0.000705
94815000,0.0324,0.013523,0.002678,0.000431,0.000940
94816000,0.0324,0.013523,0.002678,0.000431,0.000705
94817000,0.0324,0.013523,0.002678,0.000431,0.000940
94818000,0.0324,0.013523,0.002678,0.000431,0.000940
94819000,0.0324,0.013523,0.002678,0.000431,0.000705
94820000,0.0324,0.013523,0.002678,0.000431,0.000940
94821000,0.0324,0.013523,0.002678,0.000431,0.000705
94822000,0.0324,0.013523,0.002678,0.000431,0.000940
94823000,0.0324,0.013523,0.002678,0.000431,0.000823
94824000,0.0324,0.013523,0.002678,0.000431,0.000823
94825000,0.0324,0.013523,0.002678,0.000431,0.000823
94826000,0.0324,0.013523,0.002678,0.000431,0.000823
94827000,0.0324,0.013523,0.002678,0.000431,0.000940
94828000,0.0324,0.013523,0.002678,0.000431,0.000705
94829000,0.0324,0.013523,0.002678,0.000431,0.000940
94830000,0.0324,0.013523,0.002678,0.000431,0.000823
94831000,0.0324,0.013523,0.002678,0.000431,0.000823
94832000,0.0324,0.013523,0.002678,0.000431,0.000823
94833000,0.0324,0.013523,0.002678,0.000431,0.000823
94834000,0.0324,0.013523,0.002678,0.000431,0.000823
94835000,0.0324,0.013523,0.002678,0.000431,0.000823
94836000,0.0324,0.013523,0.002678,0.000431,0.000823
94837000,0.0324,0.013523,0.002678,0.000431,0.000823
94838000,0.0324,0.013523,0.002678,0.000431,0.000940
94839000,0.0324,0.013523,0.002678,0.000431,0.000823
94840000,0.0324,0.013523,0.002678,0.000431,0.000823
94841000,0.0324,0.013523,0.002678,0.000431,0.000705
94842000,0.0324,0.013523,0.002678,0.000431,0.000940
94843000,0.0324,0.013523,0.002678,0.000431,0.000940
94844000,0.0324,0.013523,0.002678,0.000431,0.000705
94845000,0.0324,0.013523,0.002678,0.000431,0.000940
94846000,0.0324,0.013523,0.002678,0.000431,0.000705
94847000,0.0324,0.013523,0.002678,0.000431,0.000940
94848000,0.0324,0.013523,0.002678,0.000431,0.000823
94849000,0.0324,0.013523,0.002678,0.000431,0.000823
94850000,0.0324,0.013523,0.002678,0.000431,0.000940
94851000,0.0324,0.013523,0.002678,0.000431,0.000705
94852000,0.0324,0.013523,0.002678,0.000431,0.000940
94853000,0.0324,0.013523,0.002678,0.000431,0.000823
94854000,0.0324,0.013523,0.002678,0.000431,0.000823
94855000,0.0324,0.013523,0.002678,0.000431,0.000823
94856000,0.0324,0.013523,0.002678,0.000431,0.000823
94857000,0.0324,0.013523,0.002678,0.000431,0.000823
94858000,0.0324,0.013523,0.002678,0.000431,0.000823
94859000,0.0324,0.013523,0.002678,0.000431,0.000940
94860000,0.0324,0.013523,0.002678,0.000431,0.000705
94861000,0.0324,0.013523,0.002678,0.000431,0.000940
94862000,0.0324,0.013523,0.002678,0.000431,0.000823
94863000,0.0324,0.013523,0.002678,0.000431,0.000823
94864000,0.0324,0.013523,0.002678,0.000431,0.000705
94865000,0.0324,0.013523,0.002678,0.000431,0.000940
94866000,0.0324,0.013523,0.002678,0.000431,0.000940
94867000,0.0324,0.013523,0.002678,0.000431,0.000705
94868000,0.0324,0.013523,0.002678,0.000431,0.000940
94869000,0.0324,0.013523,0.002678,0.000431,0.000705
94870000,0.0324,0.013523,0.002678,0.000431,0.000940
94871000,0.0324,0.013523,0.002678,0.000431,0.000823
94872000,0.0324,0.013523,0.002678,0.000431,0.000823
94873000,0.0324,0.013523,0.002678,0.000431,0.000940
94874000,0.0324,0.013523,0.002678,0.000431,0.000705
94875000,0.0324,0.013523,0.002678,0.000431,0.000940
94876000,0.0324,0.013523,0.002678,0.000431,0.000705
94877000,0.0324,0.013523,0.002678,0.000431,0.000940
94878000,0.0324,0.013523,0.002678,0.000431,0.000823
94879000,0.0324,0.013523,0.002678,0.000431,0.000823
94880000,0.0324,0.013523,0.002678,0.000431,0.000823
94881000,0.0324,0.013523,0.002678,0.000431,0.000823
94882000,0.0324,0.013523,0.002678,0.000431,0.000940
94883000,0.0324,0.013523,0.002678,0.000431,0.000705
94884000,0.0324,0.013523,0.002678,0.000431,0.000823
94885000,0.0324,0.013523,0.002678,0.000431,0.000940
94886000,0.0324,0.013523,0.002678,0.000431,0.000823
94887000,0.0324,0.013523,0.002678,0.000431,0.000823
94888000,0.0324,0.013523,0.002678,0.000431,0.000823
94889000,0.0324,0.013523,0.002678,0.000431,0.000705
94890000,0.0324,0.013523,0.002678,0.000431,0.000940
94891000,0.0324,0.013523,0.002678,0.000431,0.000940
94892000,0.0324,0.013523,0.002678,0.000431,0.000705
94893000,0.0324,0.013523,0.002678,0.000431,0.000940
94894000,0.0324,0.013523,0.002678,0.000431,0.000705
94895000,0.0324,0.013523,0.002678,0.000431,0.000940
94896000,0.0324,0.013523,0.002678,0.000431,0.000823
94897000,0.0324,0.013523,0.002678,0.000431,0.000823
94898000,0.0324,0.013523,0.002678,0.000431,0.000940
94899000,0.0324,0.013523,0.002678,0.000431,0.000705
94900000,0.0324,0.013523,0.002678,0.000431,0.000940
94901000,0.0324,0.013523,0.002678,0.000431,0.000823
94902000,0.0324,0.013523,0.002678,0.000431,0.000823
94903000,0.0324,0.013523,0.002678,0.000431,0.000823
94904000,0.0324,0.013523,0.002678,0.000431,0.000823
94905000,0.0324,0.013523,0.002678,0.000431,0.000940
94906000,0.0324,0.013523,0.002678,0.000431,0.000705
94907000,0.0324,0.013523,0.002678,0.000431,0.000940
94908000,0.0324,0.013523,0.002678,0.000431,0.000823
94909000,0.0324,0.013523,0.002678,0.000431,0.000823
94910000,0.0324,0.013523,0.002678,0.000431,0.000823
94911000,0.0324,0.013523,0.002678,0.000431,0.000823
94912000,0.0324,0.013523,0.002678,0.000431,0.000940
94913000,0.0324,0.013523,0.002678,0.000431,0.000705
94914000,0.0324,0.013523,0.002678,0.000431,0.000940
94915000,0.0324,0.013523,0.002678,0.000431,0.000823
94916000,0.0324,0.013523,0.002678,0.000431,0.000823
94917000,0.0324,0.013523,0.002678,0.000431,0.000705
94918000,0.0324,0.013523,0.002678,0.000431,0.000940
94919000,0.0324,0.013523,0.002678,0.000431,0.000940
94920000,0.0324,0.013523,0.002678,0.000431,0.000705
94921000,0.0324,0.013523,0.002678,0.000431,0.000940
94922000,0.0324,0.013523,0.002678,0.000431,0.000705
94923000,0.0324,0.013523,0.002678,0.000431,0.000940
94924000,0.0324,0.013523,0.002678,0.000431,0.000940
94925000,0.0324,0.013523,0.002678,0.000431,0.000705
94926000,0.0324,0.013523,0.002678,0.000431,0.000940
94927000,0.0324,0.013523,0.002678,0.000431,0.000705
94928000,0.0324,0.013523,0.002678,0.000431,0.000940
94929000,0.0324,0.013523,0.002678,0.000431,0.000823
94930000,0.0324,0.013523,0.002678,0.000431,0.000823
94931000,0.0324,0.013523,0.002678,0.000431,0.000823
94932000,0.0324,0.013523,0.002678,0.000431,0.000823
94933000,0.0324,0.013523,0.002678,0.000431,0.000940
94934000,0.0324,0.013523,0.002678,0.000431,0.000705
94935000,0.0324,0.013523,0.002678,0.000431,0.000940
94936000,0.0324,0.013523,0.002678,0.000431,0.000823
94937000,0.0324,0.013523,0.002678,0.000431,0.000823
94938000,0.0324,0.013523,0.002678,0.000431,0.000823
94939000,0.0324,0.013523,0.002678,0.000431,0.000823
94940000,0.0324,0.013523,0.002678,0.000431,0.000940
94941000,0.0324,0.013523,0.002678,0.000431,0.000705
94942000,0.0324,0.013523,0.002678,0.000431,0.000823
94943000,0.0324,0.013523,0.002678,0.000431,0.000940
94944000,0.0324,0.013523,0.002678,0.000431,0.000823
94945000,0.0324,0.013523,0.002678,0.000431,0.000823
94946000,0.0324,0.013523,0.002678,0.000431,0.000823
94947000,0.0324,0.013523,0.002678,0.000431,0.000823
94948000,0.0324,0.013523,0.002678,0.000431,0.000823
94949000,0.0324,0.013523,0.002678,0.000431,0.000940
94950000,0.0324,0.013523,0.002678,0.000431,0.000823
94951000,0.0324,0.013523,0.002678,0.000431,0.000823
94952000,0.0324,0.013523,0.002678,0.000431,0.000705
94953000,0.0324,0.013523,0.002678,0.000431,0.000940
94954000,0.0324,0.013523,0.002678,0.000431,0.000940
94955000,0.0324,0.013523,0.002678,0.000431,0.000705
94956000,0.0324,0.013523,0.002678,0.000431,0.000940
94957000,0.0324,0.013523,0.002678,0.000431,0.000705
94958000,0.0324,0.013523,0.002678,0.000431,0.000940
94959000,0.0324,0.013523,0.002678,0.000431,0.000823
94960000,0.0324,0.013523,0.002678,0.000431,0.000823
94961000,0.0324,0.013523,0.002678,0.000431,0.000940
94962000,0.0324,0.013523,0.002678,0.000431,0.000705
94963000,0.0324,0.013523,0.002678,0.000431,0.000940
94964000,0.0324,0.013523,0.002678,0.000431,0.000823
94965000,0.0324,0.013523,0.002678,0.000431,0.000823
94966000,0.0324,0.013523,0.002678,0.000431,0.000823
94967000,0.0324,0.013523,0.002678,0.000431,0.000823
94968000,0.0324,0.013523,0.002678,0.000431,0.000940
94969000,0.0324,0.013523,0.002678,0.000431,0.000705
94970000,0.0324,0.013523,0.002678,0.000431,0.000940
94971000,0.0324,0.013523,0.002678,0.000431,0.000823
94972000,0.0324,0.013523,0.002678,0.000431,0.000823
94973000,0.0324,0.013523,0.002678,0.000431,0.000823
94974000,0.0324,0.013523,0.002678,0.000431,0.000823
94975000,0.0324,0.013523,0.002678,0.000431,0.000940
94976000,0.0324,0.013523,0.002678,0.000431,0.000705
94977000,0.0324,0.013523,0.002678,0.000431,0.000940
94978000,0.0324,0.013523,0.002678,0.000431,0.000705
94979000,0.0324,0.013523,0.002678,0.000431,0.000940
94980000,0.0324,0.013523,0.002678,0.000431,0.000705
94981000,0.0324,0.013523,0.002678,0.000431,0.000940
94982000,0.0324,0.013523,0.002678,0.000431,0.000940
94983000,0.0324,0.013523,0.002678,0.000431,0.000705
94984000,0.0324,0.013523,0.002678,0.000431,0.000940
94985000,0.0324,0.013523,0.002678,0.000431,0.000705
94986000,0.0324,0.013523,0.002678,0.000431,0.000940
94987000,0.0324,0.013523,0.002678,0.000431,0.000823
94988000,0.0324,0.013523,0.002678,0.000431,0.000823
94989000,0.0324,0.013523,0.002678,0.000431,0.000940
94990000,0.0324,0.013523,0.002678,0.000431,0.000705
94991000,0.0324,0.013523,0.002678,0.000431,0.000940
94992000,0.0324,0.013523,0.002678,0.000431,0.000705
94993000,0.0324,0.013523,0.002678,0.000431,0.000940
94994000,0.0324,0.013523,0.002678,0.000431,0.000705
94995000,0.0324,0.013523,0.002678,0.000431,0.000940
94996000,0.0324,0.013523,0.002678,0.000431,0.000823
94997000,0.0324,0.013523,0.002678,0.000431,0.000823
94998000,0.0324,0.013523,0.002678,0.000431,0.000823
94999000,0.0324,0.013523,0.002678,0.000431,0.000823
