Cycle,Area(mm^2),PeakDynamic(W),SubthresholdLeakage(W),GateLeakage(W),RunTimeDynamic(W)
23000000,0.0324,0.013523,0.002678,0.000431,0.000940
23001000,0.0324,0.013523,0.002678,0.000431,0.000705
23002000,0.0324,0.013523,0.002678,0.000431,0.000940
23003000,0.0324,0.013523,0.002678,0.000431,0.000823
23004000,0.0324,0.013523,0.002678,0.000431,0.000823
23005000,0.0324,0.013523,0.002678,0.000431,0.000823
23006000,0.0324,0.013523,0.002678,0.000431,0.000823
23007000,0.0324,0.013523,0.002678,0.000431,0.000940
23008000,0.0324,0.013523,0.002678,0.000431,0.000705
23009000,0.0324,0.013523,0.002678,0.000431,0.000940
23010000,0.0324,0.013523,0.002678,0.000431,0.162424
23011000,0.0324,0.013523,0.002678,0.000431,0.453894
23012000,0.0324,0.013523,0.002678,0.000431,0.524411
23013000,0.0324,0.013523,0.002678,0.000431,0.135628
23014000,0.0324,0.013523,0.002678,0.000431,0.131397
23015000,0.0324,0.013523,0.002678,0.000431,0.591989
23016000,0.0324,0.013523,0.002678,0.000431,0.280540
23017000,0.0324,0.013523,0.002678,0.000431,0.232823
23018000,0.0324,0.013523,0.002678,0.000431,0.280422
23019000,0.0324,0.013523,0.002678,0.000431,0.156195
23020000,0.0324,0.013523,0.002678,0.000431,0.170768
23021000,0.0324,0.013523,0.002678,0.000431,0.089204
23022000,0.0324,0.013523,0.002678,0.000431,0.477987
23023000,0.0324,0.013523,0.002678,0.000431,0.083680
23024000,0.0324,0.013523,0.002678,0.000431,0.045131
23025000,0.0324,0.013523,0.002678,0.000431,0.030910
23026000,0.0324,0.013523,0.002678,0.000431,0.020920
23027000,0.0324,0.013523,0.002678,0.000431,0.014573
23028000,0.0324,0.013523,0.002678,0.000431,0.016571
23029000,0.0324,0.013523,0.002678,0.000431,0.009637
23030000,0.0324,0.013523,0.002678,0.000431,0.004584
23031000,0.0324,0.013523,0.002678,0.000431,0.007287
23032000,0.0324,0.013523,0.002678,0.000431,0.003408
23033000,0.0324,0.013523,0.002678,0.000431,0.003526
23034000,0.0324,0.013523,0.002678,0.000431,0.003056
23035000,0.0324,0.013523,0.002678,0.000431,0.003643
23036000,0.0324,0.013523,0.002678,0.000431,0.003526
23037000,0.0324,0.013523,0.002678,0.000431,0.003408
23038000,0.0324,0.013523,0.002678,0.000431,0.005524
23039000,0.0324,0.013523,0.002678,0.000431,0.002586
23040000,0.0324,0.013523,0.002678,0.000431,0.002821
23041000,0.0324,0.013523,0.002678,0.000431,0.002703
23042000,0.0324,0.013523,0.002678,0.000431,0.002233
23043000,0.0324,0.013523,0.002678,0.000431,0.002821
23044000,0.0324,0.013523,0.002678,0.000431,0.002468
23045000,0.0324,0.013523,0.002678,0.000431,0.002703
23046000,0.0324,0.013523,0.002678,0.000431,0.004701
23047000,0.0324,0.013523,0.002678,0.000431,0.003408
23048000,0.0324,0.013523,0.002678,0.000431,0.001058
23049000,0.0324,0.013523,0.002678,0.000431,0.000705
23050000,0.0324,0.013523,0.002678,0.000431,0.000940
23051000,0.0324,0.013523,0.002678,0.000431,0.000940
23052000,0.0324,0.013523,0.002678,0.000431,0.000823
23053000,0.0324,0.013523,0.002678,0.000431,0.000823
23054000,0.0324,0.013523,0.002678,0.000431,0.000940
23055000,0.0324,0.013523,0.002678,0.000431,0.000940
23056000,0.0324,0.013523,0.002678,0.000431,0.002821
23057000,0.0324,0.013523,0.002678,0.000431,0.417695
23058000,0.0324,0.013523,0.002678,0.000431,0.666855
23059000,0.0324,0.013523,0.002678,0.000431,0.132572
23060000,0.0324,0.013523,0.002678,0.000431,0.133512
23061000,0.0324,0.013523,0.002678,0.000431,0.187222
23062000,0.0324,0.013523,0.002678,0.000431,0.550267
23063000,0.0324,0.013523,0.002678,0.000431,0.281950
23064000,0.0324,0.013523,0.002678,0.000431,0.263381
23065000,0.0324,0.013523,0.002678,0.000431,0.190983
23066000,0.0324,0.013523,0.002678,0.000431,0.150436
23067000,0.0324,0.013523,0.002678,0.000431,0.161131
23068000,0.0324,0.013523,0.002678,0.000431,0.140681
23069000,0.0324,0.013523,0.002678,0.000431,0.460005
23070000,0.0324,0.013523,0.002678,0.000431,0.052065
23071000,0.0324,0.013523,0.002678,0.000431,0.035376
23072000,0.0324,0.013523,0.002678,0.000431,0.026444
23073000,0.0324,0.013523,0.002678,0.000431,0.029147
23074000,0.0324,0.013523,0.002678,0.000431,0.016807
23075000,0.0324,0.013523,0.002678,0.000431,0.013986
23076000,0.0324,0.013523,0.002678,0.000431,0.014103
23077000,0.0324,0.013523,0.002678,0.000431,0.012458
23078000,0.0324,0.013523,0.002678,0.000431,0.013046
23079000,0.0324,0.013523,0.002678,0.000431,0.014456
23080000,0.0324,0.013523,0.002678,0.000431,0.011283
23081000,0.0324,0.013523,0.002678,0.000431,0.011400
23082000,0.0324,0.013523,0.002678,0.000431,0.008462
23083000,0.0324,0.013523,0.002678,0.000431,0.008697
23084000,0.0324,0.013523,0.002678,0.000431,0.006699
23085000,0.0324,0.013523,0.002678,0.000431,0.006817
23086000,0.0324,0.013523,0.002678,0.000431,0.006817
23087000,0.0324,0.013523,0.002678,0.000431,0.006582
23088000,0.0324,0.013523,0.002678,0.000431,0.007639
23089000,0.0324,0.013523,0.002678,0.000431,0.006582
23090000,0.0324,0.013523,0.002678,0.000431,0.005876
23091000,0.0324,0.013523,0.002678,0.000431,0.005876
23092000,0.0324,0.013523,0.002678,0.000431,0.005876
23093000,0.0324,0.013523,0.002678,0.000431,0.005641
23094000,0.0324,0.013523,0.002678,0.000431,0.006464
23095000,0.0324,0.013523,0.002678,0.000431,0.008109
23096000,0.0324,0.013523,0.002678,0.000431,0.006111
23097000,0.0324,0.013523,0.002678,0.000431,0.004113
23098000,0.0324,0.013523,0.002678,0.000431,0.004466
23099000,0.0324,0.013523,0.002678,0.000431,0.003996
23100000,0.0324,0.013523,0.002678,0.000431,0.004113
23101000,0.0324,0.013523,0.002678,0.000431,0.004349
23102000,0.0324,0.013523,0.002678,0.000431,0.004231
23103000,0.0324,0.013523,0.002678,0.000431,0.003878
23104000,0.0324,0.013523,0.002678,0.000431,0.004349
23105000,0.0324,0.013523,0.002678,0.000431,0.004231
23106000,0.0324,0.013523,0.002678,0.000431,0.004113
23107000,0.0324,0.013523,0.002678,0.000431,0.003996
23108000,0.0324,0.013523,0.002678,0.000431,0.004466
23109000,0.0324,0.013523,0.002678,0.000431,0.004231
23110000,0.0324,0.013523,0.002678,0.000431,0.003996
23111000,0.0324,0.013523,0.002678,0.000431,0.004231
23112000,0.0324,0.013523,0.002678,0.000431,0.004231
23113000,0.0324,0.013523,0.002678,0.000431,0.004349
23114000,0.0324,0.013523,0.002678,0.000431,0.003761
23115000,0.0324,0.013523,0.002678,0.000431,0.004349
23116000,0.0324,0.013523,0.002678,0.000431,0.004349
23117000,0.0324,0.013523,0.002678,0.000431,0.003996
23118000,0.0324,0.013523,0.002678,0.000431,0.004113
23119000,0.0324,0.013523,0.002678,0.000431,0.004231
23120000,0.0324,0.013523,0.002678,0.000431,0.004349
23121000,0.0324,0.013523,0.002678,0.000431,0.003996
23122000,0.0324,0.013523,0.002678,0.000431,0.004113
23123000,0.0324,0.013523,0.002678,0.000431,0.004701
23124000,0.0324,0.013523,0.002678,0.000431,0.003878
23125000,0.0324,0.013523,0.002678,0.000431,0.003878
23126000,0.0324,0.013523,0.002678,0.000431,0.004349
23127000,0.0324,0.013523,0.002678,0.000431,0.004584
23128000,0.0324,0.013523,0.002678,0.000431,0.003878
23129000,0.0324,0.013523,0.002678,0.000431,0.003878
23130000,0.0324,0.013523,0.002678,0.000431,0.004701
23131000,0.0324,0.013523,0.002678,0.000431,0.003996
23132000,0.0324,0.013523,0.002678,0.000431,0.004701
23133000,0.0324,0.013523,0.002678,0.000431,0.002468
23134000,0.0324,0.013523,0.002678,0.000431,0.002703
23135000,0.0324,0.013523,0.002678,0.000431,0.002468
23136000,0.0324,0.013523,0.002678,0.000431,0.002586
23137000,0.0324,0.013523,0.002678,0.000431,0.016807
23138000,0.0324,0.013523,0.002678,0.000431,0.516184
23139000,0.0324,0.013523,0.002678,0.000431,0.572245
23140000,0.0324,0.013523,0.002678,0.000431,0.133982
23141000,0.0324,0.013523,0.002678,0.000431,0.132572
23142000,0.0324,0.013523,0.002678,0.000431,0.502903
23143000,0.0324,0.013523,0.002678,0.000431,0.313213
23144000,0.0324,0.013523,0.002678,0.000431,0.242813
23145000,0.0324,0.013523,0.002678,0.000431,0.288297
23146000,0.0324,0.013523,0.002678,0.000431,0.140446
23147000,0.0324,0.013523,0.002678,0.000431,0.161484
23148000,0.0324,0.013523,0.002678,0.000431,0.099546
23149000,0.0324,0.013523,0.002678,0.000431,0.385257
23150000,0.0324,0.013523,0.002678,0.000431,0.229650
23151000,0.0324,0.013523,0.002678,0.000431,0.046776
23152000,0.0324,0.013523,0.002678,0.000431,0.044073
23153000,0.0324,0.013523,0.002678,0.000431,0.029029
23154000,0.0324,0.013523,0.002678,0.000431,0.027619
23155000,0.0324,0.013523,0.002678,0.000431,0.021743
23156000,0.0324,0.013523,0.002678,0.000431,0.025504
23157000,0.0324,0.013523,0.002678,0.000431,0.015279
23158000,0.0324,0.013523,0.002678,0.000431,0.016101
23159000,0.0324,0.013523,0.002678,0.000431,0.013868
23160000,0.0324,0.013523,0.002678,0.000431,0.011165
23161000,0.0324,0.013523,0.002678,0.000431,0.011988
23162000,0.0324,0.013523,0.002678,0.000431,0.008227
23163000,0.0324,0.013523,0.002678,0.000431,0.006464
23164000,0.0324,0.013523,0.002678,0.000431,0.006111
23165000,0.0324,0.013523,0.002678,0.000431,0.007169
23166000,0.0324,0.013523,0.002678,0.000431,0.006347
23167000,0.0324,0.013523,0.002678,0.000431,0.005171
23168000,0.0324,0.013523,0.002678,0.000431,0.005641
23169000,0.0324,0.013523,0.002678,0.000431,0.005054
23170000,0.0324,0.013523,0.002678,0.000431,0.005289
23171000,0.0324,0.013523,0.002678,0.000431,0.005406
23172000,0.0324,0.013523,0.002678,0.000431,0.005406
23173000,0.0324,0.013523,0.002678,0.000431,0.005524
23174000,0.0324,0.013523,0.002678,0.000431,0.006582
23175000,0.0324,0.013523,0.002678,0.000431,0.004466
23176000,0.0324,0.013523,0.002678,0.000431,0.004584
23177000,0.0324,0.013523,0.002678,0.000431,0.003996
23178000,0.0324,0.013523,0.002678,0.000431,0.004936
23179000,0.0324,0.013523,0.002678,0.000431,0.004113
23180000,0.0324,0.013523,0.002678,0.000431,0.004701
23181000,0.0324,0.013523,0.002678,0.000431,0.004231
23182000,0.0324,0.013523,0.002678,0.000431,0.004231
23183000,0.0324,0.013523,0.002678,0.000431,0.004701
23184000,0.0324,0.013523,0.002678,0.000431,0.004466
23185000,0.0324,0.013523,0.002678,0.000431,0.004701
23186000,0.0324,0.013523,0.002678,0.000431,0.003996
23187000,0.0324,0.013523,0.002678,0.000431,0.004466
23188000,0.0324,0.013523,0.002678,0.000431,0.004701
23189000,0.0324,0.013523,0.002678,0.000431,0.004349
23190000,0.0324,0.013523,0.002678,0.000431,0.004231
23191000,0.0324,0.013523,0.002678,0.000431,0.004584
23192000,0.0324,0.013523,0.002678,0.000431,0.004819
23193000,0.0324,0.013523,0.002678,0.000431,0.004231
23194000,0.0324,0.013523,0.002678,0.000431,0.004113
23195000,0.0324,0.013523,0.002678,0.000431,0.004701
23196000,0.0324,0.013523,0.002678,0.000431,0.004466
23197000,0.0324,0.013523,0.002678,0.000431,0.004466
23198000,0.0324,0.013523,0.002678,0.000431,0.004231
23199000,0.0324,0.013523,0.002678,0.000431,0.004701
23200000,0.0324,0.013523,0.002678,0.000431,0.004466
23201000,0.0324,0.013523,0.002678,0.000431,0.003878
23202000,0.0324,0.013523,0.002678,0.000431,0.004936
23203000,0.0324,0.013523,0.002678,0.000431,0.004231
23204000,0.0324,0.013523,0.002678,0.000431,0.004349
23205000,0.0324,0.013523,0.002678,0.000431,0.004466
23206000,0.0324,0.013523,0.002678,0.000431,0.004584
23207000,0.0324,0.013523,0.002678,0.000431,0.004584
23208000,0.0324,0.013523,0.002678,0.000431,0.003996
23209000,0.0324,0.013523,0.002678,0.000431,0.004819
23210000,0.0324,0.013523,0.002678,0.000431,0.004349
23211000,0.0324,0.013523,0.002678,0.000431,0.004466
23212000,0.0324,0.013523,0.002678,0.000431,0.004466
23213000,0.0324,0.013523,0.002678,0.000431,0.004231
23214000,0.0324,0.013523,0.002678,0.000431,0.005054
23215000,0.0324,0.013523,0.002678,0.000431,0.003878
23216000,0.0324,0.013523,0.002678,0.000431,0.004466
23217000,0.0324,0.013523,0.002678,0.000431,0.004584
23218000,0.0324,0.013523,0.002678,0.000431,0.004113
23219000,0.0324,0.013523,0.002678,0.000431,0.004701
23220000,0.0324,0.013523,0.002678,0.000431,0.004231
23221000,0.0324,0.013523,0.002678,0.000431,0.005054
23222000,0.0324,0.013523,0.002678,0.000431,0.003878
23223000,0.0324,0.013523,0.002678,0.000431,0.004231
23224000,0.0324,0.013523,0.002678,0.000431,0.006817
23225000,0.0324,0.013523,0.002678,0.000431,0.003643
23226000,0.0324,0.013523,0.002678,0.000431,0.003056
23227000,0.0324,0.013523,0.002678,0.000431,0.003291
23228000,0.0324,0.013523,0.002678,0.000431,0.003643
23229000,0.0324,0.013523,0.002678,0.000431,0.003878
23230000,0.0324,0.013523,0.002678,0.000431,0.001528
23231000,0.0324,0.013523,0.002678,0.000431,0.001763
23232000,0.0324,0.013523,0.002678,0.000431,0.001880
23233000,0.0324,0.013523,0.002678,0.000431,0.001763
23234000,0.0324,0.013523,0.002678,0.000431,0.001645
23235000,0.0324,0.013523,0.002678,0.000431,0.001528
23236000,0.0324,0.013523,0.002678,0.000431,0.001880
23237000,0.0324,0.013523,0.002678,0.000431,0.001763
23238000,0.0324,0.013523,0.002678,0.000431,0.001645
23239000,0.0324,0.013523,0.002678,0.000431,0.001763
23240000,0.0324,0.013523,0.002678,0.000431,0.001645
23241000,0.0324,0.013523,0.002678,0.000431,0.001763
23242000,0.0324,0.013523,0.002678,0.000431,0.001645
23243000,0.0324,0.013523,0.002678,0.000431,0.001763
23244000,0.0324,0.013523,0.002678,0.000431,0.001880
23245000,0.0324,0.013523,0.002678,0.000431,0.001410
23246000,0.0324,0.013523,0.002678,0.000431,0.001880
23247000,0.0324,0.013523,0.002678,0.000431,0.001763
23248000,0.0324,0.013523,0.002678,0.000431,0.001763
23249000,0.0324,0.013523,0.002678,0.000431,0.001528
23250000,0.0324,0.013523,0.002678,0.000431,0.001763
23251000,0.0324,0.013523,0.002678,0.000431,0.001763
23252000,0.0324,0.013523,0.002678,0.000431,0.001645
23253000,0.0324,0.013523,0.002678,0.000431,0.001763
23254000,0.0324,0.013523,0.002678,0.000431,0.001645
23255000,0.0324,0.013523,0.002678,0.000431,0.001880
23256000,0.0324,0.013523,0.002678,0.000431,0.001645
23257000,0.0324,0.013523,0.002678,0.000431,0.001645
23258000,0.0324,0.013523,0.002678,0.000431,0.001645
23259000,0.0324,0.013523,0.002678,0.000431,0.001763
23260000,0.0324,0.013523,0.002678,0.000431,0.001880
23261000,0.0324,0.013523,0.002678,0.000431,0.001528
23262000,0.0324,0.013523,0.002678,0.000431,0.001880
23263000,0.0324,0.013523,0.002678,0.000431,0.001528
23264000,0.0324,0.013523,0.002678,0.000431,0.001763
23265000,0.0324,0.013523,0.002678,0.000431,0.001763
23266000,0.0324,0.013523,0.002678,0.000431,0.001763
23267000,0.0324,0.013523,0.002678,0.000431,0.001880
23268000,0.0324,0.013523,0.002678,0.000431,0.001410
23269000,0.0324,0.013523,0.002678,0.000431,0.001880
23270000,0.0324,0.013523,0.002678,0.000431,0.001763
23271000,0.0324,0.013523,0.002678,0.000431,0.001645
23272000,0.0324,0.013523,0.002678,0.000431,0.001645
23273000,0.0324,0.013523,0.002678,0.000431,0.001763
23274000,0.0324,0.013523,0.002678,0.000431,0.001763
23275000,0.0324,0.013523,0.002678,0.000431,0.001645
23276000,0.0324,0.013523,0.002678,0.000431,0.001763
23277000,0.0324,0.013523,0.002678,0.000431,0.001645
23278000,0.0324,0.013523,0.002678,0.000431,0.001645
23279000,0.0324,0.013523,0.002678,0.000431,0.001763
23280000,0.0324,0.013523,0.002678,0.000431,0.001763
23281000,0.0324,0.013523,0.002678,0.000431,0.001763
23282000,0.0324,0.013523,0.002678,0.000431,0.001645
23283000,0.0324,0.013523,0.002678,0.000431,0.001528
23284000,0.0324,0.013523,0.002678,0.000431,0.001880
23285000,0.0324,0.013523,0.002678,0.000431,0.001880
23286000,0.0324,0.013523,0.002678,0.000431,0.001528
23287000,0.0324,0.013523,0.002678,0.000431,0.001763
23288000,0.0324,0.013523,0.002678,0.000431,0.001645
23289000,0.0324,0.013523,0.002678,0.000431,0.001880
23290000,0.0324,0.013523,0.002678,0.000431,0.001528
23291000,0.0324,0.013523,0.002678,0.000431,0.001763
23292000,0.0324,0.013523,0.002678,0.000431,0.001880
23293000,0.0324,0.013523,0.002678,0.000431,0.001528
23294000,0.0324,0.013523,0.002678,0.000431,0.001880
23295000,0.0324,0.013523,0.002678,0.000431,0.001645
23296000,0.0324,0.013523,0.002678,0.000431,0.001763
23297000,0.0324,0.013523,0.002678,0.000431,0.001645
23298000,0.0324,0.013523,0.002678,0.000431,0.001645
23299000,0.0324,0.013523,0.002678,0.000431,0.001763
23300000,0.0324,0.013523,0.002678,0.000431,0.001763
23301000,0.0324,0.013523,0.002678,0.000431,0.001645
23302000,0.0324,0.013523,0.002678,0.000431,0.001645
23303000,0.0324,0.013523,0.002678,0.000431,0.001880
23304000,0.0324,0.013523,0.002678,0.000431,0.001645
23305000,0.0324,0.013523,0.002678,0.000431,0.001645
23306000,0.0324,0.013523,0.002678,0.000431,0.001645
23307000,0.0324,0.013523,0.002678,0.000431,0.001880
23308000,0.0324,0.013523,0.002678,0.000431,0.001880
23309000,0.0324,0.013523,0.002678,0.000431,0.001410
23310000,0.0324,0.013523,0.002678,0.000431,0.001880
23311000,0.0324,0.013523,0.002678,0.000431,0.001645
23312000,0.0324,0.013523,0.002678,0.000431,0.003408
23313000,0.0324,0.013523,0.002678,0.000431,0.000823
23314000,0.0324,0.013523,0.002678,0.000431,0.000823
23315000,0.0324,0.013523,0.002678,0.000431,0.000823
23316000,0.0324,0.013523,0.002678,0.000431,0.000823
23317000,0.0324,0.013523,0.002678,0.000431,0.000940
23318000,0.0324,0.013523,0.002678,0.000431,0.000705
23319000,0.0324,0.013523,0.002678,0.000431,0.000940
23320000,0.0324,0.013523,0.002678,0.000431,0.000823
23321000,0.0324,0.013523,0.002678,0.000431,0.000823
23322000,0.0324,0.013523,0.002678,0.000431,0.000823
23323000,0.0324,0.013523,0.002678,0.000431,0.000823
23324000,0.0324,0.013523,0.002678,0.000431,0.000823
23325000,0.0324,0.013523,0.002678,0.000431,0.000823
23326000,0.0324,0.013523,0.002678,0.000431,0.000823
23327000,0.0324,0.013523,0.002678,0.000431,0.000940
23328000,0.0324,0.013523,0.002678,0.000431,0.000823
23329000,0.0324,0.013523,0.002678,0.000431,0.000823
23330000,0.0324,0.013523,0.002678,0.000431,0.000823
23331000,0.0324,0.013523,0.002678,0.000431,0.000705
23332000,0.0324,0.013523,0.002678,0.000431,0.000940
23333000,0.0324,0.013523,0.002678,0.000431,0.000940
23334000,0.0324,0.013523,0.002678,0.000431,0.000705
23335000,0.0324,0.013523,0.002678,0.000431,0.000940
23336000,0.0324,0.013523,0.002678,0.000431,0.000705
23337000,0.0324,0.013523,0.002678,0.000431,0.000940
23338000,0.0324,0.013523,0.002678,0.000431,0.000823
23339000,0.0324,0.013523,0.002678,0.000431,0.000823
23340000,0.0324,0.013523,0.002678,0.000431,0.000940
23341000,0.0324,0.013523,0.002678,0.000431,0.000705
23342000,0.0324,0.013523,0.002678,0.000431,0.000940
23343000,0.0324,0.013523,0.002678,0.000431,0.002586
23344000,0.0324,0.013523,0.002678,0.000431,0.405237
23345000,0.0324,0.013523,0.002678,0.000431,0.679430
23346000,0.0324,0.013523,0.002678,0.000431,0.135275
23347000,0.0324,0.013523,0.002678,0.000431,0.134922
23348000,0.0324,0.013523,0.002678,0.000431,0.201443
23349000,0.0324,0.013523,0.002678,0.000431,0.524646
23350000,0.0324,0.013523,0.002678,0.000431,0.252215
23351000,0.0324,0.013523,0.002678,0.000431,0.291000
23352000,0.0324,0.013523,0.002678,0.000431,0.225184
23353000,0.0324,0.013523,0.002678,0.000431,0.142914
23354000,0.0324,0.013523,0.002678,0.000431,0.160661
23355000,0.0324,0.013523,0.002678,0.000431,0.137978
23356000,0.0324,0.013523,0.002678,0.000431,0.453189
23357000,0.0324,0.013523,0.002678,0.000431,0.080037
23358000,0.0324,0.013523,0.002678,0.000431,0.063113
23359000,0.0324,0.013523,0.002678,0.000431,0.050302
23360000,0.0324,0.013523,0.002678,0.000431,0.033731
23361000,0.0324,0.013523,0.002678,0.000431,0.031498
23362000,0.0324,0.013523,0.002678,0.000431,0.020685
23363000,0.0324,0.013523,0.002678,0.000431,0.016571
23364000,0.0324,0.013523,0.002678,0.000431,0.015631
23365000,0.0324,0.013523,0.002678,0.000431,0.011400
23366000,0.0324,0.013523,0.002678,0.000431,0.011635
23367000,0.0324,0.013523,0.002678,0.000431,0.013868
23368000,0.0324,0.013523,0.002678,0.000431,0.012223
23369000,0.0324,0.013523,0.002678,0.000431,0.007404
23370000,0.0324,0.013523,0.002678,0.000431,0.006464
23371000,0.0324,0.013523,0.002678,0.000431,0.005171
23372000,0.0324,0.013523,0.002678,0.000431,0.004819
23373000,0.0324,0.013523,0.002678,0.000431,0.004936
23374000,0.0324,0.013523,0.002678,0.000431,0.005171
23375000,0.0324,0.013523,0.002678,0.000431,0.005054
23376000,0.0324,0.013523,0.002678,0.000431,0.004584
23377000,0.0324,0.013523,0.002678,0.000431,0.005289
23378000,0.0324,0.013523,0.002678,0.000431,0.005289
23379000,0.0324,0.013523,0.002678,0.000431,0.004701
23380000,0.0324,0.013523,0.002678,0.000431,0.005054
23381000,0.0324,0.013523,0.002678,0.000431,0.005054
23382000,0.0324,0.013523,0.002678,0.000431,0.005054
23383000,0.0324,0.013523,0.002678,0.000431,0.004819
23384000,0.0324,0.013523,0.002678,0.000431,0.006817
23385000,0.0324,0.013523,0.002678,0.000431,0.004349
23386000,0.0324,0.013523,0.002678,0.000431,0.003996
23387000,0.0324,0.013523,0.002678,0.000431,0.004231
23388000,0.0324,0.013523,0.002678,0.000431,0.005876
23389000,0.0324,0.013523,0.002678,0.000431,0.002586
23390000,0.0324,0.013523,0.002678,0.000431,0.002468
23391000,0.0324,0.013523,0.002678,0.000431,0.002703
23392000,0.0324,0.013523,0.002678,0.000431,0.002468
23393000,0.0324,0.013523,0.002678,0.000431,0.002468
23394000,0.0324,0.013523,0.002678,0.000431,0.002586
23395000,0.0324,0.013523,0.002678,0.000431,0.002468
23396000,0.0324,0.013523,0.002678,0.000431,0.002586
23397000,0.0324,0.013523,0.002678,0.000431,0.002468
23398000,0.0324,0.013523,0.002678,0.000431,0.002586
23399000,0.0324,0.013523,0.002678,0.000431,0.002703
23400000,0.0324,0.013523,0.002678,0.000431,0.002233
23401000,0.0324,0.013523,0.002678,0.000431,0.002586
23402000,0.0324,0.013523,0.002678,0.000431,0.002703
23403000,0.0324,0.013523,0.002678,0.000431,0.002586
23404000,0.0324,0.013523,0.002678,0.000431,0.002233
23405000,0.0324,0.013523,0.002678,0.000431,0.002586
23406000,0.0324,0.013523,0.002678,0.000431,0.002821
23407000,0.0324,0.013523,0.002678,0.000431,0.002116
23408000,0.0324,0.013523,0.002678,0.000431,0.003291
23409000,0.0324,0.013523,0.002678,0.000431,0.000940
23410000,0.0324,0.013523,0.002678,0.000431,0.000823
23411000,0.0324,0.013523,0.002678,0.000431,0.000940
23412000,0.0324,0.013523,0.002678,0.000431,0.000823
23413000,0.0324,0.013523,0.002678,0.000431,0.000940
23414000,0.0324,0.013523,0.002678,0.000431,0.000823
23415000,0.0324,0.013523,0.002678,0.000431,0.000823
23416000,0.0324,0.013523,0.002678,0.000431,0.000940
23417000,0.0324,0.013523,0.002678,0.000431,0.000823
23418000,0.0324,0.013523,0.002678,0.000431,0.000940
23419000,0.0324,0.013523,0.002678,0.000431,0.000823
23420000,0.0324,0.013523,0.002678,0.000431,0.000940
23421000,0.0324,0.013523,0.002678,0.000431,0.000940
23422000,0.0324,0.013523,0.002678,0.000431,0.107303
23423000,0.0324,0.013523,0.002678,0.000431,0.544391
23424000,0.0324,0.013523,0.002678,0.000431,0.527819
23425000,0.0324,0.013523,0.002678,0.000431,0.134570
23426000,0.0324,0.013523,0.002678,0.000431,0.131632
23427000,0.0324,0.013523,0.002678,0.000431,0.564018
23428000,0.0324,0.013523,0.002678,0.000431,0.242108
23429000,0.0324,0.013523,0.002678,0.000431,0.268434
23430000,0.0324,0.013523,0.002678,0.000431,0.288767
23431000,0.0324,0.013523,0.002678,0.000431,0.145147
23432000,0.0324,0.013523,0.002678,0.000431,0.165832
23433000,0.0324,0.013523,0.002678,0.000431,0.097196
23434000,0.0324,0.013523,0.002678,0.000431,0.449428
23435000,0.0324,0.013523,0.002678,0.000431,0.105540
23436000,0.0324,0.013523,0.002678,0.000431,0.021155
23437000,0.0324,0.013523,0.002678,0.000431,0.022095
23438000,0.0324,0.013523,0.002678,0.000431,0.012223
23439000,0.0324,0.013523,0.002678,0.000431,0.007169
23440000,0.0324,0.013523,0.002678,0.000431,0.007404
23441000,0.0324,0.013523,0.002678,0.000431,0.004113
23442000,0.0324,0.013523,0.002678,0.000431,0.001880
23443000,0.0324,0.013523,0.002678,0.000431,0.002468
23444000,0.0324,0.013523,0.002678,0.000431,0.000823
23445000,0.0324,0.013523,0.002678,0.000431,0.000940
23446000,0.0324,0.013523,0.002678,0.000431,0.000823
23447000,0.0324,0.013523,0.002678,0.000431,0.000940
23448000,0.0324,0.013523,0.002678,0.000431,0.000823
23449000,0.0324,0.013523,0.002678,0.000431,0.001058
23450000,0.0324,0.013523,0.002678,0.000431,0.000940
23451000,0.0324,0.013523,0.002678,0.000431,0.000823
23452000,0.0324,0.013523,0.002678,0.000431,0.000823
23453000,0.0324,0.013523,0.002678,0.000431,0.000940
23454000,0.0324,0.013523,0.002678,0.000431,0.000823
23455000,0.0324,0.013523,0.002678,0.000431,0.000940
23456000,0.0324,0.013523,0.002678,0.000431,0.000823
23457000,0.0324,0.013523,0.002678,0.000431,0.000940
23458000,0.0324,0.013523,0.002678,0.000431,0.000823
23459000,0.0324,0.013523,0.002678,0.000431,0.000823
23460000,0.0324,0.013523,0.002678,0.000431,0.000940
23461000,0.0324,0.013523,0.002678,0.000431,0.000940
23462000,0.0324,0.013523,0.002678,0.000431,0.000940
23463000,0.0324,0.013523,0.002678,0.000431,0.000705
23464000,0.0324,0.013523,0.002678,0.000431,0.000940
23465000,0.0324,0.013523,0.002678,0.000431,0.000940
23466000,0.0324,0.013523,0.002678,0.000431,0.000823
23467000,0.0324,0.013523,0.002678,0.000431,0.000823
23468000,0.0324,0.013523,0.002678,0.000431,0.000940
23469000,0.0324,0.013523,0.002678,0.000431,0.000823
23470000,0.0324,0.013523,0.002678,0.000431,0.000940
23471000,0.0324,0.013523,0.002678,0.000431,0.000823
23472000,0.0324,0.013523,0.002678,0.000431,0.000940
23473000,0.0324,0.013523,0.002678,0.000431,0.000823
23474000,0.0324,0.013523,0.002678,0.000431,0.000823
23475000,0.0324,0.013523,0.002678,0.000431,0.000940
23476000,0.0324,0.013523,0.002678,0.000431,0.000940
23477000,0.0324,0.013523,0.002678,0.000431,0.000823
23478000,0.0324,0.013523,0.002678,0.000431,0.000823
23479000,0.0324,0.013523,0.002678,0.000431,0.000940
23480000,0.0324,0.013523,0.002678,0.000431,0.000940
23481000,0.0324,0.013523,0.002678,0.000431,0.000705
23482000,0.0324,0.013523,0.002678,0.000431,0.000940
23483000,0.0324,0.013523,0.002678,0.000431,0.000940
23484000,0.0324,0.013523,0.002678,0.000431,0.000940
23485000,0.0324,0.013523,0.002678,0.000431,0.000823
23486000,0.0324,0.013523,0.002678,0.000431,0.000823
23487000,0.0324,0.013523,0.002678,0.000431,0.000940
23488000,0.0324,0.013523,0.002678,0.000431,0.000823
23489000,0.0324,0.013523,0.002678,0.000431,0.000940
23490000,0.0324,0.013523,0.002678,0.000431,0.000823
23491000,0.0324,0.013523,0.002678,0.000431,0.000940
23492000,0.0324,0.013523,0.002678,0.000431,0.000823
23493000,0.0324,0.013523,0.002678,0.000431,0.000823
23494000,0.0324,0.013523,0.002678,0.000431,0.000940
23495000,0.0324,0.013523,0.002678,0.000431,0.000940
23496000,0.0324,0.013523,0.002678,0.000431,0.000823
23497000,0.0324,0.013523,0.002678,0.000431,0.000823
23498000,0.0324,0.013523,0.002678,0.000431,0.000940
23499000,0.0324,0.013523,0.002678,0.000431,0.000940
23500000,0.0324,0.013523,0.002678,0.000431,0.000705
23501000,0.0324,0.013523,0.002678,0.000431,0.000940
23502000,0.0324,0.013523,0.002678,0.000431,0.000940
23503000,0.0324,0.013523,0.002678,0.000431,0.000940
23504000,0.0324,0.013523,0.002678,0.000431,0.000705
23505000,0.0324,0.013523,0.002678,0.000431,0.000940
23506000,0.0324,0.013523,0.002678,0.000431,0.000940
23507000,0.0324,0.013523,0.002678,0.000431,0.000823
23508000,0.0324,0.013523,0.002678,0.000431,0.000823
23509000,0.0324,0.013523,0.002678,0.000431,0.000940
23510000,0.0324,0.013523,0.002678,0.000431,0.000940
23511000,0.0324,0.013523,0.002678,0.000431,0.000823
23512000,0.0324,0.013523,0.002678,0.000431,0.000823
23513000,0.0324,0.013523,0.002678,0.000431,0.000940
23514000,0.0324,0.013523,0.002678,0.000431,0.000823
23515000,0.0324,0.013523,0.002678,0.000431,0.000823
23516000,0.0324,0.013523,0.002678,0.000431,0.000940
23517000,0.0324,0.013523,0.002678,0.000431,0.000940
23518000,0.0324,0.013523,0.002678,0.000431,0.000940
23519000,0.0324,0.013523,0.002678,0.000431,0.000705
23520000,0.0324,0.013523,0.002678,0.000431,0.000940
23521000,0.0324,0.013523,0.002678,0.000431,0.000940
23522000,0.0324,0.013523,0.002678,0.000431,0.000823
23523000,0.0324,0.013523,0.002678,0.000431,0.000823
23524000,0.0324,0.013523,0.002678,0.000431,0.000940
23525000,0.0324,0.013523,0.002678,0.000431,0.000940
23526000,0.0324,0.013523,0.002678,0.000431,0.000823
23527000,0.0324,0.013523,0.002678,0.000431,0.000823
23528000,0.0324,0.013523,0.002678,0.000431,0.000940
23529000,0.0324,0.013523,0.002678,0.000431,0.000823
23530000,0.0324,0.013523,0.002678,0.000431,0.000940
23531000,0.0324,0.013523,0.002678,0.000431,0.000823
23532000,0.0324,0.013523,0.002678,0.000431,0.000940
23533000,0.0324,0.013523,0.002678,0.000431,0.000823
23534000,0.0324,0.013523,0.002678,0.000431,0.000823
23535000,0.0324,0.013523,0.002678,0.000431,0.000940
23536000,0.0324,0.013523,0.002678,0.000431,0.000940
23537000,0.0324,0.013523,0.002678,0.000431,0.000823
23538000,0.0324,0.013523,0.002678,0.000431,0.000823
23539000,0.0324,0.013523,0.002678,0.000431,0.000940
23540000,0.0324,0.013523,0.002678,0.000431,0.000940
23541000,0.0324,0.013523,0.002678,0.000431,0.000705
23542000,0.0324,0.013523,0.002678,0.000431,0.000940
23543000,0.0324,0.013523,0.002678,0.000431,0.000940
23544000,0.0324,0.013523,0.002678,0.000431,0.166067
23545000,0.0324,0.013523,0.002678,0.000431,0.423924
23546000,0.0324,0.013523,0.002678,0.000431,0.530522
23547000,0.0324,0.013523,0.002678,0.000431,0.133982
23548000,0.0324,0.013523,0.002678,0.000431,0.132102
23549000,0.0324,0.013523,0.002678,0.000431,0.564253
23550000,0.0324,0.013523,0.002678,0.000431,0.237877
23551000,0.0324,0.013523,0.002678,0.000431,0.232236
23552000,0.0324,0.013523,0.002678,0.000431,0.342125
23553000,0.0324,0.013523,0.002678,0.000431,0.144912
23554000,0.0324,0.013523,0.002678,0.000431,0.145852
23555000,0.0324,0.013523,0.002678,0.000431,0.112827
23556000,0.0324,0.013523,0.002678,0.000431,0.393602
23557000,0.0324,0.013523,0.002678,0.000431,0.192981
23558000,0.0324,0.013523,0.002678,0.000431,0.052770
23559000,0.0324,0.013523,0.002678,0.000431,0.044778
23560000,0.0324,0.013523,0.002678,0.000431,0.038902
23561000,0.0324,0.013523,0.002678,0.000431,0.032085
23562000,0.0324,0.013523,0.002678,0.000431,0.026209
23563000,0.0324,0.013523,0.002678,0.000431,0.026209
23564000,0.0324,0.013523,0.002678,0.000431,0.020802
23565000,0.0324,0.013523,0.002678,0.000431,0.021625
23566000,0.0324,0.013523,0.002678,0.000431,0.020685
23567000,0.0324,0.013523,0.002678,0.000431,0.019745
23568000,0.0324,0.013523,0.002678,0.000431,0.022213
23569000,0.0324,0.013523,0.002678,0.000431,0.013751
23570000,0.0324,0.013523,0.002678,0.000431,0.015279
23571000,0.0324,0.013523,0.002678,0.000431,0.015279
23572000,0.0324,0.013523,0.002678,0.000431,0.012340
23573000,0.0324,0.013523,0.002678,0.000431,0.011048
23574000,0.0324,0.013523,0.002678,0.000431,0.013868
23575000,0.0324,0.013523,0.002678,0.000431,0.011048
23576000,0.0324,0.013523,0.002678,0.000431,0.011283
23577000,0.0324,0.013523,0.002678,0.000431,0.011753
23578000,0.0324,0.013523,0.002678,0.000431,0.010578
23579000,0.0324,0.013523,0.002678,0.000431,0.009990
23580000,0.0324,0.013523,0.002678,0.000431,0.010342
23581000,0.0324,0.013523,0.002678,0.000431,0.010107
23582000,0.0324,0.013523,0.002678,0.000431,0.010813
23583000,0.0324,0.013523,0.002678,0.000431,0.011400
23584000,0.0324,0.013523,0.002678,0.000431,0.009050
23585000,0.0324,0.013523,0.002678,0.000431,0.009402
23586000,0.0324,0.013523,0.002678,0.000431,0.010460
23587000,0.0324,0.013523,0.002678,0.000431,0.009402
23588000,0.0324,0.013523,0.002678,0.000431,0.007992
23589000,0.0324,0.013523,0.002678,0.000431,0.008345
23590000,0.0324,0.013523,0.002678,0.000431,0.009402
23591000,0.0324,0.013523,0.002678,0.000431,0.009050
23592000,0.0324,0.013523,0.002678,0.000431,0.007052
23593000,0.0324,0.013523,0.002678,0.000431,0.010342
23594000,0.0324,0.013523,0.002678,0.000431,0.005759
23595000,0.0324,0.013523,0.002678,0.000431,0.006817
23596000,0.0324,0.013523,0.002678,0.000431,0.004466
23597000,0.0324,0.013523,0.002678,0.000431,0.007052
23598000,0.0324,0.013523,0.002678,0.000431,0.001763
23599000,0.0324,0.013523,0.002678,0.000431,0.003526
23600000,0.0324,0.013523,0.002678,0.000431,0.000823
23601000,0.0324,0.013523,0.002678,0.000431,0.000940
23602000,0.0324,0.013523,0.002678,0.000431,0.000823
23603000,0.0324,0.013523,0.002678,0.000431,0.000823
23604000,0.0324,0.013523,0.002678,0.000431,0.188398
23605000,0.0324,0.013523,0.002678,0.000431,0.446372
23606000,0.0324,0.013523,0.002678,0.000431,0.513716
23607000,0.0324,0.013523,0.002678,0.000431,0.133982
23608000,0.0324,0.013523,0.002678,0.000431,0.131632
23609000,0.0324,0.013523,0.002678,0.000431,0.577063
23610000,0.0324,0.013523,0.002678,0.000431,0.268317
23611000,0.0324,0.013523,0.002678,0.000431,0.279012
23612000,0.0324,0.013523,0.002678,0.000431,0.251158
23613000,0.0324,0.013523,0.002678,0.000431,0.143384
23614000,0.0324,0.013523,0.002678,0.000431,0.139153
23615000,0.0324,0.013523,0.002678,0.000431,0.112592
23616000,0.0324,0.013523,0.002678,0.000431,0.418165
23617000,0.0324,0.013523,0.002678,0.000431,0.169123
23618000,0.0324,0.013523,0.002678,0.000431,0.060174
23619000,0.0324,0.013523,0.002678,0.000431,0.042075
23620000,0.0324,0.013523,0.002678,0.000431,0.041487
23621000,0.0324,0.013523,0.002678,0.000431,0.036786
23622000,0.0324,0.013523,0.002678,0.000431,0.024211
23623000,0.0324,0.013523,0.002678,0.000431,0.025386
23624000,0.0324,0.013523,0.002678,0.000431,0.020567
23625000,0.0324,0.013523,0.002678,0.000431,0.020802
23626000,0.0324,0.013523,0.002678,0.000431,0.014221
23627000,0.0324,0.013523,0.002678,0.000431,0.010578
23628000,0.0324,0.013523,0.002678,0.000431,0.011165
23629000,0.0324,0.013523,0.002678,0.000431,0.009755
23630000,0.0324,0.013523,0.002678,0.000431,0.008815
23631000,0.0324,0.013523,0.002678,0.000431,0.009285
23632000,0.0324,0.013523,0.002678,0.000431,0.007639
23633000,0.0324,0.013523,0.002678,0.000431,0.008815
23634000,0.0324,0.013523,0.002678,0.000431,0.009990
23635000,0.0324,0.013523,0.002678,0.000431,0.009990
23636000,0.0324,0.013523,0.002678,0.000431,0.006817
23637000,0.0324,0.013523,0.002678,0.000431,0.006934
23638000,0.0324,0.013523,0.002678,0.000431,0.009637
23639000,0.0324,0.013523,0.002678,0.000431,0.003878
23640000,0.0324,0.013523,0.002678,0.000431,0.003291
23641000,0.0324,0.013523,0.002678,0.000431,0.003408
23642000,0.0324,0.013523,0.002678,0.000431,0.003526
23643000,0.0324,0.013523,0.002678,0.000431,0.003643
23644000,0.0324,0.013523,0.002678,0.000431,0.003408
23645000,0.0324,0.013523,0.002678,0.000431,0.003643
23646000,0.0324,0.013523,0.002678,0.000431,0.003408
23647000,0.0324,0.013523,0.002678,0.000431,0.005289
23648000,0.0324,0.013523,0.002678,0.000431,0.002586
23649000,0.0324,0.013523,0.002678,0.000431,0.002586
23650000,0.0324,0.013523,0.002678,0.000431,0.002703
23651000,0.0324,0.013523,0.002678,0.000431,0.002586
23652000,0.0324,0.013523,0.002678,0.000431,0.002586
23653000,0.0324,0.013523,0.002678,0.000431,0.002821
23654000,0.0324,0.013523,0.002678,0.000431,0.002703
23655000,0.0324,0.013523,0.002678,0.000431,0.002586
23656000,0.0324,0.013523,0.002678,0.000431,0.002468
23657000,0.0324,0.013523,0.002678,0.000431,0.002703
23658000,0.0324,0.013523,0.002678,0.000431,0.002703
23659000,0.0324,0.013523,0.002678,0.000431,0.002586
23660000,0.0324,0.013523,0.002678,0.000431,0.002468
23661000,0.0324,0.013523,0.002678,0.000431,0.002821
23662000,0.0324,0.013523,0.002678,0.000431,0.002703
23663000,0.0324,0.013523,0.002678,0.000431,0.002586
23664000,0.0324,0.013523,0.002678,0.000431,0.002468
23665000,0.0324,0.013523,0.002678,0.000431,0.002703
23666000,0.0324,0.013523,0.002678,0.000431,0.003643
23667000,0.0324,0.013523,0.002678,0.000431,0.001763
23668000,0.0324,0.013523,0.002678,0.000431,0.001763
23669000,0.0324,0.013523,0.002678,0.000431,0.001645
23670000,0.0324,0.013523,0.002678,0.000431,0.001763
23671000,0.0324,0.013523,0.002678,0.000431,0.001880
23672000,0.0324,0.013523,0.002678,0.000431,0.001763
23673000,0.0324,0.013523,0.002678,0.000431,0.001645
23674000,0.0324,0.013523,0.002678,0.000431,0.001763
23675000,0.0324,0.013523,0.002678,0.000431,0.001880
23676000,0.0324,0.013523,0.002678,0.000431,0.001763
23677000,0.0324,0.013523,0.002678,0.000431,0.001645
23678000,0.0324,0.013523,0.002678,0.000431,0.001763
23679000,0.0324,0.013523,0.002678,0.000431,0.001763
23680000,0.0324,0.013523,0.002678,0.000431,0.001880
23681000,0.0324,0.013523,0.002678,0.000431,0.001645
23682000,0.0324,0.013523,0.002678,0.000431,0.001763
23683000,0.0324,0.013523,0.002678,0.000431,0.001763
23684000,0.0324,0.013523,0.002678,0.000431,0.001645
23685000,0.0324,0.013523,0.002678,0.000431,0.001880
23686000,0.0324,0.013523,0.002678,0.000431,0.003526
23687000,0.0324,0.013523,0.002678,0.000431,0.000940
23688000,0.0324,0.013523,0.002678,0.000431,0.000823
23689000,0.0324,0.013523,0.002678,0.000431,0.000823
23690000,0.0324,0.013523,0.002678,0.000431,0.000940
23691000,0.0324,0.013523,0.002678,0.000431,0.000940
23692000,0.0324,0.013523,0.002678,0.000431,0.000705
23693000,0.0324,0.013523,0.002678,0.000431,0.000940
23694000,0.0324,0.013523,0.002678,0.000431,0.000940
23695000,0.0324,0.013523,0.002678,0.000431,0.000940
23696000,0.0324,0.013523,0.002678,0.000431,0.000705
23697000,0.0324,0.013523,0.002678,0.000431,0.000940
23698000,0.0324,0.013523,0.002678,0.000431,0.000940
23699000,0.0324,0.013523,0.002678,0.000431,0.000823
23700000,0.0324,0.013523,0.002678,0.000431,0.000823
23701000,0.0324,0.013523,0.002678,0.000431,0.000940
23702000,0.0324,0.013523,0.002678,0.000431,0.000940
23703000,0.0324,0.013523,0.002678,0.000431,0.000823
23704000,0.0324,0.013523,0.002678,0.000431,0.000823
23705000,0.0324,0.013523,0.002678,0.000431,0.000940
23706000,0.0324,0.013523,0.002678,0.000431,0.000823
23707000,0.0324,0.013523,0.002678,0.000431,0.000940
23708000,0.0324,0.013523,0.002678,0.000431,0.000823
23709000,0.0324,0.013523,0.002678,0.000431,0.000940
23710000,0.0324,0.013523,0.002678,0.000431,0.000823
23711000,0.0324,0.013523,0.002678,0.000431,0.000823
23712000,0.0324,0.013523,0.002678,0.000431,0.000940
23713000,0.0324,0.013523,0.002678,0.000431,0.000940
23714000,0.0324,0.013523,0.002678,0.000431,0.000940
23715000,0.0324,0.013523,0.002678,0.000431,0.000705
23716000,0.0324,0.013523,0.002678,0.000431,0.000940
23717000,0.0324,0.013523,0.002678,0.000431,0.000940
23718000,0.0324,0.013523,0.002678,0.000431,0.000823
23719000,0.0324,0.013523,0.002678,0.000431,0.000823
23720000,0.0324,0.013523,0.002678,0.000431,0.000940
23721000,0.0324,0.013523,0.002678,0.000431,0.000940
23722000,0.0324,0.013523,0.002678,0.000431,0.000823
23723000,0.0324,0.013523,0.002678,0.000431,0.000823
23724000,0.0324,0.013523,0.002678,0.000431,0.000940
23725000,0.0324,0.013523,0.002678,0.000431,0.000823
23726000,0.0324,0.013523,0.002678,0.000431,0.000940
23727000,0.0324,0.013523,0.002678,0.000431,0.000823
23728000,0.0324,0.013523,0.002678,0.000431,0.000940
23729000,0.0324,0.013523,0.002678,0.000431,0.000823
23730000,0.0324,0.013523,0.002678,0.000431,0.000823
23731000,0.0324,0.013523,0.002678,0.000431,0.000940
23732000,0.0324,0.013523,0.002678,0.000431,0.000940
23733000,0.0324,0.013523,0.002678,0.000431,0.000823
23734000,0.0324,0.013523,0.002678,0.000431,0.000823
23735000,0.0324,0.013523,0.002678,0.000431,0.000940
23736000,0.0324,0.013523,0.002678,0.000431,0.000940
23737000,0.0324,0.013523,0.002678,0.000431,0.000823
23738000,0.0324,0.013523,0.002678,0.000431,0.000823
23739000,0.0324,0.013523,0.002678,0.000431,0.000940
23740000,0.0324,0.013523,0.002678,0.000431,0.000823
23741000,0.0324,0.013523,0.002678,0.000431,0.000940
23742000,0.0324,0.013523,0.002678,0.000431,0.000823
23743000,0.0324,0.013523,0.002678,0.000431,0.000940
23744000,0.0324,0.013523,0.002678,0.000431,0.000823
23745000,0.0324,0.013523,0.002678,0.000431,0.000823
23746000,0.0324,0.013523,0.002678,0.000431,0.000940
23747000,0.0324,0.013523,0.002678,0.000431,0.000940
23748000,0.0324,0.013523,0.002678,0.000431,0.000823
23749000,0.0324,0.013523,0.002678,0.000431,0.000823
23750000,0.0324,0.013523,0.002678,0.000431,0.000940
23751000,0.0324,0.013523,0.002678,0.000431,0.000940
23752000,0.0324,0.013523,0.002678,0.000431,0.000705
23753000,0.0324,0.013523,0.002678,0.000431,0.000940
23754000,0.0324,0.013523,0.002678,0.000431,0.000940
23755000,0.0324,0.013523,0.002678,0.000431,0.000940
23756000,0.0324,0.013523,0.002678,0.000431,0.000705
23757000,0.0324,0.013523,0.002678,0.000431,0.000940
23758000,0.0324,0.013523,0.002678,0.000431,0.000940
23759000,0.0324,0.013523,0.002678,0.000431,0.000823
23760000,0.0324,0.013523,0.002678,0.000431,0.000823
23761000,0.0324,0.013523,0.002678,0.000431,0.000940
23762000,0.0324,0.013523,0.002678,0.000431,0.000940
23763000,0.0324,0.013523,0.002678,0.000431,0.000823
23764000,0.0324,0.013523,0.002678,0.000431,0.000823
23765000,0.0324,0.013523,0.002678,0.000431,0.000940
23766000,0.0324,0.013523,0.002678,0.000431,0.000823
23767000,0.0324,0.013523,0.002678,0.000431,0.000940
23768000,0.0324,0.013523,0.002678,0.000431,0.000823
23769000,0.0324,0.013523,0.002678,0.000431,0.000940
23770000,0.0324,0.013523,0.002678,0.000431,0.000823
23771000,0.0324,0.013523,0.002678,0.000431,0.000823
23772000,0.0324,0.013523,0.002678,0.000431,0.000940
23773000,0.0324,0.013523,0.002678,0.000431,0.000940
23774000,0.0324,0.013523,0.002678,0.000431,0.000940
23775000,0.0324,0.013523,0.002678,0.000431,0.000705
23776000,0.0324,0.013523,0.002678,0.000431,0.000940
23777000,0.0324,0.013523,0.002678,0.000431,0.000940
23778000,0.0324,0.013523,0.002678,0.000431,0.000823
23779000,0.0324,0.013523,0.002678,0.000431,0.000823
23780000,0.0324,0.013523,0.002678,0.000431,0.000940
23781000,0.0324,0.013523,0.002678,0.000431,0.000823
23782000,0.0324,0.013523,0.002678,0.000431,0.001058
23783000,0.0324,0.013523,0.002678,0.000431,0.000823
23784000,0.0324,0.013523,0.002678,0.000431,0.000823
23785000,0.0324,0.013523,0.002678,0.000431,0.000940
23786000,0.0324,0.013523,0.002678,0.000431,0.000940
23787000,0.0324,0.013523,0.002678,0.000431,0.000705
23788000,0.0324,0.013523,0.002678,0.000431,0.000940
23789000,0.0324,0.013523,0.002678,0.000431,0.000940
23790000,0.0324,0.013523,0.002678,0.000431,0.000940
23791000,0.0324,0.013523,0.002678,0.000431,0.000823
23792000,0.0324,0.013523,0.002678,0.000431,0.000823
23793000,0.0324,0.013523,0.002678,0.000431,0.001763
23794000,0.0324,0.013523,0.002678,0.000431,0.353525
23795000,0.0324,0.013523,0.002678,0.000431,0.665327
23796000,0.0324,0.013523,0.002678,0.000431,0.172649
23797000,0.0324,0.013523,0.002678,0.000431,0.133042
23798000,0.0324,0.013523,0.002678,0.000431,0.134570
23799000,0.0324,0.013523,0.002678,0.000431,0.598924
23800000,0.0324,0.013523,0.002678,0.000431,0.250100
23801000,0.0324,0.013523,0.002678,0.000431,0.267729
23802000,0.0324,0.013523,0.002678,0.000431,0.258092
23803000,0.0324,0.013523,0.002678,0.000431,0.145030
23804000,0.0324,0.013523,0.002678,0.000431,0.174059
23805000,0.0324,0.013523,0.002678,0.000431,0.095903
23806000,0.0324,0.013523,0.002678,0.000431,0.492208
23807000,0.0324,0.013523,0.002678,0.000431,0.082505
23808000,0.0324,0.013523,0.002678,0.000431,0.049479
23809000,0.0324,0.013523,0.002678,0.000431,0.039372
23810000,0.0324,0.013523,0.002678,0.000431,0.033848
23811000,0.0324,0.013523,0.002678,0.000431,0.024446
23812000,0.0324,0.013523,0.002678,0.000431,0.023388
23813000,0.0324,0.013523,0.002678,0.000431,0.019275
23814000,0.0324,0.013523,0.002678,0.000431,0.017394
23815000,0.0324,0.013523,0.002678,0.000431,0.017159
23816000,0.0324,0.013523,0.002678,0.000431,0.017159
23817000,0.0324,0.013523,0.002678,0.000431,0.017864
23818000,0.0324,0.013523,0.002678,0.000431,0.013516
23819000,0.0324,0.013523,0.002678,0.000431,0.014456
23820000,0.0324,0.013523,0.002678,0.000431,0.012693
23821000,0.0324,0.013523,0.002678,0.000431,0.012576
23822000,0.0324,0.013523,0.002678,0.000431,0.008109
23823000,0.0324,0.013523,0.002678,0.000431,0.008815
23824000,0.0324,0.013523,0.002678,0.000431,0.010930
23825000,0.0324,0.013523,0.002678,0.000431,0.006582
23826000,0.0324,0.013523,0.002678,0.000431,0.005406
23827000,0.0324,0.013523,0.002678,0.000431,0.004936
23828000,0.0324,0.013523,0.002678,0.000431,0.005054
23829000,0.0324,0.013523,0.002678,0.000431,0.005994
23830000,0.0324,0.013523,0.002678,0.000431,0.007052
23831000,0.0324,0.013523,0.002678,0.000431,0.003526
23832000,0.0324,0.013523,0.002678,0.000431,0.001645
23833000,0.0324,0.013523,0.002678,0.000431,0.001763
23834000,0.0324,0.013523,0.002678,0.000431,0.001763
23835000,0.0324,0.013523,0.002678,0.000431,0.001763
23836000,0.0324,0.013523,0.002678,0.000431,0.001763
23837000,0.0324,0.013523,0.002678,0.000431,0.001763
23838000,0.0324,0.013523,0.002678,0.000431,0.001763
23839000,0.0324,0.013523,0.002678,0.000431,0.001645
23840000,0.0324,0.013523,0.002678,0.000431,0.001763
23841000,0.0324,0.013523,0.002678,0.000431,0.001880
23842000,0.0324,0.013523,0.002678,0.000431,0.001763
23843000,0.0324,0.013523,0.002678,0.000431,0.001645
23844000,0.0324,0.013523,0.002678,0.000431,0.001763
23845000,0.0324,0.013523,0.002678,0.000431,0.001880
23846000,0.0324,0.013523,0.002678,0.000431,0.001645
23847000,0.0324,0.013523,0.002678,0.000431,0.001763
23848000,0.0324,0.013523,0.002678,0.000431,0.001763
23849000,0.0324,0.013523,0.002678,0.000431,0.001763
23850000,0.0324,0.013523,0.002678,0.000431,0.001645
23851000,0.0324,0.013523,0.002678,0.000431,0.001880
23852000,0.0324,0.013523,0.002678,0.000431,0.001763
23853000,0.0324,0.013523,0.002678,0.000431,0.001763
23854000,0.0324,0.013523,0.002678,0.000431,0.001645
23855000,0.0324,0.013523,0.002678,0.000431,0.001763
23856000,0.0324,0.013523,0.002678,0.000431,0.001763
23857000,0.0324,0.013523,0.002678,0.000431,0.001880
23858000,0.0324,0.013523,0.002678,0.000431,0.001645
23859000,0.0324,0.013523,0.002678,0.000431,0.001763
23860000,0.0324,0.013523,0.002678,0.000431,0.001880
23861000,0.0324,0.013523,0.002678,0.000431,0.001645
23862000,0.0324,0.013523,0.002678,0.000431,0.001645
23863000,0.0324,0.013523,0.002678,0.000431,0.001880
23864000,0.0324,0.013523,0.002678,0.000431,0.001880
23865000,0.0324,0.013523,0.002678,0.000431,0.001645
23866000,0.0324,0.013523,0.002678,0.000431,0.001645
23867000,0.0324,0.013523,0.002678,0.000431,0.001880
23868000,0.0324,0.013523,0.002678,0.000431,0.001763
23869000,0.0324,0.013523,0.002678,0.000431,0.002938
23870000,0.0324,0.013523,0.002678,0.000431,0.000823
23871000,0.0324,0.013523,0.002678,0.000431,0.000940
23872000,0.0324,0.013523,0.002678,0.000431,0.000940
23873000,0.0324,0.013523,0.002678,0.000431,0.000705
23874000,0.0324,0.013523,0.002678,0.000431,0.000940
23875000,0.0324,0.013523,0.002678,0.000431,0.000940
23876000,0.0324,0.013523,0.002678,0.000431,0.000940
23877000,0.0324,0.013523,0.002678,0.000431,0.000705
23878000,0.0324,0.013523,0.002678,0.000431,0.000940
23879000,0.0324,0.013523,0.002678,0.000431,0.000940
23880000,0.0324,0.013523,0.002678,0.000431,0.000823
23881000,0.0324,0.013523,0.002678,0.000431,0.000940
23882000,0.0324,0.013523,0.002678,0.000431,0.217075
23883000,0.0324,0.013523,0.002678,0.000431,0.627365
23884000,0.0324,0.013523,0.002678,0.000431,0.367158
23885000,0.0324,0.013523,0.002678,0.000431,0.132572
23886000,0.0324,0.013523,0.002678,0.000431,0.161366
23887000,0.0324,0.013523,0.002678,0.000431,0.641116
23888000,0.0324,0.013523,0.002678,0.000431,0.225419
23889000,0.0324,0.013523,0.002678,0.000431,0.317914
23890000,0.0324,0.013523,0.002678,0.000431,0.210493
23891000,0.0324,0.013523,0.002678,0.000431,0.145382
23892000,0.0324,0.013523,0.002678,0.000431,0.122699
23893000,0.0324,0.013523,0.002678,0.000431,0.315681
23894000,0.0324,0.013523,0.002678,0.000431,0.302753
23895000,0.0324,0.013523,0.002678,0.000431,0.058294
23896000,0.0324,0.013523,0.002678,0.000431,0.044308
23897000,0.0324,0.013523,0.002678,0.000431,0.038197
23898000,0.0324,0.013523,0.002678,0.000431,0.029382
23899000,0.0324,0.013523,0.002678,0.000431,0.020567
23900000,0.0324,0.013523,0.002678,0.000431,0.022565
23901000,0.0324,0.013523,0.002678,0.000431,0.014103
23902000,0.0324,0.013523,0.002678,0.000431,0.010813
23903000,0.0324,0.013523,0.002678,0.000431,0.010930
23904000,0.0324,0.013523,0.002678,0.000431,0.010930
23905000,0.0324,0.013523,0.002678,0.000431,0.011518
23906000,0.0324,0.013523,0.002678,0.000431,0.014221
23907000,0.0324,0.013523,0.002678,0.000431,0.009285
23908000,0.0324,0.013523,0.002678,0.000431,0.011635
23909000,0.0324,0.013523,0.002678,0.000431,0.008580
23910000,0.0324,0.013523,0.002678,0.000431,0.008697
23911000,0.0324,0.013523,0.002678,0.000431,0.008462
23912000,0.0324,0.013523,0.002678,0.000431,0.010107
23913000,0.0324,0.013523,0.002678,0.000431,0.007992
23914000,0.0324,0.013523,0.002678,0.000431,0.007639
23915000,0.0324,0.013523,0.002678,0.000431,0.008227
23916000,0.0324,0.013523,0.002678,0.000431,0.007404
23917000,0.0324,0.013523,0.002678,0.000431,0.007992
23918000,0.0324,0.013523,0.002678,0.000431,0.007404
23919000,0.0324,0.013523,0.002678,0.000431,0.007757
23920000,0.0324,0.013523,0.002678,0.000431,0.007757
23921000,0.0324,0.013523,0.002678,0.000431,0.007992
23922000,0.0324,0.013523,0.002678,0.000431,0.007639
23923000,0.0324,0.013523,0.002678,0.000431,0.007874
23924000,0.0324,0.013523,0.002678,0.000431,0.007404
23925000,0.0324,0.013523,0.002678,0.000431,0.007992
23926000,0.0324,0.013523,0.002678,0.000431,0.007287
23927000,0.0324,0.013523,0.002678,0.000431,0.009167
23928000,0.0324,0.013523,0.002678,0.000431,0.006111
23929000,0.0324,0.013523,0.002678,0.000431,0.006229
23930000,0.0324,0.013523,0.002678,0.000431,0.006111
23931000,0.0324,0.013523,0.002678,0.000431,0.006699
23932000,0.0324,0.013523,0.002678,0.000431,0.006934
23933000,0.0324,0.013523,0.002678,0.000431,0.005406
23934000,0.0324,0.013523,0.002678,0.000431,0.004936
23935000,0.0324,0.013523,0.002678,0.000431,0.005171
23936000,0.0324,0.013523,0.002678,0.000431,0.005406
23937000,0.0324,0.013523,0.002678,0.000431,0.005289
23938000,0.0324,0.013523,0.002678,0.000431,0.005054
23939000,0.0324,0.013523,0.002678,0.000431,0.006229
23940000,0.0324,0.013523,0.002678,0.000431,0.005759
23941000,0.0324,0.013523,0.002678,0.000431,0.003173
23942000,0.0324,0.013523,0.002678,0.000431,0.003643
23943000,0.0324,0.013523,0.002678,0.000431,0.003526
23944000,0.0324,0.013523,0.002678,0.000431,0.005759
23945000,0.0324,0.013523,0.002678,0.000431,0.002116
23946000,0.0324,0.013523,0.002678,0.000431,0.002938
23947000,0.0324,0.013523,0.002678,0.000431,0.002938
23948000,0.0324,0.013523,0.002678,0.000431,0.002233
23949000,0.0324,0.013523,0.002678,0.000431,0.003056
23950000,0.0324,0.013523,0.002678,0.000431,0.002233
23951000,0.0324,0.013523,0.002678,0.000431,0.003056
23952000,0.0324,0.013523,0.002678,0.000431,0.002703
23953000,0.0324,0.013523,0.002678,0.000431,0.002703
23954000,0.0324,0.013523,0.002678,0.000431,0.002586
23955000,0.0324,0.013523,0.002678,0.000431,0.002703
23956000,0.0324,0.013523,0.002678,0.000431,0.003056
23957000,0.0324,0.013523,0.002678,0.000431,0.002468
23958000,0.0324,0.013523,0.002678,0.000431,0.002703
23959000,0.0324,0.013523,0.002678,0.000431,0.002938
23960000,0.0324,0.013523,0.002678,0.000431,0.002468
23961000,0.0324,0.013523,0.002678,0.000431,0.002938
23962000,0.0324,0.013523,0.002678,0.000431,0.002468
23963000,0.0324,0.013523,0.002678,0.000431,0.003173
23964000,0.0324,0.013523,0.002678,0.000431,0.002468
23965000,0.0324,0.013523,0.002678,0.000431,0.003643
23966000,0.0324,0.013523,0.002678,0.000431,0.001175
23967000,0.0324,0.013523,0.002678,0.000431,0.000823
23968000,0.0324,0.013523,0.002678,0.000431,0.001293
23969000,0.0324,0.013523,0.002678,0.000431,0.000940
23970000,0.0324,0.013523,0.002678,0.000431,0.001293
23971000,0.0324,0.013523,0.002678,0.000431,0.000940
23972000,0.0324,0.013523,0.002678,0.000431,0.000940
23973000,0.0324,0.013523,0.002678,0.000431,0.001293
23974000,0.0324,0.013523,0.002678,0.000431,0.000823
23975000,0.0324,0.013523,0.002678,0.000431,0.001410
23976000,0.0324,0.013523,0.002678,0.000431,0.000823
23977000,0.0324,0.013523,0.002678,0.000431,0.001175
23978000,0.0324,0.013523,0.002678,0.000431,0.001058
23979000,0.0324,0.013523,0.002678,0.000431,0.000823
23980000,0.0324,0.013523,0.002678,0.000431,0.001410
23981000,0.0324,0.013523,0.002678,0.000431,0.066403
23982000,0.0324,0.013523,0.002678,0.000431,0.474461
23983000,0.0324,0.013523,0.002678,0.000431,0.597513
23984000,0.0324,0.013523,0.002678,0.000431,0.131632
23985000,0.0324,0.013523,0.002678,0.000431,0.133865
23986000,0.0324,0.013523,0.002678,0.000431,0.558024
23987000,0.0324,0.013523,0.002678,0.000431,0.221658
23988000,0.0324,0.013523,0.002678,0.000431,0.281480
23989000,0.0324,0.013523,0.002678,0.000431,0.315681
23990000,0.0324,0.013523,0.002678,0.000431,0.142914
23991000,0.0324,0.013523,0.002678,0.000431,0.144442
23992000,0.0324,0.013523,0.002678,0.000431,0.106833
23993000,0.0324,0.013523,0.002678,0.000431,0.405590
23994000,0.0324,0.013523,0.002678,0.000431,0.241755
23995000,0.0324,0.013523,0.002678,0.000431,0.068519
23996000,0.0324,0.013523,0.002678,0.000431,0.056884
23997000,0.0324,0.013523,0.002678,0.000431,0.048304
23998000,0.0324,0.013523,0.002678,0.000431,0.036551
23999000,0.0324,0.013523,0.002678,0.000431,0.031968
