Cycle,Area(mm^2),PeakDynamic(W),SubthresholdLeakage(W),GateLeakage(W),RunTimeDynamic(W)
133000000,0.0324,0.013523,0.002678,0.000431,0.001645
133001000,0.0324,0.013523,0.002678,0.000431,0.001410
133002000,0.0324,0.013523,0.002678,0.000431,0.001880
133003000,0.0324,0.013523,0.002678,0.000431,0.001410
133004000,0.0324,0.013523,0.002678,0.000431,0.001645
133005000,0.0324,0.013523,0.002678,0.000431,0.001645
133006000,0.0324,0.013523,0.002678,0.000431,0.001410
133007000,0.0324,0.013523,0.002678,0.000431,0.001645
133008000,0.0324,0.013523,0.002678,0.000431,0.001645
133009000,0.0324,0.013523,0.002678,0.000431,0.001645
133010000,0.0324,0.013523,0.002678,0.000431,0.001410
133011000,0.0324,0.013523,0.002678,0.000431,0.001645
133012000,0.0324,0.013523,0.002678,0.000431,0.001645
133013000,0.0324,0.013523,0.002678,0.000431,0.001645
133014000,0.0324,0.013523,0.002678,0.000431,0.001410
133015000,0.0324,0.013523,0.002678,0.000431,0.001645
133016000,0.0324,0.013523,0.002678,0.000431,0.001410
133017000,0.0324,0.013523,0.002678,0.000431,0.001645
133018000,0.0324,0.013523,0.002678,0.000431,0.001880
133019000,0.0324,0.013523,0.002678,0.000431,0.001175
133020000,0.0324,0.013523,0.002678,0.000431,0.001880
133021000,0.0324,0.013523,0.002678,0.000431,0.001293
133022000,0.0324,0.013523,0.002678,0.000431,0.001763
133023000,0.0324,0.013523,0.002678,0.000431,0.001880
133024000,0.0324,0.013523,0.002678,0.000431,0.001175
133025000,0.0324,0.013523,0.002678,0.000431,0.001880
133026000,0.0324,0.013523,0.002678,0.000431,0.001293
133027000,0.0324,0.013523,0.002678,0.000431,0.001763
133028000,0.0324,0.013523,0.002678,0.000431,0.001645
133029000,0.0324,0.013523,0.002678,0.000431,0.001410
133030000,0.0324,0.013523,0.002678,0.000431,0.001880
133031000,0.0324,0.013523,0.002678,0.000431,0.001293
133032000,0.0324,0.013523,0.002678,0.000431,0.001763
133033000,0.0324,0.013523,0.002678,0.000431,0.001645
133034000,0.0324,0.013523,0.002678,0.000431,0.001410
133035000,0.0324,0.013523,0.002678,0.000431,0.001645
133036000,0.0324,0.013523,0.002678,0.000431,0.001528
133037000,0.0324,0.013523,0.002678,0.000431,0.001763
133038000,0.0324,0.013523,0.002678,0.000431,0.001410
133039000,0.0324,0.013523,0.002678,0.000431,0.001645
133040000,0.0324,0.013523,0.002678,0.000431,0.001645
133041000,0.0324,0.013523,0.002678,0.000431,0.001528
133042000,0.0324,0.013523,0.002678,0.000431,0.001528
133043000,0.0324,0.013523,0.002678,0.000431,0.001645
133044000,0.0324,0.013523,0.002678,0.000431,0.001410
133045000,0.0324,0.013523,0.002678,0.000431,0.001645
133046000,0.0324,0.013523,0.002678,0.000431,0.001645
133047000,0.0324,0.013523,0.002678,0.000431,0.001645
133048000,0.0324,0.013523,0.002678,0.000431,0.001645
133049000,0.0324,0.013523,0.002678,0.000431,0.001410
133050000,0.0324,0.013523,0.002678,0.000431,0.001645
133051000,0.0324,0.013523,0.002678,0.000431,0.001410
133052000,0.0324,0.013523,0.002678,0.000431,0.001645
133053000,0.0324,0.013523,0.002678,0.000431,0.001880
133054000,0.0324,0.013523,0.002678,0.000431,0.001175
133055000,0.0324,0.013523,0.002678,0.000431,0.001880
133056000,0.0324,0.013523,0.002678,0.000431,0.001410
133057000,0.0324,0.013523,0.002678,0.000431,0.001645
133058000,0.0324,0.013523,0.002678,0.000431,0.001880
133059000,0.0324,0.013523,0.002678,0.000431,0.001175
133060000,0.0324,0.013523,0.002678,0.000431,0.001880
133061000,0.0324,0.013523,0.002678,0.000431,0.001410
133062000,0.0324,0.013523,0.002678,0.000431,0.001645
133063000,0.0324,0.013523,0.002678,0.000431,0.001645
133064000,0.0324,0.013523,0.002678,0.000431,0.001410
133065000,0.0324,0.013523,0.002678,0.000431,0.001880
133066000,0.0324,0.013523,0.002678,0.000431,0.001410
133067000,0.0324,0.013523,0.002678,0.000431,0.001645
133068000,0.0324,0.013523,0.002678,0.000431,0.001645
133069000,0.0324,0.013523,0.002678,0.000431,0.001410
133070000,0.0324,0.013523,0.002678,0.000431,0.001293
133071000,0.0324,0.013523,0.002678,0.000431,0.001528
133072000,0.0324,0.013523,0.002678,0.000431,0.001175
133073000,0.0324,0.013523,0.002678,0.000431,0.001880
133074000,0.0324,0.013523,0.002678,0.000431,0.001410
133075000,0.0324,0.013523,0.002678,0.000431,0.001645
133076000,0.0324,0.013523,0.002678,0.000431,0.001645
133077000,0.0324,0.013523,0.002678,0.000431,0.001410
133078000,0.0324,0.013523,0.002678,0.000431,0.001880
133079000,0.0324,0.013523,0.002678,0.000431,0.001410
133080000,0.0324,0.013523,0.002678,0.000431,0.001645
133081000,0.0324,0.013523,0.002678,0.000431,0.001410
133082000,0.0324,0.013523,0.002678,0.000431,0.001645
133083000,0.0324,0.013523,0.002678,0.000431,0.001645
133084000,0.0324,0.013523,0.002678,0.000431,0.001645
133085000,0.0324,0.013523,0.002678,0.000431,0.001410
133086000,0.0324,0.013523,0.002678,0.000431,0.001645
133087000,0.0324,0.013523,0.002678,0.000431,0.001410
133088000,0.0324,0.013523,0.002678,0.000431,0.001645
133089000,0.0324,0.013523,0.002678,0.000431,0.001880
133090000,0.0324,0.013523,0.002678,0.000431,0.001175
133091000,0.0324,0.013523,0.002678,0.000431,0.001880
133092000,0.0324,0.013523,0.002678,0.000431,0.001293
133093000,0.0324,0.013523,0.002678,0.000431,0.001763
133094000,0.0324,0.013523,0.002678,0.000431,0.001880
133095000,0.0324,0.013523,0.002678,0.000431,0.001175
133096000,0.0324,0.013523,0.002678,0.000431,0.001880
133097000,0.0324,0.013523,0.002678,0.000431,0.001293
133098000,0.0324,0.013523,0.002678,0.000431,0.001763
133099000,0.0324,0.013523,0.002678,0.000431,0.001645
133100000,0.0324,0.013523,0.002678,0.000431,0.001410
133101000,0.0324,0.013523,0.002678,0.000431,0.001645
133102000,0.0324,0.013523,0.002678,0.000431,0.001528
133103000,0.0324,0.013523,0.002678,0.000431,0.001528
133104000,0.0324,0.013523,0.002678,0.000431,0.001645
133105000,0.0324,0.013523,0.002678,0.000431,0.001645
133106000,0.0324,0.013523,0.002678,0.000431,0.001410
133107000,0.0324,0.013523,0.002678,0.000431,0.001645
133108000,0.0324,0.013523,0.002678,0.000431,0.001645
133109000,0.0324,0.013523,0.002678,0.000431,0.001645
133110000,0.0324,0.013523,0.002678,0.000431,0.001410
133111000,0.0324,0.013523,0.002678,0.000431,0.001645
133112000,0.0324,0.013523,0.002678,0.000431,0.001410
133113000,0.0324,0.013523,0.002678,0.000431,0.001645
133114000,0.0324,0.013523,0.002678,0.000431,0.017277
133115000,0.0324,0.013523,0.002678,0.000431,0.656042
133116000,0.0324,0.013523,0.002678,0.000431,0.580002
133117000,0.0324,0.013523,0.002678,0.000431,0.141386
133118000,0.0324,0.013523,0.002678,0.000431,0.144795
133119000,0.0324,0.013523,0.002678,0.000431,0.650518
133120000,0.0324,0.013523,0.002678,0.000431,0.248102
133121000,0.0324,0.013523,0.002678,0.000431,0.319442
133122000,0.0324,0.013523,0.002678,0.000431,0.171121
133123000,0.0324,0.013523,0.002678,0.000431,0.171121
133124000,0.0324,0.013523,0.002678,0.000431,0.115178
133125000,0.0324,0.013523,0.002678,0.000431,0.560139
133126000,0.0324,0.013523,0.002678,0.000431,0.277719
133127000,0.0324,0.013523,0.002678,0.000431,0.198858
133128000,0.0324,0.013523,0.002678,0.000431,0.158428
133129000,0.0324,0.013523,0.002678,0.000431,0.122464
133130000,0.0324,0.013523,0.002678,0.000431,0.110359
133131000,0.0324,0.013523,0.002678,0.000431,0.077804
133132000,0.0324,0.013523,0.002678,0.000431,0.070517
133133000,0.0324,0.013523,0.002678,0.000431,0.042193
133134000,0.0324,0.013523,0.002678,0.000431,0.036316
133135000,0.0324,0.013523,0.002678,0.000431,0.033378
133136000,0.0324,0.013523,0.002678,0.000431,0.021390
133137000,0.0324,0.013523,0.002678,0.000431,0.014221
133138000,0.0324,0.013523,0.002678,0.000431,0.010107
133139000,0.0324,0.013523,0.002678,0.000431,0.009872
133140000,0.0324,0.013523,0.002678,0.000431,0.014691
133141000,0.0324,0.013523,0.002678,0.000431,0.008462
133142000,0.0324,0.013523,0.002678,0.000431,0.010930
133143000,0.0324,0.013523,0.002678,0.000431,0.009872
133144000,0.0324,0.013523,0.002678,0.000431,0.006817
133145000,0.0324,0.013523,0.002678,0.000431,0.004819
133146000,0.0324,0.013523,0.002678,0.000431,0.007052
133147000,0.0324,0.013523,0.002678,0.000431,0.005406
133148000,0.0324,0.013523,0.002678,0.000431,0.004113
133149000,0.0324,0.013523,0.002678,0.000431,0.004701
133150000,0.0324,0.013523,0.002678,0.000431,0.005054
133151000,0.0324,0.013523,0.002678,0.000431,0.004349
133152000,0.0324,0.013523,0.002678,0.000431,0.004584
133153000,0.0324,0.013523,0.002678,0.000431,0.004113
133154000,0.0324,0.013523,0.002678,0.000431,0.003643
133155000,0.0324,0.013523,0.002678,0.000431,0.004936
133156000,0.0324,0.013523,0.002678,0.000431,0.005054
133157000,0.0324,0.013523,0.002678,0.000431,0.004701
133158000,0.0324,0.013523,0.002678,0.000431,0.004349
133159000,0.0324,0.013523,0.002678,0.000431,0.005641
133160000,0.0324,0.013523,0.002678,0.000431,0.003878
133161000,0.0324,0.013523,0.002678,0.000431,0.005406
133162000,0.0324,0.013523,0.002678,0.000431,0.004584
133163000,0.0324,0.013523,0.002678,0.000431,0.004113
133164000,0.0324,0.013523,0.002678,0.000431,0.008227
133165000,0.0324,0.013523,0.002678,0.000431,0.003526
133166000,0.0324,0.013523,0.002678,0.000431,0.003056
133167000,0.0324,0.013523,0.002678,0.000431,0.003643
133168000,0.0324,0.013523,0.002678,0.000431,0.003291
133169000,0.0324,0.013523,0.002678,0.000431,0.003291
133170000,0.0324,0.013523,0.002678,0.000431,0.003643
133171000,0.0324,0.013523,0.002678,0.000431,0.003056
133172000,0.0324,0.013523,0.002678,0.000431,0.003526
133173000,0.0324,0.013523,0.002678,0.000431,0.003173
133174000,0.0324,0.013523,0.002678,0.000431,0.001763
133175000,0.0324,0.013523,0.002678,0.000431,0.001763
133176000,0.0324,0.013523,0.002678,0.000431,0.001528
133177000,0.0324,0.013523,0.002678,0.000431,0.001645
133178000,0.0324,0.013523,0.002678,0.000431,0.001763
133179000,0.0324,0.013523,0.002678,0.000431,0.001763
133180000,0.0324,0.013523,0.002678,0.000431,0.001645
133181000,0.0324,0.013523,0.002678,0.000431,0.001880
133182000,0.0324,0.013523,0.002678,0.000431,0.002703
133183000,0.0324,0.013523,0.002678,0.000431,0.000940
133184000,0.0324,0.013523,0.002678,0.000431,0.000940
133185000,0.0324,0.013523,0.002678,0.000431,0.000705
133186000,0.0324,0.013523,0.002678,0.000431,0.000940
133187000,0.0324,0.013523,0.002678,0.000431,0.000705
133188000,0.0324,0.013523,0.002678,0.000431,0.000940
133189000,0.0324,0.013523,0.002678,0.000431,0.000823
133190000,0.0324,0.013523,0.002678,0.000431,0.000823
133191000,0.0324,0.013523,0.002678,0.000431,0.000823
133192000,0.0324,0.013523,0.002678,0.000431,0.000823
133193000,0.0324,0.013523,0.002678,0.000431,0.000940
133194000,0.0324,0.013523,0.002678,0.000431,0.000705
133195000,0.0324,0.013523,0.002678,0.000431,0.000940
133196000,0.0324,0.013523,0.002678,0.000431,0.000705
133197000,0.0324,0.013523,0.002678,0.000431,0.000823
133198000,0.0324,0.013523,0.002678,0.000431,0.000940
133199000,0.0324,0.013523,0.002678,0.000431,0.000823
133200000,0.0324,0.013523,0.002678,0.000431,0.000823
133201000,0.0324,0.013523,0.002678,0.000431,0.000823
133202000,0.0324,0.013523,0.002678,0.000431,0.000823
133203000,0.0324,0.013523,0.002678,0.000431,0.000823
133204000,0.0324,0.013523,0.002678,0.000431,0.000940
133205000,0.0324,0.013523,0.002678,0.000431,0.000823
133206000,0.0324,0.013523,0.002678,0.000431,0.000823
133207000,0.0324,0.013523,0.002678,0.000431,0.000705
133208000,0.0324,0.013523,0.002678,0.000431,0.000940
133209000,0.0324,0.013523,0.002678,0.000431,0.000940
133210000,0.0324,0.013523,0.002678,0.000431,0.000705
133211000,0.0324,0.013523,0.002678,0.000431,0.000940
133212000,0.0324,0.013523,0.002678,0.000431,0.000705
133213000,0.0324,0.013523,0.002678,0.000431,0.000940
133214000,0.0324,0.013523,0.002678,0.000431,0.000823
133215000,0.0324,0.013523,0.002678,0.000431,0.000823
133216000,0.0324,0.013523,0.002678,0.000431,0.000823
133217000,0.0324,0.013523,0.002678,0.000431,0.000823
133218000,0.0324,0.013523,0.002678,0.000431,0.000940
133219000,0.0324,0.013523,0.002678,0.000431,0.000823
133220000,0.0324,0.013523,0.002678,0.000431,0.000823
133221000,0.0324,0.013523,0.002678,0.000431,0.000823
133222000,0.0324,0.013523,0.002678,0.000431,0.000823
133223000,0.0324,0.013523,0.002678,0.000431,0.000823
133224000,0.0324,0.013523,0.002678,0.000431,0.000823
133225000,0.0324,0.013523,0.002678,0.000431,0.000940
133226000,0.0324,0.013523,0.002678,0.000431,0.000705
133227000,0.0324,0.013523,0.002678,0.000431,0.000940
133228000,0.0324,0.013523,0.002678,0.000431,0.000823
133229000,0.0324,0.013523,0.002678,0.000431,0.000823
133230000,0.0324,0.013523,0.002678,0.000431,0.001880
133231000,0.0324,0.013523,0.002678,0.000431,0.561550
133232000,0.0324,0.013523,0.002678,0.000431,0.777449
133233000,0.0324,0.013523,0.002678,0.000431,0.151494
133234000,0.0324,0.013523,0.002678,0.000431,0.135392
133235000,0.0324,0.013523,0.002678,0.000431,0.522060
133236000,0.0324,0.013523,0.002678,0.000431,0.232353
133237000,0.0324,0.013523,0.002678,0.000431,0.296289
133238000,0.0324,0.013523,0.002678,0.000431,0.253626
133239000,0.0324,0.013523,0.002678,0.000431,0.157135
133240000,0.0324,0.013523,0.002678,0.000431,0.127283
133241000,0.0324,0.013523,0.002678,0.000431,0.365630
133242000,0.0324,0.013523,0.002678,0.000431,0.421691
133243000,0.0324,0.013523,0.002678,0.000431,0.207907
133244000,0.0324,0.013523,0.002678,0.000431,0.162071
133245000,0.0324,0.013523,0.002678,0.000431,0.138801
133246000,0.0324,0.013523,0.002678,0.000431,0.112239
133247000,0.0324,0.013523,0.002678,0.000431,0.094023
133248000,0.0324,0.013523,0.002678,0.000431,0.080859
133249000,0.0324,0.013523,0.002678,0.000431,0.058294
133250000,0.0324,0.013523,0.002678,0.000431,0.043015
133251000,0.0324,0.013523,0.002678,0.000431,0.045836
133252000,0.0324,0.013523,0.002678,0.000431,0.039607
133253000,0.0324,0.013523,0.002678,0.000431,0.030087
133254000,0.0324,0.013523,0.002678,0.000431,0.032438
133255000,0.0324,0.013523,0.002678,0.000431,0.019745
133256000,0.0324,0.013523,0.002678,0.000431,0.020215
133257000,0.0324,0.013523,0.002678,0.000431,0.018334
133258000,0.0324,0.013523,0.002678,0.000431,0.017277
133259000,0.0324,0.013523,0.002678,0.000431,0.019745
133260000,0.0324,0.013523,0.002678,0.000431,0.017747
133261000,0.0324,0.013523,0.002678,0.000431,0.017159
133262000,0.0324,0.013523,0.002678,0.000431,0.012811
133263000,0.0324,0.013523,0.002678,0.000431,0.009755
133264000,0.0324,0.013523,0.002678,0.000431,0.008932
133265000,0.0324,0.013523,0.002678,0.000431,0.011048
133266000,0.0324,0.013523,0.002678,0.000431,0.008345
133267000,0.0324,0.013523,0.002678,0.000431,0.008462
133268000,0.0324,0.013523,0.002678,0.000431,0.010930
133269000,0.0324,0.013523,0.002678,0.000431,0.007287
133270000,0.0324,0.013523,0.002678,0.000431,0.007874
133271000,0.0324,0.013523,0.002678,0.000431,0.007052
133272000,0.0324,0.013523,0.002678,0.000431,0.007522
133273000,0.0324,0.013523,0.002678,0.000431,0.007287
133274000,0.0324,0.013523,0.002678,0.000431,0.006229
133275000,0.0324,0.013523,0.002678,0.000431,0.007169
133276000,0.0324,0.013523,0.002678,0.000431,0.006934
133277000,0.0324,0.013523,0.002678,0.000431,0.009402
133278000,0.0324,0.013523,0.002678,0.000431,0.009285
133279000,0.0324,0.013523,0.002678,0.000431,0.005641
133280000,0.0324,0.013523,0.002678,0.000431,0.005876
133281000,0.0324,0.013523,0.002678,0.000431,0.005994
133282000,0.0324,0.013523,0.002678,0.000431,0.005759
133283000,0.0324,0.013523,0.002678,0.000431,0.005994
133284000,0.0324,0.013523,0.002678,0.000431,0.005876
133285000,0.0324,0.013523,0.002678,0.000431,0.005641
133286000,0.0324,0.013523,0.002678,0.000431,0.006111
133287000,0.0324,0.013523,0.002678,0.000431,0.005406
133288000,0.0324,0.013523,0.002678,0.000431,0.006347
133289000,0.0324,0.013523,0.002678,0.000431,0.005641
133290000,0.0324,0.013523,0.002678,0.000431,0.006111
133291000,0.0324,0.013523,0.002678,0.000431,0.005641
133292000,0.0324,0.013523,0.002678,0.000431,0.006111
133293000,0.0324,0.013523,0.002678,0.000431,0.007992
133294000,0.0324,0.013523,0.002678,0.000431,0.004466
133295000,0.0324,0.013523,0.002678,0.000431,0.003878
133296000,0.0324,0.013523,0.002678,0.000431,0.004584
133297000,0.0324,0.013523,0.002678,0.000431,0.004231
133298000,0.0324,0.013523,0.002678,0.000431,0.004231
133299000,0.0324,0.013523,0.002678,0.000431,0.004466
133300000,0.0324,0.013523,0.002678,0.000431,0.004231
133301000,0.0324,0.013523,0.002678,0.000431,0.004113
133302000,0.0324,0.013523,0.002678,0.000431,0.004231
133303000,0.0324,0.013523,0.002678,0.000431,0.004231
133304000,0.0324,0.013523,0.002678,0.000431,0.004584
133305000,0.0324,0.013523,0.002678,0.000431,0.004231
133306000,0.0324,0.013523,0.002678,0.000431,0.004113
133307000,0.0324,0.013523,0.002678,0.000431,0.004584
133308000,0.0324,0.013523,0.002678,0.000431,0.004231
133309000,0.0324,0.013523,0.002678,0.000431,0.004113
133310000,0.0324,0.013523,0.002678,0.000431,0.006347
133311000,0.0324,0.013523,0.002678,0.000431,0.003408
133312000,0.0324,0.013523,0.002678,0.000431,0.003643
133313000,0.0324,0.013523,0.002678,0.000431,0.003408
133314000,0.0324,0.013523,0.002678,0.000431,0.003291
133315000,0.0324,0.013523,0.002678,0.000431,0.003643
133316000,0.0324,0.013523,0.002678,0.000431,0.003173
133317000,0.0324,0.013523,0.002678,0.000431,0.003526
133318000,0.0324,0.013523,0.002678,0.000431,0.003408
133319000,0.0324,0.013523,0.002678,0.000431,0.003408
133320000,0.0324,0.013523,0.002678,0.000431,0.003526
133321000,0.0324,0.013523,0.002678,0.000431,0.003996
133322000,0.0324,0.013523,0.002678,0.000431,0.003056
133323000,0.0324,0.013523,0.002678,0.000431,0.002468
133324000,0.0324,0.013523,0.002678,0.000431,0.002703
133325000,0.0324,0.013523,0.002678,0.000431,0.002586
133326000,0.0324,0.013523,0.002678,0.000431,0.003878
133327000,0.0324,0.013523,0.002678,0.000431,0.001293
133328000,0.0324,0.013523,0.002678,0.000431,0.001763
133329000,0.0324,0.013523,0.002678,0.000431,0.001880
133330000,0.0324,0.013523,0.002678,0.000431,0.001645
133331000,0.0324,0.013523,0.002678,0.000431,0.001410
133332000,0.0324,0.013523,0.002678,0.000431,0.001645
133333000,0.0324,0.013523,0.002678,0.000431,0.001880
133334000,0.0324,0.013523,0.002678,0.000431,0.001645
133335000,0.0324,0.013523,0.002678,0.000431,0.001410
133336000,0.0324,0.013523,0.002678,0.000431,0.003291
133337000,0.0324,0.013523,0.002678,0.000431,0.476694
133338000,0.0324,0.013523,0.002678,0.000431,0.744306
133339000,0.0324,0.013523,0.002678,0.000431,0.216017
133340000,0.0324,0.013523,0.002678,0.000431,0.133512
133341000,0.0324,0.013523,0.002678,0.000431,0.458948
133342000,0.0324,0.013523,0.002678,0.000431,0.338246
133343000,0.0324,0.013523,0.002678,0.000431,0.236467
133344000,0.0324,0.013523,0.002678,0.000431,0.282890
133345000,0.0324,0.013523,0.002678,0.000431,0.148321
133346000,0.0324,0.013523,0.002678,0.000431,0.169946
133347000,0.0324,0.013523,0.002678,0.000431,0.146088
133348000,0.0324,0.013523,0.002678,0.000431,0.508780
133349000,0.0324,0.013523,0.002678,0.000431,0.195214
133350000,0.0324,0.013523,0.002678,0.000431,0.162894
133351000,0.0324,0.013523,0.002678,0.000431,0.137390
133352000,0.0324,0.013523,0.002678,0.000431,0.108361
133353000,0.0324,0.013523,0.002678,0.000431,0.086853
133354000,0.0324,0.013523,0.002678,0.000431,0.083210
133355000,0.0324,0.013523,0.002678,0.000431,0.053945
133356000,0.0324,0.013523,0.002678,0.000431,0.055121
133357000,0.0324,0.013523,0.002678,0.000431,0.054063
133358000,0.0324,0.013523,0.002678,0.000431,0.041605
133359000,0.0324,0.013523,0.002678,0.000431,0.037609
133360000,0.0324,0.013523,0.002678,0.000431,0.033731
133361000,0.0324,0.013523,0.002678,0.000431,0.025739
133362000,0.0324,0.013523,0.002678,0.000431,0.025386
133363000,0.0324,0.013523,0.002678,0.000431,0.025974
133364000,0.0324,0.013523,0.002678,0.000431,0.035611
133365000,0.0324,0.013523,0.002678,0.000431,0.024563
133366000,0.0324,0.013523,0.002678,0.000431,0.021978
133367000,0.0324,0.013523,0.002678,0.000431,0.018687
133368000,0.0324,0.013523,0.002678,0.000431,0.020567
133369000,0.0324,0.013523,0.002678,0.000431,0.019627
133370000,0.0324,0.013523,0.002678,0.000431,0.014691
133371000,0.0324,0.013523,0.002678,0.000431,0.014809
133372000,0.0324,0.013523,0.002678,0.000431,0.011165
133373000,0.0324,0.013523,0.002678,0.000431,0.010695
133374000,0.0324,0.013523,0.002678,0.000431,0.011283
133375000,0.0324,0.013523,0.002678,0.000431,0.009637
133376000,0.0324,0.013523,0.002678,0.000431,0.013046
133377000,0.0324,0.013523,0.002678,0.000431,0.007757
133378000,0.0324,0.013523,0.002678,0.000431,0.007522
133379000,0.0324,0.013523,0.002678,0.000431,0.007874
133380000,0.0324,0.013523,0.002678,0.000431,0.007522
133381000,0.0324,0.013523,0.002678,0.000431,0.007757
133382000,0.0324,0.013523,0.002678,0.000431,0.007287
133383000,0.0324,0.013523,0.002678,0.000431,0.007874
133384000,0.0324,0.013523,0.002678,0.000431,0.007522
133385000,0.0324,0.013523,0.002678,0.000431,0.007522
133386000,0.0324,0.013523,0.002678,0.000431,0.009050
133387000,0.0324,0.013523,0.002678,0.000431,0.006464
133388000,0.0324,0.013523,0.002678,0.000431,0.007169
133389000,0.0324,0.013523,0.002678,0.000431,0.006464
133390000,0.0324,0.013523,0.002678,0.000431,0.006817
133391000,0.0324,0.013523,0.002678,0.000431,0.007052
133392000,0.0324,0.013523,0.002678,0.000431,0.006699
133393000,0.0324,0.013523,0.002678,0.000431,0.006817
133394000,0.0324,0.013523,0.002678,0.000431,0.006699
133395000,0.0324,0.013523,0.002678,0.000431,0.006699
133396000,0.0324,0.013523,0.002678,0.000431,0.008462
133397000,0.0324,0.013523,0.002678,0.000431,0.005876
133398000,0.0324,0.013523,0.002678,0.000431,0.005994
133399000,0.0324,0.013523,0.002678,0.000431,0.005994
133400000,0.0324,0.013523,0.002678,0.000431,0.005876
133401000,0.0324,0.013523,0.002678,0.000431,0.008109
133402000,0.0324,0.013523,0.002678,0.000431,0.004701
133403000,0.0324,0.013523,0.002678,0.000431,0.006229
133404000,0.0324,0.013523,0.002678,0.000431,0.005524
133405000,0.0324,0.013523,0.002678,0.000431,0.003643
133406000,0.0324,0.013523,0.002678,0.000431,0.004584
133407000,0.0324,0.013523,0.002678,0.000431,0.004113
133408000,0.0324,0.013523,0.002678,0.000431,0.004231
133409000,0.0324,0.013523,0.002678,0.000431,0.004349
133410000,0.0324,0.013523,0.002678,0.000431,0.003878
133411000,0.0324,0.013523,0.002678,0.000431,0.004466
133412000,0.0324,0.013523,0.002678,0.000431,0.004231
133413000,0.0324,0.013523,0.002678,0.000431,0.004113
133414000,0.0324,0.013523,0.002678,0.000431,0.004466
133415000,0.0324,0.013523,0.002678,0.000431,0.004113
133416000,0.0324,0.013523,0.002678,0.000431,0.006817
133417000,0.0324,0.013523,0.002678,0.000431,0.003291
133418000,0.0324,0.013523,0.002678,0.000431,0.003408
133419000,0.0324,0.013523,0.002678,0.000431,0.003643
133420000,0.0324,0.013523,0.002678,0.000431,0.003291
133421000,0.0324,0.013523,0.002678,0.000431,0.003291
133422000,0.0324,0.013523,0.002678,0.000431,0.003526
133423000,0.0324,0.013523,0.002678,0.000431,0.003056
133424000,0.0324,0.013523,0.002678,0.000431,0.003761
133425000,0.0324,0.013523,0.002678,0.000431,0.003173
133426000,0.0324,0.013523,0.002678,0.000431,0.003408
133427000,0.0324,0.013523,0.002678,0.000431,0.003643
133428000,0.0324,0.013523,0.002678,0.000431,0.002938
133429000,0.0324,0.013523,0.002678,0.000431,0.003526
133430000,0.0324,0.013523,0.002678,0.000431,0.003408
133431000,0.0324,0.013523,0.002678,0.000431,0.003408
133432000,0.0324,0.013523,0.002678,0.000431,0.003526
133433000,0.0324,0.013523,0.002678,0.000431,0.003408
133434000,0.0324,0.013523,0.002678,0.000431,0.003173
133435000,0.0324,0.013523,0.002678,0.000431,0.003408
133436000,0.0324,0.013523,0.002678,0.000431,0.003291
133437000,0.0324,0.013523,0.002678,0.000431,0.003643
133438000,0.0324,0.013523,0.002678,0.000431,0.003408
133439000,0.0324,0.013523,0.002678,0.000431,0.003173
133440000,0.0324,0.013523,0.002678,0.000431,0.003526
133441000,0.0324,0.013523,0.002678,0.000431,0.003173
133442000,0.0324,0.013523,0.002678,0.000431,0.003643
133443000,0.0324,0.013523,0.002678,0.000431,0.003291
133444000,0.0324,0.013523,0.002678,0.000431,0.003291
133445000,0.0324,0.013523,0.002678,0.000431,0.003643
133446000,0.0324,0.013523,0.002678,0.000431,0.002938
133447000,0.0324,0.013523,0.002678,0.000431,0.003761
133448000,0.0324,0.013523,0.002678,0.000431,0.003173
133449000,0.0324,0.013523,0.002678,0.000431,0.003291
133450000,0.0324,0.013523,0.002678,0.000431,0.003761
133451000,0.0324,0.013523,0.002678,0.000431,0.002938
133452000,0.0324,0.013523,0.002678,0.000431,0.003643
133453000,0.0324,0.013523,0.002678,0.000431,0.003291
133454000,0.0324,0.013523,0.002678,0.000431,0.003173
133455000,0.0324,0.013523,0.002678,0.000431,0.003056
133456000,0.0324,0.013523,0.002678,0.000431,0.003761
133457000,0.0324,0.013523,0.002678,0.000431,0.002116
133458000,0.0324,0.013523,0.002678,0.000431,0.003761
133459000,0.0324,0.013523,0.002678,0.000431,0.002821
133460000,0.0324,0.013523,0.002678,0.000431,0.003056
133461000,0.0324,0.013523,0.002678,0.000431,0.003761
133462000,0.0324,0.013523,0.002678,0.000431,0.002116
133463000,0.0324,0.013523,0.002678,0.000431,0.003761
133464000,0.0324,0.013523,0.002678,0.000431,0.002821
133465000,0.0324,0.013523,0.002678,0.000431,0.003056
133466000,0.0324,0.013523,0.002678,0.000431,0.003291
133467000,0.0324,0.013523,0.002678,0.000431,0.002586
133468000,0.0324,0.013523,0.002678,0.000431,0.003291
133469000,0.0324,0.013523,0.002678,0.000431,0.003291
133470000,0.0324,0.013523,0.002678,0.000431,0.003056
133471000,0.0324,0.013523,0.002678,0.000431,0.002821
133472000,0.0324,0.013523,0.002678,0.000431,0.003056
133473000,0.0324,0.013523,0.002678,0.000431,0.003173
133474000,0.0324,0.013523,0.002678,0.000431,0.003408
133475000,0.0324,0.013523,0.002678,0.000431,0.002586
133476000,0.0324,0.013523,0.002678,0.000431,0.003291
133477000,0.0324,0.013523,0.002678,0.000431,0.002586
133478000,0.0324,0.013523,0.002678,0.000431,0.003291
133479000,0.0324,0.013523,0.002678,0.000431,0.003761
133480000,0.0324,0.013523,0.002678,0.000431,0.002116
133481000,0.0324,0.013523,0.002678,0.000431,0.003761
133482000,0.0324,0.013523,0.002678,0.000431,0.002468
133483000,0.0324,0.013523,0.002678,0.000431,0.003408
133484000,0.0324,0.013523,0.002678,0.000431,0.003408
133485000,0.0324,0.013523,0.002678,0.000431,0.002468
133486000,0.0324,0.013523,0.002678,0.000431,0.003761
133487000,0.0324,0.013523,0.002678,0.000431,0.002468
133488000,0.0324,0.013523,0.002678,0.000431,0.003408
133489000,0.0324,0.013523,0.002678,0.000431,0.003291
133490000,0.0324,0.013523,0.002678,0.000431,0.002586
133491000,0.0324,0.013523,0.002678,0.000431,0.003291
133492000,0.0324,0.013523,0.002678,0.000431,0.002938
133493000,0.0324,0.013523,0.002678,0.000431,0.003408
133494000,0.0324,0.013523,0.002678,0.000431,0.002821
133495000,0.0324,0.013523,0.002678,0.000431,0.003056
133496000,0.0324,0.013523,0.002678,0.000431,0.003291
133497000,0.0324,0.013523,0.002678,0.000431,0.002938
133498000,0.0324,0.013523,0.002678,0.000431,0.002938
133499000,0.0324,0.013523,0.002678,0.000431,0.003291
133500000,0.0324,0.013523,0.002678,0.000431,0.002703
133501000,0.0324,0.013523,0.002678,0.000431,0.003173
133502000,0.0324,0.013523,0.002678,0.000431,0.003291
133503000,0.0324,0.013523,0.002678,0.000431,0.002586
133504000,0.0324,0.013523,0.002678,0.000431,0.003761
133505000,0.0324,0.013523,0.002678,0.000431,0.002233
133506000,0.0324,0.013523,0.002678,0.000431,0.003643
133507000,0.0324,0.013523,0.002678,0.000431,0.002821
133508000,0.0324,0.013523,0.002678,0.000431,0.003056
133509000,0.0324,0.013523,0.002678,0.000431,0.003761
133510000,0.0324,0.013523,0.002678,0.000431,0.002116
133511000,0.0324,0.013523,0.002678,0.000431,0.003761
133512000,0.0324,0.013523,0.002678,0.000431,0.002821
133513000,0.0324,0.013523,0.002678,0.000431,0.003056
133514000,0.0324,0.013523,0.002678,0.000431,0.170063
133515000,0.0324,0.013523,0.002678,0.000431,0.669558
133516000,0.0324,0.013523,0.002678,0.000431,0.505724
133517000,0.0324,0.013523,0.002678,0.000431,0.135863
133518000,0.0324,0.013523,0.002678,0.000431,0.171591
133519000,0.0324,0.013523,0.002678,0.000431,0.557201
133520000,0.0324,0.013523,0.002678,0.000431,0.304280
133521000,0.0324,0.013523,0.002678,0.000431,0.341419
133522000,0.0324,0.013523,0.002678,0.000431,0.143032
133523000,0.0324,0.013523,0.002678,0.000431,0.173237
133524000,0.0324,0.013523,0.002678,0.000431,0.116353
133525000,0.0324,0.013523,0.002678,0.000431,0.546859
133526000,0.0324,0.013523,0.002678,0.000431,0.250335
133527000,0.0324,0.013523,0.002678,0.000431,0.213666
133528000,0.0324,0.013523,0.002678,0.000431,0.174999
133529000,0.0324,0.013523,0.002678,0.000431,0.133630
133530000,0.0324,0.013523,0.002678,0.000431,0.109301
133531000,0.0324,0.013523,0.002678,0.000431,0.089792
133532000,0.0324,0.013523,0.002678,0.000431,0.070399
133533000,0.0324,0.013523,0.002678,0.000431,0.076393
133534000,0.0324,0.013523,0.002678,0.000431,0.043133
133535000,0.0324,0.013523,0.002678,0.000431,0.042310
133536000,0.0324,0.013523,0.002678,0.000431,0.037021
133537000,0.0324,0.013523,0.002678,0.000431,0.021743
133538000,0.0324,0.013523,0.002678,0.000431,0.024563
133539000,0.0324,0.013523,0.002678,0.000431,0.025034
133540000,0.0324,0.013523,0.002678,0.000431,0.017159
133541000,0.0324,0.013523,0.002678,0.000431,0.015749
133542000,0.0324,0.013523,0.002678,0.000431,0.013398
133543000,0.0324,0.013523,0.002678,0.000431,0.014456
133544000,0.0324,0.013523,0.002678,0.000431,0.016924
133545000,0.0324,0.013523,0.002678,0.000431,0.015044
133546000,0.0324,0.013523,0.002678,0.000431,0.010695
133547000,0.0324,0.013523,0.002678,0.000431,0.008932
133548000,0.0324,0.013523,0.002678,0.000431,0.005994
133549000,0.0324,0.013523,0.002678,0.000431,0.008345
133550000,0.0324,0.013523,0.002678,0.000431,0.005641
133551000,0.0324,0.013523,0.002678,0.000431,0.005759
133552000,0.0324,0.013523,0.002678,0.000431,0.005641
133553000,0.0324,0.013523,0.002678,0.000431,0.008932
133554000,0.0324,0.013523,0.002678,0.000431,0.004231
133555000,0.0324,0.013523,0.002678,0.000431,0.004113
133556000,0.0324,0.013523,0.002678,0.000431,0.004113
133557000,0.0324,0.013523,0.002678,0.000431,0.004113
133558000,0.0324,0.013523,0.002678,0.000431,0.004113
133559000,0.0324,0.013523,0.002678,0.000431,0.004349
133560000,0.0324,0.013523,0.002678,0.000431,0.006817
133561000,0.0324,0.013523,0.002678,0.000431,0.002703
133562000,0.0324,0.013523,0.002678,0.000431,0.002233
133563000,0.0324,0.013523,0.002678,0.000431,0.002351
133564000,0.0324,0.013523,0.002678,0.000431,0.002351
133565000,0.0324,0.013523,0.002678,0.000431,0.003761
133566000,0.0324,0.013523,0.002678,0.000431,0.003056
133567000,0.0324,0.013523,0.002678,0.000431,0.271608
133568000,0.0324,0.013523,0.002678,0.000431,0.771573
133569000,0.0324,0.013523,0.002678,0.000431,0.375267
133570000,0.0324,0.013523,0.002678,0.000431,0.135275
133571000,0.0324,0.013523,0.002678,0.000431,0.477752
133572000,0.0324,0.013523,0.002678,0.000431,0.318854
133573000,0.0324,0.013523,0.002678,0.000431,0.275839
133574000,0.0324,0.013523,0.002678,0.000431,0.243989
133575000,0.0324,0.013523,0.002678,0.000431,0.157018
133576000,0.0324,0.013523,0.002678,0.000431,0.121407
133577000,0.0324,0.013523,0.002678,0.000431,0.357638
133578000,0.0324,0.013523,0.002678,0.000431,0.412289
133579000,0.0324,0.013523,0.002678,0.000431,0.168653
133580000,0.0324,0.013523,0.002678,0.000431,0.137508
133581000,0.0324,0.013523,0.002678,0.000431,0.116000
133582000,0.0324,0.013523,0.002678,0.000431,0.092847
133583000,0.0324,0.013523,0.002678,0.000431,0.084150
133584000,0.0324,0.013523,0.002678,0.000431,0.055238
133585000,0.0324,0.013523,0.002678,0.000431,0.043250
133586000,0.0324,0.013523,0.002678,0.000431,0.034436
133587000,0.0324,0.013523,0.002678,0.000431,0.027737
133588000,0.0324,0.013523,0.002678,0.000431,0.031733
133589000,0.0324,0.013523,0.002678,0.000431,0.027502
133590000,0.0324,0.013523,0.002678,0.000431,0.022800
133591000,0.0324,0.013523,0.002678,0.000431,0.023623
133592000,0.0324,0.013523,0.002678,0.000431,0.021625
133593000,0.0324,0.013523,0.002678,0.000431,0.021155
133594000,0.0324,0.013523,0.002678,0.000431,0.010695
133595000,0.0324,0.013523,0.002678,0.000431,0.011635
133596000,0.0324,0.013523,0.002678,0.000431,0.009402
133597000,0.0324,0.013523,0.002678,0.000431,0.008815
133598000,0.0324,0.013523,0.002678,0.000431,0.009637
133599000,0.0324,0.013523,0.002678,0.000431,0.009520
133600000,0.0324,0.013523,0.002678,0.000431,0.007169
133601000,0.0324,0.013523,0.002678,0.000431,0.009167
133602000,0.0324,0.013523,0.002678,0.000431,0.006817
133603000,0.0324,0.013523,0.002678,0.000431,0.006111
133604000,0.0324,0.013523,0.002678,0.000431,0.006817
133605000,0.0324,0.013523,0.002678,0.000431,0.006582
133606000,0.0324,0.013523,0.002678,0.000431,0.008345
133607000,0.0324,0.013523,0.002678,0.000431,0.005406
133608000,0.0324,0.013523,0.002678,0.000431,0.008109
133609000,0.0324,0.013523,0.002678,0.000431,0.004701
133610000,0.0324,0.013523,0.002678,0.000431,0.004819
133611000,0.0324,0.013523,0.002678,0.000431,0.004819
133612000,0.0324,0.013523,0.002678,0.000431,0.004701
133613000,0.0324,0.013523,0.002678,0.000431,0.004701
133614000,0.0324,0.013523,0.002678,0.000431,0.004701
133615000,0.0324,0.013523,0.002678,0.000431,0.004936
133616000,0.0324,0.013523,0.002678,0.000431,0.004231
133617000,0.0324,0.013523,0.002678,0.000431,0.005171
133618000,0.0324,0.013523,0.002678,0.000431,0.004584
133619000,0.0324,0.013523,0.002678,0.000431,0.004819
133620000,0.0324,0.013523,0.002678,0.000431,0.004819
133621000,0.0324,0.013523,0.002678,0.000431,0.004349
133622000,0.0324,0.013523,0.002678,0.000431,0.005289
133623000,0.0324,0.013523,0.002678,0.000431,0.005641
133624000,0.0324,0.013523,0.002678,0.000431,0.008109
133625000,0.0324,0.013523,0.002678,0.000431,0.002468
133626000,0.0324,0.013523,0.002678,0.000431,0.002116
133627000,0.0324,0.013523,0.002678,0.000431,0.002586
133628000,0.0324,0.013523,0.002678,0.000431,0.002116
133629000,0.0324,0.013523,0.002678,0.000431,0.002468
133630000,0.0324,0.013523,0.002678,0.000431,0.002468
133631000,0.0324,0.013523,0.002678,0.000431,0.002116
133632000,0.0324,0.013523,0.002678,0.000431,0.002351
133633000,0.0324,0.013523,0.002678,0.000431,0.002351
133634000,0.0324,0.013523,0.002678,0.000431,0.002233
133635000,0.0324,0.013523,0.002678,0.000431,0.002468
133636000,0.0324,0.013523,0.002678,0.000431,0.001998
133637000,0.0324,0.013523,0.002678,0.000431,0.002468
133638000,0.0324,0.013523,0.002678,0.000431,0.002468
133639000,0.0324,0.013523,0.002678,0.000431,0.001998
133640000,0.0324,0.013523,0.002678,0.000431,0.002821
133641000,0.0324,0.013523,0.002678,0.000431,0.001880
133642000,0.0324,0.013523,0.002678,0.000431,0.002468
133643000,0.0324,0.013523,0.002678,0.000431,0.002351
133644000,0.0324,0.013523,0.002678,0.000431,0.002233
133645000,0.0324,0.013523,0.002678,0.000431,0.002703
133646000,0.0324,0.013523,0.002678,0.000431,0.001880
133647000,0.0324,0.013523,0.002678,0.000431,0.002586
133648000,0.0324,0.013523,0.002678,0.000431,0.002233
133649000,0.0324,0.013523,0.002678,0.000431,0.001763
133650000,0.0324,0.013523,0.002678,0.000431,0.003526
133651000,0.0324,0.013523,0.002678,0.000431,0.002938
133652000,0.0324,0.013523,0.002678,0.000431,0.000705
133653000,0.0324,0.013523,0.002678,0.000431,0.000940
133654000,0.0324,0.013523,0.002678,0.000431,0.000940
133655000,0.0324,0.013523,0.002678,0.000431,0.000705
133656000,0.0324,0.013523,0.002678,0.000431,0.000940
133657000,0.0324,0.013523,0.002678,0.000431,0.000705
133658000,0.0324,0.013523,0.002678,0.000431,0.000940
133659000,0.0324,0.013523,0.002678,0.000431,0.000823
133660000,0.0324,0.013523,0.002678,0.000431,0.000823
133661000,0.0324,0.013523,0.002678,0.000431,0.000940
133662000,0.0324,0.013523,0.002678,0.000431,0.000705
133663000,0.0324,0.013523,0.002678,0.000431,0.000823
133664000,0.0324,0.013523,0.002678,0.000431,0.000823
133665000,0.0324,0.013523,0.002678,0.000431,0.000940
133666000,0.0324,0.013523,0.002678,0.000431,0.000705
133667000,0.0324,0.013523,0.002678,0.000431,0.000940
133668000,0.0324,0.013523,0.002678,0.000431,0.000705
133669000,0.0324,0.013523,0.002678,0.000431,0.000940
133670000,0.0324,0.013523,0.002678,0.000431,0.000940
133671000,0.0324,0.013523,0.002678,0.000431,0.000705
133672000,0.0324,0.013523,0.002678,0.000431,0.000940
133673000,0.0324,0.013523,0.002678,0.000431,0.000705
133674000,0.0324,0.013523,0.002678,0.000431,0.000940
133675000,0.0324,0.013523,0.002678,0.000431,0.000823
133676000,0.0324,0.013523,0.002678,0.000431,0.000823
133677000,0.0324,0.013523,0.002678,0.000431,0.000823
133678000,0.0324,0.013523,0.002678,0.000431,0.000823
133679000,0.0324,0.013523,0.002678,0.000431,0.000823
133680000,0.0324,0.013523,0.002678,0.000431,0.000823
133681000,0.0324,0.013523,0.002678,0.000431,0.000940
133682000,0.0324,0.013523,0.002678,0.000431,0.000705
133683000,0.0324,0.013523,0.002678,0.000431,0.013868
133684000,0.0324,0.013523,0.002678,0.000431,0.715982
133685000,0.0324,0.013523,0.002678,0.000431,0.598924
133686000,0.0324,0.013523,0.002678,0.000431,0.135392
133687000,0.0324,0.013523,0.002678,0.000431,0.135392
133688000,0.0324,0.013523,0.002678,0.000431,0.548857
133689000,0.0324,0.013523,0.002678,0.000431,0.256446
133690000,0.0324,0.013523,0.002678,0.000431,0.314623
133691000,0.0324,0.013523,0.002678,0.000431,0.198740
133692000,0.0324,0.013523,0.002678,0.000431,0.170416
133693000,0.0324,0.013523,0.002678,0.000431,0.111534
133694000,0.0324,0.013523,0.002678,0.000431,0.473168
133695000,0.0324,0.013523,0.002678,0.000431,0.267024
133696000,0.0324,0.013523,0.002678,0.000431,0.177350
133697000,0.0324,0.013523,0.002678,0.000431,0.144560
133698000,0.0324,0.013523,0.002678,0.000431,0.128811
133699000,0.0324,0.013523,0.002678,0.000431,0.121759
133700000,0.0324,0.013523,0.002678,0.000431,0.092730
133701000,0.0324,0.013523,0.002678,0.000431,0.082387
133702000,0.0324,0.013523,0.002678,0.000431,0.073808
133703000,0.0324,0.013523,0.002678,0.000431,0.065228
133704000,0.0324,0.013523,0.002678,0.000431,0.055943
133705000,0.0324,0.013523,0.002678,0.000431,0.052535
133706000,0.0324,0.013523,0.002678,0.000431,0.046776
133707000,0.0324,0.013523,0.002678,0.000431,0.048069
133708000,0.0324,0.013523,0.002678,0.000431,0.039725
133709000,0.0324,0.013523,0.002678,0.000431,0.038784
133710000,0.0324,0.013523,0.002678,0.000431,0.038784
133711000,0.0324,0.013523,0.002678,0.000431,0.033731
133712000,0.0324,0.013523,0.002678,0.000431,0.030322
133713000,0.0324,0.013523,0.002678,0.000431,0.024563
133714000,0.0324,0.013523,0.002678,0.000431,0.024446
133715000,0.0324,0.013523,0.002678,0.000431,0.018687
133716000,0.0324,0.013523,0.002678,0.000431,0.019392
133717000,0.0324,0.013523,0.002678,0.000431,0.016454
133718000,0.0324,0.013523,0.002678,0.000431,0.019040
133719000,0.0324,0.013523,0.002678,0.000431,0.018452
133720000,0.0324,0.013523,0.002678,0.000431,0.015984
133721000,0.0324,0.013523,0.002678,0.000431,0.012693
133722000,0.0324,0.013523,0.002678,0.000431,0.010342
133723000,0.0324,0.013523,0.002678,0.000431,0.007404
133724000,0.0324,0.013523,0.002678,0.000431,0.014456
133725000,0.0324,0.013523,0.002678,0.000431,0.004936
133726000,0.0324,0.013523,0.002678,0.000431,0.002233
133727000,0.0324,0.013523,0.002678,0.000431,0.001880
133728000,0.0324,0.013523,0.002678,0.000431,0.002351
133729000,0.0324,0.013523,0.002678,0.000431,0.003643
133730000,0.0324,0.013523,0.002678,0.000431,0.001293
133731000,0.0324,0.013523,0.002678,0.000431,0.001528
133732000,0.0324,0.013523,0.002678,0.000431,0.001058
133733000,0.0324,0.013523,0.002678,0.000431,0.001410
133734000,0.0324,0.013523,0.002678,0.000431,0.001293
133735000,0.0324,0.013523,0.002678,0.000431,0.001293
133736000,0.0324,0.013523,0.002678,0.000431,0.001528
133737000,0.0324,0.013523,0.002678,0.000431,0.000940
133738000,0.0324,0.013523,0.002678,0.000431,0.001528
133739000,0.0324,0.013523,0.002678,0.000431,0.001293
133740000,0.0324,0.013523,0.002678,0.000431,0.001058
133741000,0.0324,0.013523,0.002678,0.000431,0.001763
133742000,0.0324,0.013523,0.002678,0.000431,0.000940
133743000,0.0324,0.013523,0.002678,0.000431,0.001528
133744000,0.0324,0.013523,0.002678,0.000431,0.001175
133745000,0.0324,0.013523,0.002678,0.000431,0.001175
133746000,0.0324,0.013523,0.002678,0.000431,0.001645
133747000,0.0324,0.013523,0.002678,0.000431,0.000940
133748000,0.0324,0.013523,0.002678,0.000431,0.001645
133749000,0.0324,0.013523,0.002678,0.000431,0.001058
133750000,0.0324,0.013523,0.002678,0.000431,0.001293
133751000,0.0324,0.013523,0.002678,0.000431,0.001528
133752000,0.0324,0.013523,0.002678,0.000431,0.001293
133753000,0.0324,0.013523,0.002678,0.000431,0.000823
133754000,0.0324,0.013523,0.002678,0.000431,0.004231
133755000,0.0324,0.013523,0.002678,0.000431,0.542040
133756000,0.0324,0.013523,0.002678,0.000431,0.720565
133757000,0.0324,0.013523,0.002678,0.000431,0.136215
133758000,0.0324,0.013523,0.002678,0.000431,0.134922
133759000,0.0324,0.013523,0.002678,0.000431,0.506429
133760000,0.0324,0.013523,0.002678,0.000431,0.249160
133761000,0.0324,0.013523,0.002678,0.000431,0.285946
133762000,0.0324,0.013523,0.002678,0.000431,0.304280
133763000,0.0324,0.013523,0.002678,0.000431,0.147850
133764000,0.0324,0.013523,0.002678,0.000431,0.147380
133765000,0.0324,0.013523,0.002678,0.000431,0.234116
133766000,0.0324,0.013523,0.002678,0.000431,0.477282
133767000,0.0324,0.013523,0.002678,0.000431,0.181581
133768000,0.0324,0.013523,0.002678,0.000431,0.156195
133769000,0.0324,0.013523,0.002678,0.000431,0.127636
133770000,0.0324,0.013523,0.002678,0.000431,0.098136
133771000,0.0324,0.013523,0.002678,0.000431,0.076041
133772000,0.0324,0.013523,0.002678,0.000431,0.059234
133773000,0.0324,0.013523,0.002678,0.000431,0.067579
133774000,0.0324,0.013523,0.002678,0.000431,0.041487
133775000,0.0324,0.013523,0.002678,0.000431,0.035729
133776000,0.0324,0.013523,0.002678,0.000431,0.035141
133777000,0.0324,0.013523,0.002678,0.000431,0.023388
133778000,0.0324,0.013523,0.002678,0.000431,0.022213
133779000,0.0324,0.013523,0.002678,0.000431,0.018687
133780000,0.0324,0.013523,0.002678,0.000431,0.019745
133781000,0.0324,0.013523,0.002678,0.000431,0.024211
133782000,0.0324,0.013523,0.002678,0.000431,0.019745
133783000,0.0324,0.013523,0.002678,0.000431,0.021155
133784000,0.0324,0.013523,0.002678,0.000431,0.017512
133785000,0.0324,0.013523,0.002678,0.000431,0.017042
133786000,0.0324,0.013523,0.002678,0.000431,0.014338
133787000,0.0324,0.013523,0.002678,0.000431,0.010930
133788000,0.0324,0.013523,0.002678,0.000431,0.009050
133789000,0.0324,0.013523,0.002678,0.000431,0.008815
133790000,0.0324,0.013523,0.002678,0.000431,0.007404
133791000,0.0324,0.013523,0.002678,0.000431,0.007757
133792000,0.0324,0.013523,0.002678,0.000431,0.007052
133793000,0.0324,0.013523,0.002678,0.000431,0.004349
133794000,0.0324,0.013523,0.002678,0.000431,0.004113
133795000,0.0324,0.013523,0.002678,0.000431,0.003996
133796000,0.0324,0.013523,0.002678,0.000431,0.004113
133797000,0.0324,0.013523,0.002678,0.000431,0.005876
133798000,0.0324,0.013523,0.002678,0.000431,0.003173
133799000,0.0324,0.013523,0.002678,0.000431,0.003408
133800000,0.0324,0.013523,0.002678,0.000431,0.003056
133801000,0.0324,0.013523,0.002678,0.000431,0.004701
133802000,0.0324,0.013523,0.002678,0.000431,0.002351
133803000,0.0324,0.013523,0.002678,0.000431,0.002351
133804000,0.0324,0.013523,0.002678,0.000431,0.002703
133805000,0.0324,0.013523,0.002678,0.000431,0.002116
133806000,0.0324,0.013523,0.002678,0.000431,0.002586
133807000,0.0324,0.013523,0.002678,0.000431,0.002468
133808000,0.0324,0.013523,0.002678,0.000431,0.002351
133809000,0.0324,0.013523,0.002678,0.000431,0.002468
133810000,0.0324,0.013523,0.002678,0.000431,0.001880
133811000,0.0324,0.013523,0.002678,0.000431,0.001763
133812000,0.0324,0.013523,0.002678,0.000431,0.001763
133813000,0.0324,0.013523,0.002678,0.000431,0.001528
133814000,0.0324,0.013523,0.002678,0.000431,0.001763
133815000,0.0324,0.013523,0.002678,0.000431,0.001528
133816000,0.0324,0.013523,0.002678,0.000431,0.004819
133817000,0.0324,0.013523,0.002678,0.000431,0.000823
133818000,0.0324,0.013523,0.002678,0.000431,0.000823
133819000,0.0324,0.013523,0.002678,0.000431,0.000705
133820000,0.0324,0.013523,0.002678,0.000431,0.000940
133821000,0.0324,0.013523,0.002678,0.000431,0.000940
133822000,0.0324,0.013523,0.002678,0.000431,0.000705
133823000,0.0324,0.013523,0.002678,0.000431,0.000940
133824000,0.0324,0.013523,0.002678,0.000431,0.000705
133825000,0.0324,0.013523,0.002678,0.000431,0.000940
133826000,0.0324,0.013523,0.002678,0.000431,0.000823
133827000,0.0324,0.013523,0.002678,0.000431,0.000823
133828000,0.0324,0.013523,0.002678,0.000431,0.000940
133829000,0.0324,0.013523,0.002678,0.000431,0.000705
133830000,0.0324,0.013523,0.002678,0.000431,0.000940
133831000,0.0324,0.013523,0.002678,0.000431,0.000823
133832000,0.0324,0.013523,0.002678,0.000431,0.000823
133833000,0.0324,0.013523,0.002678,0.000431,0.000823
133834000,0.0324,0.013523,0.002678,0.000431,0.000823
133835000,0.0324,0.013523,0.002678,0.000431,0.000823
133836000,0.0324,0.013523,0.002678,0.000431,0.000823
133837000,0.0324,0.013523,0.002678,0.000431,0.000940
133838000,0.0324,0.013523,0.002678,0.000431,0.000705
133839000,0.0324,0.013523,0.002678,0.000431,0.000940
133840000,0.0324,0.013523,0.002678,0.000431,0.000823
133841000,0.0324,0.013523,0.002678,0.000431,0.000823
133842000,0.0324,0.013523,0.002678,0.000431,0.000823
133843000,0.0324,0.013523,0.002678,0.000431,0.009520
133844000,0.0324,0.013523,0.002678,0.000431,0.645817
133845000,0.0324,0.013523,0.002678,0.000431,0.652164
133846000,0.0324,0.013523,0.002678,0.000431,0.134922
133847000,0.0324,0.013523,0.002678,0.000431,0.134922
133848000,0.0324,0.013523,0.002678,0.000431,0.584468
133849000,0.0324,0.013523,0.002678,0.000431,0.247279
133850000,0.0324,0.013523,0.002678,0.000431,0.290882
133851000,0.0324,0.013523,0.002678,0.000431,0.218485
133852000,0.0324,0.013523,0.002678,0.000431,0.160543
133853000,0.0324,0.013523,0.002678,0.000431,0.103777
133854000,0.0324,0.013523,0.002678,0.000431,0.449310
133855000,0.0324,0.013523,0.002678,0.000431,0.365630
133856000,0.0324,0.013523,0.002678,0.000431,0.213549
133857000,0.0324,0.013523,0.002678,0.000431,0.175822
133858000,0.0324,0.013523,0.002678,0.000431,0.152317
133859000,0.0324,0.013523,0.002678,0.000431,0.108949
133860000,0.0324,0.013523,0.002678,0.000431,0.085208
133861000,0.0324,0.013523,0.002678,0.000431,0.075453
133862000,0.0324,0.013523,0.002678,0.000431,0.058294
133863000,0.0324,0.013523,0.002678,0.000431,0.048069
133864000,0.0324,0.013523,0.002678,0.000431,0.038902
133865000,0.0324,0.013523,0.002678,0.000431,0.025621
133866000,0.0324,0.013523,0.002678,0.000431,0.025386
133867000,0.0324,0.013523,0.002678,0.000431,0.024681
133868000,0.0324,0.013523,0.002678,0.000431,0.013986
133869000,0.0324,0.013523,0.002678,0.000431,0.010225
133870000,0.0324,0.013523,0.002678,0.000431,0.009050
133871000,0.0324,0.013523,0.002678,0.000431,0.010578
133872000,0.0324,0.013523,0.002678,0.000431,0.013868
133873000,0.0324,0.013523,0.002678,0.000431,0.007404
133874000,0.0324,0.013523,0.002678,0.000431,0.007757
133875000,0.0324,0.013523,0.002678,0.000431,0.007287
133876000,0.0324,0.013523,0.002678,0.000431,0.007404
133877000,0.0324,0.013523,0.002678,0.000431,0.007404
133878000,0.0324,0.013523,0.002678,0.000431,0.007287
133879000,0.0324,0.013523,0.002678,0.000431,0.006934
133880000,0.0324,0.013523,0.002678,0.000431,0.006934
133881000,0.0324,0.013523,0.002678,0.000431,0.006464
133882000,0.0324,0.013523,0.002678,0.000431,0.006817
133883000,0.0324,0.013523,0.002678,0.000431,0.006582
133884000,0.0324,0.013523,0.002678,0.000431,0.006699
133885000,0.0324,0.013523,0.002678,0.000431,0.006699
133886000,0.0324,0.013523,0.002678,0.000431,0.006934
133887000,0.0324,0.013523,0.002678,0.000431,0.006817
133888000,0.0324,0.013523,0.002678,0.000431,0.008697
133889000,0.0324,0.013523,0.002678,0.000431,0.008697
133890000,0.0324,0.013523,0.002678,0.000431,0.004936
133891000,0.0324,0.013523,0.002678,0.000431,0.004936
133892000,0.0324,0.013523,0.002678,0.000431,0.005171
133893000,0.0324,0.013523,0.002678,0.000431,0.004936
133894000,0.0324,0.013523,0.002678,0.000431,0.005054
133895000,0.0324,0.013523,0.002678,0.000431,0.008815
133896000,0.0324,0.013523,0.002678,0.000431,0.003408
133897000,0.0324,0.013523,0.002678,0.000431,0.003173
133898000,0.0324,0.013523,0.002678,0.000431,0.005289
133899000,0.0324,0.013523,0.002678,0.000431,0.002586
133900000,0.0324,0.013523,0.002678,0.000431,0.002351
133901000,0.0324,0.013523,0.002678,0.000431,0.002586
133902000,0.0324,0.013523,0.002678,0.000431,0.002351
133903000,0.0324,0.013523,0.002678,0.000431,0.004349
133904000,0.0324,0.013523,0.002678,0.000431,0.001763
133905000,0.0324,0.013523,0.002678,0.000431,0.001528
133906000,0.0324,0.013523,0.002678,0.000431,0.001763
133907000,0.0324,0.013523,0.002678,0.000431,0.001528
133908000,0.0324,0.013523,0.002678,0.000431,0.001880
133909000,0.0324,0.013523,0.002678,0.000431,0.001528
133910000,0.0324,0.013523,0.002678,0.000431,0.001763
133911000,0.0324,0.013523,0.002678,0.000431,0.002703
133912000,0.0324,0.013523,0.002678,0.000431,0.002586
133913000,0.0324,0.013523,0.002678,0.000431,0.000940
133914000,0.0324,0.013523,0.002678,0.000431,0.000705
133915000,0.0324,0.013523,0.002678,0.000431,0.000940
133916000,0.0324,0.013523,0.002678,0.000431,0.000705
133917000,0.0324,0.013523,0.002678,0.000431,0.000940
133918000,0.0324,0.013523,0.002678,0.000431,0.000940
133919000,0.0324,0.013523,0.002678,0.000431,0.000705
133920000,0.0324,0.013523,0.002678,0.000431,0.000940
133921000,0.0324,0.013523,0.002678,0.000431,0.000705
133922000,0.0324,0.013523,0.002678,0.000431,0.000940
133923000,0.0324,0.013523,0.002678,0.000431,0.000823
133924000,0.0324,0.013523,0.002678,0.000431,0.000823
133925000,0.0324,0.013523,0.002678,0.000431,0.000823
133926000,0.0324,0.013523,0.002678,0.000431,0.000823
133927000,0.0324,0.013523,0.002678,0.000431,0.000940
133928000,0.0324,0.013523,0.002678,0.000431,0.000705
133929000,0.0324,0.013523,0.002678,0.000431,0.000940
133930000,0.0324,0.013523,0.002678,0.000431,0.000823
133931000,0.0324,0.013523,0.002678,0.000431,0.000823
133932000,0.0324,0.013523,0.002678,0.000431,0.000823
133933000,0.0324,0.013523,0.002678,0.000431,0.000823
133934000,0.0324,0.013523,0.002678,0.000431,0.000823
133935000,0.0324,0.013523,0.002678,0.000431,0.000823
133936000,0.0324,0.013523,0.002678,0.000431,0.000940
133937000,0.0324,0.013523,0.002678,0.000431,0.000705
133938000,0.0324,0.013523,0.002678,0.000431,0.000940
133939000,0.0324,0.013523,0.002678,0.000431,0.000705
133940000,0.0324,0.013523,0.002678,0.000431,0.000940
133941000,0.0324,0.013523,0.002678,0.000431,0.000940
133942000,0.0324,0.013523,0.002678,0.000431,0.000705
133943000,0.0324,0.013523,0.002678,0.000431,0.000940
133944000,0.0324,0.013523,0.002678,0.000431,0.001645
133945000,0.0324,0.013523,0.002678,0.000431,0.416402
133946000,0.0324,0.013523,0.002678,0.000431,0.801307
133947000,0.0324,0.013523,0.002678,0.000431,0.235644
133948000,0.0324,0.013523,0.002678,0.000431,0.136333
133949000,0.0324,0.013523,0.002678,0.000431,0.528642
133950000,0.0324,0.013523,0.002678,0.000431,0.293350
133951000,0.0324,0.013523,0.002678,0.000431,0.296406
133952000,0.0324,0.013523,0.002678,0.000431,0.247632
133953000,0.0324,0.013523,0.002678,0.000431,0.153727
133954000,0.0324,0.013523,0.002678,0.000431,0.117646
133955000,0.0324,0.013523,0.002678,0.000431,0.487742
133956000,0.0324,0.013523,0.002678,0.000431,0.302635
133957000,0.0324,0.013523,0.002678,0.000431,0.178290
133958000,0.0324,0.013523,0.002678,0.000431,0.146088
133959000,0.0324,0.013523,0.002678,0.000431,0.118351
133960000,0.0324,0.013523,0.002678,0.000431,0.102602
133961000,0.0324,0.013523,0.002678,0.000431,0.086853
133962000,0.0324,0.013523,0.002678,0.000431,0.066051
133963000,0.0324,0.013523,0.002678,0.000431,0.053123
133964000,0.0324,0.013523,0.002678,0.000431,0.049362
133965000,0.0324,0.013523,0.002678,0.000431,0.040900
133966000,0.0324,0.013523,0.002678,0.000431,0.031380
133967000,0.0324,0.013523,0.002678,0.000431,0.032085
133968000,0.0324,0.013523,0.002678,0.000431,0.028559
133969000,0.0324,0.013523,0.002678,0.000431,0.023153
133970000,0.0324,0.013523,0.002678,0.000431,0.027737
133971000,0.0324,0.013523,0.002678,0.000431,0.018334
133972000,0.0324,0.013523,0.002678,0.000431,0.023506
133973000,0.0324,0.013523,0.002678,0.000431,0.020920
133974000,0.0324,0.013523,0.002678,0.000431,0.015161
133975000,0.0324,0.013523,0.002678,0.000431,0.017982
133976000,0.0324,0.013523,0.002678,0.000431,0.024211
133977000,0.0324,0.013523,0.002678,0.000431,0.012223
133978000,0.0324,0.013523,0.002678,0.000431,0.011988
133979000,0.0324,0.013523,0.002678,0.000431,0.014573
133980000,0.0324,0.013523,0.002678,0.000431,0.012576
133981000,0.0324,0.013523,0.002678,0.000431,0.010695
133982000,0.0324,0.013523,0.002678,0.000431,0.011165
133983000,0.0324,0.013523,0.002678,0.000431,0.016336
133984000,0.0324,0.013523,0.002678,0.000431,0.010695
133985000,0.0324,0.013523,0.002678,0.000431,0.008345
133986000,0.0324,0.013523,0.002678,0.000431,0.008697
133987000,0.0324,0.013523,0.002678,0.000431,0.007992
133988000,0.0324,0.013523,0.002678,0.000431,0.010813
133989000,0.0324,0.013523,0.002678,0.000431,0.007287
133990000,0.0324,0.013523,0.002678,0.000431,0.009167
133991000,0.0324,0.013523,0.002678,0.000431,0.005876
133992000,0.0324,0.013523,0.002678,0.000431,0.005876
133993000,0.0324,0.013523,0.002678,0.000431,0.006111
133994000,0.0324,0.013523,0.002678,0.000431,0.007169
133995000,0.0324,0.013523,0.002678,0.000431,0.005171
133996000,0.0324,0.013523,0.002678,0.000431,0.004701
133997000,0.0324,0.013523,0.002678,0.000431,0.004936
133998000,0.0324,0.013523,0.002678,0.000431,0.004701
133999000,0.0324,0.013523,0.002678,0.000431,0.004231
