Cycle,Area(mm^2),PeakDynamic(W),SubthresholdLeakage(W),GateLeakage(W),RunTimeDynamic(W)
84000000,0.0324,0.013523,0.002678,0.000431,0.000940
84001000,0.0324,0.013523,0.002678,0.000431,0.000940
84002000,0.0324,0.013523,0.002678,0.000431,0.000940
84003000,0.0324,0.013523,0.002678,0.000431,0.000705
84004000,0.0324,0.013523,0.002678,0.000431,0.000940
84005000,0.0324,0.013523,0.002678,0.000431,0.000940
84006000,0.0324,0.013523,0.002678,0.000431,0.000823
84007000,0.0324,0.013523,0.002678,0.000431,0.000823
84008000,0.0324,0.013523,0.002678,0.000431,0.000940
84009000,0.0324,0.013523,0.002678,0.000431,0.000940
84010000,0.0324,0.013523,0.002678,0.000431,0.000823
84011000,0.0324,0.013523,0.002678,0.000431,0.000823
84012000,0.0324,0.013523,0.002678,0.000431,0.014338
84013000,0.0324,0.013523,0.002678,0.000431,0.495734
84014000,0.0324,0.013523,0.002678,0.000431,0.592107
84015000,0.0324,0.013523,0.002678,0.000431,0.134452
84016000,0.0324,0.013523,0.002678,0.000431,0.131867
84017000,0.0324,0.013523,0.002678,0.000431,0.311685
84018000,0.0324,0.013523,0.002678,0.000431,0.463296
84019000,0.0324,0.013523,0.002678,0.000431,0.265731
84020000,0.0324,0.013523,0.002678,0.000431,0.302400
84021000,0.0324,0.013523,0.002678,0.000431,0.183226
84022000,0.0324,0.013523,0.002678,0.000431,0.147263
84023000,0.0324,0.013523,0.002678,0.000431,0.137273
84024000,0.0324,0.013523,0.002678,0.000431,0.232941
84025000,0.0324,0.013523,0.002678,0.000431,0.342242
84026000,0.0324,0.013523,0.002678,0.000431,0.035023
84027000,0.0324,0.013523,0.002678,0.000431,0.023036
84028000,0.0324,0.013523,0.002678,0.000431,0.023388
84029000,0.0324,0.013523,0.002678,0.000431,0.020802
84030000,0.0324,0.013523,0.002678,0.000431,0.018569
84031000,0.0324,0.013523,0.002678,0.000431,0.017042
84032000,0.0324,0.013523,0.002678,0.000431,0.017159
84033000,0.0324,0.013523,0.002678,0.000431,0.012458
84034000,0.0324,0.013523,0.002678,0.000431,0.011753
84035000,0.0324,0.013523,0.002678,0.000431,0.010930
84036000,0.0324,0.013523,0.002678,0.000431,0.011518
84037000,0.0324,0.013523,0.002678,0.000431,0.012693
84038000,0.0324,0.013523,0.002678,0.000431,0.010578
84039000,0.0324,0.013523,0.002678,0.000431,0.008932
84040000,0.0324,0.013523,0.002678,0.000431,0.013046
84041000,0.0324,0.013523,0.002678,0.000431,0.006464
84042000,0.0324,0.013523,0.002678,0.000431,0.006699
84043000,0.0324,0.013523,0.002678,0.000431,0.006699
84044000,0.0324,0.013523,0.002678,0.000431,0.006699
84045000,0.0324,0.013523,0.002678,0.000431,0.008462
84046000,0.0324,0.013523,0.002678,0.000431,0.005994
84047000,0.0324,0.013523,0.002678,0.000431,0.005406
84048000,0.0324,0.013523,0.002678,0.000431,0.005994
84049000,0.0324,0.013523,0.002678,0.000431,0.005641
84050000,0.0324,0.013523,0.002678,0.000431,0.005524
84051000,0.0324,0.013523,0.002678,0.000431,0.005876
84052000,0.0324,0.013523,0.002678,0.000431,0.005641
84053000,0.0324,0.013523,0.002678,0.000431,0.005641
84054000,0.0324,0.013523,0.002678,0.000431,0.005759
84055000,0.0324,0.013523,0.002678,0.000431,0.005759
84056000,0.0324,0.013523,0.002678,0.000431,0.005524
84057000,0.0324,0.013523,0.002678,0.000431,0.005759
84058000,0.0324,0.013523,0.002678,0.000431,0.005641
84059000,0.0324,0.013523,0.002678,0.000431,0.005876
84060000,0.0324,0.013523,0.002678,0.000431,0.005994
84061000,0.0324,0.013523,0.002678,0.000431,0.006111
84062000,0.0324,0.013523,0.002678,0.000431,0.005289
84063000,0.0324,0.013523,0.002678,0.000431,0.004231
84064000,0.0324,0.013523,0.002678,0.000431,0.005406
84065000,0.0324,0.013523,0.002678,0.000431,0.004466
84066000,0.0324,0.013523,0.002678,0.000431,0.004936
84067000,0.0324,0.013523,0.002678,0.000431,0.004701
84068000,0.0324,0.013523,0.002678,0.000431,0.004936
84069000,0.0324,0.013523,0.002678,0.000431,0.005054
84070000,0.0324,0.013523,0.002678,0.000431,0.004466
84071000,0.0324,0.013523,0.002678,0.000431,0.004349
84072000,0.0324,0.013523,0.002678,0.000431,0.004819
84073000,0.0324,0.013523,0.002678,0.000431,0.004701
84074000,0.0324,0.013523,0.002678,0.000431,0.004819
84075000,0.0324,0.013523,0.002678,0.000431,0.005171
84076000,0.0324,0.013523,0.002678,0.000431,0.004584
84077000,0.0324,0.013523,0.002678,0.000431,0.005054
84078000,0.0324,0.013523,0.002678,0.000431,0.004819
84079000,0.0324,0.013523,0.002678,0.000431,0.005054
84080000,0.0324,0.013523,0.002678,0.000431,0.005054
84081000,0.0324,0.013523,0.002678,0.000431,0.003291
84082000,0.0324,0.013523,0.002678,0.000431,0.003056
84083000,0.0324,0.013523,0.002678,0.000431,0.004936
84084000,0.0324,0.013523,0.002678,0.000431,0.001528
84085000,0.0324,0.013523,0.002678,0.000431,0.001763
84086000,0.0324,0.013523,0.002678,0.000431,0.002821
84087000,0.0324,0.013523,0.002678,0.000431,0.000823
84088000,0.0324,0.013523,0.002678,0.000431,0.000940
84089000,0.0324,0.013523,0.002678,0.000431,0.000705
84090000,0.0324,0.013523,0.002678,0.000431,0.000940
84091000,0.0324,0.013523,0.002678,0.000431,0.000823
84092000,0.0324,0.013523,0.002678,0.000431,0.000823
84093000,0.0324,0.013523,0.002678,0.000431,0.000823
84094000,0.0324,0.013523,0.002678,0.000431,0.000823
84095000,0.0324,0.013523,0.002678,0.000431,0.000823
84096000,0.0324,0.013523,0.002678,0.000431,0.000823
84097000,0.0324,0.013523,0.002678,0.000431,0.000823
84098000,0.0324,0.013523,0.002678,0.000431,0.000823
84099000,0.0324,0.013523,0.002678,0.000431,0.000940
84100000,0.0324,0.013523,0.002678,0.000431,0.000823
84101000,0.0324,0.013523,0.002678,0.000431,0.000823
84102000,0.0324,0.013523,0.002678,0.000431,0.000705
84103000,0.0324,0.013523,0.002678,0.000431,0.000940
84104000,0.0324,0.013523,0.002678,0.000431,0.000940
84105000,0.0324,0.013523,0.002678,0.000431,0.000705
84106000,0.0324,0.013523,0.002678,0.000431,0.000940
84107000,0.0324,0.013523,0.002678,0.000431,0.000705
84108000,0.0324,0.013523,0.002678,0.000431,0.000940
84109000,0.0324,0.013523,0.002678,0.000431,0.000823
84110000,0.0324,0.013523,0.002678,0.000431,0.000823
84111000,0.0324,0.013523,0.002678,0.000431,0.000940
84112000,0.0324,0.013523,0.002678,0.000431,0.000705
84113000,0.0324,0.013523,0.002678,0.000431,0.000940
84114000,0.0324,0.013523,0.002678,0.000431,0.000823
84115000,0.0324,0.013523,0.002678,0.000431,0.000823
84116000,0.0324,0.013523,0.002678,0.000431,0.000823
84117000,0.0324,0.013523,0.002678,0.000431,0.000823
84118000,0.0324,0.013523,0.002678,0.000431,0.000940
84119000,0.0324,0.013523,0.002678,0.000431,0.000705
84120000,0.0324,0.013523,0.002678,0.000431,0.000940
84121000,0.0324,0.013523,0.002678,0.000431,0.000823
84122000,0.0324,0.013523,0.002678,0.000431,0.000823
84123000,0.0324,0.013523,0.002678,0.000431,0.000823
84124000,0.0324,0.013523,0.002678,0.000431,0.000823
84125000,0.0324,0.013523,0.002678,0.000431,0.000823
84126000,0.0324,0.013523,0.002678,0.000431,0.000823
84127000,0.0324,0.013523,0.002678,0.000431,0.000940
84128000,0.0324,0.013523,0.002678,0.000431,0.000705
84129000,0.0324,0.013523,0.002678,0.000431,0.000940
84130000,0.0324,0.013523,0.002678,0.000431,0.000705
84131000,0.0324,0.013523,0.002678,0.000431,0.000940
84132000,0.0324,0.013523,0.002678,0.000431,0.000823
84133000,0.0324,0.013523,0.002678,0.000431,0.000823
84134000,0.0324,0.013523,0.002678,0.000431,0.000940
84135000,0.0324,0.013523,0.002678,0.000431,0.000705
84136000,0.0324,0.013523,0.002678,0.000431,0.000940
84137000,0.0324,0.013523,0.002678,0.000431,0.000823
84138000,0.0324,0.013523,0.002678,0.000431,0.000823
84139000,0.0324,0.013523,0.002678,0.000431,0.000823
84140000,0.0324,0.013523,0.002678,0.000431,0.000823
84141000,0.0324,0.013523,0.002678,0.000431,0.000940
84142000,0.0324,0.013523,0.002678,0.000431,0.000705
84143000,0.0324,0.013523,0.002678,0.000431,0.000940
84144000,0.0324,0.013523,0.002678,0.000431,0.000705
84145000,0.0324,0.013523,0.002678,0.000431,0.000823
84146000,0.0324,0.013523,0.002678,0.000431,0.000940
84147000,0.0324,0.013523,0.002678,0.000431,0.000823
84148000,0.0324,0.013523,0.002678,0.000431,0.000823
84149000,0.0324,0.013523,0.002678,0.000431,0.000823
84150000,0.0324,0.013523,0.002678,0.000431,0.000705
84151000,0.0324,0.013523,0.002678,0.000431,0.000940
84152000,0.0324,0.013523,0.002678,0.000431,0.000940
84153000,0.0324,0.013523,0.002678,0.000431,0.000705
84154000,0.0324,0.013523,0.002678,0.000431,0.000940
84155000,0.0324,0.013523,0.002678,0.000431,0.000705
84156000,0.0324,0.013523,0.002678,0.000431,0.000940
84157000,0.0324,0.013523,0.002678,0.000431,0.000823
84158000,0.0324,0.013523,0.002678,0.000431,0.000823
84159000,0.0324,0.013523,0.002678,0.000431,0.000940
84160000,0.0324,0.013523,0.002678,0.000431,0.000705
84161000,0.0324,0.013523,0.002678,0.000431,0.000940
84162000,0.0324,0.013523,0.002678,0.000431,0.000823
84163000,0.0324,0.013523,0.002678,0.000431,0.000823
84164000,0.0324,0.013523,0.002678,0.000431,0.000823
84165000,0.0324,0.013523,0.002678,0.000431,0.000823
84166000,0.0324,0.013523,0.002678,0.000431,0.000940
84167000,0.0324,0.013523,0.002678,0.000431,0.000705
84168000,0.0324,0.013523,0.002678,0.000431,0.000940
84169000,0.0324,0.013523,0.002678,0.000431,0.000823
84170000,0.0324,0.013523,0.002678,0.000431,0.000823
84171000,0.0324,0.013523,0.002678,0.000431,0.000823
84172000,0.0324,0.013523,0.002678,0.000431,0.000823
84173000,0.0324,0.013523,0.002678,0.000431,0.000705
84174000,0.0324,0.013523,0.002678,0.000431,0.000940
84175000,0.0324,0.013523,0.002678,0.000431,0.000940
84176000,0.0324,0.013523,0.002678,0.000431,0.000705
84177000,0.0324,0.013523,0.002678,0.000431,0.001880
84178000,0.0324,0.013523,0.002678,0.000431,0.330137
84179000,0.0324,0.013523,0.002678,0.000431,0.662741
84180000,0.0324,0.013523,0.002678,0.000431,0.155372
84181000,0.0324,0.013523,0.002678,0.000431,0.133982
84182000,0.0324,0.013523,0.002678,0.000431,0.131632
84183000,0.0324,0.013523,0.002678,0.000431,0.588346
84184000,0.0324,0.013523,0.002678,0.000431,0.215899
84185000,0.0324,0.013523,0.002678,0.000431,0.269845
84186000,0.0324,0.013523,0.002678,0.000431,0.293585
84187000,0.0324,0.013523,0.002678,0.000431,0.134217
84188000,0.0324,0.013523,0.002678,0.000431,0.148438
84189000,0.0324,0.013523,0.002678,0.000431,0.107773
84190000,0.0324,0.013523,0.002678,0.000431,0.370566
84191000,0.0324,0.013523,0.002678,0.000431,0.184402
84192000,0.0324,0.013523,0.002678,0.000431,0.022918
84193000,0.0324,0.013523,0.002678,0.000431,0.020920
84194000,0.0324,0.013523,0.002678,0.000431,0.018687
84195000,0.0324,0.013523,0.002678,0.000431,0.016219
84196000,0.0324,0.013523,0.002678,0.000431,0.014809
84197000,0.0324,0.013523,0.002678,0.000431,0.012105
84198000,0.0324,0.013523,0.002678,0.000431,0.014221
84199000,0.0324,0.013523,0.002678,0.000431,0.011518
84200000,0.0324,0.013523,0.002678,0.000431,0.010695
84201000,0.0324,0.013523,0.002678,0.000431,0.008462
84202000,0.0324,0.013523,0.002678,0.000431,0.007169
84203000,0.0324,0.013523,0.002678,0.000431,0.008580
84204000,0.0324,0.013523,0.002678,0.000431,0.009402
84205000,0.0324,0.013523,0.002678,0.000431,0.005641
84206000,0.0324,0.013523,0.002678,0.000431,0.006111
84207000,0.0324,0.013523,0.002678,0.000431,0.007052
84208000,0.0324,0.013523,0.002678,0.000431,0.007052
84209000,0.0324,0.013523,0.002678,0.000431,0.004349
84210000,0.0324,0.013523,0.002678,0.000431,0.005876
84211000,0.0324,0.013523,0.002678,0.000431,0.004819
84212000,0.0324,0.013523,0.002678,0.000431,0.002703
84213000,0.0324,0.013523,0.002678,0.000431,0.002351
84214000,0.0324,0.013523,0.002678,0.000431,0.002703
84215000,0.0324,0.013523,0.002678,0.000431,0.003996
84216000,0.0324,0.013523,0.002678,0.000431,0.001645
84217000,0.0324,0.013523,0.002678,0.000431,0.001880
84218000,0.0324,0.013523,0.002678,0.000431,0.001645
84219000,0.0324,0.013523,0.002678,0.000431,0.001763
84220000,0.0324,0.013523,0.002678,0.000431,0.001645
84221000,0.0324,0.013523,0.002678,0.000431,0.001645
84222000,0.0324,0.013523,0.002678,0.000431,0.001880
84223000,0.0324,0.013523,0.002678,0.000431,0.001645
84224000,0.0324,0.013523,0.002678,0.000431,0.001645
84225000,0.0324,0.013523,0.002678,0.000431,0.001763
84226000,0.0324,0.013523,0.002678,0.000431,0.001763
84227000,0.0324,0.013523,0.002678,0.000431,0.001763
84228000,0.0324,0.013523,0.002678,0.000431,0.001528
84229000,0.0324,0.013523,0.002678,0.000431,0.001880
84230000,0.0324,0.013523,0.002678,0.000431,0.001645
84231000,0.0324,0.013523,0.002678,0.000431,0.001763
84232000,0.0324,0.013523,0.002678,0.000431,0.001528
84233000,0.0324,0.013523,0.002678,0.000431,0.001880
84234000,0.0324,0.013523,0.002678,0.000431,0.001645
84235000,0.0324,0.013523,0.002678,0.000431,0.001763
84236000,0.0324,0.013523,0.002678,0.000431,0.001763
84237000,0.0324,0.013523,0.002678,0.000431,0.001645
84238000,0.0324,0.013523,0.002678,0.000431,0.001763
84239000,0.0324,0.013523,0.002678,0.000431,0.003173
84240000,0.0324,0.013523,0.002678,0.000431,0.001058
84241000,0.0324,0.013523,0.002678,0.000431,0.000823
84242000,0.0324,0.013523,0.002678,0.000431,0.000823
84243000,0.0324,0.013523,0.002678,0.000431,0.000823
84244000,0.0324,0.013523,0.002678,0.000431,0.000823
84245000,0.0324,0.013523,0.002678,0.000431,0.000940
84246000,0.0324,0.013523,0.002678,0.000431,0.000705
84247000,0.0324,0.013523,0.002678,0.000431,0.000940
84248000,0.0324,0.013523,0.002678,0.000431,0.000823
84249000,0.0324,0.013523,0.002678,0.000431,0.000823
84250000,0.0324,0.013523,0.002678,0.000431,0.000823
84251000,0.0324,0.013523,0.002678,0.000431,0.000823
84252000,0.0324,0.013523,0.002678,0.000431,0.000823
84253000,0.0324,0.013523,0.002678,0.000431,0.000823
84254000,0.0324,0.013523,0.002678,0.000431,0.000823
84255000,0.0324,0.013523,0.002678,0.000431,0.000823
84256000,0.0324,0.013523,0.002678,0.000431,0.000940
84257000,0.0324,0.013523,0.002678,0.000431,0.000823
84258000,0.0324,0.013523,0.002678,0.000431,0.000823
84259000,0.0324,0.013523,0.002678,0.000431,0.000705
84260000,0.0324,0.013523,0.002678,0.000431,0.000940
84261000,0.0324,0.013523,0.002678,0.000431,0.000940
84262000,0.0324,0.013523,0.002678,0.000431,0.000705
84263000,0.0324,0.013523,0.002678,0.000431,0.000940
84264000,0.0324,0.013523,0.002678,0.000431,0.000705
84265000,0.0324,0.013523,0.002678,0.000431,0.000940
84266000,0.0324,0.013523,0.002678,0.000431,0.000823
84267000,0.0324,0.013523,0.002678,0.000431,0.000823
84268000,0.0324,0.013523,0.002678,0.000431,0.000940
84269000,0.0324,0.013523,0.002678,0.000431,0.000705
84270000,0.0324,0.013523,0.002678,0.000431,0.000940
84271000,0.0324,0.013523,0.002678,0.000431,0.000823
84272000,0.0324,0.013523,0.002678,0.000431,0.000823
84273000,0.0324,0.013523,0.002678,0.000431,0.000823
84274000,0.0324,0.013523,0.002678,0.000431,0.000823
84275000,0.0324,0.013523,0.002678,0.000431,0.001763
84276000,0.0324,0.013523,0.002678,0.000431,0.258562
84277000,0.0324,0.013523,0.002678,0.000431,0.596808
84278000,0.0324,0.013523,0.002678,0.000431,0.261500
84279000,0.0324,0.013523,0.002678,0.000431,0.131161
84280000,0.0324,0.013523,0.002678,0.000431,0.134452
84281000,0.0324,0.013523,0.002678,0.000431,0.571540
84282000,0.0324,0.013523,0.002678,0.000431,0.250218
84283000,0.0324,0.013523,0.002678,0.000431,0.257857
84284000,0.0324,0.013523,0.002678,0.000431,0.287239
84285000,0.0324,0.013523,0.002678,0.000431,0.142914
84286000,0.0324,0.013523,0.002678,0.000431,0.139506
84287000,0.0324,0.013523,0.002678,0.000431,0.132102
84288000,0.0324,0.013523,0.002678,0.000431,0.237407
84289000,0.0324,0.013523,0.002678,0.000431,0.339774
84290000,0.0324,0.013523,0.002678,0.000431,0.034788
84291000,0.0324,0.013523,0.002678,0.000431,0.027149
84292000,0.0324,0.013523,0.002678,0.000431,0.027267
84293000,0.0324,0.013523,0.002678,0.000431,0.019275
84294000,0.0324,0.013523,0.002678,0.000431,0.024093
84295000,0.0324,0.013523,0.002678,0.000431,0.018687
84296000,0.0324,0.013523,0.002678,0.000431,0.018922
84297000,0.0324,0.013523,0.002678,0.000431,0.017042
84298000,0.0324,0.013523,0.002678,0.000431,0.016807
84299000,0.0324,0.013523,0.002678,0.000431,0.013633
84300000,0.0324,0.013523,0.002678,0.000431,0.014691
84301000,0.0324,0.013523,0.002678,0.000431,0.014456
84302000,0.0324,0.013523,0.002678,0.000431,0.014103
84303000,0.0324,0.013523,0.002678,0.000431,0.014456
84304000,0.0324,0.013523,0.002678,0.000431,0.012458
84305000,0.0324,0.013523,0.002678,0.000431,0.013751
84306000,0.0324,0.013523,0.002678,0.000431,0.011400
84307000,0.0324,0.013523,0.002678,0.000431,0.017159
84308000,0.0324,0.013523,0.002678,0.000431,0.012811
84309000,0.0324,0.013523,0.002678,0.000431,0.010460
84310000,0.0324,0.013523,0.002678,0.000431,0.011283
84311000,0.0324,0.013523,0.002678,0.000431,0.011988
84312000,0.0324,0.013523,0.002678,0.000431,0.013986
84313000,0.0324,0.013523,0.002678,0.000431,0.010460
84314000,0.0324,0.013523,0.002678,0.000431,0.008580
84315000,0.0324,0.013523,0.002678,0.000431,0.008697
84316000,0.0324,0.013523,0.002678,0.000431,0.009167
84317000,0.0324,0.013523,0.002678,0.000431,0.008462
84318000,0.0324,0.013523,0.002678,0.000431,0.009637
84319000,0.0324,0.013523,0.002678,0.000431,0.007757
84320000,0.0324,0.013523,0.002678,0.000431,0.008109
84321000,0.0324,0.013523,0.002678,0.000431,0.009285
84322000,0.0324,0.013523,0.002678,0.000431,0.009050
84323000,0.0324,0.013523,0.002678,0.000431,0.007874
84324000,0.0324,0.013523,0.002678,0.000431,0.007874
84325000,0.0324,0.013523,0.002678,0.000431,0.006934
84326000,0.0324,0.013523,0.002678,0.000431,0.006817
84327000,0.0324,0.013523,0.002678,0.000431,0.006464
84328000,0.0324,0.013523,0.002678,0.000431,0.006229
84329000,0.0324,0.013523,0.002678,0.000431,0.005876
84330000,0.0324,0.013523,0.002678,0.000431,0.006699
84331000,0.0324,0.013523,0.002678,0.000431,0.006229
84332000,0.0324,0.013523,0.002678,0.000431,0.006111
84333000,0.0324,0.013523,0.002678,0.000431,0.005876
84334000,0.0324,0.013523,0.002678,0.000431,0.005759
84335000,0.0324,0.013523,0.002678,0.000431,0.005876
84336000,0.0324,0.013523,0.002678,0.000431,0.005759
84337000,0.0324,0.013523,0.002678,0.000431,0.007169
84338000,0.0324,0.013523,0.002678,0.000431,0.004819
84339000,0.0324,0.013523,0.002678,0.000431,0.004936
84340000,0.0324,0.013523,0.002678,0.000431,0.004936
84341000,0.0324,0.013523,0.002678,0.000431,0.004819
84342000,0.0324,0.013523,0.002678,0.000431,0.005171
84343000,0.0324,0.013523,0.002678,0.000431,0.004819
84344000,0.0324,0.013523,0.002678,0.000431,0.004936
84345000,0.0324,0.013523,0.002678,0.000431,0.004936
84346000,0.0324,0.013523,0.002678,0.000431,0.004819
84347000,0.0324,0.013523,0.002678,0.000431,0.004584
84348000,0.0324,0.013523,0.002678,0.000431,0.005406
84349000,0.0324,0.013523,0.002678,0.000431,0.004584
84350000,0.0324,0.013523,0.002678,0.000431,0.005054
84351000,0.0324,0.013523,0.002678,0.000431,0.004936
84352000,0.0324,0.013523,0.002678,0.000431,0.004819
84353000,0.0324,0.013523,0.002678,0.000431,0.004936
84354000,0.0324,0.013523,0.002678,0.000431,0.004701
84355000,0.0324,0.013523,0.002678,0.000431,0.005289
84356000,0.0324,0.013523,0.002678,0.000431,0.005054
84357000,0.0324,0.013523,0.002678,0.000431,0.004584
84358000,0.0324,0.013523,0.002678,0.000431,0.004936
84359000,0.0324,0.013523,0.002678,0.000431,0.005171
84360000,0.0324,0.013523,0.002678,0.000431,0.004701
84361000,0.0324,0.013523,0.002678,0.000431,0.005054
84362000,0.0324,0.013523,0.002678,0.000431,0.005171
84363000,0.0324,0.013523,0.002678,0.000431,0.004936
84364000,0.0324,0.013523,0.002678,0.000431,0.005054
84365000,0.0324,0.013523,0.002678,0.000431,0.004936
84366000,0.0324,0.013523,0.002678,0.000431,0.004936
84367000,0.0324,0.013523,0.002678,0.000431,0.005171
84368000,0.0324,0.013523,0.002678,0.000431,0.005054
84369000,0.0324,0.013523,0.002678,0.000431,0.004349
84370000,0.0324,0.013523,0.002678,0.000431,0.005524
84371000,0.0324,0.013523,0.002678,0.000431,0.005054
84372000,0.0324,0.013523,0.002678,0.000431,0.004701
84373000,0.0324,0.013523,0.002678,0.000431,0.006582
84374000,0.0324,0.013523,0.002678,0.000431,0.004231
84375000,0.0324,0.013523,0.002678,0.000431,0.004231
84376000,0.0324,0.013523,0.002678,0.000431,0.003996
84377000,0.0324,0.013523,0.002678,0.000431,0.004113
84378000,0.0324,0.013523,0.002678,0.000431,0.004231
84379000,0.0324,0.013523,0.002678,0.000431,0.003996
84380000,0.0324,0.013523,0.002678,0.000431,0.004231
84381000,0.0324,0.013523,0.002678,0.000431,0.004113
84382000,0.0324,0.013523,0.002678,0.000431,0.004113
84383000,0.0324,0.013523,0.002678,0.000431,0.004231
84384000,0.0324,0.013523,0.002678,0.000431,0.004113
84385000,0.0324,0.013523,0.002678,0.000431,0.003996
84386000,0.0324,0.013523,0.002678,0.000431,0.004466
84387000,0.0324,0.013523,0.002678,0.000431,0.003878
84388000,0.0324,0.013523,0.002678,0.000431,0.004231
84389000,0.0324,0.013523,0.002678,0.000431,0.004231
84390000,0.0324,0.013523,0.002678,0.000431,0.004113
84391000,0.0324,0.013523,0.002678,0.000431,0.004349
84392000,0.0324,0.013523,0.002678,0.000431,0.003761
84393000,0.0324,0.013523,0.002678,0.000431,0.004349
84394000,0.0324,0.013523,0.002678,0.000431,0.004113
84395000,0.0324,0.013523,0.002678,0.000431,0.003996
84396000,0.0324,0.013523,0.002678,0.000431,0.004349
84397000,0.0324,0.013523,0.002678,0.000431,0.003996
84398000,0.0324,0.013523,0.002678,0.000431,0.004113
84399000,0.0324,0.013523,0.002678,0.000431,0.004231
84400000,0.0324,0.013523,0.002678,0.000431,0.004113
84401000,0.0324,0.013523,0.002678,0.000431,0.004113
84402000,0.0324,0.013523,0.002678,0.000431,0.004231
84403000,0.0324,0.013523,0.002678,0.000431,0.003996
84404000,0.0324,0.013523,0.002678,0.000431,0.004113
84405000,0.0324,0.013523,0.002678,0.000431,0.004466
84406000,0.0324,0.013523,0.002678,0.000431,0.003761
84407000,0.0324,0.013523,0.002678,0.000431,0.003996
84408000,0.0324,0.013523,0.002678,0.000431,0.004584
84409000,0.0324,0.013523,0.002678,0.000431,0.003878
84410000,0.0324,0.013523,0.002678,0.000431,0.003996
84411000,0.0324,0.013523,0.002678,0.000431,0.004466
84412000,0.0324,0.013523,0.002678,0.000431,0.003878
84413000,0.0324,0.013523,0.002678,0.000431,0.004231
84414000,0.0324,0.013523,0.002678,0.000431,0.004113
84415000,0.0324,0.013523,0.002678,0.000431,0.004113
84416000,0.0324,0.013523,0.002678,0.000431,0.004349
84417000,0.0324,0.013523,0.002678,0.000431,0.003643
84418000,0.0324,0.013523,0.002678,0.000431,0.004349
84419000,0.0324,0.013523,0.002678,0.000431,0.004466
84420000,0.0324,0.013523,0.002678,0.000431,0.003643
84421000,0.0324,0.013523,0.002678,0.000431,0.004349
84422000,0.0324,0.013523,0.002678,0.000431,0.004231
84423000,0.0324,0.013523,0.002678,0.000431,0.003996
84424000,0.0324,0.013523,0.002678,0.000431,0.004349
84425000,0.0324,0.013523,0.002678,0.000431,0.003996
84426000,0.0324,0.013523,0.002678,0.000431,0.004113
84427000,0.0324,0.013523,0.002678,0.000431,0.004231
84428000,0.0324,0.013523,0.002678,0.000431,0.004113
84429000,0.0324,0.013523,0.002678,0.000431,0.003878
84430000,0.0324,0.013523,0.002678,0.000431,0.004349
84431000,0.0324,0.013523,0.002678,0.000431,0.003996
84432000,0.0324,0.013523,0.002678,0.000431,0.004231
84433000,0.0324,0.013523,0.002678,0.000431,0.004349
84434000,0.0324,0.013523,0.002678,0.000431,0.003761
84435000,0.0324,0.013523,0.002678,0.000431,0.004349
84436000,0.0324,0.013523,0.002678,0.000431,0.003996
84437000,0.0324,0.013523,0.002678,0.000431,0.004231
84438000,0.0324,0.013523,0.002678,0.000431,0.004231
84439000,0.0324,0.013523,0.002678,0.000431,0.003878
84440000,0.0324,0.013523,0.002678,0.000431,0.004113
84441000,0.0324,0.013523,0.002678,0.000431,0.004349
84442000,0.0324,0.013523,0.002678,0.000431,0.004231
84443000,0.0324,0.013523,0.002678,0.000431,0.003878
84444000,0.0324,0.013523,0.002678,0.000431,0.004466
84445000,0.0324,0.013523,0.002678,0.000431,0.003643
84446000,0.0324,0.013523,0.002678,0.000431,0.004466
84447000,0.0324,0.013523,0.002678,0.000431,0.004231
84448000,0.0324,0.013523,0.002678,0.000431,0.003878
84449000,0.0324,0.013523,0.002678,0.000431,0.004349
84450000,0.0324,0.013523,0.002678,0.000431,0.003996
84451000,0.0324,0.013523,0.002678,0.000431,0.004113
84452000,0.0324,0.013523,0.002678,0.000431,0.004349
84453000,0.0324,0.013523,0.002678,0.000431,0.003996
84454000,0.0324,0.013523,0.002678,0.000431,0.004231
84455000,0.0324,0.013523,0.002678,0.000431,0.004231
84456000,0.0324,0.013523,0.002678,0.000431,0.003996
84457000,0.0324,0.013523,0.002678,0.000431,0.003996
84458000,0.0324,0.013523,0.002678,0.000431,0.004349
84459000,0.0324,0.013523,0.002678,0.000431,0.004113
84460000,0.0324,0.013523,0.002678,0.000431,0.003996
84461000,0.0324,0.013523,0.002678,0.000431,0.004349
84462000,0.0324,0.013523,0.002678,0.000431,0.004113
84463000,0.0324,0.013523,0.002678,0.000431,0.003996
84464000,0.0324,0.013523,0.002678,0.000431,0.004231
84465000,0.0324,0.013523,0.002678,0.000431,0.004231
84466000,0.0324,0.013523,0.002678,0.000431,0.003291
84467000,0.0324,0.013523,0.002678,0.000431,0.003408
84468000,0.0324,0.013523,0.002678,0.000431,0.003173
84469000,0.0324,0.013523,0.002678,0.000431,0.003643
84470000,0.0324,0.013523,0.002678,0.000431,0.003408
84471000,0.0324,0.013523,0.002678,0.000431,0.003173
84472000,0.0324,0.013523,0.002678,0.000431,0.003526
84473000,0.0324,0.013523,0.002678,0.000431,0.003291
84474000,0.0324,0.013523,0.002678,0.000431,0.005054
84475000,0.0324,0.013523,0.002678,0.000431,0.002233
84476000,0.0324,0.013523,0.002678,0.000431,0.002703
84477000,0.0324,0.013523,0.002678,0.000431,0.002586
84478000,0.0324,0.013523,0.002678,0.000431,0.002351
84479000,0.0324,0.013523,0.002678,0.000431,0.003643
84480000,0.0324,0.013523,0.002678,0.000431,0.001880
84481000,0.0324,0.013523,0.002678,0.000431,0.001880
84482000,0.0324,0.013523,0.002678,0.000431,0.001410
84483000,0.0324,0.013523,0.002678,0.000431,0.001880
84484000,0.0324,0.013523,0.002678,0.000431,0.001410
84485000,0.0324,0.013523,0.002678,0.000431,0.001880
84486000,0.0324,0.013523,0.002678,0.000431,0.001645
84487000,0.0324,0.013523,0.002678,0.000431,0.001645
84488000,0.0324,0.013523,0.002678,0.000431,0.001880
84489000,0.0324,0.013523,0.002678,0.000431,0.001410
84490000,0.0324,0.013523,0.002678,0.000431,0.001880
84491000,0.0324,0.013523,0.002678,0.000431,0.001645
84492000,0.0324,0.013523,0.002678,0.000431,0.001645
84493000,0.0324,0.013523,0.002678,0.000431,0.001645
84494000,0.0324,0.013523,0.002678,0.000431,0.001645
84495000,0.0324,0.013523,0.002678,0.000431,0.001880
84496000,0.0324,0.013523,0.002678,0.000431,0.001410
84497000,0.0324,0.013523,0.002678,0.000431,0.001880
84498000,0.0324,0.013523,0.002678,0.000431,0.001528
84499000,0.0324,0.013523,0.002678,0.000431,0.001645
84500000,0.0324,0.013523,0.002678,0.000431,0.001763
84501000,0.0324,0.013523,0.002678,0.000431,0.001645
84502000,0.0324,0.013523,0.002678,0.000431,0.001645
84503000,0.0324,0.013523,0.002678,0.000431,0.001645
84504000,0.0324,0.013523,0.002678,0.000431,0.001645
84505000,0.0324,0.013523,0.002678,0.000431,0.001645
84506000,0.0324,0.013523,0.002678,0.000431,0.001880
84507000,0.0324,0.013523,0.002678,0.000431,0.001645
84508000,0.0324,0.013523,0.002678,0.000431,0.001645
84509000,0.0324,0.013523,0.002678,0.000431,0.001410
84510000,0.0324,0.013523,0.002678,0.000431,0.001880
84511000,0.0324,0.013523,0.002678,0.000431,0.001880
84512000,0.0324,0.013523,0.002678,0.000431,0.015984
84513000,0.0324,0.013523,0.002678,0.000431,0.442494
84514000,0.0324,0.013523,0.002678,0.000431,0.601392
84515000,0.0324,0.013523,0.002678,0.000431,0.133982
84516000,0.0324,0.013523,0.002678,0.000431,0.131632
84517000,0.0324,0.013523,0.002678,0.000431,0.217897
84518000,0.0324,0.013523,0.002678,0.000431,0.540747
84519000,0.0324,0.013523,0.002678,0.000431,0.241050
84520000,0.0324,0.013523,0.002678,0.000431,0.293115
84521000,0.0324,0.013523,0.002678,0.000431,0.237877
84522000,0.0324,0.013523,0.002678,0.000431,0.144325
84523000,0.0324,0.013523,0.002678,0.000431,0.160308
84524000,0.0324,0.013523,0.002678,0.000431,0.132219
84525000,0.0324,0.013523,0.002678,0.000431,0.458477
84526000,0.0324,0.013523,0.002678,0.000431,0.119174
84527000,0.0324,0.013523,0.002678,0.000431,0.085561
84528000,0.0324,0.013523,0.002678,0.000431,0.075453
84529000,0.0324,0.013523,0.002678,0.000431,0.058764
84530000,0.0324,0.013523,0.002678,0.000431,0.049244
84531000,0.0324,0.013523,0.002678,0.000431,0.040195
84532000,0.0324,0.013523,0.002678,0.000431,0.031380
84533000,0.0324,0.013523,0.002678,0.000431,0.031850
84534000,0.0324,0.013523,0.002678,0.000431,0.029617
84535000,0.0324,0.013523,0.002678,0.000431,0.026209
84536000,0.0324,0.013523,0.002678,0.000431,0.021860
84537000,0.0324,0.013523,0.002678,0.000431,0.021860
84538000,0.0324,0.013523,0.002678,0.000431,0.019510
84539000,0.0324,0.013523,0.002678,0.000431,0.017159
84540000,0.0324,0.013523,0.002678,0.000431,0.018805
84541000,0.0324,0.013523,0.002678,0.000431,0.013986
84542000,0.0324,0.013523,0.002678,0.000431,0.016219
84543000,0.0324,0.013523,0.002678,0.000431,0.016689
84544000,0.0324,0.013523,0.002678,0.000431,0.011988
84545000,0.0324,0.013523,0.002678,0.000431,0.009520
84546000,0.0324,0.013523,0.002678,0.000431,0.008697
84547000,0.0324,0.013523,0.002678,0.000431,0.011400
84548000,0.0324,0.013523,0.002678,0.000431,0.007639
84549000,0.0324,0.013523,0.002678,0.000431,0.007404
84550000,0.0324,0.013523,0.002678,0.000431,0.007874
84551000,0.0324,0.013523,0.002678,0.000431,0.009872
84552000,0.0324,0.013523,0.002678,0.000431,0.006347
84553000,0.0324,0.013523,0.002678,0.000431,0.005524
84554000,0.0324,0.013523,0.002678,0.000431,0.005759
84555000,0.0324,0.013523,0.002678,0.000431,0.005171
84556000,0.0324,0.013523,0.002678,0.000431,0.005054
84557000,0.0324,0.013523,0.002678,0.000431,0.005759
84558000,0.0324,0.013523,0.002678,0.000431,0.005171
84559000,0.0324,0.013523,0.002678,0.000431,0.005641
84560000,0.0324,0.013523,0.002678,0.000431,0.005406
84561000,0.0324,0.013523,0.002678,0.000431,0.006111
84562000,0.0324,0.013523,0.002678,0.000431,0.006111
84563000,0.0324,0.013523,0.002678,0.000431,0.004466
84564000,0.0324,0.013523,0.002678,0.000431,0.004701
84565000,0.0324,0.013523,0.002678,0.000431,0.004349
84566000,0.0324,0.013523,0.002678,0.000431,0.004584
84567000,0.0324,0.013523,0.002678,0.000431,0.004701
84568000,0.0324,0.013523,0.002678,0.000431,0.004349
84569000,0.0324,0.013523,0.002678,0.000431,0.004701
84570000,0.0324,0.013523,0.002678,0.000431,0.004113
84571000,0.0324,0.013523,0.002678,0.000431,0.004936
84572000,0.0324,0.013523,0.002678,0.000431,0.004349
84573000,0.0324,0.013523,0.002678,0.000431,0.004349
84574000,0.0324,0.013523,0.002678,0.000431,0.004936
84575000,0.0324,0.013523,0.002678,0.000431,0.004584
84576000,0.0324,0.013523,0.002678,0.000431,0.004584
84577000,0.0324,0.013523,0.002678,0.000431,0.004231
84578000,0.0324,0.013523,0.002678,0.000431,0.004701
84579000,0.0324,0.013523,0.002678,0.000431,0.004819
84580000,0.0324,0.013523,0.002678,0.000431,0.004113
84581000,0.0324,0.013523,0.002678,0.000431,0.007169
84582000,0.0324,0.013523,0.002678,0.000431,0.003643
84583000,0.0324,0.013523,0.002678,0.000431,0.003526
84584000,0.0324,0.013523,0.002678,0.000431,0.003761
84585000,0.0324,0.013523,0.002678,0.000431,0.003643
84586000,0.0324,0.013523,0.002678,0.000431,0.004113
84587000,0.0324,0.013523,0.002678,0.000431,0.003056
84588000,0.0324,0.013523,0.002678,0.000431,0.003996
84589000,0.0324,0.013523,0.002678,0.000431,0.003761
84590000,0.0324,0.013523,0.002678,0.000431,0.003526
84591000,0.0324,0.013523,0.002678,0.000431,0.004584
84592000,0.0324,0.013523,0.002678,0.000431,0.003878
84593000,0.0324,0.013523,0.002678,0.000431,0.003291
84594000,0.0324,0.013523,0.002678,0.000431,0.003761
84595000,0.0324,0.013523,0.002678,0.000431,0.001998
84596000,0.0324,0.013523,0.002678,0.000431,0.002468
84597000,0.0324,0.013523,0.002678,0.000431,0.001880
84598000,0.0324,0.013523,0.002678,0.000431,0.001998
84599000,0.0324,0.013523,0.002678,0.000431,0.001998
84600000,0.0324,0.013523,0.002678,0.000431,0.002233
84601000,0.0324,0.013523,0.002678,0.000431,0.001763
84602000,0.0324,0.013523,0.002678,0.000431,0.001998
84603000,0.0324,0.013523,0.002678,0.000431,0.002468
84604000,0.0324,0.013523,0.002678,0.000431,0.001645
84605000,0.0324,0.013523,0.002678,0.000431,0.001998
84606000,0.0324,0.013523,0.002678,0.000431,0.001998
84607000,0.0324,0.013523,0.002678,0.000431,0.000940
84608000,0.0324,0.013523,0.002678,0.000431,0.000823
84609000,0.0324,0.013523,0.002678,0.000431,0.000940
84610000,0.0324,0.013523,0.002678,0.000431,0.020567
84611000,0.0324,0.013523,0.002678,0.000431,0.560492
84612000,0.0324,0.013523,0.002678,0.000431,0.601509
84613000,0.0324,0.013523,0.002678,0.000431,0.133042
84614000,0.0324,0.013523,0.002678,0.000431,0.133982
84615000,0.0324,0.013523,0.002678,0.000431,0.531580
84616000,0.0324,0.013523,0.002678,0.000431,0.290177
84617000,0.0324,0.013523,0.002678,0.000431,0.248807
84618000,0.0324,0.013523,0.002678,0.000431,0.344358
84619000,0.0324,0.013523,0.002678,0.000431,0.144560
84620000,0.0324,0.013523,0.002678,0.000431,0.149613
84621000,0.0324,0.013523,0.002678,0.000431,0.101897
84622000,0.0324,0.013523,0.002678,0.000431,0.425687
84623000,0.0324,0.013523,0.002678,0.000431,0.136215
84624000,0.0324,0.013523,0.002678,0.000431,0.053828
84625000,0.0324,0.013523,0.002678,0.000431,0.038432
84626000,0.0324,0.013523,0.002678,0.000431,0.038549
84627000,0.0324,0.013523,0.002678,0.000431,0.029382
84628000,0.0324,0.013523,0.002678,0.000431,0.026444
84629000,0.0324,0.013523,0.002678,0.000431,0.020920
84630000,0.0324,0.013523,0.002678,0.000431,0.015514
84631000,0.0324,0.013523,0.002678,0.000431,0.014338
84632000,0.0324,0.013523,0.002678,0.000431,0.011048
84633000,0.0324,0.013523,0.002678,0.000431,0.010695
84634000,0.0324,0.013523,0.002678,0.000431,0.010695
84635000,0.0324,0.013523,0.002678,0.000431,0.013633
84636000,0.0324,0.013523,0.002678,0.000431,0.009755
84637000,0.0324,0.013523,0.002678,0.000431,0.009050
84638000,0.0324,0.013523,0.002678,0.000431,0.010342
84639000,0.0324,0.013523,0.002678,0.000431,0.008345
84640000,0.0324,0.013523,0.002678,0.000431,0.009285
84641000,0.0324,0.013523,0.002678,0.000431,0.007404
84642000,0.0324,0.013523,0.002678,0.000431,0.006111
84643000,0.0324,0.013523,0.002678,0.000431,0.006699
84644000,0.0324,0.013523,0.002678,0.000431,0.006464
84645000,0.0324,0.013523,0.002678,0.000431,0.006347
84646000,0.0324,0.013523,0.002678,0.000431,0.006934
84647000,0.0324,0.013523,0.002678,0.000431,0.005994
84648000,0.0324,0.013523,0.002678,0.000431,0.006582
84649000,0.0324,0.013523,0.002678,0.000431,0.006347
84650000,0.0324,0.013523,0.002678,0.000431,0.006464
84651000,0.0324,0.013523,0.002678,0.000431,0.006817
84652000,0.0324,0.013523,0.002678,0.000431,0.005994
84653000,0.0324,0.013523,0.002678,0.000431,0.008462
84654000,0.0324,0.013523,0.002678,0.000431,0.005524
84655000,0.0324,0.013523,0.002678,0.000431,0.007052
84656000,0.0324,0.013523,0.002678,0.000431,0.004113
84657000,0.0324,0.013523,0.002678,0.000431,0.004113
84658000,0.0324,0.013523,0.002678,0.000431,0.003761
84659000,0.0324,0.013523,0.002678,0.000431,0.003996
84660000,0.0324,0.013523,0.002678,0.000431,0.004349
84661000,0.0324,0.013523,0.002678,0.000431,0.003996
84662000,0.0324,0.013523,0.002678,0.000431,0.003878
84663000,0.0324,0.013523,0.002678,0.000431,0.004231
84664000,0.0324,0.013523,0.002678,0.000431,0.003643
84665000,0.0324,0.013523,0.002678,0.000431,0.003996
84666000,0.0324,0.013523,0.002678,0.000431,0.003643
84667000,0.0324,0.013523,0.002678,0.000431,0.003643
84668000,0.0324,0.013523,0.002678,0.000431,0.003291
84669000,0.0324,0.013523,0.002678,0.000431,0.003408
84670000,0.0324,0.013523,0.002678,0.000431,0.003526
84671000,0.0324,0.013523,0.002678,0.000431,0.004584
84672000,0.0324,0.013523,0.002678,0.000431,0.002586
84673000,0.0324,0.013523,0.002678,0.000431,0.002586
84674000,0.0324,0.013523,0.002678,0.000431,0.002703
84675000,0.0324,0.013523,0.002678,0.000431,0.002586
84676000,0.0324,0.013523,0.002678,0.000431,0.004819
84677000,0.0324,0.013523,0.002678,0.000431,0.001528
84678000,0.0324,0.013523,0.002678,0.000431,0.001763
84679000,0.0324,0.013523,0.002678,0.000431,0.001763
84680000,0.0324,0.013523,0.002678,0.000431,0.001645
84681000,0.0324,0.013523,0.002678,0.000431,0.001763
84682000,0.0324,0.013523,0.002678,0.000431,0.001763
84683000,0.0324,0.013523,0.002678,0.000431,0.001763
84684000,0.0324,0.013523,0.002678,0.000431,0.001528
84685000,0.0324,0.013523,0.002678,0.000431,0.001763
84686000,0.0324,0.013523,0.002678,0.000431,0.001880
84687000,0.0324,0.013523,0.002678,0.000431,0.001528
84688000,0.0324,0.013523,0.002678,0.000431,0.001880
84689000,0.0324,0.013523,0.002678,0.000431,0.001528
84690000,0.0324,0.013523,0.002678,0.000431,0.001880
84691000,0.0324,0.013523,0.002678,0.000431,0.001645
84692000,0.0324,0.013523,0.002678,0.000431,0.001645
84693000,0.0324,0.013523,0.002678,0.000431,0.001880
84694000,0.0324,0.013523,0.002678,0.000431,0.001645
84695000,0.0324,0.013523,0.002678,0.000431,0.001763
84696000,0.0324,0.013523,0.002678,0.000431,0.001645
84697000,0.0324,0.013523,0.002678,0.000431,0.001763
84698000,0.0324,0.013523,0.002678,0.000431,0.001763
84699000,0.0324,0.013523,0.002678,0.000431,0.001645
84700000,0.0324,0.013523,0.002678,0.000431,0.001645
84701000,0.0324,0.013523,0.002678,0.000431,0.001763
84702000,0.0324,0.013523,0.002678,0.000431,0.001763
84703000,0.0324,0.013523,0.002678,0.000431,0.001645
84704000,0.0324,0.013523,0.002678,0.000431,0.001763
84705000,0.0324,0.013523,0.002678,0.000431,0.001763
84706000,0.0324,0.013523,0.002678,0.000431,0.001645
84707000,0.0324,0.013523,0.002678,0.000431,0.001528
84708000,0.0324,0.013523,0.002678,0.000431,0.001880
84709000,0.0324,0.013523,0.002678,0.000431,0.001880
84710000,0.0324,0.013523,0.002678,0.000431,0.001528
84711000,0.0324,0.013523,0.002678,0.000431,0.001763
84712000,0.0324,0.013523,0.002678,0.000431,0.001645
84713000,0.0324,0.013523,0.002678,0.000431,0.001880
84714000,0.0324,0.013523,0.002678,0.000431,0.001528
84715000,0.0324,0.013523,0.002678,0.000431,0.001763
84716000,0.0324,0.013523,0.002678,0.000431,0.001880
84717000,0.0324,0.013523,0.002678,0.000431,0.001645
84718000,0.0324,0.013523,0.002678,0.000431,0.001645
84719000,0.0324,0.013523,0.002678,0.000431,0.001763
84720000,0.0324,0.013523,0.002678,0.000431,0.001763
84721000,0.0324,0.013523,0.002678,0.000431,0.001645
84722000,0.0324,0.013523,0.002678,0.000431,0.001645
84723000,0.0324,0.013523,0.002678,0.000431,0.001763
84724000,0.0324,0.013523,0.002678,0.000431,0.001763
84725000,0.0324,0.013523,0.002678,0.000431,0.001763
84726000,0.0324,0.013523,0.002678,0.000431,0.001528
84727000,0.0324,0.013523,0.002678,0.000431,0.001763
84728000,0.0324,0.013523,0.002678,0.000431,0.001763
84729000,0.0324,0.013523,0.002678,0.000431,0.001763
84730000,0.0324,0.013523,0.002678,0.000431,0.001763
84731000,0.0324,0.013523,0.002678,0.000431,0.003526
84732000,0.0324,0.013523,0.002678,0.000431,0.001293
84733000,0.0324,0.013523,0.002678,0.000431,0.000940
84734000,0.0324,0.013523,0.002678,0.000431,0.000940
84735000,0.0324,0.013523,0.002678,0.000431,0.000705
84736000,0.0324,0.013523,0.002678,0.000431,0.000940
84737000,0.0324,0.013523,0.002678,0.000431,0.000705
84738000,0.0324,0.013523,0.002678,0.000431,0.000940
84739000,0.0324,0.013523,0.002678,0.000431,0.000940
84740000,0.0324,0.013523,0.002678,0.000431,0.000705
84741000,0.0324,0.013523,0.002678,0.000431,0.000940
84742000,0.0324,0.013523,0.002678,0.000431,0.000705
84743000,0.0324,0.013523,0.002678,0.000431,0.000940
84744000,0.0324,0.013523,0.002678,0.000431,0.000823
84745000,0.0324,0.013523,0.002678,0.000431,0.000823
84746000,0.0324,0.013523,0.002678,0.000431,0.000823
84747000,0.0324,0.013523,0.002678,0.000431,0.000823
84748000,0.0324,0.013523,0.002678,0.000431,0.000940
84749000,0.0324,0.013523,0.002678,0.000431,0.000823
84750000,0.0324,0.013523,0.002678,0.000431,0.000823
84751000,0.0324,0.013523,0.002678,0.000431,0.000823
84752000,0.0324,0.013523,0.002678,0.000431,0.000823
84753000,0.0324,0.013523,0.002678,0.000431,0.000823
84754000,0.0324,0.013523,0.002678,0.000431,0.000823
84755000,0.0324,0.013523,0.002678,0.000431,0.000940
84756000,0.0324,0.013523,0.002678,0.000431,0.000705
84757000,0.0324,0.013523,0.002678,0.000431,0.000940
84758000,0.0324,0.013523,0.002678,0.000431,0.000823
84759000,0.0324,0.013523,0.002678,0.000431,0.000823
84760000,0.0324,0.013523,0.002678,0.000431,0.000705
84761000,0.0324,0.013523,0.002678,0.000431,0.000940
84762000,0.0324,0.013523,0.002678,0.000431,0.000940
84763000,0.0324,0.013523,0.002678,0.000431,0.000705
84764000,0.0324,0.013523,0.002678,0.000431,0.000940
84765000,0.0324,0.013523,0.002678,0.000431,0.000705
84766000,0.0324,0.013523,0.002678,0.000431,0.000940
84767000,0.0324,0.013523,0.002678,0.000431,0.000940
84768000,0.0324,0.013523,0.002678,0.000431,0.000705
84769000,0.0324,0.013523,0.002678,0.000431,0.000940
84770000,0.0324,0.013523,0.002678,0.000431,0.000705
84771000,0.0324,0.013523,0.002678,0.000431,0.000940
84772000,0.0324,0.013523,0.002678,0.000431,0.000823
84773000,0.0324,0.013523,0.002678,0.000431,0.000823
84774000,0.0324,0.013523,0.002678,0.000431,0.000823
84775000,0.0324,0.013523,0.002678,0.000431,0.000823
84776000,0.0324,0.013523,0.002678,0.000431,0.000940
84777000,0.0324,0.013523,0.002678,0.000431,0.000705
84778000,0.0324,0.013523,0.002678,0.000431,0.000940
84779000,0.0324,0.013523,0.002678,0.000431,0.000823
84780000,0.0324,0.013523,0.002678,0.000431,0.000823
84781000,0.0324,0.013523,0.002678,0.000431,0.000823
84782000,0.0324,0.013523,0.002678,0.000431,0.000823
84783000,0.0324,0.013523,0.002678,0.000431,0.000940
84784000,0.0324,0.013523,0.002678,0.000431,0.000705
84785000,0.0324,0.013523,0.002678,0.000431,0.000823
84786000,0.0324,0.013523,0.002678,0.000431,0.000940
84787000,0.0324,0.013523,0.002678,0.000431,0.000823
84788000,0.0324,0.013523,0.002678,0.000431,0.000823
84789000,0.0324,0.013523,0.002678,0.000431,0.000823
84790000,0.0324,0.013523,0.002678,0.000431,0.000823
84791000,0.0324,0.013523,0.002678,0.000431,0.000823
84792000,0.0324,0.013523,0.002678,0.000431,0.000940
84793000,0.0324,0.013523,0.002678,0.000431,0.000705
84794000,0.0324,0.013523,0.002678,0.000431,0.000940
84795000,0.0324,0.013523,0.002678,0.000431,0.000705
84796000,0.0324,0.013523,0.002678,0.000431,0.000940
84797000,0.0324,0.013523,0.002678,0.000431,0.000940
84798000,0.0324,0.013523,0.002678,0.000431,0.000705
84799000,0.0324,0.013523,0.002678,0.000431,0.000940
84800000,0.0324,0.013523,0.002678,0.000431,0.000705
84801000,0.0324,0.013523,0.002678,0.000431,0.000940
84802000,0.0324,0.013523,0.002678,0.000431,0.000823
84803000,0.0324,0.013523,0.002678,0.000431,0.000823
84804000,0.0324,0.013523,0.002678,0.000431,0.000823
84805000,0.0324,0.013523,0.002678,0.000431,0.000823
84806000,0.0324,0.013523,0.002678,0.000431,0.000940
84807000,0.0324,0.013523,0.002678,0.000431,0.000705
84808000,0.0324,0.013523,0.002678,0.000431,0.000823
84809000,0.0324,0.013523,0.002678,0.000431,0.000823
84810000,0.0324,0.013523,0.002678,0.000431,0.000940
84811000,0.0324,0.013523,0.002678,0.000431,0.000705
84812000,0.0324,0.013523,0.002678,0.000431,0.000940
84813000,0.0324,0.013523,0.002678,0.000431,0.000823
84814000,0.0324,0.013523,0.002678,0.000431,0.000823
84815000,0.0324,0.013523,0.002678,0.000431,0.000823
84816000,0.0324,0.013523,0.002678,0.000431,0.000823
84817000,0.0324,0.013523,0.002678,0.000431,0.000823
84818000,0.0324,0.013523,0.002678,0.000431,0.000823
84819000,0.0324,0.013523,0.002678,0.000431,0.000940
84820000,0.0324,0.013523,0.002678,0.000431,0.000705
84821000,0.0324,0.013523,0.002678,0.000431,0.000823
84822000,0.0324,0.013523,0.002678,0.000431,0.000940
84823000,0.0324,0.013523,0.002678,0.000431,0.000823
84824000,0.0324,0.013523,0.002678,0.000431,0.000823
84825000,0.0324,0.013523,0.002678,0.000431,0.000823
84826000,0.0324,0.013523,0.002678,0.000431,0.000823
84827000,0.0324,0.013523,0.002678,0.000431,0.000823
84828000,0.0324,0.013523,0.002678,0.000431,0.000940
84829000,0.0324,0.013523,0.002678,0.000431,0.000823
84830000,0.0324,0.013523,0.002678,0.000431,0.000823
84831000,0.0324,0.013523,0.002678,0.000431,0.000705
84832000,0.0324,0.013523,0.002678,0.000431,0.000940
84833000,0.0324,0.013523,0.002678,0.000431,0.000940
84834000,0.0324,0.013523,0.002678,0.000431,0.000705
84835000,0.0324,0.013523,0.002678,0.000431,0.000940
84836000,0.0324,0.013523,0.002678,0.000431,0.000705
84837000,0.0324,0.013523,0.002678,0.000431,0.000940
84838000,0.0324,0.013523,0.002678,0.000431,0.000823
84839000,0.0324,0.013523,0.002678,0.000431,0.000823
84840000,0.0324,0.013523,0.002678,0.000431,0.000940
84841000,0.0324,0.013523,0.002678,0.000431,0.000705
84842000,0.0324,0.013523,0.002678,0.000431,0.000940
84843000,0.0324,0.013523,0.002678,0.000431,0.000705
84844000,0.0324,0.013523,0.002678,0.000431,0.000940
84845000,0.0324,0.013523,0.002678,0.000431,0.000823
84846000,0.0324,0.013523,0.002678,0.000431,0.000823
84847000,0.0324,0.013523,0.002678,0.000431,0.000823
84848000,0.0324,0.013523,0.002678,0.000431,0.000823
84849000,0.0324,0.013523,0.002678,0.000431,0.000940
84850000,0.0324,0.013523,0.002678,0.000431,0.000705
84851000,0.0324,0.013523,0.002678,0.000431,0.000940
84852000,0.0324,0.013523,0.002678,0.000431,0.000705
84853000,0.0324,0.013523,0.002678,0.000431,0.000940
84854000,0.0324,0.013523,0.002678,0.000431,0.000705
84855000,0.0324,0.013523,0.002678,0.000431,0.000940
84856000,0.0324,0.013523,0.002678,0.000431,0.000940
84857000,0.0324,0.013523,0.002678,0.000431,0.000705
84858000,0.0324,0.013523,0.002678,0.000431,0.000940
84859000,0.0324,0.013523,0.002678,0.000431,0.000705
84860000,0.0324,0.013523,0.002678,0.000431,0.000940
84861000,0.0324,0.013523,0.002678,0.000431,0.000823
84862000,0.0324,0.013523,0.002678,0.000431,0.000823
84863000,0.0324,0.013523,0.002678,0.000431,0.000823
84864000,0.0324,0.013523,0.002678,0.000431,0.000823
84865000,0.0324,0.013523,0.002678,0.000431,0.000940
84866000,0.0324,0.013523,0.002678,0.000431,0.000705
84867000,0.0324,0.013523,0.002678,0.000431,0.000940
84868000,0.0324,0.013523,0.002678,0.000431,0.000823
84869000,0.0324,0.013523,0.002678,0.000431,0.000823
84870000,0.0324,0.013523,0.002678,0.000431,0.000823
84871000,0.0324,0.013523,0.002678,0.000431,0.000823
84872000,0.0324,0.013523,0.002678,0.000431,0.000823
84873000,0.0324,0.013523,0.002678,0.000431,0.000823
84874000,0.0324,0.013523,0.002678,0.000431,0.000823
84875000,0.0324,0.013523,0.002678,0.000431,0.000940
84876000,0.0324,0.013523,0.002678,0.000431,0.000823
84877000,0.0324,0.013523,0.002678,0.000431,0.000823
84878000,0.0324,0.013523,0.002678,0.000431,0.000823
84879000,0.0324,0.013523,0.002678,0.000431,0.000705
84880000,0.0324,0.013523,0.002678,0.000431,0.000940
84881000,0.0324,0.013523,0.002678,0.000431,0.000940
84882000,0.0324,0.013523,0.002678,0.000431,0.000705
84883000,0.0324,0.013523,0.002678,0.000431,0.000940
84884000,0.0324,0.013523,0.002678,0.000431,0.000705
84885000,0.0324,0.013523,0.002678,0.000431,0.000940
84886000,0.0324,0.013523,0.002678,0.000431,0.000940
84887000,0.0324,0.013523,0.002678,0.000431,0.000705
84888000,0.0324,0.013523,0.002678,0.000431,0.000940
84889000,0.0324,0.013523,0.002678,0.000431,0.000705
84890000,0.0324,0.013523,0.002678,0.000431,0.000940
84891000,0.0324,0.013523,0.002678,0.000431,0.000823
84892000,0.0324,0.013523,0.002678,0.000431,0.000823
84893000,0.0324,0.013523,0.002678,0.000431,0.000823
84894000,0.0324,0.013523,0.002678,0.000431,0.000823
84895000,0.0324,0.013523,0.002678,0.000431,0.000940
84896000,0.0324,0.013523,0.002678,0.000431,0.000705
84897000,0.0324,0.013523,0.002678,0.000431,0.000940
84898000,0.0324,0.013523,0.002678,0.000431,0.000823
84899000,0.0324,0.013523,0.002678,0.000431,0.000823
84900000,0.0324,0.013523,0.002678,0.000431,0.000823
84901000,0.0324,0.013523,0.002678,0.000431,0.000823
84902000,0.0324,0.013523,0.002678,0.000431,0.000705
84903000,0.0324,0.013523,0.002678,0.000431,0.000940
84904000,0.0324,0.013523,0.002678,0.000431,0.000940
84905000,0.0324,0.013523,0.002678,0.000431,0.000705
84906000,0.0324,0.013523,0.002678,0.000431,0.000940
84907000,0.0324,0.013523,0.002678,0.000431,0.000705
84908000,0.0324,0.013523,0.002678,0.000431,0.000940
84909000,0.0324,0.013523,0.002678,0.000431,0.000940
84910000,0.0324,0.013523,0.002678,0.000431,0.000705
84911000,0.0324,0.013523,0.002678,0.000431,0.000940
84912000,0.0324,0.013523,0.002678,0.000431,0.000705
84913000,0.0324,0.013523,0.002678,0.000431,0.000940
84914000,0.0324,0.013523,0.002678,0.000431,0.000823
84915000,0.0324,0.013523,0.002678,0.000431,0.000823
84916000,0.0324,0.013523,0.002678,0.000431,0.000823
84917000,0.0324,0.013523,0.002678,0.000431,0.000823
84918000,0.0324,0.013523,0.002678,0.000431,0.000940
84919000,0.0324,0.013523,0.002678,0.000431,0.000705
84920000,0.0324,0.013523,0.002678,0.000431,0.000940
84921000,0.0324,0.013523,0.002678,0.000431,0.000823
84922000,0.0324,0.013523,0.002678,0.000431,0.000705
84923000,0.0324,0.013523,0.002678,0.000431,0.000940
84924000,0.0324,0.013523,0.002678,0.000431,0.000823
84925000,0.0324,0.013523,0.002678,0.000431,0.000823
84926000,0.0324,0.013523,0.002678,0.000431,0.000823
84927000,0.0324,0.013523,0.002678,0.000431,0.000823
84928000,0.0324,0.013523,0.002678,0.000431,0.000823
84929000,0.0324,0.013523,0.002678,0.000431,0.000940
84930000,0.0324,0.013523,0.002678,0.000431,0.000823
84931000,0.0324,0.013523,0.002678,0.000431,0.000823
84932000,0.0324,0.013523,0.002678,0.000431,0.000705
84933000,0.0324,0.013523,0.002678,0.000431,0.000940
84934000,0.0324,0.013523,0.002678,0.000431,0.000940
84935000,0.0324,0.013523,0.002678,0.000431,0.000705
84936000,0.0324,0.013523,0.002678,0.000431,0.000940
84937000,0.0324,0.013523,0.002678,0.000431,0.000705
84938000,0.0324,0.013523,0.002678,0.000431,0.000940
84939000,0.0324,0.013523,0.002678,0.000431,0.000823
84940000,0.0324,0.013523,0.002678,0.000431,0.000823
84941000,0.0324,0.013523,0.002678,0.000431,0.000940
84942000,0.0324,0.013523,0.002678,0.000431,0.000705
84943000,0.0324,0.013523,0.002678,0.000431,0.000940
84944000,0.0324,0.013523,0.002678,0.000431,0.000823
84945000,0.0324,0.013523,0.002678,0.000431,0.000823
84946000,0.0324,0.013523,0.002678,0.000431,0.000823
84947000,0.0324,0.013523,0.002678,0.000431,0.000823
84948000,0.0324,0.013523,0.002678,0.000431,0.000940
84949000,0.0324,0.013523,0.002678,0.000431,0.000705
84950000,0.0324,0.013523,0.002678,0.000431,0.000940
84951000,0.0324,0.013523,0.002678,0.000431,0.000823
84952000,0.0324,0.013523,0.002678,0.000431,0.000823
84953000,0.0324,0.013523,0.002678,0.000431,0.000823
84954000,0.0324,0.013523,0.002678,0.000431,0.000823
84955000,0.0324,0.013523,0.002678,0.000431,0.000823
84956000,0.0324,0.013523,0.002678,0.000431,0.000823
84957000,0.0324,0.013523,0.002678,0.000431,0.000940
84958000,0.0324,0.013523,0.002678,0.000431,0.000705
84959000,0.0324,0.013523,0.002678,0.000431,0.000940
84960000,0.0324,0.013523,0.002678,0.000431,0.000705
84961000,0.0324,0.013523,0.002678,0.000431,0.000940
84962000,0.0324,0.013523,0.002678,0.000431,0.000940
84963000,0.0324,0.013523,0.002678,0.000431,0.000705
84964000,0.0324,0.013523,0.002678,0.000431,0.000940
84965000,0.0324,0.013523,0.002678,0.000431,0.000705
84966000,0.0324,0.013523,0.002678,0.000431,0.000940
84967000,0.0324,0.013523,0.002678,0.000431,0.000823
84968000,0.0324,0.013523,0.002678,0.000431,0.000823
84969000,0.0324,0.013523,0.002678,0.000431,0.000823
84970000,0.0324,0.013523,0.002678,0.000431,0.000823
84971000,0.0324,0.013523,0.002678,0.000431,0.000940
84972000,0.0324,0.013523,0.002678,0.000431,0.000705
84973000,0.0324,0.013523,0.002678,0.000431,0.000940
84974000,0.0324,0.013523,0.002678,0.000431,0.000823
84975000,0.0324,0.013523,0.002678,0.000431,0.000823
84976000,0.0324,0.013523,0.002678,0.000431,0.000823
84977000,0.0324,0.013523,0.002678,0.000431,0.000823
84978000,0.0324,0.013523,0.002678,0.000431,0.000823
84979000,0.0324,0.013523,0.002678,0.000431,0.000823
84980000,0.0324,0.013523,0.002678,0.000431,0.000823
84981000,0.0324,0.013523,0.002678,0.000431,0.000823
84982000,0.0324,0.013523,0.002678,0.000431,0.000940
84983000,0.0324,0.013523,0.002678,0.000431,0.000823
84984000,0.0324,0.013523,0.002678,0.000431,0.000823
84985000,0.0324,0.013523,0.002678,0.000431,0.000705
84986000,0.0324,0.013523,0.002678,0.000431,0.000940
84987000,0.0324,0.013523,0.002678,0.000431,0.000940
84988000,0.0324,0.013523,0.002678,0.000431,0.000705
84989000,0.0324,0.013523,0.002678,0.000431,0.000940
84990000,0.0324,0.013523,0.002678,0.000431,0.000705
84991000,0.0324,0.013523,0.002678,0.000431,0.000940
84992000,0.0324,0.013523,0.002678,0.000431,0.000823
84993000,0.0324,0.013523,0.002678,0.000431,0.000823
84994000,0.0324,0.013523,0.002678,0.000431,0.000940
84995000,0.0324,0.013523,0.002678,0.000431,0.000705
84996000,0.0324,0.013523,0.002678,0.000431,0.000940
84997000,0.0324,0.013523,0.002678,0.000431,0.000823
84998000,0.0324,0.013523,0.002678,0.000431,0.000823
84999000,0.0324,0.013523,0.002678,0.000431,0.000823
