Cycle,Area(mm^2),PeakDynamic(W),SubthresholdLeakage(W),GateLeakage(W),RunTimeDynamic(W)
1000,0.0324,0.013523,0.002678,0.000431,0.129399
2000,0.0324,0.013523,0.002678,0.000431,0.000000
3000,0.0324,0.013523,0.002678,0.000431,0.000000
4000,0.0324,0.013523,0.002678,0.000431,0.000000
5000,0.0324,0.013523,0.002678,0.000431,0.000000
6000,0.0324,0.013523,0.002678,0.000431,0.146910
7000,0.0324,0.013523,0.002678,0.000431,0.474226
8000,0.0324,0.013523,0.002678,0.000431,0.223304
9000,0.0324,0.013523,0.002678,0.000431,0.646170
10000,0.0324,0.013523,0.002678,0.000431,0.250570
11000,0.0324,0.013523,0.002678,0.000431,0.135392
12000,0.0324,0.013523,0.002678,0.000431,0.131632
13000,0.0324,0.013523,0.002678,0.000431,0.497614
14000,0.0324,0.013523,0.002678,0.000431,0.265614
15000,0.0324,0.013523,0.002678,0.000431,0.335896
16000,0.0324,0.013523,0.002678,0.000431,0.243283
17000,0.0324,0.013523,0.002678,0.000431,0.205674
18000,0.0324,0.013523,0.002678,0.000431,0.145147
19000,0.0324,0.013523,0.002678,0.000431,0.262793
20000,0.0324,0.013523,0.002678,0.000431,0.346591
21000,0.0324,0.013523,0.002678,0.000431,0.010107
22000,0.0324,0.013523,0.002678,0.000431,0.010342
23000,0.0324,0.013523,0.002678,0.000431,0.004936
24000,0.0324,0.013523,0.002678,0.000431,0.001880
25000,0.0324,0.013523,0.002678,0.000431,0.001528
26000,0.0324,0.013523,0.002678,0.000431,0.003173
27000,0.0324,0.013523,0.002678,0.000431,0.000940
28000,0.0324,0.013523,0.002678,0.000431,0.000823
29000,0.0324,0.013523,0.002678,0.000431,0.000823
30000,0.0324,0.013523,0.002678,0.000431,0.000940
31000,0.0324,0.013523,0.002678,0.000431,0.000823
32000,0.0324,0.013523,0.002678,0.000431,0.002703
33000,0.0324,0.013523,0.002678,0.000431,0.403944
34000,0.0324,0.013523,0.002678,0.000431,0.653927
35000,0.0324,0.013523,0.002678,0.000431,0.133042
36000,0.0324,0.013523,0.002678,0.000431,0.132102
37000,0.0324,0.013523,0.002678,0.000431,0.276661
38000,0.0324,0.013523,0.002678,0.000431,0.542275
39000,0.0324,0.013523,0.002678,0.000431,0.230003
40000,0.0324,0.013523,0.002678,0.000431,0.289002
41000,0.0324,0.013523,0.002678,0.000431,0.140211
42000,0.0324,0.013523,0.002678,0.000431,0.146088
43000,0.0324,0.013523,0.002678,0.000431,0.155020
44000,0.0324,0.013523,0.002678,0.000431,0.217075
45000,0.0324,0.013523,0.002678,0.000431,0.428743
46000,0.0324,0.013523,0.002678,0.000431,0.028794
47000,0.0324,0.013523,0.002678,0.000431,0.015161
48000,0.0324,0.013523,0.002678,0.000431,0.017512
49000,0.0324,0.013523,0.002678,0.000431,0.008462
50000,0.0324,0.013523,0.002678,0.000431,0.006111
51000,0.0324,0.013523,0.002678,0.000431,0.007639
52000,0.0324,0.013523,0.002678,0.000431,0.005406
53000,0.0324,0.013523,0.002678,0.000431,0.006464
54000,0.0324,0.013523,0.002678,0.000431,0.003996
55000,0.0324,0.013523,0.002678,0.000431,0.006347
56000,0.0324,0.013523,0.002678,0.000431,0.003878
57000,0.0324,0.013523,0.002678,0.000431,0.003408
58000,0.0324,0.013523,0.002678,0.000431,0.004349
59000,0.0324,0.013523,0.002678,0.000431,0.003643
60000,0.0324,0.013523,0.002678,0.000431,0.003056
61000,0.0324,0.013523,0.002678,0.000431,0.001880
62000,0.0324,0.013523,0.002678,0.000431,0.001763
63000,0.0324,0.013523,0.002678,0.000431,0.001645
64000,0.0324,0.013523,0.002678,0.000431,0.003291
65000,0.0324,0.013523,0.002678,0.000431,0.000823
66000,0.0324,0.013523,0.002678,0.000431,0.000940
67000,0.0324,0.013523,0.002678,0.000431,0.000940
68000,0.0324,0.013523,0.002678,0.000431,0.000940
69000,0.0324,0.013523,0.002678,0.000431,0.000705
70000,0.0324,0.013523,0.002678,0.000431,0.000940
71000,0.0324,0.013523,0.002678,0.000431,0.000940
72000,0.0324,0.013523,0.002678,0.000431,0.000823
73000,0.0324,0.013523,0.002678,0.000431,0.000823
74000,0.0324,0.013523,0.002678,0.000431,0.071340
75000,0.0324,0.013523,0.002678,0.000431,0.569189
76000,0.0324,0.013523,0.002678,0.000431,0.540277
77000,0.0324,0.013523,0.002678,0.000431,0.134922
78000,0.0324,0.013523,0.002678,0.000431,0.135157
79000,0.0324,0.013523,0.002678,0.000431,0.627365
80000,0.0324,0.013523,0.002678,0.000431,0.269610
81000,0.0324,0.013523,0.002678,0.000431,0.296053
82000,0.0324,0.013523,0.002678,0.000431,0.193451
83000,0.0324,0.013523,0.002678,0.000431,0.141386
84000,0.0324,0.013523,0.002678,0.000431,0.117646
85000,0.0324,0.013523,0.002678,0.000431,0.426980
86000,0.0324,0.013523,0.002678,0.000431,0.176057
87000,0.0324,0.013523,0.002678,0.000431,0.031027
88000,0.0324,0.013523,0.002678,0.000431,0.028089
89000,0.0324,0.013523,0.002678,0.000431,0.021508
90000,0.0324,0.013523,0.002678,0.000431,0.018099
91000,0.0324,0.013523,0.002678,0.000431,0.011165
92000,0.0324,0.013523,0.002678,0.000431,0.007639
93000,0.0324,0.013523,0.002678,0.000431,0.009285
94000,0.0324,0.013523,0.002678,0.000431,0.007052
95000,0.0324,0.013523,0.002678,0.000431,0.007757
96000,0.0324,0.013523,0.002678,0.000431,0.006111
97000,0.0324,0.013523,0.002678,0.000431,0.007757
98000,0.0324,0.013523,0.002678,0.000431,0.004113
99000,0.0324,0.013523,0.002678,0.000431,0.003291
100000,0.0324,0.013523,0.002678,0.000431,0.003291
101000,0.0324,0.013523,0.002678,0.000431,0.006347
102000,0.0324,0.013523,0.002678,0.000431,0.003056
103000,0.0324,0.013523,0.002678,0.000431,0.001645
104000,0.0324,0.013523,0.002678,0.000431,0.001528
105000,0.0324,0.013523,0.002678,0.000431,0.001763
106000,0.0324,0.013523,0.002678,0.000431,0.001645
107000,0.0324,0.013523,0.002678,0.000431,0.001645
108000,0.0324,0.013523,0.002678,0.000431,0.001645
109000,0.0324,0.013523,0.002678,0.000431,0.001645
110000,0.0324,0.013523,0.002678,0.000431,0.001645
111000,0.0324,0.013523,0.002678,0.000431,0.001645
112000,0.0324,0.013523,0.002678,0.000431,0.001645
113000,0.0324,0.013523,0.002678,0.000431,0.001645
114000,0.0324,0.013523,0.002678,0.000431,0.001645
115000,0.0324,0.013523,0.002678,0.000431,0.001645
116000,0.0324,0.013523,0.002678,0.000431,0.001763
117000,0.0324,0.013523,0.002678,0.000431,0.001528
118000,0.0324,0.013523,0.002678,0.000431,0.014809
119000,0.0324,0.013523,0.002678,0.000431,0.530287
120000,0.0324,0.013523,0.002678,0.000431,0.585290
121000,0.0324,0.013523,0.002678,0.000431,0.133277
122000,0.0324,0.013523,0.002678,0.000431,0.133042
123000,0.0324,0.013523,0.002678,0.000431,0.515126
124000,0.0324,0.013523,0.002678,0.000431,0.250688
125000,0.0324,0.013523,0.002678,0.000431,0.242696
126000,0.0324,0.013523,0.002678,0.000431,0.352820
127000,0.0324,0.013523,0.002678,0.000431,0.146088
128000,0.0324,0.013523,0.002678,0.000431,0.146088
129000,0.0324,0.013523,0.002678,0.000431,0.108831
130000,0.0324,0.013523,0.002678,0.000431,0.419811
131000,0.0324,0.013523,0.002678,0.000431,0.215664
132000,0.0324,0.013523,0.002678,0.000431,0.034201
133000,0.0324,0.013523,0.002678,0.000431,0.022918
134000,0.0324,0.013523,0.002678,0.000431,0.023271
135000,0.0324,0.013523,0.002678,0.000431,0.014456
136000,0.0324,0.013523,0.002678,0.000431,0.015044
137000,0.0324,0.013523,0.002678,0.000431,0.014691
138000,0.0324,0.013523,0.002678,0.000431,0.012811
139000,0.0324,0.013523,0.002678,0.000431,0.010460
140000,0.0324,0.013523,0.002678,0.000431,0.011165
141000,0.0324,0.013523,0.002678,0.000431,0.007169
142000,0.0324,0.013523,0.002678,0.000431,0.007052
143000,0.0324,0.013523,0.002678,0.000431,0.006229
144000,0.0324,0.013523,0.002678,0.000431,0.004584
145000,0.0324,0.013523,0.002678,0.000431,0.005289
146000,0.0324,0.013523,0.002678,0.000431,0.004701
147000,0.0324,0.013523,0.002678,0.000431,0.004936
148000,0.0324,0.013523,0.002678,0.000431,0.003878
149000,0.0324,0.013523,0.002678,0.000431,0.001880
150000,0.0324,0.013523,0.002678,0.000431,0.001763
151000,0.0324,0.013523,0.002678,0.000431,0.001763
152000,0.0324,0.013523,0.002678,0.000431,0.001645
153000,0.0324,0.013523,0.002678,0.000431,0.001880
154000,0.0324,0.013523,0.002678,0.000431,0.001645
155000,0.0324,0.013523,0.002678,0.000431,0.003408
156000,0.0324,0.013523,0.002678,0.000431,0.000940
157000,0.0324,0.013523,0.002678,0.000431,0.000940
158000,0.0324,0.013523,0.002678,0.000431,0.000823
159000,0.0324,0.013523,0.002678,0.000431,0.000823
160000,0.0324,0.013523,0.002678,0.000431,0.000940
161000,0.0324,0.013523,0.002678,0.000431,0.000823
162000,0.0324,0.013523,0.002678,0.000431,0.000940
163000,0.0324,0.013523,0.002678,0.000431,0.000823
164000,0.0324,0.013523,0.002678,0.000431,0.000940
165000,0.0324,0.013523,0.002678,0.000431,0.000823
166000,0.0324,0.013523,0.002678,0.000431,0.013633
167000,0.0324,0.013523,0.002678,0.000431,0.558729
168000,0.0324,0.013523,0.002678,0.000431,0.583410
169000,0.0324,0.013523,0.002678,0.000431,0.133512
170000,0.0324,0.013523,0.002678,0.000431,0.134922
171000,0.0324,0.013523,0.002678,0.000431,0.497027
172000,0.0324,0.013523,0.002678,0.000431,0.254449
173000,0.0324,0.013523,0.002678,0.000431,0.286181
174000,0.0324,0.013523,0.002678,0.000431,0.270080
175000,0.0324,0.013523,0.002678,0.000431,0.139271
176000,0.0324,0.013523,0.002678,0.000431,0.154667
177000,0.0324,0.013523,0.002678,0.000431,0.137743
178000,0.0324,0.013523,0.002678,0.000431,0.235762
179000,0.0324,0.013523,0.002678,0.000431,0.395600
180000,0.0324,0.013523,0.002678,0.000431,0.033378
181000,0.0324,0.013523,0.002678,0.000431,0.015749
182000,0.0324,0.013523,0.002678,0.000431,0.021743
183000,0.0324,0.013523,0.002678,0.000431,0.011165
184000,0.0324,0.013523,0.002678,0.000431,0.007052
185000,0.0324,0.013523,0.002678,0.000431,0.009520
186000,0.0324,0.013523,0.002678,0.000431,0.006111
187000,0.0324,0.013523,0.002678,0.000431,0.004584
188000,0.0324,0.013523,0.002678,0.000431,0.004936
189000,0.0324,0.013523,0.002678,0.000431,0.002586
190000,0.0324,0.013523,0.002678,0.000431,0.002468
191000,0.0324,0.013523,0.002678,0.000431,0.004819
192000,0.0324,0.013523,0.002678,0.000431,0.003291
193000,0.0324,0.013523,0.002678,0.000431,0.002938
194000,0.0324,0.013523,0.002678,0.000431,0.000940
195000,0.0324,0.013523,0.002678,0.000431,0.147968
196000,0.0324,0.013523,0.002678,0.000431,0.516654
197000,0.0324,0.013523,0.002678,0.000431,0.515244
198000,0.0324,0.013523,0.002678,0.000431,0.134452
199000,0.0324,0.013523,0.002678,0.000431,0.133982
200000,0.0324,0.013523,0.002678,0.000431,0.554263
201000,0.0324,0.013523,0.002678,0.000431,0.237642
202000,0.0324,0.013523,0.002678,0.000431,0.253273
203000,0.0324,0.013523,0.002678,0.000431,0.279012
204000,0.0324,0.013523,0.002678,0.000431,0.145500
205000,0.0324,0.013523,0.002678,0.000431,0.190043
206000,0.0324,0.013523,0.002678,0.000431,0.087676
207000,0.0324,0.013523,0.002678,0.000431,0.496792
208000,0.0324,0.013523,0.002678,0.000431,0.100252
209000,0.0324,0.013523,0.002678,0.000431,0.050890
210000,0.0324,0.013523,0.002678,0.000431,0.038784
211000,0.0324,0.013523,0.002678,0.000431,0.037727
212000,0.0324,0.013523,0.002678,0.000431,0.025034
213000,0.0324,0.013523,0.002678,0.000431,0.021743
214000,0.0324,0.013523,0.002678,0.000431,0.014691
215000,0.0324,0.013523,0.002678,0.000431,0.013633
216000,0.0324,0.013523,0.002678,0.000431,0.012458
217000,0.0324,0.013523,0.002678,0.000431,0.013751
218000,0.0324,0.013523,0.002678,0.000431,0.010107
219000,0.0324,0.013523,0.002678,0.000431,0.012928
220000,0.0324,0.013523,0.002678,0.000431,0.006934
221000,0.0324,0.013523,0.002678,0.000431,0.006347
222000,0.0324,0.013523,0.002678,0.000431,0.006111
223000,0.0324,0.013523,0.002678,0.000431,0.005994
224000,0.0324,0.013523,0.002678,0.000431,0.011283
225000,0.0324,0.013523,0.002678,0.000431,0.004584
226000,0.0324,0.013523,0.002678,0.000431,0.003291
227000,0.0324,0.013523,0.002678,0.000431,0.005524
228000,0.0324,0.013523,0.002678,0.000431,0.002938
229000,0.0324,0.013523,0.002678,0.000431,0.001880
230000,0.0324,0.013523,0.002678,0.000431,0.001763
231000,0.0324,0.013523,0.002678,0.000431,0.001880
232000,0.0324,0.013523,0.002678,0.000431,0.001645
233000,0.0324,0.013523,0.002678,0.000431,0.001645
234000,0.0324,0.013523,0.002678,0.000431,0.003878
235000,0.0324,0.013523,0.002678,0.000431,0.388901
236000,0.0324,0.013523,0.002678,0.000431,0.710340
237000,0.0324,0.013523,0.002678,0.000431,0.162306
238000,0.0324,0.013523,0.002678,0.000431,0.133394
239000,0.0324,0.013523,0.002678,0.000431,0.165127
240000,0.0324,0.013523,0.002678,0.000431,0.556026
241000,0.0324,0.013523,0.002678,0.000431,0.245046
242000,0.0324,0.013523,0.002678,0.000431,0.299109
243000,0.0324,0.013523,0.002678,0.000431,0.214371
244000,0.0324,0.013523,0.002678,0.000431,0.144912
245000,0.0324,0.013523,0.002678,0.000431,0.155842
246000,0.0324,0.013523,0.002678,0.000431,0.185107
247000,0.0324,0.013523,0.002678,0.000431,0.422631
248000,0.0324,0.013523,0.002678,0.000431,0.062525
249000,0.0324,0.013523,0.002678,0.000431,0.035846
250000,0.0324,0.013523,0.002678,0.000431,0.024093
251000,0.0324,0.013523,0.002678,0.000431,0.019745
252000,0.0324,0.013523,0.002678,0.000431,0.013986
253000,0.0324,0.013523,0.002678,0.000431,0.012693
254000,0.0324,0.013523,0.002678,0.000431,0.014456
255000,0.0324,0.013523,0.002678,0.000431,0.010930
256000,0.0324,0.013523,0.002678,0.000431,0.013633
257000,0.0324,0.013523,0.002678,0.000431,0.009050
258000,0.0324,0.013523,0.002678,0.000431,0.008932
259000,0.0324,0.013523,0.002678,0.000431,0.004701
260000,0.0324,0.013523,0.002678,0.000431,0.003761
261000,0.0324,0.013523,0.002678,0.000431,0.003408
262000,0.0324,0.013523,0.002678,0.000431,0.003643
263000,0.0324,0.013523,0.002678,0.000431,0.003526
264000,0.0324,0.013523,0.002678,0.000431,0.004701
265000,0.0324,0.013523,0.002678,0.000431,0.005994
266000,0.0324,0.013523,0.002678,0.000431,0.001528
267000,0.0324,0.013523,0.002678,0.000431,0.001880
268000,0.0324,0.013523,0.002678,0.000431,0.003526
269000,0.0324,0.013523,0.002678,0.000431,0.000940
270000,0.0324,0.013523,0.002678,0.000431,0.000823
271000,0.0324,0.013523,0.002678,0.000431,0.000940
272000,0.0324,0.013523,0.002678,0.000431,0.000823
273000,0.0324,0.013523,0.002678,0.000431,0.000823
274000,0.0324,0.013523,0.002678,0.000431,0.000940
275000,0.0324,0.013523,0.002678,0.000431,0.000940
276000,0.0324,0.013523,0.002678,0.000431,0.000940
277000,0.0324,0.013523,0.002678,0.000431,0.000823
278000,0.0324,0.013523,0.002678,0.000431,0.000940
279000,0.0324,0.013523,0.002678,0.000431,0.000823
280000,0.0324,0.013523,0.002678,0.000431,0.001645
281000,0.0324,0.013523,0.002678,0.000431,0.372564
282000,0.0324,0.013523,0.002678,0.000431,0.692359
283000,0.0324,0.013523,0.002678,0.000431,0.156665
284000,0.0324,0.013523,0.002678,0.000431,0.133042
285000,0.0324,0.013523,0.002678,0.000431,0.139388
286000,0.0324,0.013523,0.002678,0.000431,0.581294
287000,0.0324,0.013523,0.002678,0.000431,0.252451
288000,0.0324,0.013523,0.002678,0.000431,0.275133
289000,0.0324,0.013523,0.002678,0.000431,0.238230
290000,0.0324,0.013523,0.002678,0.000431,0.142209
291000,0.0324,0.013523,0.002678,0.000431,0.174882
292000,0.0324,0.013523,0.002678,0.000431,0.131749
293000,0.0324,0.013523,0.002678,0.000431,0.491503
294000,0.0324,0.013523,0.002678,0.000431,0.074043
295000,0.0324,0.013523,0.002678,0.000431,0.042310
296000,0.0324,0.013523,0.002678,0.000431,0.037727
297000,0.0324,0.013523,0.002678,0.000431,0.026209
298000,0.0324,0.013523,0.002678,0.000431,0.019392
299000,0.0324,0.013523,0.002678,0.000431,0.013986
300000,0.0324,0.013523,0.002678,0.000431,0.009050
301000,0.0324,0.013523,0.002678,0.000431,0.010695
302000,0.0324,0.013523,0.002678,0.000431,0.008815
303000,0.0324,0.013523,0.002678,0.000431,0.005876
304000,0.0324,0.013523,0.002678,0.000431,0.008227
305000,0.0324,0.013523,0.002678,0.000431,0.005289
306000,0.0324,0.013523,0.002678,0.000431,0.008109
307000,0.0324,0.013523,0.002678,0.000431,0.004584
308000,0.0324,0.013523,0.002678,0.000431,0.002586
309000,0.0324,0.013523,0.002678,0.000431,0.004584
310000,0.0324,0.013523,0.002678,0.000431,0.001880
311000,0.0324,0.013523,0.002678,0.000431,0.003173
312000,0.0324,0.013523,0.002678,0.000431,0.072162
313000,0.0324,0.013523,0.002678,0.000431,0.607033
314000,0.0324,0.013523,0.002678,0.000431,0.529229
315000,0.0324,0.013523,0.002678,0.000431,0.134922
316000,0.0324,0.013523,0.002678,0.000431,0.132102
317000,0.0324,0.013523,0.002678,0.000431,0.614085
318000,0.0324,0.013523,0.002678,0.000431,0.246692
319000,0.0324,0.013523,0.002678,0.000431,0.234821
320000,0.0324,0.013523,0.002678,0.000431,0.263616
321000,0.0324,0.013523,0.002678,0.000431,0.141269
322000,0.0324,0.013523,0.002678,0.000431,0.190513
323000,0.0324,0.013523,0.002678,0.000431,0.084855
324000,0.0324,0.013523,0.002678,0.000431,0.505019
325000,0.0324,0.013523,0.002678,0.000431,0.070634
326000,0.0324,0.013523,0.002678,0.000431,0.036551
327000,0.0324,0.013523,0.002678,0.000431,0.022918
328000,0.0324,0.013523,0.002678,0.000431,0.017629
329000,0.0324,0.013523,0.002678,0.000431,0.020332
330000,0.0324,0.013523,0.002678,0.000431,0.012223
331000,0.0324,0.013523,0.002678,0.000431,0.011635
332000,0.0324,0.013523,0.002678,0.000431,0.011400
333000,0.0324,0.013523,0.002678,0.000431,0.015044
334000,0.0324,0.013523,0.002678,0.000431,0.007874
335000,0.0324,0.013523,0.002678,0.000431,0.009872
336000,0.0324,0.013523,0.002678,0.000431,0.005876
337000,0.0324,0.013523,0.002678,0.000431,0.000940
338000,0.0324,0.013523,0.002678,0.000431,0.002233
339000,0.0324,0.013523,0.002678,0.000431,0.392544
340000,0.0324,0.013523,0.002678,0.000431,0.699998
341000,0.0324,0.013523,0.002678,0.000431,0.138213
342000,0.0324,0.013523,0.002678,0.000431,0.134217
343000,0.0324,0.013523,0.002678,0.000431,0.188868
344000,0.0324,0.013523,0.002678,0.000431,0.550149
345000,0.0324,0.013523,0.002678,0.000431,0.259502
346000,0.0324,0.013523,0.002678,0.000431,0.324025
347000,0.0324,0.013523,0.002678,0.000431,0.190983
348000,0.0324,0.013523,0.002678,0.000431,0.140799
349000,0.0324,0.013523,0.002678,0.000431,0.129399
350000,0.0324,0.013523,0.002678,0.000431,0.321205
351000,0.0324,0.013523,0.002678,0.000431,0.370096
352000,0.0324,0.013523,0.002678,0.000431,0.086031
353000,0.0324,0.013523,0.002678,0.000431,0.065698
354000,0.0324,0.013523,0.002678,0.000431,0.052418
355000,0.0324,0.013523,0.002678,0.000431,0.038784
356000,0.0324,0.013523,0.002678,0.000431,0.019157
357000,0.0324,0.013523,0.002678,0.000431,0.018334
358000,0.0324,0.013523,0.002678,0.000431,0.010695
359000,0.0324,0.013523,0.002678,0.000431,0.012693
360000,0.0324,0.013523,0.002678,0.000431,0.009637
361000,0.0324,0.013523,0.002678,0.000431,0.002586
362000,0.0324,0.013523,0.002678,0.000431,0.002703
363000,0.0324,0.013523,0.002678,0.000431,0.002703
364000,0.0324,0.013523,0.002678,0.000431,0.002703
365000,0.0324,0.013523,0.002678,0.000431,0.002468
366000,0.0324,0.013523,0.002678,0.000431,0.002586
367000,0.0324,0.013523,0.002678,0.000431,0.002703
368000,0.0324,0.013523,0.002678,0.000431,0.002703
369000,0.0324,0.013523,0.002678,0.000431,0.002586
370000,0.0324,0.013523,0.002678,0.000431,0.002586
371000,0.0324,0.013523,0.002678,0.000431,0.003878
372000,0.0324,0.013523,0.002678,0.000431,0.001880
373000,0.0324,0.013523,0.002678,0.000431,0.001528
374000,0.0324,0.013523,0.002678,0.000431,0.001880
375000,0.0324,0.013523,0.002678,0.000431,0.001763
376000,0.0324,0.013523,0.002678,0.000431,0.001880
377000,0.0324,0.013523,0.002678,0.000431,0.001763
378000,0.0324,0.013523,0.002678,0.000431,0.001645
379000,0.0324,0.013523,0.002678,0.000431,0.001763
380000,0.0324,0.013523,0.002678,0.000431,0.001880
381000,0.0324,0.013523,0.002678,0.000431,0.003056
382000,0.0324,0.013523,0.002678,0.000431,0.000823
383000,0.0324,0.013523,0.002678,0.000431,0.000940
384000,0.0324,0.013523,0.002678,0.000431,0.000940
385000,0.0324,0.013523,0.002678,0.000431,0.000823
386000,0.0324,0.013523,0.002678,0.000431,0.000823
387000,0.0324,0.013523,0.002678,0.000431,0.000940
388000,0.0324,0.013523,0.002678,0.000431,0.000823
389000,0.0324,0.013523,0.002678,0.000431,0.000940
390000,0.0324,0.013523,0.002678,0.000431,0.000823
391000,0.0324,0.013523,0.002678,0.000431,0.000940
392000,0.0324,0.013523,0.002678,0.000431,0.000940
393000,0.0324,0.013523,0.002678,0.000431,0.278307
394000,0.0324,0.013523,0.002678,0.000431,0.785441
395000,0.0324,0.013523,0.002678,0.000431,0.252921
396000,0.0324,0.013523,0.002678,0.000431,0.134922
397000,0.0324,0.013523,0.002678,0.000431,0.272078
398000,0.0324,0.013523,0.002678,0.000431,0.462238
399000,0.0324,0.013523,0.002678,0.000431,0.243753
400000,0.0324,0.013523,0.002678,0.000431,0.348941
401000,0.0324,0.013523,0.002678,0.000431,0.154432
402000,0.0324,0.013523,0.002678,0.000431,0.178290
403000,0.0324,0.013523,0.002678,0.000431,0.101897
404000,0.0324,0.013523,0.002678,0.000431,0.500435
405000,0.0324,0.013523,0.002678,0.000431,0.076276
406000,0.0324,0.013523,0.002678,0.000431,0.031968
407000,0.0324,0.013523,0.002678,0.000431,0.031968
408000,0.0324,0.013523,0.002678,0.000431,0.022800
409000,0.0324,0.013523,0.002678,0.000431,0.021155
410000,0.0324,0.013523,0.002678,0.000431,0.020215
411000,0.0324,0.013523,0.002678,0.000431,0.015396
412000,0.0324,0.013523,0.002678,0.000431,0.011165
413000,0.0324,0.013523,0.002678,0.000431,0.013868
414000,0.0324,0.013523,0.002678,0.000431,0.010107
415000,0.0324,0.013523,0.002678,0.000431,0.008109
416000,0.0324,0.013523,0.002678,0.000431,0.003056
417000,0.0324,0.013523,0.002678,0.000431,0.002821
418000,0.0324,0.013523,0.002678,0.000431,0.002586
419000,0.0324,0.013523,0.002678,0.000431,0.002351
420000,0.0324,0.013523,0.002678,0.000431,0.002821
421000,0.0324,0.013523,0.002678,0.000431,0.004584
422000,0.0324,0.013523,0.002678,0.000431,0.004349
423000,0.0324,0.013523,0.002678,0.000431,0.464824
424000,0.0324,0.013523,0.002678,0.000431,0.660978
425000,0.0324,0.013523,0.002678,0.000431,0.133042
426000,0.0324,0.013523,0.002678,0.000431,0.132572
427000,0.0324,0.013523,0.002678,0.000431,0.239052
428000,0.0324,0.013523,0.002678,0.000431,0.505841
429000,0.0324,0.013523,0.002678,0.000431,0.230708
430000,0.0324,0.013523,0.002678,0.000431,0.281833
431000,0.0324,0.013523,0.002678,0.000431,0.189455
432000,0.0324,0.013523,0.002678,0.000431,0.138566
433000,0.0324,0.013523,0.002678,0.000431,0.187105
434000,0.0324,0.013523,0.002678,0.000431,0.113885
435000,0.0324,0.013523,0.002678,0.000431,0.488212
436000,0.0324,0.013523,0.002678,0.000431,0.065933
437000,0.0324,0.013523,0.002678,0.000431,0.030440
438000,0.0324,0.013523,0.002678,0.000431,0.027619
439000,0.0324,0.013523,0.002678,0.000431,0.020802
440000,0.0324,0.013523,0.002678,0.000431,0.018922
441000,0.0324,0.013523,0.002678,0.000431,0.014926
442000,0.0324,0.013523,0.002678,0.000431,0.018687
443000,0.0324,0.013523,0.002678,0.000431,0.012811
444000,0.0324,0.013523,0.002678,0.000431,0.006934
445000,0.0324,0.013523,0.002678,0.000431,0.003761
446000,0.0324,0.013523,0.002678,0.000431,0.004231
447000,0.0324,0.013523,0.002678,0.000431,0.003643
448000,0.0324,0.013523,0.002678,0.000431,0.005406
449000,0.0324,0.013523,0.002678,0.000431,0.002586
450000,0.0324,0.013523,0.002678,0.000431,0.003643
451000,0.0324,0.013523,0.002678,0.000431,0.004936
452000,0.0324,0.013523,0.002678,0.000431,0.001058
453000,0.0324,0.013523,0.002678,0.000431,0.000940
454000,0.0324,0.013523,0.002678,0.000431,0.000940
455000,0.0324,0.013523,0.002678,0.000431,0.000705
456000,0.0324,0.013523,0.002678,0.000431,0.000940
457000,0.0324,0.013523,0.002678,0.000431,0.000940
458000,0.0324,0.013523,0.002678,0.000431,0.000823
459000,0.0324,0.013523,0.002678,0.000431,0.000940
460000,0.0324,0.013523,0.002678,0.000431,0.000823
461000,0.0324,0.013523,0.002678,0.000431,0.000940
462000,0.0324,0.013523,0.002678,0.000431,0.000823
463000,0.0324,0.013523,0.002678,0.000431,0.000823
464000,0.0324,0.013523,0.002678,0.000431,0.000940
465000,0.0324,0.013523,0.002678,0.000431,0.000823
466000,0.0324,0.013523,0.002678,0.000431,0.000823
467000,0.0324,0.013523,0.002678,0.000431,0.000940
468000,0.0324,0.013523,0.002678,0.000431,0.000940
469000,0.0324,0.013523,0.002678,0.000431,0.000940
470000,0.0324,0.013523,0.002678,0.000431,0.000705
471000,0.0324,0.013523,0.002678,0.000431,0.000940
472000,0.0324,0.013523,0.002678,0.000431,0.000940
473000,0.0324,0.013523,0.002678,0.000431,0.000823
474000,0.0324,0.013523,0.002678,0.000431,0.000823
475000,0.0324,0.013523,0.002678,0.000431,0.000940
476000,0.0324,0.013523,0.002678,0.000431,0.000940
477000,0.0324,0.013523,0.002678,0.000431,0.000823
478000,0.0324,0.013523,0.002678,0.000431,0.000823
479000,0.0324,0.013523,0.002678,0.000431,0.000940
480000,0.0324,0.013523,0.002678,0.000431,0.000823
481000,0.0324,0.013523,0.002678,0.000431,0.000940
482000,0.0324,0.013523,0.002678,0.000431,0.000823
483000,0.0324,0.013523,0.002678,0.000431,0.000940
484000,0.0324,0.013523,0.002678,0.000431,0.000823
485000,0.0324,0.013523,0.002678,0.000431,0.000823
486000,0.0324,0.013523,0.002678,0.000431,0.000940
487000,0.0324,0.013523,0.002678,0.000431,0.000940
488000,0.0324,0.013523,0.002678,0.000431,0.000823
489000,0.0324,0.013523,0.002678,0.000431,0.000823
490000,0.0324,0.013523,0.002678,0.000431,0.000940
491000,0.0324,0.013523,0.002678,0.000431,0.000940
492000,0.0324,0.013523,0.002678,0.000431,0.000823
493000,0.0324,0.013523,0.002678,0.000431,0.000823
494000,0.0324,0.013523,0.002678,0.000431,0.000940
495000,0.0324,0.013523,0.002678,0.000431,0.000940
496000,0.0324,0.013523,0.002678,0.000431,0.000823
497000,0.0324,0.013523,0.002678,0.000431,0.000823
498000,0.0324,0.013523,0.002678,0.000431,0.000940
499000,0.0324,0.013523,0.002678,0.000431,0.000823
500000,0.0324,0.013523,0.002678,0.000431,0.000940
501000,0.0324,0.013523,0.002678,0.000431,0.000823
502000,0.0324,0.013523,0.002678,0.000431,0.000940
503000,0.0324,0.013523,0.002678,0.000431,0.000823
504000,0.0324,0.013523,0.002678,0.000431,0.000823
505000,0.0324,0.013523,0.002678,0.000431,0.000940
506000,0.0324,0.013523,0.002678,0.000431,0.000940
507000,0.0324,0.013523,0.002678,0.000431,0.000705
508000,0.0324,0.013523,0.002678,0.000431,0.000940
509000,0.0324,0.013523,0.002678,0.000431,0.000940
510000,0.0324,0.013523,0.002678,0.000431,0.000940
511000,0.0324,0.013523,0.002678,0.000431,0.000705
512000,0.0324,0.013523,0.002678,0.000431,0.000940
513000,0.0324,0.013523,0.002678,0.000431,0.000940
514000,0.0324,0.013523,0.002678,0.000431,0.000823
515000,0.0324,0.013523,0.002678,0.000431,0.000823
516000,0.0324,0.013523,0.002678,0.000431,0.000940
517000,0.0324,0.013523,0.002678,0.000431,0.000940
518000,0.0324,0.013523,0.002678,0.000431,0.000823
519000,0.0324,0.013523,0.002678,0.000431,0.000823
520000,0.0324,0.013523,0.002678,0.000431,0.000940
521000,0.0324,0.013523,0.002678,0.000431,0.000823
522000,0.0324,0.013523,0.002678,0.000431,0.000940
523000,0.0324,0.013523,0.002678,0.000431,0.000823
524000,0.0324,0.013523,0.002678,0.000431,0.000940
525000,0.0324,0.013523,0.002678,0.000431,0.000823
526000,0.0324,0.013523,0.002678,0.000431,0.000823
527000,0.0324,0.013523,0.002678,0.000431,0.000940
528000,0.0324,0.013523,0.002678,0.000431,0.000940
529000,0.0324,0.013523,0.002678,0.000431,0.000940
530000,0.0324,0.013523,0.002678,0.000431,0.000705
531000,0.0324,0.013523,0.002678,0.000431,0.000940
532000,0.0324,0.013523,0.002678,0.000431,0.000940
533000,0.0324,0.013523,0.002678,0.000431,0.000823
534000,0.0324,0.013523,0.002678,0.000431,0.000823
535000,0.0324,0.013523,0.002678,0.000431,0.000940
536000,0.0324,0.013523,0.002678,0.000431,0.000940
537000,0.0324,0.013523,0.002678,0.000431,0.000823
538000,0.0324,0.013523,0.002678,0.000431,0.000823
539000,0.0324,0.013523,0.002678,0.000431,0.000940
540000,0.0324,0.013523,0.002678,0.000431,0.000823
541000,0.0324,0.013523,0.002678,0.000431,0.000940
542000,0.0324,0.013523,0.002678,0.000431,0.000823
543000,0.0324,0.013523,0.002678,0.000431,0.000940
544000,0.0324,0.013523,0.002678,0.000431,0.000823
545000,0.0324,0.013523,0.002678,0.000431,0.000823
546000,0.0324,0.013523,0.002678,0.000431,0.000940
547000,0.0324,0.013523,0.002678,0.000431,0.000940
548000,0.0324,0.013523,0.002678,0.000431,0.000823
549000,0.0324,0.013523,0.002678,0.000431,0.000823
550000,0.0324,0.013523,0.002678,0.000431,0.000940
551000,0.0324,0.013523,0.002678,0.000431,0.000940
552000,0.0324,0.013523,0.002678,0.000431,0.000823
553000,0.0324,0.013523,0.002678,0.000431,0.000823
554000,0.0324,0.013523,0.002678,0.000431,0.000940
555000,0.0324,0.013523,0.002678,0.000431,0.000823
556000,0.0324,0.013523,0.002678,0.000431,0.000940
557000,0.0324,0.013523,0.002678,0.000431,0.000823
558000,0.0324,0.013523,0.002678,0.000431,0.066403
559000,0.0324,0.013523,0.002678,0.000431,0.497027
560000,0.0324,0.013523,0.002678,0.000431,0.590344
561000,0.0324,0.013523,0.002678,0.000431,0.132102
562000,0.0324,0.013523,0.002678,0.000431,0.133982
563000,0.0324,0.013523,0.002678,0.000431,0.561080
564000,0.0324,0.013523,0.002678,0.000431,0.245869
565000,0.0324,0.013523,0.002678,0.000431,0.253508
566000,0.0324,0.013523,0.002678,0.000431,0.312037
567000,0.0324,0.013523,0.002678,0.000431,0.143502
568000,0.0324,0.013523,0.002678,0.000431,0.155607
569000,0.0324,0.013523,0.002678,0.000431,0.106598
570000,0.0324,0.013523,0.002678,0.000431,0.457302
571000,0.0324,0.013523,0.002678,0.000431,0.168300
572000,0.0324,0.013523,0.002678,0.000431,0.054063
573000,0.0324,0.013523,0.002678,0.000431,0.041135
574000,0.0324,0.013523,0.002678,0.000431,0.037609
575000,0.0324,0.013523,0.002678,0.000431,0.023388
576000,0.0324,0.013523,0.002678,0.000431,0.022095
577000,0.0324,0.013523,0.002678,0.000431,0.023271
578000,0.0324,0.013523,0.002678,0.000431,0.015396
579000,0.0324,0.013523,0.002678,0.000431,0.014926
580000,0.0324,0.013523,0.002678,0.000431,0.009285
581000,0.0324,0.013523,0.002678,0.000431,0.013281
582000,0.0324,0.013523,0.002678,0.000431,0.010107
583000,0.0324,0.013523,0.002678,0.000431,0.009637
584000,0.0324,0.013523,0.002678,0.000431,0.007169
585000,0.0324,0.013523,0.002678,0.000431,0.002586
586000,0.0324,0.013523,0.002678,0.000431,0.002703
587000,0.0324,0.013523,0.002678,0.000431,0.002703
588000,0.0324,0.013523,0.002678,0.000431,0.002586
589000,0.0324,0.013523,0.002678,0.000431,0.002586
590000,0.0324,0.013523,0.002678,0.000431,0.002703
591000,0.0324,0.013523,0.002678,0.000431,0.002586
592000,0.0324,0.013523,0.002678,0.000431,0.002586
593000,0.0324,0.013523,0.002678,0.000431,0.002703
594000,0.0324,0.013523,0.002678,0.000431,0.002703
595000,0.0324,0.013523,0.002678,0.000431,0.002468
596000,0.0324,0.013523,0.002678,0.000431,0.004584
597000,0.0324,0.013523,0.002678,0.000431,0.001880
598000,0.0324,0.013523,0.002678,0.000431,0.001645
599000,0.0324,0.013523,0.002678,0.000431,0.001645
600000,0.0324,0.013523,0.002678,0.000431,0.001880
601000,0.0324,0.013523,0.002678,0.000431,0.001763
602000,0.0324,0.013523,0.002678,0.000431,0.001645
603000,0.0324,0.013523,0.002678,0.000431,0.001763
604000,0.0324,0.013523,0.002678,0.000431,0.003291
605000,0.0324,0.013523,0.002678,0.000431,0.000940
606000,0.0324,0.013523,0.002678,0.000431,0.000823
607000,0.0324,0.013523,0.002678,0.000431,0.000940
608000,0.0324,0.013523,0.002678,0.000431,0.000940
609000,0.0324,0.013523,0.002678,0.000431,0.000823
610000,0.0324,0.013523,0.002678,0.000431,0.000823
611000,0.0324,0.013523,0.002678,0.000431,0.000940
612000,0.0324,0.013523,0.002678,0.000431,0.000940
613000,0.0324,0.013523,0.002678,0.000431,0.000823
614000,0.0324,0.013523,0.002678,0.000431,0.000823
615000,0.0324,0.013523,0.002678,0.000431,0.071810
616000,0.0324,0.013523,0.002678,0.000431,0.549092
617000,0.0324,0.013523,0.002678,0.000431,0.586818
618000,0.0324,0.013523,0.002678,0.000431,0.130221
619000,0.0324,0.013523,0.002678,0.000431,0.135863
620000,0.0324,0.013523,0.002678,0.000431,0.590344
621000,0.0324,0.013523,0.002678,0.000431,0.275486
622000,0.0324,0.013523,0.002678,0.000431,0.279129
623000,0.0324,0.013523,0.002678,0.000431,0.265731
624000,0.0324,0.013523,0.002678,0.000431,0.137743
625000,0.0324,0.013523,0.002678,0.000431,0.176997
626000,0.0324,0.013523,0.002678,0.000431,0.106833
627000,0.0324,0.013523,0.002678,0.000431,0.478222
628000,0.0324,0.013523,0.002678,0.000431,0.104247
629000,0.0324,0.013523,0.002678,0.000431,0.058176
630000,0.0324,0.013523,0.002678,0.000431,0.047246
631000,0.0324,0.013523,0.002678,0.000431,0.046071
632000,0.0324,0.013523,0.002678,0.000431,0.044073
633000,0.0324,0.013523,0.002678,0.000431,0.031615
634000,0.0324,0.013523,0.002678,0.000431,0.028089
635000,0.0324,0.013523,0.002678,0.000431,0.025621
636000,0.0324,0.013523,0.002678,0.000431,0.022448
637000,0.0324,0.013523,0.002678,0.000431,0.015984
638000,0.0324,0.013523,0.002678,0.000431,0.019745
639000,0.0324,0.013523,0.002678,0.000431,0.016689
640000,0.0324,0.013523,0.002678,0.000431,0.014338
641000,0.0324,0.013523,0.002678,0.000431,0.009285
642000,0.0324,0.013523,0.002678,0.000431,0.002468
643000,0.0324,0.013523,0.002678,0.000431,0.004231
644000,0.0324,0.013523,0.002678,0.000431,0.001880
645000,0.0324,0.013523,0.002678,0.000431,0.001880
646000,0.0324,0.013523,0.002678,0.000431,0.001528
647000,0.0324,0.013523,0.002678,0.000431,0.001763
648000,0.0324,0.013523,0.002678,0.000431,0.003173
649000,0.0324,0.013523,0.002678,0.000431,0.002468
650000,0.0324,0.013523,0.002678,0.000431,0.000940
651000,0.0324,0.013523,0.002678,0.000431,0.000823
652000,0.0324,0.013523,0.002678,0.000431,0.000940
653000,0.0324,0.013523,0.002678,0.000431,0.000823
654000,0.0324,0.013523,0.002678,0.000431,0.000823
655000,0.0324,0.013523,0.002678,0.000431,0.014456
656000,0.0324,0.013523,0.002678,0.000431,0.553088
657000,0.0324,0.013523,0.002678,0.000431,0.599864
658000,0.0324,0.013523,0.002678,0.000431,0.134687
659000,0.0324,0.013523,0.002678,0.000431,0.132337
660000,0.0324,0.013523,0.002678,0.000431,0.391604
661000,0.0324,0.013523,0.002678,0.000431,0.414757
662000,0.0324,0.013523,0.002678,0.000431,0.236937
663000,0.0324,0.013523,0.002678,0.000431,0.277367
664000,0.0324,0.013523,0.002678,0.000431,0.171944
665000,0.0324,0.013523,0.002678,0.000431,0.137978
666000,0.0324,0.013523,0.002678,0.000431,0.157488
667000,0.0324,0.013523,0.002678,0.000431,0.197800
668000,0.0324,0.013523,0.002678,0.000431,0.419105
669000,0.0324,0.013523,0.002678,0.000431,0.090967
670000,0.0324,0.013523,0.002678,0.000431,0.056296
671000,0.0324,0.013523,0.002678,0.000431,0.055003
672000,0.0324,0.013523,0.002678,0.000431,0.036316
673000,0.0324,0.013523,0.002678,0.000431,0.032203
674000,0.0324,0.013523,0.002678,0.000431,0.032673
675000,0.0324,0.013523,0.002678,0.000431,0.023976
676000,0.0324,0.013523,0.002678,0.000431,0.020215
677000,0.0324,0.013523,0.002678,0.000431,0.022330
678000,0.0324,0.013523,0.002678,0.000431,0.010930
679000,0.0324,0.013523,0.002678,0.000431,0.013751
680000,0.0324,0.013523,0.002678,0.000431,0.007992
681000,0.0324,0.013523,0.002678,0.000431,0.007992
682000,0.0324,0.013523,0.002678,0.000431,0.013516
683000,0.0324,0.013523,0.002678,0.000431,0.007639
684000,0.0324,0.013523,0.002678,0.000431,0.002821
685000,0.0324,0.013523,0.002678,0.000431,0.000940
686000,0.0324,0.013523,0.002678,0.000431,0.000940
687000,0.0324,0.013523,0.002678,0.000431,0.000823
688000,0.0324,0.013523,0.002678,0.000431,0.000823
689000,0.0324,0.013523,0.002678,0.000431,0.000940
690000,0.0324,0.013523,0.002678,0.000431,0.000940
691000,0.0324,0.013523,0.002678,0.000431,0.000823
692000,0.0324,0.013523,0.002678,0.000431,0.000823
693000,0.0324,0.013523,0.002678,0.000431,0.000940
694000,0.0324,0.013523,0.002678,0.000431,0.000940
695000,0.0324,0.013523,0.002678,0.000431,0.000823
696000,0.0324,0.013523,0.002678,0.000431,0.000823
697000,0.0324,0.013523,0.002678,0.000431,0.000940
698000,0.0324,0.013523,0.002678,0.000431,0.000823
699000,0.0324,0.013523,0.002678,0.000431,0.000940
700000,0.0324,0.013523,0.002678,0.000431,0.000823
701000,0.0324,0.013523,0.002678,0.000431,0.000940
702000,0.0324,0.013523,0.002678,0.000431,0.000823
703000,0.0324,0.013523,0.002678,0.000431,0.000823
704000,0.0324,0.013523,0.002678,0.000431,0.000940
705000,0.0324,0.013523,0.002678,0.000431,0.000940
706000,0.0324,0.013523,0.002678,0.000431,0.002351
707000,0.0324,0.013523,0.002678,0.000431,0.428978
708000,0.0324,0.013523,0.002678,0.000431,0.721153
709000,0.0324,0.013523,0.002678,0.000431,0.134687
710000,0.0324,0.013523,0.002678,0.000431,0.133982
711000,0.0324,0.013523,0.002678,0.000431,0.177938
712000,0.0324,0.013523,0.002678,0.000431,0.571187
713000,0.0324,0.013523,0.002678,0.000431,0.275251
714000,0.0324,0.013523,0.002678,0.000431,0.290765
715000,0.0324,0.013523,0.002678,0.000431,0.192276
716000,0.0324,0.013523,0.002678,0.000431,0.144325
717000,0.0324,0.013523,0.002678,0.000431,0.146793
718000,0.0324,0.013523,0.002678,0.000431,0.228122
719000,0.0324,0.013523,0.002678,0.000431,0.424394
720000,0.0324,0.013523,0.002678,0.000431,0.082740
721000,0.0324,0.013523,0.002678,0.000431,0.066403
722000,0.0324,0.013523,0.002678,0.000431,0.049127
723000,0.0324,0.013523,0.002678,0.000431,0.031968
724000,0.0324,0.013523,0.002678,0.000431,0.034318
725000,0.0324,0.013523,0.002678,0.000431,0.023036
726000,0.0324,0.013523,0.002678,0.000431,0.020332
727000,0.0324,0.013523,0.002678,0.000431,0.020450
728000,0.0324,0.013523,0.002678,0.000431,0.017042
729000,0.0324,0.013523,0.002678,0.000431,0.010107
730000,0.0324,0.013523,0.002678,0.000431,0.008932
731000,0.0324,0.013523,0.002678,0.000431,0.014573
732000,0.0324,0.013523,0.002678,0.000431,0.009872
733000,0.0324,0.013523,0.002678,0.000431,0.008227
734000,0.0324,0.013523,0.002678,0.000431,0.003643
735000,0.0324,0.013523,0.002678,0.000431,0.004936
736000,0.0324,0.013523,0.002678,0.000431,0.002703
737000,0.0324,0.013523,0.002678,0.000431,0.002351
738000,0.0324,0.013523,0.002678,0.000431,0.003996
739000,0.0324,0.013523,0.002678,0.000431,0.003173
740000,0.0324,0.013523,0.002678,0.000431,0.003408
741000,0.0324,0.013523,0.002678,0.000431,0.000823
742000,0.0324,0.013523,0.002678,0.000431,0.000940
743000,0.0324,0.013523,0.002678,0.000431,0.000823
744000,0.0324,0.013523,0.002678,0.000431,0.000940
745000,0.0324,0.013523,0.002678,0.000431,0.000823
746000,0.0324,0.013523,0.002678,0.000431,0.000823
747000,0.0324,0.013523,0.002678,0.000431,0.001175
748000,0.0324,0.013523,0.002678,0.000431,0.000705
749000,0.0324,0.013523,0.002678,0.000431,0.000940
750000,0.0324,0.013523,0.002678,0.000431,0.000940
751000,0.0324,0.013523,0.002678,0.000431,0.000823
752000,0.0324,0.013523,0.002678,0.000431,0.014103
753000,0.0324,0.013523,0.002678,0.000431,0.599041
754000,0.0324,0.013523,0.002678,0.000431,0.599629
755000,0.0324,0.013523,0.002678,0.000431,0.134922
756000,0.0324,0.013523,0.002678,0.000431,0.131632
757000,0.0324,0.013523,0.002678,0.000431,0.457655
758000,0.0324,0.013523,0.002678,0.000431,0.365630
759000,0.0324,0.013523,0.002678,0.000431,0.240933
760000,0.0324,0.013523,0.002678,0.000431,0.319207
761000,0.0324,0.013523,0.002678,0.000431,0.144325
762000,0.0324,0.013523,0.002678,0.000431,0.142562
763000,0.0324,0.013523,0.002678,0.000431,0.112004
764000,0.0324,0.013523,0.002678,0.000431,0.392779
765000,0.0324,0.013523,0.002678,0.000431,0.250570
766000,0.0324,0.013523,0.002678,0.000431,0.057236
767000,0.0324,0.013523,0.002678,0.000431,0.042193
768000,0.0324,0.013523,0.002678,0.000431,0.036786
769000,0.0324,0.013523,0.002678,0.000431,0.037609
770000,0.0324,0.013523,0.002678,0.000431,0.032320
771000,0.0324,0.013523,0.002678,0.000431,0.025856
772000,0.0324,0.013523,0.002678,0.000431,0.020097
773000,0.0324,0.013523,0.002678,0.000431,0.014221
774000,0.0324,0.013523,0.002678,0.000431,0.016689
775000,0.0324,0.013523,0.002678,0.000431,0.014926
776000,0.0324,0.013523,0.002678,0.000431,0.011635
777000,0.0324,0.013523,0.002678,0.000431,0.011400
778000,0.0324,0.013523,0.002678,0.000431,0.008580
779000,0.0324,0.013523,0.002678,0.000431,0.006582
780000,0.0324,0.013523,0.002678,0.000431,0.008580
781000,0.0324,0.013523,0.002678,0.000431,0.004113
782000,0.0324,0.013523,0.002678,0.000431,0.001880
783000,0.0324,0.013523,0.002678,0.000431,0.001645
784000,0.0324,0.013523,0.002678,0.000431,0.001645
785000,0.0324,0.013523,0.002678,0.000431,0.001880
786000,0.0324,0.013523,0.002678,0.000431,0.001763
787000,0.0324,0.013523,0.002678,0.000431,0.001763
788000,0.0324,0.013523,0.002678,0.000431,0.001645
789000,0.0324,0.013523,0.002678,0.000431,0.001880
790000,0.0324,0.013523,0.002678,0.000431,0.001763
791000,0.0324,0.013523,0.002678,0.000431,0.003878
792000,0.0324,0.013523,0.002678,0.000431,0.020215
793000,0.0324,0.013523,0.002678,0.000431,0.562725
794000,0.0324,0.013523,0.002678,0.000431,0.602685
795000,0.0324,0.013523,0.002678,0.000431,0.131514
796000,0.0324,0.013523,0.002678,0.000431,0.134452
797000,0.0324,0.013523,0.002678,0.000431,0.513951
798000,0.0324,0.013523,0.002678,0.000431,0.259737
799000,0.0324,0.013523,0.002678,0.000431,0.278424
800000,0.0324,0.013523,0.002678,0.000431,0.299344
801000,0.0324,0.013523,0.002678,0.000431,0.143502
802000,0.0324,0.013523,0.002678,0.000431,0.145147
803000,0.0324,0.013523,0.002678,0.000431,0.131867
804000,0.0324,0.013523,0.002678,0.000431,0.276661
805000,0.0324,0.013523,0.002678,0.000431,0.385375
806000,0.0324,0.013523,0.002678,0.000431,0.095433
807000,0.0324,0.013523,0.002678,0.000431,0.075453
808000,0.0324,0.013523,0.002678,0.000431,0.068401
809000,0.0324,0.013523,0.002678,0.000431,0.052653
810000,0.0324,0.013523,0.002678,0.000431,0.045483
811000,0.0324,0.013523,0.002678,0.000431,0.039019
812000,0.0324,0.013523,0.002678,0.000431,0.037374
813000,0.0324,0.013523,0.002678,0.000431,0.027149
814000,0.0324,0.013523,0.002678,0.000431,0.026914
815000,0.0324,0.013523,0.002678,0.000431,0.024563
816000,0.0324,0.013523,0.002678,0.000431,0.019745
817000,0.0324,0.013523,0.002678,0.000431,0.019275
818000,0.0324,0.013523,0.002678,0.000431,0.010460
819000,0.0324,0.013523,0.002678,0.000431,0.009167
820000,0.0324,0.013523,0.002678,0.000431,0.009520
821000,0.0324,0.013523,0.002678,0.000431,0.010342
822000,0.0324,0.013523,0.002678,0.000431,0.007874
823000,0.0324,0.013523,0.002678,0.000431,0.004231
824000,0.0324,0.013523,0.002678,0.000431,0.002821
825000,0.0324,0.013523,0.002678,0.000431,0.003878
826000,0.0324,0.013523,0.002678,0.000431,0.005406
827000,0.0324,0.013523,0.002678,0.000431,0.000940
828000,0.0324,0.013523,0.002678,0.000431,0.000823
829000,0.0324,0.013523,0.002678,0.000431,0.000823
830000,0.0324,0.013523,0.002678,0.000431,0.000940
831000,0.0324,0.013523,0.002678,0.000431,0.000940
832000,0.0324,0.013523,0.002678,0.000431,0.000940
833000,0.0324,0.013523,0.002678,0.000431,0.000823
834000,0.0324,0.013523,0.002678,0.000431,0.000823
835000,0.0324,0.013523,0.002678,0.000431,0.000940
836000,0.0324,0.013523,0.002678,0.000431,0.000940
837000,0.0324,0.013523,0.002678,0.000431,0.000823
838000,0.0324,0.013523,0.002678,0.000431,0.000823
839000,0.0324,0.013523,0.002678,0.000431,0.000940
840000,0.0324,0.013523,0.002678,0.000431,0.000940
841000,0.0324,0.013523,0.002678,0.000431,0.000705
842000,0.0324,0.013523,0.002678,0.000431,0.000940
843000,0.0324,0.013523,0.002678,0.000431,0.000940
844000,0.0324,0.013523,0.002678,0.000431,0.000940
845000,0.0324,0.013523,0.002678,0.000431,0.113297
846000,0.0324,0.013523,0.002678,0.000431,0.644995
847000,0.0324,0.013523,0.002678,0.000431,0.517712
848000,0.0324,0.013523,0.002678,0.000431,0.134922
849000,0.0324,0.013523,0.002678,0.000431,0.132102
850000,0.0324,0.013523,0.002678,0.000431,0.560139
851000,0.0324,0.013523,0.002678,0.000431,0.240698
852000,0.0324,0.013523,0.002678,0.000431,0.285006
853000,0.0324,0.013523,0.002678,0.000431,0.268787
854000,0.0324,0.013523,0.002678,0.000431,0.139388
855000,0.0324,0.013523,0.002678,0.000431,0.159721
856000,0.0324,0.013523,0.002678,0.000431,0.118703
857000,0.0324,0.013523,0.002678,0.000431,0.510895
858000,0.0324,0.013523,0.002678,0.000431,0.124462
859000,0.0324,0.013523,0.002678,0.000431,0.038549
860000,0.0324,0.013523,0.002678,0.000431,0.029617
861000,0.0324,0.013523,0.002678,0.000431,0.023858
862000,0.0324,0.013523,0.002678,0.000431,0.019275
863000,0.0324,0.013523,0.002678,0.000431,0.021508
864000,0.0324,0.013523,0.002678,0.000431,0.012223
865000,0.0324,0.013523,0.002678,0.000431,0.009872
866000,0.0324,0.013523,0.002678,0.000431,0.010813
867000,0.0324,0.013523,0.002678,0.000431,0.007874
868000,0.0324,0.013523,0.002678,0.000431,0.010813
869000,0.0324,0.013523,0.002678,0.000431,0.006699
870000,0.0324,0.013523,0.002678,0.000431,0.008932
871000,0.0324,0.013523,0.002678,0.000431,0.003408
872000,0.0324,0.013523,0.002678,0.000431,0.003526
873000,0.0324,0.013523,0.002678,0.000431,0.003408
874000,0.0324,0.013523,0.002678,0.000431,0.003408
875000,0.0324,0.013523,0.002678,0.000431,0.003408
876000,0.0324,0.013523,0.002678,0.000431,0.004584
877000,0.0324,0.013523,0.002678,0.000431,0.001645
878000,0.0324,0.013523,0.002678,0.000431,0.001763
879000,0.0324,0.013523,0.002678,0.000431,0.001763
880000,0.0324,0.013523,0.002678,0.000431,0.003408
881000,0.0324,0.013523,0.002678,0.000431,0.000823
882000,0.0324,0.013523,0.002678,0.000431,0.000823
883000,0.0324,0.013523,0.002678,0.000431,0.000940
884000,0.0324,0.013523,0.002678,0.000431,0.002351
885000,0.0324,0.013523,0.002678,0.000431,0.315563
886000,0.0324,0.013523,0.002678,0.000431,0.713749
887000,0.0324,0.013523,0.002678,0.000431,0.239993
888000,0.0324,0.013523,0.002678,0.000431,0.133042
889000,0.0324,0.013523,0.002678,0.000431,0.151259
890000,0.0324,0.013523,0.002678,0.000431,0.633712
891000,0.0324,0.013523,0.002678,0.000431,0.244576
892000,0.0324,0.013523,0.002678,0.000431,0.274076
893000,0.0324,0.013523,0.002678,0.000431,0.209435
894000,0.0324,0.013523,0.002678,0.000431,0.149143
895000,0.0324,0.013523,0.002678,0.000431,0.140916
896000,0.0324,0.013523,0.002678,0.000431,0.235174
897000,0.0324,0.013523,0.002678,0.000431,0.422396
898000,0.0324,0.013523,0.002678,0.000431,0.075453
899000,0.0324,0.013523,0.002678,0.000431,0.055708
900000,0.0324,0.013523,0.002678,0.000431,0.041605
901000,0.0324,0.013523,0.002678,0.000431,0.039607
902000,0.0324,0.013523,0.002678,0.000431,0.036316
903000,0.0324,0.013523,0.002678,0.000431,0.025621
904000,0.0324,0.013523,0.002678,0.000431,0.023506
905000,0.0324,0.013523,0.002678,0.000431,0.022213
906000,0.0324,0.013523,0.002678,0.000431,0.010342
907000,0.0324,0.013523,0.002678,0.000431,0.010342
908000,0.0324,0.013523,0.002678,0.000431,0.009990
909000,0.0324,0.013523,0.002678,0.000431,0.014221
910000,0.0324,0.013523,0.002678,0.000431,0.010107
911000,0.0324,0.013523,0.002678,0.000431,0.010460
912000,0.0324,0.013523,0.002678,0.000431,0.006464
913000,0.0324,0.013523,0.002678,0.000431,0.006111
914000,0.0324,0.013523,0.002678,0.000431,0.005406
915000,0.0324,0.013523,0.002678,0.000431,0.006582
916000,0.0324,0.013523,0.002678,0.000431,0.009285
917000,0.0324,0.013523,0.002678,0.000431,0.004349
918000,0.0324,0.013523,0.002678,0.000431,0.006229
919000,0.0324,0.013523,0.002678,0.000431,0.001528
920000,0.0324,0.013523,0.002678,0.000431,0.003878
921000,0.0324,0.013523,0.002678,0.000431,0.001058
922000,0.0324,0.013523,0.002678,0.000431,0.000940
923000,0.0324,0.013523,0.002678,0.000431,0.000705
924000,0.0324,0.013523,0.002678,0.000431,0.000940
925000,0.0324,0.013523,0.002678,0.000431,0.000940
926000,0.0324,0.013523,0.002678,0.000431,0.000823
927000,0.0324,0.013523,0.002678,0.000431,0.000823
928000,0.0324,0.013523,0.002678,0.000431,0.000940
929000,0.0324,0.013523,0.002678,0.000431,0.000823
930000,0.0324,0.013523,0.002678,0.000431,0.000940
931000,0.0324,0.013523,0.002678,0.000431,0.000823
932000,0.0324,0.013523,0.002678,0.000431,0.000940
933000,0.0324,0.013523,0.002678,0.000431,0.000823
934000,0.0324,0.013523,0.002678,0.000431,0.000823
935000,0.0324,0.013523,0.002678,0.000431,0.000940
936000,0.0324,0.013523,0.002678,0.000431,0.000940
937000,0.0324,0.013523,0.002678,0.000431,0.000823
938000,0.0324,0.013523,0.002678,0.000431,0.000823
939000,0.0324,0.013523,0.002678,0.000431,0.000940
940000,0.0324,0.013523,0.002678,0.000431,0.000940
941000,0.0324,0.013523,0.002678,0.000431,0.000823
942000,0.0324,0.013523,0.002678,0.000431,0.000823
943000,0.0324,0.013523,0.002678,0.000431,0.000940
944000,0.0324,0.013523,0.002678,0.000431,0.000940
945000,0.0324,0.013523,0.002678,0.000431,0.000823
946000,0.0324,0.013523,0.002678,0.000431,0.000823
947000,0.0324,0.013523,0.002678,0.000431,0.000940
948000,0.0324,0.013523,0.002678,0.000431,0.000823
949000,0.0324,0.013523,0.002678,0.000431,0.000940
950000,0.0324,0.013523,0.002678,0.000431,0.000823
951000,0.0324,0.013523,0.002678,0.000431,0.000940
952000,0.0324,0.013523,0.002678,0.000431,0.000823
953000,0.0324,0.013523,0.002678,0.000431,0.000823
954000,0.0324,0.013523,0.002678,0.000431,0.000940
955000,0.0324,0.013523,0.002678,0.000431,0.001880
956000,0.0324,0.013523,0.002678,0.000431,0.340127
957000,0.0324,0.013523,0.002678,0.000431,0.732788
958000,0.0324,0.013523,0.002678,0.000431,0.225302
959000,0.0324,0.013523,0.002678,0.000431,0.133042
960000,0.0324,0.013523,0.002678,0.000431,0.132807
961000,0.0324,0.013523,0.002678,0.000431,0.591519
962000,0.0324,0.013523,0.002678,0.000431,0.229415
963000,0.0324,0.013523,0.002678,0.000431,0.274193
964000,0.0324,0.013523,0.002678,0.000431,0.236349
965000,0.0324,0.013523,0.002678,0.000431,0.145500
966000,0.0324,0.013523,0.002678,0.000431,0.183344
967000,0.0324,0.013523,0.002678,0.000431,0.097548
968000,0.0324,0.013523,0.002678,0.000431,0.502668
969000,0.0324,0.013523,0.002678,0.000431,0.092025
970000,0.0324,0.013523,0.002678,0.000431,0.048069
971000,0.0324,0.013523,0.002678,0.000431,0.041605
972000,0.0324,0.013523,0.002678,0.000431,0.033378
973000,0.0324,0.013523,0.002678,0.000431,0.025034
974000,0.0324,0.013523,0.002678,0.000431,0.031850
975000,0.0324,0.013523,0.002678,0.000431,0.024916
976000,0.0324,0.013523,0.002678,0.000431,0.022448
977000,0.0324,0.013523,0.002678,0.000431,0.020802
978000,0.0324,0.013523,0.002678,0.000431,0.012105
979000,0.0324,0.013523,0.002678,0.000431,0.014456
980000,0.0324,0.013523,0.002678,0.000431,0.008697
981000,0.0324,0.013523,0.002678,0.000431,0.009285
982000,0.0324,0.013523,0.002678,0.000431,0.010342
983000,0.0324,0.013523,0.002678,0.000431,0.008580
984000,0.0324,0.013523,0.002678,0.000431,0.009402
985000,0.0324,0.013523,0.002678,0.000431,0.004349
986000,0.0324,0.013523,0.002678,0.000431,0.004113
987000,0.0324,0.013523,0.002678,0.000431,0.004466
988000,0.0324,0.013523,0.002678,0.000431,0.004349
989000,0.0324,0.013523,0.002678,0.000431,0.005406
990000,0.0324,0.013523,0.002678,0.000431,0.004936
991000,0.0324,0.013523,0.002678,0.000431,0.002703
992000,0.0324,0.013523,0.002678,0.000431,0.002586
993000,0.0324,0.013523,0.002678,0.000431,0.002351
994000,0.0324,0.013523,0.002678,0.000431,0.002586
995000,0.0324,0.013523,0.002678,0.000431,0.004466
996000,0.0324,0.013523,0.002678,0.000431,0.001763
997000,0.0324,0.013523,0.002678,0.000431,0.001410
998000,0.0324,0.013523,0.002678,0.000431,0.001880
999000,0.0324,0.013523,0.002678,0.000431,0.001645
