Cycle,Area(mm^2),PeakDynamic(W),SubthresholdLeakage(W),GateLeakage(W),RunTimeDynamic(W)
29000000,0.0324,0.013523,0.002678,0.000431,0.001645
29001000,0.0324,0.013523,0.002678,0.000431,0.001763
29002000,0.0324,0.013523,0.002678,0.000431,0.001528
29003000,0.0324,0.013523,0.002678,0.000431,0.001763
29004000,0.0324,0.013523,0.002678,0.000431,0.001763
29005000,0.0324,0.013523,0.002678,0.000431,0.001645
29006000,0.0324,0.013523,0.002678,0.000431,0.001645
29007000,0.0324,0.013523,0.002678,0.000431,0.001645
29008000,0.0324,0.013523,0.002678,0.000431,0.001763
29009000,0.0324,0.013523,0.002678,0.000431,0.001645
29010000,0.0324,0.013523,0.002678,0.000431,0.001645
29011000,0.0324,0.013523,0.002678,0.000431,0.001763
29012000,0.0324,0.013523,0.002678,0.000431,0.001410
29013000,0.0324,0.013523,0.002678,0.000431,0.001880
29014000,0.0324,0.013523,0.002678,0.000431,0.001880
29015000,0.0324,0.013523,0.002678,0.000431,0.001645
29016000,0.0324,0.013523,0.002678,0.000431,0.001645
29017000,0.0324,0.013523,0.002678,0.000431,0.001645
29018000,0.0324,0.013523,0.002678,0.000431,0.001880
29019000,0.0324,0.013523,0.002678,0.000431,0.001763
29020000,0.0324,0.013523,0.002678,0.000431,0.001528
29021000,0.0324,0.013523,0.002678,0.000431,0.001763
29022000,0.0324,0.013523,0.002678,0.000431,0.001763
29023000,0.0324,0.013523,0.002678,0.000431,0.001763
29024000,0.0324,0.013523,0.002678,0.000431,0.001528
29025000,0.0324,0.013523,0.002678,0.000431,0.001880
29026000,0.0324,0.013523,0.002678,0.000431,0.001763
29027000,0.0324,0.013523,0.002678,0.000431,0.002586
29028000,0.0324,0.013523,0.002678,0.000431,0.001998
29029000,0.0324,0.013523,0.002678,0.000431,0.000823
29030000,0.0324,0.013523,0.002678,0.000431,0.000940
29031000,0.0324,0.013523,0.002678,0.000431,0.000940
29032000,0.0324,0.013523,0.002678,0.000431,0.000823
29033000,0.0324,0.013523,0.002678,0.000431,0.000823
29034000,0.0324,0.013523,0.002678,0.000431,0.000940
29035000,0.0324,0.013523,0.002678,0.000431,0.000823
29036000,0.0324,0.013523,0.002678,0.000431,0.000940
29037000,0.0324,0.013523,0.002678,0.000431,0.000823
29038000,0.0324,0.013523,0.002678,0.000431,0.000940
29039000,0.0324,0.013523,0.002678,0.000431,0.000823
29040000,0.0324,0.013523,0.002678,0.000431,0.000823
29041000,0.0324,0.013523,0.002678,0.000431,0.000940
29042000,0.0324,0.013523,0.002678,0.000431,0.000940
29043000,0.0324,0.013523,0.002678,0.000431,0.000705
29044000,0.0324,0.013523,0.002678,0.000431,0.000940
29045000,0.0324,0.013523,0.002678,0.000431,0.000940
29046000,0.0324,0.013523,0.002678,0.000431,0.000940
29047000,0.0324,0.013523,0.002678,0.000431,0.000705
29048000,0.0324,0.013523,0.002678,0.000431,0.000940
29049000,0.0324,0.013523,0.002678,0.000431,0.000940
29050000,0.0324,0.013523,0.002678,0.000431,0.000823
29051000,0.0324,0.013523,0.002678,0.000431,0.000823
29052000,0.0324,0.013523,0.002678,0.000431,0.000940
29053000,0.0324,0.013523,0.002678,0.000431,0.000940
29054000,0.0324,0.013523,0.002678,0.000431,0.000823
29055000,0.0324,0.013523,0.002678,0.000431,0.000823
29056000,0.0324,0.013523,0.002678,0.000431,0.000940
29057000,0.0324,0.013523,0.002678,0.000431,0.000823
29058000,0.0324,0.013523,0.002678,0.000431,0.000940
29059000,0.0324,0.013523,0.002678,0.000431,0.000823
29060000,0.0324,0.013523,0.002678,0.000431,0.000940
29061000,0.0324,0.013523,0.002678,0.000431,0.000823
29062000,0.0324,0.013523,0.002678,0.000431,0.000823
29063000,0.0324,0.013523,0.002678,0.000431,0.000940
29064000,0.0324,0.013523,0.002678,0.000431,0.000940
29065000,0.0324,0.013523,0.002678,0.000431,0.000940
29066000,0.0324,0.013523,0.002678,0.000431,0.000705
29067000,0.0324,0.013523,0.002678,0.000431,0.000940
29068000,0.0324,0.013523,0.002678,0.000431,0.000940
29069000,0.0324,0.013523,0.002678,0.000431,0.000823
29070000,0.0324,0.013523,0.002678,0.000431,0.000823
29071000,0.0324,0.013523,0.002678,0.000431,0.000940
29072000,0.0324,0.013523,0.002678,0.000431,0.000940
29073000,0.0324,0.013523,0.002678,0.000431,0.000823
29074000,0.0324,0.013523,0.002678,0.000431,0.000823
29075000,0.0324,0.013523,0.002678,0.000431,0.000940
29076000,0.0324,0.013523,0.002678,0.000431,0.000823
29077000,0.0324,0.013523,0.002678,0.000431,0.000940
29078000,0.0324,0.013523,0.002678,0.000431,0.000823
29079000,0.0324,0.013523,0.002678,0.000431,0.000940
29080000,0.0324,0.013523,0.002678,0.000431,0.000823
29081000,0.0324,0.013523,0.002678,0.000431,0.000823
29082000,0.0324,0.013523,0.002678,0.000431,0.000940
29083000,0.0324,0.013523,0.002678,0.000431,0.000940
29084000,0.0324,0.013523,0.002678,0.000431,0.000823
29085000,0.0324,0.013523,0.002678,0.000431,0.000823
29086000,0.0324,0.013523,0.002678,0.000431,0.000940
29087000,0.0324,0.013523,0.002678,0.000431,0.000940
29088000,0.0324,0.013523,0.002678,0.000431,0.000823
29089000,0.0324,0.013523,0.002678,0.000431,0.000823
29090000,0.0324,0.013523,0.002678,0.000431,0.000940
29091000,0.0324,0.013523,0.002678,0.000431,0.000823
29092000,0.0324,0.013523,0.002678,0.000431,0.000940
29093000,0.0324,0.013523,0.002678,0.000431,0.000823
29094000,0.0324,0.013523,0.002678,0.000431,0.000940
29095000,0.0324,0.013523,0.002678,0.000431,0.000823
29096000,0.0324,0.013523,0.002678,0.000431,0.000823
29097000,0.0324,0.013523,0.002678,0.000431,0.000940
29098000,0.0324,0.013523,0.002678,0.000431,0.000940
29099000,0.0324,0.013523,0.002678,0.000431,0.000823
29100000,0.0324,0.013523,0.002678,0.000431,0.000823
29101000,0.0324,0.013523,0.002678,0.000431,0.000940
29102000,0.0324,0.013523,0.002678,0.000431,0.000940
29103000,0.0324,0.013523,0.002678,0.000431,0.000705
29104000,0.0324,0.013523,0.002678,0.000431,0.000940
29105000,0.0324,0.013523,0.002678,0.000431,0.000940
29106000,0.0324,0.013523,0.002678,0.000431,0.000940
29107000,0.0324,0.013523,0.002678,0.000431,0.000705
29108000,0.0324,0.013523,0.002678,0.000431,0.000940
29109000,0.0324,0.013523,0.002678,0.000431,0.000940
29110000,0.0324,0.013523,0.002678,0.000431,0.000823
29111000,0.0324,0.013523,0.002678,0.000431,0.000823
29112000,0.0324,0.013523,0.002678,0.000431,0.000940
29113000,0.0324,0.013523,0.002678,0.000431,0.000940
29114000,0.0324,0.013523,0.002678,0.000431,0.000823
29115000,0.0324,0.013523,0.002678,0.000431,0.000823
29116000,0.0324,0.013523,0.002678,0.000431,0.000940
29117000,0.0324,0.013523,0.002678,0.000431,0.000823
29118000,0.0324,0.013523,0.002678,0.000431,0.000940
29119000,0.0324,0.013523,0.002678,0.000431,0.000823
29120000,0.0324,0.013523,0.002678,0.000431,0.000940
29121000,0.0324,0.013523,0.002678,0.000431,0.000823
29122000,0.0324,0.013523,0.002678,0.000431,0.000823
29123000,0.0324,0.013523,0.002678,0.000431,0.000940
29124000,0.0324,0.013523,0.002678,0.000431,0.000940
29125000,0.0324,0.013523,0.002678,0.000431,0.000940
29126000,0.0324,0.013523,0.002678,0.000431,0.000705
29127000,0.0324,0.013523,0.002678,0.000431,0.000940
29128000,0.0324,0.013523,0.002678,0.000431,0.000940
29129000,0.0324,0.013523,0.002678,0.000431,0.000823
29130000,0.0324,0.013523,0.002678,0.000431,0.000823
29131000,0.0324,0.013523,0.002678,0.000431,0.000940
29132000,0.0324,0.013523,0.002678,0.000431,0.000823
29133000,0.0324,0.013523,0.002678,0.000431,0.000940
29134000,0.0324,0.013523,0.002678,0.000431,0.000823
29135000,0.0324,0.013523,0.002678,0.000431,0.000940
29136000,0.0324,0.013523,0.002678,0.000431,0.000823
29137000,0.0324,0.013523,0.002678,0.000431,0.000823
29138000,0.0324,0.013523,0.002678,0.000431,0.000940
29139000,0.0324,0.013523,0.002678,0.000431,0.000940
29140000,0.0324,0.013523,0.002678,0.000431,0.000823
29141000,0.0324,0.013523,0.002678,0.000431,0.000823
29142000,0.0324,0.013523,0.002678,0.000431,0.000940
29143000,0.0324,0.013523,0.002678,0.000431,0.000940
29144000,0.0324,0.013523,0.002678,0.000431,0.000705
29145000,0.0324,0.013523,0.002678,0.000431,0.000940
29146000,0.0324,0.013523,0.002678,0.000431,0.000940
29147000,0.0324,0.013523,0.002678,0.000431,0.000940
29148000,0.0324,0.013523,0.002678,0.000431,0.000823
29149000,0.0324,0.013523,0.002678,0.000431,0.000823
29150000,0.0324,0.013523,0.002678,0.000431,0.000940
29151000,0.0324,0.013523,0.002678,0.000431,0.000823
29152000,0.0324,0.013523,0.002678,0.000431,0.000940
29153000,0.0324,0.013523,0.002678,0.000431,0.000823
29154000,0.0324,0.013523,0.002678,0.000431,0.000940
29155000,0.0324,0.013523,0.002678,0.000431,0.000823
29156000,0.0324,0.013523,0.002678,0.000431,0.000823
29157000,0.0324,0.013523,0.002678,0.000431,0.000940
29158000,0.0324,0.013523,0.002678,0.000431,0.000940
29159000,0.0324,0.013523,0.002678,0.000431,0.000823
29160000,0.0324,0.013523,0.002678,0.000431,0.000823
29161000,0.0324,0.013523,0.002678,0.000431,0.000940
29162000,0.0324,0.013523,0.002678,0.000431,0.000940
29163000,0.0324,0.013523,0.002678,0.000431,0.000705
29164000,0.0324,0.013523,0.002678,0.000431,0.000940
29165000,0.0324,0.013523,0.002678,0.000431,0.000940
29166000,0.0324,0.013523,0.002678,0.000431,0.000940
29167000,0.0324,0.013523,0.002678,0.000431,0.000705
29168000,0.0324,0.013523,0.002678,0.000431,0.000940
29169000,0.0324,0.013523,0.002678,0.000431,0.000940
29170000,0.0324,0.013523,0.002678,0.000431,0.000823
29171000,0.0324,0.013523,0.002678,0.000431,0.000823
29172000,0.0324,0.013523,0.002678,0.000431,0.000940
29173000,0.0324,0.013523,0.002678,0.000431,0.000940
29174000,0.0324,0.013523,0.002678,0.000431,0.000823
29175000,0.0324,0.013523,0.002678,0.000431,0.000823
29176000,0.0324,0.013523,0.002678,0.000431,0.000940
29177000,0.0324,0.013523,0.002678,0.000431,0.000823
29178000,0.0324,0.013523,0.002678,0.000431,0.000823
29179000,0.0324,0.013523,0.002678,0.000431,0.000940
29180000,0.0324,0.013523,0.002678,0.000431,0.000940
29181000,0.0324,0.013523,0.002678,0.000431,0.000823
29182000,0.0324,0.013523,0.002678,0.000431,0.000823
29183000,0.0324,0.013523,0.002678,0.000431,0.000940
29184000,0.0324,0.013523,0.002678,0.000431,0.000940
29185000,0.0324,0.013523,0.002678,0.000431,0.000823
29186000,0.0324,0.013523,0.002678,0.000431,0.000823
29187000,0.0324,0.013523,0.002678,0.000431,0.000940
29188000,0.0324,0.013523,0.002678,0.000431,0.000940
29189000,0.0324,0.013523,0.002678,0.000431,0.000823
29190000,0.0324,0.013523,0.002678,0.000431,0.000823
29191000,0.0324,0.013523,0.002678,0.000431,0.000940
29192000,0.0324,0.013523,0.002678,0.000431,0.000823
29193000,0.0324,0.013523,0.002678,0.000431,0.000940
29194000,0.0324,0.013523,0.002678,0.000431,0.000823
29195000,0.0324,0.013523,0.002678,0.000431,0.000940
29196000,0.0324,0.013523,0.002678,0.000431,0.000823
29197000,0.0324,0.013523,0.002678,0.000431,0.000823
29198000,0.0324,0.013523,0.002678,0.000431,0.000940
29199000,0.0324,0.013523,0.002678,0.000431,0.000940
29200000,0.0324,0.013523,0.002678,0.000431,0.000823
29201000,0.0324,0.013523,0.002678,0.000431,0.000823
29202000,0.0324,0.013523,0.002678,0.000431,0.000940
29203000,0.0324,0.013523,0.002678,0.000431,0.000940
29204000,0.0324,0.013523,0.002678,0.000431,0.000705
29205000,0.0324,0.013523,0.002678,0.000431,0.000940
29206000,0.0324,0.013523,0.002678,0.000431,0.000940
29207000,0.0324,0.013523,0.002678,0.000431,0.000940
29208000,0.0324,0.013523,0.002678,0.000431,0.000823
29209000,0.0324,0.013523,0.002678,0.000431,0.000940
29210000,0.0324,0.013523,0.002678,0.000431,0.000940
29211000,0.0324,0.013523,0.002678,0.000431,0.000823
29212000,0.0324,0.013523,0.002678,0.000431,0.000940
29213000,0.0324,0.013523,0.002678,0.000431,0.000823
29214000,0.0324,0.013523,0.002678,0.000431,0.000823
29215000,0.0324,0.013523,0.002678,0.000431,0.000940
29216000,0.0324,0.013523,0.002678,0.000431,0.000940
29217000,0.0324,0.013523,0.002678,0.000431,0.000823
29218000,0.0324,0.013523,0.002678,0.000431,0.000823
29219000,0.0324,0.013523,0.002678,0.000431,0.000940
29220000,0.0324,0.013523,0.002678,0.000431,0.000940
29221000,0.0324,0.013523,0.002678,0.000431,0.000705
29222000,0.0324,0.013523,0.002678,0.000431,0.000940
29223000,0.0324,0.013523,0.002678,0.000431,0.000940
29224000,0.0324,0.013523,0.002678,0.000431,0.000940
29225000,0.0324,0.013523,0.002678,0.000431,0.000705
29226000,0.0324,0.013523,0.002678,0.000431,0.000940
29227000,0.0324,0.013523,0.002678,0.000431,0.000940
29228000,0.0324,0.013523,0.002678,0.000431,0.000823
29229000,0.0324,0.013523,0.002678,0.000431,0.000940
29230000,0.0324,0.013523,0.002678,0.000431,0.000823
29231000,0.0324,0.013523,0.002678,0.000431,0.000940
29232000,0.0324,0.013523,0.002678,0.000431,0.000823
29233000,0.0324,0.013523,0.002678,0.000431,0.000823
29234000,0.0324,0.013523,0.002678,0.000431,0.000940
29235000,0.0324,0.013523,0.002678,0.000431,0.000823
29236000,0.0324,0.013523,0.002678,0.000431,0.000940
29237000,0.0324,0.013523,0.002678,0.000431,0.000823
29238000,0.0324,0.013523,0.002678,0.000431,0.000940
29239000,0.0324,0.013523,0.002678,0.000431,0.000940
29240000,0.0324,0.013523,0.002678,0.000431,0.000705
29241000,0.0324,0.013523,0.002678,0.000431,0.000940
29242000,0.0324,0.013523,0.002678,0.000431,0.000940
29243000,0.0324,0.013523,0.002678,0.000431,0.000940
29244000,0.0324,0.013523,0.002678,0.000431,0.000705
29245000,0.0324,0.013523,0.002678,0.000431,0.000940
29246000,0.0324,0.013523,0.002678,0.000431,0.000940
29247000,0.0324,0.013523,0.002678,0.000431,0.000823
29248000,0.0324,0.013523,0.002678,0.000431,0.000823
29249000,0.0324,0.013523,0.002678,0.000431,0.000940
29250000,0.0324,0.013523,0.002678,0.000431,0.000823
29251000,0.0324,0.013523,0.002678,0.000431,0.000940
29252000,0.0324,0.013523,0.002678,0.000431,0.000823
29253000,0.0324,0.013523,0.002678,0.000431,0.000940
29254000,0.0324,0.013523,0.002678,0.000431,0.000823
29255000,0.0324,0.013523,0.002678,0.000431,0.000823
29256000,0.0324,0.013523,0.002678,0.000431,0.000940
29257000,0.0324,0.013523,0.002678,0.000431,0.000940
29258000,0.0324,0.013523,0.002678,0.000431,0.000823
29259000,0.0324,0.013523,0.002678,0.000431,0.000823
29260000,0.0324,0.013523,0.002678,0.000431,0.000940
29261000,0.0324,0.013523,0.002678,0.000431,0.000940
29262000,0.0324,0.013523,0.002678,0.000431,0.000823
29263000,0.0324,0.013523,0.002678,0.000431,0.000823
29264000,0.0324,0.013523,0.002678,0.000431,0.000940
29265000,0.0324,0.013523,0.002678,0.000431,0.000940
29266000,0.0324,0.013523,0.002678,0.000431,0.000823
29267000,0.0324,0.013523,0.002678,0.000431,0.000823
29268000,0.0324,0.013523,0.002678,0.000431,0.000940
29269000,0.0324,0.013523,0.002678,0.000431,0.000823
29270000,0.0324,0.013523,0.002678,0.000431,0.000940
29271000,0.0324,0.013523,0.002678,0.000431,0.000823
29272000,0.0324,0.013523,0.002678,0.000431,0.000940
29273000,0.0324,0.013523,0.002678,0.000431,0.000823
29274000,0.0324,0.013523,0.002678,0.000431,0.000823
29275000,0.0324,0.013523,0.002678,0.000431,0.000940
29276000,0.0324,0.013523,0.002678,0.000431,0.000940
29277000,0.0324,0.013523,0.002678,0.000431,0.000823
29278000,0.0324,0.013523,0.002678,0.000431,0.000823
29279000,0.0324,0.013523,0.002678,0.000431,0.000940
29280000,0.0324,0.013523,0.002678,0.000431,0.000940
29281000,0.0324,0.013523,0.002678,0.000431,0.000705
29282000,0.0324,0.013523,0.002678,0.000431,0.000940
29283000,0.0324,0.013523,0.002678,0.000431,0.000940
29284000,0.0324,0.013523,0.002678,0.000431,0.000940
29285000,0.0324,0.013523,0.002678,0.000431,0.000705
29286000,0.0324,0.013523,0.002678,0.000431,0.000940
29287000,0.0324,0.013523,0.002678,0.000431,0.000940
29288000,0.0324,0.013523,0.002678,0.000431,0.000823
29289000,0.0324,0.013523,0.002678,0.000431,0.000940
29290000,0.0324,0.013523,0.002678,0.000431,0.000823
29291000,0.0324,0.013523,0.002678,0.000431,0.000940
29292000,0.0324,0.013523,0.002678,0.000431,0.000823
29293000,0.0324,0.013523,0.002678,0.000431,0.000823
29294000,0.0324,0.013523,0.002678,0.000431,0.000940
29295000,0.0324,0.013523,0.002678,0.000431,0.000940
29296000,0.0324,0.013523,0.002678,0.000431,0.000705
29297000,0.0324,0.013523,0.002678,0.000431,0.000940
29298000,0.0324,0.013523,0.002678,0.000431,0.000940
29299000,0.0324,0.013523,0.002678,0.000431,0.000940
29300000,0.0324,0.013523,0.002678,0.000431,0.000705
29301000,0.0324,0.013523,0.002678,0.000431,0.000940
29302000,0.0324,0.013523,0.002678,0.000431,0.000940
29303000,0.0324,0.013523,0.002678,0.000431,0.000823
29304000,0.0324,0.013523,0.002678,0.000431,0.000823
29305000,0.0324,0.013523,0.002678,0.000431,0.000940
29306000,0.0324,0.013523,0.002678,0.000431,0.000940
29307000,0.0324,0.013523,0.002678,0.000431,0.000823
29308000,0.0324,0.013523,0.002678,0.000431,0.000823
29309000,0.0324,0.013523,0.002678,0.000431,0.000940
29310000,0.0324,0.013523,0.002678,0.000431,0.000823
29311000,0.0324,0.013523,0.002678,0.000431,0.000940
29312000,0.0324,0.013523,0.002678,0.000431,0.000823
29313000,0.0324,0.013523,0.002678,0.000431,0.000940
29314000,0.0324,0.013523,0.002678,0.000431,0.000823
29315000,0.0324,0.013523,0.002678,0.000431,0.000823
29316000,0.0324,0.013523,0.002678,0.000431,0.193099
29317000,0.0324,0.013523,0.002678,0.000431,0.524881
29318000,0.0324,0.013523,0.002678,0.000431,0.438145
29319000,0.0324,0.013523,0.002678,0.000431,0.132102
29320000,0.0324,0.013523,0.002678,0.000431,0.161719
29321000,0.0324,0.013523,0.002678,0.000431,0.624427
29322000,0.0324,0.013523,0.002678,0.000431,0.232706
29323000,0.0324,0.013523,0.002678,0.000431,0.281598
29324000,0.0324,0.013523,0.002678,0.000431,0.226594
29325000,0.0324,0.013523,0.002678,0.000431,0.138096
29326000,0.0324,0.013523,0.002678,0.000431,0.154902
29327000,0.0324,0.013523,0.002678,0.000431,0.105070
29328000,0.0324,0.013523,0.002678,0.000431,0.434149
29329000,0.0324,0.013523,0.002678,0.000431,0.156430
29330000,0.0324,0.013523,0.002678,0.000431,0.046659
29331000,0.0324,0.013523,0.002678,0.000431,0.036081
29332000,0.0324,0.013523,0.002678,0.000431,0.026091
29333000,0.0324,0.013523,0.002678,0.000431,0.025856
29334000,0.0324,0.013523,0.002678,0.000431,0.018687
29335000,0.0324,0.013523,0.002678,0.000431,0.014456
29336000,0.0324,0.013523,0.002678,0.000431,0.015631
29337000,0.0324,0.013523,0.002678,0.000431,0.016101
29338000,0.0324,0.013523,0.002678,0.000431,0.013633
29339000,0.0324,0.013523,0.002678,0.000431,0.014573
29340000,0.0324,0.013523,0.002678,0.000431,0.012693
29341000,0.0324,0.013523,0.002678,0.000431,0.010225
29342000,0.0324,0.013523,0.002678,0.000431,0.011988
29343000,0.0324,0.013523,0.002678,0.000431,0.007169
29344000,0.0324,0.013523,0.002678,0.000431,0.007639
29345000,0.0324,0.013523,0.002678,0.000431,0.007639
29346000,0.0324,0.013523,0.002678,0.000431,0.011283
29347000,0.0324,0.013523,0.002678,0.000431,0.005876
29348000,0.0324,0.013523,0.002678,0.000431,0.005759
29349000,0.0324,0.013523,0.002678,0.000431,0.007287
29350000,0.0324,0.013523,0.002678,0.000431,0.005054
29351000,0.0324,0.013523,0.002678,0.000431,0.005641
29352000,0.0324,0.013523,0.002678,0.000431,0.005171
29353000,0.0324,0.013523,0.002678,0.000431,0.004349
29354000,0.0324,0.013523,0.002678,0.000431,0.003878
29355000,0.0324,0.013523,0.002678,0.000431,0.006229
29356000,0.0324,0.013523,0.002678,0.000431,0.004466
29357000,0.0324,0.013523,0.002678,0.000431,0.002233
29358000,0.0324,0.013523,0.002678,0.000431,0.002233
29359000,0.0324,0.013523,0.002678,0.000431,0.002586
29360000,0.0324,0.013523,0.002678,0.000431,0.001528
29361000,0.0324,0.013523,0.002678,0.000431,0.001763
29362000,0.0324,0.013523,0.002678,0.000431,0.001528
29363000,0.0324,0.013523,0.002678,0.000431,0.001763
29364000,0.0324,0.013523,0.002678,0.000431,0.001763
29365000,0.0324,0.013523,0.002678,0.000431,0.001645
29366000,0.0324,0.013523,0.002678,0.000431,0.001645
29367000,0.0324,0.013523,0.002678,0.000431,0.001528
29368000,0.0324,0.013523,0.002678,0.000431,0.001880
29369000,0.0324,0.013523,0.002678,0.000431,0.001763
29370000,0.0324,0.013523,0.002678,0.000431,0.001528
29371000,0.0324,0.013523,0.002678,0.000431,0.001763
29372000,0.0324,0.013523,0.002678,0.000431,0.001645
29373000,0.0324,0.013523,0.002678,0.000431,0.001763
29374000,0.0324,0.013523,0.002678,0.000431,0.003291
29375000,0.0324,0.013523,0.002678,0.000431,0.000823
29376000,0.0324,0.013523,0.002678,0.000431,0.000940
29377000,0.0324,0.013523,0.002678,0.000431,0.000823
29378000,0.0324,0.013523,0.002678,0.000431,0.000823
29379000,0.0324,0.013523,0.002678,0.000431,0.000940
29380000,0.0324,0.013523,0.002678,0.000431,0.000823
29381000,0.0324,0.013523,0.002678,0.000431,0.000823
29382000,0.0324,0.013523,0.002678,0.000431,0.000940
29383000,0.0324,0.013523,0.002678,0.000431,0.000705
29384000,0.0324,0.013523,0.002678,0.000431,0.000940
29385000,0.0324,0.013523,0.002678,0.000431,0.000823
29386000,0.0324,0.013523,0.002678,0.000431,0.000823
29387000,0.0324,0.013523,0.002678,0.000431,0.000940
29388000,0.0324,0.013523,0.002678,0.000431,0.000823
29389000,0.0324,0.013523,0.002678,0.000431,0.000823
29390000,0.0324,0.013523,0.002678,0.000431,0.000940
29391000,0.0324,0.013523,0.002678,0.000431,0.000705
29392000,0.0324,0.013523,0.002678,0.000431,0.000940
29393000,0.0324,0.013523,0.002678,0.000431,0.000823
29394000,0.0324,0.013523,0.002678,0.000431,0.000823
29395000,0.0324,0.013523,0.002678,0.000431,0.000940
29396000,0.0324,0.013523,0.002678,0.000431,0.000823
29397000,0.0324,0.013523,0.002678,0.000431,0.000823
29398000,0.0324,0.013523,0.002678,0.000431,0.200150
29399000,0.0324,0.013523,0.002678,0.000431,0.485039
29400000,0.0324,0.013523,0.002678,0.000431,0.484099
29401000,0.0324,0.013523,0.002678,0.000431,0.133512
29402000,0.0324,0.013523,0.002678,0.000431,0.132572
29403000,0.0324,0.013523,0.002678,0.000431,0.582705
29404000,0.0324,0.013523,0.002678,0.000431,0.245164
29405000,0.0324,0.013523,0.002678,0.000431,0.279952
29406000,0.0324,0.013523,0.002678,0.000431,0.318384
29407000,0.0324,0.013523,0.002678,0.000431,0.138213
29408000,0.0324,0.013523,0.002678,0.000431,0.167243
29409000,0.0324,0.013523,0.002678,0.000431,0.108596
29410000,0.0324,0.013523,0.002678,0.000431,0.476694
29411000,0.0324,0.013523,0.002678,0.000431,0.068872
29412000,0.0324,0.013523,0.002678,0.000431,0.031145
29413000,0.0324,0.013523,0.002678,0.000431,0.034671
29414000,0.0324,0.013523,0.002678,0.000431,0.023506
29415000,0.0324,0.013523,0.002678,0.000431,0.014221
29416000,0.0324,0.013523,0.002678,0.000431,0.016219
29417000,0.0324,0.013523,0.002678,0.000431,0.011400
29418000,0.0324,0.013523,0.002678,0.000431,0.014338
29419000,0.0324,0.013523,0.002678,0.000431,0.009402
29420000,0.0324,0.013523,0.002678,0.000431,0.008462
29421000,0.0324,0.013523,0.002678,0.000431,0.005524
29422000,0.0324,0.013523,0.002678,0.000431,0.005641
29423000,0.0324,0.013523,0.002678,0.000431,0.004819
29424000,0.0324,0.013523,0.002678,0.000431,0.005289
29425000,0.0324,0.013523,0.002678,0.000431,0.004349
29426000,0.0324,0.013523,0.002678,0.000431,0.004349
29427000,0.0324,0.013523,0.002678,0.000431,0.003996
29428000,0.0324,0.013523,0.002678,0.000431,0.003526
29429000,0.0324,0.013523,0.002678,0.000431,0.003291
29430000,0.0324,0.013523,0.002678,0.000431,0.003526
29431000,0.0324,0.013523,0.002678,0.000431,0.003526
29432000,0.0324,0.013523,0.002678,0.000431,0.003526
29433000,0.0324,0.013523,0.002678,0.000431,0.003408
29434000,0.0324,0.013523,0.002678,0.000431,0.003526
29435000,0.0324,0.013523,0.002678,0.000431,0.003643
29436000,0.0324,0.013523,0.002678,0.000431,0.003526
29437000,0.0324,0.013523,0.002678,0.000431,0.003408
29438000,0.0324,0.013523,0.002678,0.000431,0.003526
29439000,0.0324,0.013523,0.002678,0.000431,0.003408
29440000,0.0324,0.013523,0.002678,0.000431,0.003643
29441000,0.0324,0.013523,0.002678,0.000431,0.003526
29442000,0.0324,0.013523,0.002678,0.000431,0.003526
29443000,0.0324,0.013523,0.002678,0.000431,0.003408
29444000,0.0324,0.013523,0.002678,0.000431,0.003526
29445000,0.0324,0.013523,0.002678,0.000431,0.003526
29446000,0.0324,0.013523,0.002678,0.000431,0.003526
29447000,0.0324,0.013523,0.002678,0.000431,0.003526
29448000,0.0324,0.013523,0.002678,0.000431,0.003408
29449000,0.0324,0.013523,0.002678,0.000431,0.007757
29450000,0.0324,0.013523,0.002678,0.000431,0.001763
29451000,0.0324,0.013523,0.002678,0.000431,0.001763
29452000,0.0324,0.013523,0.002678,0.000431,0.001645
29453000,0.0324,0.013523,0.002678,0.000431,0.001763
29454000,0.0324,0.013523,0.002678,0.000431,0.001880
29455000,0.0324,0.013523,0.002678,0.000431,0.001645
29456000,0.0324,0.013523,0.002678,0.000431,0.001763
29457000,0.0324,0.013523,0.002678,0.000431,0.001763
29458000,0.0324,0.013523,0.002678,0.000431,0.001763
29459000,0.0324,0.013523,0.002678,0.000431,0.001763
29460000,0.0324,0.013523,0.002678,0.000431,0.001763
29461000,0.0324,0.013523,0.002678,0.000431,0.001763
29462000,0.0324,0.013523,0.002678,0.000431,0.001645
29463000,0.0324,0.013523,0.002678,0.000431,0.001880
29464000,0.0324,0.013523,0.002678,0.000431,0.001763
29465000,0.0324,0.013523,0.002678,0.000431,0.001645
29466000,0.0324,0.013523,0.002678,0.000431,0.001763
29467000,0.0324,0.013523,0.002678,0.000431,0.001763
29468000,0.0324,0.013523,0.002678,0.000431,0.001763
29469000,0.0324,0.013523,0.002678,0.000431,0.001880
29470000,0.0324,0.013523,0.002678,0.000431,0.001645
29471000,0.0324,0.013523,0.002678,0.000431,0.001763
29472000,0.0324,0.013523,0.002678,0.000431,0.001763
29473000,0.0324,0.013523,0.002678,0.000431,0.001763
29474000,0.0324,0.013523,0.002678,0.000431,0.001763
29475000,0.0324,0.013523,0.002678,0.000431,0.001763
29476000,0.0324,0.013523,0.002678,0.000431,0.001763
29477000,0.0324,0.013523,0.002678,0.000431,0.001763
29478000,0.0324,0.013523,0.002678,0.000431,0.001763
29479000,0.0324,0.013523,0.002678,0.000431,0.001763
29480000,0.0324,0.013523,0.002678,0.000431,0.001645
29481000,0.0324,0.013523,0.002678,0.000431,0.001763
29482000,0.0324,0.013523,0.002678,0.000431,0.003408
29483000,0.0324,0.013523,0.002678,0.000431,0.000823
29484000,0.0324,0.013523,0.002678,0.000431,0.000940
29485000,0.0324,0.013523,0.002678,0.000431,0.000823
29486000,0.0324,0.013523,0.002678,0.000431,0.000823
29487000,0.0324,0.013523,0.002678,0.000431,0.000940
29488000,0.0324,0.013523,0.002678,0.000431,0.000940
29489000,0.0324,0.013523,0.002678,0.000431,0.000823
29490000,0.0324,0.013523,0.002678,0.000431,0.000823
29491000,0.0324,0.013523,0.002678,0.000431,0.000940
29492000,0.0324,0.013523,0.002678,0.000431,0.000940
29493000,0.0324,0.013523,0.002678,0.000431,0.000705
29494000,0.0324,0.013523,0.002678,0.000431,0.000940
29495000,0.0324,0.013523,0.002678,0.000431,0.000940
29496000,0.0324,0.013523,0.002678,0.000431,0.000823
29497000,0.0324,0.013523,0.002678,0.000431,0.000940
29498000,0.0324,0.013523,0.002678,0.000431,0.001998
29499000,0.0324,0.013523,0.002678,0.000431,0.364807
29500000,0.0324,0.013523,0.002678,0.000431,0.688480
29501000,0.0324,0.013523,0.002678,0.000431,0.145735
29502000,0.0324,0.013523,0.002678,0.000431,0.133042
29503000,0.0324,0.013523,0.002678,0.000431,0.152552
29504000,0.0324,0.013523,0.002678,0.000431,0.582705
29505000,0.0324,0.013523,0.002678,0.000431,0.227652
29506000,0.0324,0.013523,0.002678,0.000431,0.281010
29507000,0.0324,0.013523,0.002678,0.000431,0.236349
29508000,0.0324,0.013523,0.002678,0.000431,0.145500
29509000,0.0324,0.013523,0.002678,0.000431,0.178995
29510000,0.0324,0.013523,0.002678,0.000431,0.097431
29511000,0.0324,0.013523,0.002678,0.000431,0.458007
29512000,0.0324,0.013523,0.002678,0.000431,0.068519
29513000,0.0324,0.013523,0.002678,0.000431,0.039960
29514000,0.0324,0.013523,0.002678,0.000431,0.035376
29515000,0.0324,0.013523,0.002678,0.000431,0.031733
29516000,0.0324,0.013523,0.002678,0.000431,0.018334
29517000,0.0324,0.013523,0.002678,0.000431,0.015866
29518000,0.0324,0.013523,0.002678,0.000431,0.008462
29519000,0.0324,0.013523,0.002678,0.000431,0.008345
29520000,0.0324,0.013523,0.002678,0.000431,0.007287
29521000,0.0324,0.013523,0.002678,0.000431,0.006347
29522000,0.0324,0.013523,0.002678,0.000431,0.005876
29523000,0.0324,0.013523,0.002678,0.000431,0.007169
29524000,0.0324,0.013523,0.002678,0.000431,0.006111
29525000,0.0324,0.013523,0.002678,0.000431,0.006229
29526000,0.0324,0.013523,0.002678,0.000431,0.005406
29527000,0.0324,0.013523,0.002678,0.000431,0.004349
29528000,0.0324,0.013523,0.002678,0.000431,0.005054
29529000,0.0324,0.013523,0.002678,0.000431,0.004349
29530000,0.0324,0.013523,0.002678,0.000431,0.003526
29531000,0.0324,0.013523,0.002678,0.000431,0.003291
29532000,0.0324,0.013523,0.002678,0.000431,0.003408
29533000,0.0324,0.013523,0.002678,0.000431,0.003408
29534000,0.0324,0.013523,0.002678,0.000431,0.003173
29535000,0.0324,0.013523,0.002678,0.000431,0.003408
29536000,0.0324,0.013523,0.002678,0.000431,0.003526
29537000,0.0324,0.013523,0.002678,0.000431,0.003408
29538000,0.0324,0.013523,0.002678,0.000431,0.003408
29539000,0.0324,0.013523,0.002678,0.000431,0.003291
29540000,0.0324,0.013523,0.002678,0.000431,0.003408
29541000,0.0324,0.013523,0.002678,0.000431,0.003526
29542000,0.0324,0.013523,0.002678,0.000431,0.003173
29543000,0.0324,0.013523,0.002678,0.000431,0.004819
29544000,0.0324,0.013523,0.002678,0.000431,0.002821
29545000,0.0324,0.013523,0.002678,0.000431,0.002233
29546000,0.0324,0.013523,0.002678,0.000431,0.002703
29547000,0.0324,0.013523,0.002678,0.000431,0.002703
29548000,0.0324,0.013523,0.002678,0.000431,0.002468
29549000,0.0324,0.013523,0.002678,0.000431,0.002586
29550000,0.0324,0.013523,0.002678,0.000431,0.002351
29551000,0.0324,0.013523,0.002678,0.000431,0.002703
29552000,0.0324,0.013523,0.002678,0.000431,0.002586
29553000,0.0324,0.013523,0.002678,0.000431,0.002468
29554000,0.0324,0.013523,0.002678,0.000431,0.002703
29555000,0.0324,0.013523,0.002678,0.000431,0.002351
29556000,0.0324,0.013523,0.002678,0.000431,0.004584
29557000,0.0324,0.013523,0.002678,0.000431,0.001645
29558000,0.0324,0.013523,0.002678,0.000431,0.001645
29559000,0.0324,0.013523,0.002678,0.000431,0.001645
29560000,0.0324,0.013523,0.002678,0.000431,0.001645
29561000,0.0324,0.013523,0.002678,0.000431,0.001763
29562000,0.0324,0.013523,0.002678,0.000431,0.001645
29563000,0.0324,0.013523,0.002678,0.000431,0.001763
29564000,0.0324,0.013523,0.002678,0.000431,0.001645
29565000,0.0324,0.013523,0.002678,0.000431,0.001410
29566000,0.0324,0.013523,0.002678,0.000431,0.001880
29567000,0.0324,0.013523,0.002678,0.000431,0.001763
29568000,0.0324,0.013523,0.002678,0.000431,0.001528
29569000,0.0324,0.013523,0.002678,0.000431,0.001763
29570000,0.0324,0.013523,0.002678,0.000431,0.001528
29571000,0.0324,0.013523,0.002678,0.000431,0.001763
29572000,0.0324,0.013523,0.002678,0.000431,0.001763
29573000,0.0324,0.013523,0.002678,0.000431,0.001645
29574000,0.0324,0.013523,0.002678,0.000431,0.001763
29575000,0.0324,0.013523,0.002678,0.000431,0.001410
29576000,0.0324,0.013523,0.002678,0.000431,0.001880
29577000,0.0324,0.013523,0.002678,0.000431,0.001645
29578000,0.0324,0.013523,0.002678,0.000431,0.001645
29579000,0.0324,0.013523,0.002678,0.000431,0.001763
29580000,0.0324,0.013523,0.002678,0.000431,0.001528
29581000,0.0324,0.013523,0.002678,0.000431,0.001763
29582000,0.0324,0.013523,0.002678,0.000431,0.001645
29583000,0.0324,0.013523,0.002678,0.000431,0.001763
29584000,0.0324,0.013523,0.002678,0.000431,0.001645
29585000,0.0324,0.013523,0.002678,0.000431,0.001645
29586000,0.0324,0.013523,0.002678,0.000431,0.001645
29587000,0.0324,0.013523,0.002678,0.000431,0.001645
29588000,0.0324,0.013523,0.002678,0.000431,0.001645
29589000,0.0324,0.013523,0.002678,0.000431,0.001763
29590000,0.0324,0.013523,0.002678,0.000431,0.001763
29591000,0.0324,0.013523,0.002678,0.000431,0.001528
29592000,0.0324,0.013523,0.002678,0.000431,0.001763
29593000,0.0324,0.013523,0.002678,0.000431,0.001645
29594000,0.0324,0.013523,0.002678,0.000431,0.001645
29595000,0.0324,0.013523,0.002678,0.000431,0.001763
29596000,0.0324,0.013523,0.002678,0.000431,0.001645
29597000,0.0324,0.013523,0.002678,0.000431,0.001645
29598000,0.0324,0.013523,0.002678,0.000431,0.001528
29599000,0.0324,0.013523,0.002678,0.000431,0.001880
29600000,0.0324,0.013523,0.002678,0.000431,0.001763
29601000,0.0324,0.013523,0.002678,0.000431,0.001528
29602000,0.0324,0.013523,0.002678,0.000431,0.001763
29603000,0.0324,0.013523,0.002678,0.000431,0.001528
29604000,0.0324,0.013523,0.002678,0.000431,0.002468
29605000,0.0324,0.013523,0.002678,0.000431,0.001880
29606000,0.0324,0.013523,0.002678,0.000431,0.000940
29607000,0.0324,0.013523,0.002678,0.000431,0.000705
29608000,0.0324,0.013523,0.002678,0.000431,0.000823
29609000,0.0324,0.013523,0.002678,0.000431,0.000823
29610000,0.0324,0.013523,0.002678,0.000431,0.000940
29611000,0.0324,0.013523,0.002678,0.000431,0.000823
29612000,0.0324,0.013523,0.002678,0.000431,0.000823
29613000,0.0324,0.013523,0.002678,0.000431,0.000705
29614000,0.0324,0.013523,0.002678,0.000431,0.000940
29615000,0.0324,0.013523,0.002678,0.000431,0.000940
29616000,0.0324,0.013523,0.002678,0.000431,0.000705
29617000,0.0324,0.013523,0.002678,0.000431,0.000940
29618000,0.0324,0.013523,0.002678,0.000431,0.000705
29619000,0.0324,0.013523,0.002678,0.000431,0.000940
29620000,0.0324,0.013523,0.002678,0.000431,0.000823
29621000,0.0324,0.013523,0.002678,0.000431,0.000823
29622000,0.0324,0.013523,0.002678,0.000431,0.000940
29623000,0.0324,0.013523,0.002678,0.000431,0.000705
29624000,0.0324,0.013523,0.002678,0.000431,0.000940
29625000,0.0324,0.013523,0.002678,0.000431,0.000823
29626000,0.0324,0.013523,0.002678,0.000431,0.000823
29627000,0.0324,0.013523,0.002678,0.000431,0.000823
29628000,0.0324,0.013523,0.002678,0.000431,0.000823
29629000,0.0324,0.013523,0.002678,0.000431,0.000823
29630000,0.0324,0.013523,0.002678,0.000431,0.000823
29631000,0.0324,0.013523,0.002678,0.000431,0.000940
29632000,0.0324,0.013523,0.002678,0.000431,0.000705
29633000,0.0324,0.013523,0.002678,0.000431,0.000940
29634000,0.0324,0.013523,0.002678,0.000431,0.000823
29635000,0.0324,0.013523,0.002678,0.000431,0.000823
29636000,0.0324,0.013523,0.002678,0.000431,0.000705
29637000,0.0324,0.013523,0.002678,0.000431,0.000940
29638000,0.0324,0.013523,0.002678,0.000431,0.000940
29639000,0.0324,0.013523,0.002678,0.000431,0.000705
29640000,0.0324,0.013523,0.002678,0.000431,0.013633
29641000,0.0324,0.013523,0.002678,0.000431,0.474226
29642000,0.0324,0.013523,0.002678,0.000431,0.593165
29643000,0.0324,0.013523,0.002678,0.000431,0.138918
29644000,0.0324,0.013523,0.002678,0.000431,0.131161
29645000,0.0324,0.013523,0.002678,0.000431,0.273371
29646000,0.0324,0.013523,0.002678,0.000431,0.485626
29647000,0.0324,0.013523,0.002678,0.000431,0.229885
29648000,0.0324,0.013523,0.002678,0.000431,0.294173
29649000,0.0324,0.013523,0.002678,0.000431,0.222363
29650000,0.0324,0.013523,0.002678,0.000431,0.135275
29651000,0.0324,0.013523,0.002678,0.000431,0.173354
29652000,0.0324,0.013523,0.002678,0.000431,0.122112
29653000,0.0324,0.013523,0.002678,0.000431,0.452248
29654000,0.0324,0.013523,0.002678,0.000431,0.078744
29655000,0.0324,0.013523,0.002678,0.000431,0.057824
29656000,0.0324,0.013523,0.002678,0.000431,0.051830
29657000,0.0324,0.013523,0.002678,0.000431,0.047011
29658000,0.0324,0.013523,0.002678,0.000431,0.038667
29659000,0.0324,0.013523,0.002678,0.000431,0.028794
29660000,0.0324,0.013523,0.002678,0.000431,0.028089
29661000,0.0324,0.013523,0.002678,0.000431,0.028207
29662000,0.0324,0.013523,0.002678,0.000431,0.021273
29663000,0.0324,0.013523,0.002678,0.000431,0.015866
29664000,0.0324,0.013523,0.002678,0.000431,0.014221
29665000,0.0324,0.013523,0.002678,0.000431,0.012223
29666000,0.0324,0.013523,0.002678,0.000431,0.009167
29667000,0.0324,0.013523,0.002678,0.000431,0.009990
29668000,0.0324,0.013523,0.002678,0.000431,0.008932
29669000,0.0324,0.013523,0.002678,0.000431,0.009402
29670000,0.0324,0.013523,0.002678,0.000431,0.009755
29671000,0.0324,0.013523,0.002678,0.000431,0.009285
29672000,0.0324,0.013523,0.002678,0.000431,0.011870
29673000,0.0324,0.013523,0.002678,0.000431,0.007522
29674000,0.0324,0.013523,0.002678,0.000431,0.010813
29675000,0.0324,0.013523,0.002678,0.000431,0.007287
29676000,0.0324,0.013523,0.002678,0.000431,0.005994
29677000,0.0324,0.013523,0.002678,0.000431,0.006111
29678000,0.0324,0.013523,0.002678,0.000431,0.007404
29679000,0.0324,0.013523,0.002678,0.000431,0.005054
29680000,0.0324,0.013523,0.002678,0.000431,0.005406
29681000,0.0324,0.013523,0.002678,0.000431,0.005171
29682000,0.0324,0.013523,0.002678,0.000431,0.005406
29683000,0.0324,0.013523,0.002678,0.000431,0.005171
29684000,0.0324,0.013523,0.002678,0.000431,0.005054
29685000,0.0324,0.013523,0.002678,0.000431,0.008462
29686000,0.0324,0.013523,0.002678,0.000431,0.004466
29687000,0.0324,0.013523,0.002678,0.000431,0.003643
29688000,0.0324,0.013523,0.002678,0.000431,0.003526
29689000,0.0324,0.013523,0.002678,0.000431,0.003408
29690000,0.0324,0.013523,0.002678,0.000431,0.004113
29691000,0.0324,0.013523,0.002678,0.000431,0.003056
29692000,0.0324,0.013523,0.002678,0.000431,0.003643
29693000,0.0324,0.013523,0.002678,0.000431,0.004584
29694000,0.0324,0.013523,0.002678,0.000431,0.002821
29695000,0.0324,0.013523,0.002678,0.000431,0.002703
29696000,0.0324,0.013523,0.002678,0.000431,0.002703
29697000,0.0324,0.013523,0.002678,0.000431,0.002938
29698000,0.0324,0.013523,0.002678,0.000431,0.002468
29699000,0.0324,0.013523,0.002678,0.000431,0.002821
29700000,0.0324,0.013523,0.002678,0.000431,0.002703
29701000,0.0324,0.013523,0.002678,0.000431,0.002703
29702000,0.0324,0.013523,0.002678,0.000431,0.002586
29703000,0.0324,0.013523,0.002678,0.000431,0.002821
29704000,0.0324,0.013523,0.002678,0.000431,0.002586
29705000,0.0324,0.013523,0.002678,0.000431,0.002703
29706000,0.0324,0.013523,0.002678,0.000431,0.002938
29707000,0.0324,0.013523,0.002678,0.000431,0.002233
29708000,0.0324,0.013523,0.002678,0.000431,0.003056
29709000,0.0324,0.013523,0.002678,0.000431,0.002703
29710000,0.0324,0.013523,0.002678,0.000431,0.002703
29711000,0.0324,0.013523,0.002678,0.000431,0.002703
29712000,0.0324,0.013523,0.002678,0.000431,0.002468
29713000,0.0324,0.013523,0.002678,0.000431,0.002821
29714000,0.0324,0.013523,0.002678,0.000431,0.002586
29715000,0.0324,0.013523,0.002678,0.000431,0.002821
29716000,0.0324,0.013523,0.002678,0.000431,0.002821
29717000,0.0324,0.013523,0.002678,0.000431,0.002468
29718000,0.0324,0.013523,0.002678,0.000431,0.002938
29719000,0.0324,0.013523,0.002678,0.000431,0.002586
29720000,0.0324,0.013523,0.002678,0.000431,0.002703
29721000,0.0324,0.013523,0.002678,0.000431,0.002586
29722000,0.0324,0.013523,0.002678,0.000431,0.004466
29723000,0.0324,0.013523,0.002678,0.000431,0.002116
29724000,0.0324,0.013523,0.002678,0.000431,0.001763
29725000,0.0324,0.013523,0.002678,0.000431,0.001880
29726000,0.0324,0.013523,0.002678,0.000431,0.001880
29727000,0.0324,0.013523,0.002678,0.000431,0.001763
29728000,0.0324,0.013523,0.002678,0.000431,0.001998
29729000,0.0324,0.013523,0.002678,0.000431,0.001880
29730000,0.0324,0.013523,0.002678,0.000431,0.001763
29731000,0.0324,0.013523,0.002678,0.000431,0.001998
29732000,0.0324,0.013523,0.002678,0.000431,0.001763
29733000,0.0324,0.013523,0.002678,0.000431,0.001998
29734000,0.0324,0.013523,0.002678,0.000431,0.001763
29735000,0.0324,0.013523,0.002678,0.000431,0.001763
29736000,0.0324,0.013523,0.002678,0.000431,0.001998
29737000,0.0324,0.013523,0.002678,0.000431,0.001645
29738000,0.0324,0.013523,0.002678,0.000431,0.002116
29739000,0.0324,0.013523,0.002678,0.000431,0.001763
29740000,0.0324,0.013523,0.002678,0.000431,0.001880
29741000,0.0324,0.013523,0.002678,0.000431,0.001998
29742000,0.0324,0.013523,0.002678,0.000431,0.001645
29743000,0.0324,0.013523,0.002678,0.000431,0.001763
29744000,0.0324,0.013523,0.002678,0.000431,0.001998
29745000,0.0324,0.013523,0.002678,0.000431,0.001880
29746000,0.0324,0.013523,0.002678,0.000431,0.001880
29747000,0.0324,0.013523,0.002678,0.000431,0.003173
29748000,0.0324,0.013523,0.002678,0.000431,0.001058
29749000,0.0324,0.013523,0.002678,0.000431,0.000823
29750000,0.0324,0.013523,0.002678,0.000431,0.000823
29751000,0.0324,0.013523,0.002678,0.000431,0.000705
29752000,0.0324,0.013523,0.002678,0.000431,0.000940
29753000,0.0324,0.013523,0.002678,0.000431,0.000940
29754000,0.0324,0.013523,0.002678,0.000431,0.000705
29755000,0.0324,0.013523,0.002678,0.000431,0.000940
29756000,0.0324,0.013523,0.002678,0.000431,0.000705
29757000,0.0324,0.013523,0.002678,0.000431,0.000940
29758000,0.0324,0.013523,0.002678,0.000431,0.000823
29759000,0.0324,0.013523,0.002678,0.000431,0.000823
29760000,0.0324,0.013523,0.002678,0.000431,0.000940
29761000,0.0324,0.013523,0.002678,0.000431,0.000705
29762000,0.0324,0.013523,0.002678,0.000431,0.000940
29763000,0.0324,0.013523,0.002678,0.000431,0.000823
29764000,0.0324,0.013523,0.002678,0.000431,0.000823
29765000,0.0324,0.013523,0.002678,0.000431,0.000823
29766000,0.0324,0.013523,0.002678,0.000431,0.000823
29767000,0.0324,0.013523,0.002678,0.000431,0.000823
29768000,0.0324,0.013523,0.002678,0.000431,0.000823
29769000,0.0324,0.013523,0.002678,0.000431,0.000940
29770000,0.0324,0.013523,0.002678,0.000431,0.000705
29771000,0.0324,0.013523,0.002678,0.000431,0.000940
29772000,0.0324,0.013523,0.002678,0.000431,0.000823
29773000,0.0324,0.013523,0.002678,0.000431,0.000823
29774000,0.0324,0.013523,0.002678,0.000431,0.000705
29775000,0.0324,0.013523,0.002678,0.000431,0.000940
29776000,0.0324,0.013523,0.002678,0.000431,0.000823
29777000,0.0324,0.013523,0.002678,0.000431,0.000823
29778000,0.0324,0.013523,0.002678,0.000431,0.000823
29779000,0.0324,0.013523,0.002678,0.000431,0.000823
29780000,0.0324,0.013523,0.002678,0.000431,0.000940
29781000,0.0324,0.013523,0.002678,0.000431,0.000823
29782000,0.0324,0.013523,0.002678,0.000431,0.000823
29783000,0.0324,0.013523,0.002678,0.000431,0.000705
29784000,0.0324,0.013523,0.002678,0.000431,0.000940
29785000,0.0324,0.013523,0.002678,0.000431,0.001645
29786000,0.0324,0.013523,0.002678,0.000431,0.322850
29787000,0.0324,0.013523,0.002678,0.000431,0.654397
29788000,0.0324,0.013523,0.002678,0.000431,0.222363
29789000,0.0324,0.013523,0.002678,0.000431,0.132572
29790000,0.0324,0.013523,0.002678,0.000431,0.147028
29791000,0.0324,0.013523,0.002678,0.000431,0.651929
29792000,0.0324,0.013523,0.002678,0.000431,0.233646
29793000,0.0324,0.013523,0.002678,0.000431,0.278542
29794000,0.0324,0.013523,0.002678,0.000431,0.243636
29795000,0.0324,0.013523,0.002678,0.000431,0.140094
29796000,0.0324,0.013523,0.002678,0.000431,0.155137
29797000,0.0324,0.013523,0.002678,0.000431,0.164422
29798000,0.0324,0.013523,0.002678,0.000431,0.433561
29799000,0.0324,0.013523,0.002678,0.000431,0.064523
29800000,0.0324,0.013523,0.002678,0.000431,0.052418
29801000,0.0324,0.013523,0.002678,0.000431,0.045248
29802000,0.0324,0.013523,0.002678,0.000431,0.037962
29803000,0.0324,0.013523,0.002678,0.000431,0.029265
29804000,0.0324,0.013523,0.002678,0.000431,0.019862
29805000,0.0324,0.013523,0.002678,0.000431,0.015749
29806000,0.0324,0.013523,0.002678,0.000431,0.017512
29807000,0.0324,0.013523,0.002678,0.000431,0.013163
29808000,0.0324,0.013523,0.002678,0.000431,0.015514
29809000,0.0324,0.013523,0.002678,0.000431,0.013633
29810000,0.0324,0.013523,0.002678,0.000431,0.009285
29811000,0.0324,0.013523,0.002678,0.000431,0.008697
29812000,0.0324,0.013523,0.002678,0.000431,0.009285
29813000,0.0324,0.013523,0.002678,0.000431,0.009285
29814000,0.0324,0.013523,0.002678,0.000431,0.008697
29815000,0.0324,0.013523,0.002678,0.000431,0.009285
29816000,0.0324,0.013523,0.002678,0.000431,0.008932
29817000,0.0324,0.013523,0.002678,0.000431,0.007757
29818000,0.0324,0.013523,0.002678,0.000431,0.008580
29819000,0.0324,0.013523,0.002678,0.000431,0.010107
29820000,0.0324,0.013523,0.002678,0.000431,0.007287
29821000,0.0324,0.013523,0.002678,0.000431,0.007992
29822000,0.0324,0.013523,0.002678,0.000431,0.006817
29823000,0.0324,0.013523,0.002678,0.000431,0.005876
29824000,0.0324,0.013523,0.002678,0.000431,0.005406
29825000,0.0324,0.013523,0.002678,0.000431,0.004701
29826000,0.0324,0.013523,0.002678,0.000431,0.005171
29827000,0.0324,0.013523,0.002678,0.000431,0.005054
29828000,0.0324,0.013523,0.002678,0.000431,0.004701
29829000,0.0324,0.013523,0.002678,0.000431,0.005171
29830000,0.0324,0.013523,0.002678,0.000431,0.004936
29831000,0.0324,0.013523,0.002678,0.000431,0.006464
29832000,0.0324,0.013523,0.002678,0.000431,0.004466
29833000,0.0324,0.013523,0.002678,0.000431,0.003878
29834000,0.0324,0.013523,0.002678,0.000431,0.004349
29835000,0.0324,0.013523,0.002678,0.000431,0.005759
29836000,0.0324,0.013523,0.002678,0.000431,0.003291
29837000,0.0324,0.013523,0.002678,0.000431,0.003291
29838000,0.0324,0.013523,0.002678,0.000431,0.003408
29839000,0.0324,0.013523,0.002678,0.000431,0.003526
29840000,0.0324,0.013523,0.002678,0.000431,0.003173
29841000,0.0324,0.013523,0.002678,0.000431,0.003173
29842000,0.0324,0.013523,0.002678,0.000431,0.003291
29843000,0.0324,0.013523,0.002678,0.000431,0.003173
29844000,0.0324,0.013523,0.002678,0.000431,0.003526
29845000,0.0324,0.013523,0.002678,0.000431,0.002938
29846000,0.0324,0.013523,0.002678,0.000431,0.003291
29847000,0.0324,0.013523,0.002678,0.000431,0.003291
29848000,0.0324,0.013523,0.002678,0.000431,0.003173
29849000,0.0324,0.013523,0.002678,0.000431,0.005054
29850000,0.0324,0.013523,0.002678,0.000431,0.002116
29851000,0.0324,0.013523,0.002678,0.000431,0.002116
29852000,0.0324,0.013523,0.002678,0.000431,0.002821
29853000,0.0324,0.013523,0.002678,0.000431,0.002468
29854000,0.0324,0.013523,0.002678,0.000431,0.002116
29855000,0.0324,0.013523,0.002678,0.000431,0.002821
29856000,0.0324,0.013523,0.002678,0.000431,0.002116
29857000,0.0324,0.013523,0.002678,0.000431,0.002586
29858000,0.0324,0.013523,0.002678,0.000431,0.002351
29859000,0.0324,0.013523,0.002678,0.000431,0.002586
29860000,0.0324,0.013523,0.002678,0.000431,0.002116
29861000,0.0324,0.013523,0.002678,0.000431,0.002703
29862000,0.0324,0.013523,0.002678,0.000431,0.002233
29863000,0.0324,0.013523,0.002678,0.000431,0.002586
29864000,0.0324,0.013523,0.002678,0.000431,0.002351
29865000,0.0324,0.013523,0.002678,0.000431,0.002351
29866000,0.0324,0.013523,0.002678,0.000431,0.002116
29867000,0.0324,0.013523,0.002678,0.000431,0.002821
29868000,0.0324,0.013523,0.002678,0.000431,0.002116
29869000,0.0324,0.013523,0.002678,0.000431,0.002703
29870000,0.0324,0.013523,0.002678,0.000431,0.002233
29871000,0.0324,0.013523,0.002678,0.000431,0.002351
29872000,0.0324,0.013523,0.002678,0.000431,0.002703
29873000,0.0324,0.013523,0.002678,0.000431,0.002233
29874000,0.0324,0.013523,0.002678,0.000431,0.003878
29875000,0.0324,0.013523,0.002678,0.000431,0.001645
29876000,0.0324,0.013523,0.002678,0.000431,0.001410
29877000,0.0324,0.013523,0.002678,0.000431,0.001410
29878000,0.0324,0.013523,0.002678,0.000431,0.001645
29879000,0.0324,0.013523,0.002678,0.000431,0.001410
29880000,0.0324,0.013523,0.002678,0.000431,0.001410
29881000,0.0324,0.013523,0.002678,0.000431,0.001645
29882000,0.0324,0.013523,0.002678,0.000431,0.001293
29883000,0.0324,0.013523,0.002678,0.000431,0.000940
29884000,0.0324,0.013523,0.002678,0.000431,0.000940
29885000,0.0324,0.013523,0.002678,0.000431,0.000705
29886000,0.0324,0.013523,0.002678,0.000431,0.000940
29887000,0.0324,0.013523,0.002678,0.000431,0.000705
29888000,0.0324,0.013523,0.002678,0.000431,0.000940
29889000,0.0324,0.013523,0.002678,0.000431,0.000823
29890000,0.0324,0.013523,0.002678,0.000431,0.000823
29891000,0.0324,0.013523,0.002678,0.000431,0.000823
29892000,0.0324,0.013523,0.002678,0.000431,0.000823
29893000,0.0324,0.013523,0.002678,0.000431,0.000940
29894000,0.0324,0.013523,0.002678,0.000431,0.000705
29895000,0.0324,0.013523,0.002678,0.000431,0.000940
29896000,0.0324,0.013523,0.002678,0.000431,0.000705
29897000,0.0324,0.013523,0.002678,0.000431,0.000940
29898000,0.0324,0.013523,0.002678,0.000431,0.000705
29899000,0.0324,0.013523,0.002678,0.000431,0.000940
29900000,0.0324,0.013523,0.002678,0.000431,0.000940
29901000,0.0324,0.013523,0.002678,0.000431,0.000705
29902000,0.0324,0.013523,0.002678,0.000431,0.000940
29903000,0.0324,0.013523,0.002678,0.000431,0.000705
29904000,0.0324,0.013523,0.002678,0.000431,0.000940
29905000,0.0324,0.013523,0.002678,0.000431,0.000823
29906000,0.0324,0.013523,0.002678,0.000431,0.000823
29907000,0.0324,0.013523,0.002678,0.000431,0.000940
29908000,0.0324,0.013523,0.002678,0.000431,0.000705
29909000,0.0324,0.013523,0.002678,0.000431,0.000940
29910000,0.0324,0.013523,0.002678,0.000431,0.000705
29911000,0.0324,0.013523,0.002678,0.000431,0.000940
29912000,0.0324,0.013523,0.002678,0.000431,0.000823
29913000,0.0324,0.013523,0.002678,0.000431,0.000823
29914000,0.0324,0.013523,0.002678,0.000431,0.000823
29915000,0.0324,0.013523,0.002678,0.000431,0.000823
29916000,0.0324,0.013523,0.002678,0.000431,0.000940
29917000,0.0324,0.013523,0.002678,0.000431,0.000705
29918000,0.0324,0.013523,0.002678,0.000431,0.000823
29919000,0.0324,0.013523,0.002678,0.000431,0.000823
29920000,0.0324,0.013523,0.002678,0.000431,0.000940
29921000,0.0324,0.013523,0.002678,0.000431,0.000823
29922000,0.0324,0.013523,0.002678,0.000431,0.000823
29923000,0.0324,0.013523,0.002678,0.000431,0.000705
29924000,0.0324,0.013523,0.002678,0.000431,0.000940
29925000,0.0324,0.013523,0.002678,0.000431,0.000940
29926000,0.0324,0.013523,0.002678,0.000431,0.000705
29927000,0.0324,0.013523,0.002678,0.000431,0.000940
29928000,0.0324,0.013523,0.002678,0.000431,0.000705
29929000,0.0324,0.013523,0.002678,0.000431,0.000940
29930000,0.0324,0.013523,0.002678,0.000431,0.000823
29931000,0.0324,0.013523,0.002678,0.000431,0.000823
29932000,0.0324,0.013523,0.002678,0.000431,0.000940
29933000,0.0324,0.013523,0.002678,0.000431,0.000705
29934000,0.0324,0.013523,0.002678,0.000431,0.000940
29935000,0.0324,0.013523,0.002678,0.000431,0.000823
29936000,0.0324,0.013523,0.002678,0.000431,0.000823
29937000,0.0324,0.013523,0.002678,0.000431,0.000823
29938000,0.0324,0.013523,0.002678,0.000431,0.000823
29939000,0.0324,0.013523,0.002678,0.000431,0.000823
29940000,0.0324,0.013523,0.002678,0.000431,0.000823
29941000,0.0324,0.013523,0.002678,0.000431,0.000823
29942000,0.0324,0.013523,0.002678,0.000431,0.000823
29943000,0.0324,0.013523,0.002678,0.000431,0.000940
29944000,0.0324,0.013523,0.002678,0.000431,0.000705
29945000,0.0324,0.013523,0.002678,0.000431,0.000940
29946000,0.0324,0.013523,0.002678,0.000431,0.000705
29947000,0.0324,0.013523,0.002678,0.000431,0.000940
29948000,0.0324,0.013523,0.002678,0.000431,0.000940
29949000,0.0324,0.013523,0.002678,0.000431,0.000705
29950000,0.0324,0.013523,0.002678,0.000431,0.000940
29951000,0.0324,0.013523,0.002678,0.000431,0.000705
29952000,0.0324,0.013523,0.002678,0.000431,0.000940
29953000,0.0324,0.013523,0.002678,0.000431,0.000823
29954000,0.0324,0.013523,0.002678,0.000431,0.000823
29955000,0.0324,0.013523,0.002678,0.000431,0.000823
29956000,0.0324,0.013523,0.002678,0.000431,0.000823
29957000,0.0324,0.013523,0.002678,0.000431,0.000940
29958000,0.0324,0.013523,0.002678,0.000431,0.000705
29959000,0.0324,0.013523,0.002678,0.000431,0.000940
29960000,0.0324,0.013523,0.002678,0.000431,0.000705
29961000,0.0324,0.013523,0.002678,0.000431,0.000823
29962000,0.0324,0.013523,0.002678,0.000431,0.000940
29963000,0.0324,0.013523,0.002678,0.000431,0.000823
29964000,0.0324,0.013523,0.002678,0.000431,0.000823
29965000,0.0324,0.013523,0.002678,0.000431,0.000823
29966000,0.0324,0.013523,0.002678,0.000431,0.000823
29967000,0.0324,0.013523,0.002678,0.000431,0.000823
29968000,0.0324,0.013523,0.002678,0.000431,0.000940
29969000,0.0324,0.013523,0.002678,0.000431,0.000940
29970000,0.0324,0.013523,0.002678,0.000431,0.000823
29971000,0.0324,0.013523,0.002678,0.000431,0.000823
29972000,0.0324,0.013523,0.002678,0.000431,0.000940
29973000,0.0324,0.013523,0.002678,0.000431,0.000823
29974000,0.0324,0.013523,0.002678,0.000431,0.000940
29975000,0.0324,0.013523,0.002678,0.000431,0.001645
29976000,0.0324,0.013523,0.002678,0.000431,0.369038
29977000,0.0324,0.013523,0.002678,0.000431,0.690478
29978000,0.0324,0.013523,0.002678,0.000431,0.145617
29979000,0.0324,0.013523,0.002678,0.000431,0.133512
29980000,0.0324,0.013523,0.002678,0.000431,0.176527
29981000,0.0324,0.013523,0.002678,0.000431,0.596691
29982000,0.0324,0.013523,0.002678,0.000431,0.269962
29983000,0.0324,0.013523,0.002678,0.000431,0.306513
29984000,0.0324,0.013523,0.002678,0.000431,0.203206
29985000,0.0324,0.013523,0.002678,0.000431,0.143972
29986000,0.0324,0.013523,0.002678,0.000431,0.125285
29987000,0.0324,0.013523,0.002678,0.000431,0.280657
29988000,0.0324,0.013523,0.002678,0.000431,0.303928
29989000,0.0324,0.013523,0.002678,0.000431,0.035964
29990000,0.0324,0.013523,0.002678,0.000431,0.021038
29991000,0.0324,0.013523,0.002678,0.000431,0.022213
29992000,0.0324,0.013523,0.002678,0.000431,0.017629
29993000,0.0324,0.013523,0.002678,0.000431,0.018569
29994000,0.0324,0.013523,0.002678,0.000431,0.016101
29995000,0.0324,0.013523,0.002678,0.000431,0.013751
29996000,0.0324,0.013523,0.002678,0.000431,0.008815
29997000,0.0324,0.013523,0.002678,0.000431,0.010342
29998000,0.0324,0.013523,0.002678,0.000431,0.007052
29999000,0.0324,0.013523,0.002678,0.000431,0.007757
