Cycle,Area(mm^2),PeakDynamic(W),SubthresholdLeakage(W),GateLeakage(W),RunTimeDynamic(W)
51000000,0.0324,0.013523,0.002678,0.000431,0.002351
51001000,0.0324,0.013523,0.002678,0.000431,0.002468
51002000,0.0324,0.013523,0.002678,0.000431,0.002586
51003000,0.0324,0.013523,0.002678,0.000431,0.002351
51004000,0.0324,0.013523,0.002678,0.000431,0.002468
51005000,0.0324,0.013523,0.002678,0.000431,0.002233
51006000,0.0324,0.013523,0.002678,0.000431,0.002821
51007000,0.0324,0.013523,0.002678,0.000431,0.002233
51008000,0.0324,0.013523,0.002678,0.000431,0.002586
51009000,0.0324,0.013523,0.002678,0.000431,0.002233
51010000,0.0324,0.013523,0.002678,0.000431,0.004466
51011000,0.0324,0.013523,0.002678,0.000431,0.001998
51012000,0.0324,0.013523,0.002678,0.000431,0.001175
51013000,0.0324,0.013523,0.002678,0.000431,0.001880
51014000,0.0324,0.013523,0.002678,0.000431,0.001410
51015000,0.0324,0.013523,0.002678,0.000431,0.001645
51016000,0.0324,0.013523,0.002678,0.000431,0.001645
51017000,0.0324,0.013523,0.002678,0.000431,0.001410
51018000,0.0324,0.013523,0.002678,0.000431,0.001645
51019000,0.0324,0.013523,0.002678,0.000431,0.001645
51020000,0.0324,0.013523,0.002678,0.000431,0.001410
51021000,0.0324,0.013523,0.002678,0.000431,0.001645
51022000,0.0324,0.013523,0.002678,0.000431,0.001645
51023000,0.0324,0.013523,0.002678,0.000431,0.001410
51024000,0.0324,0.013523,0.002678,0.000431,0.001880
51025000,0.0324,0.013523,0.002678,0.000431,0.001175
51026000,0.0324,0.013523,0.002678,0.000431,0.001880
51027000,0.0324,0.013523,0.002678,0.000431,0.001293
51028000,0.0324,0.013523,0.002678,0.000431,0.001763
51029000,0.0324,0.013523,0.002678,0.000431,0.001645
51030000,0.0324,0.013523,0.002678,0.000431,0.001410
51031000,0.0324,0.013523,0.002678,0.000431,0.001880
51032000,0.0324,0.013523,0.002678,0.000431,0.001175
51033000,0.0324,0.013523,0.002678,0.000431,0.001880
51034000,0.0324,0.013523,0.002678,0.000431,0.001175
51035000,0.0324,0.013523,0.002678,0.000431,0.001880
51036000,0.0324,0.013523,0.002678,0.000431,0.001175
51037000,0.0324,0.013523,0.002678,0.000431,0.001880
51038000,0.0324,0.013523,0.002678,0.000431,0.001175
51039000,0.0324,0.013523,0.002678,0.000431,0.001880
51040000,0.0324,0.013523,0.002678,0.000431,0.001293
51041000,0.0324,0.013523,0.002678,0.000431,0.001763
51042000,0.0324,0.013523,0.002678,0.000431,0.001645
51043000,0.0324,0.013523,0.002678,0.000431,0.001410
51044000,0.0324,0.013523,0.002678,0.000431,0.001880
51045000,0.0324,0.013523,0.002678,0.000431,0.001293
51046000,0.0324,0.013523,0.002678,0.000431,0.001763
51047000,0.0324,0.013523,0.002678,0.000431,0.001645
51048000,0.0324,0.013523,0.002678,0.000431,0.001410
51049000,0.0324,0.013523,0.002678,0.000431,0.001645
51050000,0.0324,0.013523,0.002678,0.000431,0.001528
51051000,0.0324,0.013523,0.002678,0.000431,0.001528
51052000,0.0324,0.013523,0.002678,0.000431,0.001645
51053000,0.0324,0.013523,0.002678,0.000431,0.001410
51054000,0.0324,0.013523,0.002678,0.000431,0.001645
51055000,0.0324,0.013523,0.002678,0.000431,0.001645
51056000,0.0324,0.013523,0.002678,0.000431,0.001410
51057000,0.0324,0.013523,0.002678,0.000431,0.001880
51058000,0.0324,0.013523,0.002678,0.000431,0.001410
51059000,0.0324,0.013523,0.002678,0.000431,0.001645
51060000,0.0324,0.013523,0.002678,0.000431,0.001410
51061000,0.0324,0.013523,0.002678,0.000431,0.001645
51062000,0.0324,0.013523,0.002678,0.000431,0.001880
51063000,0.0324,0.013523,0.002678,0.000431,0.001175
51064000,0.0324,0.013523,0.002678,0.000431,0.001880
51065000,0.0324,0.013523,0.002678,0.000431,0.001410
51066000,0.0324,0.013523,0.002678,0.000431,0.001645
51067000,0.0324,0.013523,0.002678,0.000431,0.001645
51068000,0.0324,0.013523,0.002678,0.000431,0.001410
51069000,0.0324,0.013523,0.002678,0.000431,0.001645
51070000,0.0324,0.013523,0.002678,0.000431,0.001645
51071000,0.0324,0.013523,0.002678,0.000431,0.001410
51072000,0.0324,0.013523,0.002678,0.000431,0.001645
51073000,0.0324,0.013523,0.002678,0.000431,0.001410
51074000,0.0324,0.013523,0.002678,0.000431,0.001645
51075000,0.0324,0.013523,0.002678,0.000431,0.001880
51076000,0.0324,0.013523,0.002678,0.000431,0.001175
51077000,0.0324,0.013523,0.002678,0.000431,0.001880
51078000,0.0324,0.013523,0.002678,0.000431,0.001293
51079000,0.0324,0.013523,0.002678,0.000431,0.001763
51080000,0.0324,0.013523,0.002678,0.000431,0.001880
51081000,0.0324,0.013523,0.002678,0.000431,0.001175
51082000,0.0324,0.013523,0.002678,0.000431,0.001880
51083000,0.0324,0.013523,0.002678,0.000431,0.001293
51084000,0.0324,0.013523,0.002678,0.000431,0.001763
51085000,0.0324,0.013523,0.002678,0.000431,0.001645
51086000,0.0324,0.013523,0.002678,0.000431,0.001410
51087000,0.0324,0.013523,0.002678,0.000431,0.001645
51088000,0.0324,0.013523,0.002678,0.000431,0.001528
51089000,0.0324,0.013523,0.002678,0.000431,0.001645
51090000,0.0324,0.013523,0.002678,0.000431,0.001528
51091000,0.0324,0.013523,0.002678,0.000431,0.001645
51092000,0.0324,0.013523,0.002678,0.000431,0.001410
51093000,0.0324,0.013523,0.002678,0.000431,0.001645
51094000,0.0324,0.013523,0.002678,0.000431,0.001645
51095000,0.0324,0.013523,0.002678,0.000431,0.001645
51096000,0.0324,0.013523,0.002678,0.000431,0.001410
51097000,0.0324,0.013523,0.002678,0.000431,0.001645
51098000,0.0324,0.013523,0.002678,0.000431,0.001410
51099000,0.0324,0.013523,0.002678,0.000431,0.001645
51100000,0.0324,0.013523,0.002678,0.000431,0.001880
51101000,0.0324,0.013523,0.002678,0.000431,0.001175
51102000,0.0324,0.013523,0.002678,0.000431,0.001880
51103000,0.0324,0.013523,0.002678,0.000431,0.001410
51104000,0.0324,0.013523,0.002678,0.000431,0.001645
51105000,0.0324,0.013523,0.002678,0.000431,0.001645
51106000,0.0324,0.013523,0.002678,0.000431,0.001410
51107000,0.0324,0.013523,0.002678,0.000431,0.001645
51108000,0.0324,0.013523,0.002678,0.000431,0.001645
51109000,0.0324,0.013523,0.002678,0.000431,0.001645
51110000,0.0324,0.013523,0.002678,0.000431,0.001410
51111000,0.0324,0.013523,0.002678,0.000431,0.001645
51112000,0.0324,0.013523,0.002678,0.000431,0.001645
51113000,0.0324,0.013523,0.002678,0.000431,0.001645
51114000,0.0324,0.013523,0.002678,0.000431,0.001410
51115000,0.0324,0.013523,0.002678,0.000431,0.001645
51116000,0.0324,0.013523,0.002678,0.000431,0.001293
51117000,0.0324,0.013523,0.002678,0.000431,0.001763
51118000,0.0324,0.013523,0.002678,0.000431,0.001880
51119000,0.0324,0.013523,0.002678,0.000431,0.001175
51120000,0.0324,0.013523,0.002678,0.000431,0.001880
51121000,0.0324,0.013523,0.002678,0.000431,0.001293
51122000,0.0324,0.013523,0.002678,0.000431,0.001763
51123000,0.0324,0.013523,0.002678,0.000431,0.001645
51124000,0.0324,0.013523,0.002678,0.000431,0.001410
51125000,0.0324,0.013523,0.002678,0.000431,0.001645
51126000,0.0324,0.013523,0.002678,0.000431,0.001528
51127000,0.0324,0.013523,0.002678,0.000431,0.001528
51128000,0.0324,0.013523,0.002678,0.000431,0.001645
51129000,0.0324,0.013523,0.002678,0.000431,0.001645
51130000,0.0324,0.013523,0.002678,0.000431,0.001410
51131000,0.0324,0.013523,0.002678,0.000431,0.001645
51132000,0.0324,0.013523,0.002678,0.000431,0.001645
51133000,0.0324,0.013523,0.002678,0.000431,0.001645
51134000,0.0324,0.013523,0.002678,0.000431,0.001410
51135000,0.0324,0.013523,0.002678,0.000431,0.001645
51136000,0.0324,0.013523,0.002678,0.000431,0.001410
51137000,0.0324,0.013523,0.002678,0.000431,0.001645
51138000,0.0324,0.013523,0.002678,0.000431,0.001880
51139000,0.0324,0.013523,0.002678,0.000431,0.001175
51140000,0.0324,0.013523,0.002678,0.000431,0.001880
51141000,0.0324,0.013523,0.002678,0.000431,0.001410
51142000,0.0324,0.013523,0.002678,0.000431,0.001645
51143000,0.0324,0.013523,0.002678,0.000431,0.001645
51144000,0.0324,0.013523,0.002678,0.000431,0.001410
51145000,0.0324,0.013523,0.002678,0.000431,0.001645
51146000,0.0324,0.013523,0.002678,0.000431,0.001645
51147000,0.0324,0.013523,0.002678,0.000431,0.001645
51148000,0.0324,0.013523,0.002678,0.000431,0.001410
51149000,0.0324,0.013523,0.002678,0.000431,0.001645
51150000,0.0324,0.013523,0.002678,0.000431,0.001528
51151000,0.0324,0.013523,0.002678,0.000431,0.001763
51152000,0.0324,0.013523,0.002678,0.000431,0.001410
51153000,0.0324,0.013523,0.002678,0.000431,0.001645
51154000,0.0324,0.013523,0.002678,0.000431,0.001293
51155000,0.0324,0.013523,0.002678,0.000431,0.001763
51156000,0.0324,0.013523,0.002678,0.000431,0.001880
51157000,0.0324,0.013523,0.002678,0.000431,0.001175
51158000,0.0324,0.013523,0.002678,0.000431,0.001880
51159000,0.0324,0.013523,0.002678,0.000431,0.001293
51160000,0.0324,0.013523,0.002678,0.000431,0.001763
51161000,0.0324,0.013523,0.002678,0.000431,0.001645
51162000,0.0324,0.013523,0.002678,0.000431,0.001410
51163000,0.0324,0.013523,0.002678,0.000431,0.001645
51164000,0.0324,0.013523,0.002678,0.000431,0.001528
51165000,0.0324,0.013523,0.002678,0.000431,0.001763
51166000,0.0324,0.013523,0.002678,0.000431,0.001880
51167000,0.0324,0.013523,0.002678,0.000431,0.001410
51168000,0.0324,0.013523,0.002678,0.000431,0.002351
51169000,0.0324,0.013523,0.002678,0.000431,0.323673
51170000,0.0324,0.013523,0.002678,0.000431,0.683779
51171000,0.0324,0.013523,0.002678,0.000431,0.138448
51172000,0.0324,0.013523,0.002678,0.000431,0.134805
51173000,0.0324,0.013523,0.002678,0.000431,0.130809
51174000,0.0324,0.013523,0.002678,0.000431,0.581177
51175000,0.0324,0.013523,0.002678,0.000431,0.222128
51176000,0.0324,0.013523,0.002678,0.000431,0.253391
51177000,0.0324,0.013523,0.002678,0.000431,0.250688
51178000,0.0324,0.013523,0.002678,0.000431,0.144325
51179000,0.0324,0.013523,0.002678,0.000431,0.135980
51180000,0.0324,0.013523,0.002678,0.000431,0.160896
51181000,0.0324,0.013523,0.002678,0.000431,0.160661
51182000,0.0324,0.013523,0.002678,0.000431,0.472698
51183000,0.0324,0.013523,0.002678,0.000431,0.107538
51184000,0.0324,0.013523,0.002678,0.000431,0.089439
51185000,0.0324,0.013523,0.002678,0.000431,0.076628
51186000,0.0324,0.013523,0.002678,0.000431,0.054768
51187000,0.0324,0.013523,0.002678,0.000431,0.042545
51188000,0.0324,0.013523,0.002678,0.000431,0.042780
51189000,0.0324,0.013523,0.002678,0.000431,0.037021
51190000,0.0324,0.013523,0.002678,0.000431,0.033260
51191000,0.0324,0.013523,0.002678,0.000431,0.035964
51192000,0.0324,0.013523,0.002678,0.000431,0.025034
51193000,0.0324,0.013523,0.002678,0.000431,0.021273
51194000,0.0324,0.013523,0.002678,0.000431,0.020920
51195000,0.0324,0.013523,0.002678,0.000431,0.021273
51196000,0.0324,0.013523,0.002678,0.000431,0.019275
51197000,0.0324,0.013523,0.002678,0.000431,0.018687
51198000,0.0324,0.013523,0.002678,0.000431,0.017159
51199000,0.0324,0.013523,0.002678,0.000431,0.018099
51200000,0.0324,0.013523,0.002678,0.000431,0.019745
51201000,0.0324,0.013523,0.002678,0.000431,0.020332
51202000,0.0324,0.013523,0.002678,0.000431,0.017394
51203000,0.0324,0.013523,0.002678,0.000431,0.012458
51204000,0.0324,0.013523,0.002678,0.000431,0.012105
51205000,0.0324,0.013523,0.002678,0.000431,0.013986
51206000,0.0324,0.013523,0.002678,0.000431,0.015161
51207000,0.0324,0.013523,0.002678,0.000431,0.013046
51208000,0.0324,0.013523,0.002678,0.000431,0.012223
51209000,0.0324,0.013523,0.002678,0.000431,0.012223
51210000,0.0324,0.013523,0.002678,0.000431,0.013163
51211000,0.0324,0.013523,0.002678,0.000431,0.010460
51212000,0.0324,0.013523,0.002678,0.000431,0.010107
51213000,0.0324,0.013523,0.002678,0.000431,0.010107
51214000,0.0324,0.013523,0.002678,0.000431,0.009167
51215000,0.0324,0.013523,0.002678,0.000431,0.008462
51216000,0.0324,0.013523,0.002678,0.000431,0.008580
51217000,0.0324,0.013523,0.002678,0.000431,0.010813
51218000,0.0324,0.013523,0.002678,0.000431,0.009637
51219000,0.0324,0.013523,0.002678,0.000431,0.007757
51220000,0.0324,0.013523,0.002678,0.000431,0.006464
51221000,0.0324,0.013523,0.002678,0.000431,0.007052
51222000,0.0324,0.013523,0.002678,0.000431,0.006699
51223000,0.0324,0.013523,0.002678,0.000431,0.006699
51224000,0.0324,0.013523,0.002678,0.000431,0.007052
51225000,0.0324,0.013523,0.002678,0.000431,0.006699
51226000,0.0324,0.013523,0.002678,0.000431,0.009402
51227000,0.0324,0.013523,0.002678,0.000431,0.005994
51228000,0.0324,0.013523,0.002678,0.000431,0.005876
51229000,0.0324,0.013523,0.002678,0.000431,0.006464
51230000,0.0324,0.013523,0.002678,0.000431,0.005876
51231000,0.0324,0.013523,0.002678,0.000431,0.011400
51232000,0.0324,0.013523,0.002678,0.000431,0.004231
51233000,0.0324,0.013523,0.002678,0.000431,0.004113
51234000,0.0324,0.013523,0.002678,0.000431,0.004113
51235000,0.0324,0.013523,0.002678,0.000431,0.004113
51236000,0.0324,0.013523,0.002678,0.000431,0.004584
51237000,0.0324,0.013523,0.002678,0.000431,0.003761
51238000,0.0324,0.013523,0.002678,0.000431,0.004349
51239000,0.0324,0.013523,0.002678,0.000431,0.004466
51240000,0.0324,0.013523,0.002678,0.000431,0.004113
51241000,0.0324,0.013523,0.002678,0.000431,0.003761
51242000,0.0324,0.013523,0.002678,0.000431,0.004466
51243000,0.0324,0.013523,0.002678,0.000431,0.004466
51244000,0.0324,0.013523,0.002678,0.000431,0.004231
51245000,0.0324,0.013523,0.002678,0.000431,0.003526
51246000,0.0324,0.013523,0.002678,0.000431,0.004701
51247000,0.0324,0.013523,0.002678,0.000431,0.004466
51248000,0.0324,0.013523,0.002678,0.000431,0.004819
51249000,0.0324,0.013523,0.002678,0.000431,0.003761
51250000,0.0324,0.013523,0.002678,0.000431,0.003291
51251000,0.0324,0.013523,0.002678,0.000431,0.003408
51252000,0.0324,0.013523,0.002678,0.000431,0.003056
51253000,0.0324,0.013523,0.002678,0.000431,0.003643
51254000,0.0324,0.013523,0.002678,0.000431,0.003526
51255000,0.0324,0.013523,0.002678,0.000431,0.003173
51256000,0.0324,0.013523,0.002678,0.000431,0.003526
51257000,0.0324,0.013523,0.002678,0.000431,0.003173
51258000,0.0324,0.013523,0.002678,0.000431,0.003408
51259000,0.0324,0.013523,0.002678,0.000431,0.003291
51260000,0.0324,0.013523,0.002678,0.000431,0.003408
51261000,0.0324,0.013523,0.002678,0.000431,0.003526
51262000,0.0324,0.013523,0.002678,0.000431,0.003173
51263000,0.0324,0.013523,0.002678,0.000431,0.003408
51264000,0.0324,0.013523,0.002678,0.000431,0.003291
51265000,0.0324,0.013523,0.002678,0.000431,0.003408
51266000,0.0324,0.013523,0.002678,0.000431,0.003173
51267000,0.0324,0.013523,0.002678,0.000431,0.003291
51268000,0.0324,0.013523,0.002678,0.000431,0.005641
51269000,0.0324,0.013523,0.002678,0.000431,0.002351
51270000,0.0324,0.013523,0.002678,0.000431,0.002468
51271000,0.0324,0.013523,0.002678,0.000431,0.002586
51272000,0.0324,0.013523,0.002678,0.000431,0.002468
51273000,0.0324,0.013523,0.002678,0.000431,0.002586
51274000,0.0324,0.013523,0.002678,0.000431,0.002468
51275000,0.0324,0.013523,0.002678,0.000431,0.002821
51276000,0.0324,0.013523,0.002678,0.000431,0.002233
51277000,0.0324,0.013523,0.002678,0.000431,0.002468
51278000,0.0324,0.013523,0.002678,0.000431,0.002821
51279000,0.0324,0.013523,0.002678,0.000431,0.002586
51280000,0.0324,0.013523,0.002678,0.000431,0.002116
51281000,0.0324,0.013523,0.002678,0.000431,0.002586
51282000,0.0324,0.013523,0.002678,0.000431,0.002821
51283000,0.0324,0.013523,0.002678,0.000431,0.002351
51284000,0.0324,0.013523,0.002678,0.000431,0.002351
51285000,0.0324,0.013523,0.002678,0.000431,0.002938
51286000,0.0324,0.013523,0.002678,0.000431,0.002468
51287000,0.0324,0.013523,0.002678,0.000431,0.002116
51288000,0.0324,0.013523,0.002678,0.000431,0.002586
51289000,0.0324,0.013523,0.002678,0.000431,0.002821
51290000,0.0324,0.013523,0.002678,0.000431,0.002703
51291000,0.0324,0.013523,0.002678,0.000431,0.001998
51292000,0.0324,0.013523,0.002678,0.000431,0.002821
51293000,0.0324,0.013523,0.002678,0.000431,0.002586
51294000,0.0324,0.013523,0.002678,0.000431,0.002468
51295000,0.0324,0.013523,0.002678,0.000431,0.002468
51296000,0.0324,0.013523,0.002678,0.000431,0.002586
51297000,0.0324,0.013523,0.002678,0.000431,0.002468
51298000,0.0324,0.013523,0.002678,0.000431,0.002586
51299000,0.0324,0.013523,0.002678,0.000431,0.002468
51300000,0.0324,0.013523,0.002678,0.000431,0.002586
51301000,0.0324,0.013523,0.002678,0.000431,0.002468
51302000,0.0324,0.013523,0.002678,0.000431,0.002586
51303000,0.0324,0.013523,0.002678,0.000431,0.002468
51304000,0.0324,0.013523,0.002678,0.000431,0.002468
51305000,0.0324,0.013523,0.002678,0.000431,0.002586
51306000,0.0324,0.013523,0.002678,0.000431,0.002468
51307000,0.0324,0.013523,0.002678,0.000431,0.002821
51308000,0.0324,0.013523,0.002678,0.000431,0.002233
51309000,0.0324,0.013523,0.002678,0.000431,0.002468
51310000,0.0324,0.013523,0.002678,0.000431,0.002586
51311000,0.0324,0.013523,0.002678,0.000431,0.002468
51312000,0.0324,0.013523,0.002678,0.000431,0.002468
51313000,0.0324,0.013523,0.002678,0.000431,0.002586
51314000,0.0324,0.013523,0.002678,0.000431,0.002938
51315000,0.0324,0.013523,0.002678,0.000431,0.002116
51316000,0.0324,0.013523,0.002678,0.000431,0.002468
51317000,0.0324,0.013523,0.002678,0.000431,0.002586
51318000,0.0324,0.013523,0.002678,0.000431,0.002821
51319000,0.0324,0.013523,0.002678,0.000431,0.002233
51320000,0.0324,0.013523,0.002678,0.000431,0.002468
51321000,0.0324,0.013523,0.002678,0.000431,0.002821
51322000,0.0324,0.013523,0.002678,0.000431,0.002586
51323000,0.0324,0.013523,0.002678,0.000431,0.002116
51324000,0.0324,0.013523,0.002678,0.000431,0.002821
51325000,0.0324,0.013523,0.002678,0.000431,0.002586
51326000,0.0324,0.013523,0.002678,0.000431,0.002116
51327000,0.0324,0.013523,0.002678,0.000431,0.002586
51328000,0.0324,0.013523,0.002678,0.000431,0.002821
51329000,0.0324,0.013523,0.002678,0.000431,0.002586
51330000,0.0324,0.013523,0.002678,0.000431,0.002116
51331000,0.0324,0.013523,0.002678,0.000431,0.002938
51332000,0.0324,0.013523,0.002678,0.000431,0.002468
51333000,0.0324,0.013523,0.002678,0.000431,0.002468
51334000,0.0324,0.013523,0.002678,0.000431,0.002233
51335000,0.0324,0.013523,0.002678,0.000431,0.002821
51336000,0.0324,0.013523,0.002678,0.000431,0.002703
51337000,0.0324,0.013523,0.002678,0.000431,0.002351
51338000,0.0324,0.013523,0.002678,0.000431,0.002468
51339000,0.0324,0.013523,0.002678,0.000431,0.002586
51340000,0.0324,0.013523,0.002678,0.000431,0.002468
51341000,0.0324,0.013523,0.002678,0.000431,0.002468
51342000,0.0324,0.013523,0.002678,0.000431,0.002586
51343000,0.0324,0.013523,0.002678,0.000431,0.002468
51344000,0.0324,0.013523,0.002678,0.000431,0.002586
51345000,0.0324,0.013523,0.002678,0.000431,0.002468
51346000,0.0324,0.013523,0.002678,0.000431,0.002586
51347000,0.0324,0.013523,0.002678,0.000431,0.002468
51348000,0.0324,0.013523,0.002678,0.000431,0.002586
51349000,0.0324,0.013523,0.002678,0.000431,0.002468
51350000,0.0324,0.013523,0.002678,0.000431,0.002468
51351000,0.0324,0.013523,0.002678,0.000431,0.002586
51352000,0.0324,0.013523,0.002678,0.000431,0.002468
51353000,0.0324,0.013523,0.002678,0.000431,0.002821
51354000,0.0324,0.013523,0.002678,0.000431,0.002233
51355000,0.0324,0.013523,0.002678,0.000431,0.002468
51356000,0.0324,0.013523,0.002678,0.000431,0.002586
51357000,0.0324,0.013523,0.002678,0.000431,0.002821
51358000,0.0324,0.013523,0.002678,0.000431,0.002116
51359000,0.0324,0.013523,0.002678,0.000431,0.002586
51360000,0.0324,0.013523,0.002678,0.000431,0.002938
51361000,0.0324,0.013523,0.002678,0.000431,0.002468
51362000,0.0324,0.013523,0.002678,0.000431,0.002116
51363000,0.0324,0.013523,0.002678,0.000431,0.002586
51364000,0.0324,0.013523,0.002678,0.000431,0.002821
51365000,0.0324,0.013523,0.002678,0.000431,0.002586
51366000,0.0324,0.013523,0.002678,0.000431,0.002116
51367000,0.0324,0.013523,0.002678,0.000431,0.002821
51368000,0.0324,0.013523,0.002678,0.000431,0.002586
51369000,0.0324,0.013523,0.002678,0.000431,0.002116
51370000,0.0324,0.013523,0.002678,0.000431,0.002821
51371000,0.0324,0.013523,0.002678,0.000431,0.002586
51372000,0.0324,0.013523,0.002678,0.000431,0.002468
51373000,0.0324,0.013523,0.002678,0.000431,0.002233
51374000,0.0324,0.013523,0.002678,0.000431,0.002821
51375000,0.0324,0.013523,0.002678,0.000431,0.002586
51376000,0.0324,0.013523,0.002678,0.000431,0.002468
51377000,0.0324,0.013523,0.002678,0.000431,0.002586
51378000,0.0324,0.013523,0.002678,0.000431,0.002468
51379000,0.0324,0.013523,0.002678,0.000431,0.002468
51380000,0.0324,0.013523,0.002678,0.000431,0.002468
51381000,0.0324,0.013523,0.002678,0.000431,0.002586
51382000,0.0324,0.013523,0.002678,0.000431,0.002703
51383000,0.0324,0.013523,0.002678,0.000431,0.002351
51384000,0.0324,0.013523,0.002678,0.000431,0.002468
51385000,0.0324,0.013523,0.002678,0.000431,0.002586
51386000,0.0324,0.013523,0.002678,0.000431,0.002468
51387000,0.0324,0.013523,0.002678,0.000431,0.002468
51388000,0.0324,0.013523,0.002678,0.000431,0.002586
51389000,0.0324,0.013523,0.002678,0.000431,0.002703
51390000,0.0324,0.013523,0.002678,0.000431,0.002351
51391000,0.0324,0.013523,0.002678,0.000431,0.002468
51392000,0.0324,0.013523,0.002678,0.000431,0.002586
51393000,0.0324,0.013523,0.002678,0.000431,0.002468
51394000,0.0324,0.013523,0.002678,0.000431,0.002586
51395000,0.0324,0.013523,0.002678,0.000431,0.002468
51396000,0.0324,0.013523,0.002678,0.000431,0.002821
51397000,0.0324,0.013523,0.002678,0.000431,0.002233
51398000,0.0324,0.013523,0.002678,0.000431,0.002468
51399000,0.0324,0.013523,0.002678,0.000431,0.002821
51400000,0.0324,0.013523,0.002678,0.000431,0.002586
51401000,0.0324,0.013523,0.002678,0.000431,0.002116
51402000,0.0324,0.013523,0.002678,0.000431,0.002586
51403000,0.0324,0.013523,0.002678,0.000431,0.002821
51404000,0.0324,0.013523,0.002678,0.000431,0.002351
51405000,0.0324,0.013523,0.002678,0.000431,0.002351
51406000,0.0324,0.013523,0.002678,0.000431,0.002938
51407000,0.0324,0.013523,0.002678,0.000431,0.002468
51408000,0.0324,0.013523,0.002678,0.000431,0.002116
51409000,0.0324,0.013523,0.002678,0.000431,0.002586
51410000,0.0324,0.013523,0.002678,0.000431,0.002821
51411000,0.0324,0.013523,0.002678,0.000431,0.002703
51412000,0.0324,0.013523,0.002678,0.000431,0.001998
51413000,0.0324,0.013523,0.002678,0.000431,0.002821
51414000,0.0324,0.013523,0.002678,0.000431,0.002586
51415000,0.0324,0.013523,0.002678,0.000431,0.002468
51416000,0.0324,0.013523,0.002678,0.000431,0.002468
51417000,0.0324,0.013523,0.002678,0.000431,0.002586
51418000,0.0324,0.013523,0.002678,0.000431,0.002468
51419000,0.0324,0.013523,0.002678,0.000431,0.002586
51420000,0.0324,0.013523,0.002678,0.000431,0.002468
51421000,0.0324,0.013523,0.002678,0.000431,0.002586
51422000,0.0324,0.013523,0.002678,0.000431,0.002468
51423000,0.0324,0.013523,0.002678,0.000431,0.002586
51424000,0.0324,0.013523,0.002678,0.000431,0.002468
51425000,0.0324,0.013523,0.002678,0.000431,0.002468
51426000,0.0324,0.013523,0.002678,0.000431,0.002586
51427000,0.0324,0.013523,0.002678,0.000431,0.002468
51428000,0.0324,0.013523,0.002678,0.000431,0.002821
51429000,0.0324,0.013523,0.002678,0.000431,0.002233
51430000,0.0324,0.013523,0.002678,0.000431,0.002468
51431000,0.0324,0.013523,0.002678,0.000431,0.002586
51432000,0.0324,0.013523,0.002678,0.000431,0.002468
51433000,0.0324,0.013523,0.002678,0.000431,0.002468
51434000,0.0324,0.013523,0.002678,0.000431,0.002586
51435000,0.0324,0.013523,0.002678,0.000431,0.002938
51436000,0.0324,0.013523,0.002678,0.000431,0.002116
51437000,0.0324,0.013523,0.002678,0.000431,0.002468
51438000,0.0324,0.013523,0.002678,0.000431,0.002586
51439000,0.0324,0.013523,0.002678,0.000431,0.002821
51440000,0.0324,0.013523,0.002678,0.000431,0.002233
51441000,0.0324,0.013523,0.002678,0.000431,0.002468
51442000,0.0324,0.013523,0.002678,0.000431,0.002821
51443000,0.0324,0.013523,0.002678,0.000431,0.002586
51444000,0.0324,0.013523,0.002678,0.000431,0.002116
51445000,0.0324,0.013523,0.002678,0.000431,0.002821
51446000,0.0324,0.013523,0.002678,0.000431,0.002586
51447000,0.0324,0.013523,0.002678,0.000431,0.002116
51448000,0.0324,0.013523,0.002678,0.000431,0.002586
51449000,0.0324,0.013523,0.002678,0.000431,0.002821
51450000,0.0324,0.013523,0.002678,0.000431,0.002586
51451000,0.0324,0.013523,0.002678,0.000431,0.002116
51452000,0.0324,0.013523,0.002678,0.000431,0.002938
51453000,0.0324,0.013523,0.002678,0.000431,0.002468
51454000,0.0324,0.013523,0.002678,0.000431,0.002468
51455000,0.0324,0.013523,0.002678,0.000431,0.002233
51456000,0.0324,0.013523,0.002678,0.000431,0.002821
51457000,0.0324,0.013523,0.002678,0.000431,0.002703
51458000,0.0324,0.013523,0.002678,0.000431,0.002351
51459000,0.0324,0.013523,0.002678,0.000431,0.002468
51460000,0.0324,0.013523,0.002678,0.000431,0.002586
51461000,0.0324,0.013523,0.002678,0.000431,0.002468
51462000,0.0324,0.013523,0.002678,0.000431,0.002468
51463000,0.0324,0.013523,0.002678,0.000431,0.002586
51464000,0.0324,0.013523,0.002678,0.000431,0.002468
51465000,0.0324,0.013523,0.002678,0.000431,0.002586
51466000,0.0324,0.013523,0.002678,0.000431,0.002468
51467000,0.0324,0.013523,0.002678,0.000431,0.002586
51468000,0.0324,0.013523,0.002678,0.000431,0.002468
51469000,0.0324,0.013523,0.002678,0.000431,0.002586
51470000,0.0324,0.013523,0.002678,0.000431,0.002468
51471000,0.0324,0.013523,0.002678,0.000431,0.002468
51472000,0.0324,0.013523,0.002678,0.000431,0.002586
51473000,0.0324,0.013523,0.002678,0.000431,0.002468
51474000,0.0324,0.013523,0.002678,0.000431,0.002821
51475000,0.0324,0.013523,0.002678,0.000431,0.002233
51476000,0.0324,0.013523,0.002678,0.000431,0.002468
51477000,0.0324,0.013523,0.002678,0.000431,0.002586
51478000,0.0324,0.013523,0.002678,0.000431,0.002821
51479000,0.0324,0.013523,0.002678,0.000431,0.002116
51480000,0.0324,0.013523,0.002678,0.000431,0.002586
51481000,0.0324,0.013523,0.002678,0.000431,0.002938
51482000,0.0324,0.013523,0.002678,0.000431,0.002468
51483000,0.0324,0.013523,0.002678,0.000431,0.002116
51484000,0.0324,0.013523,0.002678,0.000431,0.002586
51485000,0.0324,0.013523,0.002678,0.000431,0.002821
51486000,0.0324,0.013523,0.002678,0.000431,0.002586
51487000,0.0324,0.013523,0.002678,0.000431,0.002116
51488000,0.0324,0.013523,0.002678,0.000431,0.002821
51489000,0.0324,0.013523,0.002678,0.000431,0.002586
51490000,0.0324,0.013523,0.002678,0.000431,0.002116
51491000,0.0324,0.013523,0.002678,0.000431,0.002821
51492000,0.0324,0.013523,0.002678,0.000431,0.002586
51493000,0.0324,0.013523,0.002678,0.000431,0.002468
51494000,0.0324,0.013523,0.002678,0.000431,0.002233
51495000,0.0324,0.013523,0.002678,0.000431,0.002821
51496000,0.0324,0.013523,0.002678,0.000431,0.002586
51497000,0.0324,0.013523,0.002678,0.000431,0.002468
51498000,0.0324,0.013523,0.002678,0.000431,0.002586
51499000,0.0324,0.013523,0.002678,0.000431,0.002468
51500000,0.0324,0.013523,0.002678,0.000431,0.002468
51501000,0.0324,0.013523,0.002678,0.000431,0.002468
51502000,0.0324,0.013523,0.002678,0.000431,0.002586
51503000,0.0324,0.013523,0.002678,0.000431,0.002703
51504000,0.0324,0.013523,0.002678,0.000431,0.002351
51505000,0.0324,0.013523,0.002678,0.000431,0.002468
51506000,0.0324,0.013523,0.002678,0.000431,0.002586
51507000,0.0324,0.013523,0.002678,0.000431,0.002468
51508000,0.0324,0.013523,0.002678,0.000431,0.002468
51509000,0.0324,0.013523,0.002678,0.000431,0.002586
51510000,0.0324,0.013523,0.002678,0.000431,0.002703
51511000,0.0324,0.013523,0.002678,0.000431,0.002351
51512000,0.0324,0.013523,0.002678,0.000431,0.002468
51513000,0.0324,0.013523,0.002678,0.000431,0.002586
51514000,0.0324,0.013523,0.002678,0.000431,0.002468
51515000,0.0324,0.013523,0.002678,0.000431,0.002586
51516000,0.0324,0.013523,0.002678,0.000431,0.002468
51517000,0.0324,0.013523,0.002678,0.000431,0.002821
51518000,0.0324,0.013523,0.002678,0.000431,0.002233
51519000,0.0324,0.013523,0.002678,0.000431,0.002468
51520000,0.0324,0.013523,0.002678,0.000431,0.002821
51521000,0.0324,0.013523,0.002678,0.000431,0.002586
51522000,0.0324,0.013523,0.002678,0.000431,0.002116
51523000,0.0324,0.013523,0.002678,0.000431,0.002586
51524000,0.0324,0.013523,0.002678,0.000431,0.002821
51525000,0.0324,0.013523,0.002678,0.000431,0.002351
51526000,0.0324,0.013523,0.002678,0.000431,0.002351
51527000,0.0324,0.013523,0.002678,0.000431,0.002938
51528000,0.0324,0.013523,0.002678,0.000431,0.002468
51529000,0.0324,0.013523,0.002678,0.000431,0.002116
51530000,0.0324,0.013523,0.002678,0.000431,0.002586
51531000,0.0324,0.013523,0.002678,0.000431,0.002821
51532000,0.0324,0.013523,0.002678,0.000431,0.002703
51533000,0.0324,0.013523,0.002678,0.000431,0.006464
51534000,0.0324,0.013523,0.002678,0.000431,0.258797
51535000,0.0324,0.013523,0.002678,0.000431,0.684954
51536000,0.0324,0.013523,0.002678,0.000431,0.326846
51537000,0.0324,0.013523,0.002678,0.000431,0.130691
51538000,0.0324,0.013523,0.002678,0.000431,0.180053
51539000,0.0324,0.013523,0.002678,0.000431,0.639471
51540000,0.0324,0.013523,0.002678,0.000431,0.236349
51541000,0.0324,0.013523,0.002678,0.000431,0.348706
51542000,0.0324,0.013523,0.002678,0.000431,0.195097
51543000,0.0324,0.013523,0.002678,0.000431,0.143737
51544000,0.0324,0.013523,0.002678,0.000431,0.097078
51545000,0.0324,0.013523,0.002678,0.000431,0.387373
51546000,0.0324,0.013523,0.002678,0.000431,0.280305
51547000,0.0324,0.013523,0.002678,0.000431,0.102720
51548000,0.0324,0.013523,0.002678,0.000431,0.081800
51549000,0.0324,0.013523,0.002678,0.000431,0.065933
51550000,0.0324,0.013523,0.002678,0.000431,0.057236
51551000,0.0324,0.013523,0.002678,0.000431,0.050655
51552000,0.0324,0.013523,0.002678,0.000431,0.043720
51553000,0.0324,0.013523,0.002678,0.000431,0.037844
51554000,0.0324,0.013523,0.002678,0.000431,0.024446
51555000,0.0324,0.013523,0.002678,0.000431,0.022918
51556000,0.0324,0.013523,0.002678,0.000431,0.023036
51557000,0.0324,0.013523,0.002678,0.000431,0.027854
51558000,0.0324,0.013523,0.002678,0.000431,0.021860
51559000,0.0324,0.013523,0.002678,0.000431,0.019040
51560000,0.0324,0.013523,0.002678,0.000431,0.017042
51561000,0.0324,0.013523,0.002678,0.000431,0.015749
51562000,0.0324,0.013523,0.002678,0.000431,0.014338
51563000,0.0324,0.013523,0.002678,0.000431,0.014221
51564000,0.0324,0.013523,0.002678,0.000431,0.008227
51565000,0.0324,0.013523,0.002678,0.000431,0.010342
51566000,0.0324,0.013523,0.002678,0.000431,0.008932
51567000,0.0324,0.013523,0.002678,0.000431,0.006817
51568000,0.0324,0.013523,0.002678,0.000431,0.006229
51569000,0.0324,0.013523,0.002678,0.000431,0.006934
51570000,0.0324,0.013523,0.002678,0.000431,0.006582
51571000,0.0324,0.013523,0.002678,0.000431,0.006817
51572000,0.0324,0.013523,0.002678,0.000431,0.006464
51573000,0.0324,0.013523,0.002678,0.000431,0.006817
51574000,0.0324,0.013523,0.002678,0.000431,0.007052
51575000,0.0324,0.013523,0.002678,0.000431,0.006347
51576000,0.0324,0.013523,0.002678,0.000431,0.006464
51577000,0.0324,0.013523,0.002678,0.000431,0.010578
51578000,0.0324,0.013523,0.002678,0.000431,0.007169
51579000,0.0324,0.013523,0.002678,0.000431,0.003996
51580000,0.0324,0.013523,0.002678,0.000431,0.004231
51581000,0.0324,0.013523,0.002678,0.000431,0.004113
51582000,0.0324,0.013523,0.002678,0.000431,0.004113
51583000,0.0324,0.013523,0.002678,0.000431,0.003878
51584000,0.0324,0.013523,0.002678,0.000431,0.004113
51585000,0.0324,0.013523,0.002678,0.000431,0.004231
51586000,0.0324,0.013523,0.002678,0.000431,0.006229
51587000,0.0324,0.013523,0.002678,0.000431,0.003173
51588000,0.0324,0.013523,0.002678,0.000431,0.003056
51589000,0.0324,0.013523,0.002678,0.000431,0.003056
51590000,0.0324,0.013523,0.002678,0.000431,0.003291
51591000,0.0324,0.013523,0.002678,0.000431,0.003173
51592000,0.0324,0.013523,0.002678,0.000431,0.003291
51593000,0.0324,0.013523,0.002678,0.000431,0.003291
51594000,0.0324,0.013523,0.002678,0.000431,0.003173
51595000,0.0324,0.013523,0.002678,0.000431,0.003291
51596000,0.0324,0.013523,0.002678,0.000431,0.003291
51597000,0.0324,0.013523,0.002678,0.000431,0.003291
51598000,0.0324,0.013523,0.002678,0.000431,0.003173
51599000,0.0324,0.013523,0.002678,0.000431,0.003173
51600000,0.0324,0.013523,0.002678,0.000431,0.003291
51601000,0.0324,0.013523,0.002678,0.000431,0.003408
51602000,0.0324,0.013523,0.002678,0.000431,0.003173
51603000,0.0324,0.013523,0.002678,0.000431,0.002703
51604000,0.0324,0.013523,0.002678,0.000431,0.002468
51605000,0.0324,0.013523,0.002678,0.000431,0.002586
51606000,0.0324,0.013523,0.002678,0.000431,0.002703
51607000,0.0324,0.013523,0.002678,0.000431,0.002351
51608000,0.0324,0.013523,0.002678,0.000431,0.002703
51609000,0.0324,0.013523,0.002678,0.000431,0.002468
51610000,0.0324,0.013523,0.002678,0.000431,0.002586
51611000,0.0324,0.013523,0.002678,0.000431,0.002468
51612000,0.0324,0.013523,0.002678,0.000431,0.002586
51613000,0.0324,0.013523,0.002678,0.000431,0.002586
51614000,0.0324,0.013523,0.002678,0.000431,0.002351
51615000,0.0324,0.013523,0.002678,0.000431,0.002821
51616000,0.0324,0.013523,0.002678,0.000431,0.002468
51617000,0.0324,0.013523,0.002678,0.000431,0.002586
51618000,0.0324,0.013523,0.002678,0.000431,0.002351
51619000,0.0324,0.013523,0.002678,0.000431,0.002703
51620000,0.0324,0.013523,0.002678,0.000431,0.002703
51621000,0.0324,0.013523,0.002678,0.000431,0.002351
51622000,0.0324,0.013523,0.002678,0.000431,0.002586
51623000,0.0324,0.013523,0.002678,0.000431,0.003996
51624000,0.0324,0.013523,0.002678,0.000431,0.001763
51625000,0.0324,0.013523,0.002678,0.000431,0.001645
51626000,0.0324,0.013523,0.002678,0.000431,0.001763
51627000,0.0324,0.013523,0.002678,0.000431,0.001645
51628000,0.0324,0.013523,0.002678,0.000431,0.001880
51629000,0.0324,0.013523,0.002678,0.000431,0.003878
51630000,0.0324,0.013523,0.002678,0.000431,0.000940
51631000,0.0324,0.013523,0.002678,0.000431,0.000940
51632000,0.0324,0.013523,0.002678,0.000431,0.000940
51633000,0.0324,0.013523,0.002678,0.000431,0.000705
51634000,0.0324,0.013523,0.002678,0.000431,0.000940
51635000,0.0324,0.013523,0.002678,0.000431,0.000940
51636000,0.0324,0.013523,0.002678,0.000431,0.000823
51637000,0.0324,0.013523,0.002678,0.000431,0.000823
51638000,0.0324,0.013523,0.002678,0.000431,0.000940
51639000,0.0324,0.013523,0.002678,0.000431,0.000940
51640000,0.0324,0.013523,0.002678,0.000431,0.000823
51641000,0.0324,0.013523,0.002678,0.000431,0.014338
51642000,0.0324,0.013523,0.002678,0.000431,0.565546
51643000,0.0324,0.013523,0.002678,0.000431,0.600687
51644000,0.0324,0.013523,0.002678,0.000431,0.133512
51645000,0.0324,0.013523,0.002678,0.000431,0.133042
51646000,0.0324,0.013523,0.002678,0.000431,0.454364
51647000,0.0324,0.013523,0.002678,0.000431,0.315916
51648000,0.0324,0.013523,0.002678,0.000431,0.223068
51649000,0.0324,0.013523,0.002678,0.000431,0.343887
51650000,0.0324,0.013523,0.002678,0.000431,0.161014
51651000,0.0324,0.013523,0.002678,0.000431,0.143502
51652000,0.0324,0.013523,0.002678,0.000431,0.132807
51653000,0.0324,0.013523,0.002678,0.000431,0.292058
51654000,0.0324,0.013523,0.002678,0.000431,0.342007
51655000,0.0324,0.013523,0.002678,0.000431,0.082035
51656000,0.0324,0.013523,0.002678,0.000431,0.072985
51657000,0.0324,0.013523,0.002678,0.000431,0.054298
51658000,0.0324,0.013523,0.002678,0.000431,0.047364
51659000,0.0324,0.013523,0.002678,0.000431,0.042075
51660000,0.0324,0.013523,0.002678,0.000431,0.044191
51661000,0.0324,0.013523,0.002678,0.000431,0.027502
51662000,0.0324,0.013523,0.002678,0.000431,0.026914
51663000,0.0324,0.013523,0.002678,0.000431,0.023858
51664000,0.0324,0.013523,0.002678,0.000431,0.028207
51665000,0.0324,0.013523,0.002678,0.000431,0.022800
51666000,0.0324,0.013523,0.002678,0.000431,0.020567
51667000,0.0324,0.013523,0.002678,0.000431,0.024798
51668000,0.0324,0.013523,0.002678,0.000431,0.020332
51669000,0.0324,0.013523,0.002678,0.000431,0.018805
51670000,0.0324,0.013523,0.002678,0.000431,0.018334
51671000,0.0324,0.013523,0.002678,0.000431,0.015984
51672000,0.0324,0.013523,0.002678,0.000431,0.015514
51673000,0.0324,0.013523,0.002678,0.000431,0.014573
51674000,0.0324,0.013523,0.002678,0.000431,0.016219
51675000,0.0324,0.013523,0.002678,0.000431,0.011635
51676000,0.0324,0.013523,0.002678,0.000431,0.010930
51677000,0.0324,0.013523,0.002678,0.000431,0.012340
51678000,0.0324,0.013523,0.002678,0.000431,0.013633
51679000,0.0324,0.013523,0.002678,0.000431,0.011400
51680000,0.0324,0.013523,0.002678,0.000431,0.009755
51681000,0.0324,0.013523,0.002678,0.000431,0.011635
51682000,0.0324,0.013523,0.002678,0.000431,0.011518
51683000,0.0324,0.013523,0.002678,0.000431,0.009520
51684000,0.0324,0.013523,0.002678,0.000431,0.011753
51685000,0.0324,0.013523,0.002678,0.000431,0.009402
51686000,0.0324,0.013523,0.002678,0.000431,0.013868
51687000,0.0324,0.013523,0.002678,0.000431,0.012458
51688000,0.0324,0.013523,0.002678,0.000431,0.008815
51689000,0.0324,0.013523,0.002678,0.000431,0.005289
51690000,0.0324,0.013523,0.002678,0.000431,0.004936
51691000,0.0324,0.013523,0.002678,0.000431,0.004584
51692000,0.0324,0.013523,0.002678,0.000431,0.005406
51693000,0.0324,0.013523,0.002678,0.000431,0.004231
51694000,0.0324,0.013523,0.002678,0.000431,0.005289
51695000,0.0324,0.013523,0.002678,0.000431,0.004466
51696000,0.0324,0.013523,0.002678,0.000431,0.005171
51697000,0.0324,0.013523,0.002678,0.000431,0.004936
51698000,0.0324,0.013523,0.002678,0.000431,0.003408
51699000,0.0324,0.013523,0.002678,0.000431,0.002468
51700000,0.0324,0.013523,0.002678,0.000431,0.002351
51701000,0.0324,0.013523,0.002678,0.000431,0.002351
51702000,0.0324,0.013523,0.002678,0.000431,0.002586
51703000,0.0324,0.013523,0.002678,0.000431,0.002351
51704000,0.0324,0.013523,0.002678,0.000431,0.002351
51705000,0.0324,0.013523,0.002678,0.000431,0.002586
51706000,0.0324,0.013523,0.002678,0.000431,0.002116
51707000,0.0324,0.013523,0.002678,0.000431,0.002821
51708000,0.0324,0.013523,0.002678,0.000431,0.001998
51709000,0.0324,0.013523,0.002678,0.000431,0.002703
51710000,0.0324,0.013523,0.002678,0.000431,0.002351
51711000,0.0324,0.013523,0.002678,0.000431,0.002351
51712000,0.0324,0.013523,0.002678,0.000431,0.002703
51713000,0.0324,0.013523,0.002678,0.000431,0.002116
51714000,0.0324,0.013523,0.002678,0.000431,0.002586
51715000,0.0324,0.013523,0.002678,0.000431,0.002468
51716000,0.0324,0.013523,0.002678,0.000431,0.002233
51717000,0.0324,0.013523,0.002678,0.000431,0.002468
51718000,0.0324,0.013523,0.002678,0.000431,0.002468
51719000,0.0324,0.013523,0.002678,0.000431,0.002233
51720000,0.0324,0.013523,0.002678,0.000431,0.002586
51721000,0.0324,0.013523,0.002678,0.000431,0.002468
51722000,0.0324,0.013523,0.002678,0.000431,0.002233
51723000,0.0324,0.013523,0.002678,0.000431,0.002351
51724000,0.0324,0.013523,0.002678,0.000431,0.002586
51725000,0.0324,0.013523,0.002678,0.000431,0.003173
51726000,0.0324,0.013523,0.002678,0.000431,0.001645
51727000,0.0324,0.013523,0.002678,0.000431,0.000823
51728000,0.0324,0.013523,0.002678,0.000431,0.000705
51729000,0.0324,0.013523,0.002678,0.000431,0.000940
51730000,0.0324,0.013523,0.002678,0.000431,0.000940
51731000,0.0324,0.013523,0.002678,0.000431,0.000705
51732000,0.0324,0.013523,0.002678,0.000431,0.000940
51733000,0.0324,0.013523,0.002678,0.000431,0.000705
51734000,0.0324,0.013523,0.002678,0.000431,0.000940
51735000,0.0324,0.013523,0.002678,0.000431,0.000823
51736000,0.0324,0.013523,0.002678,0.000431,0.000823
51737000,0.0324,0.013523,0.002678,0.000431,0.000940
51738000,0.0324,0.013523,0.002678,0.000431,0.000705
51739000,0.0324,0.013523,0.002678,0.000431,0.000940
51740000,0.0324,0.013523,0.002678,0.000431,0.000823
51741000,0.0324,0.013523,0.002678,0.000431,0.000823
51742000,0.0324,0.013523,0.002678,0.000431,0.000823
51743000,0.0324,0.013523,0.002678,0.000431,0.001998
51744000,0.0324,0.013523,0.002678,0.000431,0.388548
51745000,0.0324,0.013523,0.002678,0.000431,0.686482
51746000,0.0324,0.013523,0.002678,0.000431,0.185224
51747000,0.0324,0.013523,0.002678,0.000431,0.134452
51748000,0.0324,0.013523,0.002678,0.000431,0.155020
51749000,0.0324,0.013523,0.002678,0.000431,0.638766
51750000,0.0324,0.013523,0.002678,0.000431,0.245046
51751000,0.0324,0.013523,0.002678,0.000431,0.247044
51752000,0.0324,0.013523,0.002678,0.000431,0.208730
51753000,0.0324,0.013523,0.002678,0.000431,0.149261
51754000,0.0324,0.013523,0.002678,0.000431,0.167008
51755000,0.0324,0.013523,0.002678,0.000431,0.134100
51756000,0.0324,0.013523,0.002678,0.000431,0.445432
51757000,0.0324,0.013523,0.002678,0.000431,0.057354
51758000,0.0324,0.013523,0.002678,0.000431,0.034201
51759000,0.0324,0.013523,0.002678,0.000431,0.039489
51760000,0.0324,0.013523,0.002678,0.000431,0.028912
51761000,0.0324,0.013523,0.002678,0.000431,0.029970
51762000,0.0324,0.013523,0.002678,0.000431,0.030910
51763000,0.0324,0.013523,0.002678,0.000431,0.022565
51764000,0.0324,0.013523,0.002678,0.000431,0.023741
51765000,0.0324,0.013523,0.002678,0.000431,0.021860
51766000,0.0324,0.013523,0.002678,0.000431,0.022918
51767000,0.0324,0.013523,0.002678,0.000431,0.022448
51768000,0.0324,0.013523,0.002678,0.000431,0.022213
51769000,0.0324,0.013523,0.002678,0.000431,0.021978
51770000,0.0324,0.013523,0.002678,0.000431,0.023623
51771000,0.0324,0.013523,0.002678,0.000431,0.023976
51772000,0.0324,0.013523,0.002678,0.000431,0.016571
51773000,0.0324,0.013523,0.002678,0.000431,0.017277
51774000,0.0324,0.013523,0.002678,0.000431,0.016336
51775000,0.0324,0.013523,0.002678,0.000431,0.017982
51776000,0.0324,0.013523,0.002678,0.000431,0.013868
51777000,0.0324,0.013523,0.002678,0.000431,0.017512
51778000,0.0324,0.013523,0.002678,0.000431,0.010930
51779000,0.0324,0.013523,0.002678,0.000431,0.011048
51780000,0.0324,0.013523,0.002678,0.000431,0.012340
51781000,0.0324,0.013523,0.002678,0.000431,0.009637
51782000,0.0324,0.013523,0.002678,0.000431,0.010695
51783000,0.0324,0.013523,0.002678,0.000431,0.008815
51784000,0.0324,0.013523,0.002678,0.000431,0.010342
51785000,0.0324,0.013523,0.002678,0.000431,0.009990
51786000,0.0324,0.013523,0.002678,0.000431,0.009402
51787000,0.0324,0.013523,0.002678,0.000431,0.011048
51788000,0.0324,0.013523,0.002678,0.000431,0.008815
51789000,0.0324,0.013523,0.002678,0.000431,0.008932
51790000,0.0324,0.013523,0.002678,0.000431,0.009050
51791000,0.0324,0.013523,0.002678,0.000431,0.008697
51792000,0.0324,0.013523,0.002678,0.000431,0.009520
51793000,0.0324,0.013523,0.002678,0.000431,0.008462
51794000,0.0324,0.013523,0.002678,0.000431,0.010578
51795000,0.0324,0.013523,0.002678,0.000431,0.008462
51796000,0.0324,0.013523,0.002678,0.000431,0.007757
51797000,0.0324,0.013523,0.002678,0.000431,0.009167
51798000,0.0324,0.013523,0.002678,0.000431,0.005524
51799000,0.0324,0.013523,0.002678,0.000431,0.006934
51800000,0.0324,0.013523,0.002678,0.000431,0.006582
51801000,0.0324,0.013523,0.002678,0.000431,0.005876
51802000,0.0324,0.013523,0.002678,0.000431,0.006934
51803000,0.0324,0.013523,0.002678,0.000431,0.006111
51804000,0.0324,0.013523,0.002678,0.000431,0.006699
51805000,0.0324,0.013523,0.002678,0.000431,0.007169
51806000,0.0324,0.013523,0.002678,0.000431,0.005524
51807000,0.0324,0.013523,0.002678,0.000431,0.005289
51808000,0.0324,0.013523,0.002678,0.000431,0.005994
51809000,0.0324,0.013523,0.002678,0.000431,0.005406
51810000,0.0324,0.013523,0.002678,0.000431,0.005759
51811000,0.0324,0.013523,0.002678,0.000431,0.005054
51812000,0.0324,0.013523,0.002678,0.000431,0.005759
51813000,0.0324,0.013523,0.002678,0.000431,0.005759
51814000,0.0324,0.013523,0.002678,0.000431,0.006817
51815000,0.0324,0.013523,0.002678,0.000431,0.005641
51816000,0.0324,0.013523,0.002678,0.000431,0.003643
51817000,0.0324,0.013523,0.002678,0.000431,0.005524
51818000,0.0324,0.013523,0.002678,0.000431,0.004349
51819000,0.0324,0.013523,0.002678,0.000431,0.004819
51820000,0.0324,0.013523,0.002678,0.000431,0.005171
51821000,0.0324,0.013523,0.002678,0.000431,0.004113
51822000,0.0324,0.013523,0.002678,0.000431,0.005054
51823000,0.0324,0.013523,0.002678,0.000431,0.004584
51824000,0.0324,0.013523,0.002678,0.000431,0.004819
51825000,0.0324,0.013523,0.002678,0.000431,0.004701
51826000,0.0324,0.013523,0.002678,0.000431,0.004701
51827000,0.0324,0.013523,0.002678,0.000431,0.004466
51828000,0.0324,0.013523,0.002678,0.000431,0.005289
51829000,0.0324,0.013523,0.002678,0.000431,0.004584
51830000,0.0324,0.013523,0.002678,0.000431,0.003291
51831000,0.0324,0.013523,0.002678,0.000431,0.003056
51832000,0.0324,0.013523,0.002678,0.000431,0.003056
51833000,0.0324,0.013523,0.002678,0.000431,0.003761
51834000,0.0324,0.013523,0.002678,0.000431,0.002351
51835000,0.0324,0.013523,0.002678,0.000431,0.003761
51836000,0.0324,0.013523,0.002678,0.000431,0.002703
51837000,0.0324,0.013523,0.002678,0.000431,0.003408
51838000,0.0324,0.013523,0.002678,0.000431,0.003291
51839000,0.0324,0.013523,0.002678,0.000431,0.002821
51840000,0.0324,0.013523,0.002678,0.000431,0.003526
51841000,0.0324,0.013523,0.002678,0.000431,0.002938
51842000,0.0324,0.013523,0.002678,0.000431,0.003173
51843000,0.0324,0.013523,0.002678,0.000431,0.003291
51844000,0.0324,0.013523,0.002678,0.000431,0.003056
51845000,0.0324,0.013523,0.002678,0.000431,0.003056
51846000,0.0324,0.013523,0.002678,0.000431,0.003408
51847000,0.0324,0.013523,0.002678,0.000431,0.002703
51848000,0.0324,0.013523,0.002678,0.000431,0.003526
51849000,0.0324,0.013523,0.002678,0.000431,0.002938
51850000,0.0324,0.013523,0.002678,0.000431,0.003173
51851000,0.0324,0.013523,0.002678,0.000431,0.003526
51852000,0.0324,0.013523,0.002678,0.000431,0.002586
51853000,0.0324,0.013523,0.002678,0.000431,0.003761
51854000,0.0324,0.013523,0.002678,0.000431,0.002703
51855000,0.0324,0.013523,0.002678,0.000431,0.003408
51856000,0.0324,0.013523,0.002678,0.000431,0.003056
51857000,0.0324,0.013523,0.002678,0.000431,0.003056
51858000,0.0324,0.013523,0.002678,0.000431,0.003526
51859000,0.0324,0.013523,0.002678,0.000431,0.002703
51860000,0.0324,0.013523,0.002678,0.000431,0.003408
51861000,0.0324,0.013523,0.002678,0.000431,0.003056
51862000,0.0324,0.013523,0.002678,0.000431,0.003291
51863000,0.0324,0.013523,0.002678,0.000431,0.003056
51864000,0.0324,0.013523,0.002678,0.000431,0.003056
51865000,0.0324,0.013523,0.002678,0.000431,0.003291
51866000,0.0324,0.013523,0.002678,0.000431,0.003291
51867000,0.0324,0.013523,0.002678,0.000431,0.002821
51868000,0.0324,0.013523,0.002678,0.000431,0.003291
51869000,0.0324,0.013523,0.002678,0.000431,0.003056
51870000,0.0324,0.013523,0.002678,0.000431,0.003056
51871000,0.0324,0.013523,0.002678,0.000431,0.003761
51872000,0.0324,0.013523,0.002678,0.000431,0.002586
51873000,0.0324,0.013523,0.002678,0.000431,0.003526
51874000,0.0324,0.013523,0.002678,0.000431,0.002703
51875000,0.0324,0.013523,0.002678,0.000431,0.003408
51876000,0.0324,0.013523,0.002678,0.000431,0.003526
51877000,0.0324,0.013523,0.002678,0.000431,0.002586
51878000,0.0324,0.013523,0.002678,0.000431,0.003526
51879000,0.0324,0.013523,0.002678,0.000431,0.002938
51880000,0.0324,0.013523,0.002678,0.000431,0.003173
51881000,0.0324,0.013523,0.002678,0.000431,0.003291
51882000,0.0324,0.013523,0.002678,0.000431,0.003056
51883000,0.0324,0.013523,0.002678,0.000431,0.003056
51884000,0.0324,0.013523,0.002678,0.000431,0.003408
51885000,0.0324,0.013523,0.002678,0.000431,0.002938
51886000,0.0324,0.013523,0.002678,0.000431,0.003291
51887000,0.0324,0.013523,0.002678,0.000431,0.002703
51888000,0.0324,0.013523,0.002678,0.000431,0.003408
51889000,0.0324,0.013523,0.002678,0.000431,0.003526
51890000,0.0324,0.013523,0.002678,0.000431,0.002586
51891000,0.0324,0.013523,0.002678,0.000431,0.003761
51892000,0.0324,0.013523,0.002678,0.000431,0.002703
51893000,0.0324,0.013523,0.002678,0.000431,0.003408
51894000,0.0324,0.013523,0.002678,0.000431,0.003056
51895000,0.0324,0.013523,0.002678,0.000431,0.003056
51896000,0.0324,0.013523,0.002678,0.000431,0.003526
51897000,0.0324,0.013523,0.002678,0.000431,0.002703
51898000,0.0324,0.013523,0.002678,0.000431,0.003643
51899000,0.0324,0.013523,0.002678,0.000431,0.002821
51900000,0.0324,0.013523,0.002678,0.000431,0.003291
51901000,0.0324,0.013523,0.002678,0.000431,0.003291
51902000,0.0324,0.013523,0.002678,0.000431,0.002821
51903000,0.0324,0.013523,0.002678,0.000431,0.003291
51904000,0.0324,0.013523,0.002678,0.000431,0.003291
51905000,0.0324,0.013523,0.002678,0.000431,0.002821
51906000,0.0324,0.013523,0.002678,0.000431,0.003291
51907000,0.0324,0.013523,0.002678,0.000431,0.003291
51908000,0.0324,0.013523,0.002678,0.000431,0.002821
51909000,0.0324,0.013523,0.002678,0.000431,0.003761
51910000,0.0324,0.013523,0.002678,0.000431,0.002586
51911000,0.0324,0.013523,0.002678,0.000431,0.003526
51912000,0.0324,0.013523,0.002678,0.000431,0.002703
51913000,0.0324,0.013523,0.002678,0.000431,0.003408
51914000,0.0324,0.013523,0.002678,0.000431,0.003761
51915000,0.0324,0.013523,0.002678,0.000431,0.002351
51916000,0.0324,0.013523,0.002678,0.000431,0.003761
51917000,0.0324,0.013523,0.002678,0.000431,0.002703
51918000,0.0324,0.013523,0.002678,0.000431,0.003408
51919000,0.0324,0.013523,0.002678,0.000431,0.003291
51920000,0.0324,0.013523,0.002678,0.000431,0.002821
51921000,0.0324,0.013523,0.002678,0.000431,0.003291
51922000,0.0324,0.013523,0.002678,0.000431,0.003173
51923000,0.0324,0.013523,0.002678,0.000431,0.003173
51924000,0.0324,0.013523,0.002678,0.000431,0.003056
51925000,0.0324,0.013523,0.002678,0.000431,0.003056
51926000,0.0324,0.013523,0.002678,0.000431,0.003173
51927000,0.0324,0.013523,0.002678,0.000431,0.003408
51928000,0.0324,0.013523,0.002678,0.000431,0.002821
51929000,0.0324,0.013523,0.002678,0.000431,0.003526
51930000,0.0324,0.013523,0.002678,0.000431,0.002703
51931000,0.0324,0.013523,0.002678,0.000431,0.003408
51932000,0.0324,0.013523,0.002678,0.000431,0.003291
51933000,0.0324,0.013523,0.002678,0.000431,0.002821
51934000,0.0324,0.013523,0.002678,0.000431,0.003761
51935000,0.0324,0.013523,0.002678,0.000431,0.002468
51936000,0.0324,0.013523,0.002678,0.000431,0.003643
51937000,0.0324,0.013523,0.002678,0.000431,0.003056
51938000,0.0324,0.013523,0.002678,0.000431,0.003056
51939000,0.0324,0.013523,0.002678,0.000431,0.003291
51940000,0.0324,0.013523,0.002678,0.000431,0.002938
51941000,0.0324,0.013523,0.002678,0.000431,0.003408
51942000,0.0324,0.013523,0.002678,0.000431,0.003056
51943000,0.0324,0.013523,0.002678,0.000431,0.003291
51944000,0.0324,0.013523,0.002678,0.000431,0.003056
51945000,0.0324,0.013523,0.002678,0.000431,0.003173
51946000,0.0324,0.013523,0.002678,0.000431,0.002938
51947000,0.0324,0.013523,0.002678,0.000431,0.003526
51948000,0.0324,0.013523,0.002678,0.000431,0.002586
51949000,0.0324,0.013523,0.002678,0.000431,0.003526
51950000,0.0324,0.013523,0.002678,0.000431,0.002703
51951000,0.0324,0.013523,0.002678,0.000431,0.003408
51952000,0.0324,0.013523,0.002678,0.000431,0.003761
51953000,0.0324,0.013523,0.002678,0.000431,0.002351
51954000,0.0324,0.013523,0.002678,0.000431,0.003761
51955000,0.0324,0.013523,0.002678,0.000431,0.002703
51956000,0.0324,0.013523,0.002678,0.000431,0.003408
51957000,0.0324,0.013523,0.002678,0.000431,0.003291
51958000,0.0324,0.013523,0.002678,0.000431,0.002821
51959000,0.0324,0.013523,0.002678,0.000431,0.003526
51960000,0.0324,0.013523,0.002678,0.000431,0.002938
51961000,0.0324,0.013523,0.002678,0.000431,0.003173
51962000,0.0324,0.013523,0.002678,0.000431,0.003056
51963000,0.0324,0.013523,0.002678,0.000431,0.003291
51964000,0.0324,0.013523,0.002678,0.000431,0.003056
51965000,0.0324,0.013523,0.002678,0.000431,0.003291
51966000,0.0324,0.013523,0.002678,0.000431,0.002821
51967000,0.0324,0.013523,0.002678,0.000431,0.003526
51968000,0.0324,0.013523,0.002678,0.000431,0.002703
51969000,0.0324,0.013523,0.002678,0.000431,0.003408
51970000,0.0324,0.013523,0.002678,0.000431,0.003291
51971000,0.0324,0.013523,0.002678,0.000431,0.002821
51972000,0.0324,0.013523,0.002678,0.000431,0.003761
51973000,0.0324,0.013523,0.002678,0.000431,0.002468
51974000,0.0324,0.013523,0.002678,0.000431,0.003643
51975000,0.0324,0.013523,0.002678,0.000431,0.003056
51976000,0.0324,0.013523,0.002678,0.000431,0.003056
51977000,0.0324,0.013523,0.002678,0.000431,0.003526
51978000,0.0324,0.013523,0.002678,0.000431,0.002703
51979000,0.0324,0.013523,0.002678,0.000431,0.003408
51980000,0.0324,0.013523,0.002678,0.000431,0.003056
51981000,0.0324,0.013523,0.002678,0.000431,0.003056
51982000,0.0324,0.013523,0.002678,0.000431,0.003291
51983000,0.0324,0.013523,0.002678,0.000431,0.003173
51984000,0.0324,0.013523,0.002678,0.000431,0.002938
51985000,0.0324,0.013523,0.002678,0.000431,0.003526
51986000,0.0324,0.013523,0.002678,0.000431,0.002586
51987000,0.0324,0.013523,0.002678,0.000431,0.003526
51988000,0.0324,0.013523,0.002678,0.000431,0.002821
51989000,0.0324,0.013523,0.002678,0.000431,0.003291
51990000,0.0324,0.013523,0.002678,0.000431,0.003526
51991000,0.0324,0.013523,0.002678,0.000431,0.002586
51992000,0.0324,0.013523,0.002678,0.000431,0.003761
51993000,0.0324,0.013523,0.002678,0.000431,0.002703
51994000,0.0324,0.013523,0.002678,0.000431,0.003408
51995000,0.0324,0.013523,0.002678,0.000431,0.003526
51996000,0.0324,0.013523,0.002678,0.000431,0.002586
51997000,0.0324,0.013523,0.002678,0.000431,0.003526
51998000,0.0324,0.013523,0.002678,0.000431,0.002938
51999000,0.0324,0.013523,0.002678,0.000431,0.003173
