Cycle,Area(mm^2),PeakDynamic(W),SubthresholdLeakage(W),GateLeakage(W),RunTimeDynamic(W)
117000000,0.0324,0.013523,0.002678,0.000431,0.012340
117001000,0.0324,0.013523,0.002678,0.000431,0.013986
117002000,0.0324,0.013523,0.002678,0.000431,0.014809
117003000,0.0324,0.013523,0.002678,0.000431,0.011518
117004000,0.0324,0.013523,0.002678,0.000431,0.010107
117005000,0.0324,0.013523,0.002678,0.000431,0.009285
117006000,0.0324,0.013523,0.002678,0.000431,0.008697
117007000,0.0324,0.013523,0.002678,0.000431,0.009050
117008000,0.0324,0.013523,0.002678,0.000431,0.008697
117009000,0.0324,0.013523,0.002678,0.000431,0.009167
117010000,0.0324,0.013523,0.002678,0.000431,0.010225
117011000,0.0324,0.013523,0.002678,0.000431,0.008227
117012000,0.0324,0.013523,0.002678,0.000431,0.007169
117013000,0.0324,0.013523,0.002678,0.000431,0.007404
117014000,0.0324,0.013523,0.002678,0.000431,0.007287
117015000,0.0324,0.013523,0.002678,0.000431,0.007404
117016000,0.0324,0.013523,0.002678,0.000431,0.007052
117017000,0.0324,0.013523,0.002678,0.000431,0.006934
117018000,0.0324,0.013523,0.002678,0.000431,0.006699
117019000,0.0324,0.013523,0.002678,0.000431,0.008580
117020000,0.0324,0.013523,0.002678,0.000431,0.005759
117021000,0.0324,0.013523,0.002678,0.000431,0.005994
117022000,0.0324,0.013523,0.002678,0.000431,0.005994
117023000,0.0324,0.013523,0.002678,0.000431,0.005641
117024000,0.0324,0.013523,0.002678,0.000431,0.005759
117025000,0.0324,0.013523,0.002678,0.000431,0.006111
117026000,0.0324,0.013523,0.002678,0.000431,0.005641
117027000,0.0324,0.013523,0.002678,0.000431,0.005994
117028000,0.0324,0.013523,0.002678,0.000431,0.005994
117029000,0.0324,0.013523,0.002678,0.000431,0.005524
117030000,0.0324,0.013523,0.002678,0.000431,0.005994
117031000,0.0324,0.013523,0.002678,0.000431,0.005759
117032000,0.0324,0.013523,0.002678,0.000431,0.005876
117033000,0.0324,0.013523,0.002678,0.000431,0.006347
117034000,0.0324,0.013523,0.002678,0.000431,0.005524
117035000,0.0324,0.013523,0.002678,0.000431,0.007287
117036000,0.0324,0.013523,0.002678,0.000431,0.005054
117037000,0.0324,0.013523,0.002678,0.000431,0.004936
117038000,0.0324,0.013523,0.002678,0.000431,0.005289
117039000,0.0324,0.013523,0.002678,0.000431,0.004936
117040000,0.0324,0.013523,0.002678,0.000431,0.005054
117041000,0.0324,0.013523,0.002678,0.000431,0.004936
117042000,0.0324,0.013523,0.002678,0.000431,0.005171
117043000,0.0324,0.013523,0.002678,0.000431,0.004819
117044000,0.0324,0.013523,0.002678,0.000431,0.005054
117045000,0.0324,0.013523,0.002678,0.000431,0.004936
117046000,0.0324,0.013523,0.002678,0.000431,0.005054
117047000,0.0324,0.013523,0.002678,0.000431,0.005171
117048000,0.0324,0.013523,0.002678,0.000431,0.005171
117049000,0.0324,0.013523,0.002678,0.000431,0.005054
117050000,0.0324,0.013523,0.002678,0.000431,0.005054
117051000,0.0324,0.013523,0.002678,0.000431,0.005054
117052000,0.0324,0.013523,0.002678,0.000431,0.004819
117053000,0.0324,0.013523,0.002678,0.000431,0.005406
117054000,0.0324,0.013523,0.002678,0.000431,0.004819
117055000,0.0324,0.013523,0.002678,0.000431,0.006229
117056000,0.0324,0.013523,0.002678,0.000431,0.005759
117057000,0.0324,0.013523,0.002678,0.000431,0.004113
117058000,0.0324,0.013523,0.002678,0.000431,0.004113
117059000,0.0324,0.013523,0.002678,0.000431,0.004466
117060000,0.0324,0.013523,0.002678,0.000431,0.003996
117061000,0.0324,0.013523,0.002678,0.000431,0.004584
117062000,0.0324,0.013523,0.002678,0.000431,0.003996
117063000,0.0324,0.013523,0.002678,0.000431,0.004349
117064000,0.0324,0.013523,0.002678,0.000431,0.004349
117065000,0.0324,0.013523,0.002678,0.000431,0.003996
117066000,0.0324,0.013523,0.002678,0.000431,0.004466
117067000,0.0324,0.013523,0.002678,0.000431,0.003996
117068000,0.0324,0.013523,0.002678,0.000431,0.004466
117069000,0.0324,0.013523,0.002678,0.000431,0.003996
117070000,0.0324,0.013523,0.002678,0.000431,0.004349
117071000,0.0324,0.013523,0.002678,0.000431,0.004231
117072000,0.0324,0.013523,0.002678,0.000431,0.004113
117073000,0.0324,0.013523,0.002678,0.000431,0.004466
117074000,0.0324,0.013523,0.002678,0.000431,0.003996
117075000,0.0324,0.013523,0.002678,0.000431,0.004349
117076000,0.0324,0.013523,0.002678,0.000431,0.006464
117077000,0.0324,0.013523,0.002678,0.000431,0.003291
117078000,0.0324,0.013523,0.002678,0.000431,0.003291
117079000,0.0324,0.013523,0.002678,0.000431,0.003526
117080000,0.0324,0.013523,0.002678,0.000431,0.003173
117081000,0.0324,0.013523,0.002678,0.000431,0.003408
117082000,0.0324,0.013523,0.002678,0.000431,0.003643
117083000,0.0324,0.013523,0.002678,0.000431,0.003056
117084000,0.0324,0.013523,0.002678,0.000431,0.003761
117085000,0.0324,0.013523,0.002678,0.000431,0.003173
117086000,0.0324,0.013523,0.002678,0.000431,0.003526
117087000,0.0324,0.013523,0.002678,0.000431,0.003408
117088000,0.0324,0.013523,0.002678,0.000431,0.003173
117089000,0.0324,0.013523,0.002678,0.000431,0.003526
117090000,0.0324,0.013523,0.002678,0.000431,0.003408
117091000,0.0324,0.013523,0.002678,0.000431,0.003408
117092000,0.0324,0.013523,0.002678,0.000431,0.003291
117093000,0.0324,0.013523,0.002678,0.000431,0.003526
117094000,0.0324,0.013523,0.002678,0.000431,0.003408
117095000,0.0324,0.013523,0.002678,0.000431,0.003173
117096000,0.0324,0.013523,0.002678,0.000431,0.003526
117097000,0.0324,0.013523,0.002678,0.000431,0.003408
117098000,0.0324,0.013523,0.002678,0.000431,0.003526
117099000,0.0324,0.013523,0.002678,0.000431,0.003056
117100000,0.0324,0.013523,0.002678,0.000431,0.003526
117101000,0.0324,0.013523,0.002678,0.000431,0.005759
117102000,0.0324,0.013523,0.002678,0.000431,0.002586
117103000,0.0324,0.013523,0.002678,0.000431,0.002586
117104000,0.0324,0.013523,0.002678,0.000431,0.002586
117105000,0.0324,0.013523,0.002678,0.000431,0.002468
117106000,0.0324,0.013523,0.002678,0.000431,0.002586
117107000,0.0324,0.013523,0.002678,0.000431,0.002586
117108000,0.0324,0.013523,0.002678,0.000431,0.002351
117109000,0.0324,0.013523,0.002678,0.000431,0.002821
117110000,0.0324,0.013523,0.002678,0.000431,0.002468
117111000,0.0324,0.013523,0.002678,0.000431,0.002468
117112000,0.0324,0.013523,0.002678,0.000431,0.002703
117113000,0.0324,0.013523,0.002678,0.000431,0.002468
117114000,0.0324,0.013523,0.002678,0.000431,0.002586
117115000,0.0324,0.013523,0.002678,0.000431,0.002586
117116000,0.0324,0.013523,0.002678,0.000431,0.002586
117117000,0.0324,0.013523,0.002678,0.000431,0.002703
117118000,0.0324,0.013523,0.002678,0.000431,0.002233
117119000,0.0324,0.013523,0.002678,0.000431,0.002703
117120000,0.0324,0.013523,0.002678,0.000431,0.002586
117121000,0.0324,0.013523,0.002678,0.000431,0.002468
117122000,0.0324,0.013523,0.002678,0.000431,0.002468
117123000,0.0324,0.013523,0.002678,0.000431,0.002703
117124000,0.0324,0.013523,0.002678,0.000431,0.004349
117125000,0.0324,0.013523,0.002678,0.000431,0.001645
117126000,0.0324,0.013523,0.002678,0.000431,0.001763
117127000,0.0324,0.013523,0.002678,0.000431,0.001645
117128000,0.0324,0.013523,0.002678,0.000431,0.001528
117129000,0.0324,0.013523,0.002678,0.000431,0.001763
117130000,0.0324,0.013523,0.002678,0.000431,0.003408
117131000,0.0324,0.013523,0.002678,0.000431,0.002703
117132000,0.0324,0.013523,0.002678,0.000431,0.000940
117133000,0.0324,0.013523,0.002678,0.000431,0.000705
117134000,0.0324,0.013523,0.002678,0.000431,0.000940
117135000,0.0324,0.013523,0.002678,0.000431,0.000823
117136000,0.0324,0.013523,0.002678,0.000431,0.000823
117137000,0.0324,0.013523,0.002678,0.000431,0.000940
117138000,0.0324,0.013523,0.002678,0.000431,0.000705
117139000,0.0324,0.013523,0.002678,0.000431,0.000940
117140000,0.0324,0.013523,0.002678,0.000431,0.000823
117141000,0.0324,0.013523,0.002678,0.000431,0.000823
117142000,0.0324,0.013523,0.002678,0.000431,0.000823
117143000,0.0324,0.013523,0.002678,0.000431,0.000823
117144000,0.0324,0.013523,0.002678,0.000431,0.000823
117145000,0.0324,0.013523,0.002678,0.000431,0.000823
117146000,0.0324,0.013523,0.002678,0.000431,0.000940
117147000,0.0324,0.013523,0.002678,0.000431,0.000705
117148000,0.0324,0.013523,0.002678,0.000431,0.000823
117149000,0.0324,0.013523,0.002678,0.000431,0.000940
117150000,0.0324,0.013523,0.002678,0.000431,0.000823
117151000,0.0324,0.013523,0.002678,0.000431,0.000823
117152000,0.0324,0.013523,0.002678,0.000431,0.000823
117153000,0.0324,0.013523,0.002678,0.000431,0.000705
117154000,0.0324,0.013523,0.002678,0.000431,0.000940
117155000,0.0324,0.013523,0.002678,0.000431,0.000940
117156000,0.0324,0.013523,0.002678,0.000431,0.000705
117157000,0.0324,0.013523,0.002678,0.000431,0.000940
117158000,0.0324,0.013523,0.002678,0.000431,0.000940
117159000,0.0324,0.013523,0.002678,0.000431,0.000705
117160000,0.0324,0.013523,0.002678,0.000431,0.000940
117161000,0.0324,0.013523,0.002678,0.000431,0.000823
117162000,0.0324,0.013523,0.002678,0.000431,0.000823
117163000,0.0324,0.013523,0.002678,0.000431,0.000940
117164000,0.0324,0.013523,0.002678,0.000431,0.000940
117165000,0.0324,0.013523,0.002678,0.000431,0.000940
117166000,0.0324,0.013523,0.002678,0.000431,0.000705
117167000,0.0324,0.013523,0.002678,0.000431,0.000940
117168000,0.0324,0.013523,0.002678,0.000431,0.000940
117169000,0.0324,0.013523,0.002678,0.000431,0.000940
117170000,0.0324,0.013523,0.002678,0.000431,0.000823
117171000,0.0324,0.013523,0.002678,0.000431,0.000823
117172000,0.0324,0.013523,0.002678,0.000431,0.000940
117173000,0.0324,0.013523,0.002678,0.000431,0.000940
117174000,0.0324,0.013523,0.002678,0.000431,0.000823
117175000,0.0324,0.013523,0.002678,0.000431,0.000823
117176000,0.0324,0.013523,0.002678,0.000431,0.000940
117177000,0.0324,0.013523,0.002678,0.000431,0.000940
117178000,0.0324,0.013523,0.002678,0.000431,0.000823
117179000,0.0324,0.013523,0.002678,0.000431,0.000823
117180000,0.0324,0.013523,0.002678,0.000431,0.000940
117181000,0.0324,0.013523,0.002678,0.000431,0.000940
117182000,0.0324,0.013523,0.002678,0.000431,0.000823
117183000,0.0324,0.013523,0.002678,0.000431,0.000823
117184000,0.0324,0.013523,0.002678,0.000431,0.000940
117185000,0.0324,0.013523,0.002678,0.000431,0.000823
117186000,0.0324,0.013523,0.002678,0.000431,0.000940
117187000,0.0324,0.013523,0.002678,0.000431,0.000823
117188000,0.0324,0.013523,0.002678,0.000431,0.000940
117189000,0.0324,0.013523,0.002678,0.000431,0.000823
117190000,0.0324,0.013523,0.002678,0.000431,0.000823
117191000,0.0324,0.013523,0.002678,0.000431,0.000940
117192000,0.0324,0.013523,0.002678,0.000431,0.000940
117193000,0.0324,0.013523,0.002678,0.000431,0.000705
117194000,0.0324,0.013523,0.002678,0.000431,0.000940
117195000,0.0324,0.013523,0.002678,0.000431,0.000940
117196000,0.0324,0.013523,0.002678,0.000431,0.000940
117197000,0.0324,0.013523,0.002678,0.000431,0.000705
117198000,0.0324,0.013523,0.002678,0.000431,0.000940
117199000,0.0324,0.013523,0.002678,0.000431,0.000940
117200000,0.0324,0.013523,0.002678,0.000431,0.000823
117201000,0.0324,0.013523,0.002678,0.000431,0.000823
117202000,0.0324,0.013523,0.002678,0.000431,0.000940
117203000,0.0324,0.013523,0.002678,0.000431,0.000940
117204000,0.0324,0.013523,0.002678,0.000431,0.000823
117205000,0.0324,0.013523,0.002678,0.000431,0.000823
117206000,0.0324,0.013523,0.002678,0.000431,0.000940
117207000,0.0324,0.013523,0.002678,0.000431,0.000823
117208000,0.0324,0.013523,0.002678,0.000431,0.000940
117209000,0.0324,0.013523,0.002678,0.000431,0.000823
117210000,0.0324,0.013523,0.002678,0.000431,0.000940
117211000,0.0324,0.013523,0.002678,0.000431,0.000823
117212000,0.0324,0.013523,0.002678,0.000431,0.000823
117213000,0.0324,0.013523,0.002678,0.000431,0.000940
117214000,0.0324,0.013523,0.002678,0.000431,0.000940
117215000,0.0324,0.013523,0.002678,0.000431,0.000940
117216000,0.0324,0.013523,0.002678,0.000431,0.000705
117217000,0.0324,0.013523,0.002678,0.000431,0.000940
117218000,0.0324,0.013523,0.002678,0.000431,0.000940
117219000,0.0324,0.013523,0.002678,0.000431,0.000823
117220000,0.0324,0.013523,0.002678,0.000431,0.000823
117221000,0.0324,0.013523,0.002678,0.000431,0.000940
117222000,0.0324,0.013523,0.002678,0.000431,0.000940
117223000,0.0324,0.013523,0.002678,0.000431,0.000823
117224000,0.0324,0.013523,0.002678,0.000431,0.000823
117225000,0.0324,0.013523,0.002678,0.000431,0.000940
117226000,0.0324,0.013523,0.002678,0.000431,0.000823
117227000,0.0324,0.013523,0.002678,0.000431,0.000940
117228000,0.0324,0.013523,0.002678,0.000431,0.000823
117229000,0.0324,0.013523,0.002678,0.000431,0.000940
117230000,0.0324,0.013523,0.002678,0.000431,0.000823
117231000,0.0324,0.013523,0.002678,0.000431,0.000823
117232000,0.0324,0.013523,0.002678,0.000431,0.000940
117233000,0.0324,0.013523,0.002678,0.000431,0.000940
117234000,0.0324,0.013523,0.002678,0.000431,0.000823
117235000,0.0324,0.013523,0.002678,0.000431,0.000823
117236000,0.0324,0.013523,0.002678,0.000431,0.000940
117237000,0.0324,0.013523,0.002678,0.000431,0.000940
117238000,0.0324,0.013523,0.002678,0.000431,0.000823
117239000,0.0324,0.013523,0.002678,0.000431,0.000823
117240000,0.0324,0.013523,0.002678,0.000431,0.000940
117241000,0.0324,0.013523,0.002678,0.000431,0.000705
117242000,0.0324,0.013523,0.002678,0.000431,0.000940
117243000,0.0324,0.013523,0.002678,0.000431,0.000823
117244000,0.0324,0.013523,0.002678,0.000431,0.000823
117245000,0.0324,0.013523,0.002678,0.000431,0.000940
117246000,0.0324,0.013523,0.002678,0.000431,0.000705
117247000,0.0324,0.013523,0.002678,0.000431,0.000940
117248000,0.0324,0.013523,0.002678,0.000431,0.000823
117249000,0.0324,0.013523,0.002678,0.000431,0.000823
117250000,0.0324,0.013523,0.002678,0.000431,0.000823
117251000,0.0324,0.013523,0.002678,0.000431,0.000823
117252000,0.0324,0.013523,0.002678,0.000431,0.000940
117253000,0.0324,0.013523,0.002678,0.000431,0.000940
117254000,0.0324,0.013523,0.002678,0.000431,0.000823
117255000,0.0324,0.013523,0.002678,0.000431,0.000823
117256000,0.0324,0.013523,0.002678,0.000431,0.000940
117257000,0.0324,0.013523,0.002678,0.000431,0.000940
117258000,0.0324,0.013523,0.002678,0.000431,0.000705
117259000,0.0324,0.013523,0.002678,0.000431,0.000940
117260000,0.0324,0.013523,0.002678,0.000431,0.000940
117261000,0.0324,0.013523,0.002678,0.000431,0.000940
117262000,0.0324,0.013523,0.002678,0.000431,0.000705
117263000,0.0324,0.013523,0.002678,0.000431,0.000940
117264000,0.0324,0.013523,0.002678,0.000431,0.000940
117265000,0.0324,0.013523,0.002678,0.000431,0.000823
117266000,0.0324,0.013523,0.002678,0.000431,0.000823
117267000,0.0324,0.013523,0.002678,0.000431,0.015984
117268000,0.0324,0.013523,0.002678,0.000431,0.550855
117269000,0.0324,0.013523,0.002678,0.000431,0.561785
117270000,0.0324,0.013523,0.002678,0.000431,0.184989
117271000,0.0324,0.013523,0.002678,0.000431,0.131632
117272000,0.0324,0.013523,0.002678,0.000431,0.452836
117273000,0.0324,0.013523,0.002678,0.000431,0.349646
117274000,0.0324,0.013523,0.002678,0.000431,0.255506
117275000,0.0324,0.013523,0.002678,0.000431,0.360576
117276000,0.0324,0.013523,0.002678,0.000431,0.155490
117277000,0.0324,0.013523,0.002678,0.000431,0.162071
117278000,0.0324,0.013523,0.002678,0.000431,0.101897
117279000,0.0324,0.013523,0.002678,0.000431,0.444727
117280000,0.0324,0.013523,0.002678,0.000431,0.170651
117281000,0.0324,0.013523,0.002678,0.000431,0.085208
117282000,0.0324,0.013523,0.002678,0.000431,0.073573
117283000,0.0324,0.013523,0.002678,0.000431,0.059822
117284000,0.0324,0.013523,0.002678,0.000431,0.053593
117285000,0.0324,0.013523,0.002678,0.000431,0.043956
117286000,0.0324,0.013523,0.002678,0.000431,0.039254
117287000,0.0324,0.013523,0.002678,0.000431,0.040312
117288000,0.0324,0.013523,0.002678,0.000431,0.035964
117289000,0.0324,0.013523,0.002678,0.000431,0.030675
117290000,0.0324,0.013523,0.002678,0.000431,0.032908
117291000,0.0324,0.013523,0.002678,0.000431,0.025034
117292000,0.0324,0.013523,0.002678,0.000431,0.026796
117293000,0.0324,0.013523,0.002678,0.000431,0.021038
117294000,0.0324,0.013523,0.002678,0.000431,0.022448
117295000,0.0324,0.013523,0.002678,0.000431,0.022330
117296000,0.0324,0.013523,0.002678,0.000431,0.019745
117297000,0.0324,0.013523,0.002678,0.000431,0.017864
117298000,0.0324,0.013523,0.002678,0.000431,0.016336
117299000,0.0324,0.013523,0.002678,0.000431,0.013633
117300000,0.0324,0.013523,0.002678,0.000431,0.014338
117301000,0.0324,0.013523,0.002678,0.000431,0.014691
117302000,0.0324,0.013523,0.002678,0.000431,0.013986
117303000,0.0324,0.013523,0.002678,0.000431,0.014221
117304000,0.0324,0.013523,0.002678,0.000431,0.014809
117305000,0.0324,0.013523,0.002678,0.000431,0.014338
117306000,0.0324,0.013523,0.002678,0.000431,0.013986
117307000,0.0324,0.013523,0.002678,0.000431,0.017159
117308000,0.0324,0.013523,0.002678,0.000431,0.012458
117309000,0.0324,0.013523,0.002678,0.000431,0.012576
117310000,0.0324,0.013523,0.002678,0.000431,0.012928
117311000,0.0324,0.013523,0.002678,0.000431,0.012576
117312000,0.0324,0.013523,0.002678,0.000431,0.012811
117313000,0.0324,0.013523,0.002678,0.000431,0.013046
117314000,0.0324,0.013523,0.002678,0.000431,0.014456
117315000,0.0324,0.013523,0.002678,0.000431,0.011400
117316000,0.0324,0.013523,0.002678,0.000431,0.010813
117317000,0.0324,0.013523,0.002678,0.000431,0.011635
117318000,0.0324,0.013523,0.002678,0.000431,0.010930
117319000,0.0324,0.013523,0.002678,0.000431,0.012105
117320000,0.0324,0.013523,0.002678,0.000431,0.011988
117321000,0.0324,0.013523,0.002678,0.000431,0.011870
117322000,0.0324,0.013523,0.002678,0.000431,0.010225
117323000,0.0324,0.013523,0.002678,0.000431,0.007874
117324000,0.0324,0.013523,0.002678,0.000431,0.007639
117325000,0.0324,0.013523,0.002678,0.000431,0.008227
117326000,0.0324,0.013523,0.002678,0.000431,0.007639
117327000,0.0324,0.013523,0.002678,0.000431,0.007757
117328000,0.0324,0.013523,0.002678,0.000431,0.008227
117329000,0.0324,0.013523,0.002678,0.000431,0.007404
117330000,0.0324,0.013523,0.002678,0.000431,0.008227
117331000,0.0324,0.013523,0.002678,0.000431,0.011048
117332000,0.0324,0.013523,0.002678,0.000431,0.007052
117333000,0.0324,0.013523,0.002678,0.000431,0.007169
117334000,0.0324,0.013523,0.002678,0.000431,0.006817
117335000,0.0324,0.013523,0.002678,0.000431,0.007522
117336000,0.0324,0.013523,0.002678,0.000431,0.006817
117337000,0.0324,0.013523,0.002678,0.000431,0.006699
117338000,0.0324,0.013523,0.002678,0.000431,0.007287
117339000,0.0324,0.013523,0.002678,0.000431,0.007052
117340000,0.0324,0.013523,0.002678,0.000431,0.007287
117341000,0.0324,0.013523,0.002678,0.000431,0.006464
117342000,0.0324,0.013523,0.002678,0.000431,0.007287
117343000,0.0324,0.013523,0.002678,0.000431,0.007404
117344000,0.0324,0.013523,0.002678,0.000431,0.009637
117345000,0.0324,0.013523,0.002678,0.000431,0.006464
117346000,0.0324,0.013523,0.002678,0.000431,0.005994
117347000,0.0324,0.013523,0.002678,0.000431,0.006229
117348000,0.0324,0.013523,0.002678,0.000431,0.006699
117349000,0.0324,0.013523,0.002678,0.000431,0.006817
117350000,0.0324,0.013523,0.002678,0.000431,0.005524
117351000,0.0324,0.013523,0.002678,0.000431,0.005289
117352000,0.0324,0.013523,0.002678,0.000431,0.004936
117353000,0.0324,0.013523,0.002678,0.000431,0.005994
117354000,0.0324,0.013523,0.002678,0.000431,0.005054
117355000,0.0324,0.013523,0.002678,0.000431,0.005406
117356000,0.0324,0.013523,0.002678,0.000431,0.004819
117357000,0.0324,0.013523,0.002678,0.000431,0.005641
117358000,0.0324,0.013523,0.002678,0.000431,0.005876
117359000,0.0324,0.013523,0.002678,0.000431,0.004701
117360000,0.0324,0.013523,0.002678,0.000431,0.005289
117361000,0.0324,0.013523,0.002678,0.000431,0.005524
117362000,0.0324,0.013523,0.002678,0.000431,0.005406
117363000,0.0324,0.013523,0.002678,0.000431,0.005406
117364000,0.0324,0.013523,0.002678,0.000431,0.005054
117365000,0.0324,0.013523,0.002678,0.000431,0.005406
117366000,0.0324,0.013523,0.002678,0.000431,0.005406
117367000,0.0324,0.013523,0.002678,0.000431,0.005054
117368000,0.0324,0.013523,0.002678,0.000431,0.005641
117369000,0.0324,0.013523,0.002678,0.000431,0.005289
117370000,0.0324,0.013523,0.002678,0.000431,0.005054
117371000,0.0324,0.013523,0.002678,0.000431,0.005406
117372000,0.0324,0.013523,0.002678,0.000431,0.005289
117373000,0.0324,0.013523,0.002678,0.000431,0.005994
117374000,0.0324,0.013523,0.002678,0.000431,0.004701
117375000,0.0324,0.013523,0.002678,0.000431,0.005289
117376000,0.0324,0.013523,0.002678,0.000431,0.005524
117377000,0.0324,0.013523,0.002678,0.000431,0.006934
117378000,0.0324,0.013523,0.002678,0.000431,0.006817
117379000,0.0324,0.013523,0.002678,0.000431,0.003878
117380000,0.0324,0.013523,0.002678,0.000431,0.004819
117381000,0.0324,0.013523,0.002678,0.000431,0.004584
117382000,0.0324,0.013523,0.002678,0.000431,0.004231
117383000,0.0324,0.013523,0.002678,0.000431,0.004349
117384000,0.0324,0.013523,0.002678,0.000431,0.004584
117385000,0.0324,0.013523,0.002678,0.000431,0.004466
117386000,0.0324,0.013523,0.002678,0.000431,0.004701
117387000,0.0324,0.013523,0.002678,0.000431,0.004231
117388000,0.0324,0.013523,0.002678,0.000431,0.004349
117389000,0.0324,0.013523,0.002678,0.000431,0.004584
117390000,0.0324,0.013523,0.002678,0.000431,0.004231
117391000,0.0324,0.013523,0.002678,0.000431,0.004936
117392000,0.0324,0.013523,0.002678,0.000431,0.004113
117393000,0.0324,0.013523,0.002678,0.000431,0.004349
117394000,0.0324,0.013523,0.002678,0.000431,0.004231
117395000,0.0324,0.013523,0.002678,0.000431,0.004584
117396000,0.0324,0.013523,0.002678,0.000431,0.005289
117397000,0.0324,0.013523,0.002678,0.000431,0.003173
117398000,0.0324,0.013523,0.002678,0.000431,0.004936
117399000,0.0324,0.013523,0.002678,0.000431,0.005524
117400000,0.0324,0.013523,0.002678,0.000431,0.003761
117401000,0.0324,0.013523,0.002678,0.000431,0.003878
117402000,0.0324,0.013523,0.002678,0.000431,0.003056
117403000,0.0324,0.013523,0.002678,0.000431,0.003643
117404000,0.0324,0.013523,0.002678,0.000431,0.003761
117405000,0.0324,0.013523,0.002678,0.000431,0.003408
117406000,0.0324,0.013523,0.002678,0.000431,0.003643
117407000,0.0324,0.013523,0.002678,0.000431,0.003408
117408000,0.0324,0.013523,0.002678,0.000431,0.003526
117409000,0.0324,0.013523,0.002678,0.000431,0.003878
117410000,0.0324,0.013523,0.002678,0.000431,0.003056
117411000,0.0324,0.013523,0.002678,0.000431,0.004231
117412000,0.0324,0.013523,0.002678,0.000431,0.003056
117413000,0.0324,0.013523,0.002678,0.000431,0.003761
117414000,0.0324,0.013523,0.002678,0.000431,0.003643
117415000,0.0324,0.013523,0.002678,0.000431,0.003408
117416000,0.0324,0.013523,0.002678,0.000431,0.004113
117417000,0.0324,0.013523,0.002678,0.000431,0.002938
117418000,0.0324,0.013523,0.002678,0.000431,0.003878
117419000,0.0324,0.013523,0.002678,0.000431,0.003643
117420000,0.0324,0.013523,0.002678,0.000431,0.003291
117421000,0.0324,0.013523,0.002678,0.000431,0.003996
117422000,0.0324,0.013523,0.002678,0.000431,0.003173
117423000,0.0324,0.013523,0.002678,0.000431,0.003643
117424000,0.0324,0.013523,0.002678,0.000431,0.003761
117425000,0.0324,0.013523,0.002678,0.000431,0.003173
117426000,0.0324,0.013523,0.002678,0.000431,0.003878
117427000,0.0324,0.013523,0.002678,0.000431,0.003408
117428000,0.0324,0.013523,0.002678,0.000431,0.003291
117429000,0.0324,0.013523,0.002678,0.000431,0.005289
117430000,0.0324,0.013523,0.002678,0.000431,0.003526
117431000,0.0324,0.013523,0.002678,0.000431,0.002938
117432000,0.0324,0.013523,0.002678,0.000431,0.002938
117433000,0.0324,0.013523,0.002678,0.000431,0.002586
117434000,0.0324,0.013523,0.002678,0.000431,0.002821
117435000,0.0324,0.013523,0.002678,0.000431,0.002703
117436000,0.0324,0.013523,0.002678,0.000431,0.002821
117437000,0.0324,0.013523,0.002678,0.000431,0.003408
117438000,0.0324,0.013523,0.002678,0.000431,0.000940
117439000,0.0324,0.013523,0.002678,0.000431,0.001410
117440000,0.0324,0.013523,0.002678,0.000431,0.000823
117441000,0.0324,0.013523,0.002678,0.000431,0.001175
117442000,0.0324,0.013523,0.002678,0.000431,0.001175
117443000,0.0324,0.013523,0.002678,0.000431,0.000940
117444000,0.0324,0.013523,0.002678,0.000431,0.001528
117445000,0.0324,0.013523,0.002678,0.000431,0.000705
117446000,0.0324,0.013523,0.002678,0.000431,0.001293
117447000,0.0324,0.013523,0.002678,0.000431,0.001175
117448000,0.0324,0.013523,0.002678,0.000431,0.000940
117449000,0.0324,0.013523,0.002678,0.000431,0.001410
117450000,0.0324,0.013523,0.002678,0.000431,0.000823
117451000,0.0324,0.013523,0.002678,0.000431,0.000940
117452000,0.0324,0.013523,0.002678,0.000431,0.001410
117453000,0.0324,0.013523,0.002678,0.000431,0.001058
117454000,0.0324,0.013523,0.002678,0.000431,0.001175
117455000,0.0324,0.013523,0.002678,0.000431,0.001058
117456000,0.0324,0.013523,0.002678,0.000431,0.000940
117457000,0.0324,0.013523,0.002678,0.000431,0.001410
117458000,0.0324,0.013523,0.002678,0.000431,0.000823
117459000,0.0324,0.013523,0.002678,0.000431,0.001410
117460000,0.0324,0.013523,0.002678,0.000431,0.001058
117461000,0.0324,0.013523,0.002678,0.000431,0.000940
117462000,0.0324,0.013523,0.002678,0.000431,0.001410
117463000,0.0324,0.013523,0.002678,0.000431,0.000823
117464000,0.0324,0.013523,0.002678,0.000431,0.001410
117465000,0.0324,0.013523,0.002678,0.000431,0.000940
117466000,0.0324,0.013523,0.002678,0.000431,0.001058
117467000,0.0324,0.013523,0.002678,0.000431,0.001293
117468000,0.0324,0.013523,0.002678,0.000431,0.000823
117469000,0.0324,0.013523,0.002678,0.000431,0.001528
117470000,0.0324,0.013523,0.002678,0.000431,0.001058
117471000,0.0324,0.013523,0.002678,0.000431,0.001058
117472000,0.0324,0.013523,0.002678,0.000431,0.001528
117473000,0.0324,0.013523,0.002678,0.000431,0.001528
117474000,0.0324,0.013523,0.002678,0.000431,0.001528
117475000,0.0324,0.013523,0.002678,0.000431,0.000823
117476000,0.0324,0.013523,0.002678,0.000431,0.001410
117477000,0.0324,0.013523,0.002678,0.000431,0.001058
117478000,0.0324,0.013523,0.002678,0.000431,0.001175
117479000,0.0324,0.013523,0.002678,0.000431,0.001293
117480000,0.0324,0.013523,0.002678,0.000431,0.000823
117481000,0.0324,0.013523,0.002678,0.000431,0.001528
117482000,0.0324,0.013523,0.002678,0.000431,0.001058
117483000,0.0324,0.013523,0.002678,0.000431,0.001058
117484000,0.0324,0.013523,0.002678,0.000431,0.001293
117485000,0.0324,0.013523,0.002678,0.000431,0.001528
117486000,0.0324,0.013523,0.002678,0.000431,0.008580
117487000,0.0324,0.013523,0.002678,0.000431,0.517359
117488000,0.0324,0.013523,0.002678,0.000431,0.623840
117489000,0.0324,0.013523,0.002678,0.000431,0.133512
117490000,0.0324,0.013523,0.002678,0.000431,0.133982
117491000,0.0324,0.013523,0.002678,0.000431,0.396775
117492000,0.0324,0.013523,0.002678,0.000431,0.443316
117493000,0.0324,0.013523,0.002678,0.000431,0.220130
117494000,0.0324,0.013523,0.002678,0.000431,0.363280
117495000,0.0324,0.013523,0.002678,0.000431,0.137155
117496000,0.0324,0.013523,0.002678,0.000431,0.161131
117497000,0.0324,0.013523,0.002678,0.000431,0.096138
117498000,0.0324,0.013523,0.002678,0.000431,0.444374
117499000,0.0324,0.013523,0.002678,0.000431,0.179230
117500000,0.0324,0.013523,0.002678,0.000431,0.081565
117501000,0.0324,0.013523,0.002678,0.000431,0.075336
117502000,0.0324,0.013523,0.002678,0.000431,0.060527
117503000,0.0324,0.013523,0.002678,0.000431,0.059587
117504000,0.0324,0.013523,0.002678,0.000431,0.046424
117505000,0.0324,0.013523,0.002678,0.000431,0.048657
117506000,0.0324,0.013523,0.002678,0.000431,0.041840
117507000,0.0324,0.013523,0.002678,0.000431,0.034436
117508000,0.0324,0.013523,0.002678,0.000431,0.031262
117509000,0.0324,0.013523,0.002678,0.000431,0.036316
117510000,0.0324,0.013523,0.002678,0.000431,0.028442
117511000,0.0324,0.013523,0.002678,0.000431,0.029029
117512000,0.0324,0.013523,0.002678,0.000431,0.024916
117513000,0.0324,0.013523,0.002678,0.000431,0.029735
117514000,0.0324,0.013523,0.002678,0.000431,0.025974
117515000,0.0324,0.013523,0.002678,0.000431,0.023271
117516000,0.0324,0.013523,0.002678,0.000431,0.022918
117517000,0.0324,0.013523,0.002678,0.000431,0.019040
117518000,0.0324,0.013523,0.002678,0.000431,0.020802
117519000,0.0324,0.013523,0.002678,0.000431,0.021390
117520000,0.0324,0.013523,0.002678,0.000431,0.023271
117521000,0.0324,0.013523,0.002678,0.000431,0.016807
117522000,0.0324,0.013523,0.002678,0.000431,0.016336
117523000,0.0324,0.013523,0.002678,0.000431,0.013281
117524000,0.0324,0.013523,0.002678,0.000431,0.013398
117525000,0.0324,0.013523,0.002678,0.000431,0.016924
117526000,0.0324,0.013523,0.002678,0.000431,0.013398
117527000,0.0324,0.013523,0.002678,0.000431,0.010578
117528000,0.0324,0.013523,0.002678,0.000431,0.011518
117529000,0.0324,0.013523,0.002678,0.000431,0.011165
117530000,0.0324,0.013523,0.002678,0.000431,0.012340
117531000,0.0324,0.013523,0.002678,0.000431,0.009637
117532000,0.0324,0.013523,0.002678,0.000431,0.011870
117533000,0.0324,0.013523,0.002678,0.000431,0.006582
117534000,0.0324,0.013523,0.002678,0.000431,0.006582
117535000,0.0324,0.013523,0.002678,0.000431,0.006111
117536000,0.0324,0.013523,0.002678,0.000431,0.006934
117537000,0.0324,0.013523,0.002678,0.000431,0.006699
117538000,0.0324,0.013523,0.002678,0.000431,0.005876
117539000,0.0324,0.013523,0.002678,0.000431,0.007052
117540000,0.0324,0.013523,0.002678,0.000431,0.005876
117541000,0.0324,0.013523,0.002678,0.000431,0.007052
117542000,0.0324,0.013523,0.002678,0.000431,0.006699
117543000,0.0324,0.013523,0.002678,0.000431,0.006111
117544000,0.0324,0.013523,0.002678,0.000431,0.006464
117545000,0.0324,0.013523,0.002678,0.000431,0.006582
117546000,0.0324,0.013523,0.002678,0.000431,0.006699
117547000,0.0324,0.013523,0.002678,0.000431,0.006347
117548000,0.0324,0.013523,0.002678,0.000431,0.006934
117549000,0.0324,0.013523,0.002678,0.000431,0.005406
117550000,0.0324,0.013523,0.002678,0.000431,0.007169
117551000,0.0324,0.013523,0.002678,0.000431,0.007287
117552000,0.0324,0.013523,0.002678,0.000431,0.007052
117553000,0.0324,0.013523,0.002678,0.000431,0.005876
117554000,0.0324,0.013523,0.002678,0.000431,0.005524
117555000,0.0324,0.013523,0.002678,0.000431,0.005406
117556000,0.0324,0.013523,0.002678,0.000431,0.005759
117557000,0.0324,0.013523,0.002678,0.000431,0.005876
117558000,0.0324,0.013523,0.002678,0.000431,0.005641
117559000,0.0324,0.013523,0.002678,0.000431,0.005759
117560000,0.0324,0.013523,0.002678,0.000431,0.005524
117561000,0.0324,0.013523,0.002678,0.000431,0.005759
117562000,0.0324,0.013523,0.002678,0.000431,0.005876
117563000,0.0324,0.013523,0.002678,0.000431,0.006934
117564000,0.0324,0.013523,0.002678,0.000431,0.004349
117565000,0.0324,0.013523,0.002678,0.000431,0.004113
117566000,0.0324,0.013523,0.002678,0.000431,0.004231
117567000,0.0324,0.013523,0.002678,0.000431,0.004349
117568000,0.0324,0.013523,0.002678,0.000431,0.003878
117569000,0.0324,0.013523,0.002678,0.000431,0.004231
117570000,0.0324,0.013523,0.002678,0.000431,0.003996
117571000,0.0324,0.013523,0.002678,0.000431,0.004349
117572000,0.0324,0.013523,0.002678,0.000431,0.004113
117573000,0.0324,0.013523,0.002678,0.000431,0.004113
117574000,0.0324,0.013523,0.002678,0.000431,0.004231
117575000,0.0324,0.013523,0.002678,0.000431,0.006111
117576000,0.0324,0.013523,0.002678,0.000431,0.003173
117577000,0.0324,0.013523,0.002678,0.000431,0.003643
117578000,0.0324,0.013523,0.002678,0.000431,0.003056
117579000,0.0324,0.013523,0.002678,0.000431,0.003173
117580000,0.0324,0.013523,0.002678,0.000431,0.002703
117581000,0.0324,0.013523,0.002678,0.000431,0.002703
117582000,0.0324,0.013523,0.002678,0.000431,0.002586
117583000,0.0324,0.013523,0.002678,0.000431,0.002586
117584000,0.0324,0.013523,0.002678,0.000431,0.002586
117585000,0.0324,0.013523,0.002678,0.000431,0.002586
117586000,0.0324,0.013523,0.002678,0.000431,0.003761
117587000,0.0324,0.013523,0.002678,0.000431,0.001763
117588000,0.0324,0.013523,0.002678,0.000431,0.003878
117589000,0.0324,0.013523,0.002678,0.000431,0.001645
117590000,0.0324,0.013523,0.002678,0.000431,0.338951
117591000,0.0324,0.013523,0.002678,0.000431,0.631361
117592000,0.0324,0.013523,0.002678,0.000431,0.260207
117593000,0.0324,0.013523,0.002678,0.000431,0.135745
117594000,0.0324,0.013523,0.002678,0.000431,0.164187
117595000,0.0324,0.013523,0.002678,0.000431,0.608443
117596000,0.0324,0.013523,0.002678,0.000431,0.266084
117597000,0.0324,0.013523,0.002678,0.000431,0.276309
117598000,0.0324,0.013523,0.002678,0.000431,0.223304
117599000,0.0324,0.013523,0.002678,0.000431,0.139506
117600000,0.0324,0.013523,0.002678,0.000431,0.144912
117601000,0.0324,0.013523,0.002678,0.000431,0.223891
117602000,0.0324,0.013523,0.002678,0.000431,0.381261
117603000,0.0324,0.013523,0.002678,0.000431,0.077804
117604000,0.0324,0.013523,0.002678,0.000431,0.066638
117605000,0.0324,0.013523,0.002678,0.000431,0.047364
117606000,0.0324,0.013523,0.002678,0.000431,0.046306
117607000,0.0324,0.013523,0.002678,0.000431,0.037962
117608000,0.0324,0.013523,0.002678,0.000431,0.037374
117609000,0.0324,0.013523,0.002678,0.000431,0.033025
117610000,0.0324,0.013523,0.002678,0.000431,0.028559
117611000,0.0324,0.013523,0.002678,0.000431,0.028207
117612000,0.0324,0.013523,0.002678,0.000431,0.021625
117613000,0.0324,0.013523,0.002678,0.000431,0.021155
117614000,0.0324,0.013523,0.002678,0.000431,0.019392
117615000,0.0324,0.013523,0.002678,0.000431,0.023623
117616000,0.0324,0.013523,0.002678,0.000431,0.018099
117617000,0.0324,0.013523,0.002678,0.000431,0.015984
117618000,0.0324,0.013523,0.002678,0.000431,0.018805
117619000,0.0324,0.013523,0.002678,0.000431,0.015631
117620000,0.0324,0.013523,0.002678,0.000431,0.015161
117621000,0.0324,0.013523,0.002678,0.000431,0.012458
117622000,0.0324,0.013523,0.002678,0.000431,0.011870
117623000,0.0324,0.013523,0.002678,0.000431,0.011635
117624000,0.0324,0.013523,0.002678,0.000431,0.011635
117625000,0.0324,0.013523,0.002678,0.000431,0.009637
117626000,0.0324,0.013523,0.002678,0.000431,0.010107
117627000,0.0324,0.013523,0.002678,0.000431,0.009872
117628000,0.0324,0.013523,0.002678,0.000431,0.012223
117629000,0.0324,0.013523,0.002678,0.000431,0.009402
117630000,0.0324,0.013523,0.002678,0.000431,0.008815
117631000,0.0324,0.013523,0.002678,0.000431,0.010225
117632000,0.0324,0.013523,0.002678,0.000431,0.008815
117633000,0.0324,0.013523,0.002678,0.000431,0.007757
117634000,0.0324,0.013523,0.002678,0.000431,0.007757
117635000,0.0324,0.013523,0.002678,0.000431,0.007522
117636000,0.0324,0.013523,0.002678,0.000431,0.007757
117637000,0.0324,0.013523,0.002678,0.000431,0.007287
117638000,0.0324,0.013523,0.002678,0.000431,0.007639
117639000,0.0324,0.013523,0.002678,0.000431,0.009167
117640000,0.0324,0.013523,0.002678,0.000431,0.010107
117641000,0.0324,0.013523,0.002678,0.000431,0.006347
117642000,0.0324,0.013523,0.002678,0.000431,0.005876
117643000,0.0324,0.013523,0.002678,0.000431,0.007169
117644000,0.0324,0.013523,0.002678,0.000431,0.005289
117645000,0.0324,0.013523,0.002678,0.000431,0.004819
117646000,0.0324,0.013523,0.002678,0.000431,0.004701
117647000,0.0324,0.013523,0.002678,0.000431,0.004819
117648000,0.0324,0.013523,0.002678,0.000431,0.005524
117649000,0.0324,0.013523,0.002678,0.000431,0.004819
117650000,0.0324,0.013523,0.002678,0.000431,0.005289
117651000,0.0324,0.013523,0.002678,0.000431,0.004819
117652000,0.0324,0.013523,0.002678,0.000431,0.006582
117653000,0.0324,0.013523,0.002678,0.000431,0.005524
117654000,0.0324,0.013523,0.002678,0.000431,0.003526
117655000,0.0324,0.013523,0.002678,0.000431,0.003408
117656000,0.0324,0.013523,0.002678,0.000431,0.003643
117657000,0.0324,0.013523,0.002678,0.000431,0.003291
117658000,0.0324,0.013523,0.002678,0.000431,0.003526
117659000,0.0324,0.013523,0.002678,0.000431,0.003526
117660000,0.0324,0.013523,0.002678,0.000431,0.003526
117661000,0.0324,0.013523,0.002678,0.000431,0.003291
117662000,0.0324,0.013523,0.002678,0.000431,0.004584
117663000,0.0324,0.013523,0.002678,0.000431,0.002703
117664000,0.0324,0.013523,0.002678,0.000431,0.002703
117665000,0.0324,0.013523,0.002678,0.000431,0.002351
117666000,0.0324,0.013523,0.002678,0.000431,0.002703
117667000,0.0324,0.013523,0.002678,0.000431,0.002586
117668000,0.0324,0.013523,0.002678,0.000431,0.002703
117669000,0.0324,0.013523,0.002678,0.000431,0.002468
117670000,0.0324,0.013523,0.002678,0.000431,0.002586
117671000,0.0324,0.013523,0.002678,0.000431,0.002821
117672000,0.0324,0.013523,0.002678,0.000431,0.002468
117673000,0.0324,0.013523,0.002678,0.000431,0.002468
117674000,0.0324,0.013523,0.002678,0.000431,0.002703
117675000,0.0324,0.013523,0.002678,0.000431,0.002586
117676000,0.0324,0.013523,0.002678,0.000431,0.002586
117677000,0.0324,0.013523,0.002678,0.000431,0.002468
117678000,0.0324,0.013523,0.002678,0.000431,0.002703
117679000,0.0324,0.013523,0.002678,0.000431,0.002586
117680000,0.0324,0.013523,0.002678,0.000431,0.002586
117681000,0.0324,0.013523,0.002678,0.000431,0.002703
117682000,0.0324,0.013523,0.002678,0.000431,0.002468
117683000,0.0324,0.013523,0.002678,0.000431,0.002703
117684000,0.0324,0.013523,0.002678,0.000431,0.002468
117685000,0.0324,0.013523,0.002678,0.000431,0.002586
117686000,0.0324,0.013523,0.002678,0.000431,0.002703
117687000,0.0324,0.013523,0.002678,0.000431,0.002586
117688000,0.0324,0.013523,0.002678,0.000431,0.002468
117689000,0.0324,0.013523,0.002678,0.000431,0.002703
117690000,0.0324,0.013523,0.002678,0.000431,0.002586
117691000,0.0324,0.013523,0.002678,0.000431,0.002703
117692000,0.0324,0.013523,0.002678,0.000431,0.002233
117693000,0.0324,0.013523,0.002678,0.000431,0.002821
117694000,0.0324,0.013523,0.002678,0.000431,0.002703
117695000,0.0324,0.013523,0.002678,0.000431,0.002468
117696000,0.0324,0.013523,0.002678,0.000431,0.002703
117697000,0.0324,0.013523,0.002678,0.000431,0.002468
117698000,0.0324,0.013523,0.002678,0.000431,0.002703
117699000,0.0324,0.013523,0.002678,0.000431,0.002586
117700000,0.0324,0.013523,0.002678,0.000431,0.002468
117701000,0.0324,0.013523,0.002678,0.000431,0.002821
117702000,0.0324,0.013523,0.002678,0.000431,0.002351
117703000,0.0324,0.013523,0.002678,0.000431,0.004349
117704000,0.0324,0.013523,0.002678,0.000431,0.001645
117705000,0.0324,0.013523,0.002678,0.000431,0.001880
117706000,0.0324,0.013523,0.002678,0.000431,0.001763
117707000,0.0324,0.013523,0.002678,0.000431,0.001645
117708000,0.0324,0.013523,0.002678,0.000431,0.001880
117709000,0.0324,0.013523,0.002678,0.000431,0.001645
117710000,0.0324,0.013523,0.002678,0.000431,0.001763
117711000,0.0324,0.013523,0.002678,0.000431,0.001645
117712000,0.0324,0.013523,0.002678,0.000431,0.001880
117713000,0.0324,0.013523,0.002678,0.000431,0.001645
117714000,0.0324,0.013523,0.002678,0.000431,0.001645
117715000,0.0324,0.013523,0.002678,0.000431,0.001880
117716000,0.0324,0.013523,0.002678,0.000431,0.001645
117717000,0.0324,0.013523,0.002678,0.000431,0.001645
117718000,0.0324,0.013523,0.002678,0.000431,0.001763
117719000,0.0324,0.013523,0.002678,0.000431,0.001763
117720000,0.0324,0.013523,0.002678,0.000431,0.003408
117721000,0.0324,0.013523,0.002678,0.000431,0.000705
117722000,0.0324,0.013523,0.002678,0.000431,0.000940
117723000,0.0324,0.013523,0.002678,0.000431,0.000940
117724000,0.0324,0.013523,0.002678,0.000431,0.000823
117725000,0.0324,0.013523,0.002678,0.000431,0.000823
117726000,0.0324,0.013523,0.002678,0.000431,0.000940
117727000,0.0324,0.013523,0.002678,0.000431,0.000940
117728000,0.0324,0.013523,0.002678,0.000431,0.000823
117729000,0.0324,0.013523,0.002678,0.000431,0.000823
117730000,0.0324,0.013523,0.002678,0.000431,0.000940
117731000,0.0324,0.013523,0.002678,0.000431,0.000823
117732000,0.0324,0.013523,0.002678,0.000431,0.000940
117733000,0.0324,0.013523,0.002678,0.000431,0.000823
117734000,0.0324,0.013523,0.002678,0.000431,0.000940
117735000,0.0324,0.013523,0.002678,0.000431,0.000823
117736000,0.0324,0.013523,0.002678,0.000431,0.000823
117737000,0.0324,0.013523,0.002678,0.000431,0.000940
117738000,0.0324,0.013523,0.002678,0.000431,0.000940
117739000,0.0324,0.013523,0.002678,0.000431,0.000823
117740000,0.0324,0.013523,0.002678,0.000431,0.000823
117741000,0.0324,0.013523,0.002678,0.000431,0.000940
117742000,0.0324,0.013523,0.002678,0.000431,0.000940
117743000,0.0324,0.013523,0.002678,0.000431,0.000823
117744000,0.0324,0.013523,0.002678,0.000431,0.000823
117745000,0.0324,0.013523,0.002678,0.000431,0.000940
117746000,0.0324,0.013523,0.002678,0.000431,0.000940
117747000,0.0324,0.013523,0.002678,0.000431,0.000823
117748000,0.0324,0.013523,0.002678,0.000431,0.000823
117749000,0.0324,0.013523,0.002678,0.000431,0.000940
117750000,0.0324,0.013523,0.002678,0.000431,0.000823
117751000,0.0324,0.013523,0.002678,0.000431,0.078274
117752000,0.0324,0.013523,0.002678,0.000431,0.523353
117753000,0.0324,0.013523,0.002678,0.000431,0.568249
117754000,0.0324,0.013523,0.002678,0.000431,0.132102
117755000,0.0324,0.013523,0.002678,0.000431,0.133512
117756000,0.0324,0.013523,0.002678,0.000431,0.595750
117757000,0.0324,0.013523,0.002678,0.000431,0.272783
117758000,0.0324,0.013523,0.002678,0.000431,0.261853
117759000,0.0324,0.013523,0.002678,0.000431,0.272313
117760000,0.0324,0.013523,0.002678,0.000431,0.143619
117761000,0.0324,0.013523,0.002678,0.000431,0.153609
117762000,0.0324,0.013523,0.002678,0.000431,0.095785
117763000,0.0324,0.013523,0.002678,0.000431,0.413464
117764000,0.0324,0.013523,0.002678,0.000431,0.124227
117765000,0.0324,0.013523,0.002678,0.000431,0.021978
117766000,0.0324,0.013523,0.002678,0.000431,0.015631
117767000,0.0324,0.013523,0.002678,0.000431,0.014926
117768000,0.0324,0.013523,0.002678,0.000431,0.015044
117769000,0.0324,0.013523,0.002678,0.000431,0.015396
117770000,0.0324,0.013523,0.002678,0.000431,0.013398
117771000,0.0324,0.013523,0.002678,0.000431,0.014691
117772000,0.0324,0.013523,0.002678,0.000431,0.014221
117773000,0.0324,0.013523,0.002678,0.000431,0.015749
117774000,0.0324,0.013523,0.002678,0.000431,0.015396
117775000,0.0324,0.013523,0.002678,0.000431,0.013398
117776000,0.0324,0.013523,0.002678,0.000431,0.011165
117777000,0.0324,0.013523,0.002678,0.000431,0.012223
117778000,0.0324,0.013523,0.002678,0.000431,0.011988
117779000,0.0324,0.013523,0.002678,0.000431,0.011400
117780000,0.0324,0.013523,0.002678,0.000431,0.011635
117781000,0.0324,0.013523,0.002678,0.000431,0.011988
117782000,0.0324,0.013523,0.002678,0.000431,0.011870
117783000,0.0324,0.013523,0.002678,0.000431,0.011400
117784000,0.0324,0.013523,0.002678,0.000431,0.013398
117785000,0.0324,0.013523,0.002678,0.000431,0.011048
117786000,0.0324,0.013523,0.002678,0.000431,0.010460
117787000,0.0324,0.013523,0.002678,0.000431,0.009755
117788000,0.0324,0.013523,0.002678,0.000431,0.008345
117789000,0.0324,0.013523,0.002678,0.000431,0.009285
117790000,0.0324,0.013523,0.002678,0.000431,0.007992
117791000,0.0324,0.013523,0.002678,0.000431,0.008697
117792000,0.0324,0.013523,0.002678,0.000431,0.008580
117793000,0.0324,0.013523,0.002678,0.000431,0.008697
117794000,0.0324,0.013523,0.002678,0.000431,0.008227
117795000,0.0324,0.013523,0.002678,0.000431,0.010225
117796000,0.0324,0.013523,0.002678,0.000431,0.008227
117797000,0.0324,0.013523,0.002678,0.000431,0.007639
117798000,0.0324,0.013523,0.002678,0.000431,0.005171
117799000,0.0324,0.013523,0.002678,0.000431,0.007052
117800000,0.0324,0.013523,0.002678,0.000431,0.005054
117801000,0.0324,0.013523,0.002678,0.000431,0.004584
117802000,0.0324,0.013523,0.002678,0.000431,0.004466
117803000,0.0324,0.013523,0.002678,0.000431,0.004936
117804000,0.0324,0.013523,0.002678,0.000431,0.003996
117805000,0.0324,0.013523,0.002678,0.000431,0.004701
117806000,0.0324,0.013523,0.002678,0.000431,0.004466
117807000,0.0324,0.013523,0.002678,0.000431,0.004701
117808000,0.0324,0.013523,0.002678,0.000431,0.004231
117809000,0.0324,0.013523,0.002678,0.000431,0.004349
117810000,0.0324,0.013523,0.002678,0.000431,0.006347
117811000,0.0324,0.013523,0.002678,0.000431,0.003291
117812000,0.0324,0.013523,0.002678,0.000431,0.003878
117813000,0.0324,0.013523,0.002678,0.000431,0.003526
117814000,0.0324,0.013523,0.002678,0.000431,0.003878
117815000,0.0324,0.013523,0.002678,0.000431,0.003526
117816000,0.0324,0.013523,0.002678,0.000431,0.003643
117817000,0.0324,0.013523,0.002678,0.000431,0.003643
117818000,0.0324,0.013523,0.002678,0.000431,0.003878
117819000,0.0324,0.013523,0.002678,0.000431,0.003291
117820000,0.0324,0.013523,0.002678,0.000431,0.003761
117821000,0.0324,0.013523,0.002678,0.000431,0.003761
117822000,0.0324,0.013523,0.002678,0.000431,0.003408
117823000,0.0324,0.013523,0.002678,0.000431,0.004231
117824000,0.0324,0.013523,0.002678,0.000431,0.003056
117825000,0.0324,0.013523,0.002678,0.000431,0.004113
117826000,0.0324,0.013523,0.002678,0.000431,0.003291
117827000,0.0324,0.013523,0.002678,0.000431,0.003761
117828000,0.0324,0.013523,0.002678,0.000431,0.003761
117829000,0.0324,0.013523,0.002678,0.000431,0.003526
117830000,0.0324,0.013523,0.002678,0.000431,0.003996
117831000,0.0324,0.013523,0.002678,0.000431,0.003761
117832000,0.0324,0.013523,0.002678,0.000431,0.004113
117833000,0.0324,0.013523,0.002678,0.000431,0.004349
117834000,0.0324,0.013523,0.002678,0.000431,0.004113
117835000,0.0324,0.013523,0.002678,0.000431,0.002821
117836000,0.0324,0.013523,0.002678,0.000431,0.002468
117837000,0.0324,0.013523,0.002678,0.000431,0.002938
117838000,0.0324,0.013523,0.002678,0.000431,0.002586
117839000,0.0324,0.013523,0.002678,0.000431,0.002351
117840000,0.0324,0.013523,0.002678,0.000431,0.002821
117841000,0.0324,0.013523,0.002678,0.000431,0.002468
117842000,0.0324,0.013523,0.002678,0.000431,0.002468
117843000,0.0324,0.013523,0.002678,0.000431,0.002703
117844000,0.0324,0.013523,0.002678,0.000431,0.002468
117845000,0.0324,0.013523,0.002678,0.000431,0.002703
117846000,0.0324,0.013523,0.002678,0.000431,0.002821
117847000,0.0324,0.013523,0.002678,0.000431,0.001998
117848000,0.0324,0.013523,0.002678,0.000431,0.003173
117849000,0.0324,0.013523,0.002678,0.000431,0.002233
117850000,0.0324,0.013523,0.002678,0.000431,0.002938
117851000,0.0324,0.013523,0.002678,0.000431,0.002938
117852000,0.0324,0.013523,0.002678,0.000431,0.002351
117853000,0.0324,0.013523,0.002678,0.000431,0.002821
117854000,0.0324,0.013523,0.002678,0.000431,0.002351
117855000,0.0324,0.013523,0.002678,0.000431,0.003173
117856000,0.0324,0.013523,0.002678,0.000431,0.002703
117857000,0.0324,0.013523,0.002678,0.000431,0.002468
117858000,0.0324,0.013523,0.002678,0.000431,0.002821
117859000,0.0324,0.013523,0.002678,0.000431,0.002938
117860000,0.0324,0.013523,0.002678,0.000431,0.002233
117861000,0.0324,0.013523,0.002678,0.000431,0.002821
117862000,0.0324,0.013523,0.002678,0.000431,0.002703
117863000,0.0324,0.013523,0.002678,0.000431,0.002586
117864000,0.0324,0.013523,0.002678,0.000431,0.002351
117865000,0.0324,0.013523,0.002678,0.000431,0.003173
117866000,0.0324,0.013523,0.002678,0.000431,0.002116
117867000,0.0324,0.013523,0.002678,0.000431,0.003056
117868000,0.0324,0.013523,0.002678,0.000431,0.002116
117869000,0.0324,0.013523,0.002678,0.000431,0.002938
117870000,0.0324,0.013523,0.002678,0.000431,0.002233
117871000,0.0324,0.013523,0.002678,0.000431,0.002821
117872000,0.0324,0.013523,0.002678,0.000431,0.003056
117873000,0.0324,0.013523,0.002678,0.000431,0.002351
117874000,0.0324,0.013523,0.002678,0.000431,0.002703
117875000,0.0324,0.013523,0.002678,0.000431,0.002116
117876000,0.0324,0.013523,0.002678,0.000431,0.002938
117877000,0.0324,0.013523,0.002678,0.000431,0.001998
117878000,0.0324,0.013523,0.002678,0.000431,0.002821
117879000,0.0324,0.013523,0.002678,0.000431,0.004113
117880000,0.0324,0.013523,0.002678,0.000431,0.000823
117881000,0.0324,0.013523,0.002678,0.000431,0.000823
117882000,0.0324,0.013523,0.002678,0.000431,0.000940
117883000,0.0324,0.013523,0.002678,0.000431,0.000940
117884000,0.0324,0.013523,0.002678,0.000431,0.000940
117885000,0.0324,0.013523,0.002678,0.000431,0.000823
117886000,0.0324,0.013523,0.002678,0.000431,0.014573
117887000,0.0324,0.013523,0.002678,0.000431,0.431916
117888000,0.0324,0.013523,0.002678,0.000431,0.595868
117889000,0.0324,0.013523,0.002678,0.000431,0.134922
117890000,0.0324,0.013523,0.002678,0.000431,0.130691
117891000,0.0324,0.013523,0.002678,0.000431,0.235762
117892000,0.0324,0.013523,0.002678,0.000431,0.532638
117893000,0.0324,0.013523,0.002678,0.000431,0.257857
117894000,0.0324,0.013523,0.002678,0.000431,0.301342
117895000,0.0324,0.013523,0.002678,0.000431,0.195097
117896000,0.0324,0.013523,0.002678,0.000431,0.134100
117897000,0.0324,0.013523,0.002678,0.000431,0.178055
117898000,0.0324,0.013523,0.002678,0.000431,0.093670
117899000,0.0324,0.013523,0.002678,0.000431,0.454246
117900000,0.0324,0.013523,0.002678,0.000431,0.093082
117901000,0.0324,0.013523,0.002678,0.000431,0.054651
117902000,0.0324,0.013523,0.002678,0.000431,0.049949
117903000,0.0324,0.013523,0.002678,0.000431,0.051360
117904000,0.0324,0.013523,0.002678,0.000431,0.044896
117905000,0.0324,0.013523,0.002678,0.000431,0.044896
117906000,0.0324,0.013523,0.002678,0.000431,0.040430
117907000,0.0324,0.013523,0.002678,0.000431,0.039960
117908000,0.0324,0.013523,0.002678,0.000431,0.035141
117909000,0.0324,0.013523,0.002678,0.000431,0.036434
117910000,0.0324,0.013523,0.002678,0.000431,0.032555
117911000,0.0324,0.013523,0.002678,0.000431,0.028207
117912000,0.0324,0.013523,0.002678,0.000431,0.031498
117913000,0.0324,0.013523,0.002678,0.000431,0.031733
117914000,0.0324,0.013523,0.002678,0.000431,0.023036
117915000,0.0324,0.013523,0.002678,0.000431,0.025856
117916000,0.0324,0.013523,0.002678,0.000431,0.020920
117917000,0.0324,0.013523,0.002678,0.000431,0.020802
117918000,0.0324,0.013523,0.002678,0.000431,0.022095
117919000,0.0324,0.013523,0.002678,0.000431,0.021273
117920000,0.0324,0.013523,0.002678,0.000431,0.019745
117921000,0.0324,0.013523,0.002678,0.000431,0.015984
117922000,0.0324,0.013523,0.002678,0.000431,0.016689
117923000,0.0324,0.013523,0.002678,0.000431,0.017982
117924000,0.0324,0.013523,0.002678,0.000431,0.016336
117925000,0.0324,0.013523,0.002678,0.000431,0.016101
117926000,0.0324,0.013523,0.002678,0.000431,0.015044
117927000,0.0324,0.013523,0.002678,0.000431,0.014338
117928000,0.0324,0.013523,0.002678,0.000431,0.014926
117929000,0.0324,0.013523,0.002678,0.000431,0.015514
117930000,0.0324,0.013523,0.002678,0.000431,0.014691
117931000,0.0324,0.013523,0.002678,0.000431,0.013868
117932000,0.0324,0.013523,0.002678,0.000431,0.011988
117933000,0.0324,0.013523,0.002678,0.000431,0.011988
117934000,0.0324,0.013523,0.002678,0.000431,0.012340
117935000,0.0324,0.013523,0.002678,0.000431,0.012811
117936000,0.0324,0.013523,0.002678,0.000431,0.013046
117937000,0.0324,0.013523,0.002678,0.000431,0.010930
117938000,0.0324,0.013523,0.002678,0.000431,0.009520
117939000,0.0324,0.013523,0.002678,0.000431,0.009990
117940000,0.0324,0.013523,0.002678,0.000431,0.010107
117941000,0.0324,0.013523,0.002678,0.000431,0.009872
117942000,0.0324,0.013523,0.002678,0.000431,0.010460
117943000,0.0324,0.013523,0.002678,0.000431,0.009990
117944000,0.0324,0.013523,0.002678,0.000431,0.012693
117945000,0.0324,0.013523,0.002678,0.000431,0.008932
117946000,0.0324,0.013523,0.002678,0.000431,0.009520
117947000,0.0324,0.013523,0.002678,0.000431,0.008580
117948000,0.0324,0.013523,0.002678,0.000431,0.009637
117949000,0.0324,0.013523,0.002678,0.000431,0.009637
117950000,0.0324,0.013523,0.002678,0.000431,0.009050
117951000,0.0324,0.013523,0.002678,0.000431,0.010107
117952000,0.0324,0.013523,0.002678,0.000431,0.009520
117953000,0.0324,0.013523,0.002678,0.000431,0.008462
117954000,0.0324,0.013523,0.002678,0.000431,0.008580
117955000,0.0324,0.013523,0.002678,0.000431,0.007522
117956000,0.0324,0.013523,0.002678,0.000431,0.007522
117957000,0.0324,0.013523,0.002678,0.000431,0.007169
117958000,0.0324,0.013523,0.002678,0.000431,0.007522
117959000,0.0324,0.013523,0.002678,0.000431,0.007404
117960000,0.0324,0.013523,0.002678,0.000431,0.007522
117961000,0.0324,0.013523,0.002678,0.000431,0.007874
117962000,0.0324,0.013523,0.002678,0.000431,0.007287
117963000,0.0324,0.013523,0.002678,0.000431,0.007522
117964000,0.0324,0.013523,0.002678,0.000431,0.007287
117965000,0.0324,0.013523,0.002678,0.000431,0.007639
117966000,0.0324,0.013523,0.002678,0.000431,0.006817
117967000,0.0324,0.013523,0.002678,0.000431,0.007639
117968000,0.0324,0.013523,0.002678,0.000431,0.007287
117969000,0.0324,0.013523,0.002678,0.000431,0.009402
117970000,0.0324,0.013523,0.002678,0.000431,0.006229
117971000,0.0324,0.013523,0.002678,0.000431,0.006817
117972000,0.0324,0.013523,0.002678,0.000431,0.007992
117973000,0.0324,0.013523,0.002678,0.000431,0.005171
117974000,0.0324,0.013523,0.002678,0.000431,0.005994
117975000,0.0324,0.013523,0.002678,0.000431,0.005641
117976000,0.0324,0.013523,0.002678,0.000431,0.005524
117977000,0.0324,0.013523,0.002678,0.000431,0.005876
117978000,0.0324,0.013523,0.002678,0.000431,0.005524
117979000,0.0324,0.013523,0.002678,0.000431,0.005641
117980000,0.0324,0.013523,0.002678,0.000431,0.005524
117981000,0.0324,0.013523,0.002678,0.000431,0.005641
117982000,0.0324,0.013523,0.002678,0.000431,0.005759
117983000,0.0324,0.013523,0.002678,0.000431,0.005641
117984000,0.0324,0.013523,0.002678,0.000431,0.005524
117985000,0.0324,0.013523,0.002678,0.000431,0.005876
117986000,0.0324,0.013523,0.002678,0.000431,0.005289
117987000,0.0324,0.013523,0.002678,0.000431,0.007522
117988000,0.0324,0.013523,0.002678,0.000431,0.004466
117989000,0.0324,0.013523,0.002678,0.000431,0.004819
117990000,0.0324,0.013523,0.002678,0.000431,0.005171
117991000,0.0324,0.013523,0.002678,0.000431,0.004701
117992000,0.0324,0.013523,0.002678,0.000431,0.005406
117993000,0.0324,0.013523,0.002678,0.000431,0.004466
117994000,0.0324,0.013523,0.002678,0.000431,0.004936
117995000,0.0324,0.013523,0.002678,0.000431,0.005054
117996000,0.0324,0.013523,0.002678,0.000431,0.004466
117997000,0.0324,0.013523,0.002678,0.000431,0.004701
117998000,0.0324,0.013523,0.002678,0.000431,0.005171
117999000,0.0324,0.013523,0.002678,0.000431,0.004584
