Cycle,Area(mm^2),PeakDynamic(W),SubthresholdLeakage(W),GateLeakage(W),RunTimeDynamic(W)
20000000,0.0324,0.013523,0.002678,0.000431,0.000940
20001000,0.0324,0.013523,0.002678,0.000431,0.000705
20002000,0.0324,0.013523,0.002678,0.000431,0.000940
20003000,0.0324,0.013523,0.002678,0.000431,0.000705
20004000,0.0324,0.013523,0.002678,0.000431,0.000940
20005000,0.0324,0.013523,0.002678,0.000431,0.000823
20006000,0.0324,0.013523,0.002678,0.000431,0.000823
20007000,0.0324,0.013523,0.002678,0.000431,0.000940
20008000,0.0324,0.013523,0.002678,0.000431,0.000705
20009000,0.0324,0.013523,0.002678,0.000431,0.000940
20010000,0.0324,0.013523,0.002678,0.000431,0.000823
20011000,0.0324,0.013523,0.002678,0.000431,0.000823
20012000,0.0324,0.013523,0.002678,0.000431,0.000823
20013000,0.0324,0.013523,0.002678,0.000431,0.000823
20014000,0.0324,0.013523,0.002678,0.000431,0.000823
20015000,0.0324,0.013523,0.002678,0.000431,0.000823
20016000,0.0324,0.013523,0.002678,0.000431,0.000940
20017000,0.0324,0.013523,0.002678,0.000431,0.000705
20018000,0.0324,0.013523,0.002678,0.000431,0.000940
20019000,0.0324,0.013523,0.002678,0.000431,0.000823
20020000,0.0324,0.013523,0.002678,0.000431,0.000823
20021000,0.0324,0.013523,0.002678,0.000431,0.000705
20022000,0.0324,0.013523,0.002678,0.000431,0.000940
20023000,0.0324,0.013523,0.002678,0.000431,0.000940
20024000,0.0324,0.013523,0.002678,0.000431,0.000705
20025000,0.0324,0.013523,0.002678,0.000431,0.000940
20026000,0.0324,0.013523,0.002678,0.000431,0.000705
20027000,0.0324,0.013523,0.002678,0.000431,0.000940
20028000,0.0324,0.013523,0.002678,0.000431,0.000823
20029000,0.0324,0.013523,0.002678,0.000431,0.000823
20030000,0.0324,0.013523,0.002678,0.000431,0.000823
20031000,0.0324,0.013523,0.002678,0.000431,0.000823
20032000,0.0324,0.013523,0.002678,0.000431,0.000940
20033000,0.0324,0.013523,0.002678,0.000431,0.000705
20034000,0.0324,0.013523,0.002678,0.000431,0.000940
20035000,0.0324,0.013523,0.002678,0.000431,0.000823
20036000,0.0324,0.013523,0.002678,0.000431,0.000823
20037000,0.0324,0.013523,0.002678,0.000431,0.000823
20038000,0.0324,0.013523,0.002678,0.000431,0.000823
20039000,0.0324,0.013523,0.002678,0.000431,0.000823
20040000,0.0324,0.013523,0.002678,0.000431,0.000823
20041000,0.0324,0.013523,0.002678,0.000431,0.000823
20042000,0.0324,0.013523,0.002678,0.000431,0.000823
20043000,0.0324,0.013523,0.002678,0.000431,0.000940
20044000,0.0324,0.013523,0.002678,0.000431,0.000823
20045000,0.0324,0.013523,0.002678,0.000431,0.000823
20046000,0.0324,0.013523,0.002678,0.000431,0.000705
20047000,0.0324,0.013523,0.002678,0.000431,0.000940
20048000,0.0324,0.013523,0.002678,0.000431,0.000940
20049000,0.0324,0.013523,0.002678,0.000431,0.000705
20050000,0.0324,0.013523,0.002678,0.000431,0.000940
20051000,0.0324,0.013523,0.002678,0.000431,0.000705
20052000,0.0324,0.013523,0.002678,0.000431,0.000940
20053000,0.0324,0.013523,0.002678,0.000431,0.000823
20054000,0.0324,0.013523,0.002678,0.000431,0.000823
20055000,0.0324,0.013523,0.002678,0.000431,0.000940
20056000,0.0324,0.013523,0.002678,0.000431,0.000705
20057000,0.0324,0.013523,0.002678,0.000431,0.000940
20058000,0.0324,0.013523,0.002678,0.000431,0.000823
20059000,0.0324,0.013523,0.002678,0.000431,0.000823
20060000,0.0324,0.013523,0.002678,0.000431,0.000823
20061000,0.0324,0.013523,0.002678,0.000431,0.000823
20062000,0.0324,0.013523,0.002678,0.000431,0.000940
20063000,0.0324,0.013523,0.002678,0.000431,0.000705
20064000,0.0324,0.013523,0.002678,0.000431,0.000940
20065000,0.0324,0.013523,0.002678,0.000431,0.000823
20066000,0.0324,0.013523,0.002678,0.000431,0.000823
20067000,0.0324,0.013523,0.002678,0.000431,0.000823
20068000,0.0324,0.013523,0.002678,0.000431,0.000823
20069000,0.0324,0.013523,0.002678,0.000431,0.000705
20070000,0.0324,0.013523,0.002678,0.000431,0.000940
20071000,0.0324,0.013523,0.002678,0.000431,0.000940
20072000,0.0324,0.013523,0.002678,0.000431,0.000705
20073000,0.0324,0.013523,0.002678,0.000431,0.000940
20074000,0.0324,0.013523,0.002678,0.000431,0.000705
20075000,0.0324,0.013523,0.002678,0.000431,0.000940
20076000,0.0324,0.013523,0.002678,0.000431,0.000940
20077000,0.0324,0.013523,0.002678,0.000431,0.000705
20078000,0.0324,0.013523,0.002678,0.000431,0.000940
20079000,0.0324,0.013523,0.002678,0.000431,0.000705
20080000,0.0324,0.013523,0.002678,0.000431,0.000940
20081000,0.0324,0.013523,0.002678,0.000431,0.000823
20082000,0.0324,0.013523,0.002678,0.000431,0.000823
20083000,0.0324,0.013523,0.002678,0.000431,0.000823
20084000,0.0324,0.013523,0.002678,0.000431,0.000823
20085000,0.0324,0.013523,0.002678,0.000431,0.000940
20086000,0.0324,0.013523,0.002678,0.000431,0.000705
20087000,0.0324,0.013523,0.002678,0.000431,0.000940
20088000,0.0324,0.013523,0.002678,0.000431,0.000823
20089000,0.0324,0.013523,0.002678,0.000431,0.000823
20090000,0.0324,0.013523,0.002678,0.000431,0.000823
20091000,0.0324,0.013523,0.002678,0.000431,0.000823
20092000,0.0324,0.013523,0.002678,0.000431,0.000823
20093000,0.0324,0.013523,0.002678,0.000431,0.000823
20094000,0.0324,0.013523,0.002678,0.000431,0.000823
20095000,0.0324,0.013523,0.002678,0.000431,0.000940
20096000,0.0324,0.013523,0.002678,0.000431,0.000823
20097000,0.0324,0.013523,0.002678,0.000431,0.000823
20098000,0.0324,0.013523,0.002678,0.000431,0.000823
20099000,0.0324,0.013523,0.002678,0.000431,0.000705
20100000,0.0324,0.013523,0.002678,0.000431,0.000940
20101000,0.0324,0.013523,0.002678,0.000431,0.000940
20102000,0.0324,0.013523,0.002678,0.000431,0.000705
20103000,0.0324,0.013523,0.002678,0.000431,0.000940
20104000,0.0324,0.013523,0.002678,0.000431,0.000705
20105000,0.0324,0.013523,0.002678,0.000431,0.000940
20106000,0.0324,0.013523,0.002678,0.000431,0.000940
20107000,0.0324,0.013523,0.002678,0.000431,0.000705
20108000,0.0324,0.013523,0.002678,0.000431,0.000940
20109000,0.0324,0.013523,0.002678,0.000431,0.000705
20110000,0.0324,0.013523,0.002678,0.000431,0.000940
20111000,0.0324,0.013523,0.002678,0.000431,0.000823
20112000,0.0324,0.013523,0.002678,0.000431,0.000823
20113000,0.0324,0.013523,0.002678,0.000431,0.000823
20114000,0.0324,0.013523,0.002678,0.000431,0.000823
20115000,0.0324,0.013523,0.002678,0.000431,0.000940
20116000,0.0324,0.013523,0.002678,0.000431,0.000705
20117000,0.0324,0.013523,0.002678,0.000431,0.000940
20118000,0.0324,0.013523,0.002678,0.000431,0.000823
20119000,0.0324,0.013523,0.002678,0.000431,0.000823
20120000,0.0324,0.013523,0.002678,0.000431,0.000823
20121000,0.0324,0.013523,0.002678,0.000431,0.000823
20122000,0.0324,0.013523,0.002678,0.000431,0.000940
20123000,0.0324,0.013523,0.002678,0.000431,0.000705
20124000,0.0324,0.013523,0.002678,0.000431,0.000940
20125000,0.0324,0.013523,0.002678,0.000431,0.000823
20126000,0.0324,0.013523,0.002678,0.000431,0.000823
20127000,0.0324,0.013523,0.002678,0.000431,0.000705
20128000,0.0324,0.013523,0.002678,0.000431,0.000940
20129000,0.0324,0.013523,0.002678,0.000431,0.000940
20130000,0.0324,0.013523,0.002678,0.000431,0.000705
20131000,0.0324,0.013523,0.002678,0.000431,0.000940
20132000,0.0324,0.013523,0.002678,0.000431,0.000705
20133000,0.0324,0.013523,0.002678,0.000431,0.000940
20134000,0.0324,0.013523,0.002678,0.000431,0.000940
20135000,0.0324,0.013523,0.002678,0.000431,0.000705
20136000,0.0324,0.013523,0.002678,0.000431,0.000940
20137000,0.0324,0.013523,0.002678,0.000431,0.000705
20138000,0.0324,0.013523,0.002678,0.000431,0.000940
20139000,0.0324,0.013523,0.002678,0.000431,0.000823
20140000,0.0324,0.013523,0.002678,0.000431,0.000823
20141000,0.0324,0.013523,0.002678,0.000431,0.000823
20142000,0.0324,0.013523,0.002678,0.000431,0.000823
20143000,0.0324,0.013523,0.002678,0.000431,0.000940
20144000,0.0324,0.013523,0.002678,0.000431,0.000823
20145000,0.0324,0.013523,0.002678,0.000431,0.000823
20146000,0.0324,0.013523,0.002678,0.000431,0.000823
20147000,0.0324,0.013523,0.002678,0.000431,0.000823
20148000,0.0324,0.013523,0.002678,0.000431,0.000823
20149000,0.0324,0.013523,0.002678,0.000431,0.000823
20150000,0.0324,0.013523,0.002678,0.000431,0.000940
20151000,0.0324,0.013523,0.002678,0.000431,0.000705
20152000,0.0324,0.013523,0.002678,0.000431,0.000823
20153000,0.0324,0.013523,0.002678,0.000431,0.000940
20154000,0.0324,0.013523,0.002678,0.000431,0.000823
20155000,0.0324,0.013523,0.002678,0.000431,0.000823
20156000,0.0324,0.013523,0.002678,0.000431,0.000823
20157000,0.0324,0.013523,0.002678,0.000431,0.000823
20158000,0.0324,0.013523,0.002678,0.000431,0.000823
20159000,0.0324,0.013523,0.002678,0.000431,0.000940
20160000,0.0324,0.013523,0.002678,0.000431,0.000823
20161000,0.0324,0.013523,0.002678,0.000431,0.000823
20162000,0.0324,0.013523,0.002678,0.000431,0.000705
20163000,0.0324,0.013523,0.002678,0.000431,0.000940
20164000,0.0324,0.013523,0.002678,0.000431,0.000940
20165000,0.0324,0.013523,0.002678,0.000431,0.000705
20166000,0.0324,0.013523,0.002678,0.000431,0.000940
20167000,0.0324,0.013523,0.002678,0.000431,0.000705
20168000,0.0324,0.013523,0.002678,0.000431,0.000940
20169000,0.0324,0.013523,0.002678,0.000431,0.000940
20170000,0.0324,0.013523,0.002678,0.000431,0.000705
20171000,0.0324,0.013523,0.002678,0.000431,0.000940
20172000,0.0324,0.013523,0.002678,0.000431,0.000705
20173000,0.0324,0.013523,0.002678,0.000431,0.000940
20174000,0.0324,0.013523,0.002678,0.000431,0.000823
20175000,0.0324,0.013523,0.002678,0.000431,0.000823
20176000,0.0324,0.013523,0.002678,0.000431,0.000823
20177000,0.0324,0.013523,0.002678,0.000431,0.000823
20178000,0.0324,0.013523,0.002678,0.000431,0.000940
20179000,0.0324,0.013523,0.002678,0.000431,0.000705
20180000,0.0324,0.013523,0.002678,0.000431,0.000940
20181000,0.0324,0.013523,0.002678,0.000431,0.000823
20182000,0.0324,0.013523,0.002678,0.000431,0.000823
20183000,0.0324,0.013523,0.002678,0.000431,0.000823
20184000,0.0324,0.013523,0.002678,0.000431,0.000823
20185000,0.0324,0.013523,0.002678,0.000431,0.000940
20186000,0.0324,0.013523,0.002678,0.000431,0.000705
20187000,0.0324,0.013523,0.002678,0.000431,0.000940
20188000,0.0324,0.013523,0.002678,0.000431,0.000823
20189000,0.0324,0.013523,0.002678,0.000431,0.000823
20190000,0.0324,0.013523,0.002678,0.000431,0.000705
20191000,0.0324,0.013523,0.002678,0.000431,0.000940
20192000,0.0324,0.013523,0.002678,0.000431,0.000940
20193000,0.0324,0.013523,0.002678,0.000431,0.000705
20194000,0.0324,0.013523,0.002678,0.000431,0.000940
20195000,0.0324,0.013523,0.002678,0.000431,0.000705
20196000,0.0324,0.013523,0.002678,0.000431,0.000940
20197000,0.0324,0.013523,0.002678,0.000431,0.000940
20198000,0.0324,0.013523,0.002678,0.000431,0.000705
20199000,0.0324,0.013523,0.002678,0.000431,0.000940
20200000,0.0324,0.013523,0.002678,0.000431,0.000705
20201000,0.0324,0.013523,0.002678,0.000431,0.000940
20202000,0.0324,0.013523,0.002678,0.000431,0.000823
20203000,0.0324,0.013523,0.002678,0.000431,0.000823
20204000,0.0324,0.013523,0.002678,0.000431,0.000823
20205000,0.0324,0.013523,0.002678,0.000431,0.000823
20206000,0.0324,0.013523,0.002678,0.000431,0.000940
20207000,0.0324,0.013523,0.002678,0.000431,0.000823
20208000,0.0324,0.013523,0.002678,0.000431,0.000823
20209000,0.0324,0.013523,0.002678,0.000431,0.000823
20210000,0.0324,0.013523,0.002678,0.000431,0.000823
20211000,0.0324,0.013523,0.002678,0.000431,0.000823
20212000,0.0324,0.013523,0.002678,0.000431,0.000823
20213000,0.0324,0.013523,0.002678,0.000431,0.000940
20214000,0.0324,0.013523,0.002678,0.000431,0.000705
20215000,0.0324,0.013523,0.002678,0.000431,0.000823
20216000,0.0324,0.013523,0.002678,0.000431,0.000940
20217000,0.0324,0.013523,0.002678,0.000431,0.000823
20218000,0.0324,0.013523,0.002678,0.000431,0.000823
20219000,0.0324,0.013523,0.002678,0.000431,0.000823
20220000,0.0324,0.013523,0.002678,0.000431,0.000823
20221000,0.0324,0.013523,0.002678,0.000431,0.000823
20222000,0.0324,0.013523,0.002678,0.000431,0.000940
20223000,0.0324,0.013523,0.002678,0.000431,0.000823
20224000,0.0324,0.013523,0.002678,0.000431,0.000823
20225000,0.0324,0.013523,0.002678,0.000431,0.000705
20226000,0.0324,0.013523,0.002678,0.000431,0.000940
20227000,0.0324,0.013523,0.002678,0.000431,0.000940
20228000,0.0324,0.013523,0.002678,0.000431,0.000705
20229000,0.0324,0.013523,0.002678,0.000431,0.000940
20230000,0.0324,0.013523,0.002678,0.000431,0.000705
20231000,0.0324,0.013523,0.002678,0.000431,0.000940
20232000,0.0324,0.013523,0.002678,0.000431,0.000940
20233000,0.0324,0.013523,0.002678,0.000431,0.000705
20234000,0.0324,0.013523,0.002678,0.000431,0.000940
20235000,0.0324,0.013523,0.002678,0.000431,0.000705
20236000,0.0324,0.013523,0.002678,0.000431,0.000940
20237000,0.0324,0.013523,0.002678,0.000431,0.000823
20238000,0.0324,0.013523,0.002678,0.000431,0.000823
20239000,0.0324,0.013523,0.002678,0.000431,0.000823
20240000,0.0324,0.013523,0.002678,0.000431,0.000823
20241000,0.0324,0.013523,0.002678,0.000431,0.000940
20242000,0.0324,0.013523,0.002678,0.000431,0.000705
20243000,0.0324,0.013523,0.002678,0.000431,0.000940
20244000,0.0324,0.013523,0.002678,0.000431,0.000823
20245000,0.0324,0.013523,0.002678,0.000431,0.000823
20246000,0.0324,0.013523,0.002678,0.000431,0.000823
20247000,0.0324,0.013523,0.002678,0.000431,0.000823
20248000,0.0324,0.013523,0.002678,0.000431,0.114355
20249000,0.0324,0.013523,0.002678,0.000431,0.457655
20250000,0.0324,0.013523,0.002678,0.000431,0.531462
20251000,0.0324,0.013523,0.002678,0.000431,0.134452
20252000,0.0324,0.013523,0.002678,0.000431,0.131632
20253000,0.0324,0.013523,0.002678,0.000431,0.576123
20254000,0.0324,0.013523,0.002678,0.000431,0.234939
20255000,0.0324,0.013523,0.002678,0.000431,0.289472
20256000,0.0324,0.013523,0.002678,0.000431,0.314740
20257000,0.0324,0.013523,0.002678,0.000431,0.136568
20258000,0.0324,0.013523,0.002678,0.000431,0.158075
20259000,0.0324,0.013523,0.002678,0.000431,0.100134
20260000,0.0324,0.013523,0.002678,0.000431,0.443551
20261000,0.0324,0.013523,0.002678,0.000431,0.133982
20262000,0.0324,0.013523,0.002678,0.000431,0.045836
20263000,0.0324,0.013523,0.002678,0.000431,0.029147
20264000,0.0324,0.013523,0.002678,0.000431,0.023271
20265000,0.0324,0.013523,0.002678,0.000431,0.022330
20266000,0.0324,0.013523,0.002678,0.000431,0.020802
20267000,0.0324,0.013523,0.002678,0.000431,0.021743
20268000,0.0324,0.013523,0.002678,0.000431,0.015749
20269000,0.0324,0.013523,0.002678,0.000431,0.014338
20270000,0.0324,0.013523,0.002678,0.000431,0.012458
20271000,0.0324,0.013523,0.002678,0.000431,0.009990
20272000,0.0324,0.013523,0.002678,0.000431,0.009990
20273000,0.0324,0.013523,0.002678,0.000431,0.006699
20274000,0.0324,0.013523,0.002678,0.000431,0.006229
20275000,0.0324,0.013523,0.002678,0.000431,0.008227
20276000,0.0324,0.013523,0.002678,0.000431,0.005641
20277000,0.0324,0.013523,0.002678,0.000431,0.005054
20278000,0.0324,0.013523,0.002678,0.000431,0.005171
20279000,0.0324,0.013523,0.002678,0.000431,0.007169
20280000,0.0324,0.013523,0.002678,0.000431,0.003878
20281000,0.0324,0.013523,0.002678,0.000431,0.005054
20282000,0.0324,0.013523,0.002678,0.000431,0.004584
20283000,0.0324,0.013523,0.002678,0.000431,0.003408
20284000,0.0324,0.013523,0.002678,0.000431,0.003408
20285000,0.0324,0.013523,0.002678,0.000431,0.003056
20286000,0.0324,0.013523,0.002678,0.000431,0.003408
20287000,0.0324,0.013523,0.002678,0.000431,0.003291
20288000,0.0324,0.013523,0.002678,0.000431,0.003408
20289000,0.0324,0.013523,0.002678,0.000431,0.003408
20290000,0.0324,0.013523,0.002678,0.000431,0.003408
20291000,0.0324,0.013523,0.002678,0.000431,0.002938
20292000,0.0324,0.013523,0.002678,0.000431,0.003408
20293000,0.0324,0.013523,0.002678,0.000431,0.004231
20294000,0.0324,0.013523,0.002678,0.000431,0.003643
20295000,0.0324,0.013523,0.002678,0.000431,0.002351
20296000,0.0324,0.013523,0.002678,0.000431,0.002586
20297000,0.0324,0.013523,0.002678,0.000431,0.002351
20298000,0.0324,0.013523,0.002678,0.000431,0.002468
20299000,0.0324,0.013523,0.002678,0.000431,0.002586
20300000,0.0324,0.013523,0.002678,0.000431,0.002703
20301000,0.0324,0.013523,0.002678,0.000431,0.002351
20302000,0.0324,0.013523,0.002678,0.000431,0.002468
20303000,0.0324,0.013523,0.002678,0.000431,0.002351
20304000,0.0324,0.013523,0.002678,0.000431,0.002703
20305000,0.0324,0.013523,0.002678,0.000431,0.002468
20306000,0.0324,0.013523,0.002678,0.000431,0.002351
20307000,0.0324,0.013523,0.002678,0.000431,0.002351
20308000,0.0324,0.013523,0.002678,0.000431,0.002703
20309000,0.0324,0.013523,0.002678,0.000431,0.002468
20310000,0.0324,0.013523,0.002678,0.000431,0.002468
20311000,0.0324,0.013523,0.002678,0.000431,0.002821
20312000,0.0324,0.013523,0.002678,0.000431,0.002351
20313000,0.0324,0.013523,0.002678,0.000431,0.002586
20314000,0.0324,0.013523,0.002678,0.000431,0.002351
20315000,0.0324,0.013523,0.002678,0.000431,0.002821
20316000,0.0324,0.013523,0.002678,0.000431,0.002351
20317000,0.0324,0.013523,0.002678,0.000431,0.002468
20318000,0.0324,0.013523,0.002678,0.000431,0.002468
20319000,0.0324,0.013523,0.002678,0.000431,0.002233
20320000,0.0324,0.013523,0.002678,0.000431,0.001880
20321000,0.0324,0.013523,0.002678,0.000431,0.001645
20322000,0.0324,0.013523,0.002678,0.000431,0.001645
20323000,0.0324,0.013523,0.002678,0.000431,0.001880
20324000,0.0324,0.013523,0.002678,0.000431,0.001763
20325000,0.0324,0.013523,0.002678,0.000431,0.001763
20326000,0.0324,0.013523,0.002678,0.000431,0.001645
20327000,0.0324,0.013523,0.002678,0.000431,0.001880
20328000,0.0324,0.013523,0.002678,0.000431,0.001645
20329000,0.0324,0.013523,0.002678,0.000431,0.001763
20330000,0.0324,0.013523,0.002678,0.000431,0.001763
20331000,0.0324,0.013523,0.002678,0.000431,0.001880
20332000,0.0324,0.013523,0.002678,0.000431,0.001763
20333000,0.0324,0.013523,0.002678,0.000431,0.001528
20334000,0.0324,0.013523,0.002678,0.000431,0.001880
20335000,0.0324,0.013523,0.002678,0.000431,0.001880
20336000,0.0324,0.013523,0.002678,0.000431,0.001645
20337000,0.0324,0.013523,0.002678,0.000431,0.001645
20338000,0.0324,0.013523,0.002678,0.000431,0.001880
20339000,0.0324,0.013523,0.002678,0.000431,0.001763
20340000,0.0324,0.013523,0.002678,0.000431,0.001763
20341000,0.0324,0.013523,0.002678,0.000431,0.001645
20342000,0.0324,0.013523,0.002678,0.000431,0.002938
20343000,0.0324,0.013523,0.002678,0.000431,0.000940
20344000,0.0324,0.013523,0.002678,0.000431,0.000823
20345000,0.0324,0.013523,0.002678,0.000431,0.000823
20346000,0.0324,0.013523,0.002678,0.000431,0.002586
20347000,0.0324,0.013523,0.002678,0.000431,0.353055
20348000,0.0324,0.013523,0.002678,0.000431,0.686835
20349000,0.0324,0.013523,0.002678,0.000431,0.150789
20350000,0.0324,0.013523,0.002678,0.000431,0.133512
20351000,0.0324,0.013523,0.002678,0.000431,0.132102
20352000,0.0324,0.013523,0.002678,0.000431,0.596691
20353000,0.0324,0.013523,0.002678,0.000431,0.227535
20354000,0.0324,0.013523,0.002678,0.000431,0.316621
20355000,0.0324,0.013523,0.002678,0.000431,0.224126
20356000,0.0324,0.013523,0.002678,0.000431,0.138448
20357000,0.0324,0.013523,0.002678,0.000431,0.187693
20358000,0.0324,0.013523,0.002678,0.000431,0.083092
20359000,0.0324,0.013523,0.002678,0.000431,0.483628
20360000,0.0324,0.013523,0.002678,0.000431,0.089792
20361000,0.0324,0.013523,0.002678,0.000431,0.058764
20362000,0.0324,0.013523,0.002678,0.000431,0.048069
20363000,0.0324,0.013523,0.002678,0.000431,0.034553
20364000,0.0324,0.013523,0.002678,0.000431,0.027502
20365000,0.0324,0.013523,0.002678,0.000431,0.022213
20366000,0.0324,0.013523,0.002678,0.000431,0.020215
20367000,0.0324,0.013523,0.002678,0.000431,0.015866
20368000,0.0324,0.013523,0.002678,0.000431,0.016219
20369000,0.0324,0.013523,0.002678,0.000431,0.013163
20370000,0.0324,0.013523,0.002678,0.000431,0.014809
20371000,0.0324,0.013523,0.002678,0.000431,0.013398
20372000,0.0324,0.013523,0.002678,0.000431,0.009755
20373000,0.0324,0.013523,0.002678,0.000431,0.010460
20374000,0.0324,0.013523,0.002678,0.000431,0.009872
20375000,0.0324,0.013523,0.002678,0.000431,0.007874
20376000,0.0324,0.013523,0.002678,0.000431,0.007757
20377000,0.0324,0.013523,0.002678,0.000431,0.008580
20378000,0.0324,0.013523,0.002678,0.000431,0.006817
20379000,0.0324,0.013523,0.002678,0.000431,0.007052
20380000,0.0324,0.013523,0.002678,0.000431,0.006582
20381000,0.0324,0.013523,0.002678,0.000431,0.006934
20382000,0.0324,0.013523,0.002678,0.000431,0.008697
20383000,0.0324,0.013523,0.002678,0.000431,0.007874
20384000,0.0324,0.013523,0.002678,0.000431,0.005171
20385000,0.0324,0.013523,0.002678,0.000431,0.006347
20386000,0.0324,0.013523,0.002678,0.000431,0.004466
20387000,0.0324,0.013523,0.002678,0.000431,0.004466
20388000,0.0324,0.013523,0.002678,0.000431,0.004349
20389000,0.0324,0.013523,0.002678,0.000431,0.004231
20390000,0.0324,0.013523,0.002678,0.000431,0.004466
20391000,0.0324,0.013523,0.002678,0.000431,0.004231
20392000,0.0324,0.013523,0.002678,0.000431,0.004466
20393000,0.0324,0.013523,0.002678,0.000431,0.006347
20394000,0.0324,0.013523,0.002678,0.000431,0.003643
20395000,0.0324,0.013523,0.002678,0.000431,0.003526
20396000,0.0324,0.013523,0.002678,0.000431,0.003408
20397000,0.0324,0.013523,0.002678,0.000431,0.005406
20398000,0.0324,0.013523,0.002678,0.000431,0.002703
20399000,0.0324,0.013523,0.002678,0.000431,0.003761
20400000,0.0324,0.013523,0.002678,0.000431,0.003408
20401000,0.0324,0.013523,0.002678,0.000431,0.000705
20402000,0.0324,0.013523,0.002678,0.000431,0.000940
20403000,0.0324,0.013523,0.002678,0.000431,0.000823
20404000,0.0324,0.013523,0.002678,0.000431,0.000823
20405000,0.0324,0.013523,0.002678,0.000431,0.000823
20406000,0.0324,0.013523,0.002678,0.000431,0.000823
20407000,0.0324,0.013523,0.002678,0.000431,0.000823
20408000,0.0324,0.013523,0.002678,0.000431,0.000823
20409000,0.0324,0.013523,0.002678,0.000431,0.000940
20410000,0.0324,0.013523,0.002678,0.000431,0.000823
20411000,0.0324,0.013523,0.002678,0.000431,0.000823
20412000,0.0324,0.013523,0.002678,0.000431,0.000823
20413000,0.0324,0.013523,0.002678,0.000431,0.000823
20414000,0.0324,0.013523,0.002678,0.000431,0.000705
20415000,0.0324,0.013523,0.002678,0.000431,0.000940
20416000,0.0324,0.013523,0.002678,0.000431,0.000940
20417000,0.0324,0.013523,0.002678,0.000431,0.000705
20418000,0.0324,0.013523,0.002678,0.000431,0.000940
20419000,0.0324,0.013523,0.002678,0.000431,0.000705
20420000,0.0324,0.013523,0.002678,0.000431,0.000940
20421000,0.0324,0.013523,0.002678,0.000431,0.000823
20422000,0.0324,0.013523,0.002678,0.000431,0.000823
20423000,0.0324,0.013523,0.002678,0.000431,0.000940
20424000,0.0324,0.013523,0.002678,0.000431,0.000705
20425000,0.0324,0.013523,0.002678,0.000431,0.000940
20426000,0.0324,0.013523,0.002678,0.000431,0.000823
20427000,0.0324,0.013523,0.002678,0.000431,0.000823
20428000,0.0324,0.013523,0.002678,0.000431,0.000823
20429000,0.0324,0.013523,0.002678,0.000431,0.000823
20430000,0.0324,0.013523,0.002678,0.000431,0.000940
20431000,0.0324,0.013523,0.002678,0.000431,0.000705
20432000,0.0324,0.013523,0.002678,0.000431,0.000940
20433000,0.0324,0.013523,0.002678,0.000431,0.000823
20434000,0.0324,0.013523,0.002678,0.000431,0.000823
20435000,0.0324,0.013523,0.002678,0.000431,0.000823
20436000,0.0324,0.013523,0.002678,0.000431,0.000823
20437000,0.0324,0.013523,0.002678,0.000431,0.200738
20438000,0.0324,0.013523,0.002678,0.000431,0.508662
20439000,0.0324,0.013523,0.002678,0.000431,0.468232
20440000,0.0324,0.013523,0.002678,0.000431,0.134922
20441000,0.0324,0.013523,0.002678,0.000431,0.132102
20442000,0.0324,0.013523,0.002678,0.000431,0.585055
20443000,0.0324,0.013523,0.002678,0.000431,0.258680
20444000,0.0324,0.013523,0.002678,0.000431,0.256211
20445000,0.0324,0.013523,0.002678,0.000431,0.275016
20446000,0.0324,0.013523,0.002678,0.000431,0.140681
20447000,0.0324,0.013523,0.002678,0.000431,0.182286
20448000,0.0324,0.013523,0.002678,0.000431,0.094258
20449000,0.0324,0.013523,0.002678,0.000431,0.456362
20450000,0.0324,0.013523,0.002678,0.000431,0.047599
20451000,0.0324,0.013523,0.002678,0.000431,0.015044
20452000,0.0324,0.013523,0.002678,0.000431,0.009990
20453000,0.0324,0.013523,0.002678,0.000431,0.014456
20454000,0.0324,0.013523,0.002678,0.000431,0.006229
20455000,0.0324,0.013523,0.002678,0.000431,0.004349
20456000,0.0324,0.013523,0.002678,0.000431,0.004231
20457000,0.0324,0.013523,0.002678,0.000431,0.004113
20458000,0.0324,0.013523,0.002678,0.000431,0.005054
20459000,0.0324,0.013523,0.002678,0.000431,0.003291
20460000,0.0324,0.013523,0.002678,0.000431,0.003408
20461000,0.0324,0.013523,0.002678,0.000431,0.003408
20462000,0.0324,0.013523,0.002678,0.000431,0.003408
20463000,0.0324,0.013523,0.002678,0.000431,0.003291
20464000,0.0324,0.013523,0.002678,0.000431,0.003408
20465000,0.0324,0.013523,0.002678,0.000431,0.003526
20466000,0.0324,0.013523,0.002678,0.000431,0.003291
20467000,0.0324,0.013523,0.002678,0.000431,0.003526
20468000,0.0324,0.013523,0.002678,0.000431,0.003173
20469000,0.0324,0.013523,0.002678,0.000431,0.003526
20470000,0.0324,0.013523,0.002678,0.000431,0.003291
20471000,0.0324,0.013523,0.002678,0.000431,0.003291
20472000,0.0324,0.013523,0.002678,0.000431,0.003643
20473000,0.0324,0.013523,0.002678,0.000431,0.005641
20474000,0.0324,0.013523,0.002678,0.000431,0.002821
20475000,0.0324,0.013523,0.002678,0.000431,0.001528
20476000,0.0324,0.013523,0.002678,0.000431,0.001763
20477000,0.0324,0.013523,0.002678,0.000431,0.001645
20478000,0.0324,0.013523,0.002678,0.000431,0.001645
20479000,0.0324,0.013523,0.002678,0.000431,0.001763
20480000,0.0324,0.013523,0.002678,0.000431,0.001528
20481000,0.0324,0.013523,0.002678,0.000431,0.001880
20482000,0.0324,0.013523,0.002678,0.000431,0.001410
20483000,0.0324,0.013523,0.002678,0.000431,0.003291
20484000,0.0324,0.013523,0.002678,0.000431,0.000940
20485000,0.0324,0.013523,0.002678,0.000431,0.000823
20486000,0.0324,0.013523,0.002678,0.000431,0.000940
20487000,0.0324,0.013523,0.002678,0.000431,0.000705
20488000,0.0324,0.013523,0.002678,0.000431,0.000940
20489000,0.0324,0.013523,0.002678,0.000431,0.000823
20490000,0.0324,0.013523,0.002678,0.000431,0.000823
20491000,0.0324,0.013523,0.002678,0.000431,0.000823
20492000,0.0324,0.013523,0.002678,0.000431,0.000823
20493000,0.0324,0.013523,0.002678,0.000431,0.000940
20494000,0.0324,0.013523,0.002678,0.000431,0.000705
20495000,0.0324,0.013523,0.002678,0.000431,0.001645
20496000,0.0324,0.013523,0.002678,0.000431,0.311920
20497000,0.0324,0.013523,0.002678,0.000431,0.632184
20498000,0.0324,0.013523,0.002678,0.000431,0.185342
20499000,0.0324,0.013523,0.002678,0.000431,0.131984
20500000,0.0324,0.013523,0.002678,0.000431,0.133630
20501000,0.0324,0.013523,0.002678,0.000431,0.600216
20502000,0.0324,0.013523,0.002678,0.000431,0.221893
20503000,0.0324,0.013523,0.002678,0.000431,0.284066
20504000,0.0324,0.013523,0.002678,0.000431,0.266671
20505000,0.0324,0.013523,0.002678,0.000431,0.136685
20506000,0.0324,0.013523,0.002678,0.000431,0.149848
20507000,0.0324,0.013523,0.002678,0.000431,0.112004
20508000,0.0324,0.013523,0.002678,0.000431,0.397128
20509000,0.0324,0.013523,0.002678,0.000431,0.196625
20510000,0.0324,0.013523,0.002678,0.000431,0.046189
20511000,0.0324,0.013523,0.002678,0.000431,0.031380
20512000,0.0324,0.013523,0.002678,0.000431,0.032673
20513000,0.0324,0.013523,0.002678,0.000431,0.023271
20514000,0.0324,0.013523,0.002678,0.000431,0.022213
20515000,0.0324,0.013523,0.002678,0.000431,0.016101
20516000,0.0324,0.013523,0.002678,0.000431,0.019275
20517000,0.0324,0.013523,0.002678,0.000431,0.012458
20518000,0.0324,0.013523,0.002678,0.000431,0.010578
20519000,0.0324,0.013523,0.002678,0.000431,0.012105
20520000,0.0324,0.013523,0.002678,0.000431,0.008109
20521000,0.0324,0.013523,0.002678,0.000431,0.007522
20522000,0.0324,0.013523,0.002678,0.000431,0.010578
20523000,0.0324,0.013523,0.002678,0.000431,0.005876
20524000,0.0324,0.013523,0.002678,0.000431,0.006464
20525000,0.0324,0.013523,0.002678,0.000431,0.006111
20526000,0.0324,0.013523,0.002678,0.000431,0.005994
20527000,0.0324,0.013523,0.002678,0.000431,0.006111
20528000,0.0324,0.013523,0.002678,0.000431,0.006111
20529000,0.0324,0.013523,0.002678,0.000431,0.005759
20530000,0.0324,0.013523,0.002678,0.000431,0.006229
20531000,0.0324,0.013523,0.002678,0.000431,0.006229
20532000,0.0324,0.013523,0.002678,0.000431,0.006229
20533000,0.0324,0.013523,0.002678,0.000431,0.005759
20534000,0.0324,0.013523,0.002678,0.000431,0.007522
20535000,0.0324,0.013523,0.002678,0.000431,0.005406
20536000,0.0324,0.013523,0.002678,0.000431,0.004466
20537000,0.0324,0.013523,0.002678,0.000431,0.004231
20538000,0.0324,0.013523,0.002678,0.000431,0.004584
20539000,0.0324,0.013523,0.002678,0.000431,0.004466
20540000,0.0324,0.013523,0.002678,0.000431,0.004349
20541000,0.0324,0.013523,0.002678,0.000431,0.004113
20542000,0.0324,0.013523,0.002678,0.000431,0.006699
20543000,0.0324,0.013523,0.002678,0.000431,0.003408
20544000,0.0324,0.013523,0.002678,0.000431,0.003408
20545000,0.0324,0.013523,0.002678,0.000431,0.003761
20546000,0.0324,0.013523,0.002678,0.000431,0.003408
20547000,0.0324,0.013523,0.002678,0.000431,0.003643
20548000,0.0324,0.013523,0.002678,0.000431,0.003291
20549000,0.0324,0.013523,0.002678,0.000431,0.003761
20550000,0.0324,0.013523,0.002678,0.000431,0.003526
20551000,0.0324,0.013523,0.002678,0.000431,0.003291
20552000,0.0324,0.013523,0.002678,0.000431,0.003643
20553000,0.0324,0.013523,0.002678,0.000431,0.003526
20554000,0.0324,0.013523,0.002678,0.000431,0.003761
20555000,0.0324,0.013523,0.002678,0.000431,0.003291
20556000,0.0324,0.013523,0.002678,0.000431,0.003643
20557000,0.0324,0.013523,0.002678,0.000431,0.003526
20558000,0.0324,0.013523,0.002678,0.000431,0.005759
20559000,0.0324,0.013523,0.002678,0.000431,0.002821
20560000,0.0324,0.013523,0.002678,0.000431,0.002586
20561000,0.0324,0.013523,0.002678,0.000431,0.003056
20562000,0.0324,0.013523,0.002678,0.000431,0.002351
20563000,0.0324,0.013523,0.002678,0.000431,0.002703
20564000,0.0324,0.013523,0.002678,0.000431,0.002703
20565000,0.0324,0.013523,0.002678,0.000431,0.002703
20566000,0.0324,0.013523,0.002678,0.000431,0.002938
20567000,0.0324,0.013523,0.002678,0.000431,0.002351
20568000,0.0324,0.013523,0.002678,0.000431,0.003056
20569000,0.0324,0.013523,0.002678,0.000431,0.002586
20570000,0.0324,0.013523,0.002678,0.000431,0.002351
20571000,0.0324,0.013523,0.002678,0.000431,0.002938
20572000,0.0324,0.013523,0.002678,0.000431,0.002703
20573000,0.0324,0.013523,0.002678,0.000431,0.002938
20574000,0.0324,0.013523,0.002678,0.000431,0.002351
20575000,0.0324,0.013523,0.002678,0.000431,0.002821
20576000,0.0324,0.013523,0.002678,0.000431,0.002703
20577000,0.0324,0.013523,0.002678,0.000431,0.002586
20578000,0.0324,0.013523,0.002678,0.000431,0.002821
20579000,0.0324,0.013523,0.002678,0.000431,0.002586
20580000,0.0324,0.013523,0.002678,0.000431,0.002821
20581000,0.0324,0.013523,0.002678,0.000431,0.002586
20582000,0.0324,0.013523,0.002678,0.000431,0.002351
20583000,0.0324,0.013523,0.002678,0.000431,0.003056
20584000,0.0324,0.013523,0.002678,0.000431,0.004113
20585000,0.0324,0.013523,0.002678,0.000431,0.001410
20586000,0.0324,0.013523,0.002678,0.000431,0.001880
20587000,0.0324,0.013523,0.002678,0.000431,0.001645
20588000,0.0324,0.013523,0.002678,0.000431,0.001880
20589000,0.0324,0.013523,0.002678,0.000431,0.001645
20590000,0.0324,0.013523,0.002678,0.000431,0.001645
20591000,0.0324,0.013523,0.002678,0.000431,0.001880
20592000,0.0324,0.013523,0.002678,0.000431,0.001528
20593000,0.0324,0.013523,0.002678,0.000431,0.001763
20594000,0.0324,0.013523,0.002678,0.000431,0.001763
20595000,0.0324,0.013523,0.002678,0.000431,0.002468
20596000,0.0324,0.013523,0.002678,0.000431,0.168183
20597000,0.0324,0.013523,0.002678,0.000431,0.452248
20598000,0.0324,0.013523,0.002678,0.000431,0.525821
20599000,0.0324,0.013523,0.002678,0.000431,0.134922
20600000,0.0324,0.013523,0.002678,0.000431,0.132102
20601000,0.0324,0.013523,0.002678,0.000431,0.595280
20602000,0.0324,0.013523,0.002678,0.000431,0.270080
20603000,0.0324,0.013523,0.002678,0.000431,0.228945
20604000,0.0324,0.013523,0.002678,0.000431,0.296641
20605000,0.0324,0.013523,0.002678,0.000431,0.144912
20606000,0.0324,0.013523,0.002678,0.000431,0.152669
20607000,0.0324,0.013523,0.002678,0.000431,0.100839
20608000,0.0324,0.013523,0.002678,0.000431,0.433326
20609000,0.0324,0.013523,0.002678,0.000431,0.135040
20610000,0.0324,0.013523,0.002678,0.000431,0.033378
20611000,0.0324,0.013523,0.002678,0.000431,0.029970
20612000,0.0324,0.013523,0.002678,0.000431,0.031145
20613000,0.0324,0.013523,0.002678,0.000431,0.016219
20614000,0.0324,0.013523,0.002678,0.000431,0.018922
20615000,0.0324,0.013523,0.002678,0.000431,0.015749
20616000,0.0324,0.013523,0.002678,0.000431,0.015161
20617000,0.0324,0.013523,0.002678,0.000431,0.009755
20618000,0.0324,0.013523,0.002678,0.000431,0.010578
20619000,0.0324,0.013523,0.002678,0.000431,0.009285
20620000,0.0324,0.013523,0.002678,0.000431,0.010107
20621000,0.0324,0.013523,0.002678,0.000431,0.004231
20622000,0.0324,0.013523,0.002678,0.000431,0.003643
20623000,0.0324,0.013523,0.002678,0.000431,0.004231
20624000,0.0324,0.013523,0.002678,0.000431,0.004113
20625000,0.0324,0.013523,0.002678,0.000431,0.004113
20626000,0.0324,0.013523,0.002678,0.000431,0.003996
20627000,0.0324,0.013523,0.002678,0.000431,0.004231
20628000,0.0324,0.013523,0.002678,0.000431,0.004466
20629000,0.0324,0.013523,0.002678,0.000431,0.003761
20630000,0.0324,0.013523,0.002678,0.000431,0.004584
20631000,0.0324,0.013523,0.002678,0.000431,0.003878
20632000,0.0324,0.013523,0.002678,0.000431,0.004349
20633000,0.0324,0.013523,0.002678,0.000431,0.004231
20634000,0.0324,0.013523,0.002678,0.000431,0.003878
20635000,0.0324,0.013523,0.002678,0.000431,0.007052
20636000,0.0324,0.013523,0.002678,0.000431,0.002586
20637000,0.0324,0.013523,0.002678,0.000431,0.004113
20638000,0.0324,0.013523,0.002678,0.000431,0.001645
20639000,0.0324,0.013523,0.002678,0.000431,0.001880
20640000,0.0324,0.013523,0.002678,0.000431,0.001763
20641000,0.0324,0.013523,0.002678,0.000431,0.001528
20642000,0.0324,0.013523,0.002678,0.000431,0.001880
20643000,0.0324,0.013523,0.002678,0.000431,0.001645
20644000,0.0324,0.013523,0.002678,0.000431,0.001763
20645000,0.0324,0.013523,0.002678,0.000431,0.001645
20646000,0.0324,0.013523,0.002678,0.000431,0.001763
20647000,0.0324,0.013523,0.002678,0.000431,0.001763
20648000,0.0324,0.013523,0.002678,0.000431,0.001645
20649000,0.0324,0.013523,0.002678,0.000431,0.001763
20650000,0.0324,0.013523,0.002678,0.000431,0.001645
20651000,0.0324,0.013523,0.002678,0.000431,0.001763
20652000,0.0324,0.013523,0.002678,0.000431,0.001645
20653000,0.0324,0.013523,0.002678,0.000431,0.001763
20654000,0.0324,0.013523,0.002678,0.000431,0.001763
20655000,0.0324,0.013523,0.002678,0.000431,0.001645
20656000,0.0324,0.013523,0.002678,0.000431,0.001528
20657000,0.0324,0.013523,0.002678,0.000431,0.001880
20658000,0.0324,0.013523,0.002678,0.000431,0.001880
20659000,0.0324,0.013523,0.002678,0.000431,0.001645
20660000,0.0324,0.013523,0.002678,0.000431,0.001645
20661000,0.0324,0.013523,0.002678,0.000431,0.002468
20662000,0.0324,0.013523,0.002678,0.000431,0.001880
20663000,0.0324,0.013523,0.002678,0.000431,0.000823
20664000,0.0324,0.013523,0.002678,0.000431,0.000823
20665000,0.0324,0.013523,0.002678,0.000431,0.000940
20666000,0.0324,0.013523,0.002678,0.000431,0.000705
20667000,0.0324,0.013523,0.002678,0.000431,0.000940
20668000,0.0324,0.013523,0.002678,0.000431,0.000823
20669000,0.0324,0.013523,0.002678,0.000431,0.000823
20670000,0.0324,0.013523,0.002678,0.000431,0.000823
20671000,0.0324,0.013523,0.002678,0.000431,0.000823
20672000,0.0324,0.013523,0.002678,0.000431,0.000823
20673000,0.0324,0.013523,0.002678,0.000431,0.000823
20674000,0.0324,0.013523,0.002678,0.000431,0.000940
20675000,0.0324,0.013523,0.002678,0.000431,0.000705
20676000,0.0324,0.013523,0.002678,0.000431,0.000823
20677000,0.0324,0.013523,0.002678,0.000431,0.000940
20678000,0.0324,0.013523,0.002678,0.000431,0.000823
20679000,0.0324,0.013523,0.002678,0.000431,0.000823
20680000,0.0324,0.013523,0.002678,0.000431,0.000823
20681000,0.0324,0.013523,0.002678,0.000431,0.000823
20682000,0.0324,0.013523,0.002678,0.000431,0.000823
20683000,0.0324,0.013523,0.002678,0.000431,0.000940
20684000,0.0324,0.013523,0.002678,0.000431,0.000823
20685000,0.0324,0.013523,0.002678,0.000431,0.000823
20686000,0.0324,0.013523,0.002678,0.000431,0.000705
20687000,0.0324,0.013523,0.002678,0.000431,0.000940
20688000,0.0324,0.013523,0.002678,0.000431,0.000940
20689000,0.0324,0.013523,0.002678,0.000431,0.000705
20690000,0.0324,0.013523,0.002678,0.000431,0.000940
20691000,0.0324,0.013523,0.002678,0.000431,0.000705
20692000,0.0324,0.013523,0.002678,0.000431,0.000940
20693000,0.0324,0.013523,0.002678,0.000431,0.000823
20694000,0.0324,0.013523,0.002678,0.000431,0.000823
20695000,0.0324,0.013523,0.002678,0.000431,0.000940
20696000,0.0324,0.013523,0.002678,0.000431,0.000705
20697000,0.0324,0.013523,0.002678,0.000431,0.000940
20698000,0.0324,0.013523,0.002678,0.000431,0.000823
20699000,0.0324,0.013523,0.002678,0.000431,0.000823
20700000,0.0324,0.013523,0.002678,0.000431,0.000823
20701000,0.0324,0.013523,0.002678,0.000431,0.000823
20702000,0.0324,0.013523,0.002678,0.000431,0.000823
20703000,0.0324,0.013523,0.002678,0.000431,0.000823
20704000,0.0324,0.013523,0.002678,0.000431,0.000940
20705000,0.0324,0.013523,0.002678,0.000431,0.000705
20706000,0.0324,0.013523,0.002678,0.000431,0.000940
20707000,0.0324,0.013523,0.002678,0.000431,0.000823
20708000,0.0324,0.013523,0.002678,0.000431,0.000823
20709000,0.0324,0.013523,0.002678,0.000431,0.000705
20710000,0.0324,0.013523,0.002678,0.000431,0.000940
20711000,0.0324,0.013523,0.002678,0.000431,0.000940
20712000,0.0324,0.013523,0.002678,0.000431,0.000705
20713000,0.0324,0.013523,0.002678,0.000431,0.000940
20714000,0.0324,0.013523,0.002678,0.000431,0.000705
20715000,0.0324,0.013523,0.002678,0.000431,0.000940
20716000,0.0324,0.013523,0.002678,0.000431,0.000823
20717000,0.0324,0.013523,0.002678,0.000431,0.000823
20718000,0.0324,0.013523,0.002678,0.000431,0.000823
20719000,0.0324,0.013523,0.002678,0.000431,0.000823
20720000,0.0324,0.013523,0.002678,0.000431,0.000940
20721000,0.0324,0.013523,0.002678,0.000431,0.000705
20722000,0.0324,0.013523,0.002678,0.000431,0.000940
20723000,0.0324,0.013523,0.002678,0.000431,0.000823
20724000,0.0324,0.013523,0.002678,0.000431,0.000823
20725000,0.0324,0.013523,0.002678,0.000431,0.000823
20726000,0.0324,0.013523,0.002678,0.000431,0.000823
20727000,0.0324,0.013523,0.002678,0.000431,0.000823
20728000,0.0324,0.013523,0.002678,0.000431,0.000823
20729000,0.0324,0.013523,0.002678,0.000431,0.000823
20730000,0.0324,0.013523,0.002678,0.000431,0.000940
20731000,0.0324,0.013523,0.002678,0.000431,0.000823
20732000,0.0324,0.013523,0.002678,0.000431,0.000823
20733000,0.0324,0.013523,0.002678,0.000431,0.000823
20734000,0.0324,0.013523,0.002678,0.000431,0.000705
20735000,0.0324,0.013523,0.002678,0.000431,0.000940
20736000,0.0324,0.013523,0.002678,0.000431,0.000940
20737000,0.0324,0.013523,0.002678,0.000431,0.000705
20738000,0.0324,0.013523,0.002678,0.000431,0.000940
20739000,0.0324,0.013523,0.002678,0.000431,0.000705
20740000,0.0324,0.013523,0.002678,0.000431,0.000940
20741000,0.0324,0.013523,0.002678,0.000431,0.000823
20742000,0.0324,0.013523,0.002678,0.000431,0.000823
20743000,0.0324,0.013523,0.002678,0.000431,0.000940
20744000,0.0324,0.013523,0.002678,0.000431,0.000705
20745000,0.0324,0.013523,0.002678,0.000431,0.000940
20746000,0.0324,0.013523,0.002678,0.000431,0.000823
20747000,0.0324,0.013523,0.002678,0.000431,0.000823
20748000,0.0324,0.013523,0.002678,0.000431,0.000823
20749000,0.0324,0.013523,0.002678,0.000431,0.000823
20750000,0.0324,0.013523,0.002678,0.000431,0.000940
20751000,0.0324,0.013523,0.002678,0.000431,0.000705
20752000,0.0324,0.013523,0.002678,0.000431,0.000940
20753000,0.0324,0.013523,0.002678,0.000431,0.000705
20754000,0.0324,0.013523,0.002678,0.000431,0.000940
20755000,0.0324,0.013523,0.002678,0.000431,0.000823
20756000,0.0324,0.013523,0.002678,0.000431,0.000823
20757000,0.0324,0.013523,0.002678,0.000431,0.000705
20758000,0.0324,0.013523,0.002678,0.000431,0.000940
20759000,0.0324,0.013523,0.002678,0.000431,0.000940
20760000,0.0324,0.013523,0.002678,0.000431,0.000705
20761000,0.0324,0.013523,0.002678,0.000431,0.000940
20762000,0.0324,0.013523,0.002678,0.000431,0.000705
20763000,0.0324,0.013523,0.002678,0.000431,0.000940
20764000,0.0324,0.013523,0.002678,0.000431,0.000823
20765000,0.0324,0.013523,0.002678,0.000431,0.000823
20766000,0.0324,0.013523,0.002678,0.000431,0.000940
20767000,0.0324,0.013523,0.002678,0.000431,0.000705
20768000,0.0324,0.013523,0.002678,0.000431,0.000940
20769000,0.0324,0.013523,0.002678,0.000431,0.000823
20770000,0.0324,0.013523,0.002678,0.000431,0.000823
20771000,0.0324,0.013523,0.002678,0.000431,0.000823
20772000,0.0324,0.013523,0.002678,0.000431,0.000823
20773000,0.0324,0.013523,0.002678,0.000431,0.000823
20774000,0.0324,0.013523,0.002678,0.000431,0.000823
20775000,0.0324,0.013523,0.002678,0.000431,0.000940
20776000,0.0324,0.013523,0.002678,0.000431,0.000705
20777000,0.0324,0.013523,0.002678,0.000431,0.000823
20778000,0.0324,0.013523,0.002678,0.000431,0.000940
20779000,0.0324,0.013523,0.002678,0.000431,0.000823
20780000,0.0324,0.013523,0.002678,0.000431,0.000823
20781000,0.0324,0.013523,0.002678,0.000431,0.000823
20782000,0.0324,0.013523,0.002678,0.000431,0.000823
20783000,0.0324,0.013523,0.002678,0.000431,0.000823
20784000,0.0324,0.013523,0.002678,0.000431,0.000940
20785000,0.0324,0.013523,0.002678,0.000431,0.000823
20786000,0.0324,0.013523,0.002678,0.000431,0.000823
20787000,0.0324,0.013523,0.002678,0.000431,0.000705
20788000,0.0324,0.013523,0.002678,0.000431,0.000940
20789000,0.0324,0.013523,0.002678,0.000431,0.000940
20790000,0.0324,0.013523,0.002678,0.000431,0.000705
20791000,0.0324,0.013523,0.002678,0.000431,0.000940
20792000,0.0324,0.013523,0.002678,0.000431,0.000705
20793000,0.0324,0.013523,0.002678,0.000431,0.000940
20794000,0.0324,0.013523,0.002678,0.000431,0.000823
20795000,0.0324,0.013523,0.002678,0.000431,0.000823
20796000,0.0324,0.013523,0.002678,0.000431,0.000940
20797000,0.0324,0.013523,0.002678,0.000431,0.000705
20798000,0.0324,0.013523,0.002678,0.000431,0.000940
20799000,0.0324,0.013523,0.002678,0.000431,0.000823
20800000,0.0324,0.013523,0.002678,0.000431,0.000823
20801000,0.0324,0.013523,0.002678,0.000431,0.000823
20802000,0.0324,0.013523,0.002678,0.000431,0.000823
20803000,0.0324,0.013523,0.002678,0.000431,0.000823
20804000,0.0324,0.013523,0.002678,0.000431,0.000823
20805000,0.0324,0.013523,0.002678,0.000431,0.000940
20806000,0.0324,0.013523,0.002678,0.000431,0.000705
20807000,0.0324,0.013523,0.002678,0.000431,0.000940
20808000,0.0324,0.013523,0.002678,0.000431,0.000823
20809000,0.0324,0.013523,0.002678,0.000431,0.000823
20810000,0.0324,0.013523,0.002678,0.000431,0.000705
20811000,0.0324,0.013523,0.002678,0.000431,0.000940
20812000,0.0324,0.013523,0.002678,0.000431,0.000940
20813000,0.0324,0.013523,0.002678,0.000431,0.000705
20814000,0.0324,0.013523,0.002678,0.000431,0.000940
20815000,0.0324,0.013523,0.002678,0.000431,0.000705
20816000,0.0324,0.013523,0.002678,0.000431,0.000940
20817000,0.0324,0.013523,0.002678,0.000431,0.000823
20818000,0.0324,0.013523,0.002678,0.000431,0.000823
20819000,0.0324,0.013523,0.002678,0.000431,0.000940
20820000,0.0324,0.013523,0.002678,0.000431,0.000705
20821000,0.0324,0.013523,0.002678,0.000431,0.000940
20822000,0.0324,0.013523,0.002678,0.000431,0.000823
20823000,0.0324,0.013523,0.002678,0.000431,0.000823
20824000,0.0324,0.013523,0.002678,0.000431,0.000823
20825000,0.0324,0.013523,0.002678,0.000431,0.000823
20826000,0.0324,0.013523,0.002678,0.000431,0.000940
20827000,0.0324,0.013523,0.002678,0.000431,0.000705
20828000,0.0324,0.013523,0.002678,0.000431,0.000940
20829000,0.0324,0.013523,0.002678,0.000431,0.000823
20830000,0.0324,0.013523,0.002678,0.000431,0.000823
20831000,0.0324,0.013523,0.002678,0.000431,0.000823
20832000,0.0324,0.013523,0.002678,0.000431,0.000823
20833000,0.0324,0.013523,0.002678,0.000431,0.000940
20834000,0.0324,0.013523,0.002678,0.000431,0.000705
20835000,0.0324,0.013523,0.002678,0.000431,0.000940
20836000,0.0324,0.013523,0.002678,0.000431,0.000823
20837000,0.0324,0.013523,0.002678,0.000431,0.000823
20838000,0.0324,0.013523,0.002678,0.000431,0.000823
20839000,0.0324,0.013523,0.002678,0.000431,0.000823
20840000,0.0324,0.013523,0.002678,0.000431,0.000823
20841000,0.0324,0.013523,0.002678,0.000431,0.000823
20842000,0.0324,0.013523,0.002678,0.000431,0.001763
20843000,0.0324,0.013523,0.002678,0.000431,0.349176
20844000,0.0324,0.013523,0.002678,0.000431,0.677315
20845000,0.0324,0.013523,0.002678,0.000431,0.149848
20846000,0.0324,0.013523,0.002678,0.000431,0.134452
20847000,0.0324,0.013523,0.002678,0.000431,0.132219
20848000,0.0324,0.013523,0.002678,0.000431,0.601157
20849000,0.0324,0.013523,0.002678,0.000431,0.231295
20850000,0.0324,0.013523,0.002678,0.000431,0.275486
20851000,0.0324,0.013523,0.002678,0.000431,0.258209
20852000,0.0324,0.013523,0.002678,0.000431,0.142679
20853000,0.0324,0.013523,0.002678,0.000431,0.178760
20854000,0.0324,0.013523,0.002678,0.000431,0.091554
20855000,0.0324,0.013523,0.002678,0.000431,0.464824
20856000,0.0324,0.013523,0.002678,0.000431,0.073690
20857000,0.0324,0.013523,0.002678,0.000431,0.027737
20858000,0.0324,0.013523,0.002678,0.000431,0.018334
20859000,0.0324,0.013523,0.002678,0.000431,0.018922
20860000,0.0324,0.013523,0.002678,0.000431,0.012223
20861000,0.0324,0.013523,0.002678,0.000431,0.012105
20862000,0.0324,0.013523,0.002678,0.000431,0.009167
20863000,0.0324,0.013523,0.002678,0.000431,0.009050
20864000,0.0324,0.013523,0.002678,0.000431,0.008109
20865000,0.0324,0.013523,0.002678,0.000431,0.006229
20866000,0.0324,0.013523,0.002678,0.000431,0.005876
20867000,0.0324,0.013523,0.002678,0.000431,0.006111
20868000,0.0324,0.013523,0.002678,0.000431,0.005876
20869000,0.0324,0.013523,0.002678,0.000431,0.009285
20870000,0.0324,0.013523,0.002678,0.000431,0.004936
20871000,0.0324,0.013523,0.002678,0.000431,0.004113
20872000,0.0324,0.013523,0.002678,0.000431,0.004349
20873000,0.0324,0.013523,0.002678,0.000431,0.005406
20874000,0.0324,0.013523,0.002678,0.000431,0.005406
20875000,0.0324,0.013523,0.002678,0.000431,0.002233
20876000,0.0324,0.013523,0.002678,0.000431,0.002586
20877000,0.0324,0.013523,0.002678,0.000431,0.002821
20878000,0.0324,0.013523,0.002678,0.000431,0.002351
20879000,0.0324,0.013523,0.002678,0.000431,0.002586
20880000,0.0324,0.013523,0.002678,0.000431,0.002586
20881000,0.0324,0.013523,0.002678,0.000431,0.002351
20882000,0.0324,0.013523,0.002678,0.000431,0.002586
20883000,0.0324,0.013523,0.002678,0.000431,0.002821
20884000,0.0324,0.013523,0.002678,0.000431,0.002351
20885000,0.0324,0.013523,0.002678,0.000431,0.002703
20886000,0.0324,0.013523,0.002678,0.000431,0.003526
20887000,0.0324,0.013523,0.002678,0.000431,0.001880
20888000,0.0324,0.013523,0.002678,0.000431,0.001645
20889000,0.0324,0.013523,0.002678,0.000431,0.001645
20890000,0.0324,0.013523,0.002678,0.000431,0.001645
20891000,0.0324,0.013523,0.002678,0.000431,0.001645
20892000,0.0324,0.013523,0.002678,0.000431,0.001645
20893000,0.0324,0.013523,0.002678,0.000431,0.001645
20894000,0.0324,0.013523,0.002678,0.000431,0.001410
20895000,0.0324,0.013523,0.002678,0.000431,0.001880
20896000,0.0324,0.013523,0.002678,0.000431,0.001880
20897000,0.0324,0.013523,0.002678,0.000431,0.001410
20898000,0.0324,0.013523,0.002678,0.000431,0.001880
20899000,0.0324,0.013523,0.002678,0.000431,0.001410
20900000,0.0324,0.013523,0.002678,0.000431,0.001880
20901000,0.0324,0.013523,0.002678,0.000431,0.001645
20902000,0.0324,0.013523,0.002678,0.000431,0.001645
20903000,0.0324,0.013523,0.002678,0.000431,0.001645
20904000,0.0324,0.013523,0.002678,0.000431,0.001645
20905000,0.0324,0.013523,0.002678,0.000431,0.001645
20906000,0.0324,0.013523,0.002678,0.000431,0.001645
20907000,0.0324,0.013523,0.002678,0.000431,0.001645
20908000,0.0324,0.013523,0.002678,0.000431,0.001645
20909000,0.0324,0.013523,0.002678,0.000431,0.001528
20910000,0.0324,0.013523,0.002678,0.000431,0.001763
20911000,0.0324,0.013523,0.002678,0.000431,0.001880
20912000,0.0324,0.013523,0.002678,0.000431,0.001410
20913000,0.0324,0.013523,0.002678,0.000431,0.001880
20914000,0.0324,0.013523,0.002678,0.000431,0.001058
20915000,0.0324,0.013523,0.002678,0.000431,0.000940
20916000,0.0324,0.013523,0.002678,0.000431,0.000823
20917000,0.0324,0.013523,0.002678,0.000431,0.000823
20918000,0.0324,0.013523,0.002678,0.000431,0.000940
20919000,0.0324,0.013523,0.002678,0.000431,0.000705
20920000,0.0324,0.013523,0.002678,0.000431,0.000940
20921000,0.0324,0.013523,0.002678,0.000431,0.000823
20922000,0.0324,0.013523,0.002678,0.000431,0.000823
20923000,0.0324,0.013523,0.002678,0.000431,0.000823
20924000,0.0324,0.013523,0.002678,0.000431,0.000823
20925000,0.0324,0.013523,0.002678,0.000431,0.000940
20926000,0.0324,0.013523,0.002678,0.000431,0.000705
20927000,0.0324,0.013523,0.002678,0.000431,0.000940
20928000,0.0324,0.013523,0.002678,0.000431,0.000823
20929000,0.0324,0.013523,0.002678,0.000431,0.000823
20930000,0.0324,0.013523,0.002678,0.000431,0.000823
20931000,0.0324,0.013523,0.002678,0.000431,0.000823
20932000,0.0324,0.013523,0.002678,0.000431,0.000705
20933000,0.0324,0.013523,0.002678,0.000431,0.000940
20934000,0.0324,0.013523,0.002678,0.000431,0.000940
20935000,0.0324,0.013523,0.002678,0.000431,0.000705
20936000,0.0324,0.013523,0.002678,0.000431,0.000940
20937000,0.0324,0.013523,0.002678,0.000431,0.000705
20938000,0.0324,0.013523,0.002678,0.000431,0.000940
20939000,0.0324,0.013523,0.002678,0.000431,0.000823
20940000,0.0324,0.013523,0.002678,0.000431,0.000823
20941000,0.0324,0.013523,0.002678,0.000431,0.000823
20942000,0.0324,0.013523,0.002678,0.000431,0.000823
20943000,0.0324,0.013523,0.002678,0.000431,0.000940
20944000,0.0324,0.013523,0.002678,0.000431,0.000823
20945000,0.0324,0.013523,0.002678,0.000431,0.000823
20946000,0.0324,0.013523,0.002678,0.000431,0.000823
20947000,0.0324,0.013523,0.002678,0.000431,0.000823
20948000,0.0324,0.013523,0.002678,0.000431,0.000823
20949000,0.0324,0.013523,0.002678,0.000431,0.000823
20950000,0.0324,0.013523,0.002678,0.000431,0.000940
20951000,0.0324,0.013523,0.002678,0.000431,0.000705
20952000,0.0324,0.013523,0.002678,0.000431,0.000823
20953000,0.0324,0.013523,0.002678,0.000431,0.000940
20954000,0.0324,0.013523,0.002678,0.000431,0.000823
20955000,0.0324,0.013523,0.002678,0.000431,0.000823
20956000,0.0324,0.013523,0.002678,0.000431,0.000823
20957000,0.0324,0.013523,0.002678,0.000431,0.000705
20958000,0.0324,0.013523,0.002678,0.000431,0.000940
20959000,0.0324,0.013523,0.002678,0.000431,0.000940
20960000,0.0324,0.013523,0.002678,0.000431,0.000705
20961000,0.0324,0.013523,0.002678,0.000431,0.000940
20962000,0.0324,0.013523,0.002678,0.000431,0.000705
20963000,0.0324,0.013523,0.002678,0.000431,0.000940
20964000,0.0324,0.013523,0.002678,0.000431,0.062290
20965000,0.0324,0.013523,0.002678,0.000431,0.429213
20966000,0.0324,0.013523,0.002678,0.000431,0.602685
20967000,0.0324,0.013523,0.002678,0.000431,0.131161
20968000,0.0324,0.013523,0.002678,0.000431,0.133512
20969000,0.0324,0.013523,0.002678,0.000431,0.532520
20970000,0.0324,0.013523,0.002678,0.000431,0.247984
20971000,0.0324,0.013523,0.002678,0.000431,0.233999
20972000,0.0324,0.013523,0.002678,0.000431,0.373740
20973000,0.0324,0.013523,0.002678,0.000431,0.149026
20974000,0.0324,0.013523,0.002678,0.000431,0.145617
20975000,0.0324,0.013523,0.002678,0.000431,0.116353
20976000,0.0324,0.013523,0.002678,0.000431,0.303693
20977000,0.0324,0.013523,0.002678,0.000431,0.281833
20978000,0.0324,0.013523,0.002678,0.000431,0.037844
20979000,0.0324,0.013523,0.002678,0.000431,0.028207
20980000,0.0324,0.013523,0.002678,0.000431,0.020685
20981000,0.0324,0.013523,0.002678,0.000431,0.018922
20982000,0.0324,0.013523,0.002678,0.000431,0.009755
20983000,0.0324,0.013523,0.002678,0.000431,0.010107
20984000,0.0324,0.013523,0.002678,0.000431,0.008815
20985000,0.0324,0.013523,0.002678,0.000431,0.006699
20986000,0.0324,0.013523,0.002678,0.000431,0.006699
20987000,0.0324,0.013523,0.002678,0.000431,0.009402
20988000,0.0324,0.013523,0.002678,0.000431,0.006934
20989000,0.0324,0.013523,0.002678,0.000431,0.004231
20990000,0.0324,0.013523,0.002678,0.000431,0.004584
20991000,0.0324,0.013523,0.002678,0.000431,0.005641
20992000,0.0324,0.013523,0.002678,0.000431,0.003173
20993000,0.0324,0.013523,0.002678,0.000431,0.003526
20994000,0.0324,0.013523,0.002678,0.000431,0.003526
20995000,0.0324,0.013523,0.002678,0.000431,0.003408
20996000,0.0324,0.013523,0.002678,0.000431,0.003408
20997000,0.0324,0.013523,0.002678,0.000431,0.003526
20998000,0.0324,0.013523,0.002678,0.000431,0.004466
20999000,0.0324,0.013523,0.002678,0.000431,0.002586
