Cycle,Area(mm^2),PeakDynamic(W),SubthresholdLeakage(W),GateLeakage(W),RunTimeDynamic(W)
1000000,0.0324,0.013523,0.002678,0.000431,0.001645
1001000,0.0324,0.013523,0.002678,0.000431,0.001528
1002000,0.0324,0.013523,0.002678,0.000431,0.001763
1003000,0.0324,0.013523,0.002678,0.000431,0.001645
1004000,0.0324,0.013523,0.002678,0.000431,0.001410
1005000,0.0324,0.013523,0.002678,0.000431,0.001880
1006000,0.0324,0.013523,0.002678,0.000431,0.001645
1007000,0.0324,0.013523,0.002678,0.000431,0.001645
1008000,0.0324,0.013523,0.002678,0.000431,0.001645
1009000,0.0324,0.013523,0.002678,0.000431,0.001645
1010000,0.0324,0.013523,0.002678,0.000431,0.001645
1011000,0.0324,0.013523,0.002678,0.000431,0.001645
1012000,0.0324,0.013523,0.002678,0.000431,0.001645
1013000,0.0324,0.013523,0.002678,0.000431,0.001763
1014000,0.0324,0.013523,0.002678,0.000431,0.001528
1015000,0.0324,0.013523,0.002678,0.000431,0.001645
1016000,0.0324,0.013523,0.002678,0.000431,0.001645
1017000,0.0324,0.013523,0.002678,0.000431,0.001645
1018000,0.0324,0.013523,0.002678,0.000431,0.001528
1019000,0.0324,0.013523,0.002678,0.000431,0.001763
1020000,0.0324,0.013523,0.002678,0.000431,0.001880
1021000,0.0324,0.013523,0.002678,0.000431,0.001410
1022000,0.0324,0.013523,0.002678,0.000431,0.001645
1023000,0.0324,0.013523,0.002678,0.000431,0.001645
1024000,0.0324,0.013523,0.002678,0.000431,0.001880
1025000,0.0324,0.013523,0.002678,0.000431,0.001410
1026000,0.0324,0.013523,0.002678,0.000431,0.001645
1027000,0.0324,0.013523,0.002678,0.000431,0.001880
1028000,0.0324,0.013523,0.002678,0.000431,0.001645
1029000,0.0324,0.013523,0.002678,0.000431,0.001410
1030000,0.0324,0.013523,0.002678,0.000431,0.001763
1031000,0.0324,0.013523,0.002678,0.000431,0.001763
1032000,0.0324,0.013523,0.002678,0.000431,0.001528
1033000,0.0324,0.013523,0.002678,0.000431,0.001528
1034000,0.0324,0.013523,0.002678,0.000431,0.001880
1035000,0.0324,0.013523,0.002678,0.000431,0.001645
1036000,0.0324,0.013523,0.002678,0.000431,0.001410
1037000,0.0324,0.013523,0.002678,0.000431,0.001880
1038000,0.0324,0.013523,0.002678,0.000431,0.001645
1039000,0.0324,0.013523,0.002678,0.000431,0.001645
1040000,0.0324,0.013523,0.002678,0.000431,0.001410
1041000,0.0324,0.013523,0.002678,0.000431,0.001880
1042000,0.0324,0.013523,0.002678,0.000431,0.001645
1043000,0.0324,0.013523,0.002678,0.000431,0.001645
1044000,0.0324,0.013523,0.002678,0.000431,0.001645
1045000,0.0324,0.013523,0.002678,0.000431,0.001645
1046000,0.0324,0.013523,0.002678,0.000431,0.001645
1047000,0.0324,0.013523,0.002678,0.000431,0.001528
1048000,0.0324,0.013523,0.002678,0.000431,0.001763
1049000,0.0324,0.013523,0.002678,0.000431,0.001645
1050000,0.0324,0.013523,0.002678,0.000431,0.001763
1051000,0.0324,0.013523,0.002678,0.000431,0.227652
1052000,0.0324,0.013523,0.002678,0.000431,0.689420
1053000,0.0324,0.013523,0.002678,0.000431,0.325671
1054000,0.0324,0.013523,0.002678,0.000431,0.131632
1055000,0.0324,0.013523,0.002678,0.000431,0.133512
1056000,0.0324,0.013523,0.002678,0.000431,0.586466
1057000,0.0324,0.013523,0.002678,0.000431,0.224361
1058000,0.0324,0.013523,0.002678,0.000431,0.264086
1059000,0.0324,0.013523,0.002678,0.000431,0.289824
1060000,0.0324,0.013523,0.002678,0.000431,0.143972
1061000,0.0324,0.013523,0.002678,0.000431,0.174059
1062000,0.0324,0.013523,0.002678,0.000431,0.098254
1063000,0.0324,0.013523,0.002678,0.000431,0.502668
1064000,0.0324,0.013523,0.002678,0.000431,0.076041
1065000,0.0324,0.013523,0.002678,0.000431,0.024446
1066000,0.0324,0.013523,0.002678,0.000431,0.009990
1067000,0.0324,0.013523,0.002678,0.000431,0.006817
1068000,0.0324,0.013523,0.002678,0.000431,0.006229
1069000,0.0324,0.013523,0.002678,0.000431,0.006229
1070000,0.0324,0.013523,0.002678,0.000431,0.007757
1071000,0.0324,0.013523,0.002678,0.000431,0.005641
1072000,0.0324,0.013523,0.002678,0.000431,0.005289
1073000,0.0324,0.013523,0.002678,0.000431,0.007052
1074000,0.0324,0.013523,0.002678,0.000431,0.004231
1075000,0.0324,0.013523,0.002678,0.000431,0.004349
1076000,0.0324,0.013523,0.002678,0.000431,0.006229
1077000,0.0324,0.013523,0.002678,0.000431,0.005054
1078000,0.0324,0.013523,0.002678,0.000431,0.003643
1079000,0.0324,0.013523,0.002678,0.000431,0.003526
1080000,0.0324,0.013523,0.002678,0.000431,0.003643
1081000,0.0324,0.013523,0.002678,0.000431,0.003526
1082000,0.0324,0.013523,0.002678,0.000431,0.003526
1083000,0.0324,0.013523,0.002678,0.000431,0.003408
1084000,0.0324,0.013523,0.002678,0.000431,0.005054
1085000,0.0324,0.013523,0.002678,0.000431,0.004349
1086000,0.0324,0.013523,0.002678,0.000431,0.001763
1087000,0.0324,0.013523,0.002678,0.000431,0.001645
1088000,0.0324,0.013523,0.002678,0.000431,0.001763
1089000,0.0324,0.013523,0.002678,0.000431,0.001763
1090000,0.0324,0.013523,0.002678,0.000431,0.001880
1091000,0.0324,0.013523,0.002678,0.000431,0.001645
1092000,0.0324,0.013523,0.002678,0.000431,0.005054
1093000,0.0324,0.013523,0.002678,0.000431,0.279835
1094000,0.0324,0.013523,0.002678,0.000431,0.664739
1095000,0.0324,0.013523,0.002678,0.000431,0.255859
1096000,0.0324,0.013523,0.002678,0.000431,0.131632
1097000,0.0324,0.013523,0.002678,0.000431,0.135392
1098000,0.0324,0.013523,0.002678,0.000431,0.605975
1099000,0.0324,0.013523,0.002678,0.000431,0.215547
1100000,0.0324,0.013523,0.002678,0.000431,0.317209
1101000,0.0324,0.013523,0.002678,0.000431,0.221776
1102000,0.0324,0.013523,0.002678,0.000431,0.138566
1103000,0.0324,0.013523,0.002678,0.000431,0.151376
1104000,0.0324,0.013523,0.002678,0.000431,0.110712
1105000,0.0324,0.013523,0.002678,0.000431,0.481630
1106000,0.0324,0.013523,0.002678,0.000431,0.145735
1107000,0.0324,0.013523,0.002678,0.000431,0.035494
1108000,0.0324,0.013523,0.002678,0.000431,0.026326
1109000,0.0324,0.013523,0.002678,0.000431,0.019275
1110000,0.0324,0.013523,0.002678,0.000431,0.017159
1111000,0.0324,0.013523,0.002678,0.000431,0.019392
1112000,0.0324,0.013523,0.002678,0.000431,0.018687
1113000,0.0324,0.013523,0.002678,0.000431,0.012693
1114000,0.0324,0.013523,0.002678,0.000431,0.010930
1115000,0.0324,0.013523,0.002678,0.000431,0.011048
1116000,0.0324,0.013523,0.002678,0.000431,0.010930
1117000,0.0324,0.013523,0.002678,0.000431,0.013398
1118000,0.0324,0.013523,0.002678,0.000431,0.009520
1119000,0.0324,0.013523,0.002678,0.000431,0.009755
1120000,0.0324,0.013523,0.002678,0.000431,0.008345
1121000,0.0324,0.013523,0.002678,0.000431,0.005641
1122000,0.0324,0.013523,0.002678,0.000431,0.005289
1123000,0.0324,0.013523,0.002678,0.000431,0.008227
1124000,0.0324,0.013523,0.002678,0.000431,0.003526
1125000,0.0324,0.013523,0.002678,0.000431,0.003761
1126000,0.0324,0.013523,0.002678,0.000431,0.003408
1127000,0.0324,0.013523,0.002678,0.000431,0.004231
1128000,0.0324,0.013523,0.002678,0.000431,0.003761
1129000,0.0324,0.013523,0.002678,0.000431,0.002703
1130000,0.0324,0.013523,0.002678,0.000431,0.004113
1131000,0.0324,0.013523,0.002678,0.000431,0.002821
1132000,0.0324,0.013523,0.002678,0.000431,0.000940
1133000,0.0324,0.013523,0.002678,0.000431,0.000823
1134000,0.0324,0.013523,0.002678,0.000431,0.000823
1135000,0.0324,0.013523,0.002678,0.000431,0.000940
1136000,0.0324,0.013523,0.002678,0.000431,0.070869
1137000,0.0324,0.013523,0.002678,0.000431,0.516654
1138000,0.0324,0.013523,0.002678,0.000431,0.596338
1139000,0.0324,0.013523,0.002678,0.000431,0.132572
1140000,0.0324,0.013523,0.002678,0.000431,0.133512
1141000,0.0324,0.013523,0.002678,0.000431,0.548622
1142000,0.0324,0.013523,0.002678,0.000431,0.226594
1143000,0.0324,0.013523,0.002678,0.000431,0.282420
1144000,0.0324,0.013523,0.002678,0.000431,0.308747
1145000,0.0324,0.013523,0.002678,0.000431,0.138918
1146000,0.0324,0.013523,0.002678,0.000431,0.148673
1147000,0.0324,0.013523,0.002678,0.000431,0.114120
1148000,0.0324,0.013523,0.002678,0.000431,0.350352
1149000,0.0324,0.013523,0.002678,0.000431,0.288179
1150000,0.0324,0.013523,0.002678,0.000431,0.068754
1151000,0.0324,0.013523,0.002678,0.000431,0.056061
1152000,0.0324,0.013523,0.002678,0.000431,0.037962
1153000,0.0324,0.013523,0.002678,0.000431,0.045131
1154000,0.0324,0.013523,0.002678,0.000431,0.030322
1155000,0.0324,0.013523,0.002678,0.000431,0.028912
1156000,0.0324,0.013523,0.002678,0.000431,0.026444
1157000,0.0324,0.013523,0.002678,0.000431,0.027737
1158000,0.0324,0.013523,0.002678,0.000431,0.021743
1159000,0.0324,0.013523,0.002678,0.000431,0.020802
1160000,0.0324,0.013523,0.002678,0.000431,0.021743
1161000,0.0324,0.013523,0.002678,0.000431,0.019510
1162000,0.0324,0.013523,0.002678,0.000431,0.011283
1163000,0.0324,0.013523,0.002678,0.000431,0.009050
1164000,0.0324,0.013523,0.002678,0.000431,0.010813
1165000,0.0324,0.013523,0.002678,0.000431,0.007992
1166000,0.0324,0.013523,0.002678,0.000431,0.010460
1167000,0.0324,0.013523,0.002678,0.000431,0.006229
1168000,0.0324,0.013523,0.002678,0.000431,0.009637
1169000,0.0324,0.013523,0.002678,0.000431,0.004349
1170000,0.0324,0.013523,0.002678,0.000431,0.007522
1171000,0.0324,0.013523,0.002678,0.000431,0.005289
1172000,0.0324,0.013523,0.002678,0.000431,0.002703
1173000,0.0324,0.013523,0.002678,0.000431,0.002586
1174000,0.0324,0.013523,0.002678,0.000431,0.004349
1175000,0.0324,0.013523,0.002678,0.000431,0.001763
1176000,0.0324,0.013523,0.002678,0.000431,0.001880
1177000,0.0324,0.013523,0.002678,0.000431,0.001645
1178000,0.0324,0.013523,0.002678,0.000431,0.001763
1179000,0.0324,0.013523,0.002678,0.000431,0.001763
1180000,0.0324,0.013523,0.002678,0.000431,0.001880
1181000,0.0324,0.013523,0.002678,0.000431,0.001645
1182000,0.0324,0.013523,0.002678,0.000431,0.001645
1183000,0.0324,0.013523,0.002678,0.000431,0.004349
1184000,0.0324,0.013523,0.002678,0.000431,0.000940
1185000,0.0324,0.013523,0.002678,0.000431,0.000823
1186000,0.0324,0.013523,0.002678,0.000431,0.000823
1187000,0.0324,0.013523,0.002678,0.000431,0.000940
1188000,0.0324,0.013523,0.002678,0.000431,0.000940
1189000,0.0324,0.013523,0.002678,0.000431,0.000705
1190000,0.0324,0.013523,0.002678,0.000431,0.000940
1191000,0.0324,0.013523,0.002678,0.000431,0.000940
1192000,0.0324,0.013523,0.002678,0.000431,0.000823
1193000,0.0324,0.013523,0.002678,0.000431,0.000940
1194000,0.0324,0.013523,0.002678,0.000431,0.000823
1195000,0.0324,0.013523,0.002678,0.000431,0.000940
1196000,0.0324,0.013523,0.002678,0.000431,0.000823
1197000,0.0324,0.013523,0.002678,0.000431,0.000823
1198000,0.0324,0.013523,0.002678,0.000431,0.000940
1199000,0.0324,0.013523,0.002678,0.000431,0.000823
1200000,0.0324,0.013523,0.002678,0.000431,0.000940
1201000,0.0324,0.013523,0.002678,0.000431,0.000823
1202000,0.0324,0.013523,0.002678,0.000431,0.013633
1203000,0.0324,0.013523,0.002678,0.000431,0.519122
1204000,0.0324,0.013523,0.002678,0.000431,0.637355
1205000,0.0324,0.013523,0.002678,0.000431,0.134805
1206000,0.0324,0.013523,0.002678,0.000431,0.130809
1207000,0.0324,0.013523,0.002678,0.000431,0.217780
1208000,0.0324,0.013523,0.002678,0.000431,0.548151
1209000,0.0324,0.013523,0.002678,0.000431,0.281127
1210000,0.0324,0.013523,0.002678,0.000431,0.315563
1211000,0.0324,0.013523,0.002678,0.000431,0.201326
1212000,0.0324,0.013523,0.002678,0.000431,0.144442
1213000,0.0324,0.013523,0.002678,0.000431,0.125873
1214000,0.0324,0.013523,0.002678,0.000431,0.271020
1215000,0.0324,0.013523,0.002678,0.000431,0.416520
1216000,0.0324,0.013523,0.002678,0.000431,0.159016
1217000,0.0324,0.013523,0.002678,0.000431,0.143854
1218000,0.0324,0.013523,0.002678,0.000431,0.117763
1219000,0.0324,0.013523,0.002678,0.000431,0.104483
1220000,0.0324,0.013523,0.002678,0.000431,0.089556
1221000,0.0324,0.013523,0.002678,0.000431,0.096843
1222000,0.0324,0.013523,0.002678,0.000431,0.075101
1223000,0.0324,0.013523,0.002678,0.000431,0.072397
1224000,0.0324,0.013523,0.002678,0.000431,0.063583
1225000,0.0324,0.013523,0.002678,0.000431,0.052888
1226000,0.0324,0.013523,0.002678,0.000431,0.050302
1227000,0.0324,0.013523,0.002678,0.000431,0.044778
1228000,0.0324,0.013523,0.002678,0.000431,0.046306
1229000,0.0324,0.013523,0.002678,0.000431,0.044778
1230000,0.0324,0.013523,0.002678,0.000431,0.042663
1231000,0.0324,0.013523,0.002678,0.000431,0.038314
1232000,0.0324,0.013523,0.002678,0.000431,0.030557
1233000,0.0324,0.013523,0.002678,0.000431,0.028677
1234000,0.0324,0.013523,0.002678,0.000431,0.030322
1235000,0.0324,0.013523,0.002678,0.000431,0.030440
1236000,0.0324,0.013523,0.002678,0.000431,0.021625
1237000,0.0324,0.013523,0.002678,0.000431,0.025856
1238000,0.0324,0.013523,0.002678,0.000431,0.021508
1239000,0.0324,0.013523,0.002678,0.000431,0.020332
1240000,0.0324,0.013523,0.002678,0.000431,0.018569
1241000,0.0324,0.013523,0.002678,0.000431,0.022095
1242000,0.0324,0.013523,0.002678,0.000431,0.017042
1243000,0.0324,0.013523,0.002678,0.000431,0.011988
1244000,0.0324,0.013523,0.002678,0.000431,0.010225
1245000,0.0324,0.013523,0.002678,0.000431,0.010107
1246000,0.0324,0.013523,0.002678,0.000431,0.010695
1247000,0.0324,0.013523,0.002678,0.000431,0.015984
1248000,0.0324,0.013523,0.002678,0.000431,0.008932
1249000,0.0324,0.013523,0.002678,0.000431,0.007169
1250000,0.0324,0.013523,0.002678,0.000431,0.006582
1251000,0.0324,0.013523,0.002678,0.000431,0.006699
1252000,0.0324,0.013523,0.002678,0.000431,0.006934
1253000,0.0324,0.013523,0.002678,0.000431,0.007052
1254000,0.0324,0.013523,0.002678,0.000431,0.009637
1255000,0.0324,0.013523,0.002678,0.000431,0.005406
1256000,0.0324,0.013523,0.002678,0.000431,0.005171
1257000,0.0324,0.013523,0.002678,0.000431,0.005054
1258000,0.0324,0.013523,0.002678,0.000431,0.005171
1259000,0.0324,0.013523,0.002678,0.000431,0.005406
1260000,0.0324,0.013523,0.002678,0.000431,0.005054
1261000,0.0324,0.013523,0.002678,0.000431,0.005054
1262000,0.0324,0.013523,0.002678,0.000431,0.008932
1263000,0.0324,0.013523,0.002678,0.000431,0.003643
1264000,0.0324,0.013523,0.002678,0.000431,0.003643
1265000,0.0324,0.013523,0.002678,0.000431,0.003408
1266000,0.0324,0.013523,0.002678,0.000431,0.003291
1267000,0.0324,0.013523,0.002678,0.000431,0.003761
1268000,0.0324,0.013523,0.002678,0.000431,0.004584
1269000,0.0324,0.013523,0.002678,0.000431,0.003761
1270000,0.0324,0.013523,0.002678,0.000431,0.002586
1271000,0.0324,0.013523,0.002678,0.000431,0.002821
1272000,0.0324,0.013523,0.002678,0.000431,0.003056
1273000,0.0324,0.013523,0.002678,0.000431,0.004349
1274000,0.0324,0.013523,0.002678,0.000431,0.001763
1275000,0.0324,0.013523,0.002678,0.000431,0.001763
1276000,0.0324,0.013523,0.002678,0.000431,0.001763
1277000,0.0324,0.013523,0.002678,0.000431,0.001763
1278000,0.0324,0.013523,0.002678,0.000431,0.001763
1279000,0.0324,0.013523,0.002678,0.000431,0.001880
1280000,0.0324,0.013523,0.002678,0.000431,0.001763
1281000,0.0324,0.013523,0.002678,0.000431,0.001645
1282000,0.0324,0.013523,0.002678,0.000431,0.001880
1283000,0.0324,0.013523,0.002678,0.000431,0.001763
1284000,0.0324,0.013523,0.002678,0.000431,0.001763
1285000,0.0324,0.013523,0.002678,0.000431,0.001645
1286000,0.0324,0.013523,0.002678,0.000431,0.001880
1287000,0.0324,0.013523,0.002678,0.000431,0.001645
1288000,0.0324,0.013523,0.002678,0.000431,0.001763
1289000,0.0324,0.013523,0.002678,0.000431,0.001763
1290000,0.0324,0.013523,0.002678,0.000431,0.001880
1291000,0.0324,0.013523,0.002678,0.000431,0.001763
1292000,0.0324,0.013523,0.002678,0.000431,0.002703
1293000,0.0324,0.013523,0.002678,0.000431,0.002116
1294000,0.0324,0.013523,0.002678,0.000431,0.000823
1295000,0.0324,0.013523,0.002678,0.000431,0.000940
1296000,0.0324,0.013523,0.002678,0.000431,0.000823
1297000,0.0324,0.013523,0.002678,0.000431,0.000940
1298000,0.0324,0.013523,0.002678,0.000431,0.000823
1299000,0.0324,0.013523,0.002678,0.000431,0.000940
1300000,0.0324,0.013523,0.002678,0.000431,0.000940
1301000,0.0324,0.013523,0.002678,0.000431,0.000940
1302000,0.0324,0.013523,0.002678,0.000431,0.000705
1303000,0.0324,0.013523,0.002678,0.000431,0.000940
1304000,0.0324,0.013523,0.002678,0.000431,0.000940
1305000,0.0324,0.013523,0.002678,0.000431,0.000940
1306000,0.0324,0.013523,0.002678,0.000431,0.000940
1307000,0.0324,0.013523,0.002678,0.000431,0.000823
1308000,0.0324,0.013523,0.002678,0.000431,0.000823
1309000,0.0324,0.013523,0.002678,0.000431,0.000940
1310000,0.0324,0.013523,0.002678,0.000431,0.000940
1311000,0.0324,0.013523,0.002678,0.000431,0.000940
1312000,0.0324,0.013523,0.002678,0.000431,0.000940
1313000,0.0324,0.013523,0.002678,0.000431,0.000823
1314000,0.0324,0.013523,0.002678,0.000431,0.000823
1315000,0.0324,0.013523,0.002678,0.000431,0.000940
1316000,0.0324,0.013523,0.002678,0.000431,0.000940
1317000,0.0324,0.013523,0.002678,0.000431,0.000705
1318000,0.0324,0.013523,0.002678,0.000431,0.000940
1319000,0.0324,0.013523,0.002678,0.000431,0.000940
1320000,0.0324,0.013523,0.002678,0.000431,0.000940
1321000,0.0324,0.013523,0.002678,0.000431,0.000705
1322000,0.0324,0.013523,0.002678,0.000431,0.000940
1323000,0.0324,0.013523,0.002678,0.000431,0.000940
1324000,0.0324,0.013523,0.002678,0.000431,0.000940
1325000,0.0324,0.013523,0.002678,0.000431,0.000823
1326000,0.0324,0.013523,0.002678,0.000431,0.000940
1327000,0.0324,0.013523,0.002678,0.000431,0.000823
1328000,0.0324,0.013523,0.002678,0.000431,0.000940
1329000,0.0324,0.013523,0.002678,0.000431,0.000940
1330000,0.0324,0.013523,0.002678,0.000431,0.000940
1331000,0.0324,0.013523,0.002678,0.000431,0.000940
1332000,0.0324,0.013523,0.002678,0.000431,0.000705
1333000,0.0324,0.013523,0.002678,0.000431,0.000940
1334000,0.0324,0.013523,0.002678,0.000431,0.000940
1335000,0.0324,0.013523,0.002678,0.000431,0.000940
1336000,0.0324,0.013523,0.002678,0.000431,0.000705
1337000,0.0324,0.013523,0.002678,0.000431,0.000940
1338000,0.0324,0.013523,0.002678,0.000431,0.000940
1339000,0.0324,0.013523,0.002678,0.000431,0.000940
1340000,0.0324,0.013523,0.002678,0.000431,0.000940
1341000,0.0324,0.013523,0.002678,0.000431,0.000940
1342000,0.0324,0.013523,0.002678,0.000431,0.000823
1343000,0.0324,0.013523,0.002678,0.000431,0.000823
1344000,0.0324,0.013523,0.002678,0.000431,0.000940
1345000,0.0324,0.013523,0.002678,0.000431,0.000940
1346000,0.0324,0.013523,0.002678,0.000431,0.000823
1347000,0.0324,0.013523,0.002678,0.000431,0.000823
1348000,0.0324,0.013523,0.002678,0.000431,0.000940
1349000,0.0324,0.013523,0.002678,0.000431,0.000940
1350000,0.0324,0.013523,0.002678,0.000431,0.000823
1351000,0.0324,0.013523,0.002678,0.000431,0.000823
1352000,0.0324,0.013523,0.002678,0.000431,0.000940
1353000,0.0324,0.013523,0.002678,0.000431,0.000940
1354000,0.0324,0.013523,0.002678,0.000431,0.000940
1355000,0.0324,0.013523,0.002678,0.000431,0.115530
1356000,0.0324,0.013523,0.002678,0.000431,0.656395
1357000,0.0324,0.013523,0.002678,0.000431,0.517242
1358000,0.0324,0.013523,0.002678,0.000431,0.133512
1359000,0.0324,0.013523,0.002678,0.000431,0.133042
1360000,0.0324,0.013523,0.002678,0.000431,0.561785
1361000,0.0324,0.013523,0.002678,0.000431,0.239405
1362000,0.0324,0.013523,0.002678,0.000431,0.272665
1363000,0.0324,0.013523,0.002678,0.000431,0.280657
1364000,0.0324,0.013523,0.002678,0.000431,0.145617
1365000,0.0324,0.013523,0.002678,0.000431,0.184989
1366000,0.0324,0.013523,0.002678,0.000431,0.086971
1367000,0.0324,0.013523,0.002678,0.000431,0.513128
1368000,0.0324,0.013523,0.002678,0.000431,0.181581
1369000,0.0324,0.013523,0.002678,0.000431,0.154432
1370000,0.0324,0.013523,0.002678,0.000431,0.124110
1371000,0.0324,0.013523,0.002678,0.000431,0.114472
1372000,0.0324,0.013523,0.002678,0.000431,0.094258
1373000,0.0324,0.013523,0.002678,0.000431,0.070752
1374000,0.0324,0.013523,0.002678,0.000431,0.068519
1375000,0.0324,0.013523,0.002678,0.000431,0.053593
1376000,0.0324,0.013523,0.002678,0.000431,0.040077
1377000,0.0324,0.013523,0.002678,0.000431,0.044896
1378000,0.0324,0.013523,0.002678,0.000431,0.034788
1379000,0.0324,0.013523,0.002678,0.000431,0.036551
1380000,0.0324,0.013523,0.002678,0.000431,0.031380
1381000,0.0324,0.013523,0.002678,0.000431,0.027972
1382000,0.0324,0.013523,0.002678,0.000431,0.026091
1383000,0.0324,0.013523,0.002678,0.000431,0.017982
1384000,0.0324,0.013523,0.002678,0.000431,0.021155
1385000,0.0324,0.013523,0.002678,0.000431,0.019745
1386000,0.0324,0.013523,0.002678,0.000431,0.012928
1387000,0.0324,0.013523,0.002678,0.000431,0.011400
1388000,0.0324,0.013523,0.002678,0.000431,0.012105
1389000,0.0324,0.013523,0.002678,0.000431,0.009872
1390000,0.0324,0.013523,0.002678,0.000431,0.009755
1391000,0.0324,0.013523,0.002678,0.000431,0.014926
1392000,0.0324,0.013523,0.002678,0.000431,0.008580
1393000,0.0324,0.013523,0.002678,0.000431,0.006111
1394000,0.0324,0.013523,0.002678,0.000431,0.007639
1395000,0.0324,0.013523,0.002678,0.000431,0.006464
1396000,0.0324,0.013523,0.002678,0.000431,0.003526
1397000,0.0324,0.013523,0.002678,0.000431,0.007992
1398000,0.0324,0.013523,0.002678,0.000431,0.003761
1399000,0.0324,0.013523,0.002678,0.000431,0.000940
1400000,0.0324,0.013523,0.002678,0.000431,0.000823
1401000,0.0324,0.013523,0.002678,0.000431,0.000823
1402000,0.0324,0.013523,0.002678,0.000431,0.000940
1403000,0.0324,0.013523,0.002678,0.000431,0.001763
1404000,0.0324,0.013523,0.002678,0.000431,0.398773
1405000,0.0324,0.013523,0.002678,0.000431,0.753356
1406000,0.0324,0.013523,0.002678,0.000431,0.158075
1407000,0.0324,0.013523,0.002678,0.000431,0.134922
1408000,0.0324,0.013523,0.002678,0.000431,0.181816
1409000,0.0324,0.013523,0.002678,0.000431,0.600922
1410000,0.0324,0.013523,0.002678,0.000431,0.229885
1411000,0.0324,0.013523,0.002678,0.000431,0.295348
1412000,0.0324,0.013523,0.002678,0.000431,0.163012
1413000,0.0324,0.013523,0.002678,0.000431,0.153022
1414000,0.0324,0.013523,0.002678,0.000431,0.125285
1415000,0.0324,0.013523,0.002678,0.000431,0.311920
1416000,0.0324,0.013523,0.002678,0.000431,0.371389
1417000,0.0324,0.013523,0.002678,0.000431,0.154315
1418000,0.0324,0.013523,0.002678,0.000431,0.134335
1419000,0.0324,0.013523,0.002678,0.000431,0.108479
1420000,0.0324,0.013523,0.002678,0.000431,0.087088
1421000,0.0324,0.013523,0.002678,0.000431,0.084503
1422000,0.0324,0.013523,0.002678,0.000431,0.077334
1423000,0.0324,0.013523,0.002678,0.000431,0.059352
1424000,0.0324,0.013523,0.002678,0.000431,0.050655
1425000,0.0324,0.013523,0.002678,0.000431,0.054768
1426000,0.0324,0.013523,0.002678,0.000431,0.042898
1427000,0.0324,0.013523,0.002678,0.000431,0.044661
1428000,0.0324,0.013523,0.002678,0.000431,0.034436
1429000,0.0324,0.013523,0.002678,0.000431,0.030557
1430000,0.0324,0.013523,0.002678,0.000431,0.023036
1431000,0.0324,0.013523,0.002678,0.000431,0.019275
1432000,0.0324,0.013523,0.002678,0.000431,0.017394
1433000,0.0324,0.013523,0.002678,0.000431,0.020920
1434000,0.0324,0.013523,0.002678,0.000431,0.011518
1435000,0.0324,0.013523,0.002678,0.000431,0.013163
1436000,0.0324,0.013523,0.002678,0.000431,0.011635
1437000,0.0324,0.013523,0.002678,0.000431,0.009990
1438000,0.0324,0.013523,0.002678,0.000431,0.006464
1439000,0.0324,0.013523,0.002678,0.000431,0.007404
1440000,0.0324,0.013523,0.002678,0.000431,0.011635
1441000,0.0324,0.013523,0.002678,0.000431,0.002821
1442000,0.0324,0.013523,0.002678,0.000431,0.002468
1443000,0.0324,0.013523,0.002678,0.000431,0.002351
1444000,0.0324,0.013523,0.002678,0.000431,0.002351
1445000,0.0324,0.013523,0.002678,0.000431,0.002821
1446000,0.0324,0.013523,0.002678,0.000431,0.002586
1447000,0.0324,0.013523,0.002678,0.000431,0.002233
1448000,0.0324,0.013523,0.002678,0.000431,0.002468
1449000,0.0324,0.013523,0.002678,0.000431,0.002468
1450000,0.0324,0.013523,0.002678,0.000431,0.002233
1451000,0.0324,0.013523,0.002678,0.000431,0.001763
1452000,0.0324,0.013523,0.002678,0.000431,0.001763
1453000,0.0324,0.013523,0.002678,0.000431,0.001763
1454000,0.0324,0.013523,0.002678,0.000431,0.002703
1455000,0.0324,0.013523,0.002678,0.000431,0.001998
1456000,0.0324,0.013523,0.002678,0.000431,0.000823
1457000,0.0324,0.013523,0.002678,0.000431,0.000940
1458000,0.0324,0.013523,0.002678,0.000431,0.000940
1459000,0.0324,0.013523,0.002678,0.000431,0.000940
1460000,0.0324,0.013523,0.002678,0.000431,0.000705
1461000,0.0324,0.013523,0.002678,0.000431,0.000940
1462000,0.0324,0.013523,0.002678,0.000431,0.000940
1463000,0.0324,0.013523,0.002678,0.000431,0.000823
1464000,0.0324,0.013523,0.002678,0.000431,0.000823
1465000,0.0324,0.013523,0.002678,0.000431,0.001998
1466000,0.0324,0.013523,0.002678,0.000431,0.415697
1467000,0.0324,0.013523,0.002678,0.000431,0.746774
1468000,0.0324,0.013523,0.002678,0.000431,0.155255
1469000,0.0324,0.013523,0.002678,0.000431,0.134452
1470000,0.0324,0.013523,0.002678,0.000431,0.202854
1471000,0.0324,0.013523,0.002678,0.000431,0.533225
1472000,0.0324,0.013523,0.002678,0.000431,0.242461
1473000,0.0324,0.013523,0.002678,0.000431,0.345768
1474000,0.0324,0.013523,0.002678,0.000431,0.188985
1475000,0.0324,0.013523,0.002678,0.000431,0.148086
1476000,0.0324,0.013523,0.002678,0.000431,0.112827
1477000,0.0324,0.013523,0.002678,0.000431,0.377501
1478000,0.0324,0.013523,0.002678,0.000431,0.346708
1479000,0.0324,0.013523,0.002678,0.000431,0.178408
1480000,0.0324,0.013523,0.002678,0.000431,0.158075
1481000,0.0324,0.013523,0.002678,0.000431,0.138213
1482000,0.0324,0.013523,0.002678,0.000431,0.127871
1483000,0.0324,0.013523,0.002678,0.000431,0.103307
1484000,0.0324,0.013523,0.002678,0.000431,0.101897
1485000,0.0324,0.013523,0.002678,0.000431,0.072867
1486000,0.0324,0.013523,0.002678,0.000431,0.072397
1487000,0.0324,0.013523,0.002678,0.000431,0.061232
1488000,0.0324,0.013523,0.002678,0.000431,0.052300
1489000,0.0324,0.013523,0.002678,0.000431,0.044778
1490000,0.0324,0.013523,0.002678,0.000431,0.042075
1491000,0.0324,0.013523,0.002678,0.000431,0.038784
1492000,0.0324,0.013523,0.002678,0.000431,0.039607
1493000,0.0324,0.013523,0.002678,0.000431,0.028207
1494000,0.0324,0.013523,0.002678,0.000431,0.030205
1495000,0.0324,0.013523,0.002678,0.000431,0.019862
1496000,0.0324,0.013523,0.002678,0.000431,0.020332
1497000,0.0324,0.013523,0.002678,0.000431,0.015749
1498000,0.0324,0.013523,0.002678,0.000431,0.018217
1499000,0.0324,0.013523,0.002678,0.000431,0.011283
1500000,0.0324,0.013523,0.002678,0.000431,0.011635
1501000,0.0324,0.013523,0.002678,0.000431,0.011988
1502000,0.0324,0.013523,0.002678,0.000431,0.015161
1503000,0.0324,0.013523,0.002678,0.000431,0.010225
1504000,0.0324,0.013523,0.002678,0.000431,0.008227
1505000,0.0324,0.013523,0.002678,0.000431,0.012223
1506000,0.0324,0.013523,0.002678,0.000431,0.012576
1507000,0.0324,0.013523,0.002678,0.000431,0.005171
1508000,0.0324,0.013523,0.002678,0.000431,0.005994
1509000,0.0324,0.013523,0.002678,0.000431,0.005171
1510000,0.0324,0.013523,0.002678,0.000431,0.009402
1511000,0.0324,0.013523,0.002678,0.000431,0.008580
1512000,0.0324,0.013523,0.002678,0.000431,0.002351
1513000,0.0324,0.013523,0.002678,0.000431,0.000940
1514000,0.0324,0.013523,0.002678,0.000431,0.000705
1515000,0.0324,0.013523,0.002678,0.000431,0.000940
1516000,0.0324,0.013523,0.002678,0.000431,0.000940
1517000,0.0324,0.013523,0.002678,0.000431,0.000823
1518000,0.0324,0.013523,0.002678,0.000431,0.000823
1519000,0.0324,0.013523,0.002678,0.000431,0.000940
1520000,0.0324,0.013523,0.002678,0.000431,0.000940
1521000,0.0324,0.013523,0.002678,0.000431,0.000823
1522000,0.0324,0.013523,0.002678,0.000431,0.000823
1523000,0.0324,0.013523,0.002678,0.000431,0.000940
1524000,0.0324,0.013523,0.002678,0.000431,0.000940
1525000,0.0324,0.013523,0.002678,0.000431,0.000823
1526000,0.0324,0.013523,0.002678,0.000431,0.000823
1527000,0.0324,0.013523,0.002678,0.000431,0.000940
1528000,0.0324,0.013523,0.002678,0.000431,0.000940
1529000,0.0324,0.013523,0.002678,0.000431,0.000823
1530000,0.0324,0.013523,0.002678,0.000431,0.000823
1531000,0.0324,0.013523,0.002678,0.000431,0.000940
1532000,0.0324,0.013523,0.002678,0.000431,0.002233
1533000,0.0324,0.013523,0.002678,0.000431,0.311450
1534000,0.0324,0.013523,0.002678,0.000431,0.786264
1535000,0.0324,0.013523,0.002678,0.000431,0.246574
1536000,0.0324,0.013523,0.002678,0.000431,0.134452
1537000,0.0324,0.013523,0.002678,0.000431,0.153492
1538000,0.0324,0.013523,0.002678,0.000431,0.557671
1539000,0.0324,0.013523,0.002678,0.000431,0.252921
1540000,0.0324,0.013523,0.002678,0.000431,0.306631
1541000,0.0324,0.013523,0.002678,0.000431,0.188750
1542000,0.0324,0.013523,0.002678,0.000431,0.147968
1543000,0.0324,0.013523,0.002678,0.000431,0.141621
1544000,0.0324,0.013523,0.002678,0.000431,0.270902
1545000,0.0324,0.013523,0.002678,0.000431,0.436382
1546000,0.0324,0.013523,0.002678,0.000431,0.177115
1547000,0.0324,0.013523,0.002678,0.000431,0.149731
1548000,0.0324,0.013523,0.002678,0.000431,0.128576
1549000,0.0324,0.013523,0.002678,0.000431,0.108714
1550000,0.0324,0.013523,0.002678,0.000431,0.090614
1551000,0.0324,0.013523,0.002678,0.000431,0.074513
1552000,0.0324,0.013523,0.002678,0.000431,0.063113
1553000,0.0324,0.013523,0.002678,0.000431,0.058294
1554000,0.0324,0.013523,0.002678,0.000431,0.061467
1555000,0.0324,0.013523,0.002678,0.000431,0.035611
1556000,0.0324,0.013523,0.002678,0.000431,0.038667
1557000,0.0324,0.013523,0.002678,0.000431,0.025151
1558000,0.0324,0.013523,0.002678,0.000431,0.029735
1559000,0.0324,0.013523,0.002678,0.000431,0.021273
1560000,0.0324,0.013523,0.002678,0.000431,0.017747
1561000,0.0324,0.013523,0.002678,0.000431,0.021038
1562000,0.0324,0.013523,0.002678,0.000431,0.020332
1563000,0.0324,0.013523,0.002678,0.000431,0.013986
1564000,0.0324,0.013523,0.002678,0.000431,0.011988
1565000,0.0324,0.013523,0.002678,0.000431,0.013751
1566000,0.0324,0.013523,0.002678,0.000431,0.009755
1567000,0.0324,0.013523,0.002678,0.000431,0.007874
1568000,0.0324,0.013523,0.002678,0.000431,0.006699
1569000,0.0324,0.013523,0.002678,0.000431,0.004231
1570000,0.0324,0.013523,0.002678,0.000431,0.005994
1571000,0.0324,0.013523,0.002678,0.000431,0.005524
1572000,0.0324,0.013523,0.002678,0.000431,0.004349
1573000,0.0324,0.013523,0.002678,0.000431,0.001528
1574000,0.0324,0.013523,0.002678,0.000431,0.004231
1575000,0.0324,0.013523,0.002678,0.000431,0.000940
1576000,0.0324,0.013523,0.002678,0.000431,0.000940
1577000,0.0324,0.013523,0.002678,0.000431,0.000823
1578000,0.0324,0.013523,0.002678,0.000431,0.000940
1579000,0.0324,0.013523,0.002678,0.000431,0.020685
1580000,0.0324,0.013523,0.002678,0.000431,0.665327
1581000,0.0324,0.013523,0.002678,0.000431,0.598336
1582000,0.0324,0.013523,0.002678,0.000431,0.132102
1583000,0.0324,0.013523,0.002678,0.000431,0.135392
1584000,0.0324,0.013523,0.002678,0.000431,0.546153
1585000,0.0324,0.013523,0.002678,0.000431,0.240228
1586000,0.0324,0.013523,0.002678,0.000431,0.263028
1587000,0.0324,0.013523,0.002678,0.000431,0.294408
1588000,0.0324,0.013523,0.002678,0.000431,0.148438
1589000,0.0324,0.013523,0.002678,0.000431,0.176880
1590000,0.0324,0.013523,0.002678,0.000431,0.098019
1591000,0.0324,0.013523,0.002678,0.000431,0.531815
1592000,0.0324,0.013523,0.002678,0.000431,0.210963
1593000,0.0324,0.013523,0.002678,0.000431,0.169358
1594000,0.0324,0.013523,0.002678,0.000431,0.137038
1595000,0.0324,0.013523,0.002678,0.000431,0.118703
1596000,0.0324,0.013523,0.002678,0.000431,0.103425
1597000,0.0324,0.013523,0.002678,0.000431,0.090849
1598000,0.0324,0.013523,0.002678,0.000431,0.072632
1599000,0.0324,0.013523,0.002678,0.000431,0.073573
1600000,0.0324,0.013523,0.002678,0.000431,0.065346
1601000,0.0324,0.013523,0.002678,0.000431,0.040312
1602000,0.0324,0.013523,0.002678,0.000431,0.039725
1603000,0.0324,0.013523,0.002678,0.000431,0.033848
1604000,0.0324,0.013523,0.002678,0.000431,0.027737
1605000,0.0324,0.013523,0.002678,0.000431,0.030322
1606000,0.0324,0.013523,0.002678,0.000431,0.028324
1607000,0.0324,0.013523,0.002678,0.000431,0.022095
1608000,0.0324,0.013523,0.002678,0.000431,0.020450
1609000,0.0324,0.013523,0.002678,0.000431,0.008580
1610000,0.0324,0.013523,0.002678,0.000431,0.009050
1611000,0.0324,0.013523,0.002678,0.000431,0.008815
1612000,0.0324,0.013523,0.002678,0.000431,0.008580
1613000,0.0324,0.013523,0.002678,0.000431,0.009167
1614000,0.0324,0.013523,0.002678,0.000431,0.008932
1615000,0.0324,0.013523,0.002678,0.000431,0.010578
1616000,0.0324,0.013523,0.002678,0.000431,0.009050
1617000,0.0324,0.013523,0.002678,0.000431,0.006582
1618000,0.0324,0.013523,0.002678,0.000431,0.005994
1619000,0.0324,0.013523,0.002678,0.000431,0.008932
1620000,0.0324,0.013523,0.002678,0.000431,0.004113
1621000,0.0324,0.013523,0.002678,0.000431,0.004231
1622000,0.0324,0.013523,0.002678,0.000431,0.003996
1623000,0.0324,0.013523,0.002678,0.000431,0.003291
1624000,0.0324,0.013523,0.002678,0.000431,0.003643
1625000,0.0324,0.013523,0.002678,0.000431,0.003408
1626000,0.0324,0.013523,0.002678,0.000431,0.003291
1627000,0.0324,0.013523,0.002678,0.000431,0.003408
1628000,0.0324,0.013523,0.002678,0.000431,0.003526
1629000,0.0324,0.013523,0.002678,0.000431,0.003526
1630000,0.0324,0.013523,0.002678,0.000431,0.003291
1631000,0.0324,0.013523,0.002678,0.000431,0.003291
1632000,0.0324,0.013523,0.002678,0.000431,0.003643
1633000,0.0324,0.013523,0.002678,0.000431,0.003291
1634000,0.0324,0.013523,0.002678,0.000431,0.003291
1635000,0.0324,0.013523,0.002678,0.000431,0.005641
1636000,0.0324,0.013523,0.002678,0.000431,0.002821
1637000,0.0324,0.013523,0.002678,0.000431,0.002351
1638000,0.0324,0.013523,0.002678,0.000431,0.002468
1639000,0.0324,0.013523,0.002678,0.000431,0.002703
1640000,0.0324,0.013523,0.002678,0.000431,0.002586
1641000,0.0324,0.013523,0.002678,0.000431,0.002468
1642000,0.0324,0.013523,0.002678,0.000431,0.002351
1643000,0.0324,0.013523,0.002678,0.000431,0.002703
1644000,0.0324,0.013523,0.002678,0.000431,0.002586
1645000,0.0324,0.013523,0.002678,0.000431,0.002468
1646000,0.0324,0.013523,0.002678,0.000431,0.002468
1647000,0.0324,0.013523,0.002678,0.000431,0.004701
1648000,0.0324,0.013523,0.002678,0.000431,0.000940
1649000,0.0324,0.013523,0.002678,0.000431,0.000823
1650000,0.0324,0.013523,0.002678,0.000431,0.000823
1651000,0.0324,0.013523,0.002678,0.000431,0.000940
1652000,0.0324,0.013523,0.002678,0.000431,0.000940
1653000,0.0324,0.013523,0.002678,0.000431,0.000823
1654000,0.0324,0.013523,0.002678,0.000431,0.000823
1655000,0.0324,0.013523,0.002678,0.000431,0.232941
1656000,0.0324,0.013523,0.002678,0.000431,0.693064
1657000,0.0324,0.013523,0.002678,0.000431,0.416402
1658000,0.0324,0.013523,0.002678,0.000431,0.133982
1659000,0.0324,0.013523,0.002678,0.000431,0.137861
1660000,0.0324,0.013523,0.002678,0.000431,0.579767
1661000,0.0324,0.013523,0.002678,0.000431,0.242108
1662000,0.0324,0.013523,0.002678,0.000431,0.317914
1663000,0.0324,0.013523,0.002678,0.000431,0.200856
1664000,0.0324,0.013523,0.002678,0.000431,0.151494
1665000,0.0324,0.013523,0.002678,0.000431,0.130691
1666000,0.0324,0.013523,0.002678,0.000431,0.305338
1667000,0.0324,0.013523,0.002678,0.000431,0.399361
1668000,0.0324,0.013523,0.002678,0.000431,0.179701
1669000,0.0324,0.013523,0.002678,0.000431,0.154432
1670000,0.0324,0.013523,0.002678,0.000431,0.126930
1671000,0.0324,0.013523,0.002678,0.000431,0.115413
1672000,0.0324,0.013523,0.002678,0.000431,0.104483
1673000,0.0324,0.013523,0.002678,0.000431,0.098489
1674000,0.0324,0.013523,0.002678,0.000431,0.084620
1675000,0.0324,0.013523,0.002678,0.000431,0.080272
1676000,0.0324,0.013523,0.002678,0.000431,0.066756
1677000,0.0324,0.013523,0.002678,0.000431,0.055473
1678000,0.0324,0.013523,0.002678,0.000431,0.052300
1679000,0.0324,0.013523,0.002678,0.000431,0.055003
1680000,0.0324,0.013523,0.002678,0.000431,0.036081
1681000,0.0324,0.013523,0.002678,0.000431,0.032438
1682000,0.0324,0.013523,0.002678,0.000431,0.026444
1683000,0.0324,0.013523,0.002678,0.000431,0.019392
1684000,0.0324,0.013523,0.002678,0.000431,0.016571
1685000,0.0324,0.013523,0.002678,0.000431,0.017394
1686000,0.0324,0.013523,0.002678,0.000431,0.012223
1687000,0.0324,0.013523,0.002678,0.000431,0.012811
1688000,0.0324,0.013523,0.002678,0.000431,0.014103
1689000,0.0324,0.013523,0.002678,0.000431,0.014103
1690000,0.0324,0.013523,0.002678,0.000431,0.008462
1691000,0.0324,0.013523,0.002678,0.000431,0.005641
1692000,0.0324,0.013523,0.002678,0.000431,0.004113
1693000,0.0324,0.013523,0.002678,0.000431,0.004349
1694000,0.0324,0.013523,0.002678,0.000431,0.004113
1695000,0.0324,0.013523,0.002678,0.000431,0.004231
1696000,0.0324,0.013523,0.002678,0.000431,0.006817
1697000,0.0324,0.013523,0.002678,0.000431,0.003291
1698000,0.0324,0.013523,0.002678,0.000431,0.003526
1699000,0.0324,0.013523,0.002678,0.000431,0.003173
1700000,0.0324,0.013523,0.002678,0.000431,0.003173
1701000,0.0324,0.013523,0.002678,0.000431,0.003408
1702000,0.0324,0.013523,0.002678,0.000431,0.003408
1703000,0.0324,0.013523,0.002678,0.000431,0.003526
1704000,0.0324,0.013523,0.002678,0.000431,0.002938
1705000,0.0324,0.013523,0.002678,0.000431,0.003408
1706000,0.0324,0.013523,0.002678,0.000431,0.003291
1707000,0.0324,0.013523,0.002678,0.000431,0.003526
1708000,0.0324,0.013523,0.002678,0.000431,0.003056
1709000,0.0324,0.013523,0.002678,0.000431,0.003291
1710000,0.0324,0.013523,0.002678,0.000431,0.003526
1711000,0.0324,0.013523,0.002678,0.000431,0.003291
1712000,0.0324,0.013523,0.002678,0.000431,0.003291
1713000,0.0324,0.013523,0.002678,0.000431,0.003408
1714000,0.0324,0.013523,0.002678,0.000431,0.003173
1715000,0.0324,0.013523,0.002678,0.000431,0.003291
1716000,0.0324,0.013523,0.002678,0.000431,0.003408
1717000,0.0324,0.013523,0.002678,0.000431,0.003408
1718000,0.0324,0.013523,0.002678,0.000431,0.003056
1719000,0.0324,0.013523,0.002678,0.000431,0.003291
1720000,0.0324,0.013523,0.002678,0.000431,0.003526
1721000,0.0324,0.013523,0.002678,0.000431,0.003291
1722000,0.0324,0.013523,0.002678,0.000431,0.003291
1723000,0.0324,0.013523,0.002678,0.000431,0.003291
1724000,0.0324,0.013523,0.002678,0.000431,0.003291
1725000,0.0324,0.013523,0.002678,0.000431,0.003408
1726000,0.0324,0.013523,0.002678,0.000431,0.003291
1727000,0.0324,0.013523,0.002678,0.000431,0.003173
1728000,0.0324,0.013523,0.002678,0.000431,0.003408
1729000,0.0324,0.013523,0.002678,0.000431,0.007169
1730000,0.0324,0.013523,0.002678,0.000431,0.001645
1731000,0.0324,0.013523,0.002678,0.000431,0.001645
1732000,0.0324,0.013523,0.002678,0.000431,0.001645
1733000,0.0324,0.013523,0.002678,0.000431,0.001528
1734000,0.0324,0.013523,0.002678,0.000431,0.001763
1735000,0.0324,0.013523,0.002678,0.000431,0.001880
1736000,0.0324,0.013523,0.002678,0.000431,0.001645
1737000,0.0324,0.013523,0.002678,0.000431,0.001410
1738000,0.0324,0.013523,0.002678,0.000431,0.001645
1739000,0.0324,0.013523,0.002678,0.000431,0.001880
1740000,0.0324,0.013523,0.002678,0.000431,0.001645
1741000,0.0324,0.013523,0.002678,0.000431,0.001410
1742000,0.0324,0.013523,0.002678,0.000431,0.001880
1743000,0.0324,0.013523,0.002678,0.000431,0.198035
1744000,0.0324,0.013523,0.002678,0.000431,0.611969
1745000,0.0324,0.013523,0.002678,0.000431,0.503491
1746000,0.0324,0.013523,0.002678,0.000431,0.133982
1747000,0.0324,0.013523,0.002678,0.000431,0.134922
1748000,0.0324,0.013523,0.002678,0.000431,0.574478
1749000,0.0324,0.013523,0.002678,0.000431,0.226242
1750000,0.0324,0.013523,0.002678,0.000431,0.299462
1751000,0.0324,0.013523,0.002678,0.000431,0.237289
1752000,0.0324,0.013523,0.002678,0.000431,0.147498
1753000,0.0324,0.013523,0.002678,0.000431,0.150906
1754000,0.0324,0.013523,0.002678,0.000431,0.228357
1755000,0.0324,0.013523,0.002678,0.000431,0.482218
1756000,0.0324,0.013523,0.002678,0.000431,0.201443
1757000,0.0324,0.013523,0.002678,0.000431,0.164539
1758000,0.0324,0.013523,0.002678,0.000431,0.150083
1759000,0.0324,0.013523,0.002678,0.000431,0.127518
1760000,0.0324,0.013523,0.002678,0.000431,0.104718
1761000,0.0324,0.013523,0.002678,0.000431,0.096256
1762000,0.0324,0.013523,0.002678,0.000431,0.091790
1763000,0.0324,0.013523,0.002678,0.000431,0.077334
1764000,0.0324,0.013523,0.002678,0.000431,0.074983
1765000,0.0324,0.013523,0.002678,0.000431,0.060292
1766000,0.0324,0.013523,0.002678,0.000431,0.047716
1767000,0.0324,0.013523,0.002678,0.000431,0.043720
1768000,0.0324,0.013523,0.002678,0.000431,0.029147
1769000,0.0324,0.013523,0.002678,0.000431,0.032203
1770000,0.0324,0.013523,0.002678,0.000431,0.020567
1771000,0.0324,0.013523,0.002678,0.000431,0.019862
1772000,0.0324,0.013523,0.002678,0.000431,0.022565
1773000,0.0324,0.013523,0.002678,0.000431,0.009167
1774000,0.0324,0.013523,0.002678,0.000431,0.007874
1775000,0.0324,0.013523,0.002678,0.000431,0.005524
1776000,0.0324,0.013523,0.002678,0.000431,0.005054
1777000,0.0324,0.013523,0.002678,0.000431,0.006347
1778000,0.0324,0.013523,0.002678,0.000431,0.007992
1779000,0.0324,0.013523,0.002678,0.000431,0.003761
1780000,0.0324,0.013523,0.002678,0.000431,0.003408
1781000,0.0324,0.013523,0.002678,0.000431,0.003408
1782000,0.0324,0.013523,0.002678,0.000431,0.006111
1783000,0.0324,0.013523,0.002678,0.000431,0.004701
1784000,0.0324,0.013523,0.002678,0.000431,0.001645
1785000,0.0324,0.013523,0.002678,0.000431,0.001645
1786000,0.0324,0.013523,0.002678,0.000431,0.001880
1787000,0.0324,0.013523,0.002678,0.000431,0.001645
1788000,0.0324,0.013523,0.002678,0.000431,0.001763
1789000,0.0324,0.013523,0.002678,0.000431,0.001763
1790000,0.0324,0.013523,0.002678,0.000431,0.001880
1791000,0.0324,0.013523,0.002678,0.000431,0.001645
1792000,0.0324,0.013523,0.002678,0.000431,0.001645
1793000,0.0324,0.013523,0.002678,0.000431,0.001880
1794000,0.0324,0.013523,0.002678,0.000431,0.001880
1795000,0.0324,0.013523,0.002678,0.000431,0.001763
1796000,0.0324,0.013523,0.002678,0.000431,0.001763
1797000,0.0324,0.013523,0.002678,0.000431,0.001763
1798000,0.0324,0.013523,0.002678,0.000431,0.001880
1799000,0.0324,0.013523,0.002678,0.000431,0.001763
1800000,0.0324,0.013523,0.002678,0.000431,0.001645
1801000,0.0324,0.013523,0.002678,0.000431,0.001880
1802000,0.0324,0.013523,0.002678,0.000431,0.001763
1803000,0.0324,0.013523,0.002678,0.000431,0.004113
1804000,0.0324,0.013523,0.002678,0.000431,0.000823
1805000,0.0324,0.013523,0.002678,0.000431,0.069694
1806000,0.0324,0.013523,0.002678,0.000431,0.674494
1807000,0.0324,0.013523,0.002678,0.000431,0.583880
1808000,0.0324,0.013523,0.002678,0.000431,0.133042
1809000,0.0324,0.013523,0.002678,0.000431,0.133982
1810000,0.0324,0.013523,0.002678,0.000431,0.564253
1811000,0.0324,0.013523,0.002678,0.000431,0.278189
1812000,0.0324,0.013523,0.002678,0.000431,0.249277
1813000,0.0324,0.013523,0.002678,0.000431,0.248337
1814000,0.0324,0.013523,0.002678,0.000431,0.140681
1815000,0.0324,0.013523,0.002678,0.000431,0.182169
1816000,0.0324,0.013523,0.002678,0.000431,0.128576
1817000,0.0324,0.013523,0.002678,0.000431,0.528994
1818000,0.0324,0.013523,0.002678,0.000431,0.212138
1819000,0.0324,0.013523,0.002678,0.000431,0.186400
1820000,0.0324,0.013523,0.002678,0.000431,0.152199
1821000,0.0324,0.013523,0.002678,0.000431,0.127871
1822000,0.0324,0.013523,0.002678,0.000431,0.112004
1823000,0.0324,0.013523,0.002678,0.000431,0.095903
1824000,0.0324,0.013523,0.002678,0.000431,0.072867
1825000,0.0324,0.013523,0.002678,0.000431,0.068166
1826000,0.0324,0.013523,0.002678,0.000431,0.054886
1827000,0.0324,0.013523,0.002678,0.000431,0.045248
1828000,0.0324,0.013523,0.002678,0.000431,0.036669
1829000,0.0324,0.013523,0.002678,0.000431,0.030205
1830000,0.0324,0.013523,0.002678,0.000431,0.031027
1831000,0.0324,0.013523,0.002678,0.000431,0.032908
1832000,0.0324,0.013523,0.002678,0.000431,0.023153
1833000,0.0324,0.013523,0.002678,0.000431,0.017864
1834000,0.0324,0.013523,0.002678,0.000431,0.011635
1835000,0.0324,0.013523,0.002678,0.000431,0.014338
1836000,0.0324,0.013523,0.002678,0.000431,0.015984
1837000,0.0324,0.013523,0.002678,0.000431,0.010813
1838000,0.0324,0.013523,0.002678,0.000431,0.010107
1839000,0.0324,0.013523,0.002678,0.000431,0.009167
1840000,0.0324,0.013523,0.002678,0.000431,0.002821
1841000,0.0324,0.013523,0.002678,0.000431,0.005054
1842000,0.0324,0.013523,0.002678,0.000431,0.001528
1843000,0.0324,0.013523,0.002678,0.000431,0.001880
1844000,0.0324,0.013523,0.002678,0.000431,0.001763
1845000,0.0324,0.013523,0.002678,0.000431,0.001763
1846000,0.0324,0.013523,0.002678,0.000431,0.001763
1847000,0.0324,0.013523,0.002678,0.000431,0.001645
1848000,0.0324,0.013523,0.002678,0.000431,0.005289
1849000,0.0324,0.013523,0.002678,0.000431,0.000940
1850000,0.0324,0.013523,0.002678,0.000431,0.000823
1851000,0.0324,0.013523,0.002678,0.000431,0.000823
1852000,0.0324,0.013523,0.002678,0.000431,0.000940
1853000,0.0324,0.013523,0.002678,0.000431,0.000940
1854000,0.0324,0.013523,0.002678,0.000431,0.000823
1855000,0.0324,0.013523,0.002678,0.000431,0.000823
1856000,0.0324,0.013523,0.002678,0.000431,0.000940
1857000,0.0324,0.013523,0.002678,0.000431,0.000823
1858000,0.0324,0.013523,0.002678,0.000431,0.000940
1859000,0.0324,0.013523,0.002678,0.000431,0.000823
1860000,0.0324,0.013523,0.002678,0.000431,0.000940
1861000,0.0324,0.013523,0.002678,0.000431,0.000823
1862000,0.0324,0.013523,0.002678,0.000431,0.000823
1863000,0.0324,0.013523,0.002678,0.000431,0.000940
1864000,0.0324,0.013523,0.002678,0.000431,0.000940
1865000,0.0324,0.013523,0.002678,0.000431,0.000940
1866000,0.0324,0.013523,0.002678,0.000431,0.000940
1867000,0.0324,0.013523,0.002678,0.000431,0.003526
1868000,0.0324,0.013523,0.002678,0.000431,0.522295
1869000,0.0324,0.013523,0.002678,0.000431,0.759937
1870000,0.0324,0.013523,0.002678,0.000431,0.135275
1871000,0.0324,0.013523,0.002678,0.000431,0.133512
1872000,0.0324,0.013523,0.002678,0.000431,0.438615
1873000,0.0324,0.013523,0.002678,0.000431,0.284301
1874000,0.0324,0.013523,0.002678,0.000431,0.237524
1875000,0.0324,0.013523,0.002678,0.000431,0.299697
1876000,0.0324,0.013523,0.002678,0.000431,0.149496
1877000,0.0324,0.013523,0.002678,0.000431,0.151494
1878000,0.0324,0.013523,0.002678,0.000431,0.130339
1879000,0.0324,0.013523,0.002678,0.000431,0.383730
1880000,0.0324,0.013523,0.002678,0.000431,0.403709
1881000,0.0324,0.013523,0.002678,0.000431,0.209435
1882000,0.0324,0.013523,0.002678,0.000431,0.169358
1883000,0.0324,0.013523,0.002678,0.000431,0.148556
1884000,0.0324,0.013523,0.002678,0.000431,0.130926
1885000,0.0324,0.013523,0.002678,0.000431,0.114120
1886000,0.0324,0.013523,0.002678,0.000431,0.103660
1887000,0.0324,0.013523,0.002678,0.000431,0.095198
1888000,0.0324,0.013523,0.002678,0.000431,0.084855
1889000,0.0324,0.013523,0.002678,0.000431,0.075453
1890000,0.0324,0.013523,0.002678,0.000431,0.061585
1891000,0.0324,0.013523,0.002678,0.000431,0.064053
1892000,0.0324,0.013523,0.002678,0.000431,0.047129
1893000,0.0324,0.013523,0.002678,0.000431,0.041135
1894000,0.0324,0.013523,0.002678,0.000431,0.039960
1895000,0.0324,0.013523,0.002678,0.000431,0.040077
1896000,0.0324,0.013523,0.002678,0.000431,0.037609
1897000,0.0324,0.013523,0.002678,0.000431,0.035729
1898000,0.0324,0.013523,0.002678,0.000431,0.031733
1899000,0.0324,0.013523,0.002678,0.000431,0.021155
1900000,0.0324,0.013523,0.002678,0.000431,0.017159
1901000,0.0324,0.013523,0.002678,0.000431,0.019157
1902000,0.0324,0.013523,0.002678,0.000431,0.017159
1903000,0.0324,0.013523,0.002678,0.000431,0.012811
1904000,0.0324,0.013523,0.002678,0.000431,0.012340
1905000,0.0324,0.013523,0.002678,0.000431,0.009990
1906000,0.0324,0.013523,0.002678,0.000431,0.013986
1907000,0.0324,0.013523,0.002678,0.000431,0.009050
1908000,0.0324,0.013523,0.002678,0.000431,0.008815
1909000,0.0324,0.013523,0.002678,0.000431,0.004584
1910000,0.0324,0.013523,0.002678,0.000431,0.005289
1911000,0.0324,0.013523,0.002678,0.000431,0.002351
1912000,0.0324,0.013523,0.002678,0.000431,0.004584
1913000,0.0324,0.013523,0.002678,0.000431,0.002821
1914000,0.0324,0.013523,0.002678,0.000431,0.001528
1915000,0.0324,0.013523,0.002678,0.000431,0.000940
1916000,0.0324,0.013523,0.002678,0.000431,0.001058
1917000,0.0324,0.013523,0.002678,0.000431,0.001410
1918000,0.0324,0.013523,0.002678,0.000431,0.001293
1919000,0.0324,0.013523,0.002678,0.000431,0.001410
1920000,0.0324,0.013523,0.002678,0.000431,0.002233
1921000,0.0324,0.013523,0.002678,0.000431,0.524763
1922000,0.0324,0.013523,0.002678,0.000431,0.771690
1923000,0.0324,0.013523,0.002678,0.000431,0.137038
1924000,0.0324,0.013523,0.002678,0.000431,0.134922
1925000,0.0324,0.013523,0.002678,0.000431,0.447900
1926000,0.0324,0.013523,0.002678,0.000431,0.279364
1927000,0.0324,0.013523,0.002678,0.000431,0.272900
1928000,0.0324,0.013523,0.002678,0.000431,0.281245
1929000,0.0324,0.013523,0.002678,0.000431,0.150201
1930000,0.0324,0.013523,0.002678,0.000431,0.171356
1931000,0.0324,0.013523,0.002678,0.000431,0.117058
1932000,0.0324,0.013523,0.002678,0.000431,0.523706
1933000,0.0324,0.013523,0.002678,0.000431,0.240580
1934000,0.0324,0.013523,0.002678,0.000431,0.180171
1935000,0.0324,0.013523,0.002678,0.000431,0.160426
1936000,0.0324,0.013523,0.002678,0.000431,0.154667
1937000,0.0324,0.013523,0.002678,0.000431,0.124462
1938000,0.0324,0.013523,0.002678,0.000431,0.113885
1939000,0.0324,0.013523,0.002678,0.000431,0.100016
1940000,0.0324,0.013523,0.002678,0.000431,0.083445
1941000,0.0324,0.013523,0.002678,0.000431,0.068284
1942000,0.0324,0.013523,0.002678,0.000431,0.071105
1943000,0.0324,0.013523,0.002678,0.000431,0.065933
1944000,0.0324,0.013523,0.002678,0.000431,0.045601
1945000,0.0324,0.013523,0.002678,0.000431,0.038902
1946000,0.0324,0.013523,0.002678,0.000431,0.047246
1947000,0.0324,0.013523,0.002678,0.000431,0.035141
1948000,0.0324,0.013523,0.002678,0.000431,0.030557
1949000,0.0324,0.013523,0.002678,0.000431,0.031498
1950000,0.0324,0.013523,0.002678,0.000431,0.024681
1951000,0.0324,0.013523,0.002678,0.000431,0.017629
1952000,0.0324,0.013523,0.002678,0.000431,0.015514
1953000,0.0324,0.013523,0.002678,0.000431,0.012693
1954000,0.0324,0.013523,0.002678,0.000431,0.013868
1955000,0.0324,0.013523,0.002678,0.000431,0.009050
1956000,0.0324,0.013523,0.002678,0.000431,0.009520
1957000,0.0324,0.013523,0.002678,0.000431,0.010695
1958000,0.0324,0.013523,0.002678,0.000431,0.012105
1959000,0.0324,0.013523,0.002678,0.000431,0.007992
1960000,0.0324,0.013523,0.002678,0.000431,0.005171
1961000,0.0324,0.013523,0.002678,0.000431,0.006464
1962000,0.0324,0.013523,0.002678,0.000431,0.005876
1963000,0.0324,0.013523,0.002678,0.000431,0.004466
1964000,0.0324,0.013523,0.002678,0.000431,0.007052
1965000,0.0324,0.013523,0.002678,0.000431,0.005759
1966000,0.0324,0.013523,0.002678,0.000431,0.002703
1967000,0.0324,0.013523,0.002678,0.000431,0.002116
1968000,0.0324,0.013523,0.002678,0.000431,0.001763
1969000,0.0324,0.013523,0.002678,0.000431,0.002233
1970000,0.0324,0.013523,0.002678,0.000431,0.001880
1971000,0.0324,0.013523,0.002678,0.000431,0.003643
1972000,0.0324,0.013523,0.002678,0.000431,0.000823
1973000,0.0324,0.013523,0.002678,0.000431,0.000940
1974000,0.0324,0.013523,0.002678,0.000431,0.000823
1975000,0.0324,0.013523,0.002678,0.000431,0.000823
1976000,0.0324,0.013523,0.002678,0.000431,0.000940
1977000,0.0324,0.013523,0.002678,0.000431,0.000940
1978000,0.0324,0.013523,0.002678,0.000431,0.000940
1979000,0.0324,0.013523,0.002678,0.000431,0.000940
1980000,0.0324,0.013523,0.002678,0.000431,0.000823
1981000,0.0324,0.013523,0.002678,0.000431,0.000823
1982000,0.0324,0.013523,0.002678,0.000431,0.000940
1983000,0.0324,0.013523,0.002678,0.000431,0.000940
1984000,0.0324,0.013523,0.002678,0.000431,0.000940
1985000,0.0324,0.013523,0.002678,0.000431,0.000705
1986000,0.0324,0.013523,0.002678,0.000431,0.000940
1987000,0.0324,0.013523,0.002678,0.000431,0.000940
1988000,0.0324,0.013523,0.002678,0.000431,0.000940
1989000,0.0324,0.013523,0.002678,0.000431,0.000940
1990000,0.0324,0.013523,0.002678,0.000431,0.000823
1991000,0.0324,0.013523,0.002678,0.000431,0.000823
1992000,0.0324,0.013523,0.002678,0.000431,0.000940
1993000,0.0324,0.013523,0.002678,0.000431,0.000940
1994000,0.0324,0.013523,0.002678,0.000431,0.000940
1995000,0.0324,0.013523,0.002678,0.000431,0.000823
1996000,0.0324,0.013523,0.002678,0.000431,0.000823
1997000,0.0324,0.013523,0.002678,0.000431,0.000940
1998000,0.0324,0.013523,0.002678,0.000431,0.000823
1999000,0.0324,0.013523,0.002678,0.000431,0.000940
