Cycle,Area(mm^2),PeakDynamic(W),SubthresholdLeakage(W),GateLeakage(W),RunTimeDynamic(W)
10000000,0.0324,0.013523,0.002678,0.000431,0.000823
10001000,0.0324,0.013523,0.002678,0.000431,0.000940
10002000,0.0324,0.013523,0.002678,0.000431,0.000823
10003000,0.0324,0.013523,0.002678,0.000431,0.000823
10004000,0.0324,0.013523,0.002678,0.000431,0.000940
10005000,0.0324,0.013523,0.002678,0.000431,0.000940
10006000,0.0324,0.013523,0.002678,0.000431,0.000823
10007000,0.0324,0.013523,0.002678,0.000431,0.000823
10008000,0.0324,0.013523,0.002678,0.000431,0.000940
10009000,0.0324,0.013523,0.002678,0.000431,0.000940
10010000,0.0324,0.013523,0.002678,0.000431,0.000823
10011000,0.0324,0.013523,0.002678,0.000431,0.000823
10012000,0.0324,0.013523,0.002678,0.000431,0.000940
10013000,0.0324,0.013523,0.002678,0.000431,0.000940
10014000,0.0324,0.013523,0.002678,0.000431,0.000823
10015000,0.0324,0.013523,0.002678,0.000431,0.000823
10016000,0.0324,0.013523,0.002678,0.000431,0.000940
10017000,0.0324,0.013523,0.002678,0.000431,0.000823
10018000,0.0324,0.013523,0.002678,0.000431,0.000940
10019000,0.0324,0.013523,0.002678,0.000431,0.000823
10020000,0.0324,0.013523,0.002678,0.000431,0.000940
10021000,0.0324,0.013523,0.002678,0.000431,0.000823
10022000,0.0324,0.013523,0.002678,0.000431,0.000823
10023000,0.0324,0.013523,0.002678,0.000431,0.000940
10024000,0.0324,0.013523,0.002678,0.000431,0.000940
10025000,0.0324,0.013523,0.002678,0.000431,0.000823
10026000,0.0324,0.013523,0.002678,0.000431,0.000823
10027000,0.0324,0.013523,0.002678,0.000431,0.000940
10028000,0.0324,0.013523,0.002678,0.000431,0.000940
10029000,0.0324,0.013523,0.002678,0.000431,0.000705
10030000,0.0324,0.013523,0.002678,0.000431,0.000940
10031000,0.0324,0.013523,0.002678,0.000431,0.000940
10032000,0.0324,0.013523,0.002678,0.000431,0.000940
10033000,0.0324,0.013523,0.002678,0.000431,0.000823
10034000,0.0324,0.013523,0.002678,0.000431,0.000823
10035000,0.0324,0.013523,0.002678,0.000431,0.000940
10036000,0.0324,0.013523,0.002678,0.000431,0.000823
10037000,0.0324,0.013523,0.002678,0.000431,0.000940
10038000,0.0324,0.013523,0.002678,0.000431,0.000823
10039000,0.0324,0.013523,0.002678,0.000431,0.000940
10040000,0.0324,0.013523,0.002678,0.000431,0.000823
10041000,0.0324,0.013523,0.002678,0.000431,0.000823
10042000,0.0324,0.013523,0.002678,0.000431,0.000940
10043000,0.0324,0.013523,0.002678,0.000431,0.000940
10044000,0.0324,0.013523,0.002678,0.000431,0.000705
10045000,0.0324,0.013523,0.002678,0.000431,0.000940
10046000,0.0324,0.013523,0.002678,0.000431,0.000940
10047000,0.0324,0.013523,0.002678,0.000431,0.000940
10048000,0.0324,0.013523,0.002678,0.000431,0.000705
10049000,0.0324,0.013523,0.002678,0.000431,0.000940
10050000,0.0324,0.013523,0.002678,0.000431,0.000940
10051000,0.0324,0.013523,0.002678,0.000431,0.000823
10052000,0.0324,0.013523,0.002678,0.000431,0.000823
10053000,0.0324,0.013523,0.002678,0.000431,0.000940
10054000,0.0324,0.013523,0.002678,0.000431,0.000940
10055000,0.0324,0.013523,0.002678,0.000431,0.000823
10056000,0.0324,0.013523,0.002678,0.000431,0.000823
10057000,0.0324,0.013523,0.002678,0.000431,0.000940
10058000,0.0324,0.013523,0.002678,0.000431,0.000823
10059000,0.0324,0.013523,0.002678,0.000431,0.000940
10060000,0.0324,0.013523,0.002678,0.000431,0.000823
10061000,0.0324,0.013523,0.002678,0.000431,0.000940
10062000,0.0324,0.013523,0.002678,0.000431,0.000823
10063000,0.0324,0.013523,0.002678,0.000431,0.000823
10064000,0.0324,0.013523,0.002678,0.000431,0.000940
10065000,0.0324,0.013523,0.002678,0.000431,0.000940
10066000,0.0324,0.013523,0.002678,0.000431,0.000823
10067000,0.0324,0.013523,0.002678,0.000431,0.000823
10068000,0.0324,0.013523,0.002678,0.000431,0.000940
10069000,0.0324,0.013523,0.002678,0.000431,0.000940
10070000,0.0324,0.013523,0.002678,0.000431,0.000823
10071000,0.0324,0.013523,0.002678,0.000431,0.000823
10072000,0.0324,0.013523,0.002678,0.000431,0.000940
10073000,0.0324,0.013523,0.002678,0.000431,0.000940
10074000,0.0324,0.013523,0.002678,0.000431,0.000823
10075000,0.0324,0.013523,0.002678,0.000431,0.000823
10076000,0.0324,0.013523,0.002678,0.000431,0.000940
10077000,0.0324,0.013523,0.002678,0.000431,0.000823
10078000,0.0324,0.013523,0.002678,0.000431,0.000940
10079000,0.0324,0.013523,0.002678,0.000431,0.000823
10080000,0.0324,0.013523,0.002678,0.000431,0.000940
10081000,0.0324,0.013523,0.002678,0.000431,0.000823
10082000,0.0324,0.013523,0.002678,0.000431,0.000823
10083000,0.0324,0.013523,0.002678,0.000431,0.000940
10084000,0.0324,0.013523,0.002678,0.000431,0.000940
10085000,0.0324,0.013523,0.002678,0.000431,0.000823
10086000,0.0324,0.013523,0.002678,0.000431,0.000823
10087000,0.0324,0.013523,0.002678,0.000431,0.000940
10088000,0.0324,0.013523,0.002678,0.000431,0.000940
10089000,0.0324,0.013523,0.002678,0.000431,0.000705
10090000,0.0324,0.013523,0.002678,0.000431,0.000940
10091000,0.0324,0.013523,0.002678,0.000431,0.000940
10092000,0.0324,0.013523,0.002678,0.000431,0.000823
10093000,0.0324,0.013523,0.002678,0.000431,0.000940
10094000,0.0324,0.013523,0.002678,0.000431,0.000823
10095000,0.0324,0.013523,0.002678,0.000431,0.000940
10096000,0.0324,0.013523,0.002678,0.000431,0.000823
10097000,0.0324,0.013523,0.002678,0.000431,0.000823
10098000,0.0324,0.013523,0.002678,0.000431,0.000940
10099000,0.0324,0.013523,0.002678,0.000431,0.000823
10100000,0.0324,0.013523,0.002678,0.000431,0.000940
10101000,0.0324,0.013523,0.002678,0.000431,0.000823
10102000,0.0324,0.013523,0.002678,0.000431,0.000940
10103000,0.0324,0.013523,0.002678,0.000431,0.000940
10104000,0.0324,0.013523,0.002678,0.000431,0.000705
10105000,0.0324,0.013523,0.002678,0.000431,0.000940
10106000,0.0324,0.013523,0.002678,0.000431,0.000940
10107000,0.0324,0.013523,0.002678,0.000431,0.000940
10108000,0.0324,0.013523,0.002678,0.000431,0.000705
10109000,0.0324,0.013523,0.002678,0.000431,0.000940
10110000,0.0324,0.013523,0.002678,0.000431,0.000940
10111000,0.0324,0.013523,0.002678,0.000431,0.000823
10112000,0.0324,0.013523,0.002678,0.000431,0.000823
10113000,0.0324,0.013523,0.002678,0.000431,0.000940
10114000,0.0324,0.013523,0.002678,0.000431,0.000940
10115000,0.0324,0.013523,0.002678,0.000431,0.000823
10116000,0.0324,0.013523,0.002678,0.000431,0.000823
10117000,0.0324,0.013523,0.002678,0.000431,0.000940
10118000,0.0324,0.013523,0.002678,0.000431,0.000823
10119000,0.0324,0.013523,0.002678,0.000431,0.000940
10120000,0.0324,0.013523,0.002678,0.000431,0.000823
10121000,0.0324,0.013523,0.002678,0.000431,0.000940
10122000,0.0324,0.013523,0.002678,0.000431,0.000823
10123000,0.0324,0.013523,0.002678,0.000431,0.000823
10124000,0.0324,0.013523,0.002678,0.000431,0.000940
10125000,0.0324,0.013523,0.002678,0.000431,0.000940
10126000,0.0324,0.013523,0.002678,0.000431,0.000823
10127000,0.0324,0.013523,0.002678,0.000431,0.000823
10128000,0.0324,0.013523,0.002678,0.000431,0.000940
10129000,0.0324,0.013523,0.002678,0.000431,0.000940
10130000,0.0324,0.013523,0.002678,0.000431,0.000823
10131000,0.0324,0.013523,0.002678,0.000431,0.003173
10132000,0.0324,0.013523,0.002678,0.000431,0.400301
10133000,0.0324,0.013523,0.002678,0.000431,0.717510
10134000,0.0324,0.013523,0.002678,0.000431,0.134452
10135000,0.0324,0.013523,0.002678,0.000431,0.133982
10136000,0.0324,0.013523,0.002678,0.000431,0.296876
10137000,0.0324,0.013523,0.002678,0.000431,0.536634
10138000,0.0324,0.013523,0.002678,0.000431,0.260560
10139000,0.0324,0.013523,0.002678,0.000431,0.363867
10140000,0.0324,0.013523,0.002678,0.000431,0.137273
10141000,0.0324,0.013523,0.002678,0.000431,0.173589
10142000,0.0324,0.013523,0.002678,0.000431,0.087206
10143000,0.0324,0.013523,0.002678,0.000431,0.494794
10144000,0.0324,0.013523,0.002678,0.000431,0.107891
10145000,0.0324,0.013523,0.002678,0.000431,0.064641
10146000,0.0324,0.013523,0.002678,0.000431,0.051477
10147000,0.0324,0.013523,0.002678,0.000431,0.039607
10148000,0.0324,0.013523,0.002678,0.000431,0.031027
10149000,0.0324,0.013523,0.002678,0.000431,0.028442
10150000,0.0324,0.013523,0.002678,0.000431,0.023623
10151000,0.0324,0.013523,0.002678,0.000431,0.019627
10152000,0.0324,0.013523,0.002678,0.000431,0.016336
10153000,0.0324,0.013523,0.002678,0.000431,0.017159
10154000,0.0324,0.013523,0.002678,0.000431,0.017864
10155000,0.0324,0.013523,0.002678,0.000431,0.014221
10156000,0.0324,0.013523,0.002678,0.000431,0.012928
10157000,0.0324,0.013523,0.002678,0.000431,0.011988
10158000,0.0324,0.013523,0.002678,0.000431,0.011870
10159000,0.0324,0.013523,0.002678,0.000431,0.013633
10160000,0.0324,0.013523,0.002678,0.000431,0.014926
10161000,0.0324,0.013523,0.002678,0.000431,0.010813
10162000,0.0324,0.013523,0.002678,0.000431,0.007992
10163000,0.0324,0.013523,0.002678,0.000431,0.007757
10164000,0.0324,0.013523,0.002678,0.000431,0.007639
10165000,0.0324,0.013523,0.002678,0.000431,0.009167
10166000,0.0324,0.013523,0.002678,0.000431,0.006934
10167000,0.0324,0.013523,0.002678,0.000431,0.006582
10168000,0.0324,0.013523,0.002678,0.000431,0.009520
10169000,0.0324,0.013523,0.002678,0.000431,0.006111
10170000,0.0324,0.013523,0.002678,0.000431,0.005054
10171000,0.0324,0.013523,0.002678,0.000431,0.004819
10172000,0.0324,0.013523,0.002678,0.000431,0.005289
10173000,0.0324,0.013523,0.002678,0.000431,0.006817
10174000,0.0324,0.013523,0.002678,0.000431,0.004349
10175000,0.0324,0.013523,0.002678,0.000431,0.003996
10176000,0.0324,0.013523,0.002678,0.000431,0.004584
10177000,0.0324,0.013523,0.002678,0.000431,0.005876
10178000,0.0324,0.013523,0.002678,0.000431,0.003291
10179000,0.0324,0.013523,0.002678,0.000431,0.003643
10180000,0.0324,0.013523,0.002678,0.000431,0.003291
10181000,0.0324,0.013523,0.002678,0.000431,0.003408
10182000,0.0324,0.013523,0.002678,0.000431,0.003408
10183000,0.0324,0.013523,0.002678,0.000431,0.003526
10184000,0.0324,0.013523,0.002678,0.000431,0.003643
10185000,0.0324,0.013523,0.002678,0.000431,0.003173
10186000,0.0324,0.013523,0.002678,0.000431,0.004349
10187000,0.0324,0.013523,0.002678,0.000431,0.005406
10188000,0.0324,0.013523,0.002678,0.000431,0.001763
10189000,0.0324,0.013523,0.002678,0.000431,0.001528
10190000,0.0324,0.013523,0.002678,0.000431,0.001763
10191000,0.0324,0.013523,0.002678,0.000431,0.001763
10192000,0.0324,0.013523,0.002678,0.000431,0.001528
10193000,0.0324,0.013523,0.002678,0.000431,0.001763
10194000,0.0324,0.013523,0.002678,0.000431,0.001645
10195000,0.0324,0.013523,0.002678,0.000431,0.001528
10196000,0.0324,0.013523,0.002678,0.000431,0.001763
10197000,0.0324,0.013523,0.002678,0.000431,0.001763
10198000,0.0324,0.013523,0.002678,0.000431,0.001528
10199000,0.0324,0.013523,0.002678,0.000431,0.001763
10200000,0.0324,0.013523,0.002678,0.000431,0.001645
10201000,0.0324,0.013523,0.002678,0.000431,0.001645
10202000,0.0324,0.013523,0.002678,0.000431,0.001880
10203000,0.0324,0.013523,0.002678,0.000431,0.001410
10204000,0.0324,0.013523,0.002678,0.000431,0.001880
10205000,0.0324,0.013523,0.002678,0.000431,0.001645
10206000,0.0324,0.013523,0.002678,0.000431,0.001645
10207000,0.0324,0.013523,0.002678,0.000431,0.001763
10208000,0.0324,0.013523,0.002678,0.000431,0.001528
10209000,0.0324,0.013523,0.002678,0.000431,0.001763
10210000,0.0324,0.013523,0.002678,0.000431,0.001645
10211000,0.0324,0.013523,0.002678,0.000431,0.001763
10212000,0.0324,0.013523,0.002678,0.000431,0.001528
10213000,0.0324,0.013523,0.002678,0.000431,0.001763
10214000,0.0324,0.013523,0.002678,0.000431,0.001763
10215000,0.0324,0.013523,0.002678,0.000431,0.001645
10216000,0.0324,0.013523,0.002678,0.000431,0.001645
10217000,0.0324,0.013523,0.002678,0.000431,0.001645
10218000,0.0324,0.013523,0.002678,0.000431,0.001645
10219000,0.0324,0.013523,0.002678,0.000431,0.001645
10220000,0.0324,0.013523,0.002678,0.000431,0.001645
10221000,0.0324,0.013523,0.002678,0.000431,0.001763
10222000,0.0324,0.013523,0.002678,0.000431,0.001645
10223000,0.0324,0.013523,0.002678,0.000431,0.001645
10224000,0.0324,0.013523,0.002678,0.000431,0.001763
10225000,0.0324,0.013523,0.002678,0.000431,0.001528
10226000,0.0324,0.013523,0.002678,0.000431,0.001763
10227000,0.0324,0.013523,0.002678,0.000431,0.001763
10228000,0.0324,0.013523,0.002678,0.000431,0.001528
10229000,0.0324,0.013523,0.002678,0.000431,0.001763
10230000,0.0324,0.013523,0.002678,0.000431,0.001645
10231000,0.0324,0.013523,0.002678,0.000431,0.001763
10232000,0.0324,0.013523,0.002678,0.000431,0.001645
10233000,0.0324,0.013523,0.002678,0.000431,0.001528
10234000,0.0324,0.013523,0.002678,0.000431,0.001880
10235000,0.0324,0.013523,0.002678,0.000431,0.001645
10236000,0.0324,0.013523,0.002678,0.000431,0.001645
10237000,0.0324,0.013523,0.002678,0.000431,0.001763
10238000,0.0324,0.013523,0.002678,0.000431,0.001528
10239000,0.0324,0.013523,0.002678,0.000431,0.001763
10240000,0.0324,0.013523,0.002678,0.000431,0.001763
10241000,0.0324,0.013523,0.002678,0.000431,0.001645
10242000,0.0324,0.013523,0.002678,0.000431,0.001645
10243000,0.0324,0.013523,0.002678,0.000431,0.001645
10244000,0.0324,0.013523,0.002678,0.000431,0.001763
10245000,0.0324,0.013523,0.002678,0.000431,0.001645
10246000,0.0324,0.013523,0.002678,0.000431,0.001645
10247000,0.0324,0.013523,0.002678,0.000431,0.001645
10248000,0.0324,0.013523,0.002678,0.000431,0.001763
10249000,0.0324,0.013523,0.002678,0.000431,0.001645
10250000,0.0324,0.013523,0.002678,0.000431,0.001645
10251000,0.0324,0.013523,0.002678,0.000431,0.001763
10252000,0.0324,0.013523,0.002678,0.000431,0.001763
10253000,0.0324,0.013523,0.002678,0.000431,0.001645
10254000,0.0324,0.013523,0.002678,0.000431,0.001645
10255000,0.0324,0.013523,0.002678,0.000431,0.001880
10256000,0.0324,0.013523,0.002678,0.000431,0.001880
10257000,0.0324,0.013523,0.002678,0.000431,0.001645
10258000,0.0324,0.013523,0.002678,0.000431,0.001645
10259000,0.0324,0.013523,0.002678,0.000431,0.001880
10260000,0.0324,0.013523,0.002678,0.000431,0.001763
10261000,0.0324,0.013523,0.002678,0.000431,0.001645
10262000,0.0324,0.013523,0.002678,0.000431,0.001763
10263000,0.0324,0.013523,0.002678,0.000431,0.001880
10264000,0.0324,0.013523,0.002678,0.000431,0.001763
10265000,0.0324,0.013523,0.002678,0.000431,0.002938
10266000,0.0324,0.013523,0.002678,0.000431,0.000823
10267000,0.0324,0.013523,0.002678,0.000431,0.000940
10268000,0.0324,0.013523,0.002678,0.000431,0.000823
10269000,0.0324,0.013523,0.002678,0.000431,0.000823
10270000,0.0324,0.013523,0.002678,0.000431,0.000940
10271000,0.0324,0.013523,0.002678,0.000431,0.000940
10272000,0.0324,0.013523,0.002678,0.000431,0.000823
10273000,0.0324,0.013523,0.002678,0.000431,0.000823
10274000,0.0324,0.013523,0.002678,0.000431,0.000940
10275000,0.0324,0.013523,0.002678,0.000431,0.000940
10276000,0.0324,0.013523,0.002678,0.000431,0.000823
10277000,0.0324,0.013523,0.002678,0.000431,0.000823
10278000,0.0324,0.013523,0.002678,0.000431,0.000940
10279000,0.0324,0.013523,0.002678,0.000431,0.000940
10280000,0.0324,0.013523,0.002678,0.000431,0.000823
10281000,0.0324,0.013523,0.002678,0.000431,0.000823
10282000,0.0324,0.013523,0.002678,0.000431,0.000940
10283000,0.0324,0.013523,0.002678,0.000431,0.000823
10284000,0.0324,0.013523,0.002678,0.000431,0.000940
10285000,0.0324,0.013523,0.002678,0.000431,0.000823
10286000,0.0324,0.013523,0.002678,0.000431,0.000940
10287000,0.0324,0.013523,0.002678,0.000431,0.000823
10288000,0.0324,0.013523,0.002678,0.000431,0.000823
10289000,0.0324,0.013523,0.002678,0.000431,0.000940
10290000,0.0324,0.013523,0.002678,0.000431,0.000940
10291000,0.0324,0.013523,0.002678,0.000431,0.000823
10292000,0.0324,0.013523,0.002678,0.000431,0.000823
10293000,0.0324,0.013523,0.002678,0.000431,0.000940
10294000,0.0324,0.013523,0.002678,0.000431,0.000940
10295000,0.0324,0.013523,0.002678,0.000431,0.000705
10296000,0.0324,0.013523,0.002678,0.000431,0.000940
10297000,0.0324,0.013523,0.002678,0.000431,0.000940
10298000,0.0324,0.013523,0.002678,0.000431,0.000940
10299000,0.0324,0.013523,0.002678,0.000431,0.000823
10300000,0.0324,0.013523,0.002678,0.000431,0.000823
10301000,0.0324,0.013523,0.002678,0.000431,0.000940
10302000,0.0324,0.013523,0.002678,0.000431,0.000823
10303000,0.0324,0.013523,0.002678,0.000431,0.000940
10304000,0.0324,0.013523,0.002678,0.000431,0.000823
10305000,0.0324,0.013523,0.002678,0.000431,0.000940
10306000,0.0324,0.013523,0.002678,0.000431,0.000823
10307000,0.0324,0.013523,0.002678,0.000431,0.000823
10308000,0.0324,0.013523,0.002678,0.000431,0.000940
10309000,0.0324,0.013523,0.002678,0.000431,0.000940
10310000,0.0324,0.013523,0.002678,0.000431,0.000705
10311000,0.0324,0.013523,0.002678,0.000431,0.000940
10312000,0.0324,0.013523,0.002678,0.000431,0.000940
10313000,0.0324,0.013523,0.002678,0.000431,0.000940
10314000,0.0324,0.013523,0.002678,0.000431,0.000705
10315000,0.0324,0.013523,0.002678,0.000431,0.000940
10316000,0.0324,0.013523,0.002678,0.000431,0.000940
10317000,0.0324,0.013523,0.002678,0.000431,0.000823
10318000,0.0324,0.013523,0.002678,0.000431,0.000823
10319000,0.0324,0.013523,0.002678,0.000431,0.000940
10320000,0.0324,0.013523,0.002678,0.000431,0.000940
10321000,0.0324,0.013523,0.002678,0.000431,0.000940
10322000,0.0324,0.013523,0.002678,0.000431,0.232706
10323000,0.0324,0.013523,0.002678,0.000431,0.666972
10324000,0.0324,0.013523,0.002678,0.000431,0.323673
10325000,0.0324,0.013523,0.002678,0.000431,0.131161
10326000,0.0324,0.013523,0.002678,0.000431,0.135392
10327000,0.0324,0.013523,0.002678,0.000431,0.615965
10328000,0.0324,0.013523,0.002678,0.000431,0.246809
10329000,0.0324,0.013523,0.002678,0.000431,0.327551
10330000,0.0324,0.013523,0.002678,0.000431,0.223656
10331000,0.0324,0.013523,0.002678,0.000431,0.143384
10332000,0.0324,0.013523,0.002678,0.000431,0.149613
10333000,0.0324,0.013523,0.002678,0.000431,0.171356
10334000,0.0324,0.013523,0.002678,0.000431,0.474109
10335000,0.0324,0.013523,0.002678,0.000431,0.076981
10336000,0.0324,0.013523,0.002678,0.000431,0.056061
10337000,0.0324,0.013523,0.002678,0.000431,0.042663
10338000,0.0324,0.013523,0.002678,0.000431,0.026444
10339000,0.0324,0.013523,0.002678,0.000431,0.021038
10340000,0.0324,0.013523,0.002678,0.000431,0.019745
10341000,0.0324,0.013523,0.002678,0.000431,0.014338
10342000,0.0324,0.013523,0.002678,0.000431,0.010813
10343000,0.0324,0.013523,0.002678,0.000431,0.008227
10344000,0.0324,0.013523,0.002678,0.000431,0.008580
10345000,0.0324,0.013523,0.002678,0.000431,0.009755
10346000,0.0324,0.013523,0.002678,0.000431,0.006111
10347000,0.0324,0.013523,0.002678,0.000431,0.004231
10348000,0.0324,0.013523,0.002678,0.000431,0.005759
10349000,0.0324,0.013523,0.002678,0.000431,0.003526
10350000,0.0324,0.013523,0.002678,0.000431,0.003291
10351000,0.0324,0.013523,0.002678,0.000431,0.003526
10352000,0.0324,0.013523,0.002678,0.000431,0.007757
10353000,0.0324,0.013523,0.002678,0.000431,0.001880
10354000,0.0324,0.013523,0.002678,0.000431,0.001880
10355000,0.0324,0.013523,0.002678,0.000431,0.001410
10356000,0.0324,0.013523,0.002678,0.000431,0.001880
10357000,0.0324,0.013523,0.002678,0.000431,0.001880
10358000,0.0324,0.013523,0.002678,0.000431,0.003408
10359000,0.0324,0.013523,0.002678,0.000431,0.000705
10360000,0.0324,0.013523,0.002678,0.000431,0.000940
10361000,0.0324,0.013523,0.002678,0.000431,0.000940
10362000,0.0324,0.013523,0.002678,0.000431,0.000823
10363000,0.0324,0.013523,0.002678,0.000431,0.000823
10364000,0.0324,0.013523,0.002678,0.000431,0.000940
10365000,0.0324,0.013523,0.002678,0.000431,0.000940
10366000,0.0324,0.013523,0.002678,0.000431,0.000823
10367000,0.0324,0.013523,0.002678,0.000431,0.000823
10368000,0.0324,0.013523,0.002678,0.000431,0.000940
10369000,0.0324,0.013523,0.002678,0.000431,0.000823
10370000,0.0324,0.013523,0.002678,0.000431,0.000940
10371000,0.0324,0.013523,0.002678,0.000431,0.000823
10372000,0.0324,0.013523,0.002678,0.000431,0.000940
10373000,0.0324,0.013523,0.002678,0.000431,0.000823
10374000,0.0324,0.013523,0.002678,0.000431,0.000823
10375000,0.0324,0.013523,0.002678,0.000431,0.000940
10376000,0.0324,0.013523,0.002678,0.000431,0.000940
10377000,0.0324,0.013523,0.002678,0.000431,0.000823
10378000,0.0324,0.013523,0.002678,0.000431,0.000823
10379000,0.0324,0.013523,0.002678,0.000431,0.000940
10380000,0.0324,0.013523,0.002678,0.000431,0.000940
10381000,0.0324,0.013523,0.002678,0.000431,0.000823
10382000,0.0324,0.013523,0.002678,0.000431,0.000823
10383000,0.0324,0.013523,0.002678,0.000431,0.000940
10384000,0.0324,0.013523,0.002678,0.000431,0.002586
10385000,0.0324,0.013523,0.002678,0.000431,0.499730
10386000,0.0324,0.013523,0.002678,0.000431,0.665092
10387000,0.0324,0.013523,0.002678,0.000431,0.133982
10388000,0.0324,0.013523,0.002678,0.000431,0.133982
10389000,0.0324,0.013523,0.002678,0.000431,0.463179
10390000,0.0324,0.013523,0.002678,0.000431,0.303458
10391000,0.0324,0.013523,0.002678,0.000431,0.294643
10392000,0.0324,0.013523,0.002678,0.000431,0.286886
10393000,0.0324,0.013523,0.002678,0.000431,0.143032
10394000,0.0324,0.013523,0.002678,0.000431,0.168065
10395000,0.0324,0.013523,0.002678,0.000431,0.100839
10396000,0.0324,0.013523,0.002678,0.000431,0.489740
10397000,0.0324,0.013523,0.002678,0.000431,0.195684
10398000,0.0324,0.013523,0.002678,0.000431,0.098959
10399000,0.0324,0.013523,0.002678,0.000431,0.073220
10400000,0.0324,0.013523,0.002678,0.000431,0.050185
10401000,0.0324,0.013523,0.002678,0.000431,0.042193
10402000,0.0324,0.013523,0.002678,0.000431,0.037374
10403000,0.0324,0.013523,0.002678,0.000431,0.034788
10404000,0.0324,0.013523,0.002678,0.000431,0.025856
10405000,0.0324,0.013523,0.002678,0.000431,0.015631
10406000,0.0324,0.013523,0.002678,0.000431,0.020215
10407000,0.0324,0.013523,0.002678,0.000431,0.011518
10408000,0.0324,0.013523,0.002678,0.000431,0.014691
10409000,0.0324,0.013523,0.002678,0.000431,0.014103
10410000,0.0324,0.013523,0.002678,0.000431,0.010695
10411000,0.0324,0.013523,0.002678,0.000431,0.015514
10412000,0.0324,0.013523,0.002678,0.000431,0.007052
10413000,0.0324,0.013523,0.002678,0.000431,0.008580
10414000,0.0324,0.013523,0.002678,0.000431,0.009050
10415000,0.0324,0.013523,0.002678,0.000431,0.005171
10416000,0.0324,0.013523,0.002678,0.000431,0.005406
10417000,0.0324,0.013523,0.002678,0.000431,0.006347
10418000,0.0324,0.013523,0.002678,0.000431,0.004349
10419000,0.0324,0.013523,0.002678,0.000431,0.004231
10420000,0.0324,0.013523,0.002678,0.000431,0.003761
10421000,0.0324,0.013523,0.002678,0.000431,0.005641
10422000,0.0324,0.013523,0.002678,0.000431,0.004819
10423000,0.0324,0.013523,0.002678,0.000431,0.001763
10424000,0.0324,0.013523,0.002678,0.000431,0.003291
10425000,0.0324,0.013523,0.002678,0.000431,0.000940
10426000,0.0324,0.013523,0.002678,0.000431,0.000940
10427000,0.0324,0.013523,0.002678,0.000431,0.000823
10428000,0.0324,0.013523,0.002678,0.000431,0.000823
10429000,0.0324,0.013523,0.002678,0.000431,0.000940
10430000,0.0324,0.013523,0.002678,0.000431,0.173589
10431000,0.0324,0.013523,0.002678,0.000431,0.591284
10432000,0.0324,0.013523,0.002678,0.000431,0.518534
10433000,0.0324,0.013523,0.002678,0.000431,0.133512
10434000,0.0324,0.013523,0.002678,0.000431,0.133512
10435000,0.0324,0.013523,0.002678,0.000431,0.634887
10436000,0.0324,0.013523,0.002678,0.000431,0.240463
10437000,0.0324,0.013523,0.002678,0.000431,0.302400
10438000,0.0324,0.013523,0.002678,0.000431,0.239170
10439000,0.0324,0.013523,0.002678,0.000431,0.141857
10440000,0.0324,0.013523,0.002678,0.000431,0.128811
10441000,0.0324,0.013523,0.002678,0.000431,0.277954
10442000,0.0324,0.013523,0.002678,0.000431,0.364220
10443000,0.0324,0.013523,0.002678,0.000431,0.079096
10444000,0.0324,0.013523,0.002678,0.000431,0.067579
10445000,0.0324,0.013523,0.002678,0.000431,0.050655
10446000,0.0324,0.013523,0.002678,0.000431,0.042428
10447000,0.0324,0.013523,0.002678,0.000431,0.021625
10448000,0.0324,0.013523,0.002678,0.000431,0.023858
10449000,0.0324,0.013523,0.002678,0.000431,0.019040
10450000,0.0324,0.013523,0.002678,0.000431,0.014926
10451000,0.0324,0.013523,0.002678,0.000431,0.019627
10452000,0.0324,0.013523,0.002678,0.000431,0.014456
10453000,0.0324,0.013523,0.002678,0.000431,0.016571
10454000,0.0324,0.013523,0.002678,0.000431,0.012928
10455000,0.0324,0.013523,0.002678,0.000431,0.008580
10456000,0.0324,0.013523,0.002678,0.000431,0.010342
10457000,0.0324,0.013523,0.002678,0.000431,0.007992
10458000,0.0324,0.013523,0.002678,0.000431,0.005054
10459000,0.0324,0.013523,0.002678,0.000431,0.005876
10460000,0.0324,0.013523,0.002678,0.000431,0.006582
10461000,0.0324,0.013523,0.002678,0.000431,0.003408
10462000,0.0324,0.013523,0.002678,0.000431,0.003408
10463000,0.0324,0.013523,0.002678,0.000431,0.003408
10464000,0.0324,0.013523,0.002678,0.000431,0.004936
10465000,0.0324,0.013523,0.002678,0.000431,0.001528
10466000,0.0324,0.013523,0.002678,0.000431,0.001645
10467000,0.0324,0.013523,0.002678,0.000431,0.001763
10468000,0.0324,0.013523,0.002678,0.000431,0.001763
10469000,0.0324,0.013523,0.002678,0.000431,0.001763
10470000,0.0324,0.013523,0.002678,0.000431,0.001645
10471000,0.0324,0.013523,0.002678,0.000431,0.001645
10472000,0.0324,0.013523,0.002678,0.000431,0.001763
10473000,0.0324,0.013523,0.002678,0.000431,0.001763
10474000,0.0324,0.013523,0.002678,0.000431,0.001645
10475000,0.0324,0.013523,0.002678,0.000431,0.001880
10476000,0.0324,0.013523,0.002678,0.000431,0.001410
10477000,0.0324,0.013523,0.002678,0.000431,0.001880
10478000,0.0324,0.013523,0.002678,0.000431,0.001763
10479000,0.0324,0.013523,0.002678,0.000431,0.001763
10480000,0.0324,0.013523,0.002678,0.000431,0.001645
10481000,0.0324,0.013523,0.002678,0.000431,0.001645
10482000,0.0324,0.013523,0.002678,0.000431,0.001880
10483000,0.0324,0.013523,0.002678,0.000431,0.001645
10484000,0.0324,0.013523,0.002678,0.000431,0.001645
10485000,0.0324,0.013523,0.002678,0.000431,0.001763
10486000,0.0324,0.013523,0.002678,0.000431,0.001763
10487000,0.0324,0.013523,0.002678,0.000431,0.001645
10488000,0.0324,0.013523,0.002678,0.000431,0.001645
10489000,0.0324,0.013523,0.002678,0.000431,0.001880
10490000,0.0324,0.013523,0.002678,0.000431,0.001528
10491000,0.0324,0.013523,0.002678,0.000431,0.001880
10492000,0.0324,0.013523,0.002678,0.000431,0.001645
10493000,0.0324,0.013523,0.002678,0.000431,0.001763
10494000,0.0324,0.013523,0.002678,0.000431,0.001645
10495000,0.0324,0.013523,0.002678,0.000431,0.001645
10496000,0.0324,0.013523,0.002678,0.000431,0.001880
10497000,0.0324,0.013523,0.002678,0.000431,0.004113
10498000,0.0324,0.013523,0.002678,0.000431,0.000823
10499000,0.0324,0.013523,0.002678,0.000431,0.000823
10500000,0.0324,0.013523,0.002678,0.000431,0.000940
10501000,0.0324,0.013523,0.002678,0.000431,0.000940
10502000,0.0324,0.013523,0.002678,0.000431,0.000823
10503000,0.0324,0.013523,0.002678,0.000431,0.000823
10504000,0.0324,0.013523,0.002678,0.000431,0.000940
10505000,0.0324,0.013523,0.002678,0.000431,0.000940
10506000,0.0324,0.013523,0.002678,0.000431,0.000823
10507000,0.0324,0.013523,0.002678,0.000431,0.000823
10508000,0.0324,0.013523,0.002678,0.000431,0.000940
10509000,0.0324,0.013523,0.002678,0.000431,0.000823
10510000,0.0324,0.013523,0.002678,0.000431,0.000940
10511000,0.0324,0.013523,0.002678,0.000431,0.000823
10512000,0.0324,0.013523,0.002678,0.000431,0.000940
10513000,0.0324,0.013523,0.002678,0.000431,0.000823
10514000,0.0324,0.013523,0.002678,0.000431,0.000823
10515000,0.0324,0.013523,0.002678,0.000431,0.210258
10516000,0.0324,0.013523,0.002678,0.000431,0.578004
10517000,0.0324,0.013523,0.002678,0.000431,0.450368
10518000,0.0324,0.013523,0.002678,0.000431,0.132572
10519000,0.0324,0.013523,0.002678,0.000431,0.133982
10520000,0.0324,0.013523,0.002678,0.000431,0.586466
10521000,0.0324,0.013523,0.002678,0.000431,0.225184
10522000,0.0324,0.013523,0.002678,0.000431,0.314035
10523000,0.0324,0.013523,0.002678,0.000431,0.233764
10524000,0.0324,0.013523,0.002678,0.000431,0.138801
10525000,0.0324,0.013523,0.002678,0.000431,0.170651
10526000,0.0324,0.013523,0.002678,0.000431,0.103307
10527000,0.0324,0.013523,0.002678,0.000431,0.482923
10528000,0.0324,0.013523,0.002678,0.000431,0.154550
10529000,0.0324,0.013523,0.002678,0.000431,0.089792
10530000,0.0324,0.013523,0.002678,0.000431,0.068754
10531000,0.0324,0.013523,0.002678,0.000431,0.062760
10532000,0.0324,0.013523,0.002678,0.000431,0.043720
10533000,0.0324,0.013523,0.002678,0.000431,0.035611
10534000,0.0324,0.013523,0.002678,0.000431,0.035141
10535000,0.0324,0.013523,0.002678,0.000431,0.031850
10536000,0.0324,0.013523,0.002678,0.000431,0.022683
10537000,0.0324,0.013523,0.002678,0.000431,0.023506
10538000,0.0324,0.013523,0.002678,0.000431,0.024681
10539000,0.0324,0.013523,0.002678,0.000431,0.018569
10540000,0.0324,0.013523,0.002678,0.000431,0.020215
10541000,0.0324,0.013523,0.002678,0.000431,0.023976
10542000,0.0324,0.013523,0.002678,0.000431,0.020802
10543000,0.0324,0.013523,0.002678,0.000431,0.014456
10544000,0.0324,0.013523,0.002678,0.000431,0.014456
10545000,0.0324,0.013523,0.002678,0.000431,0.015984
10546000,0.0324,0.013523,0.002678,0.000431,0.013633
10547000,0.0324,0.013523,0.002678,0.000431,0.006582
10548000,0.0324,0.013523,0.002678,0.000431,0.009167
10549000,0.0324,0.013523,0.002678,0.000431,0.006229
10550000,0.0324,0.013523,0.002678,0.000431,0.007757
10551000,0.0324,0.013523,0.002678,0.000431,0.002468
10552000,0.0324,0.013523,0.002678,0.000431,0.002586
10553000,0.0324,0.013523,0.002678,0.000431,0.002586
10554000,0.0324,0.013523,0.002678,0.000431,0.002586
10555000,0.0324,0.013523,0.002678,0.000431,0.002468
10556000,0.0324,0.013523,0.002678,0.000431,0.002468
10557000,0.0324,0.013523,0.002678,0.000431,0.002821
10558000,0.0324,0.013523,0.002678,0.000431,0.002351
10559000,0.0324,0.013523,0.002678,0.000431,0.002468
10560000,0.0324,0.013523,0.002678,0.000431,0.002586
10561000,0.0324,0.013523,0.002678,0.000431,0.002703
10562000,0.0324,0.013523,0.002678,0.000431,0.002586
10563000,0.0324,0.013523,0.002678,0.000431,0.002351
10564000,0.0324,0.013523,0.002678,0.000431,0.002821
10565000,0.0324,0.013523,0.002678,0.000431,0.002468
10566000,0.0324,0.013523,0.002678,0.000431,0.002586
10567000,0.0324,0.013523,0.002678,0.000431,0.002586
10568000,0.0324,0.013523,0.002678,0.000431,0.004113
10569000,0.0324,0.013523,0.002678,0.000431,0.001880
10570000,0.0324,0.013523,0.002678,0.000431,0.001528
10571000,0.0324,0.013523,0.002678,0.000431,0.001880
10572000,0.0324,0.013523,0.002678,0.000431,0.001763
10573000,0.0324,0.013523,0.002678,0.000431,0.001763
10574000,0.0324,0.013523,0.002678,0.000431,0.001528
10575000,0.0324,0.013523,0.002678,0.000431,0.001763
10576000,0.0324,0.013523,0.002678,0.000431,0.001880
10577000,0.0324,0.013523,0.002678,0.000431,0.001528
10578000,0.0324,0.013523,0.002678,0.000431,0.001763
10579000,0.0324,0.013523,0.002678,0.000431,0.001763
10580000,0.0324,0.013523,0.002678,0.000431,0.001645
10581000,0.0324,0.013523,0.002678,0.000431,0.001763
10582000,0.0324,0.013523,0.002678,0.000431,0.001645
10583000,0.0324,0.013523,0.002678,0.000431,0.001880
10584000,0.0324,0.013523,0.002678,0.000431,0.001528
10585000,0.0324,0.013523,0.002678,0.000431,0.001645
10586000,0.0324,0.013523,0.002678,0.000431,0.001880
10587000,0.0324,0.013523,0.002678,0.000431,0.001763
10588000,0.0324,0.013523,0.002678,0.000431,0.001645
10589000,0.0324,0.013523,0.002678,0.000431,0.001645
10590000,0.0324,0.013523,0.002678,0.000431,0.001645
10591000,0.0324,0.013523,0.002678,0.000431,0.001880
10592000,0.0324,0.013523,0.002678,0.000431,0.001645
10593000,0.0324,0.013523,0.002678,0.000431,0.001645
10594000,0.0324,0.013523,0.002678,0.000431,0.001880
10595000,0.0324,0.013523,0.002678,0.000431,0.001645
10596000,0.0324,0.013523,0.002678,0.000431,0.001763
10597000,0.0324,0.013523,0.002678,0.000431,0.001763
10598000,0.0324,0.013523,0.002678,0.000431,0.001645
10599000,0.0324,0.013523,0.002678,0.000431,0.001763
10600000,0.0324,0.013523,0.002678,0.000431,0.001645
10601000,0.0324,0.013523,0.002678,0.000431,0.001763
10602000,0.0324,0.013523,0.002678,0.000431,0.001763
10603000,0.0324,0.013523,0.002678,0.000431,0.001645
10604000,0.0324,0.013523,0.002678,0.000431,0.001645
10605000,0.0324,0.013523,0.002678,0.000431,0.001763
10606000,0.0324,0.013523,0.002678,0.000431,0.001763
10607000,0.0324,0.013523,0.002678,0.000431,0.001645
10608000,0.0324,0.013523,0.002678,0.000431,0.001763
10609000,0.0324,0.013523,0.002678,0.000431,0.001645
10610000,0.0324,0.013523,0.002678,0.000431,0.001880
10611000,0.0324,0.013523,0.002678,0.000431,0.001528
10612000,0.0324,0.013523,0.002678,0.000431,0.001763
10613000,0.0324,0.013523,0.002678,0.000431,0.001763
10614000,0.0324,0.013523,0.002678,0.000431,0.001763
10615000,0.0324,0.013523,0.002678,0.000431,0.001645
10616000,0.0324,0.013523,0.002678,0.000431,0.001645
10617000,0.0324,0.013523,0.002678,0.000431,0.001880
10618000,0.0324,0.013523,0.002678,0.000431,0.001528
10619000,0.0324,0.013523,0.002678,0.000431,0.001763
10620000,0.0324,0.013523,0.002678,0.000431,0.001880
10621000,0.0324,0.013523,0.002678,0.000431,0.001528
10622000,0.0324,0.013523,0.002678,0.000431,0.001880
10623000,0.0324,0.013523,0.002678,0.000431,0.001528
10624000,0.0324,0.013523,0.002678,0.000431,0.001880
10625000,0.0324,0.013523,0.002678,0.000431,0.001645
10626000,0.0324,0.013523,0.002678,0.000431,0.001645
10627000,0.0324,0.013523,0.002678,0.000431,0.001880
10628000,0.0324,0.013523,0.002678,0.000431,0.001645
10629000,0.0324,0.013523,0.002678,0.000431,0.001763
10630000,0.0324,0.013523,0.002678,0.000431,0.001645
10631000,0.0324,0.013523,0.002678,0.000431,0.001763
10632000,0.0324,0.013523,0.002678,0.000431,0.001763
10633000,0.0324,0.013523,0.002678,0.000431,0.001645
10634000,0.0324,0.013523,0.002678,0.000431,0.001645
10635000,0.0324,0.013523,0.002678,0.000431,0.001763
10636000,0.0324,0.013523,0.002678,0.000431,0.001880
10637000,0.0324,0.013523,0.002678,0.000431,0.001645
10638000,0.0324,0.013523,0.002678,0.000431,0.001645
10639000,0.0324,0.013523,0.002678,0.000431,0.001763
10640000,0.0324,0.013523,0.002678,0.000431,0.001645
10641000,0.0324,0.013523,0.002678,0.000431,0.001763
10642000,0.0324,0.013523,0.002678,0.000431,0.001645
10643000,0.0324,0.013523,0.002678,0.000431,0.001763
10644000,0.0324,0.013523,0.002678,0.000431,0.001645
10645000,0.0324,0.013523,0.002678,0.000431,0.001763
10646000,0.0324,0.013523,0.002678,0.000431,0.001763
10647000,0.0324,0.013523,0.002678,0.000431,0.001763
10648000,0.0324,0.013523,0.002678,0.000431,0.001528
10649000,0.0324,0.013523,0.002678,0.000431,0.001763
10650000,0.0324,0.013523,0.002678,0.000431,0.001880
10651000,0.0324,0.013523,0.002678,0.000431,0.003526
10652000,0.0324,0.013523,0.002678,0.000431,0.001058
10653000,0.0324,0.013523,0.002678,0.000431,0.000705
10654000,0.0324,0.013523,0.002678,0.000431,0.000940
10655000,0.0324,0.013523,0.002678,0.000431,0.000823
10656000,0.0324,0.013523,0.002678,0.000431,0.000823
10657000,0.0324,0.013523,0.002678,0.000431,0.000940
10658000,0.0324,0.013523,0.002678,0.000431,0.000705
10659000,0.0324,0.013523,0.002678,0.000431,0.000940
10660000,0.0324,0.013523,0.002678,0.000431,0.000823
10661000,0.0324,0.013523,0.002678,0.000431,0.000823
10662000,0.0324,0.013523,0.002678,0.000431,0.000823
10663000,0.0324,0.013523,0.002678,0.000431,0.000823
10664000,0.0324,0.013523,0.002678,0.000431,0.000940
10665000,0.0324,0.013523,0.002678,0.000431,0.000705
10666000,0.0324,0.013523,0.002678,0.000431,0.000940
10667000,0.0324,0.013523,0.002678,0.000431,0.000705
10668000,0.0324,0.013523,0.002678,0.000431,0.019040
10669000,0.0324,0.013523,0.002678,0.000431,0.577298
10670000,0.0324,0.013523,0.002678,0.000431,0.603977
10671000,0.0324,0.013523,0.002678,0.000431,0.131632
10672000,0.0324,0.013523,0.002678,0.000431,0.133512
10673000,0.0324,0.013523,0.002678,0.000431,0.538984
10674000,0.0324,0.013523,0.002678,0.000431,0.286534
10675000,0.0324,0.013523,0.002678,0.000431,0.249982
10676000,0.0324,0.013523,0.002678,0.000431,0.305926
10677000,0.0324,0.013523,0.002678,0.000431,0.144677
10678000,0.0324,0.013523,0.002678,0.000431,0.149261
10679000,0.0324,0.013523,0.002678,0.000431,0.103307
10680000,0.0324,0.013523,0.002678,0.000431,0.405355
10681000,0.0324,0.013523,0.002678,0.000431,0.275133
10682000,0.0324,0.013523,0.002678,0.000431,0.081330
10683000,0.0324,0.013523,0.002678,0.000431,0.053123
10684000,0.0324,0.013523,0.002678,0.000431,0.050772
10685000,0.0324,0.013523,0.002678,0.000431,0.031498
10686000,0.0324,0.013523,0.002678,0.000431,0.026209
10687000,0.0324,0.013523,0.002678,0.000431,0.016807
10688000,0.0324,0.013523,0.002678,0.000431,0.019627
10689000,0.0324,0.013523,0.002678,0.000431,0.014456
10690000,0.0324,0.013523,0.002678,0.000431,0.017747
10691000,0.0324,0.013523,0.002678,0.000431,0.014221
10692000,0.0324,0.013523,0.002678,0.000431,0.015396
10693000,0.0324,0.013523,0.002678,0.000431,0.014573
10694000,0.0324,0.013523,0.002678,0.000431,0.010225
10695000,0.0324,0.013523,0.002678,0.000431,0.011400
10696000,0.0324,0.013523,0.002678,0.000431,0.011283
10697000,0.0324,0.013523,0.002678,0.000431,0.007404
10698000,0.0324,0.013523,0.002678,0.000431,0.008227
10699000,0.0324,0.013523,0.002678,0.000431,0.010695
10700000,0.0324,0.013523,0.002678,0.000431,0.005759
10701000,0.0324,0.013523,0.002678,0.000431,0.005524
10702000,0.0324,0.013523,0.002678,0.000431,0.007757
10703000,0.0324,0.013523,0.002678,0.000431,0.004231
10704000,0.0324,0.013523,0.002678,0.000431,0.004231
10705000,0.0324,0.013523,0.002678,0.000431,0.003878
10706000,0.0324,0.013523,0.002678,0.000431,0.004113
10707000,0.0324,0.013523,0.002678,0.000431,0.004231
10708000,0.0324,0.013523,0.002678,0.000431,0.003291
10709000,0.0324,0.013523,0.002678,0.000431,0.004466
10710000,0.0324,0.013523,0.002678,0.000431,0.005289
10711000,0.0324,0.013523,0.002678,0.000431,0.003056
10712000,0.0324,0.013523,0.002678,0.000431,0.003173
10713000,0.0324,0.013523,0.002678,0.000431,0.003056
10714000,0.0324,0.013523,0.002678,0.000431,0.003291
10715000,0.0324,0.013523,0.002678,0.000431,0.002703
10716000,0.0324,0.013523,0.002678,0.000431,0.003291
10717000,0.0324,0.013523,0.002678,0.000431,0.003408
10718000,0.0324,0.013523,0.002678,0.000431,0.002821
10719000,0.0324,0.013523,0.002678,0.000431,0.003291
10720000,0.0324,0.013523,0.002678,0.000431,0.002938
10721000,0.0324,0.013523,0.002678,0.000431,0.003408
10722000,0.0324,0.013523,0.002678,0.000431,0.002821
10723000,0.0324,0.013523,0.002678,0.000431,0.003173
10724000,0.0324,0.013523,0.002678,0.000431,0.003526
10725000,0.0324,0.013523,0.002678,0.000431,0.002938
10726000,0.0324,0.013523,0.002678,0.000431,0.003056
10727000,0.0324,0.013523,0.002678,0.000431,0.003056
10728000,0.0324,0.013523,0.002678,0.000431,0.004819
10729000,0.0324,0.013523,0.002678,0.000431,0.004349
10730000,0.0324,0.013523,0.002678,0.000431,0.000940
10731000,0.0324,0.013523,0.002678,0.000431,0.000705
10732000,0.0324,0.013523,0.002678,0.000431,0.000940
10733000,0.0324,0.013523,0.002678,0.000431,0.000940
10734000,0.0324,0.013523,0.002678,0.000431,0.000823
10735000,0.0324,0.013523,0.002678,0.000431,0.000823
10736000,0.0324,0.013523,0.002678,0.000431,0.000940
10737000,0.0324,0.013523,0.002678,0.000431,0.000940
10738000,0.0324,0.013523,0.002678,0.000431,0.000823
10739000,0.0324,0.013523,0.002678,0.000431,0.000823
10740000,0.0324,0.013523,0.002678,0.000431,0.000940
10741000,0.0324,0.013523,0.002678,0.000431,0.000823
10742000,0.0324,0.013523,0.002678,0.000431,0.000940
10743000,0.0324,0.013523,0.002678,0.000431,0.000823
10744000,0.0324,0.013523,0.002678,0.000431,0.000940
10745000,0.0324,0.013523,0.002678,0.000431,0.000823
10746000,0.0324,0.013523,0.002678,0.000431,0.000823
10747000,0.0324,0.013523,0.002678,0.000431,0.000940
10748000,0.0324,0.013523,0.002678,0.000431,0.000940
10749000,0.0324,0.013523,0.002678,0.000431,0.000823
10750000,0.0324,0.013523,0.002678,0.000431,0.000823
10751000,0.0324,0.013523,0.002678,0.000431,0.000940
10752000,0.0324,0.013523,0.002678,0.000431,0.000940
10753000,0.0324,0.013523,0.002678,0.000431,0.000705
10754000,0.0324,0.013523,0.002678,0.000431,0.000940
10755000,0.0324,0.013523,0.002678,0.000431,0.000940
10756000,0.0324,0.013523,0.002678,0.000431,0.000823
10757000,0.0324,0.013523,0.002678,0.000431,0.000940
10758000,0.0324,0.013523,0.002678,0.000431,0.000823
10759000,0.0324,0.013523,0.002678,0.000431,0.000940
10760000,0.0324,0.013523,0.002678,0.000431,0.000823
10761000,0.0324,0.013523,0.002678,0.000431,0.000823
10762000,0.0324,0.013523,0.002678,0.000431,0.000940
10763000,0.0324,0.013523,0.002678,0.000431,0.000940
10764000,0.0324,0.013523,0.002678,0.000431,0.000823
10765000,0.0324,0.013523,0.002678,0.000431,0.000823
10766000,0.0324,0.013523,0.002678,0.000431,0.000940
10767000,0.0324,0.013523,0.002678,0.000431,0.000940
10768000,0.0324,0.013523,0.002678,0.000431,0.000705
10769000,0.0324,0.013523,0.002678,0.000431,0.000940
10770000,0.0324,0.013523,0.002678,0.000431,0.000940
10771000,0.0324,0.013523,0.002678,0.000431,0.000940
10772000,0.0324,0.013523,0.002678,0.000431,0.000705
10773000,0.0324,0.013523,0.002678,0.000431,0.000940
10774000,0.0324,0.013523,0.002678,0.000431,0.000940
10775000,0.0324,0.013523,0.002678,0.000431,0.000823
10776000,0.0324,0.013523,0.002678,0.000431,0.000823
10777000,0.0324,0.013523,0.002678,0.000431,0.000940
10778000,0.0324,0.013523,0.002678,0.000431,0.000940
10779000,0.0324,0.013523,0.002678,0.000431,0.000823
10780000,0.0324,0.013523,0.002678,0.000431,0.000823
10781000,0.0324,0.013523,0.002678,0.000431,0.000940
10782000,0.0324,0.013523,0.002678,0.000431,0.000823
10783000,0.0324,0.013523,0.002678,0.000431,0.000940
10784000,0.0324,0.013523,0.002678,0.000431,0.000823
10785000,0.0324,0.013523,0.002678,0.000431,0.000940
10786000,0.0324,0.013523,0.002678,0.000431,0.000823
10787000,0.0324,0.013523,0.002678,0.000431,0.000823
10788000,0.0324,0.013523,0.002678,0.000431,0.000940
10789000,0.0324,0.013523,0.002678,0.000431,0.000940
10790000,0.0324,0.013523,0.002678,0.000431,0.003526
10791000,0.0324,0.013523,0.002678,0.000431,0.436500
10792000,0.0324,0.013523,0.002678,0.000431,0.730790
10793000,0.0324,0.013523,0.002678,0.000431,0.133747
10794000,0.0324,0.013523,0.002678,0.000431,0.135392
10795000,0.0324,0.013523,0.002678,0.000431,0.277719
10796000,0.0324,0.013523,0.002678,0.000431,0.541335
10797000,0.0324,0.013523,0.002678,0.000431,0.272313
10798000,0.0324,0.013523,0.002678,0.000431,0.325906
10799000,0.0324,0.013523,0.002678,0.000431,0.138213
10800000,0.0324,0.013523,0.002678,0.000431,0.159603
10801000,0.0324,0.013523,0.002678,0.000431,0.107186
10802000,0.0324,0.013523,0.002678,0.000431,0.447900
10803000,0.0324,0.013523,0.002678,0.000431,0.207790
10804000,0.0324,0.013523,0.002678,0.000431,0.078744
10805000,0.0324,0.013523,0.002678,0.000431,0.052653
10806000,0.0324,0.013523,0.002678,0.000431,0.035023
10807000,0.0324,0.013523,0.002678,0.000431,0.033613
10808000,0.0324,0.013523,0.002678,0.000431,0.020450
10809000,0.0324,0.013523,0.002678,0.000431,0.023036
10810000,0.0324,0.013523,0.002678,0.000431,0.017864
10811000,0.0324,0.013523,0.002678,0.000431,0.019745
10812000,0.0324,0.013523,0.002678,0.000431,0.013516
10813000,0.0324,0.013523,0.002678,0.000431,0.012576
10814000,0.0324,0.013523,0.002678,0.000431,0.006464
10815000,0.0324,0.013523,0.002678,0.000431,0.006347
10816000,0.0324,0.013523,0.002678,0.000431,0.009285
10817000,0.0324,0.013523,0.002678,0.000431,0.004819
10818000,0.0324,0.013523,0.002678,0.000431,0.004936
10819000,0.0324,0.013523,0.002678,0.000431,0.005054
10820000,0.0324,0.013523,0.002678,0.000431,0.010107
10821000,0.0324,0.013523,0.002678,0.000431,0.003526
10822000,0.0324,0.013523,0.002678,0.000431,0.006699
10823000,0.0324,0.013523,0.002678,0.000431,0.002938
10824000,0.0324,0.013523,0.002678,0.000431,0.002351
10825000,0.0324,0.013523,0.002678,0.000431,0.000705
10826000,0.0324,0.013523,0.002678,0.000431,0.000940
10827000,0.0324,0.013523,0.002678,0.000431,0.000705
10828000,0.0324,0.013523,0.002678,0.000431,0.000940
10829000,0.0324,0.013523,0.002678,0.000431,0.000705
10830000,0.0324,0.013523,0.002678,0.000431,0.000940
10831000,0.0324,0.013523,0.002678,0.000431,0.000940
10832000,0.0324,0.013523,0.002678,0.000431,0.000705
10833000,0.0324,0.013523,0.002678,0.000431,0.000940
10834000,0.0324,0.013523,0.002678,0.000431,0.000705
10835000,0.0324,0.013523,0.002678,0.000431,0.000940
10836000,0.0324,0.013523,0.002678,0.000431,0.000823
10837000,0.0324,0.013523,0.002678,0.000431,0.000823
10838000,0.0324,0.013523,0.002678,0.000431,0.000823
10839000,0.0324,0.013523,0.002678,0.000431,0.000823
10840000,0.0324,0.013523,0.002678,0.000431,0.000940
10841000,0.0324,0.013523,0.002678,0.000431,0.000705
10842000,0.0324,0.013523,0.002678,0.000431,0.000940
10843000,0.0324,0.013523,0.002678,0.000431,0.000823
10844000,0.0324,0.013523,0.002678,0.000431,0.000823
10845000,0.0324,0.013523,0.002678,0.000431,0.000823
10846000,0.0324,0.013523,0.002678,0.000431,0.000823
10847000,0.0324,0.013523,0.002678,0.000431,0.071575
10848000,0.0324,0.013523,0.002678,0.000431,0.563665
10849000,0.0324,0.013523,0.002678,0.000431,0.590814
10850000,0.0324,0.013523,0.002678,0.000431,0.133042
10851000,0.0324,0.013523,0.002678,0.000431,0.133512
10852000,0.0324,0.013523,0.002678,0.000431,0.638766
10853000,0.0324,0.013523,0.002678,0.000431,0.243166
10854000,0.0324,0.013523,0.002678,0.000431,0.277014
10855000,0.0324,0.013523,0.002678,0.000431,0.266554
10856000,0.0324,0.013523,0.002678,0.000431,0.149731
10857000,0.0324,0.013523,0.002678,0.000431,0.134100
10858000,0.0324,0.013523,0.002678,0.000431,0.237995
10859000,0.0324,0.013523,0.002678,0.000431,0.398891
10860000,0.0324,0.013523,0.002678,0.000431,0.077098
10861000,0.0324,0.013523,0.002678,0.000431,0.054180
10862000,0.0324,0.013523,0.002678,0.000431,0.040077
10863000,0.0324,0.013523,0.002678,0.000431,0.028559
10864000,0.0324,0.013523,0.002678,0.000431,0.020450
10865000,0.0324,0.013523,0.002678,0.000431,0.023271
10866000,0.0324,0.013523,0.002678,0.000431,0.011048
10867000,0.0324,0.013523,0.002678,0.000431,0.010225
10868000,0.0324,0.013523,0.002678,0.000431,0.007052
10869000,0.0324,0.013523,0.002678,0.000431,0.006934
10870000,0.0324,0.013523,0.002678,0.000431,0.004113
10871000,0.0324,0.013523,0.002678,0.000431,0.009402
10872000,0.0324,0.013523,0.002678,0.000431,0.005994
10873000,0.0324,0.013523,0.002678,0.000431,0.002351
10874000,0.0324,0.013523,0.002678,0.000431,0.002351
10875000,0.0324,0.013523,0.002678,0.000431,0.006347
10876000,0.0324,0.013523,0.002678,0.000431,0.364925
10877000,0.0324,0.013523,0.002678,0.000431,0.688010
10878000,0.0324,0.013523,0.002678,0.000431,0.205557
10879000,0.0324,0.013523,0.002678,0.000431,0.133982
10880000,0.0324,0.013523,0.002678,0.000431,0.133747
10881000,0.0324,0.013523,0.002678,0.000431,0.581177
10882000,0.0324,0.013523,0.002678,0.000431,0.236819
10883000,0.0324,0.013523,0.002678,0.000431,0.267612
10884000,0.0324,0.013523,0.002678,0.000431,0.233528
10885000,0.0324,0.013523,0.002678,0.000431,0.150906
10886000,0.0324,0.013523,0.002678,0.000431,0.185107
10887000,0.0324,0.013523,0.002678,0.000431,0.085325
10888000,0.0324,0.013523,0.002678,0.000431,0.483511
10889000,0.0324,0.013523,0.002678,0.000431,0.080624
10890000,0.0324,0.013523,0.002678,0.000431,0.036551
10891000,0.0324,0.013523,0.002678,0.000431,0.027031
10892000,0.0324,0.013523,0.002678,0.000431,0.017394
10893000,0.0324,0.013523,0.002678,0.000431,0.010342
10894000,0.0324,0.013523,0.002678,0.000431,0.008580
10895000,0.0324,0.013523,0.002678,0.000431,0.010578
10896000,0.0324,0.013523,0.002678,0.000431,0.007757
10897000,0.0324,0.013523,0.002678,0.000431,0.012340
10898000,0.0324,0.013523,0.002678,0.000431,0.006699
10899000,0.0324,0.013523,0.002678,0.000431,0.005289
10900000,0.0324,0.013523,0.002678,0.000431,0.005171
10901000,0.0324,0.013523,0.002678,0.000431,0.005171
10902000,0.0324,0.013523,0.002678,0.000431,0.005406
10903000,0.0324,0.013523,0.002678,0.000431,0.007287
10904000,0.0324,0.013523,0.002678,0.000431,0.004466
10905000,0.0324,0.013523,0.002678,0.000431,0.004466
10906000,0.0324,0.013523,0.002678,0.000431,0.004584
10907000,0.0324,0.013523,0.002678,0.000431,0.004113
10908000,0.0324,0.013523,0.002678,0.000431,0.004466
10909000,0.0324,0.013523,0.002678,0.000431,0.005994
10910000,0.0324,0.013523,0.002678,0.000431,0.005524
10911000,0.0324,0.013523,0.002678,0.000431,0.003526
10912000,0.0324,0.013523,0.002678,0.000431,0.003291
10913000,0.0324,0.013523,0.002678,0.000431,0.003643
10914000,0.0324,0.013523,0.002678,0.000431,0.003643
10915000,0.0324,0.013523,0.002678,0.000431,0.003408
10916000,0.0324,0.013523,0.002678,0.000431,0.003408
10917000,0.0324,0.013523,0.002678,0.000431,0.003526
10918000,0.0324,0.013523,0.002678,0.000431,0.003643
10919000,0.0324,0.013523,0.002678,0.000431,0.003408
10920000,0.0324,0.013523,0.002678,0.000431,0.003526
10921000,0.0324,0.013523,0.002678,0.000431,0.003526
10922000,0.0324,0.013523,0.002678,0.000431,0.005524
10923000,0.0324,0.013523,0.002678,0.000431,0.002703
10924000,0.0324,0.013523,0.002678,0.000431,0.002703
10925000,0.0324,0.013523,0.002678,0.000431,0.002468
10926000,0.0324,0.013523,0.002678,0.000431,0.002703
10927000,0.0324,0.013523,0.002678,0.000431,0.002703
10928000,0.0324,0.013523,0.002678,0.000431,0.002703
10929000,0.0324,0.013523,0.002678,0.000431,0.002468
10930000,0.0324,0.013523,0.002678,0.000431,0.002703
10931000,0.0324,0.013523,0.002678,0.000431,0.002586
10932000,0.0324,0.013523,0.002678,0.000431,0.002703
10933000,0.0324,0.013523,0.002678,0.000431,0.002586
10934000,0.0324,0.013523,0.002678,0.000431,0.004584
10935000,0.0324,0.013523,0.002678,0.000431,0.001880
10936000,0.0324,0.013523,0.002678,0.000431,0.001763
10937000,0.0324,0.013523,0.002678,0.000431,0.001645
10938000,0.0324,0.013523,0.002678,0.000431,0.001880
10939000,0.0324,0.013523,0.002678,0.000431,0.001645
10940000,0.0324,0.013523,0.002678,0.000431,0.002821
10941000,0.0324,0.013523,0.002678,0.000431,0.002116
10942000,0.0324,0.013523,0.002678,0.000431,0.000940
10943000,0.0324,0.013523,0.002678,0.000431,0.000823
10944000,0.0324,0.013523,0.002678,0.000431,0.000823
10945000,0.0324,0.013523,0.002678,0.000431,0.000940
10946000,0.0324,0.013523,0.002678,0.000431,0.000940
10947000,0.0324,0.013523,0.002678,0.000431,0.000940
10948000,0.0324,0.013523,0.002678,0.000431,0.000705
10949000,0.0324,0.013523,0.002678,0.000431,0.000940
10950000,0.0324,0.013523,0.002678,0.000431,0.000940
10951000,0.0324,0.013523,0.002678,0.000431,0.000823
10952000,0.0324,0.013523,0.002678,0.000431,0.000823
10953000,0.0324,0.013523,0.002678,0.000431,0.000940
10954000,0.0324,0.013523,0.002678,0.000431,0.000940
10955000,0.0324,0.013523,0.002678,0.000431,0.000823
10956000,0.0324,0.013523,0.002678,0.000431,0.000823
10957000,0.0324,0.013523,0.002678,0.000431,0.000940
10958000,0.0324,0.013523,0.002678,0.000431,0.000823
10959000,0.0324,0.013523,0.002678,0.000431,0.000940
10960000,0.0324,0.013523,0.002678,0.000431,0.000823
10961000,0.0324,0.013523,0.002678,0.000431,0.000940
10962000,0.0324,0.013523,0.002678,0.000431,0.000823
10963000,0.0324,0.013523,0.002678,0.000431,0.000823
10964000,0.0324,0.013523,0.002678,0.000431,0.000940
10965000,0.0324,0.013523,0.002678,0.000431,0.000940
10966000,0.0324,0.013523,0.002678,0.000431,0.000823
10967000,0.0324,0.013523,0.002678,0.000431,0.000823
10968000,0.0324,0.013523,0.002678,0.000431,0.000940
10969000,0.0324,0.013523,0.002678,0.000431,0.000940
10970000,0.0324,0.013523,0.002678,0.000431,0.000823
10971000,0.0324,0.013523,0.002678,0.000431,0.000823
10972000,0.0324,0.013523,0.002678,0.000431,0.000940
10973000,0.0324,0.013523,0.002678,0.000431,0.000823
10974000,0.0324,0.013523,0.002678,0.000431,0.000940
10975000,0.0324,0.013523,0.002678,0.000431,0.000823
10976000,0.0324,0.013523,0.002678,0.000431,0.000940
10977000,0.0324,0.013523,0.002678,0.000431,0.000823
10978000,0.0324,0.013523,0.002678,0.000431,0.000823
10979000,0.0324,0.013523,0.002678,0.000431,0.000940
10980000,0.0324,0.013523,0.002678,0.000431,0.000940
10981000,0.0324,0.013523,0.002678,0.000431,0.000823
10982000,0.0324,0.013523,0.002678,0.000431,0.000823
10983000,0.0324,0.013523,0.002678,0.000431,0.000940
10984000,0.0324,0.013523,0.002678,0.000431,0.000940
10985000,0.0324,0.013523,0.002678,0.000431,0.000705
10986000,0.0324,0.013523,0.002678,0.000431,0.000940
10987000,0.0324,0.013523,0.002678,0.000431,0.000940
10988000,0.0324,0.013523,0.002678,0.000431,0.000940
10989000,0.0324,0.013523,0.002678,0.000431,0.000705
10990000,0.0324,0.013523,0.002678,0.000431,0.000940
10991000,0.0324,0.013523,0.002678,0.000431,0.000940
10992000,0.0324,0.013523,0.002678,0.000431,0.000823
10993000,0.0324,0.013523,0.002678,0.000431,0.000823
10994000,0.0324,0.013523,0.002678,0.000431,0.000940
10995000,0.0324,0.013523,0.002678,0.000431,0.000940
10996000,0.0324,0.013523,0.002678,0.000431,0.000823
10997000,0.0324,0.013523,0.002678,0.000431,0.000823
10998000,0.0324,0.013523,0.002678,0.000431,0.000940
10999000,0.0324,0.013523,0.002678,0.000431,0.000823
