Cycle,Area(mm^2),PeakDynamic(W),SubthresholdLeakage(W),GateLeakage(W),RunTimeDynamic(W)
16000000,0.0324,0.013523,0.002678,0.000431,0.009167
16001000,0.0324,0.013523,0.002678,0.000431,0.007052
16002000,0.0324,0.013523,0.002678,0.000431,0.006699
16003000,0.0324,0.013523,0.002678,0.000431,0.006934
16004000,0.0324,0.013523,0.002678,0.000431,0.006699
16005000,0.0324,0.013523,0.002678,0.000431,0.009402
16006000,0.0324,0.013523,0.002678,0.000431,0.006111
16007000,0.0324,0.013523,0.002678,0.000431,0.005994
16008000,0.0324,0.013523,0.002678,0.000431,0.005759
16009000,0.0324,0.013523,0.002678,0.000431,0.006111
16010000,0.0324,0.013523,0.002678,0.000431,0.008580
16011000,0.0324,0.013523,0.002678,0.000431,0.003173
16012000,0.0324,0.013523,0.002678,0.000431,0.005289
16013000,0.0324,0.013523,0.002678,0.000431,0.004584
16014000,0.0324,0.013523,0.002678,0.000431,0.001645
16015000,0.0324,0.013523,0.002678,0.000431,0.001645
16016000,0.0324,0.013523,0.002678,0.000431,0.001645
16017000,0.0324,0.013523,0.002678,0.000431,0.001880
16018000,0.0324,0.013523,0.002678,0.000431,0.001645
16019000,0.0324,0.013523,0.002678,0.000431,0.001645
16020000,0.0324,0.013523,0.002678,0.000431,0.001880
16021000,0.0324,0.013523,0.002678,0.000431,0.001645
16022000,0.0324,0.013523,0.002678,0.000431,0.001763
16023000,0.0324,0.013523,0.002678,0.000431,0.001645
16024000,0.0324,0.013523,0.002678,0.000431,0.001763
16025000,0.0324,0.013523,0.002678,0.000431,0.002938
16026000,0.0324,0.013523,0.002678,0.000431,0.002351
16027000,0.0324,0.013523,0.002678,0.000431,0.000940
16028000,0.0324,0.013523,0.002678,0.000431,0.000705
16029000,0.0324,0.013523,0.002678,0.000431,0.000940
16030000,0.0324,0.013523,0.002678,0.000431,0.000823
16031000,0.0324,0.013523,0.002678,0.000431,0.000823
16032000,0.0324,0.013523,0.002678,0.000431,0.000823
16033000,0.0324,0.013523,0.002678,0.000431,0.000823
16034000,0.0324,0.013523,0.002678,0.000431,0.000823
16035000,0.0324,0.013523,0.002678,0.000431,0.000823
16036000,0.0324,0.013523,0.002678,0.000431,0.000823
16037000,0.0324,0.013523,0.002678,0.000431,0.000823
16038000,0.0324,0.013523,0.002678,0.000431,0.000940
16039000,0.0324,0.013523,0.002678,0.000431,0.000823
16040000,0.0324,0.013523,0.002678,0.000431,0.000823
16041000,0.0324,0.013523,0.002678,0.000431,0.000705
16042000,0.0324,0.013523,0.002678,0.000431,0.000940
16043000,0.0324,0.013523,0.002678,0.000431,0.000940
16044000,0.0324,0.013523,0.002678,0.000431,0.000705
16045000,0.0324,0.013523,0.002678,0.000431,0.000940
16046000,0.0324,0.013523,0.002678,0.000431,0.000705
16047000,0.0324,0.013523,0.002678,0.000431,0.000940
16048000,0.0324,0.013523,0.002678,0.000431,0.000823
16049000,0.0324,0.013523,0.002678,0.000431,0.000823
16050000,0.0324,0.013523,0.002678,0.000431,0.000940
16051000,0.0324,0.013523,0.002678,0.000431,0.000705
16052000,0.0324,0.013523,0.002678,0.000431,0.000940
16053000,0.0324,0.013523,0.002678,0.000431,0.000823
16054000,0.0324,0.013523,0.002678,0.000431,0.000823
16055000,0.0324,0.013523,0.002678,0.000431,0.000823
16056000,0.0324,0.013523,0.002678,0.000431,0.000823
16057000,0.0324,0.013523,0.002678,0.000431,0.000823
16058000,0.0324,0.013523,0.002678,0.000431,0.000823
16059000,0.0324,0.013523,0.002678,0.000431,0.000940
16060000,0.0324,0.013523,0.002678,0.000431,0.000705
16061000,0.0324,0.013523,0.002678,0.000431,0.000940
16062000,0.0324,0.013523,0.002678,0.000431,0.000823
16063000,0.0324,0.013523,0.002678,0.000431,0.000823
16064000,0.0324,0.013523,0.002678,0.000431,0.000705
16065000,0.0324,0.013523,0.002678,0.000431,0.000940
16066000,0.0324,0.013523,0.002678,0.000431,0.000940
16067000,0.0324,0.013523,0.002678,0.000431,0.000705
16068000,0.0324,0.013523,0.002678,0.000431,0.000940
16069000,0.0324,0.013523,0.002678,0.000431,0.000705
16070000,0.0324,0.013523,0.002678,0.000431,0.000940
16071000,0.0324,0.013523,0.002678,0.000431,0.000823
16072000,0.0324,0.013523,0.002678,0.000431,0.000823
16073000,0.0324,0.013523,0.002678,0.000431,0.000940
16074000,0.0324,0.013523,0.002678,0.000431,0.000705
16075000,0.0324,0.013523,0.002678,0.000431,0.000940
16076000,0.0324,0.013523,0.002678,0.000431,0.000823
16077000,0.0324,0.013523,0.002678,0.000431,0.000823
16078000,0.0324,0.013523,0.002678,0.000431,0.000823
16079000,0.0324,0.013523,0.002678,0.000431,0.000823
16080000,0.0324,0.013523,0.002678,0.000431,0.000823
16081000,0.0324,0.013523,0.002678,0.000431,0.000823
16082000,0.0324,0.013523,0.002678,0.000431,0.000940
16083000,0.0324,0.013523,0.002678,0.000431,0.000705
16084000,0.0324,0.013523,0.002678,0.000431,0.000823
16085000,0.0324,0.013523,0.002678,0.000431,0.000940
16086000,0.0324,0.013523,0.002678,0.000431,0.000823
16087000,0.0324,0.013523,0.002678,0.000431,0.000823
16088000,0.0324,0.013523,0.002678,0.000431,0.000823
16089000,0.0324,0.013523,0.002678,0.000431,0.000823
16090000,0.0324,0.013523,0.002678,0.000431,0.000823
16091000,0.0324,0.013523,0.002678,0.000431,0.000940
16092000,0.0324,0.013523,0.002678,0.000431,0.000823
16093000,0.0324,0.013523,0.002678,0.000431,0.000823
16094000,0.0324,0.013523,0.002678,0.000431,0.000705
16095000,0.0324,0.013523,0.002678,0.000431,0.000940
16096000,0.0324,0.013523,0.002678,0.000431,0.000940
16097000,0.0324,0.013523,0.002678,0.000431,0.000705
16098000,0.0324,0.013523,0.002678,0.000431,0.000940
16099000,0.0324,0.013523,0.002678,0.000431,0.000705
16100000,0.0324,0.013523,0.002678,0.000431,0.000940
16101000,0.0324,0.013523,0.002678,0.000431,0.000823
16102000,0.0324,0.013523,0.002678,0.000431,0.000823
16103000,0.0324,0.013523,0.002678,0.000431,0.000940
16104000,0.0324,0.013523,0.002678,0.000431,0.000705
16105000,0.0324,0.013523,0.002678,0.000431,0.000940
16106000,0.0324,0.013523,0.002678,0.000431,0.000823
16107000,0.0324,0.013523,0.002678,0.000431,0.000823
16108000,0.0324,0.013523,0.002678,0.000431,0.000823
16109000,0.0324,0.013523,0.002678,0.000431,0.000823
16110000,0.0324,0.013523,0.002678,0.000431,0.000823
16111000,0.0324,0.013523,0.002678,0.000431,0.000823
16112000,0.0324,0.013523,0.002678,0.000431,0.000940
16113000,0.0324,0.013523,0.002678,0.000431,0.000705
16114000,0.0324,0.013523,0.002678,0.000431,0.000940
16115000,0.0324,0.013523,0.002678,0.000431,0.000823
16116000,0.0324,0.013523,0.002678,0.000431,0.000823
16117000,0.0324,0.013523,0.002678,0.000431,0.000705
16118000,0.0324,0.013523,0.002678,0.000431,0.000940
16119000,0.0324,0.013523,0.002678,0.000431,0.000940
16120000,0.0324,0.013523,0.002678,0.000431,0.000705
16121000,0.0324,0.013523,0.002678,0.000431,0.000940
16122000,0.0324,0.013523,0.002678,0.000431,0.000705
16123000,0.0324,0.013523,0.002678,0.000431,0.000940
16124000,0.0324,0.013523,0.002678,0.000431,0.000823
16125000,0.0324,0.013523,0.002678,0.000431,0.000823
16126000,0.0324,0.013523,0.002678,0.000431,0.000940
16127000,0.0324,0.013523,0.002678,0.000431,0.000705
16128000,0.0324,0.013523,0.002678,0.000431,0.000940
16129000,0.0324,0.013523,0.002678,0.000431,0.000705
16130000,0.0324,0.013523,0.002678,0.000431,0.000940
16131000,0.0324,0.013523,0.002678,0.000431,0.000823
16132000,0.0324,0.013523,0.002678,0.000431,0.000823
16133000,0.0324,0.013523,0.002678,0.000431,0.000823
16134000,0.0324,0.013523,0.002678,0.000431,0.000823
16135000,0.0324,0.013523,0.002678,0.000431,0.000940
16136000,0.0324,0.013523,0.002678,0.000431,0.000705
16137000,0.0324,0.013523,0.002678,0.000431,0.000823
16138000,0.0324,0.013523,0.002678,0.000431,0.000940
16139000,0.0324,0.013523,0.002678,0.000431,0.000823
16140000,0.0324,0.013523,0.002678,0.000431,0.000823
16141000,0.0324,0.013523,0.002678,0.000431,0.000823
16142000,0.0324,0.013523,0.002678,0.000431,0.000705
16143000,0.0324,0.013523,0.002678,0.000431,0.000940
16144000,0.0324,0.013523,0.002678,0.000431,0.000940
16145000,0.0324,0.013523,0.002678,0.000431,0.000705
16146000,0.0324,0.013523,0.002678,0.000431,0.000940
16147000,0.0324,0.013523,0.002678,0.000431,0.000823
16148000,0.0324,0.013523,0.002678,0.000431,0.000940
16149000,0.0324,0.013523,0.002678,0.000431,0.000823
16150000,0.0324,0.013523,0.002678,0.000431,0.000940
16151000,0.0324,0.013523,0.002678,0.000431,0.000823
16152000,0.0324,0.013523,0.002678,0.000431,0.000823
16153000,0.0324,0.013523,0.002678,0.000431,0.000940
16154000,0.0324,0.013523,0.002678,0.000431,0.000940
16155000,0.0324,0.013523,0.002678,0.000431,0.000823
16156000,0.0324,0.013523,0.002678,0.000431,0.000940
16157000,0.0324,0.013523,0.002678,0.000431,0.000823
16158000,0.0324,0.013523,0.002678,0.000431,0.000940
16159000,0.0324,0.013523,0.002678,0.000431,0.000940
16160000,0.0324,0.013523,0.002678,0.000431,0.000705
16161000,0.0324,0.013523,0.002678,0.000431,0.000940
16162000,0.0324,0.013523,0.002678,0.000431,0.000940
16163000,0.0324,0.013523,0.002678,0.000431,0.000940
16164000,0.0324,0.013523,0.002678,0.000431,0.000705
16165000,0.0324,0.013523,0.002678,0.000431,0.000940
16166000,0.0324,0.013523,0.002678,0.000431,0.000940
16167000,0.0324,0.013523,0.002678,0.000431,0.000823
16168000,0.0324,0.013523,0.002678,0.000431,0.000823
16169000,0.0324,0.013523,0.002678,0.000431,0.000940
16170000,0.0324,0.013523,0.002678,0.000431,0.000940
16171000,0.0324,0.013523,0.002678,0.000431,0.000823
16172000,0.0324,0.013523,0.002678,0.000431,0.000823
16173000,0.0324,0.013523,0.002678,0.000431,0.000940
16174000,0.0324,0.013523,0.002678,0.000431,0.000823
16175000,0.0324,0.013523,0.002678,0.000431,0.000940
16176000,0.0324,0.013523,0.002678,0.000431,0.001998
16177000,0.0324,0.013523,0.002678,0.000431,0.398185
16178000,0.0324,0.013523,0.002678,0.000431,0.721858
16179000,0.0324,0.013523,0.002678,0.000431,0.141151
16180000,0.0324,0.013523,0.002678,0.000431,0.133982
16181000,0.0324,0.013523,0.002678,0.000431,0.179348
16182000,0.0324,0.013523,0.002678,0.000431,0.583527
16183000,0.0324,0.013523,0.002678,0.000431,0.281598
16184000,0.0324,0.013523,0.002678,0.000431,0.282773
16185000,0.0324,0.013523,0.002678,0.000431,0.207672
16186000,0.0324,0.013523,0.002678,0.000431,0.138096
16187000,0.0324,0.013523,0.002678,0.000431,0.143502
16188000,0.0324,0.013523,0.002678,0.000431,0.237172
16189000,0.0324,0.013523,0.002678,0.000431,0.397598
16190000,0.0324,0.013523,0.002678,0.000431,0.076511
16191000,0.0324,0.013523,0.002678,0.000431,0.055238
16192000,0.0324,0.013523,0.002678,0.000431,0.047011
16193000,0.0324,0.013523,0.002678,0.000431,0.043838
16194000,0.0324,0.013523,0.002678,0.000431,0.026914
16195000,0.0324,0.013523,0.002678,0.000431,0.023858
16196000,0.0324,0.013523,0.002678,0.000431,0.018452
16197000,0.0324,0.013523,0.002678,0.000431,0.019040
16198000,0.0324,0.013523,0.002678,0.000431,0.012105
16199000,0.0324,0.013523,0.002678,0.000431,0.015396
16200000,0.0324,0.013523,0.002678,0.000431,0.014573
16201000,0.0324,0.013523,0.002678,0.000431,0.009755
16202000,0.0324,0.013523,0.002678,0.000431,0.008345
16203000,0.0324,0.013523,0.002678,0.000431,0.006699
16204000,0.0324,0.013523,0.002678,0.000431,0.008697
16205000,0.0324,0.013523,0.002678,0.000431,0.006111
16206000,0.0324,0.013523,0.002678,0.000431,0.005876
16207000,0.0324,0.013523,0.002678,0.000431,0.005759
16208000,0.0324,0.013523,0.002678,0.000431,0.006817
16209000,0.0324,0.013523,0.002678,0.000431,0.004584
16210000,0.0324,0.013523,0.002678,0.000431,0.004113
16211000,0.0324,0.013523,0.002678,0.000431,0.004466
16212000,0.0324,0.013523,0.002678,0.000431,0.004466
16213000,0.0324,0.013523,0.002678,0.000431,0.005524
16214000,0.0324,0.013523,0.002678,0.000431,0.004936
16215000,0.0324,0.013523,0.002678,0.000431,0.003291
16216000,0.0324,0.013523,0.002678,0.000431,0.003761
16217000,0.0324,0.013523,0.002678,0.000431,0.003408
16218000,0.0324,0.013523,0.002678,0.000431,0.003643
16219000,0.0324,0.013523,0.002678,0.000431,0.003291
16220000,0.0324,0.013523,0.002678,0.000431,0.003526
16221000,0.0324,0.013523,0.002678,0.000431,0.003643
16222000,0.0324,0.013523,0.002678,0.000431,0.003408
16223000,0.0324,0.013523,0.002678,0.000431,0.003526
16224000,0.0324,0.013523,0.002678,0.000431,0.003643
16225000,0.0324,0.013523,0.002678,0.000431,0.003408
16226000,0.0324,0.013523,0.002678,0.000431,0.003526
16227000,0.0324,0.013523,0.002678,0.000431,0.003408
16228000,0.0324,0.013523,0.002678,0.000431,0.003761
16229000,0.0324,0.013523,0.002678,0.000431,0.005524
16230000,0.0324,0.013523,0.002678,0.000431,0.002586
16231000,0.0324,0.013523,0.002678,0.000431,0.002586
16232000,0.0324,0.013523,0.002678,0.000431,0.003996
16233000,0.0324,0.013523,0.002678,0.000431,0.001763
16234000,0.0324,0.013523,0.002678,0.000431,0.001645
16235000,0.0324,0.013523,0.002678,0.000431,0.001880
16236000,0.0324,0.013523,0.002678,0.000431,0.001763
16237000,0.0324,0.013523,0.002678,0.000431,0.001645
16238000,0.0324,0.013523,0.002678,0.000431,0.001763
16239000,0.0324,0.013523,0.002678,0.000431,0.002586
16240000,0.0324,0.013523,0.002678,0.000431,0.001998
16241000,0.0324,0.013523,0.002678,0.000431,0.000823
16242000,0.0324,0.013523,0.002678,0.000431,0.000823
16243000,0.0324,0.013523,0.002678,0.000431,0.000940
16244000,0.0324,0.013523,0.002678,0.000431,0.000823
16245000,0.0324,0.013523,0.002678,0.000431,0.000940
16246000,0.0324,0.013523,0.002678,0.000431,0.000823
16247000,0.0324,0.013523,0.002678,0.000431,0.000940
16248000,0.0324,0.013523,0.002678,0.000431,0.000823
16249000,0.0324,0.013523,0.002678,0.000431,0.000823
16250000,0.0324,0.013523,0.002678,0.000431,0.000940
16251000,0.0324,0.013523,0.002678,0.000431,0.000940
16252000,0.0324,0.013523,0.002678,0.000431,0.000823
16253000,0.0324,0.013523,0.002678,0.000431,0.000823
16254000,0.0324,0.013523,0.002678,0.000431,0.000940
16255000,0.0324,0.013523,0.002678,0.000431,0.000940
16256000,0.0324,0.013523,0.002678,0.000431,0.000705
16257000,0.0324,0.013523,0.002678,0.000431,0.000940
16258000,0.0324,0.013523,0.002678,0.000431,0.000940
16259000,0.0324,0.013523,0.002678,0.000431,0.000940
16260000,0.0324,0.013523,0.002678,0.000431,0.000705
16261000,0.0324,0.013523,0.002678,0.000431,0.000940
16262000,0.0324,0.013523,0.002678,0.000431,0.000940
16263000,0.0324,0.013523,0.002678,0.000431,0.000823
16264000,0.0324,0.013523,0.002678,0.000431,0.000940
16265000,0.0324,0.013523,0.002678,0.000431,0.000823
16266000,0.0324,0.013523,0.002678,0.000431,0.000940
16267000,0.0324,0.013523,0.002678,0.000431,0.000823
16268000,0.0324,0.013523,0.002678,0.000431,0.000823
16269000,0.0324,0.013523,0.002678,0.000431,0.000940
16270000,0.0324,0.013523,0.002678,0.000431,0.000823
16271000,0.0324,0.013523,0.002678,0.000431,0.000940
16272000,0.0324,0.013523,0.002678,0.000431,0.000823
16273000,0.0324,0.013523,0.002678,0.000431,0.000940
16274000,0.0324,0.013523,0.002678,0.000431,0.006347
16275000,0.0324,0.013523,0.002678,0.000431,0.500082
16276000,0.0324,0.013523,0.002678,0.000431,0.655102
16277000,0.0324,0.013523,0.002678,0.000431,0.133512
16278000,0.0324,0.013523,0.002678,0.000431,0.133042
16279000,0.0324,0.013523,0.002678,0.000431,0.352232
16280000,0.0324,0.013523,0.002678,0.000431,0.428508
16281000,0.0324,0.013523,0.002678,0.000431,0.274898
16282000,0.0324,0.013523,0.002678,0.000431,0.360694
16283000,0.0324,0.013523,0.002678,0.000431,0.148791
16284000,0.0324,0.013523,0.002678,0.000431,0.142209
16285000,0.0324,0.013523,0.002678,0.000431,0.111534
16286000,0.0324,0.013523,0.002678,0.000431,0.416520
16287000,0.0324,0.013523,0.002678,0.000431,0.168183
16288000,0.0324,0.013523,0.002678,0.000431,0.024916
16289000,0.0324,0.013523,0.002678,0.000431,0.015984
16290000,0.0324,0.013523,0.002678,0.000431,0.014926
16291000,0.0324,0.013523,0.002678,0.000431,0.010695
16292000,0.0324,0.013523,0.002678,0.000431,0.012340
16293000,0.0324,0.013523,0.002678,0.000431,0.011165
16294000,0.0324,0.013523,0.002678,0.000431,0.007287
16295000,0.0324,0.013523,0.002678,0.000431,0.007874
16296000,0.0324,0.013523,0.002678,0.000431,0.006817
16297000,0.0324,0.013523,0.002678,0.000431,0.006934
16298000,0.0324,0.013523,0.002678,0.000431,0.009167
16299000,0.0324,0.013523,0.002678,0.000431,0.008227
16300000,0.0324,0.013523,0.002678,0.000431,0.005406
16301000,0.0324,0.013523,0.002678,0.000431,0.005054
16302000,0.0324,0.013523,0.002678,0.000431,0.004819
16303000,0.0324,0.013523,0.002678,0.000431,0.005054
16304000,0.0324,0.013523,0.002678,0.000431,0.004936
16305000,0.0324,0.013523,0.002678,0.000431,0.005289
16306000,0.0324,0.013523,0.002678,0.000431,0.007522
16307000,0.0324,0.013523,0.002678,0.000431,0.003761
16308000,0.0324,0.013523,0.002678,0.000431,0.004466
16309000,0.0324,0.013523,0.002678,0.000431,0.003878
16310000,0.0324,0.013523,0.002678,0.000431,0.004349
16311000,0.0324,0.013523,0.002678,0.000431,0.004113
16312000,0.0324,0.013523,0.002678,0.000431,0.003878
16313000,0.0324,0.013523,0.002678,0.000431,0.004466
16314000,0.0324,0.013523,0.002678,0.000431,0.003878
16315000,0.0324,0.013523,0.002678,0.000431,0.004113
16316000,0.0324,0.013523,0.002678,0.000431,0.004466
16317000,0.0324,0.013523,0.002678,0.000431,0.003996
16318000,0.0324,0.013523,0.002678,0.000431,0.004819
16319000,0.0324,0.013523,0.002678,0.000431,0.004466
16320000,0.0324,0.013523,0.002678,0.000431,0.003408
16321000,0.0324,0.013523,0.002678,0.000431,0.002821
16322000,0.0324,0.013523,0.002678,0.000431,0.003643
16323000,0.0324,0.013523,0.002678,0.000431,0.002938
16324000,0.0324,0.013523,0.002678,0.000431,0.003408
16325000,0.0324,0.013523,0.002678,0.000431,0.003056
16326000,0.0324,0.013523,0.002678,0.000431,0.002468
16327000,0.0324,0.013523,0.002678,0.000431,0.002586
16328000,0.0324,0.013523,0.002678,0.000431,0.002586
16329000,0.0324,0.013523,0.002678,0.000431,0.002821
16330000,0.0324,0.013523,0.002678,0.000431,0.002233
16331000,0.0324,0.013523,0.002678,0.000431,0.002703
16332000,0.0324,0.013523,0.002678,0.000431,0.002586
16333000,0.0324,0.013523,0.002678,0.000431,0.002468
16334000,0.0324,0.013523,0.002678,0.000431,0.002586
16335000,0.0324,0.013523,0.002678,0.000431,0.002586
16336000,0.0324,0.013523,0.002678,0.000431,0.002586
16337000,0.0324,0.013523,0.002678,0.000431,0.002468
16338000,0.0324,0.013523,0.002678,0.000431,0.002586
16339000,0.0324,0.013523,0.002678,0.000431,0.002586
16340000,0.0324,0.013523,0.002678,0.000431,0.002468
16341000,0.0324,0.013523,0.002678,0.000431,0.002703
16342000,0.0324,0.013523,0.002678,0.000431,0.002468
16343000,0.0324,0.013523,0.002678,0.000431,0.002586
16344000,0.0324,0.013523,0.002678,0.000431,0.002468
16345000,0.0324,0.013523,0.002678,0.000431,0.002586
16346000,0.0324,0.013523,0.002678,0.000431,0.002468
16347000,0.0324,0.013523,0.002678,0.000431,0.002703
16348000,0.0324,0.013523,0.002678,0.000431,0.002703
16349000,0.0324,0.013523,0.002678,0.000431,0.002351
16350000,0.0324,0.013523,0.002678,0.000431,0.002703
16351000,0.0324,0.013523,0.002678,0.000431,0.002586
16352000,0.0324,0.013523,0.002678,0.000431,0.002586
16353000,0.0324,0.013523,0.002678,0.000431,0.002703
16354000,0.0324,0.013523,0.002678,0.000431,0.002468
16355000,0.0324,0.013523,0.002678,0.000431,0.002703
16356000,0.0324,0.013523,0.002678,0.000431,0.003643
16357000,0.0324,0.013523,0.002678,0.000431,0.001763
16358000,0.0324,0.013523,0.002678,0.000431,0.001763
16359000,0.0324,0.013523,0.002678,0.000431,0.001645
16360000,0.0324,0.013523,0.002678,0.000431,0.001645
16361000,0.0324,0.013523,0.002678,0.000431,0.001763
16362000,0.0324,0.013523,0.002678,0.000431,0.001880
16363000,0.0324,0.013523,0.002678,0.000431,0.001528
16364000,0.0324,0.013523,0.002678,0.000431,0.003761
16365000,0.0324,0.013523,0.002678,0.000431,0.000940
16366000,0.0324,0.013523,0.002678,0.000431,0.000940
16367000,0.0324,0.013523,0.002678,0.000431,0.000705
16368000,0.0324,0.013523,0.002678,0.000431,0.000940
16369000,0.0324,0.013523,0.002678,0.000431,0.000940
16370000,0.0324,0.013523,0.002678,0.000431,0.000940
16371000,0.0324,0.013523,0.002678,0.000431,0.000705
16372000,0.0324,0.013523,0.002678,0.000431,0.071105
16373000,0.0324,0.013523,0.002678,0.000431,0.476694
16374000,0.0324,0.013523,0.002678,0.000431,0.569307
16375000,0.0324,0.013523,0.002678,0.000431,0.132102
16376000,0.0324,0.013523,0.002678,0.000431,0.133982
16377000,0.0324,0.013523,0.002678,0.000431,0.548857
16378000,0.0324,0.013523,0.002678,0.000431,0.227064
16379000,0.0324,0.013523,0.002678,0.000431,0.272783
16380000,0.0324,0.013523,0.002678,0.000431,0.305926
16381000,0.0324,0.013523,0.002678,0.000431,0.139623
16382000,0.0324,0.013523,0.002678,0.000431,0.150671
16383000,0.0324,0.013523,0.002678,0.000431,0.130691
16384000,0.0324,0.013523,0.002678,0.000431,0.237877
16385000,0.0324,0.013523,0.002678,0.000431,0.390311
16386000,0.0324,0.013523,0.002678,0.000431,0.066638
16387000,0.0324,0.013523,0.002678,0.000431,0.067109
16388000,0.0324,0.013523,0.002678,0.000431,0.053710
16389000,0.0324,0.013523,0.002678,0.000431,0.031027
16390000,0.0324,0.013523,0.002678,0.000431,0.029147
16391000,0.0324,0.013523,0.002678,0.000431,0.025621
16392000,0.0324,0.013523,0.002678,0.000431,0.025504
16393000,0.0324,0.013523,0.002678,0.000431,0.018805
16394000,0.0324,0.013523,0.002678,0.000431,0.012811
16395000,0.0324,0.013523,0.002678,0.000431,0.012811
16396000,0.0324,0.013523,0.002678,0.000431,0.009637
16397000,0.0324,0.013523,0.002678,0.000431,0.011635
16398000,0.0324,0.013523,0.002678,0.000431,0.012223
16399000,0.0324,0.013523,0.002678,0.000431,0.009755
16400000,0.0324,0.013523,0.002678,0.000431,0.006699
16401000,0.0324,0.013523,0.002678,0.000431,0.009167
16402000,0.0324,0.013523,0.002678,0.000431,0.005641
16403000,0.0324,0.013523,0.002678,0.000431,0.005876
16404000,0.0324,0.013523,0.002678,0.000431,0.006111
16405000,0.0324,0.013523,0.002678,0.000431,0.005289
16406000,0.0324,0.013523,0.002678,0.000431,0.006229
16407000,0.0324,0.013523,0.002678,0.000431,0.005289
16408000,0.0324,0.013523,0.002678,0.000431,0.006111
16409000,0.0324,0.013523,0.002678,0.000431,0.005876
16410000,0.0324,0.013523,0.002678,0.000431,0.005524
16411000,0.0324,0.013523,0.002678,0.000431,0.005876
16412000,0.0324,0.013523,0.002678,0.000431,0.005524
16413000,0.0324,0.013523,0.002678,0.000431,0.005994
16414000,0.0324,0.013523,0.002678,0.000431,0.005641
16415000,0.0324,0.013523,0.002678,0.000431,0.005524
16416000,0.0324,0.013523,0.002678,0.000431,0.005171
16417000,0.0324,0.013523,0.002678,0.000431,0.004936
16418000,0.0324,0.013523,0.002678,0.000431,0.005054
16419000,0.0324,0.013523,0.002678,0.000431,0.005171
16420000,0.0324,0.013523,0.002678,0.000431,0.004936
16421000,0.0324,0.013523,0.002678,0.000431,0.005171
16422000,0.0324,0.013523,0.002678,0.000431,0.005054
16423000,0.0324,0.013523,0.002678,0.000431,0.005171
16424000,0.0324,0.013523,0.002678,0.000431,0.005171
16425000,0.0324,0.013523,0.002678,0.000431,0.004936
16426000,0.0324,0.013523,0.002678,0.000431,0.005171
16427000,0.0324,0.013523,0.002678,0.000431,0.005054
16428000,0.0324,0.013523,0.002678,0.000431,0.005054
16429000,0.0324,0.013523,0.002678,0.000431,0.005524
16430000,0.0324,0.013523,0.002678,0.000431,0.004466
16431000,0.0324,0.013523,0.002678,0.000431,0.007522
16432000,0.0324,0.013523,0.002678,0.000431,0.003878
16433000,0.0324,0.013523,0.002678,0.000431,0.004466
16434000,0.0324,0.013523,0.002678,0.000431,0.004113
16435000,0.0324,0.013523,0.002678,0.000431,0.004231
16436000,0.0324,0.013523,0.002678,0.000431,0.004113
16437000,0.0324,0.013523,0.002678,0.000431,0.004349
16438000,0.0324,0.013523,0.002678,0.000431,0.003996
16439000,0.0324,0.013523,0.002678,0.000431,0.004231
16440000,0.0324,0.013523,0.002678,0.000431,0.004466
16441000,0.0324,0.013523,0.002678,0.000431,0.004701
16442000,0.0324,0.013523,0.002678,0.000431,0.002586
16443000,0.0324,0.013523,0.002678,0.000431,0.002586
16444000,0.0324,0.013523,0.002678,0.000431,0.002586
16445000,0.0324,0.013523,0.002678,0.000431,0.002821
16446000,0.0324,0.013523,0.002678,0.000431,0.002468
16447000,0.0324,0.013523,0.002678,0.000431,0.003996
16448000,0.0324,0.013523,0.002678,0.000431,0.001763
16449000,0.0324,0.013523,0.002678,0.000431,0.001880
16450000,0.0324,0.013523,0.002678,0.000431,0.001763
16451000,0.0324,0.013523,0.002678,0.000431,0.001528
16452000,0.0324,0.013523,0.002678,0.000431,0.001880
16453000,0.0324,0.013523,0.002678,0.000431,0.001763
16454000,0.0324,0.013523,0.002678,0.000431,0.001880
16455000,0.0324,0.013523,0.002678,0.000431,0.001528
16456000,0.0324,0.013523,0.002678,0.000431,0.001880
16457000,0.0324,0.013523,0.002678,0.000431,0.001763
16458000,0.0324,0.013523,0.002678,0.000431,0.001645
16459000,0.0324,0.013523,0.002678,0.000431,0.001763
16460000,0.0324,0.013523,0.002678,0.000431,0.001880
16461000,0.0324,0.013523,0.002678,0.000431,0.001645
16462000,0.0324,0.013523,0.002678,0.000431,0.001763
16463000,0.0324,0.013523,0.002678,0.000431,0.001763
16464000,0.0324,0.013523,0.002678,0.000431,0.001880
16465000,0.0324,0.013523,0.002678,0.000431,0.001528
16466000,0.0324,0.013523,0.002678,0.000431,0.001763
16467000,0.0324,0.013523,0.002678,0.000431,0.001880
16468000,0.0324,0.013523,0.002678,0.000431,0.001880
16469000,0.0324,0.013523,0.002678,0.000431,0.001528
16470000,0.0324,0.013523,0.002678,0.000431,0.001763
16471000,0.0324,0.013523,0.002678,0.000431,0.001880
16472000,0.0324,0.013523,0.002678,0.000431,0.001763
16473000,0.0324,0.013523,0.002678,0.000431,0.001645
16474000,0.0324,0.013523,0.002678,0.000431,0.001763
16475000,0.0324,0.013523,0.002678,0.000431,0.001880
16476000,0.0324,0.013523,0.002678,0.000431,0.003056
16477000,0.0324,0.013523,0.002678,0.000431,0.000823
16478000,0.0324,0.013523,0.002678,0.000431,0.000940
16479000,0.0324,0.013523,0.002678,0.000431,0.000823
16480000,0.0324,0.013523,0.002678,0.000431,0.000823
16481000,0.0324,0.013523,0.002678,0.000431,0.000940
16482000,0.0324,0.013523,0.002678,0.000431,0.000940
16483000,0.0324,0.013523,0.002678,0.000431,0.000940
16484000,0.0324,0.013523,0.002678,0.000431,0.000705
16485000,0.0324,0.013523,0.002678,0.000431,0.000940
16486000,0.0324,0.013523,0.002678,0.000431,0.000940
16487000,0.0324,0.013523,0.002678,0.000431,0.000823
16488000,0.0324,0.013523,0.002678,0.000431,0.000823
16489000,0.0324,0.013523,0.002678,0.000431,0.000940
16490000,0.0324,0.013523,0.002678,0.000431,0.000940
16491000,0.0324,0.013523,0.002678,0.000431,0.000940
16492000,0.0324,0.013523,0.002678,0.000431,0.000705
16493000,0.0324,0.013523,0.002678,0.000431,0.000940
16494000,0.0324,0.013523,0.002678,0.000431,0.000940
16495000,0.0324,0.013523,0.002678,0.000431,0.000823
16496000,0.0324,0.013523,0.002678,0.000431,0.000823
16497000,0.0324,0.013523,0.002678,0.000431,0.000940
16498000,0.0324,0.013523,0.002678,0.000431,0.000823
16499000,0.0324,0.013523,0.002678,0.000431,0.000940
16500000,0.0324,0.013523,0.002678,0.000431,0.000823
16501000,0.0324,0.013523,0.002678,0.000431,0.000940
16502000,0.0324,0.013523,0.002678,0.000431,0.000823
16503000,0.0324,0.013523,0.002678,0.000431,0.000823
16504000,0.0324,0.013523,0.002678,0.000431,0.000940
16505000,0.0324,0.013523,0.002678,0.000431,0.000940
16506000,0.0324,0.013523,0.002678,0.000431,0.000823
16507000,0.0324,0.013523,0.002678,0.000431,0.000823
16508000,0.0324,0.013523,0.002678,0.000431,0.000940
16509000,0.0324,0.013523,0.002678,0.000431,0.000940
16510000,0.0324,0.013523,0.002678,0.000431,0.000823
16511000,0.0324,0.013523,0.002678,0.000431,0.000823
16512000,0.0324,0.013523,0.002678,0.000431,0.000940
16513000,0.0324,0.013523,0.002678,0.000431,0.000940
16514000,0.0324,0.013523,0.002678,0.000431,0.000823
16515000,0.0324,0.013523,0.002678,0.000431,0.000823
16516000,0.0324,0.013523,0.002678,0.000431,0.000940
16517000,0.0324,0.013523,0.002678,0.000431,0.000823
16518000,0.0324,0.013523,0.002678,0.000431,0.000940
16519000,0.0324,0.013523,0.002678,0.000431,0.000823
16520000,0.0324,0.013523,0.002678,0.000431,0.000940
16521000,0.0324,0.013523,0.002678,0.000431,0.000823
16522000,0.0324,0.013523,0.002678,0.000431,0.000823
16523000,0.0324,0.013523,0.002678,0.000431,0.000940
16524000,0.0324,0.013523,0.002678,0.000431,0.000940
16525000,0.0324,0.013523,0.002678,0.000431,0.000823
16526000,0.0324,0.013523,0.002678,0.000431,0.000823
16527000,0.0324,0.013523,0.002678,0.000431,0.000940
16528000,0.0324,0.013523,0.002678,0.000431,0.000940
16529000,0.0324,0.013523,0.002678,0.000431,0.000705
16530000,0.0324,0.013523,0.002678,0.000431,0.000940
16531000,0.0324,0.013523,0.002678,0.000431,0.000940
16532000,0.0324,0.013523,0.002678,0.000431,0.000940
16533000,0.0324,0.013523,0.002678,0.000431,0.000705
16534000,0.0324,0.013523,0.002678,0.000431,0.000940
16535000,0.0324,0.013523,0.002678,0.000431,0.000940
16536000,0.0324,0.013523,0.002678,0.000431,0.000823
16537000,0.0324,0.013523,0.002678,0.000431,0.000940
16538000,0.0324,0.013523,0.002678,0.000431,0.000823
16539000,0.0324,0.013523,0.002678,0.000431,0.000940
16540000,0.0324,0.013523,0.002678,0.000431,0.000823
16541000,0.0324,0.013523,0.002678,0.000431,0.000823
16542000,0.0324,0.013523,0.002678,0.000431,0.000940
16543000,0.0324,0.013523,0.002678,0.000431,0.000940
16544000,0.0324,0.013523,0.002678,0.000431,0.000705
16545000,0.0324,0.013523,0.002678,0.000431,0.000940
16546000,0.0324,0.013523,0.002678,0.000431,0.000940
16547000,0.0324,0.013523,0.002678,0.000431,0.000940
16548000,0.0324,0.013523,0.002678,0.000431,0.000705
16549000,0.0324,0.013523,0.002678,0.000431,0.000940
16550000,0.0324,0.013523,0.002678,0.000431,0.000940
16551000,0.0324,0.013523,0.002678,0.000431,0.000823
16552000,0.0324,0.013523,0.002678,0.000431,0.000823
16553000,0.0324,0.013523,0.002678,0.000431,0.000940
16554000,0.0324,0.013523,0.002678,0.000431,0.000940
16555000,0.0324,0.013523,0.002678,0.000431,0.000823
16556000,0.0324,0.013523,0.002678,0.000431,0.000823
16557000,0.0324,0.013523,0.002678,0.000431,0.000940
16558000,0.0324,0.013523,0.002678,0.000431,0.000823
16559000,0.0324,0.013523,0.002678,0.000431,0.000940
16560000,0.0324,0.013523,0.002678,0.000431,0.000823
16561000,0.0324,0.013523,0.002678,0.000431,0.000940
16562000,0.0324,0.013523,0.002678,0.000431,0.000823
16563000,0.0324,0.013523,0.002678,0.000431,0.000823
16564000,0.0324,0.013523,0.002678,0.000431,0.000940
16565000,0.0324,0.013523,0.002678,0.000431,0.000940
16566000,0.0324,0.013523,0.002678,0.000431,0.000823
16567000,0.0324,0.013523,0.002678,0.000431,0.000823
16568000,0.0324,0.013523,0.002678,0.000431,0.000940
16569000,0.0324,0.013523,0.002678,0.000431,0.000940
16570000,0.0324,0.013523,0.002678,0.000431,0.000823
16571000,0.0324,0.013523,0.002678,0.000431,0.000823
16572000,0.0324,0.013523,0.002678,0.000431,0.000940
16573000,0.0324,0.013523,0.002678,0.000431,0.000940
16574000,0.0324,0.013523,0.002678,0.000431,0.000823
16575000,0.0324,0.013523,0.002678,0.000431,0.000823
16576000,0.0324,0.013523,0.002678,0.000431,0.000940
16577000,0.0324,0.013523,0.002678,0.000431,0.000823
16578000,0.0324,0.013523,0.002678,0.000431,0.000940
16579000,0.0324,0.013523,0.002678,0.000431,0.000823
16580000,0.0324,0.013523,0.002678,0.000431,0.000940
16581000,0.0324,0.013523,0.002678,0.000431,0.000823
16582000,0.0324,0.013523,0.002678,0.000431,0.000823
16583000,0.0324,0.013523,0.002678,0.000431,0.000940
16584000,0.0324,0.013523,0.002678,0.000431,0.000940
16585000,0.0324,0.013523,0.002678,0.000431,0.000823
16586000,0.0324,0.013523,0.002678,0.000431,0.000823
16587000,0.0324,0.013523,0.002678,0.000431,0.000940
16588000,0.0324,0.013523,0.002678,0.000431,0.010225
16589000,0.0324,0.013523,0.002678,0.000431,0.496674
16590000,0.0324,0.013523,0.002678,0.000431,0.633829
16591000,0.0324,0.013523,0.002678,0.000431,0.133042
16592000,0.0324,0.013523,0.002678,0.000431,0.137155
16593000,0.0324,0.013523,0.002678,0.000431,0.394307
16594000,0.0324,0.013523,0.002678,0.000431,0.459770
16595000,0.0324,0.013523,0.002678,0.000431,0.233293
16596000,0.0324,0.013523,0.002678,0.000431,0.354465
16597000,0.0324,0.013523,0.002678,0.000431,0.136685
16598000,0.0324,0.013523,0.002678,0.000431,0.154197
16599000,0.0324,0.013523,0.002678,0.000431,0.103660
16600000,0.0324,0.013523,0.002678,0.000431,0.446137
16601000,0.0324,0.013523,0.002678,0.000431,0.183344
16602000,0.0324,0.013523,0.002678,0.000431,0.059822
16603000,0.0324,0.013523,0.002678,0.000431,0.055121
16604000,0.0324,0.013523,0.002678,0.000431,0.040312
16605000,0.0324,0.013523,0.002678,0.000431,0.038902
16606000,0.0324,0.013523,0.002678,0.000431,0.027737
16607000,0.0324,0.013523,0.002678,0.000431,0.033143
16608000,0.0324,0.013523,0.002678,0.000431,0.021625
16609000,0.0324,0.013523,0.002678,0.000431,0.018922
16610000,0.0324,0.013523,0.002678,0.000431,0.021273
16611000,0.0324,0.013523,0.002678,0.000431,0.017277
16612000,0.0324,0.013523,0.002678,0.000431,0.011988
16613000,0.0324,0.013523,0.002678,0.000431,0.013986
16614000,0.0324,0.013523,0.002678,0.000431,0.011048
16615000,0.0324,0.013523,0.002678,0.000431,0.012105
16616000,0.0324,0.013523,0.002678,0.000431,0.010578
16617000,0.0324,0.013523,0.002678,0.000431,0.014338
16618000,0.0324,0.013523,0.002678,0.000431,0.008109
16619000,0.0324,0.013523,0.002678,0.000431,0.008815
16620000,0.0324,0.013523,0.002678,0.000431,0.009050
16621000,0.0324,0.013523,0.002678,0.000431,0.009637
16622000,0.0324,0.013523,0.002678,0.000431,0.008815
16623000,0.0324,0.013523,0.002678,0.000431,0.007757
16624000,0.0324,0.013523,0.002678,0.000431,0.009755
16625000,0.0324,0.013523,0.002678,0.000431,0.006817
16626000,0.0324,0.013523,0.002678,0.000431,0.006934
16627000,0.0324,0.013523,0.002678,0.000431,0.006699
16628000,0.0324,0.013523,0.002678,0.000431,0.007052
16629000,0.0324,0.013523,0.002678,0.000431,0.007052
16630000,0.0324,0.013523,0.002678,0.000431,0.006934
16631000,0.0324,0.013523,0.002678,0.000431,0.008932
16632000,0.0324,0.013523,0.002678,0.000431,0.007757
16633000,0.0324,0.013523,0.002678,0.000431,0.005406
16634000,0.0324,0.013523,0.002678,0.000431,0.006464
16635000,0.0324,0.013523,0.002678,0.000431,0.004349
16636000,0.0324,0.013523,0.002678,0.000431,0.004113
16637000,0.0324,0.013523,0.002678,0.000431,0.004231
16638000,0.0324,0.013523,0.002678,0.000431,0.004466
16639000,0.0324,0.013523,0.002678,0.000431,0.004231
16640000,0.0324,0.013523,0.002678,0.000431,0.004113
16641000,0.0324,0.013523,0.002678,0.000431,0.004349
16642000,0.0324,0.013523,0.002678,0.000431,0.004231
16643000,0.0324,0.013523,0.002678,0.000431,0.004349
16644000,0.0324,0.013523,0.002678,0.000431,0.004113
16645000,0.0324,0.013523,0.002678,0.000431,0.004349
16646000,0.0324,0.013523,0.002678,0.000431,0.004349
16647000,0.0324,0.013523,0.002678,0.000431,0.004231
16648000,0.0324,0.013523,0.002678,0.000431,0.004113
16649000,0.0324,0.013523,0.002678,0.000431,0.004349
16650000,0.0324,0.013523,0.002678,0.000431,0.005406
16651000,0.0324,0.013523,0.002678,0.000431,0.004936
16652000,0.0324,0.013523,0.002678,0.000431,0.003408
16653000,0.0324,0.013523,0.002678,0.000431,0.003761
16654000,0.0324,0.013523,0.002678,0.000431,0.003291
16655000,0.0324,0.013523,0.002678,0.000431,0.003408
16656000,0.0324,0.013523,0.002678,0.000431,0.005876
16657000,0.0324,0.013523,0.002678,0.000431,0.002468
16658000,0.0324,0.013523,0.002678,0.000431,0.002703
16659000,0.0324,0.013523,0.002678,0.000431,0.004231
16660000,0.0324,0.013523,0.002678,0.000431,0.001645
16661000,0.0324,0.013523,0.002678,0.000431,0.001763
16662000,0.0324,0.013523,0.002678,0.000431,0.001645
16663000,0.0324,0.013523,0.002678,0.000431,0.001763
16664000,0.0324,0.013523,0.002678,0.000431,0.001763
16665000,0.0324,0.013523,0.002678,0.000431,0.001645
16666000,0.0324,0.013523,0.002678,0.000431,0.001880
16667000,0.0324,0.013523,0.002678,0.000431,0.001528
16668000,0.0324,0.013523,0.002678,0.000431,0.001763
16669000,0.0324,0.013523,0.002678,0.000431,0.001763
16670000,0.0324,0.013523,0.002678,0.000431,0.001763
16671000,0.0324,0.013523,0.002678,0.000431,0.001528
16672000,0.0324,0.013523,0.002678,0.000431,0.001763
16673000,0.0324,0.013523,0.002678,0.000431,0.001880
16674000,0.0324,0.013523,0.002678,0.000431,0.001645
16675000,0.0324,0.013523,0.002678,0.000431,0.001645
16676000,0.0324,0.013523,0.002678,0.000431,0.001645
16677000,0.0324,0.013523,0.002678,0.000431,0.001880
16678000,0.0324,0.013523,0.002678,0.000431,0.001645
16679000,0.0324,0.013523,0.002678,0.000431,0.001763
16680000,0.0324,0.013523,0.002678,0.000431,0.001645
16681000,0.0324,0.013523,0.002678,0.000431,0.001763
16682000,0.0324,0.013523,0.002678,0.000431,0.001763
16683000,0.0324,0.013523,0.002678,0.000431,0.001528
16684000,0.0324,0.013523,0.002678,0.000431,0.001880
16685000,0.0324,0.013523,0.002678,0.000431,0.001645
16686000,0.0324,0.013523,0.002678,0.000431,0.001645
16687000,0.0324,0.013523,0.002678,0.000431,0.001763
16688000,0.0324,0.013523,0.002678,0.000431,0.001763
16689000,0.0324,0.013523,0.002678,0.000431,0.001880
16690000,0.0324,0.013523,0.002678,0.000431,0.001410
16691000,0.0324,0.013523,0.002678,0.000431,0.001880
16692000,0.0324,0.013523,0.002678,0.000431,0.001763
16693000,0.0324,0.013523,0.002678,0.000431,0.001645
16694000,0.0324,0.013523,0.002678,0.000431,0.001645
16695000,0.0324,0.013523,0.002678,0.000431,0.001763
16696000,0.0324,0.013523,0.002678,0.000431,0.001763
16697000,0.0324,0.013523,0.002678,0.000431,0.001645
16698000,0.0324,0.013523,0.002678,0.000431,0.001763
16699000,0.0324,0.013523,0.002678,0.000431,0.001763
16700000,0.0324,0.013523,0.002678,0.000431,0.001645
16701000,0.0324,0.013523,0.002678,0.000431,0.001880
16702000,0.0324,0.013523,0.002678,0.000431,0.001763
16703000,0.0324,0.013523,0.002678,0.000431,0.001880
16704000,0.0324,0.013523,0.002678,0.000431,0.001528
16705000,0.0324,0.013523,0.002678,0.000431,0.001763
16706000,0.0324,0.013523,0.002678,0.000431,0.001880
16707000,0.0324,0.013523,0.002678,0.000431,0.001763
16708000,0.0324,0.013523,0.002678,0.000431,0.001645
16709000,0.0324,0.013523,0.002678,0.000431,0.001763
16710000,0.0324,0.013523,0.002678,0.000431,0.001880
16711000,0.0324,0.013523,0.002678,0.000431,0.001763
16712000,0.0324,0.013523,0.002678,0.000431,0.001645
16713000,0.0324,0.013523,0.002678,0.000431,0.001763
16714000,0.0324,0.013523,0.002678,0.000431,0.001763
16715000,0.0324,0.013523,0.002678,0.000431,0.001880
16716000,0.0324,0.013523,0.002678,0.000431,0.002468
16717000,0.0324,0.013523,0.002678,0.000431,0.014809
16718000,0.0324,0.013523,0.002678,0.000431,0.557906
16719000,0.0324,0.013523,0.002678,0.000431,0.600804
16720000,0.0324,0.013523,0.002678,0.000431,0.134452
16721000,0.0324,0.013523,0.002678,0.000431,0.131279
16722000,0.0324,0.013523,0.002678,0.000431,0.405002
16723000,0.0324,0.013523,0.002678,0.000431,0.408645
16724000,0.0324,0.013523,0.002678,0.000431,0.240345
16725000,0.0324,0.013523,0.002678,0.000431,0.316386
16726000,0.0324,0.013523,0.002678,0.000431,0.143267
16727000,0.0324,0.013523,0.002678,0.000431,0.144442
16728000,0.0324,0.013523,0.002678,0.000431,0.130926
16729000,0.0324,0.013523,0.002678,0.000431,0.269845
16730000,0.0324,0.013523,0.002678,0.000431,0.347531
16731000,0.0324,0.013523,0.002678,0.000431,0.033848
16732000,0.0324,0.013523,0.002678,0.000431,0.026914
16733000,0.0324,0.013523,0.002678,0.000431,0.025974
16734000,0.0324,0.013523,0.002678,0.000431,0.017747
16735000,0.0324,0.013523,0.002678,0.000431,0.013516
16736000,0.0324,0.013523,0.002678,0.000431,0.013046
16737000,0.0324,0.013523,0.002678,0.000431,0.006817
16738000,0.0324,0.013523,0.002678,0.000431,0.004113
16739000,0.0324,0.013523,0.002678,0.000431,0.004231
16740000,0.0324,0.013523,0.002678,0.000431,0.004349
16741000,0.0324,0.013523,0.002678,0.000431,0.006111
16742000,0.0324,0.013523,0.002678,0.000431,0.003408
16743000,0.0324,0.013523,0.002678,0.000431,0.002821
16744000,0.0324,0.013523,0.002678,0.000431,0.002116
16745000,0.0324,0.013523,0.002678,0.000431,0.002821
16746000,0.0324,0.013523,0.002678,0.000431,0.002468
16747000,0.0324,0.013523,0.002678,0.000431,0.001998
16748000,0.0324,0.013523,0.002678,0.000431,0.002821
16749000,0.0324,0.013523,0.002678,0.000431,0.001880
16750000,0.0324,0.013523,0.002678,0.000431,0.002586
16751000,0.0324,0.013523,0.002678,0.000431,0.002468
16752000,0.0324,0.013523,0.002678,0.000431,0.001998
16753000,0.0324,0.013523,0.002678,0.000431,0.002468
16754000,0.0324,0.013523,0.002678,0.000431,0.002233
16755000,0.0324,0.013523,0.002678,0.000431,0.002586
16756000,0.0324,0.013523,0.002678,0.000431,0.002116
16757000,0.0324,0.013523,0.002678,0.000431,0.002351
16758000,0.0324,0.013523,0.002678,0.000431,0.002468
16759000,0.0324,0.013523,0.002678,0.000431,0.002233
16760000,0.0324,0.013523,0.002678,0.000431,0.002233
16761000,0.0324,0.013523,0.002678,0.000431,0.002468
16762000,0.0324,0.013523,0.002678,0.000431,0.002351
16763000,0.0324,0.013523,0.002678,0.000431,0.002116
16764000,0.0324,0.013523,0.002678,0.000431,0.002468
16765000,0.0324,0.013523,0.002678,0.000431,0.002351
16766000,0.0324,0.013523,0.002678,0.000431,0.002116
16767000,0.0324,0.013523,0.002678,0.000431,0.002116
16768000,0.0324,0.013523,0.002678,0.000431,0.002233
16769000,0.0324,0.013523,0.002678,0.000431,0.002468
16770000,0.0324,0.013523,0.002678,0.000431,0.001998
16771000,0.0324,0.013523,0.002678,0.000431,0.002468
16772000,0.0324,0.013523,0.002678,0.000431,0.002468
16773000,0.0324,0.013523,0.002678,0.000431,0.002351
16774000,0.0324,0.013523,0.002678,0.000431,0.002233
16775000,0.0324,0.013523,0.002678,0.000431,0.002233
16776000,0.0324,0.013523,0.002678,0.000431,0.002468
16777000,0.0324,0.013523,0.002678,0.000431,0.002468
16778000,0.0324,0.013523,0.002678,0.000431,0.001998
16779000,0.0324,0.013523,0.002678,0.000431,0.002468
16780000,0.0324,0.013523,0.002678,0.000431,0.002351
16781000,0.0324,0.013523,0.002678,0.000431,0.002116
16782000,0.0324,0.013523,0.002678,0.000431,0.002821
16783000,0.0324,0.013523,0.002678,0.000431,0.001998
16784000,0.0324,0.013523,0.002678,0.000431,0.002468
16785000,0.0324,0.013523,0.002678,0.000431,0.002351
16786000,0.0324,0.013523,0.002678,0.000431,0.002468
16787000,0.0324,0.013523,0.002678,0.000431,0.002821
16788000,0.0324,0.013523,0.002678,0.000431,0.000823
16789000,0.0324,0.013523,0.002678,0.000431,0.000940
16790000,0.0324,0.013523,0.002678,0.000431,0.000823
16791000,0.0324,0.013523,0.002678,0.000431,0.000823
16792000,0.0324,0.013523,0.002678,0.000431,0.000940
16793000,0.0324,0.013523,0.002678,0.000431,0.000940
16794000,0.0324,0.013523,0.002678,0.000431,0.000823
16795000,0.0324,0.013523,0.002678,0.000431,0.000823
16796000,0.0324,0.013523,0.002678,0.000431,0.000940
16797000,0.0324,0.013523,0.002678,0.000431,0.000940
16798000,0.0324,0.013523,0.002678,0.000431,0.000705
16799000,0.0324,0.013523,0.002678,0.000431,0.000940
16800000,0.0324,0.013523,0.002678,0.000431,0.013868
16801000,0.0324,0.013523,0.002678,0.000431,0.497732
16802000,0.0324,0.013523,0.002678,0.000431,0.582235
16803000,0.0324,0.013523,0.002678,0.000431,0.134452
16804000,0.0324,0.013523,0.002678,0.000431,0.132102
16805000,0.0324,0.013523,0.002678,0.000431,0.509720
16806000,0.0324,0.013523,0.002678,0.000431,0.308982
16807000,0.0324,0.013523,0.002678,0.000431,0.297581
16808000,0.0324,0.013523,0.002678,0.000431,0.322380
16809000,0.0324,0.013523,0.002678,0.000431,0.144677
16810000,0.0324,0.013523,0.002678,0.000431,0.147263
16811000,0.0324,0.013523,0.002678,0.000431,0.156077
16812000,0.0324,0.013523,0.002678,0.000431,0.448958
16813000,0.0324,0.013523,0.002678,0.000431,0.051242
16814000,0.0324,0.013523,0.002678,0.000431,0.041135
16815000,0.0324,0.013523,0.002678,0.000431,0.039372
16816000,0.0324,0.013523,0.002678,0.000431,0.025856
16817000,0.0324,0.013523,0.002678,0.000431,0.024093
16818000,0.0324,0.013523,0.002678,0.000431,0.023741
16819000,0.0324,0.013523,0.002678,0.000431,0.017629
16820000,0.0324,0.013523,0.002678,0.000431,0.012576
16821000,0.0324,0.013523,0.002678,0.000431,0.012105
16822000,0.0324,0.013523,0.002678,0.000431,0.012693
16823000,0.0324,0.013523,0.002678,0.000431,0.008462
16824000,0.0324,0.013523,0.002678,0.000431,0.009050
16825000,0.0324,0.013523,0.002678,0.000431,0.007874
16826000,0.0324,0.013523,0.002678,0.000431,0.009637
16827000,0.0324,0.013523,0.002678,0.000431,0.004936
16828000,0.0324,0.013523,0.002678,0.000431,0.008227
16829000,0.0324,0.013523,0.002678,0.000431,0.004936
16830000,0.0324,0.013523,0.002678,0.000431,0.004819
16831000,0.0324,0.013523,0.002678,0.000431,0.004936
16832000,0.0324,0.013523,0.002678,0.000431,0.004701
16833000,0.0324,0.013523,0.002678,0.000431,0.005524
16834000,0.0324,0.013523,0.002678,0.000431,0.004466
16835000,0.0324,0.013523,0.002678,0.000431,0.005171
16836000,0.0324,0.013523,0.002678,0.000431,0.004584
16837000,0.0324,0.013523,0.002678,0.000431,0.005171
16838000,0.0324,0.013523,0.002678,0.000431,0.005289
16839000,0.0324,0.013523,0.002678,0.000431,0.004584
16840000,0.0324,0.013523,0.002678,0.000431,0.005171
16841000,0.0324,0.013523,0.002678,0.000431,0.004584
16842000,0.0324,0.013523,0.002678,0.000431,0.005054
16843000,0.0324,0.013523,0.002678,0.000431,0.005171
16844000,0.0324,0.013523,0.002678,0.000431,0.004936
16845000,0.0324,0.013523,0.002678,0.000431,0.006229
16846000,0.0324,0.013523,0.002678,0.000431,0.003408
16847000,0.0324,0.013523,0.002678,0.000431,0.002703
16848000,0.0324,0.013523,0.002678,0.000431,0.002586
16849000,0.0324,0.013523,0.002678,0.000431,0.003878
16850000,0.0324,0.013523,0.002678,0.000431,0.002821
16851000,0.0324,0.013523,0.002678,0.000431,0.000705
16852000,0.0324,0.013523,0.002678,0.000431,0.000940
16853000,0.0324,0.013523,0.002678,0.000431,0.000823
16854000,0.0324,0.013523,0.002678,0.000431,0.000823
16855000,0.0324,0.013523,0.002678,0.000431,0.000823
16856000,0.0324,0.013523,0.002678,0.000431,0.000823
16857000,0.0324,0.013523,0.002678,0.000431,0.000823
16858000,0.0324,0.013523,0.002678,0.000431,0.000940
16859000,0.0324,0.013523,0.002678,0.000431,0.000823
16860000,0.0324,0.013523,0.002678,0.000431,0.000823
16861000,0.0324,0.013523,0.002678,0.000431,0.000940
16862000,0.0324,0.013523,0.002678,0.000431,0.000823
16863000,0.0324,0.013523,0.002678,0.000431,0.077686
16864000,0.0324,0.013523,0.002678,0.000431,0.556496
16865000,0.0324,0.013523,0.002678,0.000431,0.520650
16866000,0.0324,0.013523,0.002678,0.000431,0.134452
16867000,0.0324,0.013523,0.002678,0.000431,0.132572
16868000,0.0324,0.013523,0.002678,0.000431,0.579414
16869000,0.0324,0.013523,0.002678,0.000431,0.283008
16870000,0.0324,0.013523,0.002678,0.000431,0.260207
16871000,0.0324,0.013523,0.002678,0.000431,0.259150
16872000,0.0324,0.013523,0.002678,0.000431,0.147028
16873000,0.0324,0.013523,0.002678,0.000431,0.156312
16874000,0.0324,0.013523,0.002678,0.000431,0.183814
16875000,0.0324,0.013523,0.002678,0.000431,0.405472
16876000,0.0324,0.013523,0.002678,0.000431,0.024916
16877000,0.0324,0.013523,0.002678,0.000431,0.018569
16878000,0.0324,0.013523,0.002678,0.000431,0.017512
16879000,0.0324,0.013523,0.002678,0.000431,0.012693
16880000,0.0324,0.013523,0.002678,0.000431,0.010460
16881000,0.0324,0.013523,0.002678,0.000431,0.008815
16882000,0.0324,0.013523,0.002678,0.000431,0.007757
16883000,0.0324,0.013523,0.002678,0.000431,0.008462
16884000,0.0324,0.013523,0.002678,0.000431,0.009990
16885000,0.0324,0.013523,0.002678,0.000431,0.009167
16886000,0.0324,0.013523,0.002678,0.000431,0.010225
16887000,0.0324,0.013523,0.002678,0.000431,0.005994
16888000,0.0324,0.013523,0.002678,0.000431,0.005406
16889000,0.0324,0.013523,0.002678,0.000431,0.005994
16890000,0.0324,0.013523,0.002678,0.000431,0.007522
16891000,0.0324,0.013523,0.002678,0.000431,0.003526
16892000,0.0324,0.013523,0.002678,0.000431,0.003643
16893000,0.0324,0.013523,0.002678,0.000431,0.003291
16894000,0.0324,0.013523,0.002678,0.000431,0.004231
16895000,0.0324,0.013523,0.002678,0.000431,0.003761
16896000,0.0324,0.013523,0.002678,0.000431,0.003996
16897000,0.0324,0.013523,0.002678,0.000431,0.002468
16898000,0.0324,0.013523,0.002678,0.000431,0.001998
16899000,0.0324,0.013523,0.002678,0.000431,0.000823
16900000,0.0324,0.013523,0.002678,0.000431,0.000940
16901000,0.0324,0.013523,0.002678,0.000431,0.000823
16902000,0.0324,0.013523,0.002678,0.000431,0.000823
16903000,0.0324,0.013523,0.002678,0.000431,0.000940
16904000,0.0324,0.013523,0.002678,0.000431,0.000940
16905000,0.0324,0.013523,0.002678,0.000431,0.000705
16906000,0.0324,0.013523,0.002678,0.000431,0.000940
16907000,0.0324,0.013523,0.002678,0.000431,0.000940
16908000,0.0324,0.013523,0.002678,0.000431,0.000940
16909000,0.0324,0.013523,0.002678,0.000431,0.000705
16910000,0.0324,0.013523,0.002678,0.000431,0.000940
16911000,0.0324,0.013523,0.002678,0.000431,0.000940
16912000,0.0324,0.013523,0.002678,0.000431,0.000823
16913000,0.0324,0.013523,0.002678,0.000431,0.000823
16914000,0.0324,0.013523,0.002678,0.000431,0.070869
16915000,0.0324,0.013523,0.002678,0.000431,0.454717
16916000,0.0324,0.013523,0.002678,0.000431,0.572362
16917000,0.0324,0.013523,0.002678,0.000431,0.133042
16918000,0.0324,0.013523,0.002678,0.000431,0.133042
16919000,0.0324,0.013523,0.002678,0.000431,0.562607
16920000,0.0324,0.013523,0.002678,0.000431,0.225537
16921000,0.0324,0.013523,0.002678,0.000431,0.279012
16922000,0.0324,0.013523,0.002678,0.000431,0.343065
16923000,0.0324,0.013523,0.002678,0.000431,0.138331
16924000,0.0324,0.013523,0.002678,0.000431,0.152669
16925000,0.0324,0.013523,0.002678,0.000431,0.105658
16926000,0.0324,0.013523,0.002678,0.000431,0.423807
16927000,0.0324,0.013523,0.002678,0.000431,0.139388
16928000,0.0324,0.013523,0.002678,0.000431,0.028559
16929000,0.0324,0.013523,0.002678,0.000431,0.025269
16930000,0.0324,0.013523,0.002678,0.000431,0.019745
16931000,0.0324,0.013523,0.002678,0.000431,0.021860
16932000,0.0324,0.013523,0.002678,0.000431,0.014809
16933000,0.0324,0.013523,0.002678,0.000431,0.010578
16934000,0.0324,0.013523,0.002678,0.000431,0.010930
16935000,0.0324,0.013523,0.002678,0.000431,0.010930
16936000,0.0324,0.013523,0.002678,0.000431,0.013986
16937000,0.0324,0.013523,0.002678,0.000431,0.008932
16938000,0.0324,0.013523,0.002678,0.000431,0.007757
16939000,0.0324,0.013523,0.002678,0.000431,0.008932
16940000,0.0324,0.013523,0.002678,0.000431,0.006817
16941000,0.0324,0.013523,0.002678,0.000431,0.009402
16942000,0.0324,0.013523,0.002678,0.000431,0.005759
16943000,0.0324,0.013523,0.002678,0.000431,0.006111
16944000,0.0324,0.013523,0.002678,0.000431,0.006699
16945000,0.0324,0.013523,0.002678,0.000431,0.006582
16946000,0.0324,0.013523,0.002678,0.000431,0.005406
16947000,0.0324,0.013523,0.002678,0.000431,0.004701
16948000,0.0324,0.013523,0.002678,0.000431,0.008697
16949000,0.0324,0.013523,0.002678,0.000431,0.003056
16950000,0.0324,0.013523,0.002678,0.000431,0.003526
16951000,0.0324,0.013523,0.002678,0.000431,0.003526
16952000,0.0324,0.013523,0.002678,0.000431,0.003291
16953000,0.0324,0.013523,0.002678,0.000431,0.003526
16954000,0.0324,0.013523,0.002678,0.000431,0.003173
16955000,0.0324,0.013523,0.002678,0.000431,0.003643
16956000,0.0324,0.013523,0.002678,0.000431,0.003526
16957000,0.0324,0.013523,0.002678,0.000431,0.003056
16958000,0.0324,0.013523,0.002678,0.000431,0.003526
16959000,0.0324,0.013523,0.002678,0.000431,0.003408
16960000,0.0324,0.013523,0.002678,0.000431,0.003643
16961000,0.0324,0.013523,0.002678,0.000431,0.003408
16962000,0.0324,0.013523,0.002678,0.000431,0.003526
16963000,0.0324,0.013523,0.002678,0.000431,0.003173
16964000,0.0324,0.013523,0.002678,0.000431,0.003761
16965000,0.0324,0.013523,0.002678,0.000431,0.003291
16966000,0.0324,0.013523,0.002678,0.000431,0.003526
16967000,0.0324,0.013523,0.002678,0.000431,0.004466
16968000,0.0324,0.013523,0.002678,0.000431,0.002351
16969000,0.0324,0.013523,0.002678,0.000431,0.002703
16970000,0.0324,0.013523,0.002678,0.000431,0.002351
16971000,0.0324,0.013523,0.002678,0.000431,0.002468
16972000,0.0324,0.013523,0.002678,0.000431,0.002468
16973000,0.0324,0.013523,0.002678,0.000431,0.002468
16974000,0.0324,0.013523,0.002678,0.000431,0.002468
16975000,0.0324,0.013523,0.002678,0.000431,0.002468
16976000,0.0324,0.013523,0.002678,0.000431,0.002233
16977000,0.0324,0.013523,0.002678,0.000431,0.002586
16978000,0.0324,0.013523,0.002678,0.000431,0.002586
16979000,0.0324,0.013523,0.002678,0.000431,0.002116
16980000,0.0324,0.013523,0.002678,0.000431,0.002821
16981000,0.0324,0.013523,0.002678,0.000431,0.002351
16982000,0.0324,0.013523,0.002678,0.000431,0.002586
16983000,0.0324,0.013523,0.002678,0.000431,0.002233
16984000,0.0324,0.013523,0.002678,0.000431,0.002468
16985000,0.0324,0.013523,0.002678,0.000431,0.002821
16986000,0.0324,0.013523,0.002678,0.000431,0.001998
16987000,0.0324,0.013523,0.002678,0.000431,0.002821
16988000,0.0324,0.013523,0.002678,0.000431,0.005289
16989000,0.0324,0.013523,0.002678,0.000431,0.000940
16990000,0.0324,0.013523,0.002678,0.000431,0.000823
16991000,0.0324,0.013523,0.002678,0.000431,0.000823
16992000,0.0324,0.013523,0.002678,0.000431,0.000940
16993000,0.0324,0.013523,0.002678,0.000431,0.000940
16994000,0.0324,0.013523,0.002678,0.000431,0.000705
16995000,0.0324,0.013523,0.002678,0.000431,0.000940
16996000,0.0324,0.013523,0.002678,0.000431,0.000940
16997000,0.0324,0.013523,0.002678,0.000431,0.000940
16998000,0.0324,0.013523,0.002678,0.000431,0.000705
16999000,0.0324,0.013523,0.002678,0.000431,0.000940
