Cycle,Area(mm^2),PeakDynamic(W),SubthresholdLeakage(W),GateLeakage(W),RunTimeDynamic(W)
119000000,0.0324,0.013523,0.002678,0.000431,0.000823
119001000,0.0324,0.013523,0.002678,0.000431,0.000940
119002000,0.0324,0.013523,0.002678,0.000431,0.000705
119003000,0.0324,0.013523,0.002678,0.000431,0.000940
119004000,0.0324,0.013523,0.002678,0.000431,0.000823
119005000,0.0324,0.013523,0.002678,0.000431,0.000823
119006000,0.0324,0.013523,0.002678,0.000431,0.000823
119007000,0.0324,0.013523,0.002678,0.000431,0.000823
119008000,0.0324,0.013523,0.002678,0.000431,0.000940
119009000,0.0324,0.013523,0.002678,0.000431,0.000705
119010000,0.0324,0.013523,0.002678,0.000431,0.000940
119011000,0.0324,0.013523,0.002678,0.000431,0.000823
119012000,0.0324,0.013523,0.002678,0.000431,0.000823
119013000,0.0324,0.013523,0.002678,0.000431,0.000823
119014000,0.0324,0.013523,0.002678,0.000431,0.000823
119015000,0.0324,0.013523,0.002678,0.000431,0.000705
119016000,0.0324,0.013523,0.002678,0.000431,0.000940
119017000,0.0324,0.013523,0.002678,0.000431,0.000940
119018000,0.0324,0.013523,0.002678,0.000431,0.000705
119019000,0.0324,0.013523,0.002678,0.000431,0.000940
119020000,0.0324,0.013523,0.002678,0.000431,0.000705
119021000,0.0324,0.013523,0.002678,0.000431,0.000940
119022000,0.0324,0.013523,0.002678,0.000431,0.000940
119023000,0.0324,0.013523,0.002678,0.000431,0.000705
119024000,0.0324,0.013523,0.002678,0.000431,0.000940
119025000,0.0324,0.013523,0.002678,0.000431,0.000705
119026000,0.0324,0.013523,0.002678,0.000431,0.000940
119027000,0.0324,0.013523,0.002678,0.000431,0.000823
119028000,0.0324,0.013523,0.002678,0.000431,0.000823
119029000,0.0324,0.013523,0.002678,0.000431,0.000823
119030000,0.0324,0.013523,0.002678,0.000431,0.000823
119031000,0.0324,0.013523,0.002678,0.000431,0.000940
119032000,0.0324,0.013523,0.002678,0.000431,0.000705
119033000,0.0324,0.013523,0.002678,0.000431,0.000940
119034000,0.0324,0.013523,0.002678,0.000431,0.000823
119035000,0.0324,0.013523,0.002678,0.000431,0.000823
119036000,0.0324,0.013523,0.002678,0.000431,0.000823
119037000,0.0324,0.013523,0.002678,0.000431,0.000823
119038000,0.0324,0.013523,0.002678,0.000431,0.000823
119039000,0.0324,0.013523,0.002678,0.000431,0.000823
119040000,0.0324,0.013523,0.002678,0.000431,0.000823
119041000,0.0324,0.013523,0.002678,0.000431,0.000823
119042000,0.0324,0.013523,0.002678,0.000431,0.000940
119043000,0.0324,0.013523,0.002678,0.000431,0.000823
119044000,0.0324,0.013523,0.002678,0.000431,0.000823
119045000,0.0324,0.013523,0.002678,0.000431,0.000705
119046000,0.0324,0.013523,0.002678,0.000431,0.000940
119047000,0.0324,0.013523,0.002678,0.000431,0.000940
119048000,0.0324,0.013523,0.002678,0.000431,0.000705
119049000,0.0324,0.013523,0.002678,0.000431,0.000940
119050000,0.0324,0.013523,0.002678,0.000431,0.000705
119051000,0.0324,0.013523,0.002678,0.000431,0.000940
119052000,0.0324,0.013523,0.002678,0.000431,0.000823
119053000,0.0324,0.013523,0.002678,0.000431,0.000823
119054000,0.0324,0.013523,0.002678,0.000431,0.000940
119055000,0.0324,0.013523,0.002678,0.000431,0.000705
119056000,0.0324,0.013523,0.002678,0.000431,0.000940
119057000,0.0324,0.013523,0.002678,0.000431,0.000823
119058000,0.0324,0.013523,0.002678,0.000431,0.000823
119059000,0.0324,0.013523,0.002678,0.000431,0.000823
119060000,0.0324,0.013523,0.002678,0.000431,0.000823
119061000,0.0324,0.013523,0.002678,0.000431,0.000823
119062000,0.0324,0.013523,0.002678,0.000431,0.000823
119063000,0.0324,0.013523,0.002678,0.000431,0.000940
119064000,0.0324,0.013523,0.002678,0.000431,0.000823
119065000,0.0324,0.013523,0.002678,0.000431,0.000823
119066000,0.0324,0.013523,0.002678,0.000431,0.000823
119067000,0.0324,0.013523,0.002678,0.000431,0.000823
119068000,0.0324,0.013523,0.002678,0.000431,0.000705
119069000,0.0324,0.013523,0.002678,0.000431,0.000940
119070000,0.0324,0.013523,0.002678,0.000431,0.000940
119071000,0.0324,0.013523,0.002678,0.000431,0.000705
119072000,0.0324,0.013523,0.002678,0.000431,0.000940
119073000,0.0324,0.013523,0.002678,0.000431,0.000705
119074000,0.0324,0.013523,0.002678,0.000431,0.000940
119075000,0.0324,0.013523,0.002678,0.000431,0.000823
119076000,0.0324,0.013523,0.002678,0.000431,0.000823
119077000,0.0324,0.013523,0.002678,0.000431,0.000940
119078000,0.0324,0.013523,0.002678,0.000431,0.000705
119079000,0.0324,0.013523,0.002678,0.000431,0.000940
119080000,0.0324,0.013523,0.002678,0.000431,0.000823
119081000,0.0324,0.013523,0.002678,0.000431,0.000823
119082000,0.0324,0.013523,0.002678,0.000431,0.000823
119083000,0.0324,0.013523,0.002678,0.000431,0.000823
119084000,0.0324,0.013523,0.002678,0.000431,0.000940
119085000,0.0324,0.013523,0.002678,0.000431,0.000705
119086000,0.0324,0.013523,0.002678,0.000431,0.000940
119087000,0.0324,0.013523,0.002678,0.000431,0.000823
119088000,0.0324,0.013523,0.002678,0.000431,0.000823
119089000,0.0324,0.013523,0.002678,0.000431,0.000823
119090000,0.0324,0.013523,0.002678,0.000431,0.000823
119091000,0.0324,0.013523,0.002678,0.000431,0.000940
119092000,0.0324,0.013523,0.002678,0.000431,0.000705
119093000,0.0324,0.013523,0.002678,0.000431,0.000823
119094000,0.0324,0.013523,0.002678,0.000431,0.000940
119095000,0.0324,0.013523,0.002678,0.000431,0.000823
119096000,0.0324,0.013523,0.002678,0.000431,0.000823
119097000,0.0324,0.013523,0.002678,0.000431,0.000823
119098000,0.0324,0.013523,0.002678,0.000431,0.000823
119099000,0.0324,0.013523,0.002678,0.000431,0.000823
119100000,0.0324,0.013523,0.002678,0.000431,0.000940
119101000,0.0324,0.013523,0.002678,0.000431,0.000823
119102000,0.0324,0.013523,0.002678,0.000431,0.000823
119103000,0.0324,0.013523,0.002678,0.000431,0.000705
119104000,0.0324,0.013523,0.002678,0.000431,0.000940
119105000,0.0324,0.013523,0.002678,0.000431,0.000940
119106000,0.0324,0.013523,0.002678,0.000431,0.000705
119107000,0.0324,0.013523,0.002678,0.000431,0.000940
119108000,0.0324,0.013523,0.002678,0.000431,0.000705
119109000,0.0324,0.013523,0.002678,0.000431,0.000940
119110000,0.0324,0.013523,0.002678,0.000431,0.000823
119111000,0.0324,0.013523,0.002678,0.000431,0.000823
119112000,0.0324,0.013523,0.002678,0.000431,0.000940
119113000,0.0324,0.013523,0.002678,0.000431,0.000705
119114000,0.0324,0.013523,0.002678,0.000431,0.000940
119115000,0.0324,0.013523,0.002678,0.000431,0.000823
119116000,0.0324,0.013523,0.002678,0.000431,0.000823
119117000,0.0324,0.013523,0.002678,0.000431,0.000823
119118000,0.0324,0.013523,0.002678,0.000431,0.000823
119119000,0.0324,0.013523,0.002678,0.000431,0.000823
119120000,0.0324,0.013523,0.002678,0.000431,0.000823
119121000,0.0324,0.013523,0.002678,0.000431,0.000940
119122000,0.0324,0.013523,0.002678,0.000431,0.000823
119123000,0.0324,0.013523,0.002678,0.000431,0.000823
119124000,0.0324,0.013523,0.002678,0.000431,0.000823
119125000,0.0324,0.013523,0.002678,0.000431,0.000823
119126000,0.0324,0.013523,0.002678,0.000431,0.000823
119127000,0.0324,0.013523,0.002678,0.000431,0.000823
119128000,0.0324,0.013523,0.002678,0.000431,0.000940
119129000,0.0324,0.013523,0.002678,0.000431,0.071340
119130000,0.0324,0.013523,0.002678,0.000431,0.412289
119131000,0.0324,0.013523,0.002678,0.000431,0.603742
119132000,0.0324,0.013523,0.002678,0.000431,0.131632
119133000,0.0324,0.013523,0.002678,0.000431,0.134922
119134000,0.0324,0.013523,0.002678,0.000431,0.539924
119135000,0.0324,0.013523,0.002678,0.000431,0.254096
119136000,0.0324,0.013523,0.002678,0.000431,0.309687
119137000,0.0324,0.013523,0.002678,0.000431,0.305926
119138000,0.0324,0.013523,0.002678,0.000431,0.143854
119139000,0.0324,0.013523,0.002678,0.000431,0.139036
119140000,0.0324,0.013523,0.002678,0.000431,0.115648
119141000,0.0324,0.013523,0.002678,0.000431,0.296759
119142000,0.0324,0.013523,0.002678,0.000431,0.282890
119143000,0.0324,0.013523,0.002678,0.000431,0.023153
119144000,0.0324,0.013523,0.002678,0.000431,0.021038
119145000,0.0324,0.013523,0.002678,0.000431,0.021038
119146000,0.0324,0.013523,0.002678,0.000431,0.015044
119147000,0.0324,0.013523,0.002678,0.000431,0.012223
119148000,0.0324,0.013523,0.002678,0.000431,0.011048
119149000,0.0324,0.013523,0.002678,0.000431,0.011048
119150000,0.0324,0.013523,0.002678,0.000431,0.013281
119151000,0.0324,0.013523,0.002678,0.000431,0.010225
119152000,0.0324,0.013523,0.002678,0.000431,0.010813
119153000,0.0324,0.013523,0.002678,0.000431,0.009990
119154000,0.0324,0.013523,0.002678,0.000431,0.011048
119155000,0.0324,0.013523,0.002678,0.000431,0.011870
119156000,0.0324,0.013523,0.002678,0.000431,0.011048
119157000,0.0324,0.013523,0.002678,0.000431,0.007522
119158000,0.0324,0.013523,0.002678,0.000431,0.009285
119159000,0.0324,0.013523,0.002678,0.000431,0.007169
119160000,0.0324,0.013523,0.002678,0.000431,0.006817
119161000,0.0324,0.013523,0.002678,0.000431,0.007639
119162000,0.0324,0.013523,0.002678,0.000431,0.007052
119163000,0.0324,0.013523,0.002678,0.000431,0.008462
119164000,0.0324,0.013523,0.002678,0.000431,0.006229
119165000,0.0324,0.013523,0.002678,0.000431,0.007757
119166000,0.0324,0.013523,0.002678,0.000431,0.004936
119167000,0.0324,0.013523,0.002678,0.000431,0.005054
119168000,0.0324,0.013523,0.002678,0.000431,0.005171
119169000,0.0324,0.013523,0.002678,0.000431,0.006699
119170000,0.0324,0.013523,0.002678,0.000431,0.003996
119171000,0.0324,0.013523,0.002678,0.000431,0.003996
119172000,0.0324,0.013523,0.002678,0.000431,0.003526
119173000,0.0324,0.013523,0.002678,0.000431,0.003526
119174000,0.0324,0.013523,0.002678,0.000431,0.003291
119175000,0.0324,0.013523,0.002678,0.000431,0.003291
119176000,0.0324,0.013523,0.002678,0.000431,0.003408
119177000,0.0324,0.013523,0.002678,0.000431,0.003408
119178000,0.0324,0.013523,0.002678,0.000431,0.003291
119179000,0.0324,0.013523,0.002678,0.000431,0.003408
119180000,0.0324,0.013523,0.002678,0.000431,0.003291
119181000,0.0324,0.013523,0.002678,0.000431,0.003173
119182000,0.0324,0.013523,0.002678,0.000431,0.003526
119183000,0.0324,0.013523,0.002678,0.000431,0.003408
119184000,0.0324,0.013523,0.002678,0.000431,0.003173
119185000,0.0324,0.013523,0.002678,0.000431,0.003526
119186000,0.0324,0.013523,0.002678,0.000431,0.003173
119187000,0.0324,0.013523,0.002678,0.000431,0.003408
119188000,0.0324,0.013523,0.002678,0.000431,0.003526
119189000,0.0324,0.013523,0.002678,0.000431,0.003173
119190000,0.0324,0.013523,0.002678,0.000431,0.003408
119191000,0.0324,0.013523,0.002678,0.000431,0.003056
119192000,0.0324,0.013523,0.002678,0.000431,0.003526
119193000,0.0324,0.013523,0.002678,0.000431,0.003526
119194000,0.0324,0.013523,0.002678,0.000431,0.003291
119195000,0.0324,0.013523,0.002678,0.000431,0.005054
119196000,0.0324,0.013523,0.002678,0.000431,0.002233
119197000,0.0324,0.013523,0.002678,0.000431,0.002821
119198000,0.0324,0.013523,0.002678,0.000431,0.002468
119199000,0.0324,0.013523,0.002678,0.000431,0.002468
119200000,0.0324,0.013523,0.002678,0.000431,0.002703
119201000,0.0324,0.013523,0.002678,0.000431,0.002116
119202000,0.0324,0.013523,0.002678,0.000431,0.002821
119203000,0.0324,0.013523,0.002678,0.000431,0.002468
119204000,0.0324,0.013523,0.002678,0.000431,0.002468
119205000,0.0324,0.013523,0.002678,0.000431,0.002586
119206000,0.0324,0.013523,0.002678,0.000431,0.002351
119207000,0.0324,0.013523,0.002678,0.000431,0.002586
119208000,0.0324,0.013523,0.002678,0.000431,0.002586
119209000,0.0324,0.013523,0.002678,0.000431,0.002586
119210000,0.0324,0.013523,0.002678,0.000431,0.002351
119211000,0.0324,0.013523,0.002678,0.000431,0.002468
119212000,0.0324,0.013523,0.002678,0.000431,0.002586
119213000,0.0324,0.013523,0.002678,0.000431,0.002586
119214000,0.0324,0.013523,0.002678,0.000431,0.002351
119215000,0.0324,0.013523,0.002678,0.000431,0.002586
119216000,0.0324,0.013523,0.002678,0.000431,0.002586
119217000,0.0324,0.013523,0.002678,0.000431,0.002468
119218000,0.0324,0.013523,0.002678,0.000431,0.002586
119219000,0.0324,0.013523,0.002678,0.000431,0.002233
119220000,0.0324,0.013523,0.002678,0.000431,0.002586
119221000,0.0324,0.013523,0.002678,0.000431,0.002703
119222000,0.0324,0.013523,0.002678,0.000431,0.002468
119223000,0.0324,0.013523,0.002678,0.000431,0.002586
119224000,0.0324,0.013523,0.002678,0.000431,0.002351
119225000,0.0324,0.013523,0.002678,0.000431,0.002586
119226000,0.0324,0.013523,0.002678,0.000431,0.002586
119227000,0.0324,0.013523,0.002678,0.000431,0.002468
119228000,0.0324,0.013523,0.002678,0.000431,0.002468
119229000,0.0324,0.013523,0.002678,0.000431,0.002586
119230000,0.0324,0.013523,0.002678,0.000431,0.002468
119231000,0.0324,0.013523,0.002678,0.000431,0.002468
119232000,0.0324,0.013523,0.002678,0.000431,0.002703
119233000,0.0324,0.013523,0.002678,0.000431,0.002351
119234000,0.0324,0.013523,0.002678,0.000431,0.002468
119235000,0.0324,0.013523,0.002678,0.000431,0.002586
119236000,0.0324,0.013523,0.002678,0.000431,0.002468
119237000,0.0324,0.013523,0.002678,0.000431,0.002468
119238000,0.0324,0.013523,0.002678,0.000431,0.002586
119239000,0.0324,0.013523,0.002678,0.000431,0.002233
119240000,0.0324,0.013523,0.002678,0.000431,0.002586
119241000,0.0324,0.013523,0.002678,0.000431,0.002821
119242000,0.0324,0.013523,0.002678,0.000431,0.002468
119243000,0.0324,0.013523,0.002678,0.000431,0.002468
119244000,0.0324,0.013523,0.002678,0.000431,0.002233
119245000,0.0324,0.013523,0.002678,0.000431,0.002586
119246000,0.0324,0.013523,0.002678,0.000431,0.002821
119247000,0.0324,0.013523,0.002678,0.000431,0.002351
119248000,0.0324,0.013523,0.002678,0.000431,0.002586
119249000,0.0324,0.013523,0.002678,0.000431,0.002351
119250000,0.0324,0.013523,0.002678,0.000431,0.002586
119251000,0.0324,0.013523,0.002678,0.000431,0.002586
119252000,0.0324,0.013523,0.002678,0.000431,0.002586
119253000,0.0324,0.013523,0.002678,0.000431,0.002468
119254000,0.0324,0.013523,0.002678,0.000431,0.002468
119255000,0.0324,0.013523,0.002678,0.000431,0.002586
119256000,0.0324,0.013523,0.002678,0.000431,0.002586
119257000,0.0324,0.013523,0.002678,0.000431,0.002468
119258000,0.0324,0.013523,0.002678,0.000431,0.002468
119259000,0.0324,0.013523,0.002678,0.000431,0.002468
119260000,0.0324,0.013523,0.002678,0.000431,0.002468
119261000,0.0324,0.013523,0.002678,0.000431,0.002586
119262000,0.0324,0.013523,0.002678,0.000431,0.002586
119263000,0.0324,0.013523,0.002678,0.000431,0.002351
119264000,0.0324,0.013523,0.002678,0.000431,0.002703
119265000,0.0324,0.013523,0.002678,0.000431,0.004584
119266000,0.0324,0.013523,0.002678,0.000431,0.001763
119267000,0.0324,0.013523,0.002678,0.000431,0.001410
119268000,0.0324,0.013523,0.002678,0.000431,0.002703
119269000,0.0324,0.013523,0.002678,0.000431,0.002116
119270000,0.0324,0.013523,0.002678,0.000431,0.000705
119271000,0.0324,0.013523,0.002678,0.000431,0.000940
119272000,0.0324,0.013523,0.002678,0.000431,0.000705
119273000,0.0324,0.013523,0.002678,0.000431,0.000940
119274000,0.0324,0.013523,0.002678,0.000431,0.000823
119275000,0.0324,0.013523,0.002678,0.000431,0.000823
119276000,0.0324,0.013523,0.002678,0.000431,0.000940
119277000,0.0324,0.013523,0.002678,0.000431,0.000705
119278000,0.0324,0.013523,0.002678,0.000431,0.000940
119279000,0.0324,0.013523,0.002678,0.000431,0.000823
119280000,0.0324,0.013523,0.002678,0.000431,0.000823
119281000,0.0324,0.013523,0.002678,0.000431,0.000823
119282000,0.0324,0.013523,0.002678,0.000431,0.000823
119283000,0.0324,0.013523,0.002678,0.000431,0.000940
119284000,0.0324,0.013523,0.002678,0.000431,0.000705
119285000,0.0324,0.013523,0.002678,0.000431,0.000940
119286000,0.0324,0.013523,0.002678,0.000431,0.000823
119287000,0.0324,0.013523,0.002678,0.000431,0.000705
119288000,0.0324,0.013523,0.002678,0.000431,0.000940
119289000,0.0324,0.013523,0.002678,0.000431,0.000823
119290000,0.0324,0.013523,0.002678,0.000431,0.000823
119291000,0.0324,0.013523,0.002678,0.000431,0.000823
119292000,0.0324,0.013523,0.002678,0.000431,0.000823
119293000,0.0324,0.013523,0.002678,0.000431,0.000823
119294000,0.0324,0.013523,0.002678,0.000431,0.000940
119295000,0.0324,0.013523,0.002678,0.000431,0.000823
119296000,0.0324,0.013523,0.002678,0.000431,0.000823
119297000,0.0324,0.013523,0.002678,0.000431,0.000705
119298000,0.0324,0.013523,0.002678,0.000431,0.000940
119299000,0.0324,0.013523,0.002678,0.000431,0.000940
119300000,0.0324,0.013523,0.002678,0.000431,0.000705
119301000,0.0324,0.013523,0.002678,0.000431,0.000940
119302000,0.0324,0.013523,0.002678,0.000431,0.000705
119303000,0.0324,0.013523,0.002678,0.000431,0.000940
119304000,0.0324,0.013523,0.002678,0.000431,0.000823
119305000,0.0324,0.013523,0.002678,0.000431,0.000823
119306000,0.0324,0.013523,0.002678,0.000431,0.000940
119307000,0.0324,0.013523,0.002678,0.000431,0.000705
119308000,0.0324,0.013523,0.002678,0.000431,0.000940
119309000,0.0324,0.013523,0.002678,0.000431,0.000705
119310000,0.0324,0.013523,0.002678,0.000431,0.000940
119311000,0.0324,0.013523,0.002678,0.000431,0.000823
119312000,0.0324,0.013523,0.002678,0.000431,0.000823
119313000,0.0324,0.013523,0.002678,0.000431,0.000823
119314000,0.0324,0.013523,0.002678,0.000431,0.000823
119315000,0.0324,0.013523,0.002678,0.000431,0.000940
119316000,0.0324,0.013523,0.002678,0.000431,0.000705
119317000,0.0324,0.013523,0.002678,0.000431,0.000940
119318000,0.0324,0.013523,0.002678,0.000431,0.000823
119319000,0.0324,0.013523,0.002678,0.000431,0.000823
119320000,0.0324,0.013523,0.002678,0.000431,0.000705
119321000,0.0324,0.013523,0.002678,0.000431,0.000940
119322000,0.0324,0.013523,0.002678,0.000431,0.000940
119323000,0.0324,0.013523,0.002678,0.000431,0.000705
119324000,0.0324,0.013523,0.002678,0.000431,0.000940
119325000,0.0324,0.013523,0.002678,0.000431,0.000705
119326000,0.0324,0.013523,0.002678,0.000431,0.000940
119327000,0.0324,0.013523,0.002678,0.000431,0.000823
119328000,0.0324,0.013523,0.002678,0.000431,0.000823
119329000,0.0324,0.013523,0.002678,0.000431,0.000823
119330000,0.0324,0.013523,0.002678,0.000431,0.000823
119331000,0.0324,0.013523,0.002678,0.000431,0.000940
119332000,0.0324,0.013523,0.002678,0.000431,0.000823
119333000,0.0324,0.013523,0.002678,0.000431,0.000823
119334000,0.0324,0.013523,0.002678,0.000431,0.000823
119335000,0.0324,0.013523,0.002678,0.000431,0.000823
119336000,0.0324,0.013523,0.002678,0.000431,0.000823
119337000,0.0324,0.013523,0.002678,0.000431,0.000823
119338000,0.0324,0.013523,0.002678,0.000431,0.000940
119339000,0.0324,0.013523,0.002678,0.000431,0.000705
119340000,0.0324,0.013523,0.002678,0.000431,0.000823
119341000,0.0324,0.013523,0.002678,0.000431,0.000940
119342000,0.0324,0.013523,0.002678,0.000431,0.000823
119343000,0.0324,0.013523,0.002678,0.000431,0.000823
119344000,0.0324,0.013523,0.002678,0.000431,0.000823
119345000,0.0324,0.013523,0.002678,0.000431,0.000823
119346000,0.0324,0.013523,0.002678,0.000431,0.000823
119347000,0.0324,0.013523,0.002678,0.000431,0.000940
119348000,0.0324,0.013523,0.002678,0.000431,0.000705
119349000,0.0324,0.013523,0.002678,0.000431,0.000940
119350000,0.0324,0.013523,0.002678,0.000431,0.000705
119351000,0.0324,0.013523,0.002678,0.000431,0.000940
119352000,0.0324,0.013523,0.002678,0.000431,0.000823
119353000,0.0324,0.013523,0.002678,0.000431,0.000823
119354000,0.0324,0.013523,0.002678,0.000431,0.000940
119355000,0.0324,0.013523,0.002678,0.000431,0.000705
119356000,0.0324,0.013523,0.002678,0.000431,0.000940
119357000,0.0324,0.013523,0.002678,0.000431,0.000823
119358000,0.0324,0.013523,0.002678,0.000431,0.000823
119359000,0.0324,0.013523,0.002678,0.000431,0.000823
119360000,0.0324,0.013523,0.002678,0.000431,0.000823
119361000,0.0324,0.013523,0.002678,0.000431,0.000823
119362000,0.0324,0.013523,0.002678,0.000431,0.000823
119363000,0.0324,0.013523,0.002678,0.000431,0.000940
119364000,0.0324,0.013523,0.002678,0.000431,0.000705
119365000,0.0324,0.013523,0.002678,0.000431,0.000940
119366000,0.0324,0.013523,0.002678,0.000431,0.000823
119367000,0.0324,0.013523,0.002678,0.000431,0.000823
119368000,0.0324,0.013523,0.002678,0.000431,0.000705
119369000,0.0324,0.013523,0.002678,0.000431,0.000940
119370000,0.0324,0.013523,0.002678,0.000431,0.000823
119371000,0.0324,0.013523,0.002678,0.000431,0.000823
119372000,0.0324,0.013523,0.002678,0.000431,0.000823
119373000,0.0324,0.013523,0.002678,0.000431,0.000823
119374000,0.0324,0.013523,0.002678,0.000431,0.000823
119375000,0.0324,0.013523,0.002678,0.000431,0.000823
119376000,0.0324,0.013523,0.002678,0.000431,0.000940
119377000,0.0324,0.013523,0.002678,0.000431,0.000823
119378000,0.0324,0.013523,0.002678,0.000431,0.000823
119379000,0.0324,0.013523,0.002678,0.000431,0.000705
119380000,0.0324,0.013523,0.002678,0.000431,0.000940
119381000,0.0324,0.013523,0.002678,0.000431,0.000940
119382000,0.0324,0.013523,0.002678,0.000431,0.000705
119383000,0.0324,0.013523,0.002678,0.000431,0.000940
119384000,0.0324,0.013523,0.002678,0.000431,0.000705
119385000,0.0324,0.013523,0.002678,0.000431,0.000940
119386000,0.0324,0.013523,0.002678,0.000431,0.000823
119387000,0.0324,0.013523,0.002678,0.000431,0.000823
119388000,0.0324,0.013523,0.002678,0.000431,0.000940
119389000,0.0324,0.013523,0.002678,0.000431,0.000705
119390000,0.0324,0.013523,0.002678,0.000431,0.000940
119391000,0.0324,0.013523,0.002678,0.000431,0.000823
119392000,0.0324,0.013523,0.002678,0.000431,0.000823
119393000,0.0324,0.013523,0.002678,0.000431,0.000823
119394000,0.0324,0.013523,0.002678,0.000431,0.000823
119395000,0.0324,0.013523,0.002678,0.000431,0.000940
119396000,0.0324,0.013523,0.002678,0.000431,0.000705
119397000,0.0324,0.013523,0.002678,0.000431,0.000940
119398000,0.0324,0.013523,0.002678,0.000431,0.000823
119399000,0.0324,0.013523,0.002678,0.000431,0.000823
119400000,0.0324,0.013523,0.002678,0.000431,0.000823
119401000,0.0324,0.013523,0.002678,0.000431,0.000823
119402000,0.0324,0.013523,0.002678,0.000431,0.000940
119403000,0.0324,0.013523,0.002678,0.000431,0.000705
119404000,0.0324,0.013523,0.002678,0.000431,0.000940
119405000,0.0324,0.013523,0.002678,0.000431,0.000823
119406000,0.0324,0.013523,0.002678,0.000431,0.000823
119407000,0.0324,0.013523,0.002678,0.000431,0.000705
119408000,0.0324,0.013523,0.002678,0.000431,0.000940
119409000,0.0324,0.013523,0.002678,0.000431,0.000940
119410000,0.0324,0.013523,0.002678,0.000431,0.000705
119411000,0.0324,0.013523,0.002678,0.000431,0.000940
119412000,0.0324,0.013523,0.002678,0.000431,0.000705
119413000,0.0324,0.013523,0.002678,0.000431,0.000940
119414000,0.0324,0.013523,0.002678,0.000431,0.000823
119415000,0.0324,0.013523,0.002678,0.000431,0.000823
119416000,0.0324,0.013523,0.002678,0.000431,0.000940
119417000,0.0324,0.013523,0.002678,0.000431,0.000705
119418000,0.0324,0.013523,0.002678,0.000431,0.000940
119419000,0.0324,0.013523,0.002678,0.000431,0.000823
119420000,0.0324,0.013523,0.002678,0.000431,0.000823
119421000,0.0324,0.013523,0.002678,0.000431,0.000823
119422000,0.0324,0.013523,0.002678,0.000431,0.000823
119423000,0.0324,0.013523,0.002678,0.000431,0.000940
119424000,0.0324,0.013523,0.002678,0.000431,0.000705
119425000,0.0324,0.013523,0.002678,0.000431,0.000940
119426000,0.0324,0.013523,0.002678,0.000431,0.000823
119427000,0.0324,0.013523,0.002678,0.000431,0.000823
119428000,0.0324,0.013523,0.002678,0.000431,0.000823
119429000,0.0324,0.013523,0.002678,0.000431,0.000823
119430000,0.0324,0.013523,0.002678,0.000431,0.000823
119431000,0.0324,0.013523,0.002678,0.000431,0.000823
119432000,0.0324,0.013523,0.002678,0.000431,0.000823
119433000,0.0324,0.013523,0.002678,0.000431,0.000940
119434000,0.0324,0.013523,0.002678,0.000431,0.000823
119435000,0.0324,0.013523,0.002678,0.000431,0.000823
119436000,0.0324,0.013523,0.002678,0.000431,0.000823
119437000,0.0324,0.013523,0.002678,0.000431,0.000705
119438000,0.0324,0.013523,0.002678,0.000431,0.000940
119439000,0.0324,0.013523,0.002678,0.000431,0.000940
119440000,0.0324,0.013523,0.002678,0.000431,0.000705
119441000,0.0324,0.013523,0.002678,0.000431,0.000940
119442000,0.0324,0.013523,0.002678,0.000431,0.000705
119443000,0.0324,0.013523,0.002678,0.000431,0.000940
119444000,0.0324,0.013523,0.002678,0.000431,0.000823
119445000,0.0324,0.013523,0.002678,0.000431,0.000823
119446000,0.0324,0.013523,0.002678,0.000431,0.000940
119447000,0.0324,0.013523,0.002678,0.000431,0.000705
119448000,0.0324,0.013523,0.002678,0.000431,0.000940
119449000,0.0324,0.013523,0.002678,0.000431,0.000823
119450000,0.0324,0.013523,0.002678,0.000431,0.000823
119451000,0.0324,0.013523,0.002678,0.000431,0.000823
119452000,0.0324,0.013523,0.002678,0.000431,0.000823
119453000,0.0324,0.013523,0.002678,0.000431,0.000940
119454000,0.0324,0.013523,0.002678,0.000431,0.000705
119455000,0.0324,0.013523,0.002678,0.000431,0.000940
119456000,0.0324,0.013523,0.002678,0.000431,0.000823
119457000,0.0324,0.013523,0.002678,0.000431,0.000823
119458000,0.0324,0.013523,0.002678,0.000431,0.000823
119459000,0.0324,0.013523,0.002678,0.000431,0.000823
119460000,0.0324,0.013523,0.002678,0.000431,0.000705
119461000,0.0324,0.013523,0.002678,0.000431,0.000940
119462000,0.0324,0.013523,0.002678,0.000431,0.000940
119463000,0.0324,0.013523,0.002678,0.000431,0.000705
119464000,0.0324,0.013523,0.002678,0.000431,0.000940
119465000,0.0324,0.013523,0.002678,0.000431,0.000705
119466000,0.0324,0.013523,0.002678,0.000431,0.000940
119467000,0.0324,0.013523,0.002678,0.000431,0.000940
119468000,0.0324,0.013523,0.002678,0.000431,0.000705
119469000,0.0324,0.013523,0.002678,0.000431,0.000940
119470000,0.0324,0.013523,0.002678,0.000431,0.000705
119471000,0.0324,0.013523,0.002678,0.000431,0.000940
119472000,0.0324,0.013523,0.002678,0.000431,0.000823
119473000,0.0324,0.013523,0.002678,0.000431,0.000823
119474000,0.0324,0.013523,0.002678,0.000431,0.000823
119475000,0.0324,0.013523,0.002678,0.000431,0.000823
119476000,0.0324,0.013523,0.002678,0.000431,0.000823
119477000,0.0324,0.013523,0.002678,0.000431,0.000823
119478000,0.0324,0.013523,0.002678,0.000431,0.000940
119479000,0.0324,0.013523,0.002678,0.000431,0.000705
119480000,0.0324,0.013523,0.002678,0.000431,0.000823
119481000,0.0324,0.013523,0.002678,0.000431,0.000823
119482000,0.0324,0.013523,0.002678,0.000431,0.000940
119483000,0.0324,0.013523,0.002678,0.000431,0.000823
119484000,0.0324,0.013523,0.002678,0.000431,0.000823
119485000,0.0324,0.013523,0.002678,0.000431,0.000705
119486000,0.0324,0.013523,0.002678,0.000431,0.000940
119487000,0.0324,0.013523,0.002678,0.000431,0.000940
119488000,0.0324,0.013523,0.002678,0.000431,0.000705
119489000,0.0324,0.013523,0.002678,0.000431,0.000940
119490000,0.0324,0.013523,0.002678,0.000431,0.000705
119491000,0.0324,0.013523,0.002678,0.000431,0.000940
119492000,0.0324,0.013523,0.002678,0.000431,0.000823
119493000,0.0324,0.013523,0.002678,0.000431,0.000823
119494000,0.0324,0.013523,0.002678,0.000431,0.000940
119495000,0.0324,0.013523,0.002678,0.000431,0.000705
119496000,0.0324,0.013523,0.002678,0.000431,0.000940
119497000,0.0324,0.013523,0.002678,0.000431,0.000823
119498000,0.0324,0.013523,0.002678,0.000431,0.000823
119499000,0.0324,0.013523,0.002678,0.000431,0.000823
119500000,0.0324,0.013523,0.002678,0.000431,0.000823
119501000,0.0324,0.013523,0.002678,0.000431,0.000823
119502000,0.0324,0.013523,0.002678,0.000431,0.000823
119503000,0.0324,0.013523,0.002678,0.000431,0.000940
119504000,0.0324,0.013523,0.002678,0.000431,0.000823
119505000,0.0324,0.013523,0.002678,0.000431,0.000823
119506000,0.0324,0.013523,0.002678,0.000431,0.000823
119507000,0.0324,0.013523,0.002678,0.000431,0.000823
119508000,0.0324,0.013523,0.002678,0.000431,0.000705
119509000,0.0324,0.013523,0.002678,0.000431,0.000940
119510000,0.0324,0.013523,0.002678,0.000431,0.000940
119511000,0.0324,0.013523,0.002678,0.000431,0.000705
119512000,0.0324,0.013523,0.002678,0.000431,0.000940
119513000,0.0324,0.013523,0.002678,0.000431,0.000705
119514000,0.0324,0.013523,0.002678,0.000431,0.000940
119515000,0.0324,0.013523,0.002678,0.000431,0.000823
119516000,0.0324,0.013523,0.002678,0.000431,0.000823
119517000,0.0324,0.013523,0.002678,0.000431,0.000940
119518000,0.0324,0.013523,0.002678,0.000431,0.000705
119519000,0.0324,0.013523,0.002678,0.000431,0.000940
119520000,0.0324,0.013523,0.002678,0.000431,0.000823
119521000,0.0324,0.013523,0.002678,0.000431,0.000823
119522000,0.0324,0.013523,0.002678,0.000431,0.000823
119523000,0.0324,0.013523,0.002678,0.000431,0.000823
119524000,0.0324,0.013523,0.002678,0.000431,0.014691
119525000,0.0324,0.013523,0.002678,0.000431,0.441436
119526000,0.0324,0.013523,0.002678,0.000431,0.591519
119527000,0.0324,0.013523,0.002678,0.000431,0.134922
119528000,0.0324,0.013523,0.002678,0.000431,0.130221
119529000,0.0324,0.013523,0.002678,0.000431,0.258562
119530000,0.0324,0.013523,0.002678,0.000431,0.513363
119531000,0.0324,0.013523,0.002678,0.000431,0.281010
119532000,0.0324,0.013523,0.002678,0.000431,0.311332
119533000,0.0324,0.013523,0.002678,0.000431,0.195449
119534000,0.0324,0.013523,0.002678,0.000431,0.135392
119535000,0.0324,0.013523,0.002678,0.000431,0.145030
119536000,0.0324,0.013523,0.002678,0.000431,0.216722
119537000,0.0324,0.013523,0.002678,0.000431,0.357168
119538000,0.0324,0.013523,0.002678,0.000431,0.038902
119539000,0.0324,0.013523,0.002678,0.000431,0.030792
119540000,0.0324,0.013523,0.002678,0.000431,0.032085
119541000,0.0324,0.013523,0.002678,0.000431,0.023153
119542000,0.0324,0.013523,0.002678,0.000431,0.024563
119543000,0.0324,0.013523,0.002678,0.000431,0.021038
119544000,0.0324,0.013523,0.002678,0.000431,0.020920
119545000,0.0324,0.013523,0.002678,0.000431,0.021743
119546000,0.0324,0.013523,0.002678,0.000431,0.019392
119547000,0.0324,0.013523,0.002678,0.000431,0.022213
119548000,0.0324,0.013523,0.002678,0.000431,0.018452
119549000,0.0324,0.013523,0.002678,0.000431,0.019862
119550000,0.0324,0.013523,0.002678,0.000431,0.019627
119551000,0.0324,0.013523,0.002678,0.000431,0.017512
119552000,0.0324,0.013523,0.002678,0.000431,0.018687
119553000,0.0324,0.013523,0.002678,0.000431,0.018569
119554000,0.0324,0.013523,0.002678,0.000431,0.017277
119555000,0.0324,0.013523,0.002678,0.000431,0.017747
119556000,0.0324,0.013523,0.002678,0.000431,0.017159
119557000,0.0324,0.013523,0.002678,0.000431,0.019627
119558000,0.0324,0.013523,0.002678,0.000431,0.017512
119559000,0.0324,0.013523,0.002678,0.000431,0.016219
119560000,0.0324,0.013523,0.002678,0.000431,0.016571
119561000,0.0324,0.013523,0.002678,0.000431,0.014926
119562000,0.0324,0.013523,0.002678,0.000431,0.015984
119563000,0.0324,0.013523,0.002678,0.000431,0.015044
119564000,0.0324,0.013523,0.002678,0.000431,0.015631
119565000,0.0324,0.013523,0.002678,0.000431,0.016336
119566000,0.0324,0.013523,0.002678,0.000431,0.014926
119567000,0.0324,0.013523,0.002678,0.000431,0.015984
119568000,0.0324,0.013523,0.002678,0.000431,0.015279
119569000,0.0324,0.013523,0.002678,0.000431,0.015631
119570000,0.0324,0.013523,0.002678,0.000431,0.017159
119571000,0.0324,0.013523,0.002678,0.000431,0.015631
119572000,0.0324,0.013523,0.002678,0.000431,0.013633
119573000,0.0324,0.013523,0.002678,0.000431,0.015866
119574000,0.0324,0.013523,0.002678,0.000431,0.012928
119575000,0.0324,0.013523,0.002678,0.000431,0.013633
119576000,0.0324,0.013523,0.002678,0.000431,0.013046
119577000,0.0324,0.013523,0.002678,0.000431,0.012928
119578000,0.0324,0.013523,0.002678,0.000431,0.013633
119579000,0.0324,0.013523,0.002678,0.000431,0.012693
119580000,0.0324,0.013523,0.002678,0.000431,0.013868
119581000,0.0324,0.013523,0.002678,0.000431,0.012576
119582000,0.0324,0.013523,0.002678,0.000431,0.013281
119583000,0.0324,0.013523,0.002678,0.000431,0.014573
119584000,0.0324,0.013523,0.002678,0.000431,0.013398
119585000,0.0324,0.013523,0.002678,0.000431,0.011165
119586000,0.0324,0.013523,0.002678,0.000431,0.010695
119587000,0.0324,0.013523,0.002678,0.000431,0.010578
119588000,0.0324,0.013523,0.002678,0.000431,0.011165
119589000,0.0324,0.013523,0.002678,0.000431,0.010225
119590000,0.0324,0.013523,0.002678,0.000431,0.011165
119591000,0.0324,0.013523,0.002678,0.000431,0.010460
119592000,0.0324,0.013523,0.002678,0.000431,0.010460
119593000,0.0324,0.013523,0.002678,0.000431,0.013281
119594000,0.0324,0.013523,0.002678,0.000431,0.010342
119595000,0.0324,0.013523,0.002678,0.000431,0.010107
119596000,0.0324,0.013523,0.002678,0.000431,0.009285
119597000,0.0324,0.013523,0.002678,0.000431,0.008697
119598000,0.0324,0.013523,0.002678,0.000431,0.009167
119599000,0.0324,0.013523,0.002678,0.000431,0.008932
119600000,0.0324,0.013523,0.002678,0.000431,0.008697
119601000,0.0324,0.013523,0.002678,0.000431,0.009637
119602000,0.0324,0.013523,0.002678,0.000431,0.008462
119603000,0.0324,0.013523,0.002678,0.000431,0.009402
119604000,0.0324,0.013523,0.002678,0.000431,0.009637
119605000,0.0324,0.013523,0.002678,0.000431,0.007169
119606000,0.0324,0.013523,0.002678,0.000431,0.007522
119607000,0.0324,0.013523,0.002678,0.000431,0.007404
119608000,0.0324,0.013523,0.002678,0.000431,0.007757
119609000,0.0324,0.013523,0.002678,0.000431,0.007052
119610000,0.0324,0.013523,0.002678,0.000431,0.007522
119611000,0.0324,0.013523,0.002678,0.000431,0.007287
119612000,0.0324,0.013523,0.002678,0.000431,0.007522
119613000,0.0324,0.013523,0.002678,0.000431,0.007639
119614000,0.0324,0.013523,0.002678,0.000431,0.007287
119615000,0.0324,0.013523,0.002678,0.000431,0.007052
119616000,0.0324,0.013523,0.002678,0.000431,0.008697
119617000,0.0324,0.013523,0.002678,0.000431,0.007404
119618000,0.0324,0.013523,0.002678,0.000431,0.006464
119619000,0.0324,0.013523,0.002678,0.000431,0.006699
119620000,0.0324,0.013523,0.002678,0.000431,0.006111
119621000,0.0324,0.013523,0.002678,0.000431,0.006934
119622000,0.0324,0.013523,0.002678,0.000431,0.006229
119623000,0.0324,0.013523,0.002678,0.000431,0.006582
119624000,0.0324,0.013523,0.002678,0.000431,0.007052
119625000,0.0324,0.013523,0.002678,0.000431,0.006111
119626000,0.0324,0.013523,0.002678,0.000431,0.010813
119627000,0.0324,0.013523,0.002678,0.000431,0.004701
119628000,0.0324,0.013523,0.002678,0.000431,0.004936
119629000,0.0324,0.013523,0.002678,0.000431,0.004936
119630000,0.0324,0.013523,0.002678,0.000431,0.005171
119631000,0.0324,0.013523,0.002678,0.000431,0.004819
119632000,0.0324,0.013523,0.002678,0.000431,0.005054
119633000,0.0324,0.013523,0.002678,0.000431,0.004819
119634000,0.0324,0.013523,0.002678,0.000431,0.004936
119635000,0.0324,0.013523,0.002678,0.000431,0.005171
119636000,0.0324,0.013523,0.002678,0.000431,0.004584
119637000,0.0324,0.013523,0.002678,0.000431,0.005524
119638000,0.0324,0.013523,0.002678,0.000431,0.004466
119639000,0.0324,0.013523,0.002678,0.000431,0.005289
119640000,0.0324,0.013523,0.002678,0.000431,0.004701
119641000,0.0324,0.013523,0.002678,0.000431,0.005171
119642000,0.0324,0.013523,0.002678,0.000431,0.005171
119643000,0.0324,0.013523,0.002678,0.000431,0.004466
119644000,0.0324,0.013523,0.002678,0.000431,0.005641
119645000,0.0324,0.013523,0.002678,0.000431,0.004466
119646000,0.0324,0.013523,0.002678,0.000431,0.005289
119647000,0.0324,0.013523,0.002678,0.000431,0.004819
119648000,0.0324,0.013523,0.002678,0.000431,0.004936
119649000,0.0324,0.013523,0.002678,0.000431,0.005171
119650000,0.0324,0.013523,0.002678,0.000431,0.004701
119651000,0.0324,0.013523,0.002678,0.000431,0.004936
119652000,0.0324,0.013523,0.002678,0.000431,0.005054
119653000,0.0324,0.013523,0.002678,0.000431,0.005289
119654000,0.0324,0.013523,0.002678,0.000431,0.004936
119655000,0.0324,0.013523,0.002678,0.000431,0.004936
119656000,0.0324,0.013523,0.002678,0.000431,0.004819
119657000,0.0324,0.013523,0.002678,0.000431,0.005054
119658000,0.0324,0.013523,0.002678,0.000431,0.005406
119659000,0.0324,0.013523,0.002678,0.000431,0.004701
119660000,0.0324,0.013523,0.002678,0.000431,0.005406
119661000,0.0324,0.013523,0.002678,0.000431,0.004584
119662000,0.0324,0.013523,0.002678,0.000431,0.005289
119663000,0.0324,0.013523,0.002678,0.000431,0.005171
119664000,0.0324,0.013523,0.002678,0.000431,0.004819
119665000,0.0324,0.013523,0.002678,0.000431,0.005054
119666000,0.0324,0.013523,0.002678,0.000431,0.004936
119667000,0.0324,0.013523,0.002678,0.000431,0.005406
119668000,0.0324,0.013523,0.002678,0.000431,0.004819
119669000,0.0324,0.013523,0.002678,0.000431,0.005171
119670000,0.0324,0.013523,0.002678,0.000431,0.004701
119671000,0.0324,0.013523,0.002678,0.000431,0.005171
119672000,0.0324,0.013523,0.002678,0.000431,0.005289
119673000,0.0324,0.013523,0.002678,0.000431,0.004936
119674000,0.0324,0.013523,0.002678,0.000431,0.005054
119675000,0.0324,0.013523,0.002678,0.000431,0.004819
119676000,0.0324,0.013523,0.002678,0.000431,0.005289
119677000,0.0324,0.013523,0.002678,0.000431,0.005054
119678000,0.0324,0.013523,0.002678,0.000431,0.004936
119679000,0.0324,0.013523,0.002678,0.000431,0.005054
119680000,0.0324,0.013523,0.002678,0.000431,0.005171
119681000,0.0324,0.013523,0.002678,0.000431,0.004819
119682000,0.0324,0.013523,0.002678,0.000431,0.004936
119683000,0.0324,0.013523,0.002678,0.000431,0.005524
119684000,0.0324,0.013523,0.002678,0.000431,0.004936
119685000,0.0324,0.013523,0.002678,0.000431,0.004819
119686000,0.0324,0.013523,0.002678,0.000431,0.004936
119687000,0.0324,0.013523,0.002678,0.000431,0.005289
119688000,0.0324,0.013523,0.002678,0.000431,0.005054
119689000,0.0324,0.013523,0.002678,0.000431,0.004701
119690000,0.0324,0.013523,0.002678,0.000431,0.005524
119691000,0.0324,0.013523,0.002678,0.000431,0.004701
119692000,0.0324,0.013523,0.002678,0.000431,0.005289
119693000,0.0324,0.013523,0.002678,0.000431,0.005054
119694000,0.0324,0.013523,0.002678,0.000431,0.005054
119695000,0.0324,0.013523,0.002678,0.000431,0.004819
119696000,0.0324,0.013523,0.002678,0.000431,0.005054
119697000,0.0324,0.013523,0.002678,0.000431,0.005406
119698000,0.0324,0.013523,0.002678,0.000431,0.004819
119699000,0.0324,0.013523,0.002678,0.000431,0.005171
119700000,0.0324,0.013523,0.002678,0.000431,0.004819
119701000,0.0324,0.013523,0.002678,0.000431,0.005171
119702000,0.0324,0.013523,0.002678,0.000431,0.004936
119703000,0.0324,0.013523,0.002678,0.000431,0.004819
119704000,0.0324,0.013523,0.002678,0.000431,0.005524
119705000,0.0324,0.013523,0.002678,0.000431,0.004936
119706000,0.0324,0.013523,0.002678,0.000431,0.005054
119707000,0.0324,0.013523,0.002678,0.000431,0.004819
119708000,0.0324,0.013523,0.002678,0.000431,0.006934
119709000,0.0324,0.013523,0.002678,0.000431,0.004231
119710000,0.0324,0.013523,0.002678,0.000431,0.003996
119711000,0.0324,0.013523,0.002678,0.000431,0.004349
119712000,0.0324,0.013523,0.002678,0.000431,0.004113
119713000,0.0324,0.013523,0.002678,0.000431,0.004466
119714000,0.0324,0.013523,0.002678,0.000431,0.003526
119715000,0.0324,0.013523,0.002678,0.000431,0.004584
119716000,0.0324,0.013523,0.002678,0.000431,0.004231
119717000,0.0324,0.013523,0.002678,0.000431,0.003878
119718000,0.0324,0.013523,0.002678,0.000431,0.004231
119719000,0.0324,0.013523,0.002678,0.000431,0.004231
119720000,0.0324,0.013523,0.002678,0.000431,0.005876
119721000,0.0324,0.013523,0.002678,0.000431,0.002351
119722000,0.0324,0.013523,0.002678,0.000431,0.002586
119723000,0.0324,0.013523,0.002678,0.000431,0.002468
119724000,0.0324,0.013523,0.002678,0.000431,0.002468
119725000,0.0324,0.013523,0.002678,0.000431,0.002703
119726000,0.0324,0.013523,0.002678,0.000431,0.002351
119727000,0.0324,0.013523,0.002678,0.000431,0.004701
119728000,0.0324,0.013523,0.002678,0.000431,0.001645
119729000,0.0324,0.013523,0.002678,0.000431,0.001645
119730000,0.0324,0.013523,0.002678,0.000431,0.001645
119731000,0.0324,0.013523,0.002678,0.000431,0.001645
119732000,0.0324,0.013523,0.002678,0.000431,0.001763
119733000,0.0324,0.013523,0.002678,0.000431,0.001528
119734000,0.0324,0.013523,0.002678,0.000431,0.001645
119735000,0.0324,0.013523,0.002678,0.000431,0.001763
119736000,0.0324,0.013523,0.002678,0.000431,0.001763
119737000,0.0324,0.013523,0.002678,0.000431,0.001645
119738000,0.0324,0.013523,0.002678,0.000431,0.001645
119739000,0.0324,0.013523,0.002678,0.000431,0.001528
119740000,0.0324,0.013523,0.002678,0.000431,0.001763
119741000,0.0324,0.013523,0.002678,0.000431,0.001880
119742000,0.0324,0.013523,0.002678,0.000431,0.001528
119743000,0.0324,0.013523,0.002678,0.000431,0.001763
119744000,0.0324,0.013523,0.002678,0.000431,0.001410
119745000,0.0324,0.013523,0.002678,0.000431,0.001880
119746000,0.0324,0.013523,0.002678,0.000431,0.001880
119747000,0.0324,0.013523,0.002678,0.000431,0.001410
119748000,0.0324,0.013523,0.002678,0.000431,0.002703
119749000,0.0324,0.013523,0.002678,0.000431,0.000940
119750000,0.0324,0.013523,0.002678,0.000431,0.000705
119751000,0.0324,0.013523,0.002678,0.000431,0.000940
119752000,0.0324,0.013523,0.002678,0.000431,0.000705
119753000,0.0324,0.013523,0.002678,0.000431,0.000940
119754000,0.0324,0.013523,0.002678,0.000431,0.000823
119755000,0.0324,0.013523,0.002678,0.000431,0.000823
119756000,0.0324,0.013523,0.002678,0.000431,0.000940
119757000,0.0324,0.013523,0.002678,0.000431,0.000705
119758000,0.0324,0.013523,0.002678,0.000431,0.000940
119759000,0.0324,0.013523,0.002678,0.000431,0.000823
119760000,0.0324,0.013523,0.002678,0.000431,0.000823
119761000,0.0324,0.013523,0.002678,0.000431,0.000823
119762000,0.0324,0.013523,0.002678,0.000431,0.000823
119763000,0.0324,0.013523,0.002678,0.000431,0.000823
119764000,0.0324,0.013523,0.002678,0.000431,0.000823
119765000,0.0324,0.013523,0.002678,0.000431,0.000940
119766000,0.0324,0.013523,0.002678,0.000431,0.000705
119767000,0.0324,0.013523,0.002678,0.000431,0.000823
119768000,0.0324,0.013523,0.002678,0.000431,0.000940
119769000,0.0324,0.013523,0.002678,0.000431,0.000823
119770000,0.0324,0.013523,0.002678,0.000431,0.000823
119771000,0.0324,0.013523,0.002678,0.000431,0.000823
119772000,0.0324,0.013523,0.002678,0.000431,0.000823
119773000,0.0324,0.013523,0.002678,0.000431,0.000823
119774000,0.0324,0.013523,0.002678,0.000431,0.000940
119775000,0.0324,0.013523,0.002678,0.000431,0.000823
119776000,0.0324,0.013523,0.002678,0.000431,0.000823
119777000,0.0324,0.013523,0.002678,0.000431,0.000940
119778000,0.0324,0.013523,0.002678,0.000431,0.001763
119779000,0.0324,0.013523,0.002678,0.000431,0.247279
119780000,0.0324,0.013523,0.002678,0.000431,0.599511
119781000,0.0324,0.013523,0.002678,0.000431,0.297581
119782000,0.0324,0.013523,0.002678,0.000431,0.130456
119783000,0.0324,0.013523,0.002678,0.000431,0.134922
119784000,0.0324,0.013523,0.002678,0.000431,0.585290
119785000,0.0324,0.013523,0.002678,0.000431,0.245869
119786000,0.0324,0.013523,0.002678,0.000431,0.270785
119787000,0.0324,0.013523,0.002678,0.000431,0.273018
119788000,0.0324,0.013523,0.002678,0.000431,0.143502
119789000,0.0324,0.013523,0.002678,0.000431,0.141739
119790000,0.0324,0.013523,0.002678,0.000431,0.110594
119791000,0.0324,0.013523,0.002678,0.000431,0.366688
119792000,0.0324,0.013523,0.002678,0.000431,0.197095
119793000,0.0324,0.013523,0.002678,0.000431,0.016924
119794000,0.0324,0.013523,0.002678,0.000431,0.013516
119795000,0.0324,0.013523,0.002678,0.000431,0.012693
119796000,0.0324,0.013523,0.002678,0.000431,0.010578
119797000,0.0324,0.013523,0.002678,0.000431,0.008462
119798000,0.0324,0.013523,0.002678,0.000431,0.007169
119799000,0.0324,0.013523,0.002678,0.000431,0.007874
119800000,0.0324,0.013523,0.002678,0.000431,0.007992
119801000,0.0324,0.013523,0.002678,0.000431,0.008109
119802000,0.0324,0.013523,0.002678,0.000431,0.005641
119803000,0.0324,0.013523,0.002678,0.000431,0.005876
119804000,0.0324,0.013523,0.002678,0.000431,0.005876
119805000,0.0324,0.013523,0.002678,0.000431,0.005759
119806000,0.0324,0.013523,0.002678,0.000431,0.007052
119807000,0.0324,0.013523,0.002678,0.000431,0.005759
119808000,0.0324,0.013523,0.002678,0.000431,0.004231
119809000,0.0324,0.013523,0.002678,0.000431,0.004466
119810000,0.0324,0.013523,0.002678,0.000431,0.004113
119811000,0.0324,0.013523,0.002678,0.000431,0.004349
119812000,0.0324,0.013523,0.002678,0.000431,0.004349
119813000,0.0324,0.013523,0.002678,0.000431,0.004349
119814000,0.0324,0.013523,0.002678,0.000431,0.004113
119815000,0.0324,0.013523,0.002678,0.000431,0.004466
119816000,0.0324,0.013523,0.002678,0.000431,0.004231
119817000,0.0324,0.013523,0.002678,0.000431,0.004113
119818000,0.0324,0.013523,0.002678,0.000431,0.004584
119819000,0.0324,0.013523,0.002678,0.000431,0.004349
119820000,0.0324,0.013523,0.002678,0.000431,0.004466
119821000,0.0324,0.013523,0.002678,0.000431,0.006111
119822000,0.0324,0.013523,0.002678,0.000431,0.003526
119823000,0.0324,0.013523,0.002678,0.000431,0.003408
119824000,0.0324,0.013523,0.002678,0.000431,0.003526
119825000,0.0324,0.013523,0.002678,0.000431,0.003526
119826000,0.0324,0.013523,0.002678,0.000431,0.003526
119827000,0.0324,0.013523,0.002678,0.000431,0.004819
119828000,0.0324,0.013523,0.002678,0.000431,0.002703
119829000,0.0324,0.013523,0.002678,0.000431,0.002468
119830000,0.0324,0.013523,0.002678,0.000431,0.002703
119831000,0.0324,0.013523,0.002678,0.000431,0.002586
119832000,0.0324,0.013523,0.002678,0.000431,0.002703
119833000,0.0324,0.013523,0.002678,0.000431,0.002468
119834000,0.0324,0.013523,0.002678,0.000431,0.002821
119835000,0.0324,0.013523,0.002678,0.000431,0.002703
119836000,0.0324,0.013523,0.002678,0.000431,0.002468
119837000,0.0324,0.013523,0.002678,0.000431,0.002586
119838000,0.0324,0.013523,0.002678,0.000431,0.002703
119839000,0.0324,0.013523,0.002678,0.000431,0.002703
119840000,0.0324,0.013523,0.002678,0.000431,0.002586
119841000,0.0324,0.013523,0.002678,0.000431,0.002586
119842000,0.0324,0.013523,0.002678,0.000431,0.002703
119843000,0.0324,0.013523,0.002678,0.000431,0.002586
119844000,0.0324,0.013523,0.002678,0.000431,0.002703
119845000,0.0324,0.013523,0.002678,0.000431,0.002586
119846000,0.0324,0.013523,0.002678,0.000431,0.002586
119847000,0.0324,0.013523,0.002678,0.000431,0.002703
119848000,0.0324,0.013523,0.002678,0.000431,0.002586
119849000,0.0324,0.013523,0.002678,0.000431,0.002703
119850000,0.0324,0.013523,0.002678,0.000431,0.002586
119851000,0.0324,0.013523,0.002678,0.000431,0.002703
119852000,0.0324,0.013523,0.002678,0.000431,0.002468
119853000,0.0324,0.013523,0.002678,0.000431,0.002821
119854000,0.0324,0.013523,0.002678,0.000431,0.002586
119855000,0.0324,0.013523,0.002678,0.000431,0.002586
119856000,0.0324,0.013523,0.002678,0.000431,0.002586
119857000,0.0324,0.013523,0.002678,0.000431,0.002703
119858000,0.0324,0.013523,0.002678,0.000431,0.002586
119859000,0.0324,0.013523,0.002678,0.000431,0.002703
119860000,0.0324,0.013523,0.002678,0.000431,0.002586
119861000,0.0324,0.013523,0.002678,0.000431,0.002703
119862000,0.0324,0.013523,0.002678,0.000431,0.002586
119863000,0.0324,0.013523,0.002678,0.000431,0.002586
119864000,0.0324,0.013523,0.002678,0.000431,0.002586
119865000,0.0324,0.013523,0.002678,0.000431,0.002703
119866000,0.0324,0.013523,0.002678,0.000431,0.002703
119867000,0.0324,0.013523,0.002678,0.000431,0.002586
119868000,0.0324,0.013523,0.002678,0.000431,0.002586
119869000,0.0324,0.013523,0.002678,0.000431,0.002703
119870000,0.0324,0.013523,0.002678,0.000431,0.002468
119871000,0.0324,0.013523,0.002678,0.000431,0.002703
119872000,0.0324,0.013523,0.002678,0.000431,0.002821
119873000,0.0324,0.013523,0.002678,0.000431,0.002468
119874000,0.0324,0.013523,0.002678,0.000431,0.002703
119875000,0.0324,0.013523,0.002678,0.000431,0.002586
119876000,0.0324,0.013523,0.002678,0.000431,0.002703
119877000,0.0324,0.013523,0.002678,0.000431,0.002586
119878000,0.0324,0.013523,0.002678,0.000431,0.003761
119879000,0.0324,0.013523,0.002678,0.000431,0.001763
119880000,0.0324,0.013523,0.002678,0.000431,0.001763
119881000,0.0324,0.013523,0.002678,0.000431,0.001763
119882000,0.0324,0.013523,0.002678,0.000431,0.001880
119883000,0.0324,0.013523,0.002678,0.000431,0.001645
119884000,0.0324,0.013523,0.002678,0.000431,0.001763
119885000,0.0324,0.013523,0.002678,0.000431,0.001763
119886000,0.0324,0.013523,0.002678,0.000431,0.001763
119887000,0.0324,0.013523,0.002678,0.000431,0.001645
119888000,0.0324,0.013523,0.002678,0.000431,0.001880
119889000,0.0324,0.013523,0.002678,0.000431,0.001763
119890000,0.0324,0.013523,0.002678,0.000431,0.001763
119891000,0.0324,0.013523,0.002678,0.000431,0.001645
119892000,0.0324,0.013523,0.002678,0.000431,0.001763
119893000,0.0324,0.013523,0.002678,0.000431,0.001763
119894000,0.0324,0.013523,0.002678,0.000431,0.001880
119895000,0.0324,0.013523,0.002678,0.000431,0.001763
119896000,0.0324,0.013523,0.002678,0.000431,0.001645
119897000,0.0324,0.013523,0.002678,0.000431,0.001763
119898000,0.0324,0.013523,0.002678,0.000431,0.001763
119899000,0.0324,0.013523,0.002678,0.000431,0.001763
119900000,0.0324,0.013523,0.002678,0.000431,0.001763
119901000,0.0324,0.013523,0.002678,0.000431,0.001763
119902000,0.0324,0.013523,0.002678,0.000431,0.001763
119903000,0.0324,0.013523,0.002678,0.000431,0.001763
119904000,0.0324,0.013523,0.002678,0.000431,0.001763
119905000,0.0324,0.013523,0.002678,0.000431,0.001763
119906000,0.0324,0.013523,0.002678,0.000431,0.001645
119907000,0.0324,0.013523,0.002678,0.000431,0.001880
119908000,0.0324,0.013523,0.002678,0.000431,0.001763
119909000,0.0324,0.013523,0.002678,0.000431,0.001763
119910000,0.0324,0.013523,0.002678,0.000431,0.001645
119911000,0.0324,0.013523,0.002678,0.000431,0.002586
119912000,0.0324,0.013523,0.002678,0.000431,0.001763
119913000,0.0324,0.013523,0.002678,0.000431,0.000940
119914000,0.0324,0.013523,0.002678,0.000431,0.000823
119915000,0.0324,0.013523,0.002678,0.000431,0.181816
119916000,0.0324,0.013523,0.002678,0.000431,0.406648
119917000,0.0324,0.013523,0.002678,0.000431,0.504313
119918000,0.0324,0.013523,0.002678,0.000431,0.133512
119919000,0.0324,0.013523,0.002678,0.000431,0.131161
119920000,0.0324,0.013523,0.002678,0.000431,0.581647
119921000,0.0324,0.013523,0.002678,0.000431,0.237407
119922000,0.0324,0.013523,0.002678,0.000431,0.272783
119923000,0.0324,0.013523,0.002678,0.000431,0.307924
119924000,0.0324,0.013523,0.002678,0.000431,0.137743
119925000,0.0324,0.013523,0.002678,0.000431,0.141386
119926000,0.0324,0.013523,0.002678,0.000431,0.124345
119927000,0.0324,0.013523,0.002678,0.000431,0.267377
119928000,0.0324,0.013523,0.002678,0.000431,0.297111
119929000,0.0324,0.013523,0.002678,0.000431,0.006582
119930000,0.0324,0.013523,0.002678,0.000431,0.005641
119931000,0.0324,0.013523,0.002678,0.000431,0.004349
119932000,0.0324,0.013523,0.002678,0.000431,0.005289
119933000,0.0324,0.013523,0.002678,0.000431,0.005171
119934000,0.0324,0.013523,0.002678,0.000431,0.006347
119935000,0.0324,0.013523,0.002678,0.000431,0.004349
119936000,0.0324,0.013523,0.002678,0.000431,0.003996
119937000,0.0324,0.013523,0.002678,0.000431,0.004349
119938000,0.0324,0.013523,0.002678,0.000431,0.004349
119939000,0.0324,0.013523,0.002678,0.000431,0.003643
119940000,0.0324,0.013523,0.002678,0.000431,0.004466
119941000,0.0324,0.013523,0.002678,0.000431,0.004231
119942000,0.0324,0.013523,0.002678,0.000431,0.004113
119943000,0.0324,0.013523,0.002678,0.000431,0.004113
119944000,0.0324,0.013523,0.002678,0.000431,0.004584
119945000,0.0324,0.013523,0.002678,0.000431,0.003643
119946000,0.0324,0.013523,0.002678,0.000431,0.004231
119947000,0.0324,0.013523,0.002678,0.000431,0.003408
119948000,0.0324,0.013523,0.002678,0.000431,0.003526
119949000,0.0324,0.013523,0.002678,0.000431,0.003643
119950000,0.0324,0.013523,0.002678,0.000431,0.003291
119951000,0.0324,0.013523,0.002678,0.000431,0.003761
119952000,0.0324,0.013523,0.002678,0.000431,0.003173
119953000,0.0324,0.013523,0.002678,0.000431,0.003408
119954000,0.0324,0.013523,0.002678,0.000431,0.004113
119955000,0.0324,0.013523,0.002678,0.000431,0.001645
119956000,0.0324,0.013523,0.002678,0.000431,0.001998
119957000,0.0324,0.013523,0.002678,0.000431,0.001645
119958000,0.0324,0.013523,0.002678,0.000431,0.001763
119959000,0.0324,0.013523,0.002678,0.000431,0.001880
119960000,0.0324,0.013523,0.002678,0.000431,0.001880
119961000,0.0324,0.013523,0.002678,0.000431,0.001880
119962000,0.0324,0.013523,0.002678,0.000431,0.001645
119963000,0.0324,0.013523,0.002678,0.000431,0.001880
119964000,0.0324,0.013523,0.002678,0.000431,0.001880
119965000,0.0324,0.013523,0.002678,0.000431,0.001528
119966000,0.0324,0.013523,0.002678,0.000431,0.001998
119967000,0.0324,0.013523,0.002678,0.000431,0.001763
119968000,0.0324,0.013523,0.002678,0.000431,0.001880
119969000,0.0324,0.013523,0.002678,0.000431,0.001880
119970000,0.0324,0.013523,0.002678,0.000431,0.001645
119971000,0.0324,0.013523,0.002678,0.000431,0.001998
119972000,0.0324,0.013523,0.002678,0.000431,0.001528
119973000,0.0324,0.013523,0.002678,0.000431,0.001998
119974000,0.0324,0.013523,0.002678,0.000431,0.001880
119975000,0.0324,0.013523,0.002678,0.000431,0.001528
119976000,0.0324,0.013523,0.002678,0.000431,0.002116
119977000,0.0324,0.013523,0.002678,0.000431,0.001528
119978000,0.0324,0.013523,0.002678,0.000431,0.002116
119979000,0.0324,0.013523,0.002678,0.000431,0.001763
119980000,0.0324,0.013523,0.002678,0.000431,0.001645
119981000,0.0324,0.013523,0.002678,0.000431,0.001998
119982000,0.0324,0.013523,0.002678,0.000431,0.001645
119983000,0.0324,0.013523,0.002678,0.000431,0.002116
119984000,0.0324,0.013523,0.002678,0.000431,0.001528
119985000,0.0324,0.013523,0.002678,0.000431,0.001998
119986000,0.0324,0.013523,0.002678,0.000431,0.001763
119987000,0.0324,0.013523,0.002678,0.000431,0.001645
119988000,0.0324,0.013523,0.002678,0.000431,0.001880
119989000,0.0324,0.013523,0.002678,0.000431,0.001763
119990000,0.0324,0.013523,0.002678,0.000431,0.002116
119991000,0.0324,0.013523,0.002678,0.000431,0.001528
119992000,0.0324,0.013523,0.002678,0.000431,0.001880
119993000,0.0324,0.013523,0.002678,0.000431,0.001880
119994000,0.0324,0.013523,0.002678,0.000431,0.001645
119995000,0.0324,0.013523,0.002678,0.000431,0.001880
119996000,0.0324,0.013523,0.002678,0.000431,0.001763
119997000,0.0324,0.013523,0.002678,0.000431,0.002116
119998000,0.0324,0.013523,0.002678,0.000431,0.001528
119999000,0.0324,0.013523,0.002678,0.000431,0.001763
