Cycle,Area(mm^2),PeakDynamic(W),SubthresholdLeakage(W),GateLeakage(W),RunTimeDynamic(W)
138000000,0.0324,0.013523,0.002678,0.000431,0.319207
138001000,0.0324,0.013523,0.002678,0.000431,0.183461
138002000,0.0324,0.013523,0.002678,0.000431,0.166067
138003000,0.0324,0.013523,0.002678,0.000431,0.095785
138004000,0.0324,0.013523,0.002678,0.000431,0.534753
138005000,0.0324,0.013523,0.002678,0.000431,0.244224
138006000,0.0324,0.013523,0.002678,0.000431,0.180053
138007000,0.0324,0.013523,0.002678,0.000431,0.151024
138008000,0.0324,0.013523,0.002678,0.000431,0.115883
138009000,0.0324,0.013523,0.002678,0.000431,0.094140
138010000,0.0324,0.013523,0.002678,0.000431,0.070282
138011000,0.0324,0.013523,0.002678,0.000431,0.051595
138012000,0.0324,0.013523,0.002678,0.000431,0.047834
138013000,0.0324,0.013523,0.002678,0.000431,0.032673
138014000,0.0324,0.013523,0.002678,0.000431,0.032555
138015000,0.0324,0.013523,0.002678,0.000431,0.026091
138016000,0.0324,0.013523,0.002678,0.000431,0.022448
138017000,0.0324,0.013523,0.002678,0.000431,0.021155
138018000,0.0324,0.013523,0.002678,0.000431,0.018217
138019000,0.0324,0.013523,0.002678,0.000431,0.009990
138020000,0.0324,0.013523,0.002678,0.000431,0.015749
138021000,0.0324,0.013523,0.002678,0.000431,0.009402
138022000,0.0324,0.013523,0.002678,0.000431,0.005524
138023000,0.0324,0.013523,0.002678,0.000431,0.005876
138024000,0.0324,0.013523,0.002678,0.000431,0.003526
138025000,0.0324,0.013523,0.002678,0.000431,0.003408
138026000,0.0324,0.013523,0.002678,0.000431,0.003408
138027000,0.0324,0.013523,0.002678,0.000431,0.003526
138028000,0.0324,0.013523,0.002678,0.000431,0.003408
138029000,0.0324,0.013523,0.002678,0.000431,0.003173
138030000,0.0324,0.013523,0.002678,0.000431,0.003526
138031000,0.0324,0.013523,0.002678,0.000431,0.003408
138032000,0.0324,0.013523,0.002678,0.000431,0.003291
138033000,0.0324,0.013523,0.002678,0.000431,0.003526
138034000,0.0324,0.013523,0.002678,0.000431,0.003526
138035000,0.0324,0.013523,0.002678,0.000431,0.003643
138036000,0.0324,0.013523,0.002678,0.000431,0.003173
138037000,0.0324,0.013523,0.002678,0.000431,0.003526
138038000,0.0324,0.013523,0.002678,0.000431,0.009990
138039000,0.0324,0.013523,0.002678,0.000431,0.001528
138040000,0.0324,0.013523,0.002678,0.000431,0.001880
138041000,0.0324,0.013523,0.002678,0.000431,0.001645
138042000,0.0324,0.013523,0.002678,0.000431,0.001645
138043000,0.0324,0.013523,0.002678,0.000431,0.001410
138044000,0.0324,0.013523,0.002678,0.000431,0.166420
138045000,0.0324,0.013523,0.002678,0.000431,0.711163
138046000,0.0324,0.013523,0.002678,0.000431,0.499260
138047000,0.0324,0.013523,0.002678,0.000431,0.136685
138048000,0.0324,0.013523,0.002678,0.000431,0.208025
138049000,0.0324,0.013523,0.002678,0.000431,0.502080
138050000,0.0324,0.013523,0.002678,0.000431,0.236702
138051000,0.0324,0.013523,0.002678,0.000431,0.336836
138052000,0.0324,0.013523,0.002678,0.000431,0.153962
138053000,0.0324,0.013523,0.002678,0.000431,0.188750
138054000,0.0324,0.013523,0.002678,0.000431,0.092495
138055000,0.0324,0.013523,0.002678,0.000431,0.524058
138056000,0.0324,0.013523,0.002678,0.000431,0.213666
138057000,0.0324,0.013523,0.002678,0.000431,0.180993
138058000,0.0324,0.013523,0.002678,0.000431,0.144677
138059000,0.0324,0.013523,0.002678,0.000431,0.128106
138060000,0.0324,0.013523,0.002678,0.000431,0.104365
138061000,0.0324,0.013523,0.002678,0.000431,0.092495
138062000,0.0324,0.013523,0.002678,0.000431,0.083563
138063000,0.0324,0.013523,0.002678,0.000431,0.063230
138064000,0.0324,0.013523,0.002678,0.000431,0.060409
138065000,0.0324,0.013523,0.002678,0.000431,0.058176
138066000,0.0324,0.013523,0.002678,0.000431,0.042310
138067000,0.0324,0.013523,0.002678,0.000431,0.039842
138068000,0.0324,0.013523,0.002678,0.000431,0.036316
138069000,0.0324,0.013523,0.002678,0.000431,0.029617
138070000,0.0324,0.013523,0.002678,0.000431,0.026091
138071000,0.0324,0.013523,0.002678,0.000431,0.022213
138072000,0.0324,0.013523,0.002678,0.000431,0.018452
138073000,0.0324,0.013523,0.002678,0.000431,0.014338
138074000,0.0324,0.013523,0.002678,0.000431,0.013986
138075000,0.0324,0.013523,0.002678,0.000431,0.009990
138076000,0.0324,0.013523,0.002678,0.000431,0.011283
138077000,0.0324,0.013523,0.002678,0.000431,0.007639
138078000,0.0324,0.013523,0.002678,0.000431,0.008932
138079000,0.0324,0.013523,0.002678,0.000431,0.009402
138080000,0.0324,0.013523,0.002678,0.000431,0.005876
138081000,0.0324,0.013523,0.002678,0.000431,0.007169
138082000,0.0324,0.013523,0.002678,0.000431,0.005524
138083000,0.0324,0.013523,0.002678,0.000431,0.004819
138084000,0.0324,0.013523,0.002678,0.000431,0.004584
138085000,0.0324,0.013523,0.002678,0.000431,0.004701
138086000,0.0324,0.013523,0.002678,0.000431,0.005289
138087000,0.0324,0.013523,0.002678,0.000431,0.003996
138088000,0.0324,0.013523,0.002678,0.000431,0.006934
138089000,0.0324,0.013523,0.002678,0.000431,0.003526
138090000,0.0324,0.013523,0.002678,0.000431,0.003173
138091000,0.0324,0.013523,0.002678,0.000431,0.003408
138092000,0.0324,0.013523,0.002678,0.000431,0.003173
138093000,0.0324,0.013523,0.002678,0.000431,0.003408
138094000,0.0324,0.013523,0.002678,0.000431,0.003291
138095000,0.0324,0.013523,0.002678,0.000431,0.003291
138096000,0.0324,0.013523,0.002678,0.000431,0.003408
138097000,0.0324,0.013523,0.002678,0.000431,0.003291
138098000,0.0324,0.013523,0.002678,0.000431,0.003291
138099000,0.0324,0.013523,0.002678,0.000431,0.003408
138100000,0.0324,0.013523,0.002678,0.000431,0.005876
138101000,0.0324,0.013523,0.002678,0.000431,0.002351
138102000,0.0324,0.013523,0.002678,0.000431,0.001528
138103000,0.0324,0.013523,0.002678,0.000431,0.001645
138104000,0.0324,0.013523,0.002678,0.000431,0.004701
138105000,0.0324,0.013523,0.002678,0.000431,0.001058
138106000,0.0324,0.013523,0.002678,0.000431,0.000705
138107000,0.0324,0.013523,0.002678,0.000431,0.000940
138108000,0.0324,0.013523,0.002678,0.000431,0.000705
138109000,0.0324,0.013523,0.002678,0.000431,0.000940
138110000,0.0324,0.013523,0.002678,0.000431,0.000823
138111000,0.0324,0.013523,0.002678,0.000431,0.000823
138112000,0.0324,0.013523,0.002678,0.000431,0.000940
138113000,0.0324,0.013523,0.002678,0.000431,0.000705
138114000,0.0324,0.013523,0.002678,0.000431,0.000940
138115000,0.0324,0.013523,0.002678,0.000431,0.000823
138116000,0.0324,0.013523,0.002678,0.000431,0.000823
138117000,0.0324,0.013523,0.002678,0.000431,0.000823
138118000,0.0324,0.013523,0.002678,0.000431,0.000823
138119000,0.0324,0.013523,0.002678,0.000431,0.000940
138120000,0.0324,0.013523,0.002678,0.000431,0.000705
138121000,0.0324,0.013523,0.002678,0.000431,0.000940
138122000,0.0324,0.013523,0.002678,0.000431,0.000823
138123000,0.0324,0.013523,0.002678,0.000431,0.000823
138124000,0.0324,0.013523,0.002678,0.000431,0.000823
138125000,0.0324,0.013523,0.002678,0.000431,0.000823
138126000,0.0324,0.013523,0.002678,0.000431,0.000705
138127000,0.0324,0.013523,0.002678,0.000431,0.000940
138128000,0.0324,0.013523,0.002678,0.000431,0.000940
138129000,0.0324,0.013523,0.002678,0.000431,0.000705
138130000,0.0324,0.013523,0.002678,0.000431,0.000940
138131000,0.0324,0.013523,0.002678,0.000431,0.000705
138132000,0.0324,0.013523,0.002678,0.000431,0.000940
138133000,0.0324,0.013523,0.002678,0.000431,0.000940
138134000,0.0324,0.013523,0.002678,0.000431,0.000705
138135000,0.0324,0.013523,0.002678,0.000431,0.000940
138136000,0.0324,0.013523,0.002678,0.000431,0.000705
138137000,0.0324,0.013523,0.002678,0.000431,0.000940
138138000,0.0324,0.013523,0.002678,0.000431,0.000823
138139000,0.0324,0.013523,0.002678,0.000431,0.000823
138140000,0.0324,0.013523,0.002678,0.000431,0.000823
138141000,0.0324,0.013523,0.002678,0.000431,0.000823
138142000,0.0324,0.013523,0.002678,0.000431,0.000940
138143000,0.0324,0.013523,0.002678,0.000431,0.000705
138144000,0.0324,0.013523,0.002678,0.000431,0.000940
138145000,0.0324,0.013523,0.002678,0.000431,0.000823
138146000,0.0324,0.013523,0.002678,0.000431,0.000823
138147000,0.0324,0.013523,0.002678,0.000431,0.000823
138148000,0.0324,0.013523,0.002678,0.000431,0.000823
138149000,0.0324,0.013523,0.002678,0.000431,0.000823
138150000,0.0324,0.013523,0.002678,0.000431,0.000823
138151000,0.0324,0.013523,0.002678,0.000431,0.000940
138152000,0.0324,0.013523,0.002678,0.000431,0.000705
138153000,0.0324,0.013523,0.002678,0.000431,0.000940
138154000,0.0324,0.013523,0.002678,0.000431,0.000823
138155000,0.0324,0.013523,0.002678,0.000431,0.000823
138156000,0.0324,0.013523,0.002678,0.000431,0.000940
138157000,0.0324,0.013523,0.002678,0.000431,0.000940
138158000,0.0324,0.013523,0.002678,0.000431,0.000940
138159000,0.0324,0.013523,0.002678,0.000431,0.001645
138160000,0.0324,0.013523,0.002678,0.000431,0.298639
138161000,0.0324,0.013523,0.002678,0.000431,0.773453
138162000,0.0324,0.013523,0.002678,0.000431,0.286299
138163000,0.0324,0.013523,0.002678,0.000431,0.138918
138164000,0.0324,0.013523,0.002678,0.000431,0.470700
138165000,0.0324,0.013523,0.002678,0.000431,0.350587
138166000,0.0324,0.013523,0.002678,0.000431,0.298051
138167000,0.0324,0.013523,0.002678,0.000431,0.224596
138168000,0.0324,0.013523,0.002678,0.000431,0.148791
138169000,0.0324,0.013523,0.002678,0.000431,0.125050
138170000,0.0324,0.013523,0.002678,0.000431,0.362457
138171000,0.0324,0.013523,0.002678,0.000431,0.446607
138172000,0.0324,0.013523,0.002678,0.000431,0.235997
138173000,0.0324,0.013523,0.002678,0.000431,0.186282
138174000,0.0324,0.013523,0.002678,0.000431,0.157958
138175000,0.0324,0.013523,0.002678,0.000431,0.133512
138176000,0.0324,0.013523,0.002678,0.000431,0.100016
138177000,0.0324,0.013523,0.002678,0.000431,0.083327
138178000,0.0324,0.013523,0.002678,0.000431,0.070752
138179000,0.0324,0.013523,0.002678,0.000431,0.066874
138180000,0.0324,0.013523,0.002678,0.000431,0.038902
138181000,0.0324,0.013523,0.002678,0.000431,0.043485
138182000,0.0324,0.013523,0.002678,0.000431,0.033496
138183000,0.0324,0.013523,0.002678,0.000431,0.031850
138184000,0.0324,0.013523,0.002678,0.000431,0.024798
138185000,0.0324,0.013523,0.002678,0.000431,0.010578
138186000,0.0324,0.013523,0.002678,0.000431,0.011165
138187000,0.0324,0.013523,0.002678,0.000431,0.007757
138188000,0.0324,0.013523,0.002678,0.000431,0.009167
138189000,0.0324,0.013523,0.002678,0.000431,0.004819
138190000,0.0324,0.013523,0.002678,0.000431,0.005406
138191000,0.0324,0.013523,0.002678,0.000431,0.007052
138192000,0.0324,0.013523,0.002678,0.000431,0.003878
138193000,0.0324,0.013523,0.002678,0.000431,0.008227
138194000,0.0324,0.013523,0.002678,0.000431,0.002468
138195000,0.0324,0.013523,0.002678,0.000431,0.003643
138196000,0.0324,0.013523,0.002678,0.000431,0.003878
138197000,0.0324,0.013523,0.002678,0.000431,0.002233
138198000,0.0324,0.013523,0.002678,0.000431,0.000705
138199000,0.0324,0.013523,0.002678,0.000431,0.000940
138200000,0.0324,0.013523,0.002678,0.000431,0.000705
138201000,0.0324,0.013523,0.002678,0.000431,0.000940
138202000,0.0324,0.013523,0.002678,0.000431,0.000940
138203000,0.0324,0.013523,0.002678,0.000431,0.000705
138204000,0.0324,0.013523,0.002678,0.000431,0.000940
138205000,0.0324,0.013523,0.002678,0.000431,0.000705
138206000,0.0324,0.013523,0.002678,0.000431,0.000940
138207000,0.0324,0.013523,0.002678,0.000431,0.000823
138208000,0.0324,0.013523,0.002678,0.000431,0.000823
138209000,0.0324,0.013523,0.002678,0.000431,0.000823
138210000,0.0324,0.013523,0.002678,0.000431,0.000823
138211000,0.0324,0.013523,0.002678,0.000431,0.000940
138212000,0.0324,0.013523,0.002678,0.000431,0.000705
138213000,0.0324,0.013523,0.002678,0.000431,0.000940
138214000,0.0324,0.013523,0.002678,0.000431,0.000823
138215000,0.0324,0.013523,0.002678,0.000431,0.000823
138216000,0.0324,0.013523,0.002678,0.000431,0.000823
138217000,0.0324,0.013523,0.002678,0.000431,0.000823
138218000,0.0324,0.013523,0.002678,0.000431,0.000705
138219000,0.0324,0.013523,0.002678,0.000431,0.000940
138220000,0.0324,0.013523,0.002678,0.000431,0.000940
138221000,0.0324,0.013523,0.002678,0.000431,0.000705
138222000,0.0324,0.013523,0.002678,0.000431,0.000940
138223000,0.0324,0.013523,0.002678,0.000431,0.000705
138224000,0.0324,0.013523,0.002678,0.000431,0.000940
138225000,0.0324,0.013523,0.002678,0.000431,0.000940
138226000,0.0324,0.013523,0.002678,0.000431,0.000705
138227000,0.0324,0.013523,0.002678,0.000431,0.000940
138228000,0.0324,0.013523,0.002678,0.000431,0.000705
138229000,0.0324,0.013523,0.002678,0.000431,0.000940
138230000,0.0324,0.013523,0.002678,0.000431,0.000823
138231000,0.0324,0.013523,0.002678,0.000431,0.000823
138232000,0.0324,0.013523,0.002678,0.000431,0.000823
138233000,0.0324,0.013523,0.002678,0.000431,0.000823
138234000,0.0324,0.013523,0.002678,0.000431,0.000940
138235000,0.0324,0.013523,0.002678,0.000431,0.000705
138236000,0.0324,0.013523,0.002678,0.000431,0.000940
138237000,0.0324,0.013523,0.002678,0.000431,0.000823
138238000,0.0324,0.013523,0.002678,0.000431,0.000705
138239000,0.0324,0.013523,0.002678,0.000431,0.000940
138240000,0.0324,0.013523,0.002678,0.000431,0.000823
138241000,0.0324,0.013523,0.002678,0.000431,0.000823
138242000,0.0324,0.013523,0.002678,0.000431,0.000823
138243000,0.0324,0.013523,0.002678,0.000431,0.000823
138244000,0.0324,0.013523,0.002678,0.000431,0.000823
138245000,0.0324,0.013523,0.002678,0.000431,0.014573
138246000,0.0324,0.013523,0.002678,0.000431,0.753003
138247000,0.0324,0.013523,0.002678,0.000431,0.593047
138248000,0.0324,0.013523,0.002678,0.000431,0.135863
138249000,0.0324,0.013523,0.002678,0.000431,0.142092
138250000,0.0324,0.013523,0.002678,0.000431,0.607503
138251000,0.0324,0.013523,0.002678,0.000431,0.278189
138252000,0.0324,0.013523,0.002678,0.000431,0.342360
138253000,0.0324,0.013523,0.002678,0.000431,0.147380
138254000,0.0324,0.013523,0.002678,0.000431,0.139153
138255000,0.0324,0.013523,0.002678,0.000431,0.236584
138256000,0.0324,0.013523,0.002678,0.000431,0.538397
138257000,0.0324,0.013523,0.002678,0.000431,0.250335
138258000,0.0324,0.013523,0.002678,0.000431,0.216252
138259000,0.0324,0.013523,0.002678,0.000431,0.183226
138260000,0.0324,0.013523,0.002678,0.000431,0.145735
138261000,0.0324,0.013523,0.002678,0.000431,0.098606
138262000,0.0324,0.013523,0.002678,0.000431,0.098019
138263000,0.0324,0.013523,0.002678,0.000431,0.076276
138264000,0.0324,0.013523,0.002678,0.000431,0.062760
138265000,0.0324,0.013523,0.002678,0.000431,0.043133
138266000,0.0324,0.013523,0.002678,0.000431,0.034671
138267000,0.0324,0.013523,0.002678,0.000431,0.030322
138268000,0.0324,0.013523,0.002678,0.000431,0.026796
138269000,0.0324,0.013523,0.002678,0.000431,0.025386
138270000,0.0324,0.013523,0.002678,0.000431,0.017042
138271000,0.0324,0.013523,0.002678,0.000431,0.016454
138272000,0.0324,0.013523,0.002678,0.000431,0.013868
138273000,0.0324,0.013523,0.002678,0.000431,0.013986
138274000,0.0324,0.013523,0.002678,0.000431,0.012811
138275000,0.0324,0.013523,0.002678,0.000431,0.014809
138276000,0.0324,0.013523,0.002678,0.000431,0.011870
138277000,0.0324,0.013523,0.002678,0.000431,0.009990
138278000,0.0324,0.013523,0.002678,0.000431,0.009050
138279000,0.0324,0.013523,0.002678,0.000431,0.010225
138280000,0.0324,0.013523,0.002678,0.000431,0.013633
138281000,0.0324,0.013523,0.002678,0.000431,0.009520
138282000,0.0324,0.013523,0.002678,0.000431,0.008815
138283000,0.0324,0.013523,0.002678,0.000431,0.006582
138284000,0.0324,0.013523,0.002678,0.000431,0.007639
138285000,0.0324,0.013523,0.002678,0.000431,0.007287
138286000,0.0324,0.013523,0.002678,0.000431,0.006464
138287000,0.0324,0.013523,0.002678,0.000431,0.006582
138288000,0.0324,0.013523,0.002678,0.000431,0.006464
138289000,0.0324,0.013523,0.002678,0.000431,0.006464
138290000,0.0324,0.013523,0.002678,0.000431,0.007169
138291000,0.0324,0.013523,0.002678,0.000431,0.006464
138292000,0.0324,0.013523,0.002678,0.000431,0.006229
138293000,0.0324,0.013523,0.002678,0.000431,0.006464
138294000,0.0324,0.013523,0.002678,0.000431,0.006817
138295000,0.0324,0.013523,0.002678,0.000431,0.006817
138296000,0.0324,0.013523,0.002678,0.000431,0.005876
138297000,0.0324,0.013523,0.002678,0.000431,0.007169
138298000,0.0324,0.013523,0.002678,0.000431,0.005759
138299000,0.0324,0.013523,0.002678,0.000431,0.006699
138300000,0.0324,0.013523,0.002678,0.000431,0.006934
138301000,0.0324,0.013523,0.002678,0.000431,0.006111
138302000,0.0324,0.013523,0.002678,0.000431,0.007052
138303000,0.0324,0.013523,0.002678,0.000431,0.006111
138304000,0.0324,0.013523,0.002678,0.000431,0.006699
138305000,0.0324,0.013523,0.002678,0.000431,0.006464
138306000,0.0324,0.013523,0.002678,0.000431,0.006699
138307000,0.0324,0.013523,0.002678,0.000431,0.009167
138308000,0.0324,0.013523,0.002678,0.000431,0.005524
138309000,0.0324,0.013523,0.002678,0.000431,0.005641
138310000,0.0324,0.013523,0.002678,0.000431,0.007052
138311000,0.0324,0.013523,0.002678,0.000431,0.004936
138312000,0.0324,0.013523,0.002678,0.000431,0.004701
138313000,0.0324,0.013523,0.002678,0.000431,0.005054
138314000,0.0324,0.013523,0.002678,0.000431,0.004466
138315000,0.0324,0.013523,0.002678,0.000431,0.005289
138316000,0.0324,0.013523,0.002678,0.000431,0.004819
138317000,0.0324,0.013523,0.002678,0.000431,0.004701
138318000,0.0324,0.013523,0.002678,0.000431,0.004819
138319000,0.0324,0.013523,0.002678,0.000431,0.004936
138320000,0.0324,0.013523,0.002678,0.000431,0.006817
138321000,0.0324,0.013523,0.002678,0.000431,0.003878
138322000,0.0324,0.013523,0.002678,0.000431,0.004231
138323000,0.0324,0.013523,0.002678,0.000431,0.003878
138324000,0.0324,0.013523,0.002678,0.000431,0.003761
138325000,0.0324,0.013523,0.002678,0.000431,0.007757
138326000,0.0324,0.013523,0.002678,0.000431,0.002233
138327000,0.0324,0.013523,0.002678,0.000431,0.004231
138328000,0.0324,0.013523,0.002678,0.000431,0.002586
138329000,0.0324,0.013523,0.002678,0.000431,0.000940
138330000,0.0324,0.013523,0.002678,0.000431,0.000823
138331000,0.0324,0.013523,0.002678,0.000431,0.000823
138332000,0.0324,0.013523,0.002678,0.000431,0.266436
138333000,0.0324,0.013523,0.002678,0.000431,0.763816
138334000,0.0324,0.013523,0.002678,0.000431,0.434854
138335000,0.0324,0.013523,0.002678,0.000431,0.134452
138336000,0.0324,0.013523,0.002678,0.000431,0.470113
138337000,0.0324,0.013523,0.002678,0.000431,0.362809
138338000,0.0324,0.013523,0.002678,0.000431,0.261618
138339000,0.0324,0.013523,0.002678,0.000431,0.234704
138340000,0.0324,0.013523,0.002678,0.000431,0.172179
138341000,0.0324,0.013523,0.002678,0.000431,0.100252
138342000,0.0324,0.013523,0.002678,0.000431,0.529112
138343000,0.0324,0.013523,0.002678,0.000431,0.300637
138344000,0.0324,0.013523,0.002678,0.000431,0.211903
138345000,0.0324,0.013523,0.002678,0.000431,0.174412
138346000,0.0324,0.013523,0.002678,0.000431,0.151141
138347000,0.0324,0.013523,0.002678,0.000431,0.105893
138348000,0.0324,0.013523,0.002678,0.000431,0.101427
138349000,0.0324,0.013523,0.002678,0.000431,0.086383
138350000,0.0324,0.013523,0.002678,0.000431,0.068401
138351000,0.0324,0.013523,0.002678,0.000431,0.052770
138352000,0.0324,0.013523,0.002678,0.000431,0.045954
138353000,0.0324,0.013523,0.002678,0.000431,0.043485
138354000,0.0324,0.013523,0.002678,0.000431,0.036316
138355000,0.0324,0.013523,0.002678,0.000431,0.030557
138356000,0.0324,0.013523,0.002678,0.000431,0.024681
138357000,0.0324,0.013523,0.002678,0.000431,0.020802
138358000,0.0324,0.013523,0.002678,0.000431,0.018099
138359000,0.0324,0.013523,0.002678,0.000431,0.018922
138360000,0.0324,0.013523,0.002678,0.000431,0.021508
138361000,0.0324,0.013523,0.002678,0.000431,0.021038
138362000,0.0324,0.013523,0.002678,0.000431,0.016689
138363000,0.0324,0.013523,0.002678,0.000431,0.013868
138364000,0.0324,0.013523,0.002678,0.000431,0.016454
138365000,0.0324,0.013523,0.002678,0.000431,0.012223
138366000,0.0324,0.013523,0.002678,0.000431,0.015631
138367000,0.0324,0.013523,0.002678,0.000431,0.009990
138368000,0.0324,0.013523,0.002678,0.000431,0.010813
138369000,0.0324,0.013523,0.002678,0.000431,0.009520
138370000,0.0324,0.013523,0.002678,0.000431,0.011753
138371000,0.0324,0.013523,0.002678,0.000431,0.009637
138372000,0.0324,0.013523,0.002678,0.000431,0.010107
138373000,0.0324,0.013523,0.002678,0.000431,0.010813
138374000,0.0324,0.013523,0.002678,0.000431,0.010342
138375000,0.0324,0.013523,0.002678,0.000431,0.010342
138376000,0.0324,0.013523,0.002678,0.000431,0.012105
138377000,0.0324,0.013523,0.002678,0.000431,0.009050
138378000,0.0324,0.013523,0.002678,0.000431,0.008109
138379000,0.0324,0.013523,0.002678,0.000431,0.008345
138380000,0.0324,0.013523,0.002678,0.000431,0.009167
138381000,0.0324,0.013523,0.002678,0.000431,0.008109
138382000,0.0324,0.013523,0.002678,0.000431,0.008109
138383000,0.0324,0.013523,0.002678,0.000431,0.007992
138384000,0.0324,0.013523,0.002678,0.000431,0.008815
138385000,0.0324,0.013523,0.002678,0.000431,0.008932
138386000,0.0324,0.013523,0.002678,0.000431,0.006229
138387000,0.0324,0.013523,0.002678,0.000431,0.007404
138388000,0.0324,0.013523,0.002678,0.000431,0.006582
138389000,0.0324,0.013523,0.002678,0.000431,0.006934
138390000,0.0324,0.013523,0.002678,0.000431,0.006229
138391000,0.0324,0.013523,0.002678,0.000431,0.006817
138392000,0.0324,0.013523,0.002678,0.000431,0.008462
138393000,0.0324,0.013523,0.002678,0.000431,0.005289
138394000,0.0324,0.013523,0.002678,0.000431,0.004936
138395000,0.0324,0.013523,0.002678,0.000431,0.006699
138396000,0.0324,0.013523,0.002678,0.000431,0.004113
138397000,0.0324,0.013523,0.002678,0.000431,0.003878
138398000,0.0324,0.013523,0.002678,0.000431,0.006934
138399000,0.0324,0.013523,0.002678,0.000431,0.003408
138400000,0.0324,0.013523,0.002678,0.000431,0.003291
138401000,0.0324,0.013523,0.002678,0.000431,0.003291
138402000,0.0324,0.013523,0.002678,0.000431,0.003291
138403000,0.0324,0.013523,0.002678,0.000431,0.003526
138404000,0.0324,0.013523,0.002678,0.000431,0.003291
138405000,0.0324,0.013523,0.002678,0.000431,0.003291
138406000,0.0324,0.013523,0.002678,0.000431,0.003526
138407000,0.0324,0.013523,0.002678,0.000431,0.003056
138408000,0.0324,0.013523,0.002678,0.000431,0.003408
138409000,0.0324,0.013523,0.002678,0.000431,0.003408
138410000,0.0324,0.013523,0.002678,0.000431,0.003173
138411000,0.0324,0.013523,0.002678,0.000431,0.003291
138412000,0.0324,0.013523,0.002678,0.000431,0.003408
138413000,0.0324,0.013523,0.002678,0.000431,0.003291
138414000,0.0324,0.013523,0.002678,0.000431,0.003291
138415000,0.0324,0.013523,0.002678,0.000431,0.003408
138416000,0.0324,0.013523,0.002678,0.000431,0.003291
138417000,0.0324,0.013523,0.002678,0.000431,0.003526
138418000,0.0324,0.013523,0.002678,0.000431,0.003056
138419000,0.0324,0.013523,0.002678,0.000431,0.003291
138420000,0.0324,0.013523,0.002678,0.000431,0.003408
138421000,0.0324,0.013523,0.002678,0.000431,0.003408
138422000,0.0324,0.013523,0.002678,0.000431,0.003173
138423000,0.0324,0.013523,0.002678,0.000431,0.003291
138424000,0.0324,0.013523,0.002678,0.000431,0.003643
138425000,0.0324,0.013523,0.002678,0.000431,0.003173
138426000,0.0324,0.013523,0.002678,0.000431,0.002938
138427000,0.0324,0.013523,0.002678,0.000431,0.003408
138428000,0.0324,0.013523,0.002678,0.000431,0.002468
138429000,0.0324,0.013523,0.002678,0.000431,0.003526
138430000,0.0324,0.013523,0.002678,0.000431,0.002938
138431000,0.0324,0.013523,0.002678,0.000431,0.001645
138432000,0.0324,0.013523,0.002678,0.000431,0.001645
138433000,0.0324,0.013523,0.002678,0.000431,0.001763
138434000,0.0324,0.013523,0.002678,0.000431,0.001645
138435000,0.0324,0.013523,0.002678,0.000431,0.001763
138436000,0.0324,0.013523,0.002678,0.000431,0.001528
138437000,0.0324,0.013523,0.002678,0.000431,0.001763
138438000,0.0324,0.013523,0.002678,0.000431,0.001763
138439000,0.0324,0.013523,0.002678,0.000431,0.003173
138440000,0.0324,0.013523,0.002678,0.000431,0.000823
138441000,0.0324,0.013523,0.002678,0.000431,0.000823
138442000,0.0324,0.013523,0.002678,0.000431,0.000823
138443000,0.0324,0.013523,0.002678,0.000431,0.000940
138444000,0.0324,0.013523,0.002678,0.000431,0.000705
138445000,0.0324,0.013523,0.002678,0.000431,0.000940
138446000,0.0324,0.013523,0.002678,0.000431,0.000823
138447000,0.0324,0.013523,0.002678,0.000431,0.000823
138448000,0.0324,0.013523,0.002678,0.000431,0.000823
138449000,0.0324,0.013523,0.002678,0.000431,0.000823
138450000,0.0324,0.013523,0.002678,0.000431,0.000823
138451000,0.0324,0.013523,0.002678,0.000431,0.000823
138452000,0.0324,0.013523,0.002678,0.000431,0.000940
138453000,0.0324,0.013523,0.002678,0.000431,0.000705
138454000,0.0324,0.013523,0.002678,0.000431,0.000940
138455000,0.0324,0.013523,0.002678,0.000431,0.000705
138456000,0.0324,0.013523,0.002678,0.000431,0.000940
138457000,0.0324,0.013523,0.002678,0.000431,0.000940
138458000,0.0324,0.013523,0.002678,0.000431,0.000705
138459000,0.0324,0.013523,0.002678,0.000431,0.000940
138460000,0.0324,0.013523,0.002678,0.000431,0.000705
138461000,0.0324,0.013523,0.002678,0.000431,0.000940
138462000,0.0324,0.013523,0.002678,0.000431,0.000823
138463000,0.0324,0.013523,0.002678,0.000431,0.000823
138464000,0.0324,0.013523,0.002678,0.000431,0.000823
138465000,0.0324,0.013523,0.002678,0.000431,0.000823
138466000,0.0324,0.013523,0.002678,0.000431,0.000940
138467000,0.0324,0.013523,0.002678,0.000431,0.000705
138468000,0.0324,0.013523,0.002678,0.000431,0.000940
138469000,0.0324,0.013523,0.002678,0.000431,0.000823
138470000,0.0324,0.013523,0.002678,0.000431,0.001645
138471000,0.0324,0.013523,0.002678,0.000431,0.333545
138472000,0.0324,0.013523,0.002678,0.000431,0.815646
138473000,0.0324,0.013523,0.002678,0.000431,0.286299
138474000,0.0324,0.013523,0.002678,0.000431,0.136450
138475000,0.0324,0.013523,0.002678,0.000431,0.523235
138476000,0.0324,0.013523,0.002678,0.000431,0.301695
138477000,0.0324,0.013523,0.002678,0.000431,0.313095
138478000,0.0324,0.013523,0.002678,0.000431,0.210375
138479000,0.0324,0.013523,0.002678,0.000431,0.184754
138480000,0.0324,0.013523,0.002678,0.000431,0.084620
138481000,0.0324,0.013523,0.002678,0.000431,0.549914
138482000,0.0324,0.013523,0.002678,0.000431,0.204499
138483000,0.0324,0.013523,0.002678,0.000431,0.172766
138484000,0.0324,0.013523,0.002678,0.000431,0.140916
138485000,0.0324,0.013523,0.002678,0.000431,0.122464
138486000,0.0324,0.013523,0.002678,0.000431,0.115530
138487000,0.0324,0.013523,0.002678,0.000431,0.086618
138488000,0.0324,0.013523,0.002678,0.000431,0.065228
138489000,0.0324,0.013523,0.002678,0.000431,0.072632
138490000,0.0324,0.013523,0.002678,0.000431,0.044191
138491000,0.0324,0.013523,0.002678,0.000431,0.047246
138492000,0.0324,0.013523,0.002678,0.000431,0.044543
138493000,0.0324,0.013523,0.002678,0.000431,0.031145
138494000,0.0324,0.013523,0.002678,0.000431,0.024328
138495000,0.0324,0.013523,0.002678,0.000431,0.016807
138496000,0.0324,0.013523,0.002678,0.000431,0.013281
138497000,0.0324,0.013523,0.002678,0.000431,0.009637
138498000,0.0324,0.013523,0.002678,0.000431,0.009520
138499000,0.0324,0.013523,0.002678,0.000431,0.009285
138500000,0.0324,0.013523,0.002678,0.000431,0.008697
138501000,0.0324,0.013523,0.002678,0.000431,0.011165
138502000,0.0324,0.013523,0.002678,0.000431,0.007404
138503000,0.0324,0.013523,0.002678,0.000431,0.008580
138504000,0.0324,0.013523,0.002678,0.000431,0.007874
138505000,0.0324,0.013523,0.002678,0.000431,0.008109
138506000,0.0324,0.013523,0.002678,0.000431,0.007874
138507000,0.0324,0.013523,0.002678,0.000431,0.007992
138508000,0.0324,0.013523,0.002678,0.000431,0.010813
138509000,0.0324,0.013523,0.002678,0.000431,0.007639
138510000,0.0324,0.013523,0.002678,0.000431,0.009285
138511000,0.0324,0.013523,0.002678,0.000431,0.006229
138512000,0.0324,0.013523,0.002678,0.000431,0.006464
138513000,0.0324,0.013523,0.002678,0.000431,0.006111
138514000,0.0324,0.013523,0.002678,0.000431,0.006699
138515000,0.0324,0.013523,0.002678,0.000431,0.006111
138516000,0.0324,0.013523,0.002678,0.000431,0.006229
138517000,0.0324,0.013523,0.002678,0.000431,0.007757
138518000,0.0324,0.013523,0.002678,0.000431,0.004231
138519000,0.0324,0.013523,0.002678,0.000431,0.004701
138520000,0.0324,0.013523,0.002678,0.000431,0.002821
138521000,0.0324,0.013523,0.002678,0.000431,0.002468
138522000,0.0324,0.013523,0.002678,0.000431,0.002468
138523000,0.0324,0.013523,0.002678,0.000431,0.003291
138524000,0.0324,0.013523,0.002678,0.000431,0.005289
138525000,0.0324,0.013523,0.002678,0.000431,0.000823
138526000,0.0324,0.013523,0.002678,0.000431,0.000823
138527000,0.0324,0.013523,0.002678,0.000431,0.000823
138528000,0.0324,0.013523,0.002678,0.000431,0.000823
138529000,0.0324,0.013523,0.002678,0.000431,0.000940
138530000,0.0324,0.013523,0.002678,0.000431,0.000705
138531000,0.0324,0.013523,0.002678,0.000431,0.000940
138532000,0.0324,0.013523,0.002678,0.000431,0.002116
138533000,0.0324,0.013523,0.002678,0.000431,0.519475
138534000,0.0324,0.013523,0.002678,0.000431,0.737254
138535000,0.0324,0.013523,0.002678,0.000431,0.141386
138536000,0.0324,0.013523,0.002678,0.000431,0.136803
138537000,0.0324,0.013523,0.002678,0.000431,0.489857
138538000,0.0324,0.013523,0.002678,0.000431,0.236702
138539000,0.0324,0.013523,0.002678,0.000431,0.270432
138540000,0.0324,0.013523,0.002678,0.000431,0.263968
138541000,0.0324,0.013523,0.002678,0.000431,0.151141
138542000,0.0324,0.013523,0.002678,0.000431,0.144090
138543000,0.0324,0.013523,0.002678,0.000431,0.246457
138544000,0.0324,0.013523,0.002678,0.000431,0.491973
138545000,0.0324,0.013523,0.002678,0.000431,0.202619
138546000,0.0324,0.013523,0.002678,0.000431,0.181111
138547000,0.0324,0.013523,0.002678,0.000431,0.148556
138548000,0.0324,0.013523,0.002678,0.000431,0.119526
138549000,0.0324,0.013523,0.002678,0.000431,0.105305
138550000,0.0324,0.013523,0.002678,0.000431,0.086501
138551000,0.0324,0.013523,0.002678,0.000431,0.074748
138552000,0.0324,0.013523,0.002678,0.000431,0.058764
138553000,0.0324,0.013523,0.002678,0.000431,0.046776
138554000,0.0324,0.013523,0.002678,0.000431,0.042663
138555000,0.0324,0.013523,0.002678,0.000431,0.039842
138556000,0.0324,0.013523,0.002678,0.000431,0.042780
138557000,0.0324,0.013523,0.002678,0.000431,0.032203
138558000,0.0324,0.013523,0.002678,0.000431,0.030440
138559000,0.0324,0.013523,0.002678,0.000431,0.030205
138560000,0.0324,0.013523,0.002678,0.000431,0.027619
138561000,0.0324,0.013523,0.002678,0.000431,0.032790
138562000,0.0324,0.013523,0.002678,0.000431,0.021508
138563000,0.0324,0.013523,0.002678,0.000431,0.019745
138564000,0.0324,0.013523,0.002678,0.000431,0.018569
138565000,0.0324,0.013523,0.002678,0.000431,0.018334
138566000,0.0324,0.013523,0.002678,0.000431,0.018569
138567000,0.0324,0.013523,0.002678,0.000431,0.020685
138568000,0.0324,0.013523,0.002678,0.000431,0.016689
138569000,0.0324,0.013523,0.002678,0.000431,0.019862
138570000,0.0324,0.013523,0.002678,0.000431,0.016219
138571000,0.0324,0.013523,0.002678,0.000431,0.017042
138572000,0.0324,0.013523,0.002678,0.000431,0.015514
138573000,0.0324,0.013523,0.002678,0.000431,0.015984
138574000,0.0324,0.013523,0.002678,0.000431,0.016219
138575000,0.0324,0.013523,0.002678,0.000431,0.014691
138576000,0.0324,0.013523,0.002678,0.000431,0.017394
138577000,0.0324,0.013523,0.002678,0.000431,0.016219
138578000,0.0324,0.013523,0.002678,0.000431,0.016571
138579000,0.0324,0.013523,0.002678,0.000431,0.014456
138580000,0.0324,0.013523,0.002678,0.000431,0.013986
138581000,0.0324,0.013523,0.002678,0.000431,0.015866
138582000,0.0324,0.013523,0.002678,0.000431,0.014338
138583000,0.0324,0.013523,0.002678,0.000431,0.014809
138584000,0.0324,0.013523,0.002678,0.000431,0.015514
138585000,0.0324,0.013523,0.002678,0.000431,0.014456
138586000,0.0324,0.013523,0.002678,0.000431,0.015749
138587000,0.0324,0.013523,0.002678,0.000431,0.014573
138588000,0.0324,0.013523,0.002678,0.000431,0.013986
138589000,0.0324,0.013523,0.002678,0.000431,0.013281
138590000,0.0324,0.013523,0.002678,0.000431,0.013868
138591000,0.0324,0.013523,0.002678,0.000431,0.013868
138592000,0.0324,0.013523,0.002678,0.000431,0.015044
138593000,0.0324,0.013523,0.002678,0.000431,0.013046
138594000,0.0324,0.013523,0.002678,0.000431,0.014338
138595000,0.0324,0.013523,0.002678,0.000431,0.013516
138596000,0.0324,0.013523,0.002678,0.000431,0.013868
138597000,0.0324,0.013523,0.002678,0.000431,0.015044
138598000,0.0324,0.013523,0.002678,0.000431,0.012928
138599000,0.0324,0.013523,0.002678,0.000431,0.014691
138600000,0.0324,0.013523,0.002678,0.000431,0.013046
138601000,0.0324,0.013523,0.002678,0.000431,0.015044
138602000,0.0324,0.013523,0.002678,0.000431,0.013516
138603000,0.0324,0.013523,0.002678,0.000431,0.012223
138604000,0.0324,0.013523,0.002678,0.000431,0.014809
138605000,0.0324,0.013523,0.002678,0.000431,0.012340
138606000,0.0324,0.013523,0.002678,0.000431,0.013751
138607000,0.0324,0.013523,0.002678,0.000431,0.013163
138608000,0.0324,0.013523,0.002678,0.000431,0.013163
138609000,0.0324,0.013523,0.002678,0.000431,0.013868
138610000,0.0324,0.013523,0.002678,0.000431,0.012693
138611000,0.0324,0.013523,0.002678,0.000431,0.014103
138612000,0.0324,0.013523,0.002678,0.000431,0.012693
138613000,0.0324,0.013523,0.002678,0.000431,0.012928
138614000,0.0324,0.013523,0.002678,0.000431,0.013868
138615000,0.0324,0.013523,0.002678,0.000431,0.013398
138616000,0.0324,0.013523,0.002678,0.000431,0.013046
138617000,0.0324,0.013523,0.002678,0.000431,0.013633
138618000,0.0324,0.013523,0.002678,0.000431,0.013281
138619000,0.0324,0.013523,0.002678,0.000431,0.013046
138620000,0.0324,0.013523,0.002678,0.000431,0.013516
138621000,0.0324,0.013523,0.002678,0.000431,0.012693
138622000,0.0324,0.013523,0.002678,0.000431,0.013751
138623000,0.0324,0.013523,0.002678,0.000431,0.013281
138624000,0.0324,0.013523,0.002678,0.000431,0.013163
138625000,0.0324,0.013523,0.002678,0.000431,0.012693
138626000,0.0324,0.013523,0.002678,0.000431,0.012811
138627000,0.0324,0.013523,0.002678,0.000431,0.014456
138628000,0.0324,0.013523,0.002678,0.000431,0.012458
138629000,0.0324,0.013523,0.002678,0.000431,0.013163
138630000,0.0324,0.013523,0.002678,0.000431,0.014573
138631000,0.0324,0.013523,0.002678,0.000431,0.012928
138632000,0.0324,0.013523,0.002678,0.000431,0.012811
138633000,0.0324,0.013523,0.002678,0.000431,0.014221
138634000,0.0324,0.013523,0.002678,0.000431,0.012340
138635000,0.0324,0.013523,0.002678,0.000431,0.013398
138636000,0.0324,0.013523,0.002678,0.000431,0.014221
138637000,0.0324,0.013523,0.002678,0.000431,0.014338
138638000,0.0324,0.013523,0.002678,0.000431,0.011635
138639000,0.0324,0.013523,0.002678,0.000431,0.011048
138640000,0.0324,0.013523,0.002678,0.000431,0.012223
138641000,0.0324,0.013523,0.002678,0.000431,0.013281
138642000,0.0324,0.013523,0.002678,0.000431,0.010930
138643000,0.0324,0.013523,0.002678,0.000431,0.013046
138644000,0.0324,0.013523,0.002678,0.000431,0.012340
138645000,0.0324,0.013523,0.002678,0.000431,0.011635
138646000,0.0324,0.013523,0.002678,0.000431,0.012811
138647000,0.0324,0.013523,0.002678,0.000431,0.011283
138648000,0.0324,0.013523,0.002678,0.000431,0.013516
138649000,0.0324,0.013523,0.002678,0.000431,0.014926
138650000,0.0324,0.013523,0.002678,0.000431,0.009990
138651000,0.0324,0.013523,0.002678,0.000431,0.008345
138652000,0.0324,0.013523,0.002678,0.000431,0.008462
138653000,0.0324,0.013523,0.002678,0.000431,0.007757
138654000,0.0324,0.013523,0.002678,0.000431,0.008227
138655000,0.0324,0.013523,0.002678,0.000431,0.007522
138656000,0.0324,0.013523,0.002678,0.000431,0.007287
138657000,0.0324,0.013523,0.002678,0.000431,0.007522
138658000,0.0324,0.013523,0.002678,0.000431,0.009637
138659000,0.0324,0.013523,0.002678,0.000431,0.006229
138660000,0.0324,0.013523,0.002678,0.000431,0.005524
138661000,0.0324,0.013523,0.002678,0.000431,0.005759
138662000,0.0324,0.013523,0.002678,0.000431,0.005641
138663000,0.0324,0.013523,0.002678,0.000431,0.005876
138664000,0.0324,0.013523,0.002678,0.000431,0.005641
138665000,0.0324,0.013523,0.002678,0.000431,0.005406
138666000,0.0324,0.013523,0.002678,0.000431,0.005994
138667000,0.0324,0.013523,0.002678,0.000431,0.005759
138668000,0.0324,0.013523,0.002678,0.000431,0.006934
138669000,0.0324,0.013523,0.002678,0.000431,0.004936
138670000,0.0324,0.013523,0.002678,0.000431,0.004701
138671000,0.0324,0.013523,0.002678,0.000431,0.005054
138672000,0.0324,0.013523,0.002678,0.000431,0.004701
138673000,0.0324,0.013523,0.002678,0.000431,0.004584
138674000,0.0324,0.013523,0.002678,0.000431,0.008345
138675000,0.0324,0.013523,0.002678,0.000431,0.003526
138676000,0.0324,0.013523,0.002678,0.000431,0.003996
138677000,0.0324,0.013523,0.002678,0.000431,0.004701
138678000,0.0324,0.013523,0.002678,0.000431,0.003291
138679000,0.0324,0.013523,0.002678,0.000431,0.004231
138680000,0.0324,0.013523,0.002678,0.000431,0.003761
138681000,0.0324,0.013523,0.002678,0.000431,0.004231
138682000,0.0324,0.013523,0.002678,0.000431,0.004113
138683000,0.0324,0.013523,0.002678,0.000431,0.003408
138684000,0.0324,0.013523,0.002678,0.000431,0.004349
138685000,0.0324,0.013523,0.002678,0.000431,0.003878
138686000,0.0324,0.013523,0.002678,0.000431,0.003878
138687000,0.0324,0.013523,0.002678,0.000431,0.004113
138688000,0.0324,0.013523,0.002678,0.000431,0.003996
138689000,0.0324,0.013523,0.002678,0.000431,0.003761
138690000,0.0324,0.013523,0.002678,0.000431,0.003996
138691000,0.0324,0.013523,0.002678,0.000431,0.003761
138692000,0.0324,0.013523,0.002678,0.000431,0.004466
138693000,0.0324,0.013523,0.002678,0.000431,0.003526
138694000,0.0324,0.013523,0.002678,0.000431,0.004231
138695000,0.0324,0.013523,0.002678,0.000431,0.003878
138696000,0.0324,0.013523,0.002678,0.000431,0.003291
138697000,0.0324,0.013523,0.002678,0.000431,0.004936
138698000,0.0324,0.013523,0.002678,0.000431,0.002586
138699000,0.0324,0.013523,0.002678,0.000431,0.000823
138700000,0.0324,0.013523,0.002678,0.000431,0.070752
138701000,0.0324,0.013523,0.002678,0.000431,0.712338
138702000,0.0324,0.013523,0.002678,0.000431,0.566133
138703000,0.0324,0.013523,0.002678,0.000431,0.135863
138704000,0.0324,0.013523,0.002678,0.000431,0.138331
138705000,0.0324,0.013523,0.002678,0.000431,0.561550
138706000,0.0324,0.013523,0.002678,0.000431,0.265261
138707000,0.0324,0.013523,0.002678,0.000431,0.378558
138708000,0.0324,0.013523,0.002678,0.000431,0.141034
138709000,0.0324,0.013523,0.002678,0.000431,0.159603
138710000,0.0324,0.013523,0.002678,0.000431,0.176057
138711000,0.0324,0.013523,0.002678,0.000431,0.523823
138712000,0.0324,0.013523,0.002678,0.000431,0.219660
138713000,0.0324,0.013523,0.002678,0.000431,0.174764
138714000,0.0324,0.013523,0.002678,0.000431,0.144207
138715000,0.0324,0.013523,0.002678,0.000431,0.123992
138716000,0.0324,0.013523,0.002678,0.000431,0.107538
138717000,0.0324,0.013523,0.002678,0.000431,0.082152
138718000,0.0324,0.013523,0.002678,0.000431,0.077569
138719000,0.0324,0.013523,0.002678,0.000431,0.055473
138720000,0.0324,0.013523,0.002678,0.000431,0.061820
138721000,0.0324,0.013523,0.002678,0.000431,0.048069
138722000,0.0324,0.013523,0.002678,0.000431,0.044073
138723000,0.0324,0.013523,0.002678,0.000431,0.046189
138724000,0.0324,0.013523,0.002678,0.000431,0.034671
138725000,0.0324,0.013523,0.002678,0.000431,0.037374
138726000,0.0324,0.013523,0.002678,0.000431,0.035494
138727000,0.0324,0.013523,0.002678,0.000431,0.029970
138728000,0.0324,0.013523,0.002678,0.000431,0.023976
138729000,0.0324,0.013523,0.002678,0.000431,0.023741
138730000,0.0324,0.013523,0.002678,0.000431,0.022918
138731000,0.0324,0.013523,0.002678,0.000431,0.018452
138732000,0.0324,0.013523,0.002678,0.000431,0.017629
138733000,0.0324,0.013523,0.002678,0.000431,0.016571
138734000,0.0324,0.013523,0.002678,0.000431,0.013868
138735000,0.0324,0.013523,0.002678,0.000431,0.015279
138736000,0.0324,0.013523,0.002678,0.000431,0.010342
138737000,0.0324,0.013523,0.002678,0.000431,0.010578
138738000,0.0324,0.013523,0.002678,0.000431,0.010695
138739000,0.0324,0.013523,0.002678,0.000431,0.009167
138740000,0.0324,0.013523,0.002678,0.000431,0.012928
138741000,0.0324,0.013523,0.002678,0.000431,0.008227
138742000,0.0324,0.013523,0.002678,0.000431,0.011400
138743000,0.0324,0.013523,0.002678,0.000431,0.010813
138744000,0.0324,0.013523,0.002678,0.000431,0.008580
138745000,0.0324,0.013523,0.002678,0.000431,0.006582
138746000,0.0324,0.013523,0.002678,0.000431,0.006464
138747000,0.0324,0.013523,0.002678,0.000431,0.012576
138748000,0.0324,0.013523,0.002678,0.000431,0.004819
138749000,0.0324,0.013523,0.002678,0.000431,0.005289
138750000,0.0324,0.013523,0.002678,0.000431,0.004936
138751000,0.0324,0.013523,0.002678,0.000431,0.004584
138752000,0.0324,0.013523,0.002678,0.000431,0.004936
138753000,0.0324,0.013523,0.002678,0.000431,0.007404
138754000,0.0324,0.013523,0.002678,0.000431,0.003878
138755000,0.0324,0.013523,0.002678,0.000431,0.003996
138756000,0.0324,0.013523,0.002678,0.000431,0.004231
138757000,0.0324,0.013523,0.002678,0.000431,0.003761
138758000,0.0324,0.013523,0.002678,0.000431,0.004113
138759000,0.0324,0.013523,0.002678,0.000431,0.003526
138760000,0.0324,0.013523,0.002678,0.000431,0.005406
138761000,0.0324,0.013523,0.002678,0.000431,0.002468
138762000,0.0324,0.013523,0.002678,0.000431,0.002703
138763000,0.0324,0.013523,0.002678,0.000431,0.002586
138764000,0.0324,0.013523,0.002678,0.000431,0.002468
138765000,0.0324,0.013523,0.002678,0.000431,0.002586
138766000,0.0324,0.013523,0.002678,0.000431,0.002351
138767000,0.0324,0.013523,0.002678,0.000431,0.004819
138768000,0.0324,0.013523,0.002678,0.000431,0.001763
138769000,0.0324,0.013523,0.002678,0.000431,0.001763
138770000,0.0324,0.013523,0.002678,0.000431,0.001763
138771000,0.0324,0.013523,0.002678,0.000431,0.001763
138772000,0.0324,0.013523,0.002678,0.000431,0.001528
138773000,0.0324,0.013523,0.002678,0.000431,0.001763
138774000,0.0324,0.013523,0.002678,0.000431,0.001880
138775000,0.0324,0.013523,0.002678,0.000431,0.001645
138776000,0.0324,0.013523,0.002678,0.000431,0.001645
138777000,0.0324,0.013523,0.002678,0.000431,0.001763
138778000,0.0324,0.013523,0.002678,0.000431,0.001645
138779000,0.0324,0.013523,0.002678,0.000431,0.001763
138780000,0.0324,0.013523,0.002678,0.000431,0.001645
138781000,0.0324,0.013523,0.002678,0.000431,0.001880
138782000,0.0324,0.013523,0.002678,0.000431,0.001528
138783000,0.0324,0.013523,0.002678,0.000431,0.001763
138784000,0.0324,0.013523,0.002678,0.000431,0.001645
138785000,0.0324,0.013523,0.002678,0.000431,0.001880
138786000,0.0324,0.013523,0.002678,0.000431,0.001645
138787000,0.0324,0.013523,0.002678,0.000431,0.001645
138788000,0.0324,0.013523,0.002678,0.000431,0.001880
138789000,0.0324,0.013523,0.002678,0.000431,0.001645
138790000,0.0324,0.013523,0.002678,0.000431,0.001645
138791000,0.0324,0.013523,0.002678,0.000431,0.001763
138792000,0.0324,0.013523,0.002678,0.000431,0.001763
138793000,0.0324,0.013523,0.002678,0.000431,0.001763
138794000,0.0324,0.013523,0.002678,0.000431,0.001645
138795000,0.0324,0.013523,0.002678,0.000431,0.001763
138796000,0.0324,0.013523,0.002678,0.000431,0.001645
138797000,0.0324,0.013523,0.002678,0.000431,0.001880
138798000,0.0324,0.013523,0.002678,0.000431,0.001763
138799000,0.0324,0.013523,0.002678,0.000431,0.001528
138800000,0.0324,0.013523,0.002678,0.000431,0.001763
138801000,0.0324,0.013523,0.002678,0.000431,0.001763
138802000,0.0324,0.013523,0.002678,0.000431,0.001763
138803000,0.0324,0.013523,0.002678,0.000431,0.001763
138804000,0.0324,0.013523,0.002678,0.000431,0.001763
138805000,0.0324,0.013523,0.002678,0.000431,0.001645
138806000,0.0324,0.013523,0.002678,0.000431,0.001880
138807000,0.0324,0.013523,0.002678,0.000431,0.001645
138808000,0.0324,0.013523,0.002678,0.000431,0.001763
138809000,0.0324,0.013523,0.002678,0.000431,0.001528
138810000,0.0324,0.013523,0.002678,0.000431,0.001763
138811000,0.0324,0.013523,0.002678,0.000431,0.001880
138812000,0.0324,0.013523,0.002678,0.000431,0.001645
138813000,0.0324,0.013523,0.002678,0.000431,0.005054
138814000,0.0324,0.013523,0.002678,0.000431,0.000705
138815000,0.0324,0.013523,0.002678,0.000431,0.000940
138816000,0.0324,0.013523,0.002678,0.000431,0.000823
138817000,0.0324,0.013523,0.002678,0.000431,0.000823
138818000,0.0324,0.013523,0.002678,0.000431,0.000940
138819000,0.0324,0.013523,0.002678,0.000431,0.000705
138820000,0.0324,0.013523,0.002678,0.000431,0.000940
138821000,0.0324,0.013523,0.002678,0.000431,0.000823
138822000,0.0324,0.013523,0.002678,0.000431,0.000823
138823000,0.0324,0.013523,0.002678,0.000431,0.000823
138824000,0.0324,0.013523,0.002678,0.000431,0.000823
138825000,0.0324,0.013523,0.002678,0.000431,0.000823
138826000,0.0324,0.013523,0.002678,0.000431,0.000823
138827000,0.0324,0.013523,0.002678,0.000431,0.000940
138828000,0.0324,0.013523,0.002678,0.000431,0.000705
138829000,0.0324,0.013523,0.002678,0.000431,0.000940
138830000,0.0324,0.013523,0.002678,0.000431,0.000823
138831000,0.0324,0.013523,0.002678,0.000431,0.000823
138832000,0.0324,0.013523,0.002678,0.000431,0.000705
138833000,0.0324,0.013523,0.002678,0.000431,0.000940
138834000,0.0324,0.013523,0.002678,0.000431,0.000940
138835000,0.0324,0.013523,0.002678,0.000431,0.000705
138836000,0.0324,0.013523,0.002678,0.000431,0.000940
138837000,0.0324,0.013523,0.002678,0.000431,0.000705
138838000,0.0324,0.013523,0.002678,0.000431,0.000940
138839000,0.0324,0.013523,0.002678,0.000431,0.000823
138840000,0.0324,0.013523,0.002678,0.000431,0.000823
138841000,0.0324,0.013523,0.002678,0.000431,0.000940
138842000,0.0324,0.013523,0.002678,0.000431,0.000705
138843000,0.0324,0.013523,0.002678,0.000431,0.000940
138844000,0.0324,0.013523,0.002678,0.000431,0.000823
138845000,0.0324,0.013523,0.002678,0.000431,0.000823
138846000,0.0324,0.013523,0.002678,0.000431,0.000823
138847000,0.0324,0.013523,0.002678,0.000431,0.000823
138848000,0.0324,0.013523,0.002678,0.000431,0.000823
138849000,0.0324,0.013523,0.002678,0.000431,0.000823
138850000,0.0324,0.013523,0.002678,0.000431,0.000940
138851000,0.0324,0.013523,0.002678,0.000431,0.000705
138852000,0.0324,0.013523,0.002678,0.000431,0.072280
138853000,0.0324,0.013523,0.002678,0.000431,0.734199
138854000,0.0324,0.013523,0.002678,0.000431,0.562725
138855000,0.0324,0.013523,0.002678,0.000431,0.134922
138856000,0.0324,0.013523,0.002678,0.000431,0.151964
138857000,0.0324,0.013523,0.002678,0.000431,0.606798
138858000,0.0324,0.013523,0.002678,0.000431,0.247632
138859000,0.0324,0.013523,0.002678,0.000431,0.363867
138860000,0.0324,0.013523,0.002678,0.000431,0.148086
138861000,0.0324,0.013523,0.002678,0.000431,0.165832
138862000,0.0324,0.013523,0.002678,0.000431,0.155020
138863000,0.0324,0.013523,0.002678,0.000431,0.500435
138864000,0.0324,0.013523,0.002678,0.000431,0.186635
138865000,0.0324,0.013523,0.002678,0.000431,0.150789
138866000,0.0324,0.013523,0.002678,0.000431,0.126695
138867000,0.0324,0.013523,0.002678,0.000431,0.103072
138868000,0.0324,0.013523,0.002678,0.000431,0.073690
138869000,0.0324,0.013523,0.002678,0.000431,0.060527
138870000,0.0324,0.013523,0.002678,0.000431,0.051830
138871000,0.0324,0.013523,0.002678,0.000431,0.041135
138872000,0.0324,0.013523,0.002678,0.000431,0.032555
138873000,0.0324,0.013523,0.002678,0.000431,0.030205
138874000,0.0324,0.013523,0.002678,0.000431,0.022213
138875000,0.0324,0.013523,0.002678,0.000431,0.024211
138876000,0.0324,0.013523,0.002678,0.000431,0.025034
138877000,0.0324,0.013523,0.002678,0.000431,0.018452
138878000,0.0324,0.013523,0.002678,0.000431,0.014103
138879000,0.0324,0.013523,0.002678,0.000431,0.015279
138880000,0.0324,0.013523,0.002678,0.000431,0.013398
138881000,0.0324,0.013523,0.002678,0.000431,0.013633
138882000,0.0324,0.013523,0.002678,0.000431,0.013986
138883000,0.0324,0.013523,0.002678,0.000431,0.013986
138884000,0.0324,0.013523,0.002678,0.000431,0.013163
138885000,0.0324,0.013523,0.002678,0.000431,0.015279
138886000,0.0324,0.013523,0.002678,0.000431,0.012105
138887000,0.0324,0.013523,0.002678,0.000431,0.009285
138888000,0.0324,0.013523,0.002678,0.000431,0.009402
138889000,0.0324,0.013523,0.002678,0.000431,0.009990
138890000,0.0324,0.013523,0.002678,0.000431,0.009755
138891000,0.0324,0.013523,0.002678,0.000431,0.011988
138892000,0.0324,0.013523,0.002678,0.000431,0.010578
138893000,0.0324,0.013523,0.002678,0.000431,0.006582
138894000,0.0324,0.013523,0.002678,0.000431,0.005994
138895000,0.0324,0.013523,0.002678,0.000431,0.008932
138896000,0.0324,0.013523,0.002678,0.000431,0.007169
138897000,0.0324,0.013523,0.002678,0.000431,0.004584
138898000,0.0324,0.013523,0.002678,0.000431,0.005641
138899000,0.0324,0.013523,0.002678,0.000431,0.004466
138900000,0.0324,0.013523,0.002678,0.000431,0.003526
138901000,0.0324,0.013523,0.002678,0.000431,0.003173
138902000,0.0324,0.013523,0.002678,0.000431,0.003761
138903000,0.0324,0.013523,0.002678,0.000431,0.003291
138904000,0.0324,0.013523,0.002678,0.000431,0.003291
138905000,0.0324,0.013523,0.002678,0.000431,0.003526
138906000,0.0324,0.013523,0.002678,0.000431,0.003408
138907000,0.0324,0.013523,0.002678,0.000431,0.003643
138908000,0.0324,0.013523,0.002678,0.000431,0.003173
138909000,0.0324,0.013523,0.002678,0.000431,0.003643
138910000,0.0324,0.013523,0.002678,0.000431,0.005054
138911000,0.0324,0.013523,0.002678,0.000431,0.002821
138912000,0.0324,0.013523,0.002678,0.000431,0.002351
138913000,0.0324,0.013523,0.002678,0.000431,0.002586
138914000,0.0324,0.013523,0.002678,0.000431,0.002468
138915000,0.0324,0.013523,0.002678,0.000431,0.002703
138916000,0.0324,0.013523,0.002678,0.000431,0.002586
138917000,0.0324,0.013523,0.002678,0.000431,0.004936
138918000,0.0324,0.013523,0.002678,0.000431,0.001763
138919000,0.0324,0.013523,0.002678,0.000431,0.001528
138920000,0.0324,0.013523,0.002678,0.000431,0.001763
138921000,0.0324,0.013523,0.002678,0.000431,0.001528
138922000,0.0324,0.013523,0.002678,0.000431,0.001763
138923000,0.0324,0.013523,0.002678,0.000431,0.001880
138924000,0.0324,0.013523,0.002678,0.000431,0.001410
138925000,0.0324,0.013523,0.002678,0.000431,0.001880
138926000,0.0324,0.013523,0.002678,0.000431,0.001528
138927000,0.0324,0.013523,0.002678,0.000431,0.001763
138928000,0.0324,0.013523,0.002678,0.000431,0.001763
138929000,0.0324,0.013523,0.002678,0.000431,0.001763
138930000,0.0324,0.013523,0.002678,0.000431,0.004231
138931000,0.0324,0.013523,0.002678,0.000431,0.000823
138932000,0.0324,0.013523,0.002678,0.000431,0.000940
138933000,0.0324,0.013523,0.002678,0.000431,0.000705
138934000,0.0324,0.013523,0.002678,0.000431,0.000940
138935000,0.0324,0.013523,0.002678,0.000431,0.000823
138936000,0.0324,0.013523,0.002678,0.000431,0.000823
138937000,0.0324,0.013523,0.002678,0.000431,0.000823
138938000,0.0324,0.013523,0.002678,0.000431,0.000823
138939000,0.0324,0.013523,0.002678,0.000431,0.000823
138940000,0.0324,0.013523,0.002678,0.000431,0.000823
138941000,0.0324,0.013523,0.002678,0.000431,0.000823
138942000,0.0324,0.013523,0.002678,0.000431,0.000823
138943000,0.0324,0.013523,0.002678,0.000431,0.010578
138944000,0.0324,0.013523,0.002678,0.000431,0.623840
138945000,0.0324,0.013523,0.002678,0.000431,0.640529
138946000,0.0324,0.013523,0.002678,0.000431,0.134452
138947000,0.0324,0.013523,0.002678,0.000431,0.134922
138948000,0.0324,0.013523,0.002678,0.000431,0.578944
138949000,0.0324,0.013523,0.002678,0.000431,0.247514
138950000,0.0324,0.013523,0.002678,0.000431,0.288179
138951000,0.0324,0.013523,0.002678,0.000431,0.246457
138952000,0.0324,0.013523,0.002678,0.000431,0.144325
138953000,0.0324,0.013523,0.002678,0.000431,0.134687
138954000,0.0324,0.013523,0.002678,0.000431,0.322732
138955000,0.0324,0.013523,0.002678,0.000431,0.453894
138956000,0.0324,0.013523,0.002678,0.000431,0.216604
138957000,0.0324,0.013523,0.002678,0.000431,0.180876
138958000,0.0324,0.013523,0.002678,0.000431,0.140211
138959000,0.0324,0.013523,0.002678,0.000431,0.133865
138960000,0.0324,0.013523,0.002678,0.000431,0.107891
138961000,0.0324,0.013523,0.002678,0.000431,0.092847
138962000,0.0324,0.013523,0.002678,0.000431,0.070987
138963000,0.0324,0.013523,0.002678,0.000431,0.053945
138964000,0.0324,0.013523,0.002678,0.000431,0.054180
138965000,0.0324,0.013523,0.002678,0.000431,0.046659
138966000,0.0324,0.013523,0.002678,0.000431,0.045248
138967000,0.0324,0.013523,0.002678,0.000431,0.035376
138968000,0.0324,0.013523,0.002678,0.000431,0.038197
138969000,0.0324,0.013523,0.002678,0.000431,0.034318
138970000,0.0324,0.013523,0.002678,0.000431,0.033966
138971000,0.0324,0.013523,0.002678,0.000431,0.030910
138972000,0.0324,0.013523,0.002678,0.000431,0.028324
138973000,0.0324,0.013523,0.002678,0.000431,0.029970
138974000,0.0324,0.013523,0.002678,0.000431,0.030205
138975000,0.0324,0.013523,0.002678,0.000431,0.024798
138976000,0.0324,0.013523,0.002678,0.000431,0.025856
138977000,0.0324,0.013523,0.002678,0.000431,0.020097
138978000,0.0324,0.013523,0.002678,0.000431,0.019510
138979000,0.0324,0.013523,0.002678,0.000431,0.019157
138980000,0.0324,0.013523,0.002678,0.000431,0.017864
138981000,0.0324,0.013523,0.002678,0.000431,0.020685
138982000,0.0324,0.013523,0.002678,0.000431,0.017394
138983000,0.0324,0.013523,0.002678,0.000431,0.012928
138984000,0.0324,0.013523,0.002678,0.000431,0.017747
138985000,0.0324,0.013523,0.002678,0.000431,0.012928
138986000,0.0324,0.013523,0.002678,0.000431,0.013633
138987000,0.0324,0.013523,0.002678,0.000431,0.017277
138988000,0.0324,0.013523,0.002678,0.000431,0.010813
138989000,0.0324,0.013523,0.002678,0.000431,0.013163
138990000,0.0324,0.013523,0.002678,0.000431,0.011048
138991000,0.0324,0.013523,0.002678,0.000431,0.010813
138992000,0.0324,0.013523,0.002678,0.000431,0.011635
138993000,0.0324,0.013523,0.002678,0.000431,0.009637
138994000,0.0324,0.013523,0.002678,0.000431,0.010813
138995000,0.0324,0.013523,0.002678,0.000431,0.010460
138996000,0.0324,0.013523,0.002678,0.000431,0.013516
138997000,0.0324,0.013523,0.002678,0.000431,0.011518
138998000,0.0324,0.013523,0.002678,0.000431,0.007874
138999000,0.0324,0.013523,0.002678,0.000431,0.007522
