Cycle,Area(mm^2),PeakDynamic(W),SubthresholdLeakage(W),GateLeakage(W),RunTimeDynamic(W)
68000000,0.0324,0.013523,0.002678,0.000431,0.058647
68001000,0.0324,0.013523,0.002678,0.000431,0.040782
68002000,0.0324,0.013523,0.002678,0.000431,0.034671
68003000,0.0324,0.013523,0.002678,0.000431,0.038432
68004000,0.0324,0.013523,0.002678,0.000431,0.033143
68005000,0.0324,0.013523,0.002678,0.000431,0.024446
68006000,0.0324,0.013523,0.002678,0.000431,0.023976
68007000,0.0324,0.013523,0.002678,0.000431,0.021860
68008000,0.0324,0.013523,0.002678,0.000431,0.020097
68009000,0.0324,0.013523,0.002678,0.000431,0.019275
68010000,0.0324,0.013523,0.002678,0.000431,0.018217
68011000,0.0324,0.013523,0.002678,0.000431,0.017864
68012000,0.0324,0.013523,0.002678,0.000431,0.018922
68013000,0.0324,0.013523,0.002678,0.000431,0.017159
68014000,0.0324,0.013523,0.002678,0.000431,0.015749
68015000,0.0324,0.013523,0.002678,0.000431,0.015984
68016000,0.0324,0.013523,0.002678,0.000431,0.015161
68017000,0.0324,0.013523,0.002678,0.000431,0.016689
68018000,0.0324,0.013523,0.002678,0.000431,0.013633
68019000,0.0324,0.013523,0.002678,0.000431,0.014103
68020000,0.0324,0.013523,0.002678,0.000431,0.012928
68021000,0.0324,0.013523,0.002678,0.000431,0.016219
68022000,0.0324,0.013523,0.002678,0.000431,0.014103
68023000,0.0324,0.013523,0.002678,0.000431,0.013046
68024000,0.0324,0.013523,0.002678,0.000431,0.011518
68025000,0.0324,0.013523,0.002678,0.000431,0.010578
68026000,0.0324,0.013523,0.002678,0.000431,0.011165
68027000,0.0324,0.013523,0.002678,0.000431,0.011518
68028000,0.0324,0.013523,0.002678,0.000431,0.010225
68029000,0.0324,0.013523,0.002678,0.000431,0.009990
68030000,0.0324,0.013523,0.002678,0.000431,0.011635
68031000,0.0324,0.013523,0.002678,0.000431,0.008227
68032000,0.0324,0.013523,0.002678,0.000431,0.008697
68033000,0.0324,0.013523,0.002678,0.000431,0.007757
68034000,0.0324,0.013523,0.002678,0.000431,0.008932
68035000,0.0324,0.013523,0.002678,0.000431,0.008227
68036000,0.0324,0.013523,0.002678,0.000431,0.008227
68037000,0.0324,0.013523,0.002678,0.000431,0.008227
68038000,0.0324,0.013523,0.002678,0.000431,0.007992
68039000,0.0324,0.013523,0.002678,0.000431,0.007757
68040000,0.0324,0.013523,0.002678,0.000431,0.007522
68041000,0.0324,0.013523,0.002678,0.000431,0.009755
68042000,0.0324,0.013523,0.002678,0.000431,0.006934
68043000,0.0324,0.013523,0.002678,0.000431,0.007169
68044000,0.0324,0.013523,0.002678,0.000431,0.006464
68045000,0.0324,0.013523,0.002678,0.000431,0.009050
68046000,0.0324,0.013523,0.002678,0.000431,0.007404
68047000,0.0324,0.013523,0.002678,0.000431,0.005171
68048000,0.0324,0.013523,0.002678,0.000431,0.004701
68049000,0.0324,0.013523,0.002678,0.000431,0.005406
68050000,0.0324,0.013523,0.002678,0.000431,0.004936
68051000,0.0324,0.013523,0.002678,0.000431,0.005171
68052000,0.0324,0.013523,0.002678,0.000431,0.007169
68053000,0.0324,0.013523,0.002678,0.000431,0.004349
68054000,0.0324,0.013523,0.002678,0.000431,0.005876
68055000,0.0324,0.013523,0.002678,0.000431,0.003291
68056000,0.0324,0.013523,0.002678,0.000431,0.003526
68057000,0.0324,0.013523,0.002678,0.000431,0.003526
68058000,0.0324,0.013523,0.002678,0.000431,0.005759
68059000,0.0324,0.013523,0.002678,0.000431,0.002468
68060000,0.0324,0.013523,0.002678,0.000431,0.002586
68061000,0.0324,0.013523,0.002678,0.000431,0.002468
68062000,0.0324,0.013523,0.002678,0.000431,0.003643
68063000,0.0324,0.013523,0.002678,0.000431,0.003056
68064000,0.0324,0.013523,0.002678,0.000431,0.001528
68065000,0.0324,0.013523,0.002678,0.000431,0.001763
68066000,0.0324,0.013523,0.002678,0.000431,0.001880
68067000,0.0324,0.013523,0.002678,0.000431,0.001528
68068000,0.0324,0.013523,0.002678,0.000431,0.001763
68069000,0.0324,0.013523,0.002678,0.000431,0.001763
68070000,0.0324,0.013523,0.002678,0.000431,0.001763
68071000,0.0324,0.013523,0.002678,0.000431,0.003056
68072000,0.0324,0.013523,0.002678,0.000431,0.002586
68073000,0.0324,0.013523,0.002678,0.000431,0.000823
68074000,0.0324,0.013523,0.002678,0.000431,0.000823
68075000,0.0324,0.013523,0.002678,0.000431,0.000705
68076000,0.0324,0.013523,0.002678,0.000431,0.000940
68077000,0.0324,0.013523,0.002678,0.000431,0.000940
68078000,0.0324,0.013523,0.002678,0.000431,0.000705
68079000,0.0324,0.013523,0.002678,0.000431,0.000940
68080000,0.0324,0.013523,0.002678,0.000431,0.000705
68081000,0.0324,0.013523,0.002678,0.000431,0.000940
68082000,0.0324,0.013523,0.002678,0.000431,0.000823
68083000,0.0324,0.013523,0.002678,0.000431,0.000823
68084000,0.0324,0.013523,0.002678,0.000431,0.000940
68085000,0.0324,0.013523,0.002678,0.000431,0.000705
68086000,0.0324,0.013523,0.002678,0.000431,0.000940
68087000,0.0324,0.013523,0.002678,0.000431,0.000823
68088000,0.0324,0.013523,0.002678,0.000431,0.000823
68089000,0.0324,0.013523,0.002678,0.000431,0.000823
68090000,0.0324,0.013523,0.002678,0.000431,0.000823
68091000,0.0324,0.013523,0.002678,0.000431,0.000823
68092000,0.0324,0.013523,0.002678,0.000431,0.000823
68093000,0.0324,0.013523,0.002678,0.000431,0.000940
68094000,0.0324,0.013523,0.002678,0.000431,0.000705
68095000,0.0324,0.013523,0.002678,0.000431,0.000940
68096000,0.0324,0.013523,0.002678,0.000431,0.000823
68097000,0.0324,0.013523,0.002678,0.000431,0.000823
68098000,0.0324,0.013523,0.002678,0.000431,0.000823
68099000,0.0324,0.013523,0.002678,0.000431,0.000823
68100000,0.0324,0.013523,0.002678,0.000431,0.000940
68101000,0.0324,0.013523,0.002678,0.000431,0.000705
68102000,0.0324,0.013523,0.002678,0.000431,0.000940
68103000,0.0324,0.013523,0.002678,0.000431,0.000705
68104000,0.0324,0.013523,0.002678,0.000431,0.000940
68105000,0.0324,0.013523,0.002678,0.000431,0.000940
68106000,0.0324,0.013523,0.002678,0.000431,0.000705
68107000,0.0324,0.013523,0.002678,0.000431,0.000940
68108000,0.0324,0.013523,0.002678,0.000431,0.000705
68109000,0.0324,0.013523,0.002678,0.000431,0.000940
68110000,0.0324,0.013523,0.002678,0.000431,0.000823
68111000,0.0324,0.013523,0.002678,0.000431,0.000823
68112000,0.0324,0.013523,0.002678,0.000431,0.000940
68113000,0.0324,0.013523,0.002678,0.000431,0.000705
68114000,0.0324,0.013523,0.002678,0.000431,0.000940
68115000,0.0324,0.013523,0.002678,0.000431,0.000823
68116000,0.0324,0.013523,0.002678,0.000431,0.000823
68117000,0.0324,0.013523,0.002678,0.000431,0.000823
68118000,0.0324,0.013523,0.002678,0.000431,0.000823
68119000,0.0324,0.013523,0.002678,0.000431,0.000823
68120000,0.0324,0.013523,0.002678,0.000431,0.000823
68121000,0.0324,0.013523,0.002678,0.000431,0.000940
68122000,0.0324,0.013523,0.002678,0.000431,0.000705
68123000,0.0324,0.013523,0.002678,0.000431,0.000823
68124000,0.0324,0.013523,0.002678,0.000431,0.000940
68125000,0.0324,0.013523,0.002678,0.000431,0.000823
68126000,0.0324,0.013523,0.002678,0.000431,0.000823
68127000,0.0324,0.013523,0.002678,0.000431,0.000823
68128000,0.0324,0.013523,0.002678,0.000431,0.000705
68129000,0.0324,0.013523,0.002678,0.000431,0.000940
68130000,0.0324,0.013523,0.002678,0.000431,0.000940
68131000,0.0324,0.013523,0.002678,0.000431,0.000705
68132000,0.0324,0.013523,0.002678,0.000431,0.000940
68133000,0.0324,0.013523,0.002678,0.000431,0.000705
68134000,0.0324,0.013523,0.002678,0.000431,0.000940
68135000,0.0324,0.013523,0.002678,0.000431,0.211903
68136000,0.0324,0.013523,0.002678,0.000431,0.535576
68137000,0.0324,0.013523,0.002678,0.000431,0.485509
68138000,0.0324,0.013523,0.002678,0.000431,0.133159
68139000,0.0324,0.013523,0.002678,0.000431,0.133982
68140000,0.0324,0.013523,0.002678,0.000431,0.645582
68141000,0.0324,0.013523,0.002678,0.000431,0.226359
68142000,0.0324,0.013523,0.002678,0.000431,0.265966
68143000,0.0324,0.013523,0.002678,0.000431,0.247279
68144000,0.0324,0.013523,0.002678,0.000431,0.144912
68145000,0.0324,0.013523,0.002678,0.000431,0.170533
68146000,0.0324,0.013523,0.002678,0.000431,0.102485
68147000,0.0324,0.013523,0.002678,0.000431,0.468232
68148000,0.0324,0.013523,0.002678,0.000431,0.077098
68149000,0.0324,0.013523,0.002678,0.000431,0.040782
68150000,0.0324,0.013523,0.002678,0.000431,0.045248
68151000,0.0324,0.013523,0.002678,0.000431,0.025974
68152000,0.0324,0.013523,0.002678,0.000431,0.026091
68153000,0.0324,0.013523,0.002678,0.000431,0.019745
68154000,0.0324,0.013523,0.002678,0.000431,0.015044
68155000,0.0324,0.013523,0.002678,0.000431,0.015396
68156000,0.0324,0.013523,0.002678,0.000431,0.012105
68157000,0.0324,0.013523,0.002678,0.000431,0.011048
68158000,0.0324,0.013523,0.002678,0.000431,0.008932
68159000,0.0324,0.013523,0.002678,0.000431,0.014809
68160000,0.0324,0.013523,0.002678,0.000431,0.005406
68161000,0.0324,0.013523,0.002678,0.000431,0.005054
68162000,0.0324,0.013523,0.002678,0.000431,0.006111
68163000,0.0324,0.013523,0.002678,0.000431,0.005406
68164000,0.0324,0.013523,0.002678,0.000431,0.003173
68165000,0.0324,0.013523,0.002678,0.000431,0.003761
68166000,0.0324,0.013523,0.002678,0.000431,0.003056
68167000,0.0324,0.013523,0.002678,0.000431,0.003526
68168000,0.0324,0.013523,0.002678,0.000431,0.003291
68169000,0.0324,0.013523,0.002678,0.000431,0.003526
68170000,0.0324,0.013523,0.002678,0.000431,0.003173
68171000,0.0324,0.013523,0.002678,0.000431,0.003408
68172000,0.0324,0.013523,0.002678,0.000431,0.003761
68173000,0.0324,0.013523,0.002678,0.000431,0.002938
68174000,0.0324,0.013523,0.002678,0.000431,0.003761
68175000,0.0324,0.013523,0.002678,0.000431,0.003173
68176000,0.0324,0.013523,0.002678,0.000431,0.005289
68177000,0.0324,0.013523,0.002678,0.000431,0.002351
68178000,0.0324,0.013523,0.002678,0.000431,0.002586
68179000,0.0324,0.013523,0.002678,0.000431,0.002586
68180000,0.0324,0.013523,0.002678,0.000431,0.002351
68181000,0.0324,0.013523,0.002678,0.000431,0.002586
68182000,0.0324,0.013523,0.002678,0.000431,0.002351
68183000,0.0324,0.013523,0.002678,0.000431,0.002703
68184000,0.0324,0.013523,0.002678,0.000431,0.002468
68185000,0.0324,0.013523,0.002678,0.000431,0.002468
68186000,0.0324,0.013523,0.002678,0.000431,0.002468
68187000,0.0324,0.013523,0.002678,0.000431,0.002586
68188000,0.0324,0.013523,0.002678,0.000431,0.002586
68189000,0.0324,0.013523,0.002678,0.000431,0.002468
68190000,0.0324,0.013523,0.002678,0.000431,0.002468
68191000,0.0324,0.013523,0.002678,0.000431,0.002468
68192000,0.0324,0.013523,0.002678,0.000431,0.002586
68193000,0.0324,0.013523,0.002678,0.000431,0.002468
68194000,0.0324,0.013523,0.002678,0.000431,0.003878
68195000,0.0324,0.013523,0.002678,0.000431,0.001880
68196000,0.0324,0.013523,0.002678,0.000431,0.001410
68197000,0.0324,0.013523,0.002678,0.000431,0.001763
68198000,0.0324,0.013523,0.002678,0.000431,0.001763
68199000,0.0324,0.013523,0.002678,0.000431,0.001645
68200000,0.0324,0.013523,0.002678,0.000431,0.001763
68201000,0.0324,0.013523,0.002678,0.000431,0.001528
68202000,0.0324,0.013523,0.002678,0.000431,0.001645
68203000,0.0324,0.013523,0.002678,0.000431,0.001763
68204000,0.0324,0.013523,0.002678,0.000431,0.001763
68205000,0.0324,0.013523,0.002678,0.000431,0.001528
68206000,0.0324,0.013523,0.002678,0.000431,0.001763
68207000,0.0324,0.013523,0.002678,0.000431,0.003173
68208000,0.0324,0.013523,0.002678,0.000431,0.000940
68209000,0.0324,0.013523,0.002678,0.000431,0.000940
68210000,0.0324,0.013523,0.002678,0.000431,0.000705
68211000,0.0324,0.013523,0.002678,0.000431,0.000940
68212000,0.0324,0.013523,0.002678,0.000431,0.000705
68213000,0.0324,0.013523,0.002678,0.000431,0.000940
68214000,0.0324,0.013523,0.002678,0.000431,0.000823
68215000,0.0324,0.013523,0.002678,0.000431,0.000823
68216000,0.0324,0.013523,0.002678,0.000431,0.000823
68217000,0.0324,0.013523,0.002678,0.000431,0.000823
68218000,0.0324,0.013523,0.002678,0.000431,0.000940
68219000,0.0324,0.013523,0.002678,0.000431,0.000705
68220000,0.0324,0.013523,0.002678,0.000431,0.000940
68221000,0.0324,0.013523,0.002678,0.000431,0.000823
68222000,0.0324,0.013523,0.002678,0.000431,0.000823
68223000,0.0324,0.013523,0.002678,0.000431,0.000823
68224000,0.0324,0.013523,0.002678,0.000431,0.000823
68225000,0.0324,0.013523,0.002678,0.000431,0.000823
68226000,0.0324,0.013523,0.002678,0.000431,0.000823
68227000,0.0324,0.013523,0.002678,0.000431,0.000940
68228000,0.0324,0.013523,0.002678,0.000431,0.000823
68229000,0.0324,0.013523,0.002678,0.000431,0.000823
68230000,0.0324,0.013523,0.002678,0.000431,0.000705
68231000,0.0324,0.013523,0.002678,0.000431,0.000940
68232000,0.0324,0.013523,0.002678,0.000431,0.000940
68233000,0.0324,0.013523,0.002678,0.000431,0.000705
68234000,0.0324,0.013523,0.002678,0.000431,0.000940
68235000,0.0324,0.013523,0.002678,0.000431,0.000705
68236000,0.0324,0.013523,0.002678,0.000431,0.000940
68237000,0.0324,0.013523,0.002678,0.000431,0.000823
68238000,0.0324,0.013523,0.002678,0.000431,0.000823
68239000,0.0324,0.013523,0.002678,0.000431,0.000823
68240000,0.0324,0.013523,0.002678,0.000431,0.000823
68241000,0.0324,0.013523,0.002678,0.000431,0.000940
68242000,0.0324,0.013523,0.002678,0.000431,0.000823
68243000,0.0324,0.013523,0.002678,0.000431,0.000823
68244000,0.0324,0.013523,0.002678,0.000431,0.000823
68245000,0.0324,0.013523,0.002678,0.000431,0.000823
68246000,0.0324,0.013523,0.002678,0.000431,0.000823
68247000,0.0324,0.013523,0.002678,0.000431,0.000823
68248000,0.0324,0.013523,0.002678,0.000431,0.000940
68249000,0.0324,0.013523,0.002678,0.000431,0.000705
68250000,0.0324,0.013523,0.002678,0.000431,0.000823
68251000,0.0324,0.013523,0.002678,0.000431,0.000940
68252000,0.0324,0.013523,0.002678,0.000431,0.000823
68253000,0.0324,0.013523,0.002678,0.000431,0.000823
68254000,0.0324,0.013523,0.002678,0.000431,0.000823
68255000,0.0324,0.013523,0.002678,0.000431,0.000705
68256000,0.0324,0.013523,0.002678,0.000431,0.000940
68257000,0.0324,0.013523,0.002678,0.000431,0.000940
68258000,0.0324,0.013523,0.002678,0.000431,0.000705
68259000,0.0324,0.013523,0.002678,0.000431,0.000940
68260000,0.0324,0.013523,0.002678,0.000431,0.000705
68261000,0.0324,0.013523,0.002678,0.000431,0.000940
68262000,0.0324,0.013523,0.002678,0.000431,0.000940
68263000,0.0324,0.013523,0.002678,0.000431,0.000705
68264000,0.0324,0.013523,0.002678,0.000431,0.000940
68265000,0.0324,0.013523,0.002678,0.000431,0.000705
68266000,0.0324,0.013523,0.002678,0.000431,0.000940
68267000,0.0324,0.013523,0.002678,0.000431,0.000823
68268000,0.0324,0.013523,0.002678,0.000431,0.000823
68269000,0.0324,0.013523,0.002678,0.000431,0.000823
68270000,0.0324,0.013523,0.002678,0.000431,0.000823
68271000,0.0324,0.013523,0.002678,0.000431,0.000940
68272000,0.0324,0.013523,0.002678,0.000431,0.000705
68273000,0.0324,0.013523,0.002678,0.000431,0.000940
68274000,0.0324,0.013523,0.002678,0.000431,0.000705
68275000,0.0324,0.013523,0.002678,0.000431,0.000940
68276000,0.0324,0.013523,0.002678,0.000431,0.000823
68277000,0.0324,0.013523,0.002678,0.000431,0.000823
68278000,0.0324,0.013523,0.002678,0.000431,0.000705
68279000,0.0324,0.013523,0.002678,0.000431,0.000940
68280000,0.0324,0.013523,0.002678,0.000431,0.000940
68281000,0.0324,0.013523,0.002678,0.000431,0.000705
68282000,0.0324,0.013523,0.002678,0.000431,0.000940
68283000,0.0324,0.013523,0.002678,0.000431,0.000705
68284000,0.0324,0.013523,0.002678,0.000431,0.000940
68285000,0.0324,0.013523,0.002678,0.000431,0.000823
68286000,0.0324,0.013523,0.002678,0.000431,0.000823
68287000,0.0324,0.013523,0.002678,0.000431,0.000940
68288000,0.0324,0.013523,0.002678,0.000431,0.000705
68289000,0.0324,0.013523,0.002678,0.000431,0.000940
68290000,0.0324,0.013523,0.002678,0.000431,0.000823
68291000,0.0324,0.013523,0.002678,0.000431,0.000823
68292000,0.0324,0.013523,0.002678,0.000431,0.000823
68293000,0.0324,0.013523,0.002678,0.000431,0.000823
68294000,0.0324,0.013523,0.002678,0.000431,0.000823
68295000,0.0324,0.013523,0.002678,0.000431,0.000823
68296000,0.0324,0.013523,0.002678,0.000431,0.000823
68297000,0.0324,0.013523,0.002678,0.000431,0.000823
68298000,0.0324,0.013523,0.002678,0.000431,0.000823
68299000,0.0324,0.013523,0.002678,0.000431,0.000823
68300000,0.0324,0.013523,0.002678,0.000431,0.000940
68301000,0.0324,0.013523,0.002678,0.000431,0.000823
68302000,0.0324,0.013523,0.002678,0.000431,0.000823
68303000,0.0324,0.013523,0.002678,0.000431,0.000705
68304000,0.0324,0.013523,0.002678,0.000431,0.000940
68305000,0.0324,0.013523,0.002678,0.000431,0.000940
68306000,0.0324,0.013523,0.002678,0.000431,0.000705
68307000,0.0324,0.013523,0.002678,0.000431,0.000940
68308000,0.0324,0.013523,0.002678,0.000431,0.000705
68309000,0.0324,0.013523,0.002678,0.000431,0.000940
68310000,0.0324,0.013523,0.002678,0.000431,0.000823
68311000,0.0324,0.013523,0.002678,0.000431,0.000823
68312000,0.0324,0.013523,0.002678,0.000431,0.000940
68313000,0.0324,0.013523,0.002678,0.000431,0.000705
68314000,0.0324,0.013523,0.002678,0.000431,0.000940
68315000,0.0324,0.013523,0.002678,0.000431,0.000823
68316000,0.0324,0.013523,0.002678,0.000431,0.000823
68317000,0.0324,0.013523,0.002678,0.000431,0.000823
68318000,0.0324,0.013523,0.002678,0.000431,0.000823
68319000,0.0324,0.013523,0.002678,0.000431,0.000940
68320000,0.0324,0.013523,0.002678,0.000431,0.000705
68321000,0.0324,0.013523,0.002678,0.000431,0.000940
68322000,0.0324,0.013523,0.002678,0.000431,0.000823
68323000,0.0324,0.013523,0.002678,0.000431,0.000823
68324000,0.0324,0.013523,0.002678,0.000431,0.000823
68325000,0.0324,0.013523,0.002678,0.000431,0.000823
68326000,0.0324,0.013523,0.002678,0.000431,0.000705
68327000,0.0324,0.013523,0.002678,0.000431,0.000940
68328000,0.0324,0.013523,0.002678,0.000431,0.000940
68329000,0.0324,0.013523,0.002678,0.000431,0.000705
68330000,0.0324,0.013523,0.002678,0.000431,0.000940
68331000,0.0324,0.013523,0.002678,0.000431,0.000705
68332000,0.0324,0.013523,0.002678,0.000431,0.000940
68333000,0.0324,0.013523,0.002678,0.000431,0.000940
68334000,0.0324,0.013523,0.002678,0.000431,0.000705
68335000,0.0324,0.013523,0.002678,0.000431,0.000940
68336000,0.0324,0.013523,0.002678,0.000431,0.000705
68337000,0.0324,0.013523,0.002678,0.000431,0.000940
68338000,0.0324,0.013523,0.002678,0.000431,0.000823
68339000,0.0324,0.013523,0.002678,0.000431,0.000823
68340000,0.0324,0.013523,0.002678,0.000431,0.000823
68341000,0.0324,0.013523,0.002678,0.000431,0.000823
68342000,0.0324,0.013523,0.002678,0.000431,0.000940
68343000,0.0324,0.013523,0.002678,0.000431,0.000705
68344000,0.0324,0.013523,0.002678,0.000431,0.000940
68345000,0.0324,0.013523,0.002678,0.000431,0.000705
68346000,0.0324,0.013523,0.002678,0.000431,0.000823
68347000,0.0324,0.013523,0.002678,0.000431,0.000940
68348000,0.0324,0.013523,0.002678,0.000431,0.000823
68349000,0.0324,0.013523,0.002678,0.000431,0.000823
68350000,0.0324,0.013523,0.002678,0.000431,0.000823
68351000,0.0324,0.013523,0.002678,0.000431,0.000823
68352000,0.0324,0.013523,0.002678,0.000431,0.000823
68353000,0.0324,0.013523,0.002678,0.000431,0.000940
68354000,0.0324,0.013523,0.002678,0.000431,0.000705
68355000,0.0324,0.013523,0.002678,0.000431,0.000940
68356000,0.0324,0.013523,0.002678,0.000431,0.000705
68357000,0.0324,0.013523,0.002678,0.000431,0.000940
68358000,0.0324,0.013523,0.002678,0.000431,0.000940
68359000,0.0324,0.013523,0.002678,0.000431,0.000705
68360000,0.0324,0.013523,0.002678,0.000431,0.000940
68361000,0.0324,0.013523,0.002678,0.000431,0.000705
68362000,0.0324,0.013523,0.002678,0.000431,0.000940
68363000,0.0324,0.013523,0.002678,0.000431,0.000823
68364000,0.0324,0.013523,0.002678,0.000431,0.000823
68365000,0.0324,0.013523,0.002678,0.000431,0.000823
68366000,0.0324,0.013523,0.002678,0.000431,0.000823
68367000,0.0324,0.013523,0.002678,0.000431,0.000940
68368000,0.0324,0.013523,0.002678,0.000431,0.000705
68369000,0.0324,0.013523,0.002678,0.000431,0.000940
68370000,0.0324,0.013523,0.002678,0.000431,0.000823
68371000,0.0324,0.013523,0.002678,0.000431,0.000823
68372000,0.0324,0.013523,0.002678,0.000431,0.000823
68373000,0.0324,0.013523,0.002678,0.000431,0.000823
68374000,0.0324,0.013523,0.002678,0.000431,0.071105
68375000,0.0324,0.013523,0.002678,0.000431,0.453424
68376000,0.0324,0.013523,0.002678,0.000431,0.604095
68377000,0.0324,0.013523,0.002678,0.000431,0.131161
68378000,0.0324,0.013523,0.002678,0.000431,0.134452
68379000,0.0324,0.013523,0.002678,0.000431,0.545448
68380000,0.0324,0.013523,0.002678,0.000431,0.226594
68381000,0.0324,0.013523,0.002678,0.000431,0.242696
68382000,0.0324,0.013523,0.002678,0.000431,0.339774
68383000,0.0324,0.013523,0.002678,0.000431,0.151376
68384000,0.0324,0.013523,0.002678,0.000431,0.142679
68385000,0.0324,0.013523,0.002678,0.000431,0.137861
68386000,0.0324,0.013523,0.002678,0.000431,0.237995
68387000,0.0324,0.013523,0.002678,0.000431,0.395835
68388000,0.0324,0.013523,0.002678,0.000431,0.105540
68389000,0.0324,0.013523,0.002678,0.000431,0.084385
68390000,0.0324,0.013523,0.002678,0.000431,0.068166
68391000,0.0324,0.013523,0.002678,0.000431,0.053358
68392000,0.0324,0.013523,0.002678,0.000431,0.045366
68393000,0.0324,0.013523,0.002678,0.000431,0.030440
68394000,0.0324,0.013523,0.002678,0.000431,0.027502
68395000,0.0324,0.013523,0.002678,0.000431,0.028677
68396000,0.0324,0.013523,0.002678,0.000431,0.028559
68397000,0.0324,0.013523,0.002678,0.000431,0.016807
68398000,0.0324,0.013523,0.002678,0.000431,0.014103
68399000,0.0324,0.013523,0.002678,0.000431,0.010813
68400000,0.0324,0.013523,0.002678,0.000431,0.010930
68401000,0.0324,0.013523,0.002678,0.000431,0.013163
68402000,0.0324,0.013523,0.002678,0.000431,0.009167
68403000,0.0324,0.013523,0.002678,0.000431,0.007404
68404000,0.0324,0.013523,0.002678,0.000431,0.007757
68405000,0.0324,0.013523,0.002678,0.000431,0.007639
68406000,0.0324,0.013523,0.002678,0.000431,0.007522
68407000,0.0324,0.013523,0.002678,0.000431,0.007404
68408000,0.0324,0.013523,0.002678,0.000431,0.007639
68409000,0.0324,0.013523,0.002678,0.000431,0.010578
68410000,0.0324,0.013523,0.002678,0.000431,0.008345
68411000,0.0324,0.013523,0.002678,0.000431,0.005406
68412000,0.0324,0.013523,0.002678,0.000431,0.005289
68413000,0.0324,0.013523,0.002678,0.000431,0.005171
68414000,0.0324,0.013523,0.002678,0.000431,0.006347
68415000,0.0324,0.013523,0.002678,0.000431,0.005171
68416000,0.0324,0.013523,0.002678,0.000431,0.004466
68417000,0.0324,0.013523,0.002678,0.000431,0.003408
68418000,0.0324,0.013523,0.002678,0.000431,0.003408
68419000,0.0324,0.013523,0.002678,0.000431,0.003643
68420000,0.0324,0.013523,0.002678,0.000431,0.003408
68421000,0.0324,0.013523,0.002678,0.000431,0.003526
68422000,0.0324,0.013523,0.002678,0.000431,0.003291
68423000,0.0324,0.013523,0.002678,0.000431,0.003526
68424000,0.0324,0.013523,0.002678,0.000431,0.003643
68425000,0.0324,0.013523,0.002678,0.000431,0.003291
68426000,0.0324,0.013523,0.002678,0.000431,0.003643
68427000,0.0324,0.013523,0.002678,0.000431,0.005759
68428000,0.0324,0.013523,0.002678,0.000431,0.002703
68429000,0.0324,0.013523,0.002678,0.000431,0.002468
68430000,0.0324,0.013523,0.002678,0.000431,0.002703
68431000,0.0324,0.013523,0.002678,0.000431,0.002586
68432000,0.0324,0.013523,0.002678,0.000431,0.002586
68433000,0.0324,0.013523,0.002678,0.000431,0.002468
68434000,0.0324,0.013523,0.002678,0.000431,0.002703
68435000,0.0324,0.013523,0.002678,0.000431,0.002703
68436000,0.0324,0.013523,0.002678,0.000431,0.002703
68437000,0.0324,0.013523,0.002678,0.000431,0.002586
68438000,0.0324,0.013523,0.002678,0.000431,0.004231
68439000,0.0324,0.013523,0.002678,0.000431,0.003761
68440000,0.0324,0.013523,0.002678,0.000431,0.003173
68441000,0.0324,0.013523,0.002678,0.000431,0.000823
68442000,0.0324,0.013523,0.002678,0.000431,0.000940
68443000,0.0324,0.013523,0.002678,0.000431,0.000940
68444000,0.0324,0.013523,0.002678,0.000431,0.027149
68445000,0.0324,0.013523,0.002678,0.000431,0.579884
68446000,0.0324,0.013523,0.002678,0.000431,0.592695
68447000,0.0324,0.013523,0.002678,0.000431,0.131632
68448000,0.0324,0.013523,0.002678,0.000431,0.134217
68449000,0.0324,0.013523,0.002678,0.000431,0.566956
68450000,0.0324,0.013523,0.002678,0.000431,0.231531
68451000,0.0324,0.013523,0.002678,0.000431,0.308747
68452000,0.0324,0.013523,0.002678,0.000431,0.306984
68453000,0.0324,0.013523,0.002678,0.000431,0.147028
68454000,0.0324,0.013523,0.002678,0.000431,0.154197
68455000,0.0324,0.013523,0.002678,0.000431,0.165127
68456000,0.0324,0.013523,0.002678,0.000431,0.427803
68457000,0.0324,0.013523,0.002678,0.000431,0.084150
68458000,0.0324,0.013523,0.002678,0.000431,0.070282
68459000,0.0324,0.013523,0.002678,0.000431,0.057354
68460000,0.0324,0.013523,0.002678,0.000431,0.050537
68461000,0.0324,0.013523,0.002678,0.000431,0.036199
68462000,0.0324,0.013523,0.002678,0.000431,0.036316
68463000,0.0324,0.013523,0.002678,0.000431,0.032203
68464000,0.0324,0.013523,0.002678,0.000431,0.028559
68465000,0.0324,0.013523,0.002678,0.000431,0.026209
68466000,0.0324,0.013523,0.002678,0.000431,0.026209
68467000,0.0324,0.013523,0.002678,0.000431,0.017982
68468000,0.0324,0.013523,0.002678,0.000431,0.018805
68469000,0.0324,0.013523,0.002678,0.000431,0.016689
68470000,0.0324,0.013523,0.002678,0.000431,0.018687
68471000,0.0324,0.013523,0.002678,0.000431,0.016336
68472000,0.0324,0.013523,0.002678,0.000431,0.010578
68473000,0.0324,0.013523,0.002678,0.000431,0.012928
68474000,0.0324,0.013523,0.002678,0.000431,0.009520
68475000,0.0324,0.013523,0.002678,0.000431,0.010107
68476000,0.0324,0.013523,0.002678,0.000431,0.010342
68477000,0.0324,0.013523,0.002678,0.000431,0.011400
68478000,0.0324,0.013523,0.002678,0.000431,0.009050
68479000,0.0324,0.013523,0.002678,0.000431,0.007874
68480000,0.0324,0.013523,0.002678,0.000431,0.010225
68481000,0.0324,0.013523,0.002678,0.000431,0.010578
68482000,0.0324,0.013523,0.002678,0.000431,0.005289
68483000,0.0324,0.013523,0.002678,0.000431,0.006934
68484000,0.0324,0.013523,0.002678,0.000431,0.004584
68485000,0.0324,0.013523,0.002678,0.000431,0.003996
68486000,0.0324,0.013523,0.002678,0.000431,0.004584
68487000,0.0324,0.013523,0.002678,0.000431,0.003643
68488000,0.0324,0.013523,0.002678,0.000431,0.004231
68489000,0.0324,0.013523,0.002678,0.000431,0.005641
68490000,0.0324,0.013523,0.002678,0.000431,0.003291
68491000,0.0324,0.013523,0.002678,0.000431,0.003291
68492000,0.0324,0.013523,0.002678,0.000431,0.003291
68493000,0.0324,0.013523,0.002678,0.000431,0.003173
68494000,0.0324,0.013523,0.002678,0.000431,0.003291
68495000,0.0324,0.013523,0.002678,0.000431,0.003408
68496000,0.0324,0.013523,0.002678,0.000431,0.003056
68497000,0.0324,0.013523,0.002678,0.000431,0.003408
68498000,0.0324,0.013523,0.002678,0.000431,0.004936
68499000,0.0324,0.013523,0.002678,0.000431,0.002703
68500000,0.0324,0.013523,0.002678,0.000431,0.002233
68501000,0.0324,0.013523,0.002678,0.000431,0.002351
68502000,0.0324,0.013523,0.002678,0.000431,0.001645
68503000,0.0324,0.013523,0.002678,0.000431,0.001645
68504000,0.0324,0.013523,0.002678,0.000431,0.003291
68505000,0.0324,0.013523,0.002678,0.000431,0.000823
68506000,0.0324,0.013523,0.002678,0.000431,0.000823
68507000,0.0324,0.013523,0.002678,0.000431,0.000823
68508000,0.0324,0.013523,0.002678,0.000431,0.000940
68509000,0.0324,0.013523,0.002678,0.000431,0.000823
68510000,0.0324,0.013523,0.002678,0.000431,0.000823
68511000,0.0324,0.013523,0.002678,0.000431,0.000823
68512000,0.0324,0.013523,0.002678,0.000431,0.000823
68513000,0.0324,0.013523,0.002678,0.000431,0.000823
68514000,0.0324,0.013523,0.002678,0.000431,0.000823
68515000,0.0324,0.013523,0.002678,0.000431,0.000823
68516000,0.0324,0.013523,0.002678,0.000431,0.000823
68517000,0.0324,0.013523,0.002678,0.000431,0.000940
68518000,0.0324,0.013523,0.002678,0.000431,0.000823
68519000,0.0324,0.013523,0.002678,0.000431,0.000823
68520000,0.0324,0.013523,0.002678,0.000431,0.000705
68521000,0.0324,0.013523,0.002678,0.000431,0.000940
68522000,0.0324,0.013523,0.002678,0.000431,0.000940
68523000,0.0324,0.013523,0.002678,0.000431,0.000705
68524000,0.0324,0.013523,0.002678,0.000431,0.000940
68525000,0.0324,0.013523,0.002678,0.000431,0.000705
68526000,0.0324,0.013523,0.002678,0.000431,0.000940
68527000,0.0324,0.013523,0.002678,0.000431,0.000823
68528000,0.0324,0.013523,0.002678,0.000431,0.000823
68529000,0.0324,0.013523,0.002678,0.000431,0.000940
68530000,0.0324,0.013523,0.002678,0.000431,0.000705
68531000,0.0324,0.013523,0.002678,0.000431,0.000940
68532000,0.0324,0.013523,0.002678,0.000431,0.000823
68533000,0.0324,0.013523,0.002678,0.000431,0.000823
68534000,0.0324,0.013523,0.002678,0.000431,0.000823
68535000,0.0324,0.013523,0.002678,0.000431,0.000823
68536000,0.0324,0.013523,0.002678,0.000431,0.000823
68537000,0.0324,0.013523,0.002678,0.000431,0.000823
68538000,0.0324,0.013523,0.002678,0.000431,0.000940
68539000,0.0324,0.013523,0.002678,0.000431,0.000705
68540000,0.0324,0.013523,0.002678,0.000431,0.000940
68541000,0.0324,0.013523,0.002678,0.000431,0.000823
68542000,0.0324,0.013523,0.002678,0.000431,0.000823
68543000,0.0324,0.013523,0.002678,0.000431,0.000705
68544000,0.0324,0.013523,0.002678,0.000431,0.000940
68545000,0.0324,0.013523,0.002678,0.000431,0.000940
68546000,0.0324,0.013523,0.002678,0.000431,0.000705
68547000,0.0324,0.013523,0.002678,0.000431,0.000940
68548000,0.0324,0.013523,0.002678,0.000431,0.000705
68549000,0.0324,0.013523,0.002678,0.000431,0.071340
68550000,0.0324,0.013523,0.002678,0.000431,0.516301
68551000,0.0324,0.013523,0.002678,0.000431,0.582352
68552000,0.0324,0.013523,0.002678,0.000431,0.132102
68553000,0.0324,0.013523,0.002678,0.000431,0.133982
68554000,0.0324,0.013523,0.002678,0.000431,0.567309
68555000,0.0324,0.013523,0.002678,0.000431,0.231295
68556000,0.0324,0.013523,0.002678,0.000431,0.288649
68557000,0.0324,0.013523,0.002678,0.000431,0.323790
68558000,0.0324,0.013523,0.002678,0.000431,0.145030
68559000,0.0324,0.013523,0.002678,0.000431,0.166067
68560000,0.0324,0.013523,0.002678,0.000431,0.102720
68561000,0.0324,0.013523,0.002678,0.000431,0.479633
68562000,0.0324,0.013523,0.002678,0.000431,0.105540
68563000,0.0324,0.013523,0.002678,0.000431,0.073220
68564000,0.0324,0.013523,0.002678,0.000431,0.058059
68565000,0.0324,0.013523,0.002678,0.000431,0.052653
68566000,0.0324,0.013523,0.002678,0.000431,0.041252
68567000,0.0324,0.013523,0.002678,0.000431,0.038432
68568000,0.0324,0.013523,0.002678,0.000431,0.030792
68569000,0.0324,0.013523,0.002678,0.000431,0.025739
68570000,0.0324,0.013523,0.002678,0.000431,0.024328
68571000,0.0324,0.013523,0.002678,0.000431,0.015984
68572000,0.0324,0.013523,0.002678,0.000431,0.014221
68573000,0.0324,0.013523,0.002678,0.000431,0.012105
68574000,0.0324,0.013523,0.002678,0.000431,0.010225
68575000,0.0324,0.013523,0.002678,0.000431,0.012576
68576000,0.0324,0.013523,0.002678,0.000431,0.010460
68577000,0.0324,0.013523,0.002678,0.000431,0.007404
68578000,0.0324,0.013523,0.002678,0.000431,0.007992
68579000,0.0324,0.013523,0.002678,0.000431,0.007522
68580000,0.0324,0.013523,0.002678,0.000431,0.009872
68581000,0.0324,0.013523,0.002678,0.000431,0.007169
68582000,0.0324,0.013523,0.002678,0.000431,0.008697
68583000,0.0324,0.013523,0.002678,0.000431,0.005524
68584000,0.0324,0.013523,0.002678,0.000431,0.005171
68585000,0.0324,0.013523,0.002678,0.000431,0.004584
68586000,0.0324,0.013523,0.002678,0.000431,0.005289
68587000,0.0324,0.013523,0.002678,0.000431,0.006699
68588000,0.0324,0.013523,0.002678,0.000431,0.007052
68589000,0.0324,0.013523,0.002678,0.000431,0.003761
68590000,0.0324,0.013523,0.002678,0.000431,0.003056
68591000,0.0324,0.013523,0.002678,0.000431,0.003056
68592000,0.0324,0.013523,0.002678,0.000431,0.003643
68593000,0.0324,0.013523,0.002678,0.000431,0.002821
68594000,0.0324,0.013523,0.002678,0.000431,0.003291
68595000,0.0324,0.013523,0.002678,0.000431,0.003291
68596000,0.0324,0.013523,0.002678,0.000431,0.002938
68597000,0.0324,0.013523,0.002678,0.000431,0.002468
68598000,0.0324,0.013523,0.002678,0.000431,0.002586
68599000,0.0324,0.013523,0.002678,0.000431,0.002586
68600000,0.0324,0.013523,0.002678,0.000431,0.004113
68601000,0.0324,0.013523,0.002678,0.000431,0.001763
68602000,0.0324,0.013523,0.002678,0.000431,0.001645
68603000,0.0324,0.013523,0.002678,0.000431,0.001763
68604000,0.0324,0.013523,0.002678,0.000431,0.001528
68605000,0.0324,0.013523,0.002678,0.000431,0.001763
68606000,0.0324,0.013523,0.002678,0.000431,0.001880
68607000,0.0324,0.013523,0.002678,0.000431,0.001880
68608000,0.0324,0.013523,0.002678,0.000431,0.001410
68609000,0.0324,0.013523,0.002678,0.000431,0.003408
68610000,0.0324,0.013523,0.002678,0.000431,0.000940
68611000,0.0324,0.013523,0.002678,0.000431,0.000940
68612000,0.0324,0.013523,0.002678,0.000431,0.000705
68613000,0.0324,0.013523,0.002678,0.000431,0.000940
68614000,0.0324,0.013523,0.002678,0.000431,0.000940
68615000,0.0324,0.013523,0.002678,0.000431,0.000823
68616000,0.0324,0.013523,0.002678,0.000431,0.000823
68617000,0.0324,0.013523,0.002678,0.000431,0.000940
68618000,0.0324,0.013523,0.002678,0.000431,0.000940
68619000,0.0324,0.013523,0.002678,0.000431,0.000823
68620000,0.0324,0.013523,0.002678,0.000431,0.000823
68621000,0.0324,0.013523,0.002678,0.000431,0.000940
68622000,0.0324,0.013523,0.002678,0.000431,0.000823
68623000,0.0324,0.013523,0.002678,0.000431,0.000940
68624000,0.0324,0.013523,0.002678,0.000431,0.000823
68625000,0.0324,0.013523,0.002678,0.000431,0.000940
68626000,0.0324,0.013523,0.002678,0.000431,0.000940
68627000,0.0324,0.013523,0.002678,0.000431,0.000705
68628000,0.0324,0.013523,0.002678,0.000431,0.000940
68629000,0.0324,0.013523,0.002678,0.000431,0.000940
68630000,0.0324,0.013523,0.002678,0.000431,0.000940
68631000,0.0324,0.013523,0.002678,0.000431,0.000705
68632000,0.0324,0.013523,0.002678,0.000431,0.000940
68633000,0.0324,0.013523,0.002678,0.000431,0.000940
68634000,0.0324,0.013523,0.002678,0.000431,0.000823
68635000,0.0324,0.013523,0.002678,0.000431,0.000823
68636000,0.0324,0.013523,0.002678,0.000431,0.000940
68637000,0.0324,0.013523,0.002678,0.000431,0.000940
68638000,0.0324,0.013523,0.002678,0.000431,0.000823
68639000,0.0324,0.013523,0.002678,0.000431,0.000823
68640000,0.0324,0.013523,0.002678,0.000431,0.000940
68641000,0.0324,0.013523,0.002678,0.000431,0.000823
68642000,0.0324,0.013523,0.002678,0.000431,0.000940
68643000,0.0324,0.013523,0.002678,0.000431,0.000823
68644000,0.0324,0.013523,0.002678,0.000431,0.000940
68645000,0.0324,0.013523,0.002678,0.000431,0.000823
68646000,0.0324,0.013523,0.002678,0.000431,0.000823
68647000,0.0324,0.013523,0.002678,0.000431,0.000940
68648000,0.0324,0.013523,0.002678,0.000431,0.000940
68649000,0.0324,0.013523,0.002678,0.000431,0.000823
68650000,0.0324,0.013523,0.002678,0.000431,0.000823
68651000,0.0324,0.013523,0.002678,0.000431,0.000940
68652000,0.0324,0.013523,0.002678,0.000431,0.000940
68653000,0.0324,0.013523,0.002678,0.000431,0.000823
68654000,0.0324,0.013523,0.002678,0.000431,0.000823
68655000,0.0324,0.013523,0.002678,0.000431,0.000940
68656000,0.0324,0.013523,0.002678,0.000431,0.000823
68657000,0.0324,0.013523,0.002678,0.000431,0.000940
68658000,0.0324,0.013523,0.002678,0.000431,0.000823
68659000,0.0324,0.013523,0.002678,0.000431,0.000940
68660000,0.0324,0.013523,0.002678,0.000431,0.000823
68661000,0.0324,0.013523,0.002678,0.000431,0.000823
68662000,0.0324,0.013523,0.002678,0.000431,0.000940
68663000,0.0324,0.013523,0.002678,0.000431,0.000940
68664000,0.0324,0.013523,0.002678,0.000431,0.000823
68665000,0.0324,0.013523,0.002678,0.000431,0.000823
68666000,0.0324,0.013523,0.002678,0.000431,0.000940
68667000,0.0324,0.013523,0.002678,0.000431,0.000940
68668000,0.0324,0.013523,0.002678,0.000431,0.000705
68669000,0.0324,0.013523,0.002678,0.000431,0.000940
68670000,0.0324,0.013523,0.002678,0.000431,0.000940
68671000,0.0324,0.013523,0.002678,0.000431,0.000940
68672000,0.0324,0.013523,0.002678,0.000431,0.000705
68673000,0.0324,0.013523,0.002678,0.000431,0.000940
68674000,0.0324,0.013523,0.002678,0.000431,0.000940
68675000,0.0324,0.013523,0.002678,0.000431,0.000823
68676000,0.0324,0.013523,0.002678,0.000431,0.000823
68677000,0.0324,0.013523,0.002678,0.000431,0.000940
68678000,0.0324,0.013523,0.002678,0.000431,0.000940
68679000,0.0324,0.013523,0.002678,0.000431,0.000823
68680000,0.0324,0.013523,0.002678,0.000431,0.000823
68681000,0.0324,0.013523,0.002678,0.000431,0.000940
68682000,0.0324,0.013523,0.002678,0.000431,0.000823
68683000,0.0324,0.013523,0.002678,0.000431,0.000940
68684000,0.0324,0.013523,0.002678,0.000431,0.000823
68685000,0.0324,0.013523,0.002678,0.000431,0.000940
68686000,0.0324,0.013523,0.002678,0.000431,0.000940
68687000,0.0324,0.013523,0.002678,0.000431,0.000705
68688000,0.0324,0.013523,0.002678,0.000431,0.000940
68689000,0.0324,0.013523,0.002678,0.000431,0.000940
68690000,0.0324,0.013523,0.002678,0.000431,0.000940
68691000,0.0324,0.013523,0.002678,0.000431,0.000705
68692000,0.0324,0.013523,0.002678,0.000431,0.000940
68693000,0.0324,0.013523,0.002678,0.000431,0.000940
68694000,0.0324,0.013523,0.002678,0.000431,0.000823
68695000,0.0324,0.013523,0.002678,0.000431,0.000823
68696000,0.0324,0.013523,0.002678,0.000431,0.000940
68697000,0.0324,0.013523,0.002678,0.000431,0.206732
68698000,0.0324,0.013523,0.002678,0.000431,0.559552
68699000,0.0324,0.013523,0.002678,0.000431,0.442729
68700000,0.0324,0.013523,0.002678,0.000431,0.132102
68701000,0.0324,0.013523,0.002678,0.000431,0.133512
68702000,0.0324,0.013523,0.002678,0.000431,0.607151
68703000,0.0324,0.013523,0.002678,0.000431,0.275369
68704000,0.0324,0.013523,0.002678,0.000431,0.265849
68705000,0.0324,0.013523,0.002678,0.000431,0.248455
68706000,0.0324,0.013523,0.002678,0.000431,0.145382
68707000,0.0324,0.013523,0.002678,0.000431,0.165362
68708000,0.0324,0.013523,0.002678,0.000431,0.135745
68709000,0.0324,0.013523,0.002678,0.000431,0.430388
68710000,0.0324,0.013523,0.002678,0.000431,0.039607
68711000,0.0324,0.013523,0.002678,0.000431,0.028324
68712000,0.0324,0.013523,0.002678,0.000431,0.024093
68713000,0.0324,0.013523,0.002678,0.000431,0.017159
68714000,0.0324,0.013523,0.002678,0.000431,0.018099
68715000,0.0324,0.013523,0.002678,0.000431,0.016689
68716000,0.0324,0.013523,0.002678,0.000431,0.013868
68717000,0.0324,0.013523,0.002678,0.000431,0.013281
68718000,0.0324,0.013523,0.002678,0.000431,0.012223
68719000,0.0324,0.013523,0.002678,0.000431,0.011870
68720000,0.0324,0.013523,0.002678,0.000431,0.007522
68721000,0.0324,0.013523,0.002678,0.000431,0.007992
68722000,0.0324,0.013523,0.002678,0.000431,0.008932
68723000,0.0324,0.013523,0.002678,0.000431,0.006699
68724000,0.0324,0.013523,0.002678,0.000431,0.007052
68725000,0.0324,0.013523,0.002678,0.000431,0.006582
68726000,0.0324,0.013523,0.002678,0.000431,0.006582
68727000,0.0324,0.013523,0.002678,0.000431,0.006699
68728000,0.0324,0.013523,0.002678,0.000431,0.006582
68729000,0.0324,0.013523,0.002678,0.000431,0.006699
68730000,0.0324,0.013523,0.002678,0.000431,0.007169
68731000,0.0324,0.013523,0.002678,0.000431,0.006699
68732000,0.0324,0.013523,0.002678,0.000431,0.006582
68733000,0.0324,0.013523,0.002678,0.000431,0.006699
68734000,0.0324,0.013523,0.002678,0.000431,0.006817
68735000,0.0324,0.013523,0.002678,0.000431,0.006934
68736000,0.0324,0.013523,0.002678,0.000431,0.006464
68737000,0.0324,0.013523,0.002678,0.000431,0.006934
68738000,0.0324,0.013523,0.002678,0.000431,0.006347
68739000,0.0324,0.013523,0.002678,0.000431,0.006934
68740000,0.0324,0.013523,0.002678,0.000431,0.007992
68741000,0.0324,0.013523,0.002678,0.000431,0.006229
68742000,0.0324,0.013523,0.002678,0.000431,0.005876
68743000,0.0324,0.013523,0.002678,0.000431,0.005759
68744000,0.0324,0.013523,0.002678,0.000431,0.005994
68745000,0.0324,0.013523,0.002678,0.000431,0.005524
68746000,0.0324,0.013523,0.002678,0.000431,0.006229
68747000,0.0324,0.013523,0.002678,0.000431,0.005994
68748000,0.0324,0.013523,0.002678,0.000431,0.005759
68749000,0.0324,0.013523,0.002678,0.000431,0.005994
68750000,0.0324,0.013523,0.002678,0.000431,0.005994
68751000,0.0324,0.013523,0.002678,0.000431,0.006582
68752000,0.0324,0.013523,0.002678,0.000431,0.006229
68753000,0.0324,0.013523,0.002678,0.000431,0.005406
68754000,0.0324,0.013523,0.002678,0.000431,0.004936
68755000,0.0324,0.013523,0.002678,0.000431,0.004936
68756000,0.0324,0.013523,0.002678,0.000431,0.004819
68757000,0.0324,0.013523,0.002678,0.000431,0.005524
68758000,0.0324,0.013523,0.002678,0.000431,0.005054
68759000,0.0324,0.013523,0.002678,0.000431,0.006111
68760000,0.0324,0.013523,0.002678,0.000431,0.004231
68761000,0.0324,0.013523,0.002678,0.000431,0.004231
68762000,0.0324,0.013523,0.002678,0.000431,0.004231
68763000,0.0324,0.013523,0.002678,0.000431,0.004231
68764000,0.0324,0.013523,0.002678,0.000431,0.004231
68765000,0.0324,0.013523,0.002678,0.000431,0.004231
68766000,0.0324,0.013523,0.002678,0.000431,0.004113
68767000,0.0324,0.013523,0.002678,0.000431,0.004466
68768000,0.0324,0.013523,0.002678,0.000431,0.005994
68769000,0.0324,0.013523,0.002678,0.000431,0.003526
68770000,0.0324,0.013523,0.002678,0.000431,0.003291
68771000,0.0324,0.013523,0.002678,0.000431,0.004584
68772000,0.0324,0.013523,0.002678,0.000431,0.002703
68773000,0.0324,0.013523,0.002678,0.000431,0.002468
68774000,0.0324,0.013523,0.002678,0.000431,0.002586
68775000,0.0324,0.013523,0.002678,0.000431,0.002351
68776000,0.0324,0.013523,0.002678,0.000431,0.002586
68777000,0.0324,0.013523,0.002678,0.000431,0.002703
68778000,0.0324,0.013523,0.002678,0.000431,0.002468
68779000,0.0324,0.013523,0.002678,0.000431,0.002703
68780000,0.0324,0.013523,0.002678,0.000431,0.002351
68781000,0.0324,0.013523,0.002678,0.000431,0.002468
68782000,0.0324,0.013523,0.002678,0.000431,0.002703
68783000,0.0324,0.013523,0.002678,0.000431,0.002703
68784000,0.0324,0.013523,0.002678,0.000431,0.004349
68785000,0.0324,0.013523,0.002678,0.000431,0.001528
68786000,0.0324,0.013523,0.002678,0.000431,0.001763
68787000,0.0324,0.013523,0.002678,0.000431,0.002938
68788000,0.0324,0.013523,0.002678,0.000431,0.000940
68789000,0.0324,0.013523,0.002678,0.000431,0.000823
68790000,0.0324,0.013523,0.002678,0.000431,0.000823
68791000,0.0324,0.013523,0.002678,0.000431,0.000823
68792000,0.0324,0.013523,0.002678,0.000431,0.000823
68793000,0.0324,0.013523,0.002678,0.000431,0.000940
68794000,0.0324,0.013523,0.002678,0.000431,0.000705
68795000,0.0324,0.013523,0.002678,0.000431,0.000940
68796000,0.0324,0.013523,0.002678,0.000431,0.000823
68797000,0.0324,0.013523,0.002678,0.000431,0.000823
68798000,0.0324,0.013523,0.002678,0.000431,0.000705
68799000,0.0324,0.013523,0.002678,0.000431,0.000940
68800000,0.0324,0.013523,0.002678,0.000431,0.000940
68801000,0.0324,0.013523,0.002678,0.000431,0.000705
68802000,0.0324,0.013523,0.002678,0.000431,0.000940
68803000,0.0324,0.013523,0.002678,0.000431,0.000705
68804000,0.0324,0.013523,0.002678,0.000431,0.000940
68805000,0.0324,0.013523,0.002678,0.000431,0.000823
68806000,0.0324,0.013523,0.002678,0.000431,0.000823
68807000,0.0324,0.013523,0.002678,0.000431,0.000940
68808000,0.0324,0.013523,0.002678,0.000431,0.000705
68809000,0.0324,0.013523,0.002678,0.000431,0.000940
68810000,0.0324,0.013523,0.002678,0.000431,0.000823
68811000,0.0324,0.013523,0.002678,0.000431,0.000823
68812000,0.0324,0.013523,0.002678,0.000431,0.000823
68813000,0.0324,0.013523,0.002678,0.000431,0.000823
68814000,0.0324,0.013523,0.002678,0.000431,0.000823
68815000,0.0324,0.013523,0.002678,0.000431,0.000823
68816000,0.0324,0.013523,0.002678,0.000431,0.000940
68817000,0.0324,0.013523,0.002678,0.000431,0.000940
68818000,0.0324,0.013523,0.002678,0.000431,0.000940
68819000,0.0324,0.013523,0.002678,0.000431,0.000705
68820000,0.0324,0.013523,0.002678,0.000431,0.000940
68821000,0.0324,0.013523,0.002678,0.000431,0.000940
68822000,0.0324,0.013523,0.002678,0.000431,0.000823
68823000,0.0324,0.013523,0.002678,0.000431,0.000823
68824000,0.0324,0.013523,0.002678,0.000431,0.000940
68825000,0.0324,0.013523,0.002678,0.000431,0.000705
68826000,0.0324,0.013523,0.002678,0.000431,0.000940
68827000,0.0324,0.013523,0.002678,0.000431,0.000823
68828000,0.0324,0.013523,0.002678,0.000431,0.000823
68829000,0.0324,0.013523,0.002678,0.000431,0.000940
68830000,0.0324,0.013523,0.002678,0.000431,0.000705
68831000,0.0324,0.013523,0.002678,0.000431,0.000940
68832000,0.0324,0.013523,0.002678,0.000431,0.000823
68833000,0.0324,0.013523,0.002678,0.000431,0.000823
68834000,0.0324,0.013523,0.002678,0.000431,0.000823
68835000,0.0324,0.013523,0.002678,0.000431,0.000823
68836000,0.0324,0.013523,0.002678,0.000431,0.000823
68837000,0.0324,0.013523,0.002678,0.000431,0.000823
68838000,0.0324,0.013523,0.002678,0.000431,0.000940
68839000,0.0324,0.013523,0.002678,0.000431,0.000705
68840000,0.0324,0.013523,0.002678,0.000431,0.000940
68841000,0.0324,0.013523,0.002678,0.000431,0.000823
68842000,0.0324,0.013523,0.002678,0.000431,0.000823
68843000,0.0324,0.013523,0.002678,0.000431,0.000705
68844000,0.0324,0.013523,0.002678,0.000431,0.000940
68845000,0.0324,0.013523,0.002678,0.000431,0.000940
68846000,0.0324,0.013523,0.002678,0.000431,0.000705
68847000,0.0324,0.013523,0.002678,0.000431,0.000940
68848000,0.0324,0.013523,0.002678,0.000431,0.000705
68849000,0.0324,0.013523,0.002678,0.000431,0.000940
68850000,0.0324,0.013523,0.002678,0.000431,0.000823
68851000,0.0324,0.013523,0.002678,0.000431,0.000823
68852000,0.0324,0.013523,0.002678,0.000431,0.000940
68853000,0.0324,0.013523,0.002678,0.000431,0.000705
68854000,0.0324,0.013523,0.002678,0.000431,0.000940
68855000,0.0324,0.013523,0.002678,0.000431,0.000823
68856000,0.0324,0.013523,0.002678,0.000431,0.000823
68857000,0.0324,0.013523,0.002678,0.000431,0.000823
68858000,0.0324,0.013523,0.002678,0.000431,0.000823
68859000,0.0324,0.013523,0.002678,0.000431,0.000823
68860000,0.0324,0.013523,0.002678,0.000431,0.000823
68861000,0.0324,0.013523,0.002678,0.000431,0.000940
68862000,0.0324,0.013523,0.002678,0.000431,0.000705
68863000,0.0324,0.013523,0.002678,0.000431,0.000823
68864000,0.0324,0.013523,0.002678,0.000431,0.000940
68865000,0.0324,0.013523,0.002678,0.000431,0.000823
68866000,0.0324,0.013523,0.002678,0.000431,0.000940
68867000,0.0324,0.013523,0.002678,0.000431,0.000823
68868000,0.0324,0.013523,0.002678,0.000431,0.000823
68869000,0.0324,0.013523,0.002678,0.000431,0.000940
68870000,0.0324,0.013523,0.002678,0.000431,0.000940
68871000,0.0324,0.013523,0.002678,0.000431,0.000823
68872000,0.0324,0.013523,0.002678,0.000431,0.000823
68873000,0.0324,0.013523,0.002678,0.000431,0.000940
68874000,0.0324,0.013523,0.002678,0.000431,0.000940
68875000,0.0324,0.013523,0.002678,0.000431,0.000705
68876000,0.0324,0.013523,0.002678,0.000431,0.000940
68877000,0.0324,0.013523,0.002678,0.000431,0.000940
68878000,0.0324,0.013523,0.002678,0.000431,0.000823
68879000,0.0324,0.013523,0.002678,0.000431,0.000823
68880000,0.0324,0.013523,0.002678,0.000431,0.187457
68881000,0.0324,0.013523,0.002678,0.000431,0.494676
68882000,0.0324,0.013523,0.002678,0.000431,0.440731
68883000,0.0324,0.013523,0.002678,0.000431,0.132102
68884000,0.0324,0.013523,0.002678,0.000431,0.131161
68885000,0.0324,0.013523,0.002678,0.000431,0.581647
68886000,0.0324,0.013523,0.002678,0.000431,0.256564
68887000,0.0324,0.013523,0.002678,0.000431,0.254566
68888000,0.0324,0.013523,0.002678,0.000431,0.319912
68889000,0.0324,0.013523,0.002678,0.000431,0.139388
68890000,0.0324,0.013523,0.002678,0.000431,0.143384
68891000,0.0324,0.013523,0.002678,0.000431,0.110241
68892000,0.0324,0.013523,0.002678,0.000431,0.375503
68893000,0.0324,0.013523,0.002678,0.000431,0.201326
68894000,0.0324,0.013523,0.002678,0.000431,0.041017
68895000,0.0324,0.013523,0.002678,0.000431,0.022918
68896000,0.0324,0.013523,0.002678,0.000431,0.022565
68897000,0.0324,0.013523,0.002678,0.000431,0.024211
68898000,0.0324,0.013523,0.002678,0.000431,0.020685
68899000,0.0324,0.013523,0.002678,0.000431,0.016219
68900000,0.0324,0.013523,0.002678,0.000431,0.010578
68901000,0.0324,0.013523,0.002678,0.000431,0.009872
68902000,0.0324,0.013523,0.002678,0.000431,0.015044
68903000,0.0324,0.013523,0.002678,0.000431,0.007287
68904000,0.0324,0.013523,0.002678,0.000431,0.007287
68905000,0.0324,0.013523,0.002678,0.000431,0.007757
68906000,0.0324,0.013523,0.002678,0.000431,0.007522
68907000,0.0324,0.013523,0.002678,0.000431,0.006934
68908000,0.0324,0.013523,0.002678,0.000431,0.007874
68909000,0.0324,0.013523,0.002678,0.000431,0.006229
68910000,0.0324,0.013523,0.002678,0.000431,0.005524
68911000,0.0324,0.013523,0.002678,0.000431,0.005524
68912000,0.0324,0.013523,0.002678,0.000431,0.005641
68913000,0.0324,0.013523,0.002678,0.000431,0.004936
68914000,0.0324,0.013523,0.002678,0.000431,0.004701
68915000,0.0324,0.013523,0.002678,0.000431,0.003878
68916000,0.0324,0.013523,0.002678,0.000431,0.004701
68917000,0.0324,0.013523,0.002678,0.000431,0.004113
68918000,0.0324,0.013523,0.002678,0.000431,0.003878
68919000,0.0324,0.013523,0.002678,0.000431,0.004584
68920000,0.0324,0.013523,0.002678,0.000431,0.004231
68921000,0.0324,0.013523,0.002678,0.000431,0.005289
68922000,0.0324,0.013523,0.002678,0.000431,0.003173
68923000,0.0324,0.013523,0.002678,0.000431,0.003526
68924000,0.0324,0.013523,0.002678,0.000431,0.003291
68925000,0.0324,0.013523,0.002678,0.000431,0.004584
68926000,0.0324,0.013523,0.002678,0.000431,0.002468
68927000,0.0324,0.013523,0.002678,0.000431,0.004349
68928000,0.0324,0.013523,0.002678,0.000431,0.001528
68929000,0.0324,0.013523,0.002678,0.000431,0.001645
68930000,0.0324,0.013523,0.002678,0.000431,0.001528
68931000,0.0324,0.013523,0.002678,0.000431,0.001763
68932000,0.0324,0.013523,0.002678,0.000431,0.001410
68933000,0.0324,0.013523,0.002678,0.000431,0.001645
68934000,0.0324,0.013523,0.002678,0.000431,0.001410
68935000,0.0324,0.013523,0.002678,0.000431,0.001645
68936000,0.0324,0.013523,0.002678,0.000431,0.001645
68937000,0.0324,0.013523,0.002678,0.000431,0.001645
68938000,0.0324,0.013523,0.002678,0.000431,0.001410
68939000,0.0324,0.013523,0.002678,0.000431,0.001528
68940000,0.0324,0.013523,0.002678,0.000431,0.001528
68941000,0.0324,0.013523,0.002678,0.000431,0.001880
68942000,0.0324,0.013523,0.002678,0.000431,0.001645
68943000,0.0324,0.013523,0.002678,0.000431,0.001410
68944000,0.0324,0.013523,0.002678,0.000431,0.001880
68945000,0.0324,0.013523,0.002678,0.000431,0.001645
68946000,0.0324,0.013523,0.002678,0.000431,0.001645
68947000,0.0324,0.013523,0.002678,0.000431,0.001528
68948000,0.0324,0.013523,0.002678,0.000431,0.001763
68949000,0.0324,0.013523,0.002678,0.000431,0.001645
68950000,0.0324,0.013523,0.002678,0.000431,0.001645
68951000,0.0324,0.013523,0.002678,0.000431,0.001645
68952000,0.0324,0.013523,0.002678,0.000431,0.001645
68953000,0.0324,0.013523,0.002678,0.000431,0.001645
68954000,0.0324,0.013523,0.002678,0.000431,0.001645
68955000,0.0324,0.013523,0.002678,0.000431,0.001645
68956000,0.0324,0.013523,0.002678,0.000431,0.001645
68957000,0.0324,0.013523,0.002678,0.000431,0.001645
68958000,0.0324,0.013523,0.002678,0.000431,0.001645
68959000,0.0324,0.013523,0.002678,0.000431,0.001763
68960000,0.0324,0.013523,0.002678,0.000431,0.001528
68961000,0.0324,0.013523,0.002678,0.000431,0.001645
68962000,0.0324,0.013523,0.002678,0.000431,0.001645
68963000,0.0324,0.013523,0.002678,0.000431,0.001410
68964000,0.0324,0.013523,0.002678,0.000431,0.001645
68965000,0.0324,0.013523,0.002678,0.000431,0.001645
68966000,0.0324,0.013523,0.002678,0.000431,0.001645
68967000,0.0324,0.013523,0.002678,0.000431,0.001410
68968000,0.0324,0.013523,0.002678,0.000431,0.001410
68969000,0.0324,0.013523,0.002678,0.000431,0.001645
68970000,0.0324,0.013523,0.002678,0.000431,0.001645
68971000,0.0324,0.013523,0.002678,0.000431,0.001528
68972000,0.0324,0.013523,0.002678,0.000431,0.001763
68973000,0.0324,0.013523,0.002678,0.000431,0.001645
68974000,0.0324,0.013523,0.002678,0.000431,0.001645
68975000,0.0324,0.013523,0.002678,0.000431,0.001645
68976000,0.0324,0.013523,0.002678,0.000431,0.001645
68977000,0.0324,0.013523,0.002678,0.000431,0.001645
68978000,0.0324,0.013523,0.002678,0.000431,0.001645
68979000,0.0324,0.013523,0.002678,0.000431,0.001410
68980000,0.0324,0.013523,0.002678,0.000431,0.001645
68981000,0.0324,0.013523,0.002678,0.000431,0.001410
68982000,0.0324,0.013523,0.002678,0.000431,0.001645
68983000,0.0324,0.013523,0.002678,0.000431,0.001880
68984000,0.0324,0.013523,0.002678,0.000431,0.001175
68985000,0.0324,0.013523,0.002678,0.000431,0.001880
68986000,0.0324,0.013523,0.002678,0.000431,0.001293
68987000,0.0324,0.013523,0.002678,0.000431,0.001763
68988000,0.0324,0.013523,0.002678,0.000431,0.001880
68989000,0.0324,0.013523,0.002678,0.000431,0.001410
68990000,0.0324,0.013523,0.002678,0.000431,0.001645
68991000,0.0324,0.013523,0.002678,0.000431,0.001645
68992000,0.0324,0.013523,0.002678,0.000431,0.001645
68993000,0.0324,0.013523,0.002678,0.000431,0.001645
68994000,0.0324,0.013523,0.002678,0.000431,0.001645
68995000,0.0324,0.013523,0.002678,0.000431,0.001880
68996000,0.0324,0.013523,0.002678,0.000431,0.001410
68997000,0.0324,0.013523,0.002678,0.000431,0.001645
68998000,0.0324,0.013523,0.002678,0.000431,0.001763
68999000,0.0324,0.013523,0.002678,0.000431,0.001763
