Cycle,Area(mm^2),PeakDynamic(W),SubthresholdLeakage(W),GateLeakage(W),RunTimeDynamic(W)
53000000,0.0324,0.013523,0.002678,0.000431,0.002938
53001000,0.0324,0.013523,0.002678,0.000431,0.001880
53002000,0.0324,0.013523,0.002678,0.000431,0.003056
53003000,0.0324,0.013523,0.002678,0.000431,0.002233
53004000,0.0324,0.013523,0.002678,0.000431,0.002586
53005000,0.0324,0.013523,0.002678,0.000431,0.002586
53006000,0.0324,0.013523,0.002678,0.000431,0.002233
53007000,0.0324,0.013523,0.002678,0.000431,0.002703
53008000,0.0324,0.013523,0.002678,0.000431,0.002468
53009000,0.0324,0.013523,0.002678,0.000431,0.002703
53010000,0.0324,0.013523,0.002678,0.000431,0.002233
53011000,0.0324,0.013523,0.002678,0.000431,0.002586
53012000,0.0324,0.013523,0.002678,0.000431,0.002703
53013000,0.0324,0.013523,0.002678,0.000431,0.002468
53014000,0.0324,0.013523,0.002678,0.000431,0.002233
53015000,0.0324,0.013523,0.002678,0.000431,0.002703
53016000,0.0324,0.013523,0.002678,0.000431,0.002233
53017000,0.0324,0.013523,0.002678,0.000431,0.002703
53018000,0.0324,0.013523,0.002678,0.000431,0.002703
53019000,0.0324,0.013523,0.002678,0.000431,0.001998
53020000,0.0324,0.013523,0.002678,0.000431,0.003056
53021000,0.0324,0.013523,0.002678,0.000431,0.002116
53022000,0.0324,0.013523,0.002678,0.000431,0.002821
53023000,0.0324,0.013523,0.002678,0.000431,0.002351
53024000,0.0324,0.013523,0.002678,0.000431,0.002351
53025000,0.0324,0.013523,0.002678,0.000431,0.002821
53026000,0.0324,0.013523,0.002678,0.000431,0.002233
53027000,0.0324,0.013523,0.002678,0.000431,0.002938
53028000,0.0324,0.013523,0.002678,0.000431,0.002116
53029000,0.0324,0.013523,0.002678,0.000431,0.002586
53030000,0.0324,0.013523,0.002678,0.000431,0.002821
53031000,0.0324,0.013523,0.002678,0.000431,0.002116
53032000,0.0324,0.013523,0.002678,0.000431,0.002821
53033000,0.0324,0.013523,0.002678,0.000431,0.002351
53034000,0.0324,0.013523,0.002678,0.000431,0.002351
53035000,0.0324,0.013523,0.002678,0.000431,0.002703
53036000,0.0324,0.013523,0.002678,0.000431,0.002351
53037000,0.0324,0.013523,0.002678,0.000431,0.002468
53038000,0.0324,0.013523,0.002678,0.000431,0.002821
53039000,0.0324,0.013523,0.002678,0.000431,0.002116
53040000,0.0324,0.013523,0.002678,0.000431,0.002821
53041000,0.0324,0.013523,0.002678,0.000431,0.002468
53042000,0.0324,0.013523,0.002678,0.000431,0.002468
53043000,0.0324,0.013523,0.002678,0.000431,0.002586
53044000,0.0324,0.013523,0.002678,0.000431,0.002233
53045000,0.0324,0.013523,0.002678,0.000431,0.002703
53046000,0.0324,0.013523,0.002678,0.000431,0.002351
53047000,0.0324,0.013523,0.002678,0.000431,0.002703
53048000,0.0324,0.013523,0.002678,0.000431,0.002468
53049000,0.0324,0.013523,0.002678,0.000431,0.002351
53050000,0.0324,0.013523,0.002678,0.000431,0.002821
53051000,0.0324,0.013523,0.002678,0.000431,0.002351
53052000,0.0324,0.013523,0.002678,0.000431,0.003878
53053000,0.0324,0.013523,0.002678,0.000431,0.001880
53054000,0.0324,0.013523,0.002678,0.000431,0.001293
53055000,0.0324,0.013523,0.002678,0.000431,0.001998
53056000,0.0324,0.013523,0.002678,0.000431,0.001880
53057000,0.0324,0.013523,0.002678,0.000431,0.001175
53058000,0.0324,0.013523,0.002678,0.000431,0.002116
53059000,0.0324,0.013523,0.002678,0.000431,0.001293
53060000,0.0324,0.013523,0.002678,0.000431,0.001998
53061000,0.0324,0.013523,0.002678,0.000431,0.001645
53062000,0.0324,0.013523,0.002678,0.000431,0.001410
53063000,0.0324,0.013523,0.002678,0.000431,0.001880
53064000,0.0324,0.013523,0.002678,0.000431,0.001528
53065000,0.0324,0.013523,0.002678,0.000431,0.001763
53066000,0.0324,0.013523,0.002678,0.000431,0.001058
53067000,0.0324,0.013523,0.002678,0.000431,0.001058
53068000,0.0324,0.013523,0.002678,0.000431,0.000940
53069000,0.0324,0.013523,0.002678,0.000431,0.000823
53070000,0.0324,0.013523,0.002678,0.000431,0.001175
53071000,0.0324,0.013523,0.002678,0.000431,0.000705
53072000,0.0324,0.013523,0.002678,0.000431,0.001175
53073000,0.0324,0.013523,0.002678,0.000431,0.000823
53074000,0.0324,0.013523,0.002678,0.000431,0.001058
53075000,0.0324,0.013523,0.002678,0.000431,0.000940
53076000,0.0324,0.013523,0.002678,0.000431,0.001058
53077000,0.0324,0.013523,0.002678,0.000431,0.000823
53078000,0.0324,0.013523,0.002678,0.000431,0.069694
53079000,0.0324,0.013523,0.002678,0.000431,0.421574
53080000,0.0324,0.013523,0.002678,0.000431,0.607268
53081000,0.0324,0.013523,0.002678,0.000431,0.130691
53082000,0.0324,0.013523,0.002678,0.000431,0.134335
53083000,0.0324,0.013523,0.002678,0.000431,0.555908
53084000,0.0324,0.013523,0.002678,0.000431,0.285358
53085000,0.0324,0.013523,0.002678,0.000431,0.246692
53086000,0.0324,0.013523,0.002678,0.000431,0.315916
53087000,0.0324,0.013523,0.002678,0.000431,0.138213
53088000,0.0324,0.013523,0.002678,0.000431,0.147968
53089000,0.0324,0.013523,0.002678,0.000431,0.114120
53090000,0.0324,0.013523,0.002678,0.000431,0.320382
53091000,0.0324,0.013523,0.002678,0.000431,0.298287
53092000,0.0324,0.013523,0.002678,0.000431,0.075806
53093000,0.0324,0.013523,0.002678,0.000431,0.064876
53094000,0.0324,0.013523,0.002678,0.000431,0.051947
53095000,0.0324,0.013523,0.002678,0.000431,0.040547
53096000,0.0324,0.013523,0.002678,0.000431,0.036316
53097000,0.0324,0.013523,0.002678,0.000431,0.036551
53098000,0.0324,0.013523,0.002678,0.000431,0.033848
53099000,0.0324,0.013523,0.002678,0.000431,0.029147
53100000,0.0324,0.013523,0.002678,0.000431,0.020450
53101000,0.0324,0.013523,0.002678,0.000431,0.020450
53102000,0.0324,0.013523,0.002678,0.000431,0.020332
53103000,0.0324,0.013523,0.002678,0.000431,0.014809
53104000,0.0324,0.013523,0.002678,0.000431,0.012928
53105000,0.0324,0.013523,0.002678,0.000431,0.014573
53106000,0.0324,0.013523,0.002678,0.000431,0.012928
53107000,0.0324,0.013523,0.002678,0.000431,0.013163
53108000,0.0324,0.013523,0.002678,0.000431,0.013163
53109000,0.0324,0.013523,0.002678,0.000431,0.011283
53110000,0.0324,0.013523,0.002678,0.000431,0.010342
53111000,0.0324,0.013523,0.002678,0.000431,0.010460
53112000,0.0324,0.013523,0.002678,0.000431,0.009872
53113000,0.0324,0.013523,0.002678,0.000431,0.013398
53114000,0.0324,0.013523,0.002678,0.000431,0.010460
53115000,0.0324,0.013523,0.002678,0.000431,0.007052
53116000,0.0324,0.013523,0.002678,0.000431,0.007287
53117000,0.0324,0.013523,0.002678,0.000431,0.007169
53118000,0.0324,0.013523,0.002678,0.000431,0.007287
53119000,0.0324,0.013523,0.002678,0.000431,0.007404
53120000,0.0324,0.013523,0.002678,0.000431,0.006699
53121000,0.0324,0.013523,0.002678,0.000431,0.007169
53122000,0.0324,0.013523,0.002678,0.000431,0.007522
53123000,0.0324,0.013523,0.002678,0.000431,0.007287
53124000,0.0324,0.013523,0.002678,0.000431,0.008462
53125000,0.0324,0.013523,0.002678,0.000431,0.008462
53126000,0.0324,0.013523,0.002678,0.000431,0.005524
53127000,0.0324,0.013523,0.002678,0.000431,0.005994
53128000,0.0324,0.013523,0.002678,0.000431,0.007169
53129000,0.0324,0.013523,0.002678,0.000431,0.005289
53130000,0.0324,0.013523,0.002678,0.000431,0.004701
53131000,0.0324,0.013523,0.002678,0.000431,0.004936
53132000,0.0324,0.013523,0.002678,0.000431,0.004466
53133000,0.0324,0.013523,0.002678,0.000431,0.004819
53134000,0.0324,0.013523,0.002678,0.000431,0.006464
53135000,0.0324,0.013523,0.002678,0.000431,0.005054
53136000,0.0324,0.013523,0.002678,0.000431,0.003526
53137000,0.0324,0.013523,0.002678,0.000431,0.002938
53138000,0.0324,0.013523,0.002678,0.000431,0.003173
53139000,0.0324,0.013523,0.002678,0.000431,0.003643
53140000,0.0324,0.013523,0.002678,0.000431,0.002821
53141000,0.0324,0.013523,0.002678,0.000431,0.002821
53142000,0.0324,0.013523,0.002678,0.000431,0.003291
53143000,0.0324,0.013523,0.002678,0.000431,0.002938
53144000,0.0324,0.013523,0.002678,0.000431,0.001880
53145000,0.0324,0.013523,0.002678,0.000431,0.001410
53146000,0.0324,0.013523,0.002678,0.000431,0.002821
53147000,0.0324,0.013523,0.002678,0.000431,0.001763
53148000,0.0324,0.013523,0.002678,0.000431,0.000940
53149000,0.0324,0.013523,0.002678,0.000431,0.000823
53150000,0.0324,0.013523,0.002678,0.000431,0.000823
53151000,0.0324,0.013523,0.002678,0.000431,0.000823
53152000,0.0324,0.013523,0.002678,0.000431,0.000823
53153000,0.0324,0.013523,0.002678,0.000431,0.000940
53154000,0.0324,0.013523,0.002678,0.000431,0.000705
53155000,0.0324,0.013523,0.002678,0.000431,0.000940
53156000,0.0324,0.013523,0.002678,0.000431,0.000823
53157000,0.0324,0.013523,0.002678,0.000431,0.000823
53158000,0.0324,0.013523,0.002678,0.000431,0.000823
53159000,0.0324,0.013523,0.002678,0.000431,0.000823
53160000,0.0324,0.013523,0.002678,0.000431,0.000940
53161000,0.0324,0.013523,0.002678,0.000431,0.000705
53162000,0.0324,0.013523,0.002678,0.000431,0.000940
53163000,0.0324,0.013523,0.002678,0.000431,0.000823
53164000,0.0324,0.013523,0.002678,0.000431,0.000823
53165000,0.0324,0.013523,0.002678,0.000431,0.000705
53166000,0.0324,0.013523,0.002678,0.000431,0.000940
53167000,0.0324,0.013523,0.002678,0.000431,0.000940
53168000,0.0324,0.013523,0.002678,0.000431,0.000705
53169000,0.0324,0.013523,0.002678,0.000431,0.000940
53170000,0.0324,0.013523,0.002678,0.000431,0.000940
53171000,0.0324,0.013523,0.002678,0.000431,0.001645
53172000,0.0324,0.013523,0.002678,0.000431,0.393014
53173000,0.0324,0.013523,0.002678,0.000431,0.703289
53174000,0.0324,0.013523,0.002678,0.000431,0.139388
53175000,0.0324,0.013523,0.002678,0.000431,0.133630
53176000,0.0324,0.013523,0.002678,0.000431,0.229768
53177000,0.0324,0.013523,0.002678,0.000431,0.593047
53178000,0.0324,0.013523,0.002678,0.000431,0.227887
53179000,0.0324,0.013523,0.002678,0.000431,0.319559
53180000,0.0324,0.013523,0.002678,0.000431,0.165127
53181000,0.0324,0.013523,0.002678,0.000431,0.138331
53182000,0.0324,0.013523,0.002678,0.000431,0.125638
53183000,0.0324,0.013523,0.002678,0.000431,0.318854
53184000,0.0324,0.013523,0.002678,0.000431,0.289824
53185000,0.0324,0.013523,0.002678,0.000431,0.075806
53186000,0.0324,0.013523,0.002678,0.000431,0.055473
53187000,0.0324,0.013523,0.002678,0.000431,0.045836
53188000,0.0324,0.013523,0.002678,0.000431,0.043250
53189000,0.0324,0.013523,0.002678,0.000431,0.034436
53190000,0.0324,0.013523,0.002678,0.000431,0.023741
53191000,0.0324,0.013523,0.002678,0.000431,0.018805
53192000,0.0324,0.013523,0.002678,0.000431,0.022918
53193000,0.0324,0.013523,0.002678,0.000431,0.019392
53194000,0.0324,0.013523,0.002678,0.000431,0.022565
53195000,0.0324,0.013523,0.002678,0.000431,0.013046
53196000,0.0324,0.013523,0.002678,0.000431,0.013281
53197000,0.0324,0.013523,0.002678,0.000431,0.012928
53198000,0.0324,0.013523,0.002678,0.000431,0.010930
53199000,0.0324,0.013523,0.002678,0.000431,0.009755
53200000,0.0324,0.013523,0.002678,0.000431,0.008815
53201000,0.0324,0.013523,0.002678,0.000431,0.009520
53202000,0.0324,0.013523,0.002678,0.000431,0.010578
53203000,0.0324,0.013523,0.002678,0.000431,0.009520
53204000,0.0324,0.013523,0.002678,0.000431,0.007639
53205000,0.0324,0.013523,0.002678,0.000431,0.007169
53206000,0.0324,0.013523,0.002678,0.000431,0.009637
53207000,0.0324,0.013523,0.002678,0.000431,0.006582
53208000,0.0324,0.013523,0.002678,0.000431,0.006699
53209000,0.0324,0.013523,0.002678,0.000431,0.006817
53210000,0.0324,0.013523,0.002678,0.000431,0.007287
53211000,0.0324,0.013523,0.002678,0.000431,0.006582
53212000,0.0324,0.013523,0.002678,0.000431,0.005876
53213000,0.0324,0.013523,0.002678,0.000431,0.005759
53214000,0.0324,0.013523,0.002678,0.000431,0.006347
53215000,0.0324,0.013523,0.002678,0.000431,0.005524
53216000,0.0324,0.013523,0.002678,0.000431,0.005876
53217000,0.0324,0.013523,0.002678,0.000431,0.005994
53218000,0.0324,0.013523,0.002678,0.000431,0.005641
53219000,0.0324,0.013523,0.002678,0.000431,0.006111
53220000,0.0324,0.013523,0.002678,0.000431,0.006464
53221000,0.0324,0.013523,0.002678,0.000431,0.006582
53222000,0.0324,0.013523,0.002678,0.000431,0.005171
53223000,0.0324,0.013523,0.002678,0.000431,0.004819
53224000,0.0324,0.013523,0.002678,0.000431,0.006111
53225000,0.0324,0.013523,0.002678,0.000431,0.005054
53226000,0.0324,0.013523,0.002678,0.000431,0.004466
53227000,0.0324,0.013523,0.002678,0.000431,0.004113
53228000,0.0324,0.013523,0.002678,0.000431,0.004113
53229000,0.0324,0.013523,0.002678,0.000431,0.007522
53230000,0.0324,0.013523,0.002678,0.000431,0.002586
53231000,0.0324,0.013523,0.002678,0.000431,0.002586
53232000,0.0324,0.013523,0.002678,0.000431,0.002468
53233000,0.0324,0.013523,0.002678,0.000431,0.003761
53234000,0.0324,0.013523,0.002678,0.000431,0.001528
53235000,0.0324,0.013523,0.002678,0.000431,0.001763
53236000,0.0324,0.013523,0.002678,0.000431,0.001880
53237000,0.0324,0.013523,0.002678,0.000431,0.001528
53238000,0.0324,0.013523,0.002678,0.000431,0.001763
53239000,0.0324,0.013523,0.002678,0.000431,0.001763
53240000,0.0324,0.013523,0.002678,0.000431,0.001763
53241000,0.0324,0.013523,0.002678,0.000431,0.001645
53242000,0.0324,0.013523,0.002678,0.000431,0.001645
53243000,0.0324,0.013523,0.002678,0.000431,0.001645
53244000,0.0324,0.013523,0.002678,0.000431,0.001880
53245000,0.0324,0.013523,0.002678,0.000431,0.001763
53246000,0.0324,0.013523,0.002678,0.000431,0.001528
53247000,0.0324,0.013523,0.002678,0.000431,0.001880
53248000,0.0324,0.013523,0.002678,0.000431,0.001528
53249000,0.0324,0.013523,0.002678,0.000431,0.001763
53250000,0.0324,0.013523,0.002678,0.000431,0.001645
53251000,0.0324,0.013523,0.002678,0.000431,0.001880
53252000,0.0324,0.013523,0.002678,0.000431,0.001645
53253000,0.0324,0.013523,0.002678,0.000431,0.001645
53254000,0.0324,0.013523,0.002678,0.000431,0.003408
53255000,0.0324,0.013523,0.002678,0.000431,0.000940
53256000,0.0324,0.013523,0.002678,0.000431,0.000823
53257000,0.0324,0.013523,0.002678,0.000431,0.000823
53258000,0.0324,0.013523,0.002678,0.000431,0.000940
53259000,0.0324,0.013523,0.002678,0.000431,0.000940
53260000,0.0324,0.013523,0.002678,0.000431,0.000823
53261000,0.0324,0.013523,0.002678,0.000431,0.000823
53262000,0.0324,0.013523,0.002678,0.000431,0.000940
53263000,0.0324,0.013523,0.002678,0.000431,0.000940
53264000,0.0324,0.013523,0.002678,0.000431,0.000823
53265000,0.0324,0.013523,0.002678,0.000431,0.000823
53266000,0.0324,0.013523,0.002678,0.000431,0.000940
53267000,0.0324,0.013523,0.002678,0.000431,0.000823
53268000,0.0324,0.013523,0.002678,0.000431,0.000940
53269000,0.0324,0.013523,0.002678,0.000431,0.000823
53270000,0.0324,0.013523,0.002678,0.000431,0.000940
53271000,0.0324,0.013523,0.002678,0.000431,0.000823
53272000,0.0324,0.013523,0.002678,0.000431,0.000823
53273000,0.0324,0.013523,0.002678,0.000431,0.000940
53274000,0.0324,0.013523,0.002678,0.000431,0.000940
53275000,0.0324,0.013523,0.002678,0.000431,0.000823
53276000,0.0324,0.013523,0.002678,0.000431,0.000823
53277000,0.0324,0.013523,0.002678,0.000431,0.000940
53278000,0.0324,0.013523,0.002678,0.000431,0.000940
53279000,0.0324,0.013523,0.002678,0.000431,0.000705
53280000,0.0324,0.013523,0.002678,0.000431,0.000940
53281000,0.0324,0.013523,0.002678,0.000431,0.000940
53282000,0.0324,0.013523,0.002678,0.000431,0.000823
53283000,0.0324,0.013523,0.002678,0.000431,0.000823
53284000,0.0324,0.013523,0.002678,0.000431,0.000940
53285000,0.0324,0.013523,0.002678,0.000431,0.000940
53286000,0.0324,0.013523,0.002678,0.000431,0.000823
53287000,0.0324,0.013523,0.002678,0.000431,0.013633
53288000,0.0324,0.013523,0.002678,0.000431,0.514656
53289000,0.0324,0.013523,0.002678,0.000431,0.597161
53290000,0.0324,0.013523,0.002678,0.000431,0.134570
53291000,0.0324,0.013523,0.002678,0.000431,0.131514
53292000,0.0324,0.013523,0.002678,0.000431,0.375385
53293000,0.0324,0.013523,0.002678,0.000431,0.392192
53294000,0.0324,0.013523,0.002678,0.000431,0.228710
53295000,0.0324,0.013523,0.002678,0.000431,0.317796
53296000,0.0324,0.013523,0.002678,0.000431,0.190043
53297000,0.0324,0.013523,0.002678,0.000431,0.145147
53298000,0.0324,0.013523,0.002678,0.000431,0.146558
53299000,0.0324,0.013523,0.002678,0.000431,0.204029
53300000,0.0324,0.013523,0.002678,0.000431,0.384435
53301000,0.0324,0.013523,0.002678,0.000431,0.058764
53302000,0.0324,0.013523,0.002678,0.000431,0.047834
53303000,0.0324,0.013523,0.002678,0.000431,0.037844
53304000,0.0324,0.013523,0.002678,0.000431,0.038902
53305000,0.0324,0.013523,0.002678,0.000431,0.025739
53306000,0.0324,0.013523,0.002678,0.000431,0.020567
53307000,0.0324,0.013523,0.002678,0.000431,0.022213
53308000,0.0324,0.013523,0.002678,0.000431,0.020215
53309000,0.0324,0.013523,0.002678,0.000431,0.017512
53310000,0.0324,0.013523,0.002678,0.000431,0.016101
53311000,0.0324,0.013523,0.002678,0.000431,0.018217
53312000,0.0324,0.013523,0.002678,0.000431,0.015984
53313000,0.0324,0.013523,0.002678,0.000431,0.014691
53314000,0.0324,0.013523,0.002678,0.000431,0.012928
53315000,0.0324,0.013523,0.002678,0.000431,0.010460
53316000,0.0324,0.013523,0.002678,0.000431,0.013633
53317000,0.0324,0.013523,0.002678,0.000431,0.009520
53318000,0.0324,0.013523,0.002678,0.000431,0.008815
53319000,0.0324,0.013523,0.002678,0.000431,0.010107
53320000,0.0324,0.013523,0.002678,0.000431,0.010460
53321000,0.0324,0.013523,0.002678,0.000431,0.007639
53322000,0.0324,0.013523,0.002678,0.000431,0.006699
53323000,0.0324,0.013523,0.002678,0.000431,0.007052
53324000,0.0324,0.013523,0.002678,0.000431,0.006817
53325000,0.0324,0.013523,0.002678,0.000431,0.006347
53326000,0.0324,0.013523,0.002678,0.000431,0.006934
53327000,0.0324,0.013523,0.002678,0.000431,0.006934
53328000,0.0324,0.013523,0.002678,0.000431,0.006699
53329000,0.0324,0.013523,0.002678,0.000431,0.006464
53330000,0.0324,0.013523,0.002678,0.000431,0.006817
53331000,0.0324,0.013523,0.002678,0.000431,0.006464
53332000,0.0324,0.013523,0.002678,0.000431,0.007287
53333000,0.0324,0.013523,0.002678,0.000431,0.006229
53334000,0.0324,0.013523,0.002678,0.000431,0.006817
53335000,0.0324,0.013523,0.002678,0.000431,0.006817
53336000,0.0324,0.013523,0.002678,0.000431,0.006464
53337000,0.0324,0.013523,0.002678,0.000431,0.007287
53338000,0.0324,0.013523,0.002678,0.000431,0.006111
53339000,0.0324,0.013523,0.002678,0.000431,0.007052
53340000,0.0324,0.013523,0.002678,0.000431,0.006699
53341000,0.0324,0.013523,0.002678,0.000431,0.006582
53342000,0.0324,0.013523,0.002678,0.000431,0.006934
53343000,0.0324,0.013523,0.002678,0.000431,0.006347
53344000,0.0324,0.013523,0.002678,0.000431,0.007052
53345000,0.0324,0.013523,0.002678,0.000431,0.006582
53346000,0.0324,0.013523,0.002678,0.000431,0.007052
53347000,0.0324,0.013523,0.002678,0.000431,0.006464
53348000,0.0324,0.013523,0.002678,0.000431,0.006699
53349000,0.0324,0.013523,0.002678,0.000431,0.006817
53350000,0.0324,0.013523,0.002678,0.000431,0.006699
53351000,0.0324,0.013523,0.002678,0.000431,0.008345
53352000,0.0324,0.013523,0.002678,0.000431,0.005524
53353000,0.0324,0.013523,0.002678,0.000431,0.006111
53354000,0.0324,0.013523,0.002678,0.000431,0.005641
53355000,0.0324,0.013523,0.002678,0.000431,0.005876
53356000,0.0324,0.013523,0.002678,0.000431,0.005759
53357000,0.0324,0.013523,0.002678,0.000431,0.006111
53358000,0.0324,0.013523,0.002678,0.000431,0.005759
53359000,0.0324,0.013523,0.002678,0.000431,0.005876
53360000,0.0324,0.013523,0.002678,0.000431,0.005759
53361000,0.0324,0.013523,0.002678,0.000431,0.007874
53362000,0.0324,0.013523,0.002678,0.000431,0.005171
53363000,0.0324,0.013523,0.002678,0.000431,0.006111
53364000,0.0324,0.013523,0.002678,0.000431,0.004466
53365000,0.0324,0.013523,0.002678,0.000431,0.003996
53366000,0.0324,0.013523,0.002678,0.000431,0.004113
53367000,0.0324,0.013523,0.002678,0.000431,0.004231
53368000,0.0324,0.013523,0.002678,0.000431,0.005524
53369000,0.0324,0.013523,0.002678,0.000431,0.005289
53370000,0.0324,0.013523,0.002678,0.000431,0.002586
53371000,0.0324,0.013523,0.002678,0.000431,0.002468
53372000,0.0324,0.013523,0.002678,0.000431,0.003526
53373000,0.0324,0.013523,0.002678,0.000431,0.001645
53374000,0.0324,0.013523,0.002678,0.000431,0.001645
53375000,0.0324,0.013523,0.002678,0.000431,0.001645
53376000,0.0324,0.013523,0.002678,0.000431,0.001410
53377000,0.0324,0.013523,0.002678,0.000431,0.001645
53378000,0.0324,0.013523,0.002678,0.000431,0.001410
53379000,0.0324,0.013523,0.002678,0.000431,0.001645
53380000,0.0324,0.013523,0.002678,0.000431,0.001880
53381000,0.0324,0.013523,0.002678,0.000431,0.001175
53382000,0.0324,0.013523,0.002678,0.000431,0.001880
53383000,0.0324,0.013523,0.002678,0.000431,0.001293
53384000,0.0324,0.013523,0.002678,0.000431,0.001293
53385000,0.0324,0.013523,0.002678,0.000431,0.001645
53386000,0.0324,0.013523,0.002678,0.000431,0.001645
53387000,0.0324,0.013523,0.002678,0.000431,0.001410
53388000,0.0324,0.013523,0.002678,0.000431,0.001645
53389000,0.0324,0.013523,0.002678,0.000431,0.001410
53390000,0.0324,0.013523,0.002678,0.000431,0.001645
53391000,0.0324,0.013523,0.002678,0.000431,0.001880
53392000,0.0324,0.013523,0.002678,0.000431,0.001175
53393000,0.0324,0.013523,0.002678,0.000431,0.001880
53394000,0.0324,0.013523,0.002678,0.000431,0.001410
53395000,0.0324,0.013523,0.002678,0.000431,0.001645
53396000,0.0324,0.013523,0.002678,0.000431,0.001410
53397000,0.0324,0.013523,0.002678,0.000431,0.001645
53398000,0.0324,0.013523,0.002678,0.000431,0.002703
53399000,0.0324,0.013523,0.002678,0.000431,0.350822
53400000,0.0324,0.013523,0.002678,0.000431,0.692359
53401000,0.0324,0.013523,0.002678,0.000431,0.148321
53402000,0.0324,0.013523,0.002678,0.000431,0.133982
53403000,0.0324,0.013523,0.002678,0.000431,0.131632
53404000,0.0324,0.013523,0.002678,0.000431,0.589874
53405000,0.0324,0.013523,0.002678,0.000431,0.229180
53406000,0.0324,0.013523,0.002678,0.000431,0.285006
53407000,0.0324,0.013523,0.002678,0.000431,0.237524
53408000,0.0324,0.013523,0.002678,0.000431,0.141504
53409000,0.0324,0.013523,0.002678,0.000431,0.154315
53410000,0.0324,0.013523,0.002678,0.000431,0.106598
53411000,0.0324,0.013523,0.002678,0.000431,0.420398
53412000,0.0324,0.013523,0.002678,0.000431,0.184519
53413000,0.0324,0.013523,0.002678,0.000431,0.069342
53414000,0.0324,0.013523,0.002678,0.000431,0.049362
53415000,0.0324,0.013523,0.002678,0.000431,0.040782
53416000,0.0324,0.013523,0.002678,0.000431,0.039607
53417000,0.0324,0.013523,0.002678,0.000431,0.043603
53418000,0.0324,0.013523,0.002678,0.000431,0.029735
53419000,0.0324,0.013523,0.002678,0.000431,0.023741
53420000,0.0324,0.013523,0.002678,0.000431,0.028207
53421000,0.0324,0.013523,0.002678,0.000431,0.018922
53422000,0.0324,0.013523,0.002678,0.000431,0.017747
53423000,0.0324,0.013523,0.002678,0.000431,0.016924
53424000,0.0324,0.013523,0.002678,0.000431,0.015984
53425000,0.0324,0.013523,0.002678,0.000431,0.013163
53426000,0.0324,0.013523,0.002678,0.000431,0.010695
53427000,0.0324,0.013523,0.002678,0.000431,0.011518
53428000,0.0324,0.013523,0.002678,0.000431,0.012105
53429000,0.0324,0.013523,0.002678,0.000431,0.009050
53430000,0.0324,0.013523,0.002678,0.000431,0.009755
53431000,0.0324,0.013523,0.002678,0.000431,0.009167
53432000,0.0324,0.013523,0.002678,0.000431,0.007639
53433000,0.0324,0.013523,0.002678,0.000431,0.010460
53434000,0.0324,0.013523,0.002678,0.000431,0.006229
53435000,0.0324,0.013523,0.002678,0.000431,0.007287
53436000,0.0324,0.013523,0.002678,0.000431,0.007874
53437000,0.0324,0.013523,0.002678,0.000431,0.007169
53438000,0.0324,0.013523,0.002678,0.000431,0.006817
53439000,0.0324,0.013523,0.002678,0.000431,0.007169
53440000,0.0324,0.013523,0.002678,0.000431,0.005876
53441000,0.0324,0.013523,0.002678,0.000431,0.005289
53442000,0.0324,0.013523,0.002678,0.000431,0.007287
53443000,0.0324,0.013523,0.002678,0.000431,0.006229
53444000,0.0324,0.013523,0.002678,0.000431,0.006582
53445000,0.0324,0.013523,0.002678,0.000431,0.006934
53446000,0.0324,0.013523,0.002678,0.000431,0.006464
53447000,0.0324,0.013523,0.002678,0.000431,0.005524
53448000,0.0324,0.013523,0.002678,0.000431,0.007639
53449000,0.0324,0.013523,0.002678,0.000431,0.005641
53450000,0.0324,0.013523,0.002678,0.000431,0.006817
53451000,0.0324,0.013523,0.002678,0.000431,0.006699
53452000,0.0324,0.013523,0.002678,0.000431,0.006111
53453000,0.0324,0.013523,0.002678,0.000431,0.006582
53454000,0.0324,0.013523,0.002678,0.000431,0.007052
53455000,0.0324,0.013523,0.002678,0.000431,0.005641
53456000,0.0324,0.013523,0.002678,0.000431,0.007404
53457000,0.0324,0.013523,0.002678,0.000431,0.005994
53458000,0.0324,0.013523,0.002678,0.000431,0.006229
53459000,0.0324,0.013523,0.002678,0.000431,0.006464
53460000,0.0324,0.013523,0.002678,0.000431,0.006934
53461000,0.0324,0.013523,0.002678,0.000431,0.006229
53462000,0.0324,0.013523,0.002678,0.000431,0.006582
53463000,0.0324,0.013523,0.002678,0.000431,0.007052
53464000,0.0324,0.013523,0.002678,0.000431,0.005524
53465000,0.0324,0.013523,0.002678,0.000431,0.007287
53466000,0.0324,0.013523,0.002678,0.000431,0.006229
53467000,0.0324,0.013523,0.002678,0.000431,0.006229
53468000,0.0324,0.013523,0.002678,0.000431,0.007287
53469000,0.0324,0.013523,0.002678,0.000431,0.006229
53470000,0.0324,0.013523,0.002678,0.000431,0.005759
53471000,0.0324,0.013523,0.002678,0.000431,0.006699
53472000,0.0324,0.013523,0.002678,0.000431,0.006582
53473000,0.0324,0.013523,0.002678,0.000431,0.007522
53474000,0.0324,0.013523,0.002678,0.000431,0.006347
53475000,0.0324,0.013523,0.002678,0.000431,0.006817
53476000,0.0324,0.013523,0.002678,0.000431,0.007287
53477000,0.0324,0.013523,0.002678,0.000431,0.006464
53478000,0.0324,0.013523,0.002678,0.000431,0.007169
53479000,0.0324,0.013523,0.002678,0.000431,0.006934
53480000,0.0324,0.013523,0.002678,0.000431,0.006111
53481000,0.0324,0.013523,0.002678,0.000431,0.009990
53482000,0.0324,0.013523,0.002678,0.000431,0.005289
53483000,0.0324,0.013523,0.002678,0.000431,0.006699
53484000,0.0324,0.013523,0.002678,0.000431,0.006111
53485000,0.0324,0.013523,0.002678,0.000431,0.005641
53486000,0.0324,0.013523,0.002678,0.000431,0.006582
53487000,0.0324,0.013523,0.002678,0.000431,0.005524
53488000,0.0324,0.013523,0.002678,0.000431,0.006934
53489000,0.0324,0.013523,0.002678,0.000431,0.005171
53490000,0.0324,0.013523,0.002678,0.000431,0.004584
53491000,0.0324,0.013523,0.002678,0.000431,0.004466
53492000,0.0324,0.013523,0.002678,0.000431,0.004466
53493000,0.0324,0.013523,0.002678,0.000431,0.004584
53494000,0.0324,0.013523,0.002678,0.000431,0.004349
53495000,0.0324,0.013523,0.002678,0.000431,0.004349
53496000,0.0324,0.013523,0.002678,0.000431,0.004819
53497000,0.0324,0.013523,0.002678,0.000431,0.004231
53498000,0.0324,0.013523,0.002678,0.000431,0.004701
53499000,0.0324,0.013523,0.002678,0.000431,0.004701
53500000,0.0324,0.013523,0.002678,0.000431,0.004113
53501000,0.0324,0.013523,0.002678,0.000431,0.004936
53502000,0.0324,0.013523,0.002678,0.000431,0.003996
53503000,0.0324,0.013523,0.002678,0.000431,0.004701
53504000,0.0324,0.013523,0.002678,0.000431,0.004701
53505000,0.0324,0.013523,0.002678,0.000431,0.004349
53506000,0.0324,0.013523,0.002678,0.000431,0.004701
53507000,0.0324,0.013523,0.002678,0.000431,0.004113
53508000,0.0324,0.013523,0.002678,0.000431,0.004584
53509000,0.0324,0.013523,0.002678,0.000431,0.004584
53510000,0.0324,0.013523,0.002678,0.000431,0.004113
53511000,0.0324,0.013523,0.002678,0.000431,0.005054
53512000,0.0324,0.013523,0.002678,0.000431,0.004231
53513000,0.0324,0.013523,0.002678,0.000431,0.004466
53514000,0.0324,0.013523,0.002678,0.000431,0.004819
53515000,0.0324,0.013523,0.002678,0.000431,0.004113
53516000,0.0324,0.013523,0.002678,0.000431,0.004819
53517000,0.0324,0.013523,0.002678,0.000431,0.004231
53518000,0.0324,0.013523,0.002678,0.000431,0.004466
53519000,0.0324,0.013523,0.002678,0.000431,0.004819
53520000,0.0324,0.013523,0.002678,0.000431,0.004349
53521000,0.0324,0.013523,0.002678,0.000431,0.004584
53522000,0.0324,0.013523,0.002678,0.000431,0.004584
53523000,0.0324,0.013523,0.002678,0.000431,0.004231
53524000,0.0324,0.013523,0.002678,0.000431,0.004701
53525000,0.0324,0.013523,0.002678,0.000431,0.006229
53526000,0.0324,0.013523,0.002678,0.000431,0.004819
53527000,0.0324,0.013523,0.002678,0.000431,0.002703
53528000,0.0324,0.013523,0.002678,0.000431,0.002468
53529000,0.0324,0.013523,0.002678,0.000431,0.002586
53530000,0.0324,0.013523,0.002678,0.000431,0.002821
53531000,0.0324,0.013523,0.002678,0.000431,0.002116
53532000,0.0324,0.013523,0.002678,0.000431,0.002821
53533000,0.0324,0.013523,0.002678,0.000431,0.002351
53534000,0.0324,0.013523,0.002678,0.000431,0.002821
53535000,0.0324,0.013523,0.002678,0.000431,0.002351
53536000,0.0324,0.013523,0.002678,0.000431,0.002586
53537000,0.0324,0.013523,0.002678,0.000431,0.002821
53538000,0.0324,0.013523,0.002678,0.000431,0.002233
53539000,0.0324,0.013523,0.002678,0.000431,0.002703
53540000,0.0324,0.013523,0.002678,0.000431,0.002351
53541000,0.0324,0.013523,0.002678,0.000431,0.002821
53542000,0.0324,0.013523,0.002678,0.000431,0.002468
53543000,0.0324,0.013523,0.002678,0.000431,0.002468
53544000,0.0324,0.013523,0.002678,0.000431,0.002586
53545000,0.0324,0.013523,0.002678,0.000431,0.002468
53546000,0.0324,0.013523,0.002678,0.000431,0.002586
53547000,0.0324,0.013523,0.002678,0.000431,0.002468
53548000,0.0324,0.013523,0.002678,0.000431,0.002586
53549000,0.0324,0.013523,0.002678,0.000431,0.002468
53550000,0.0324,0.013523,0.002678,0.000431,0.002703
53551000,0.0324,0.013523,0.002678,0.000431,0.002351
53552000,0.0324,0.013523,0.002678,0.000431,0.002821
53553000,0.0324,0.013523,0.002678,0.000431,0.002233
53554000,0.0324,0.013523,0.002678,0.000431,0.002703
53555000,0.0324,0.013523,0.002678,0.000431,0.002821
53556000,0.0324,0.013523,0.002678,0.000431,0.002351
53557000,0.0324,0.013523,0.002678,0.000431,0.002703
53558000,0.0324,0.013523,0.002678,0.000431,0.002233
53559000,0.0324,0.013523,0.002678,0.000431,0.002821
53560000,0.0324,0.013523,0.002678,0.000431,0.002468
53561000,0.0324,0.013523,0.002678,0.000431,0.002586
53562000,0.0324,0.013523,0.002678,0.000431,0.002468
53563000,0.0324,0.013523,0.002678,0.000431,0.002586
53564000,0.0324,0.013523,0.002678,0.000431,0.002468
53565000,0.0324,0.013523,0.002678,0.000431,0.002468
53566000,0.0324,0.013523,0.002678,0.000431,0.002586
53567000,0.0324,0.013523,0.002678,0.000431,0.002586
53568000,0.0324,0.013523,0.002678,0.000431,0.002703
53569000,0.0324,0.013523,0.002678,0.000431,0.002233
53570000,0.0324,0.013523,0.002678,0.000431,0.002821
53571000,0.0324,0.013523,0.002678,0.000431,0.002351
53572000,0.0324,0.013523,0.002678,0.000431,0.002586
53573000,0.0324,0.013523,0.002678,0.000431,0.002586
53574000,0.0324,0.013523,0.002678,0.000431,0.002586
53575000,0.0324,0.013523,0.002678,0.000431,0.002586
53576000,0.0324,0.013523,0.002678,0.000431,0.002351
53577000,0.0324,0.013523,0.002678,0.000431,0.002821
53578000,0.0324,0.013523,0.002678,0.000431,0.002351
53579000,0.0324,0.013523,0.002678,0.000431,0.002703
53580000,0.0324,0.013523,0.002678,0.000431,0.002586
53581000,0.0324,0.013523,0.002678,0.000431,0.002468
53582000,0.0324,0.013523,0.002678,0.000431,0.002586
53583000,0.0324,0.013523,0.002678,0.000431,0.002468
53584000,0.0324,0.013523,0.002678,0.000431,0.002468
53585000,0.0324,0.013523,0.002678,0.000431,0.002586
53586000,0.0324,0.013523,0.002678,0.000431,0.002468
53587000,0.0324,0.013523,0.002678,0.000431,0.002586
53588000,0.0324,0.013523,0.002678,0.000431,0.002468
53589000,0.0324,0.013523,0.002678,0.000431,0.001998
53590000,0.0324,0.013523,0.002678,0.000431,0.001645
53591000,0.0324,0.013523,0.002678,0.000431,0.001645
53592000,0.0324,0.013523,0.002678,0.000431,0.001763
53593000,0.0324,0.013523,0.002678,0.000431,0.001763
53594000,0.0324,0.013523,0.002678,0.000431,0.001645
53595000,0.0324,0.013523,0.002678,0.000431,0.001645
53596000,0.0324,0.013523,0.002678,0.000431,0.001880
53597000,0.0324,0.013523,0.002678,0.000431,0.001645
53598000,0.0324,0.013523,0.002678,0.000431,0.001763
53599000,0.0324,0.013523,0.002678,0.000431,0.001528
53600000,0.0324,0.013523,0.002678,0.000431,0.001880
53601000,0.0324,0.013523,0.002678,0.000431,0.001645
53602000,0.0324,0.013523,0.002678,0.000431,0.001763
53603000,0.0324,0.013523,0.002678,0.000431,0.001763
53604000,0.0324,0.013523,0.002678,0.000431,0.001645
53605000,0.0324,0.013523,0.002678,0.000431,0.001763
53606000,0.0324,0.013523,0.002678,0.000431,0.001645
53607000,0.0324,0.013523,0.002678,0.000431,0.001763
53608000,0.0324,0.013523,0.002678,0.000431,0.001763
53609000,0.0324,0.013523,0.002678,0.000431,0.001645
53610000,0.0324,0.013523,0.002678,0.000431,0.001645
53611000,0.0324,0.013523,0.002678,0.000431,0.001763
53612000,0.0324,0.013523,0.002678,0.000431,0.001880
53613000,0.0324,0.013523,0.002678,0.000431,0.001528
53614000,0.0324,0.013523,0.002678,0.000431,0.001645
53615000,0.0324,0.013523,0.002678,0.000431,0.002938
53616000,0.0324,0.013523,0.002678,0.000431,0.002233
53617000,0.0324,0.013523,0.002678,0.000431,0.000823
53618000,0.0324,0.013523,0.002678,0.000431,0.000823
53619000,0.0324,0.013523,0.002678,0.000431,0.000940
53620000,0.0324,0.013523,0.002678,0.000431,0.000823
53621000,0.0324,0.013523,0.002678,0.000431,0.000940
53622000,0.0324,0.013523,0.002678,0.000431,0.000823
53623000,0.0324,0.013523,0.002678,0.000431,0.000940
53624000,0.0324,0.013523,0.002678,0.000431,0.000823
53625000,0.0324,0.013523,0.002678,0.000431,0.000823
53626000,0.0324,0.013523,0.002678,0.000431,0.000940
53627000,0.0324,0.013523,0.002678,0.000431,0.000940
53628000,0.0324,0.013523,0.002678,0.000431,0.000823
53629000,0.0324,0.013523,0.002678,0.000431,0.000823
53630000,0.0324,0.013523,0.002678,0.000431,0.000940
53631000,0.0324,0.013523,0.002678,0.000431,0.000940
53632000,0.0324,0.013523,0.002678,0.000431,0.000705
53633000,0.0324,0.013523,0.002678,0.000431,0.000940
53634000,0.0324,0.013523,0.002678,0.000431,0.000940
53635000,0.0324,0.013523,0.002678,0.000431,0.000940
53636000,0.0324,0.013523,0.002678,0.000431,0.000705
53637000,0.0324,0.013523,0.002678,0.000431,0.000940
53638000,0.0324,0.013523,0.002678,0.000431,0.000940
53639000,0.0324,0.013523,0.002678,0.000431,0.000823
53640000,0.0324,0.013523,0.002678,0.000431,0.000940
53641000,0.0324,0.013523,0.002678,0.000431,0.000823
53642000,0.0324,0.013523,0.002678,0.000431,0.000940
53643000,0.0324,0.013523,0.002678,0.000431,0.000823
53644000,0.0324,0.013523,0.002678,0.000431,0.000823
53645000,0.0324,0.013523,0.002678,0.000431,0.000940
53646000,0.0324,0.013523,0.002678,0.000431,0.000940
53647000,0.0324,0.013523,0.002678,0.000431,0.000705
53648000,0.0324,0.013523,0.002678,0.000431,0.001058
53649000,0.0324,0.013523,0.002678,0.000431,0.000823
53650000,0.0324,0.013523,0.002678,0.000431,0.001763
53651000,0.0324,0.013523,0.002678,0.000431,0.386315
53652000,0.0324,0.013523,0.002678,0.000431,0.686482
53653000,0.0324,0.013523,0.002678,0.000431,0.153022
53654000,0.0324,0.013523,0.002678,0.000431,0.133982
53655000,0.0324,0.013523,0.002678,0.000431,0.175822
53656000,0.0324,0.013523,0.002678,0.000431,0.629011
53657000,0.0324,0.013523,0.002678,0.000431,0.241168
53658000,0.0324,0.013523,0.002678,0.000431,0.320382
53659000,0.0324,0.013523,0.002678,0.000431,0.181699
53660000,0.0324,0.013523,0.002678,0.000431,0.147028
53661000,0.0324,0.013523,0.002678,0.000431,0.116235
53662000,0.0324,0.013523,0.002678,0.000431,0.334955
53663000,0.0324,0.013523,0.002678,0.000431,0.326376
53664000,0.0324,0.013523,0.002678,0.000431,0.106010
53665000,0.0324,0.013523,0.002678,0.000431,0.090144
53666000,0.0324,0.013523,0.002678,0.000431,0.069459
53667000,0.0324,0.013523,0.002678,0.000431,0.050185
53668000,0.0324,0.013523,0.002678,0.000431,0.038079
53669000,0.0324,0.013523,0.002678,0.000431,0.034906
53670000,0.0324,0.013523,0.002678,0.000431,0.028089
53671000,0.0324,0.013523,0.002678,0.000431,0.026209
53672000,0.0324,0.013523,0.002678,0.000431,0.026091
53673000,0.0324,0.013523,0.002678,0.000431,0.017394
53674000,0.0324,0.013523,0.002678,0.000431,0.014103
53675000,0.0324,0.013523,0.002678,0.000431,0.014691
53676000,0.0324,0.013523,0.002678,0.000431,0.011870
53677000,0.0324,0.013523,0.002678,0.000431,0.010342
53678000,0.0324,0.013523,0.002678,0.000431,0.011870
53679000,0.0324,0.013523,0.002678,0.000431,0.009637
53680000,0.0324,0.013523,0.002678,0.000431,0.010225
53681000,0.0324,0.013523,0.002678,0.000431,0.010107
53682000,0.0324,0.013523,0.002678,0.000431,0.009167
53683000,0.0324,0.013523,0.002678,0.000431,0.011048
53684000,0.0324,0.013523,0.002678,0.000431,0.008697
53685000,0.0324,0.013523,0.002678,0.000431,0.010695
53686000,0.0324,0.013523,0.002678,0.000431,0.009637
53687000,0.0324,0.013523,0.002678,0.000431,0.008109
53688000,0.0324,0.013523,0.002678,0.000431,0.008345
53689000,0.0324,0.013523,0.002678,0.000431,0.007992
53690000,0.0324,0.013523,0.002678,0.000431,0.007522
53691000,0.0324,0.013523,0.002678,0.000431,0.009755
53692000,0.0324,0.013523,0.002678,0.000431,0.006582
53693000,0.0324,0.013523,0.002678,0.000431,0.009050
53694000,0.0324,0.013523,0.002678,0.000431,0.006111
53695000,0.0324,0.013523,0.002678,0.000431,0.005641
53696000,0.0324,0.013523,0.002678,0.000431,0.007992
53697000,0.0324,0.013523,0.002678,0.000431,0.004466
53698000,0.0324,0.013523,0.002678,0.000431,0.005289
53699000,0.0324,0.013523,0.002678,0.000431,0.004113
53700000,0.0324,0.013523,0.002678,0.000431,0.005171
53701000,0.0324,0.013523,0.002678,0.000431,0.004584
53702000,0.0324,0.013523,0.002678,0.000431,0.004584
53703000,0.0324,0.013523,0.002678,0.000431,0.006582
53704000,0.0324,0.013523,0.002678,0.000431,0.004349
53705000,0.0324,0.013523,0.002678,0.000431,0.002703
53706000,0.0324,0.013523,0.002678,0.000431,0.002233
53707000,0.0324,0.013523,0.002678,0.000431,0.001645
53708000,0.0324,0.013523,0.002678,0.000431,0.001763
53709000,0.0324,0.013523,0.002678,0.000431,0.001645
53710000,0.0324,0.013523,0.002678,0.000431,0.001763
53711000,0.0324,0.013523,0.002678,0.000431,0.001528
53712000,0.0324,0.013523,0.002678,0.000431,0.001763
53713000,0.0324,0.013523,0.002678,0.000431,0.003643
53714000,0.0324,0.013523,0.002678,0.000431,0.000823
53715000,0.0324,0.013523,0.002678,0.000431,0.000823
53716000,0.0324,0.013523,0.002678,0.000431,0.000823
53717000,0.0324,0.013523,0.002678,0.000431,0.000940
53718000,0.0324,0.013523,0.002678,0.000431,0.000705
53719000,0.0324,0.013523,0.002678,0.000431,0.000823
53720000,0.0324,0.013523,0.002678,0.000431,0.000940
53721000,0.0324,0.013523,0.002678,0.000431,0.072397
53722000,0.0324,0.013523,0.002678,0.000431,0.590579
53723000,0.0324,0.013523,0.002678,0.000431,0.558729
53724000,0.0324,0.013523,0.002678,0.000431,0.139741
53725000,0.0324,0.013523,0.002678,0.000431,0.141386
53726000,0.0324,0.013523,0.002678,0.000431,0.593635
53727000,0.0324,0.013523,0.002678,0.000431,0.275251
53728000,0.0324,0.013523,0.002678,0.000431,0.262205
53729000,0.0324,0.013523,0.002678,0.000431,0.251628
53730000,0.0324,0.013523,0.002678,0.000431,0.149613
53731000,0.0324,0.013523,0.002678,0.000431,0.158781
53732000,0.0324,0.013523,0.002678,0.000431,0.167595
53733000,0.0324,0.013523,0.002678,0.000431,0.421339
53734000,0.0324,0.013523,0.002678,0.000431,0.039019
53735000,0.0324,0.013523,0.002678,0.000431,0.033496
53736000,0.0324,0.013523,0.002678,0.000431,0.022565
53737000,0.0324,0.013523,0.002678,0.000431,0.019040
53738000,0.0324,0.013523,0.002678,0.000431,0.018569
53739000,0.0324,0.013523,0.002678,0.000431,0.019157
53740000,0.0324,0.013523,0.002678,0.000431,0.012693
53741000,0.0324,0.013523,0.002678,0.000431,0.011518
53742000,0.0324,0.013523,0.002678,0.000431,0.006229
53743000,0.0324,0.013523,0.002678,0.000431,0.006464
53744000,0.0324,0.013523,0.002678,0.000431,0.006111
53745000,0.0324,0.013523,0.002678,0.000431,0.006582
53746000,0.0324,0.013523,0.002678,0.000431,0.006464
53747000,0.0324,0.013523,0.002678,0.000431,0.005876
53748000,0.0324,0.013523,0.002678,0.000431,0.006699
53749000,0.0324,0.013523,0.002678,0.000431,0.006347
53750000,0.0324,0.013523,0.002678,0.000431,0.007052
53751000,0.0324,0.013523,0.002678,0.000431,0.006229
53752000,0.0324,0.013523,0.002678,0.000431,0.005876
53753000,0.0324,0.013523,0.002678,0.000431,0.006229
53754000,0.0324,0.013523,0.002678,0.000431,0.002821
53755000,0.0324,0.013523,0.002678,0.000431,0.002586
53756000,0.0324,0.013523,0.002678,0.000431,0.002351
53757000,0.0324,0.013523,0.002678,0.000431,0.003878
53758000,0.0324,0.013523,0.002678,0.000431,0.001410
53759000,0.0324,0.013523,0.002678,0.000431,0.001880
53760000,0.0324,0.013523,0.002678,0.000431,0.001645
53761000,0.0324,0.013523,0.002678,0.000431,0.001645
53762000,0.0324,0.013523,0.002678,0.000431,0.001763
53763000,0.0324,0.013523,0.002678,0.000431,0.001645
53764000,0.0324,0.013523,0.002678,0.000431,0.001645
53765000,0.0324,0.013523,0.002678,0.000431,0.001645
53766000,0.0324,0.013523,0.002678,0.000431,0.001763
53767000,0.0324,0.013523,0.002678,0.000431,0.001528
53768000,0.0324,0.013523,0.002678,0.000431,0.001763
53769000,0.0324,0.013523,0.002678,0.000431,0.001763
53770000,0.0324,0.013523,0.002678,0.000431,0.001528
53771000,0.0324,0.013523,0.002678,0.000431,0.001645
53772000,0.0324,0.013523,0.002678,0.000431,0.001645
53773000,0.0324,0.013523,0.002678,0.000431,0.001880
53774000,0.0324,0.013523,0.002678,0.000431,0.001528
53775000,0.0324,0.013523,0.002678,0.000431,0.003056
53776000,0.0324,0.013523,0.002678,0.000431,0.000823
53777000,0.0324,0.013523,0.002678,0.000431,0.000940
53778000,0.0324,0.013523,0.002678,0.000431,0.000823
53779000,0.0324,0.013523,0.002678,0.000431,0.000823
53780000,0.0324,0.013523,0.002678,0.000431,0.000823
53781000,0.0324,0.013523,0.002678,0.000431,0.000705
53782000,0.0324,0.013523,0.002678,0.000431,0.000940
53783000,0.0324,0.013523,0.002678,0.000431,0.000940
53784000,0.0324,0.013523,0.002678,0.000431,0.000705
53785000,0.0324,0.013523,0.002678,0.000431,0.000940
53786000,0.0324,0.013523,0.002678,0.000431,0.000705
53787000,0.0324,0.013523,0.002678,0.000431,0.000940
53788000,0.0324,0.013523,0.002678,0.000431,0.000940
53789000,0.0324,0.013523,0.002678,0.000431,0.000705
53790000,0.0324,0.013523,0.002678,0.000431,0.000940
53791000,0.0324,0.013523,0.002678,0.000431,0.000705
53792000,0.0324,0.013523,0.002678,0.000431,0.000940
53793000,0.0324,0.013523,0.002678,0.000431,0.000823
53794000,0.0324,0.013523,0.002678,0.000431,0.000823
53795000,0.0324,0.013523,0.002678,0.000431,0.000823
53796000,0.0324,0.013523,0.002678,0.000431,0.000823
53797000,0.0324,0.013523,0.002678,0.000431,0.000940
53798000,0.0324,0.013523,0.002678,0.000431,0.000705
53799000,0.0324,0.013523,0.002678,0.000431,0.000940
53800000,0.0324,0.013523,0.002678,0.000431,0.000823
53801000,0.0324,0.013523,0.002678,0.000431,0.000823
53802000,0.0324,0.013523,0.002678,0.000431,0.000823
53803000,0.0324,0.013523,0.002678,0.000431,0.000823
53804000,0.0324,0.013523,0.002678,0.000431,0.000823
53805000,0.0324,0.013523,0.002678,0.000431,0.000823
53806000,0.0324,0.013523,0.002678,0.000431,0.000940
53807000,0.0324,0.013523,0.002678,0.000431,0.000823
53808000,0.0324,0.013523,0.002678,0.000431,0.000823
53809000,0.0324,0.013523,0.002678,0.000431,0.000705
53810000,0.0324,0.013523,0.002678,0.000431,0.000940
53811000,0.0324,0.013523,0.002678,0.000431,0.000940
53812000,0.0324,0.013523,0.002678,0.000431,0.000705
53813000,0.0324,0.013523,0.002678,0.000431,0.000940
53814000,0.0324,0.013523,0.002678,0.000431,0.000705
53815000,0.0324,0.013523,0.002678,0.000431,0.000940
53816000,0.0324,0.013523,0.002678,0.000431,0.000823
53817000,0.0324,0.013523,0.002678,0.000431,0.000823
53818000,0.0324,0.013523,0.002678,0.000431,0.000940
53819000,0.0324,0.013523,0.002678,0.000431,0.000705
53820000,0.0324,0.013523,0.002678,0.000431,0.000940
53821000,0.0324,0.013523,0.002678,0.000431,0.000823
53822000,0.0324,0.013523,0.002678,0.000431,0.000823
53823000,0.0324,0.013523,0.002678,0.000431,0.000823
53824000,0.0324,0.013523,0.002678,0.000431,0.000823
53825000,0.0324,0.013523,0.002678,0.000431,0.000823
53826000,0.0324,0.013523,0.002678,0.000431,0.000823
53827000,0.0324,0.013523,0.002678,0.000431,0.000940
53828000,0.0324,0.013523,0.002678,0.000431,0.000705
53829000,0.0324,0.013523,0.002678,0.000431,0.000823
53830000,0.0324,0.013523,0.002678,0.000431,0.000940
53831000,0.0324,0.013523,0.002678,0.000431,0.000823
53832000,0.0324,0.013523,0.002678,0.000431,0.000823
53833000,0.0324,0.013523,0.002678,0.000431,0.000823
53834000,0.0324,0.013523,0.002678,0.000431,0.000705
53835000,0.0324,0.013523,0.002678,0.000431,0.000940
53836000,0.0324,0.013523,0.002678,0.000431,0.000940
53837000,0.0324,0.013523,0.002678,0.000431,0.000705
53838000,0.0324,0.013523,0.002678,0.000431,0.000940
53839000,0.0324,0.013523,0.002678,0.000431,0.000705
53840000,0.0324,0.013523,0.002678,0.000431,0.000940
53841000,0.0324,0.013523,0.002678,0.000431,0.000940
53842000,0.0324,0.013523,0.002678,0.000431,0.000705
53843000,0.0324,0.013523,0.002678,0.000431,0.000940
53844000,0.0324,0.013523,0.002678,0.000431,0.000705
53845000,0.0324,0.013523,0.002678,0.000431,0.000940
53846000,0.0324,0.013523,0.002678,0.000431,0.000823
53847000,0.0324,0.013523,0.002678,0.000431,0.000823
53848000,0.0324,0.013523,0.002678,0.000431,0.000823
53849000,0.0324,0.013523,0.002678,0.000431,0.000823
53850000,0.0324,0.013523,0.002678,0.000431,0.000823
53851000,0.0324,0.013523,0.002678,0.000431,0.000823
53852000,0.0324,0.013523,0.002678,0.000431,0.000940
53853000,0.0324,0.013523,0.002678,0.000431,0.000705
53854000,0.0324,0.013523,0.002678,0.000431,0.000940
53855000,0.0324,0.013523,0.002678,0.000431,0.000823
53856000,0.0324,0.013523,0.002678,0.000431,0.000823
53857000,0.0324,0.013523,0.002678,0.000431,0.000705
53858000,0.0324,0.013523,0.002678,0.000431,0.000940
53859000,0.0324,0.013523,0.002678,0.000431,0.000940
53860000,0.0324,0.013523,0.002678,0.000431,0.000705
53861000,0.0324,0.013523,0.002678,0.000431,0.000940
53862000,0.0324,0.013523,0.002678,0.000431,0.000705
53863000,0.0324,0.013523,0.002678,0.000431,0.000940
53864000,0.0324,0.013523,0.002678,0.000431,0.000823
53865000,0.0324,0.013523,0.002678,0.000431,0.000823
53866000,0.0324,0.013523,0.002678,0.000431,0.189338
53867000,0.0324,0.013523,0.002678,0.000431,0.450368
53868000,0.0324,0.013523,0.002678,0.000431,0.490445
53869000,0.0324,0.013523,0.002678,0.000431,0.133042
53870000,0.0324,0.013523,0.002678,0.000431,0.132572
53871000,0.0324,0.013523,0.002678,0.000431,0.564135
53872000,0.0324,0.013523,0.002678,0.000431,0.243753
53873000,0.0324,0.013523,0.002678,0.000431,0.263498
53874000,0.0324,0.013523,0.002678,0.000431,0.298757
53875000,0.0324,0.013523,0.002678,0.000431,0.144325
53876000,0.0324,0.013523,0.002678,0.000431,0.142209
53877000,0.0324,0.013523,0.002678,0.000431,0.121172
53878000,0.0324,0.013523,0.002678,0.000431,0.308041
53879000,0.0324,0.013523,0.002678,0.000431,0.325906
53880000,0.0324,0.013523,0.002678,0.000431,0.084620
53881000,0.0324,0.013523,0.002678,0.000431,0.072397
53882000,0.0324,0.013523,0.002678,0.000431,0.053593
53883000,0.0324,0.013523,0.002678,0.000431,0.043133
53884000,0.0324,0.013523,0.002678,0.000431,0.032438
53885000,0.0324,0.013523,0.002678,0.000431,0.028089
53886000,0.0324,0.013523,0.002678,0.000431,0.024563
53887000,0.0324,0.013523,0.002678,0.000431,0.018217
53888000,0.0324,0.013523,0.002678,0.000431,0.018805
53889000,0.0324,0.013523,0.002678,0.000431,0.017629
53890000,0.0324,0.013523,0.002678,0.000431,0.019275
53891000,0.0324,0.013523,0.002678,0.000431,0.015279
53892000,0.0324,0.013523,0.002678,0.000431,0.017864
53893000,0.0324,0.013523,0.002678,0.000431,0.013398
53894000,0.0324,0.013523,0.002678,0.000431,0.014338
53895000,0.0324,0.013523,0.002678,0.000431,0.011870
53896000,0.0324,0.013523,0.002678,0.000431,0.012223
53897000,0.0324,0.013523,0.002678,0.000431,0.012693
53898000,0.0324,0.013523,0.002678,0.000431,0.008815
53899000,0.0324,0.013523,0.002678,0.000431,0.009637
53900000,0.0324,0.013523,0.002678,0.000431,0.007992
53901000,0.0324,0.013523,0.002678,0.000431,0.007522
53902000,0.0324,0.013523,0.002678,0.000431,0.006582
53903000,0.0324,0.013523,0.002678,0.000431,0.010813
53904000,0.0324,0.013523,0.002678,0.000431,0.005876
53905000,0.0324,0.013523,0.002678,0.000431,0.007052
53906000,0.0324,0.013523,0.002678,0.000431,0.006582
53907000,0.0324,0.013523,0.002678,0.000431,0.006464
53908000,0.0324,0.013523,0.002678,0.000431,0.006817
53909000,0.0324,0.013523,0.002678,0.000431,0.006464
53910000,0.0324,0.013523,0.002678,0.000431,0.007169
53911000,0.0324,0.013523,0.002678,0.000431,0.006347
53912000,0.0324,0.013523,0.002678,0.000431,0.006817
53913000,0.0324,0.013523,0.002678,0.000431,0.006464
53914000,0.0324,0.013523,0.002678,0.000431,0.006817
53915000,0.0324,0.013523,0.002678,0.000431,0.005994
53916000,0.0324,0.013523,0.002678,0.000431,0.007169
53917000,0.0324,0.013523,0.002678,0.000431,0.006699
53918000,0.0324,0.013523,0.002678,0.000431,0.007992
53919000,0.0324,0.013523,0.002678,0.000431,0.006347
53920000,0.0324,0.013523,0.002678,0.000431,0.006111
53921000,0.0324,0.013523,0.002678,0.000431,0.004936
53922000,0.0324,0.013523,0.002678,0.000431,0.006464
53923000,0.0324,0.013523,0.002678,0.000431,0.005994
53924000,0.0324,0.013523,0.002678,0.000431,0.005054
53925000,0.0324,0.013523,0.002678,0.000431,0.006229
53926000,0.0324,0.013523,0.002678,0.000431,0.003408
53927000,0.0324,0.013523,0.002678,0.000431,0.003526
53928000,0.0324,0.013523,0.002678,0.000431,0.002703
53929000,0.0324,0.013523,0.002678,0.000431,0.002938
53930000,0.0324,0.013523,0.002678,0.000431,0.003056
53931000,0.0324,0.013523,0.002678,0.000431,0.003056
53932000,0.0324,0.013523,0.002678,0.000431,0.002821
53933000,0.0324,0.013523,0.002678,0.000431,0.003056
53934000,0.0324,0.013523,0.002678,0.000431,0.002586
53935000,0.0324,0.013523,0.002678,0.000431,0.002468
53936000,0.0324,0.013523,0.002678,0.000431,0.003173
53937000,0.0324,0.013523,0.002678,0.000431,0.003526
53938000,0.0324,0.013523,0.002678,0.000431,0.002821
53939000,0.0324,0.013523,0.002678,0.000431,0.003643
53940000,0.0324,0.013523,0.002678,0.000431,0.002938
53941000,0.0324,0.013523,0.002678,0.000431,0.003408
53942000,0.0324,0.013523,0.002678,0.000431,0.003291
53943000,0.0324,0.013523,0.002678,0.000431,0.003056
53944000,0.0324,0.013523,0.002678,0.000431,0.003291
53945000,0.0324,0.013523,0.002678,0.000431,0.003291
53946000,0.0324,0.013523,0.002678,0.000431,0.003056
53947000,0.0324,0.013523,0.002678,0.000431,0.003408
53948000,0.0324,0.013523,0.002678,0.000431,0.003408
53949000,0.0324,0.013523,0.002678,0.000431,0.002938
53950000,0.0324,0.013523,0.002678,0.000431,0.003526
53951000,0.0324,0.013523,0.002678,0.000431,0.002586
53952000,0.0324,0.013523,0.002678,0.000431,0.001880
53953000,0.0324,0.013523,0.002678,0.000431,0.001410
53954000,0.0324,0.013523,0.002678,0.000431,0.001880
53955000,0.0324,0.013523,0.002678,0.000431,0.001528
53956000,0.0324,0.013523,0.002678,0.000431,0.001763
53957000,0.0324,0.013523,0.002678,0.000431,0.001763
53958000,0.0324,0.013523,0.002678,0.000431,0.001528
53959000,0.0324,0.013523,0.002678,0.000431,0.001880
53960000,0.0324,0.013523,0.002678,0.000431,0.001528
53961000,0.0324,0.013523,0.002678,0.000431,0.001763
53962000,0.0324,0.013523,0.002678,0.000431,0.001645
53963000,0.0324,0.013523,0.002678,0.000431,0.001645
53964000,0.0324,0.013523,0.002678,0.000431,0.001763
53965000,0.0324,0.013523,0.002678,0.000431,0.001528
53966000,0.0324,0.013523,0.002678,0.000431,0.001763
53967000,0.0324,0.013523,0.002678,0.000431,0.001645
53968000,0.0324,0.013523,0.002678,0.000431,0.001763
53969000,0.0324,0.013523,0.002678,0.000431,0.001645
53970000,0.0324,0.013523,0.002678,0.000431,0.001645
53971000,0.0324,0.013523,0.002678,0.000431,0.001645
53972000,0.0324,0.013523,0.002678,0.000431,0.001645
53973000,0.0324,0.013523,0.002678,0.000431,0.001410
53974000,0.0324,0.013523,0.002678,0.000431,0.001880
53975000,0.0324,0.013523,0.002678,0.000431,0.001880
53976000,0.0324,0.013523,0.002678,0.000431,0.001410
53977000,0.0324,0.013523,0.002678,0.000431,0.001880
53978000,0.0324,0.013523,0.002678,0.000431,0.001410
53979000,0.0324,0.013523,0.002678,0.000431,0.001880
53980000,0.0324,0.013523,0.002678,0.000431,0.001645
53981000,0.0324,0.013523,0.002678,0.000431,0.001645
53982000,0.0324,0.013523,0.002678,0.000431,0.001763
53983000,0.0324,0.013523,0.002678,0.000431,0.001528
53984000,0.0324,0.013523,0.002678,0.000431,0.001880
53985000,0.0324,0.013523,0.002678,0.000431,0.001528
53986000,0.0324,0.013523,0.002678,0.000431,0.001763
53987000,0.0324,0.013523,0.002678,0.000431,0.001645
53988000,0.0324,0.013523,0.002678,0.000431,0.002586
53989000,0.0324,0.013523,0.002678,0.000431,0.002116
53990000,0.0324,0.013523,0.002678,0.000431,0.000823
53991000,0.0324,0.013523,0.002678,0.000431,0.000823
53992000,0.0324,0.013523,0.002678,0.000431,0.000823
53993000,0.0324,0.013523,0.002678,0.000431,0.000823
53994000,0.0324,0.013523,0.002678,0.000431,0.000823
53995000,0.0324,0.013523,0.002678,0.000431,0.000940
53996000,0.0324,0.013523,0.002678,0.000431,0.000823
53997000,0.0324,0.013523,0.002678,0.000431,0.000823
53998000,0.0324,0.013523,0.002678,0.000431,0.000705
53999000,0.0324,0.013523,0.002678,0.000431,0.000940
