Cycle,Area(mm^2),PeakDynamic(W),SubthresholdLeakage(W),GateLeakage(W),RunTimeDynamic(W)
27000000,0.0324,0.013523,0.002678,0.000431,0.002468
27001000,0.0324,0.013523,0.002678,0.000431,0.002468
27002000,0.0324,0.013523,0.002678,0.000431,0.002703
27003000,0.0324,0.013523,0.002678,0.000431,0.002468
27004000,0.0324,0.013523,0.002678,0.000431,0.002468
27005000,0.0324,0.013523,0.002678,0.000431,0.002351
27006000,0.0324,0.013523,0.002678,0.000431,0.002586
27007000,0.0324,0.013523,0.002678,0.000431,0.002821
27008000,0.0324,0.013523,0.002678,0.000431,0.002233
27009000,0.0324,0.013523,0.002678,0.000431,0.002703
27010000,0.0324,0.013523,0.002678,0.000431,0.002351
27011000,0.0324,0.013523,0.002678,0.000431,0.002586
27012000,0.0324,0.013523,0.002678,0.000431,0.002586
27013000,0.0324,0.013523,0.002678,0.000431,0.002468
27014000,0.0324,0.013523,0.002678,0.000431,0.002586
27015000,0.0324,0.013523,0.002678,0.000431,0.002351
27016000,0.0324,0.013523,0.002678,0.000431,0.002703
27017000,0.0324,0.013523,0.002678,0.000431,0.002468
27018000,0.0324,0.013523,0.002678,0.000431,0.002468
27019000,0.0324,0.013523,0.002678,0.000431,0.002586
27020000,0.0324,0.013523,0.002678,0.000431,0.002468
27021000,0.0324,0.013523,0.002678,0.000431,0.002468
27022000,0.0324,0.013523,0.002678,0.000431,0.002468
27023000,0.0324,0.013523,0.002678,0.000431,0.002586
27024000,0.0324,0.013523,0.002678,0.000431,0.002351
27025000,0.0324,0.013523,0.002678,0.000431,0.002586
27026000,0.0324,0.013523,0.002678,0.000431,0.002468
27027000,0.0324,0.013523,0.002678,0.000431,0.002586
27028000,0.0324,0.013523,0.002678,0.000431,0.002468
27029000,0.0324,0.013523,0.002678,0.000431,0.002586
27030000,0.0324,0.013523,0.002678,0.000431,0.002468
27031000,0.0324,0.013523,0.002678,0.000431,0.002351
27032000,0.0324,0.013523,0.002678,0.000431,0.002821
27033000,0.0324,0.013523,0.002678,0.000431,0.002351
27034000,0.0324,0.013523,0.002678,0.000431,0.002586
27035000,0.0324,0.013523,0.002678,0.000431,0.002351
27036000,0.0324,0.013523,0.002678,0.000431,0.002586
27037000,0.0324,0.013523,0.002678,0.000431,0.002586
27038000,0.0324,0.013523,0.002678,0.000431,0.003643
27039000,0.0324,0.013523,0.002678,0.000431,0.001880
27040000,0.0324,0.013523,0.002678,0.000431,0.001528
27041000,0.0324,0.013523,0.002678,0.000431,0.001763
27042000,0.0324,0.013523,0.002678,0.000431,0.001645
27043000,0.0324,0.013523,0.002678,0.000431,0.001645
27044000,0.0324,0.013523,0.002678,0.000431,0.001645
27045000,0.0324,0.013523,0.002678,0.000431,0.001645
27046000,0.0324,0.013523,0.002678,0.000431,0.001880
27047000,0.0324,0.013523,0.002678,0.000431,0.001410
27048000,0.0324,0.013523,0.002678,0.000431,0.001763
27049000,0.0324,0.013523,0.002678,0.000431,0.001763
27050000,0.0324,0.013523,0.002678,0.000431,0.001645
27051000,0.0324,0.013523,0.002678,0.000431,0.001645
27052000,0.0324,0.013523,0.002678,0.000431,0.001645
27053000,0.0324,0.013523,0.002678,0.000431,0.001528
27054000,0.0324,0.013523,0.002678,0.000431,0.001763
27055000,0.0324,0.013523,0.002678,0.000431,0.001880
27056000,0.0324,0.013523,0.002678,0.000431,0.001410
27057000,0.0324,0.013523,0.002678,0.000431,0.001880
27058000,0.0324,0.013523,0.002678,0.000431,0.001410
27059000,0.0324,0.013523,0.002678,0.000431,0.001880
27060000,0.0324,0.013523,0.002678,0.000431,0.001880
27061000,0.0324,0.013523,0.002678,0.000431,0.001410
27062000,0.0324,0.013523,0.002678,0.000431,0.001880
27063000,0.0324,0.013523,0.002678,0.000431,0.001410
27064000,0.0324,0.013523,0.002678,0.000431,0.001880
27065000,0.0324,0.013523,0.002678,0.000431,0.001645
27066000,0.0324,0.013523,0.002678,0.000431,0.001645
27067000,0.0324,0.013523,0.002678,0.000431,0.001645
27068000,0.0324,0.013523,0.002678,0.000431,0.001645
27069000,0.0324,0.013523,0.002678,0.000431,0.001880
27070000,0.0324,0.013523,0.002678,0.000431,0.001528
27071000,0.0324,0.013523,0.002678,0.000431,0.001763
27072000,0.0324,0.013523,0.002678,0.000431,0.001763
27073000,0.0324,0.013523,0.002678,0.000431,0.001763
27074000,0.0324,0.013523,0.002678,0.000431,0.001645
27075000,0.0324,0.013523,0.002678,0.000431,0.001645
27076000,0.0324,0.013523,0.002678,0.000431,0.001763
27077000,0.0324,0.013523,0.002678,0.000431,0.001645
27078000,0.0324,0.013523,0.002678,0.000431,0.001763
27079000,0.0324,0.013523,0.002678,0.000431,0.001763
27080000,0.0324,0.013523,0.002678,0.000431,0.001763
27081000,0.0324,0.013523,0.002678,0.000431,0.001645
27082000,0.0324,0.013523,0.002678,0.000431,0.001645
27083000,0.0324,0.013523,0.002678,0.000431,0.001645
27084000,0.0324,0.013523,0.002678,0.000431,0.001880
27085000,0.0324,0.013523,0.002678,0.000431,0.001763
27086000,0.0324,0.013523,0.002678,0.000431,0.001528
27087000,0.0324,0.013523,0.002678,0.000431,0.001880
27088000,0.0324,0.013523,0.002678,0.000431,0.001645
27089000,0.0324,0.013523,0.002678,0.000431,0.001645
27090000,0.0324,0.013523,0.002678,0.000431,0.001763
27091000,0.0324,0.013523,0.002678,0.000431,0.001763
27092000,0.0324,0.013523,0.002678,0.000431,0.001880
27093000,0.0324,0.013523,0.002678,0.000431,0.001410
27094000,0.0324,0.013523,0.002678,0.000431,0.001880
27095000,0.0324,0.013523,0.002678,0.000431,0.001763
27096000,0.0324,0.013523,0.002678,0.000431,0.001645
27097000,0.0324,0.013523,0.002678,0.000431,0.001763
27098000,0.0324,0.013523,0.002678,0.000431,0.001645
27099000,0.0324,0.013523,0.002678,0.000431,0.001880
27100000,0.0324,0.013523,0.002678,0.000431,0.001528
27101000,0.0324,0.013523,0.002678,0.000431,0.003291
27102000,0.0324,0.013523,0.002678,0.000431,0.000940
27103000,0.0324,0.013523,0.002678,0.000431,0.000823
27104000,0.0324,0.013523,0.002678,0.000431,0.001058
27105000,0.0324,0.013523,0.002678,0.000431,0.237054
27106000,0.0324,0.013523,0.002678,0.000431,0.669911
27107000,0.0324,0.013523,0.002678,0.000431,0.309217
27108000,0.0324,0.013523,0.002678,0.000431,0.132102
27109000,0.0324,0.013523,0.002678,0.000431,0.133982
27110000,0.0324,0.013523,0.002678,0.000431,0.578121
27111000,0.0324,0.013523,0.002678,0.000431,0.238935
27112000,0.0324,0.013523,0.002678,0.000431,0.271608
27113000,0.0324,0.013523,0.002678,0.000431,0.245281
27114000,0.0324,0.013523,0.002678,0.000431,0.140564
27115000,0.0324,0.013523,0.002678,0.000431,0.186870
27116000,0.0324,0.013523,0.002678,0.000431,0.087206
27117000,0.0324,0.013523,0.002678,0.000431,0.493266
27118000,0.0324,0.013523,0.002678,0.000431,0.097901
27119000,0.0324,0.013523,0.002678,0.000431,0.062878
27120000,0.0324,0.013523,0.002678,0.000431,0.050655
27121000,0.0324,0.013523,0.002678,0.000431,0.036081
27122000,0.0324,0.013523,0.002678,0.000431,0.027972
27123000,0.0324,0.013523,0.002678,0.000431,0.022918
27124000,0.0324,0.013523,0.002678,0.000431,0.021978
27125000,0.0324,0.013523,0.002678,0.000431,0.024446
27126000,0.0324,0.013523,0.002678,0.000431,0.017629
27127000,0.0324,0.013523,0.002678,0.000431,0.016454
27128000,0.0324,0.013523,0.002678,0.000431,0.014691
27129000,0.0324,0.013523,0.002678,0.000431,0.015866
27130000,0.0324,0.013523,0.002678,0.000431,0.013163
27131000,0.0324,0.013523,0.002678,0.000431,0.016807
27132000,0.0324,0.013523,0.002678,0.000431,0.009050
27133000,0.0324,0.013523,0.002678,0.000431,0.009285
27134000,0.0324,0.013523,0.002678,0.000431,0.009050
27135000,0.0324,0.013523,0.002678,0.000431,0.009402
27136000,0.0324,0.013523,0.002678,0.000431,0.006699
27137000,0.0324,0.013523,0.002678,0.000431,0.006817
27138000,0.0324,0.013523,0.002678,0.000431,0.007169
27139000,0.0324,0.013523,0.002678,0.000431,0.006229
27140000,0.0324,0.013523,0.002678,0.000431,0.007169
27141000,0.0324,0.013523,0.002678,0.000431,0.006582
27142000,0.0324,0.013523,0.002678,0.000431,0.009050
27143000,0.0324,0.013523,0.002678,0.000431,0.004701
27144000,0.0324,0.013523,0.002678,0.000431,0.005289
27145000,0.0324,0.013523,0.002678,0.000431,0.005406
27146000,0.0324,0.013523,0.002678,0.000431,0.004936
27147000,0.0324,0.013523,0.002678,0.000431,0.004936
27148000,0.0324,0.013523,0.002678,0.000431,0.005289
27149000,0.0324,0.013523,0.002678,0.000431,0.005289
27150000,0.0324,0.013523,0.002678,0.000431,0.004584
27151000,0.0324,0.013523,0.002678,0.000431,0.005289
27152000,0.0324,0.013523,0.002678,0.000431,0.005524
27153000,0.0324,0.013523,0.002678,0.000431,0.006464
27154000,0.0324,0.013523,0.002678,0.000431,0.004349
27155000,0.0324,0.013523,0.002678,0.000431,0.002586
27156000,0.0324,0.013523,0.002678,0.000431,0.002821
27157000,0.0324,0.013523,0.002678,0.000431,0.002351
27158000,0.0324,0.013523,0.002678,0.000431,0.002703
27159000,0.0324,0.013523,0.002678,0.000431,0.003408
27160000,0.0324,0.013523,0.002678,0.000431,0.002821
27161000,0.0324,0.013523,0.002678,0.000431,0.001645
27162000,0.0324,0.013523,0.002678,0.000431,0.001763
27163000,0.0324,0.013523,0.002678,0.000431,0.002468
27164000,0.0324,0.013523,0.002678,0.000431,0.001645
27165000,0.0324,0.013523,0.002678,0.000431,0.000940
27166000,0.0324,0.013523,0.002678,0.000431,0.000823
27167000,0.0324,0.013523,0.002678,0.000431,0.000823
27168000,0.0324,0.013523,0.002678,0.000431,0.000940
27169000,0.0324,0.013523,0.002678,0.000431,0.000823
27170000,0.0324,0.013523,0.002678,0.000431,0.000940
27171000,0.0324,0.013523,0.002678,0.000431,0.000823
27172000,0.0324,0.013523,0.002678,0.000431,0.000940
27173000,0.0324,0.013523,0.002678,0.000431,0.000823
27174000,0.0324,0.013523,0.002678,0.000431,0.000823
27175000,0.0324,0.013523,0.002678,0.000431,0.000940
27176000,0.0324,0.013523,0.002678,0.000431,0.000940
27177000,0.0324,0.013523,0.002678,0.000431,0.000823
27178000,0.0324,0.013523,0.002678,0.000431,0.000823
27179000,0.0324,0.013523,0.002678,0.000431,0.000940
27180000,0.0324,0.013523,0.002678,0.000431,0.000940
27181000,0.0324,0.013523,0.002678,0.000431,0.000705
27182000,0.0324,0.013523,0.002678,0.000431,0.000940
27183000,0.0324,0.013523,0.002678,0.000431,0.000940
27184000,0.0324,0.013523,0.002678,0.000431,0.000940
27185000,0.0324,0.013523,0.002678,0.000431,0.000705
27186000,0.0324,0.013523,0.002678,0.000431,0.000940
27187000,0.0324,0.013523,0.002678,0.000431,0.000940
27188000,0.0324,0.013523,0.002678,0.000431,0.000823
27189000,0.0324,0.013523,0.002678,0.000431,0.000940
27190000,0.0324,0.013523,0.002678,0.000431,0.000823
27191000,0.0324,0.013523,0.002678,0.000431,0.000940
27192000,0.0324,0.013523,0.002678,0.000431,0.000823
27193000,0.0324,0.013523,0.002678,0.000431,0.000823
27194000,0.0324,0.013523,0.002678,0.000431,0.000940
27195000,0.0324,0.013523,0.002678,0.000431,0.000823
27196000,0.0324,0.013523,0.002678,0.000431,0.000823
27197000,0.0324,0.013523,0.002678,0.000431,0.000940
27198000,0.0324,0.013523,0.002678,0.000431,0.000940
27199000,0.0324,0.013523,0.002678,0.000431,0.000940
27200000,0.0324,0.013523,0.002678,0.000431,0.000705
27201000,0.0324,0.013523,0.002678,0.000431,0.000940
27202000,0.0324,0.013523,0.002678,0.000431,0.000940
27203000,0.0324,0.013523,0.002678,0.000431,0.000823
27204000,0.0324,0.013523,0.002678,0.000431,0.000823
27205000,0.0324,0.013523,0.002678,0.000431,0.000940
27206000,0.0324,0.013523,0.002678,0.000431,0.000940
27207000,0.0324,0.013523,0.002678,0.000431,0.000823
27208000,0.0324,0.013523,0.002678,0.000431,0.000823
27209000,0.0324,0.013523,0.002678,0.000431,0.000940
27210000,0.0324,0.013523,0.002678,0.000431,0.000823
27211000,0.0324,0.013523,0.002678,0.000431,0.000940
27212000,0.0324,0.013523,0.002678,0.000431,0.000823
27213000,0.0324,0.013523,0.002678,0.000431,0.000940
27214000,0.0324,0.013523,0.002678,0.000431,0.000823
27215000,0.0324,0.013523,0.002678,0.000431,0.000823
27216000,0.0324,0.013523,0.002678,0.000431,0.000940
27217000,0.0324,0.013523,0.002678,0.000431,0.000940
27218000,0.0324,0.013523,0.002678,0.000431,0.000823
27219000,0.0324,0.013523,0.002678,0.000431,0.000823
27220000,0.0324,0.013523,0.002678,0.000431,0.000940
27221000,0.0324,0.013523,0.002678,0.000431,0.000940
27222000,0.0324,0.013523,0.002678,0.000431,0.000823
27223000,0.0324,0.013523,0.002678,0.000431,0.000823
27224000,0.0324,0.013523,0.002678,0.000431,0.000940
27225000,0.0324,0.013523,0.002678,0.000431,0.000940
27226000,0.0324,0.013523,0.002678,0.000431,0.000823
27227000,0.0324,0.013523,0.002678,0.000431,0.000823
27228000,0.0324,0.013523,0.002678,0.000431,0.000940
27229000,0.0324,0.013523,0.002678,0.000431,0.000823
27230000,0.0324,0.013523,0.002678,0.000431,0.000940
27231000,0.0324,0.013523,0.002678,0.000431,0.000823
27232000,0.0324,0.013523,0.002678,0.000431,0.001880
27233000,0.0324,0.013523,0.002678,0.000431,0.308041
27234000,0.0324,0.013523,0.002678,0.000431,0.659451
27235000,0.0324,0.013523,0.002678,0.000431,0.251863
27236000,0.0324,0.013523,0.002678,0.000431,0.133512
27237000,0.0324,0.013523,0.002678,0.000431,0.140916
27238000,0.0324,0.013523,0.002678,0.000431,0.596338
27239000,0.0324,0.013523,0.002678,0.000431,0.235174
27240000,0.0324,0.013523,0.002678,0.000431,0.290530
27241000,0.0324,0.013523,0.002678,0.000431,0.220953
27242000,0.0324,0.013523,0.002678,0.000431,0.150436
27243000,0.0324,0.013523,0.002678,0.000431,0.161014
27244000,0.0324,0.013523,0.002678,0.000431,0.174764
27245000,0.0324,0.013523,0.002678,0.000431,0.432974
27246000,0.0324,0.013523,0.002678,0.000431,0.071575
27247000,0.0324,0.013523,0.002678,0.000431,0.059822
27248000,0.0324,0.013523,0.002678,0.000431,0.047364
27249000,0.0324,0.013523,0.002678,0.000431,0.032555
27250000,0.0324,0.013523,0.002678,0.000431,0.028207
27251000,0.0324,0.013523,0.002678,0.000431,0.021508
27252000,0.0324,0.013523,0.002678,0.000431,0.019392
27253000,0.0324,0.013523,0.002678,0.000431,0.020685
27254000,0.0324,0.013523,0.002678,0.000431,0.012811
27255000,0.0324,0.013523,0.002678,0.000431,0.008932
27256000,0.0324,0.013523,0.002678,0.000431,0.011518
27257000,0.0324,0.013523,0.002678,0.000431,0.011635
27258000,0.0324,0.013523,0.002678,0.000431,0.009050
27259000,0.0324,0.013523,0.002678,0.000431,0.005641
27260000,0.0324,0.013523,0.002678,0.000431,0.005524
27261000,0.0324,0.013523,0.002678,0.000431,0.004936
27262000,0.0324,0.013523,0.002678,0.000431,0.005524
27263000,0.0324,0.013523,0.002678,0.000431,0.005994
27264000,0.0324,0.013523,0.002678,0.000431,0.004701
27265000,0.0324,0.013523,0.002678,0.000431,0.005876
27266000,0.0324,0.013523,0.002678,0.000431,0.003408
27267000,0.0324,0.013523,0.002678,0.000431,0.003761
27268000,0.0324,0.013523,0.002678,0.000431,0.002938
27269000,0.0324,0.013523,0.002678,0.000431,0.003643
27270000,0.0324,0.013523,0.002678,0.000431,0.003056
27271000,0.0324,0.013523,0.002678,0.000431,0.005289
27272000,0.0324,0.013523,0.002678,0.000431,0.002468
27273000,0.0324,0.013523,0.002678,0.000431,0.002468
27274000,0.0324,0.013523,0.002678,0.000431,0.002468
27275000,0.0324,0.013523,0.002678,0.000431,0.002116
27276000,0.0324,0.013523,0.002678,0.000431,0.002351
27277000,0.0324,0.013523,0.002678,0.000431,0.002586
27278000,0.0324,0.013523,0.002678,0.000431,0.002586
27279000,0.0324,0.013523,0.002678,0.000431,0.002586
27280000,0.0324,0.013523,0.002678,0.000431,0.002703
27281000,0.0324,0.013523,0.002678,0.000431,0.004113
27282000,0.0324,0.013523,0.002678,0.000431,0.014809
27283000,0.0324,0.013523,0.002678,0.000431,0.531815
27284000,0.0324,0.013523,0.002678,0.000431,0.590697
27285000,0.0324,0.013523,0.002678,0.000431,0.134452
27286000,0.0324,0.013523,0.002678,0.000431,0.133042
27287000,0.0324,0.013523,0.002678,0.000431,0.455304
27288000,0.0324,0.013523,0.002678,0.000431,0.309217
27289000,0.0324,0.013523,0.002678,0.000431,0.260325
27290000,0.0324,0.013523,0.002678,0.000431,0.297934
27291000,0.0324,0.013523,0.002678,0.000431,0.147733
27292000,0.0324,0.013523,0.002678,0.000431,0.144912
27293000,0.0324,0.013523,0.002678,0.000431,0.153374
27294000,0.0324,0.013523,0.002678,0.000431,0.215782
27295000,0.0324,0.013523,0.002678,0.000431,0.407823
27296000,0.0324,0.013523,0.002678,0.000431,0.080977
27297000,0.0324,0.013523,0.002678,0.000431,0.065933
27298000,0.0324,0.013523,0.002678,0.000431,0.055238
27299000,0.0324,0.013523,0.002678,0.000431,0.048422
27300000,0.0324,0.013523,0.002678,0.000431,0.030675
27301000,0.0324,0.013523,0.002678,0.000431,0.021390
27302000,0.0324,0.013523,0.002678,0.000431,0.025269
27303000,0.0324,0.013523,0.002678,0.000431,0.011753
27304000,0.0324,0.013523,0.002678,0.000431,0.009520
27305000,0.0324,0.013523,0.002678,0.000431,0.009520
27306000,0.0324,0.013523,0.002678,0.000431,0.011400
27307000,0.0324,0.013523,0.002678,0.000431,0.007404
27308000,0.0324,0.013523,0.002678,0.000431,0.011518
27309000,0.0324,0.013523,0.002678,0.000431,0.006582
27310000,0.0324,0.013523,0.002678,0.000431,0.004349
27311000,0.0324,0.013523,0.002678,0.000431,0.004584
27312000,0.0324,0.013523,0.002678,0.000431,0.004113
27313000,0.0324,0.013523,0.002678,0.000431,0.005406
27314000,0.0324,0.013523,0.002678,0.000431,0.003526
27315000,0.0324,0.013523,0.002678,0.000431,0.005406
27316000,0.0324,0.013523,0.002678,0.000431,0.004701
27317000,0.0324,0.013523,0.002678,0.000431,0.001410
27318000,0.0324,0.013523,0.002678,0.000431,0.001880
27319000,0.0324,0.013523,0.002678,0.000431,0.001645
27320000,0.0324,0.013523,0.002678,0.000431,0.001763
27321000,0.0324,0.013523,0.002678,0.000431,0.003056
27322000,0.0324,0.013523,0.002678,0.000431,0.000705
27323000,0.0324,0.013523,0.002678,0.000431,0.000940
27324000,0.0324,0.013523,0.002678,0.000431,0.000823
27325000,0.0324,0.013523,0.002678,0.000431,0.000940
27326000,0.0324,0.013523,0.002678,0.000431,0.000823
27327000,0.0324,0.013523,0.002678,0.000431,0.000940
27328000,0.0324,0.013523,0.002678,0.000431,0.000823
27329000,0.0324,0.013523,0.002678,0.000431,0.000823
27330000,0.0324,0.013523,0.002678,0.000431,0.000940
27331000,0.0324,0.013523,0.002678,0.000431,0.000940
27332000,0.0324,0.013523,0.002678,0.000431,0.000823
27333000,0.0324,0.013523,0.002678,0.000431,0.000823
27334000,0.0324,0.013523,0.002678,0.000431,0.000940
27335000,0.0324,0.013523,0.002678,0.000431,0.000940
27336000,0.0324,0.013523,0.002678,0.000431,0.000823
27337000,0.0324,0.013523,0.002678,0.000431,0.000823
27338000,0.0324,0.013523,0.002678,0.000431,0.000940
27339000,0.0324,0.013523,0.002678,0.000431,0.000940
27340000,0.0324,0.013523,0.002678,0.000431,0.000823
27341000,0.0324,0.013523,0.002678,0.000431,0.000823
27342000,0.0324,0.013523,0.002678,0.000431,0.001998
27343000,0.0324,0.013523,0.002678,0.000431,0.393249
27344000,0.0324,0.013523,0.002678,0.000431,0.688833
27345000,0.0324,0.013523,0.002678,0.000431,0.180876
27346000,0.0324,0.013523,0.002678,0.000431,0.134922
27347000,0.0324,0.013523,0.002678,0.000431,0.228240
27348000,0.0324,0.013523,0.002678,0.000431,0.589521
27349000,0.0324,0.013523,0.002678,0.000431,0.277014
27350000,0.0324,0.013523,0.002678,0.000431,0.298287
27351000,0.0324,0.013523,0.002678,0.000431,0.144795
27352000,0.0324,0.013523,0.002678,0.000431,0.157370
27353000,0.0324,0.013523,0.002678,0.000431,0.105070
27354000,0.0324,0.013523,0.002678,0.000431,0.417930
27355000,0.0324,0.013523,0.002678,0.000431,0.176997
27356000,0.0324,0.013523,0.002678,0.000431,0.060527
27357000,0.0324,0.013523,0.002678,0.000431,0.034201
27358000,0.0324,0.013523,0.002678,0.000431,0.024681
27359000,0.0324,0.013523,0.002678,0.000431,0.022565
27360000,0.0324,0.013523,0.002678,0.000431,0.019745
27361000,0.0324,0.013523,0.002678,0.000431,0.016454
27362000,0.0324,0.013523,0.002678,0.000431,0.009755
27363000,0.0324,0.013523,0.002678,0.000431,0.010695
27364000,0.0324,0.013523,0.002678,0.000431,0.010342
27365000,0.0324,0.013523,0.002678,0.000431,0.009755
27366000,0.0324,0.013523,0.002678,0.000431,0.011048
27367000,0.0324,0.013523,0.002678,0.000431,0.010460
27368000,0.0324,0.013523,0.002678,0.000431,0.010578
27369000,0.0324,0.013523,0.002678,0.000431,0.013163
27370000,0.0324,0.013523,0.002678,0.000431,0.009990
27371000,0.0324,0.013523,0.002678,0.000431,0.009285
27372000,0.0324,0.013523,0.002678,0.000431,0.006699
27373000,0.0324,0.013523,0.002678,0.000431,0.007404
27374000,0.0324,0.013523,0.002678,0.000431,0.006817
27375000,0.0324,0.013523,0.002678,0.000431,0.007052
27376000,0.0324,0.013523,0.002678,0.000431,0.006817
27377000,0.0324,0.013523,0.002678,0.000431,0.007052
27378000,0.0324,0.013523,0.002678,0.000431,0.007757
27379000,0.0324,0.013523,0.002678,0.000431,0.004936
27380000,0.0324,0.013523,0.002678,0.000431,0.005524
27381000,0.0324,0.013523,0.002678,0.000431,0.005289
27382000,0.0324,0.013523,0.002678,0.000431,0.005994
27383000,0.0324,0.013523,0.002678,0.000431,0.004349
27384000,0.0324,0.013523,0.002678,0.000431,0.003996
27385000,0.0324,0.013523,0.002678,0.000431,0.004349
27386000,0.0324,0.013523,0.002678,0.000431,0.004231
27387000,0.0324,0.013523,0.002678,0.000431,0.004349
27388000,0.0324,0.013523,0.002678,0.000431,0.003878
27389000,0.0324,0.013523,0.002678,0.000431,0.006347
27390000,0.0324,0.013523,0.002678,0.000431,0.003526
27391000,0.0324,0.013523,0.002678,0.000431,0.003408
27392000,0.0324,0.013523,0.002678,0.000431,0.004701
27393000,0.0324,0.013523,0.002678,0.000431,0.002703
27394000,0.0324,0.013523,0.002678,0.000431,0.002703
27395000,0.0324,0.013523,0.002678,0.000431,0.002468
27396000,0.0324,0.013523,0.002678,0.000431,0.002351
27397000,0.0324,0.013523,0.002678,0.000431,0.002703
27398000,0.0324,0.013523,0.002678,0.000431,0.002468
27399000,0.0324,0.013523,0.002678,0.000431,0.002468
27400000,0.0324,0.013523,0.002678,0.000431,0.002586
27401000,0.0324,0.013523,0.002678,0.000431,0.002586
27402000,0.0324,0.013523,0.002678,0.000431,0.002468
27403000,0.0324,0.013523,0.002678,0.000431,0.002351
27404000,0.0324,0.013523,0.002678,0.000431,0.002821
27405000,0.0324,0.013523,0.002678,0.000431,0.002468
27406000,0.0324,0.013523,0.002678,0.000431,0.002468
27407000,0.0324,0.013523,0.002678,0.000431,0.002586
27408000,0.0324,0.013523,0.002678,0.000431,0.002586
27409000,0.0324,0.013523,0.002678,0.000431,0.002468
27410000,0.0324,0.013523,0.002678,0.000431,0.002468
27411000,0.0324,0.013523,0.002678,0.000431,0.002586
27412000,0.0324,0.013523,0.002678,0.000431,0.002586
27413000,0.0324,0.013523,0.002678,0.000431,0.002468
27414000,0.0324,0.013523,0.002678,0.000431,0.002468
27415000,0.0324,0.013523,0.002678,0.000431,0.002586
27416000,0.0324,0.013523,0.002678,0.000431,0.002468
27417000,0.0324,0.013523,0.002678,0.000431,0.002351
27418000,0.0324,0.013523,0.002678,0.000431,0.002703
27419000,0.0324,0.013523,0.002678,0.000431,0.002821
27420000,0.0324,0.013523,0.002678,0.000431,0.002233
27421000,0.0324,0.013523,0.002678,0.000431,0.002468
27422000,0.0324,0.013523,0.002678,0.000431,0.002586
27423000,0.0324,0.013523,0.002678,0.000431,0.002821
27424000,0.0324,0.013523,0.002678,0.000431,0.003291
27425000,0.0324,0.013523,0.002678,0.000431,0.000940
27426000,0.0324,0.013523,0.002678,0.000431,0.000940
27427000,0.0324,0.013523,0.002678,0.000431,0.000940
27428000,0.0324,0.013523,0.002678,0.000431,0.000823
27429000,0.0324,0.013523,0.002678,0.000431,0.000823
27430000,0.0324,0.013523,0.002678,0.000431,0.000940
27431000,0.0324,0.013523,0.002678,0.000431,0.000823
27432000,0.0324,0.013523,0.002678,0.000431,0.000940
27433000,0.0324,0.013523,0.002678,0.000431,0.000823
27434000,0.0324,0.013523,0.002678,0.000431,0.000940
27435000,0.0324,0.013523,0.002678,0.000431,0.000823
27436000,0.0324,0.013523,0.002678,0.000431,0.000823
27437000,0.0324,0.013523,0.002678,0.000431,0.000940
27438000,0.0324,0.013523,0.002678,0.000431,0.000940
27439000,0.0324,0.013523,0.002678,0.000431,0.000705
27440000,0.0324,0.013523,0.002678,0.000431,0.000940
27441000,0.0324,0.013523,0.002678,0.000431,0.000940
27442000,0.0324,0.013523,0.002678,0.000431,0.000940
27443000,0.0324,0.013523,0.002678,0.000431,0.000705
27444000,0.0324,0.013523,0.002678,0.000431,0.000940
27445000,0.0324,0.013523,0.002678,0.000431,0.000940
27446000,0.0324,0.013523,0.002678,0.000431,0.000823
27447000,0.0324,0.013523,0.002678,0.000431,0.000823
27448000,0.0324,0.013523,0.002678,0.000431,0.000940
27449000,0.0324,0.013523,0.002678,0.000431,0.000940
27450000,0.0324,0.013523,0.002678,0.000431,0.000823
27451000,0.0324,0.013523,0.002678,0.000431,0.000823
27452000,0.0324,0.013523,0.002678,0.000431,0.000940
27453000,0.0324,0.013523,0.002678,0.000431,0.001880
27454000,0.0324,0.013523,0.002678,0.000431,0.263146
27455000,0.0324,0.013523,0.002678,0.000431,0.651106
27456000,0.0324,0.013523,0.002678,0.000431,0.276661
27457000,0.0324,0.013523,0.002678,0.000431,0.131632
27458000,0.0324,0.013523,0.002678,0.000431,0.133512
27459000,0.0324,0.013523,0.002678,0.000431,0.607973
27460000,0.0324,0.013523,0.002678,0.000431,0.255389
27461000,0.0324,0.013523,0.002678,0.000431,0.245869
27462000,0.0324,0.013523,0.002678,0.000431,0.261970
27463000,0.0324,0.013523,0.002678,0.000431,0.137626
27464000,0.0324,0.013523,0.002678,0.000431,0.165832
27465000,0.0324,0.013523,0.002678,0.000431,0.103072
27466000,0.0324,0.013523,0.002678,0.000431,0.454481
27467000,0.0324,0.013523,0.002678,0.000431,0.132454
27468000,0.0324,0.013523,0.002678,0.000431,0.056414
27469000,0.0324,0.013523,0.002678,0.000431,0.051360
27470000,0.0324,0.013523,0.002678,0.000431,0.046424
27471000,0.0324,0.013523,0.002678,0.000431,0.030322
27472000,0.0324,0.013523,0.002678,0.000431,0.023623
27473000,0.0324,0.013523,0.002678,0.000431,0.021743
27474000,0.0324,0.013523,0.002678,0.000431,0.020920
27475000,0.0324,0.013523,0.002678,0.000431,0.014103
27476000,0.0324,0.013523,0.002678,0.000431,0.006111
27477000,0.0324,0.013523,0.002678,0.000431,0.008932
27478000,0.0324,0.013523,0.002678,0.000431,0.007522
27479000,0.0324,0.013523,0.002678,0.000431,0.002586
27480000,0.0324,0.013523,0.002678,0.000431,0.002468
27481000,0.0324,0.013523,0.002678,0.000431,0.002351
27482000,0.0324,0.013523,0.002678,0.000431,0.003526
27483000,0.0324,0.013523,0.002678,0.000431,0.002703
27484000,0.0324,0.013523,0.002678,0.000431,0.001645
27485000,0.0324,0.013523,0.002678,0.000431,0.001645
27486000,0.0324,0.013523,0.002678,0.000431,0.001645
27487000,0.0324,0.013523,0.002678,0.000431,0.001763
27488000,0.0324,0.013523,0.002678,0.000431,0.001645
27489000,0.0324,0.013523,0.002678,0.000431,0.001763
27490000,0.0324,0.013523,0.002678,0.000431,0.001645
27491000,0.0324,0.013523,0.002678,0.000431,0.001880
27492000,0.0324,0.013523,0.002678,0.000431,0.001528
27493000,0.0324,0.013523,0.002678,0.000431,0.001763
27494000,0.0324,0.013523,0.002678,0.000431,0.001763
27495000,0.0324,0.013523,0.002678,0.000431,0.001763
27496000,0.0324,0.013523,0.002678,0.000431,0.001528
27497000,0.0324,0.013523,0.002678,0.000431,0.001763
27498000,0.0324,0.013523,0.002678,0.000431,0.001880
27499000,0.0324,0.013523,0.002678,0.000431,0.001410
27500000,0.0324,0.013523,0.002678,0.000431,0.001880
27501000,0.0324,0.013523,0.002678,0.000431,0.001410
27502000,0.0324,0.013523,0.002678,0.000431,0.001880
27503000,0.0324,0.013523,0.002678,0.000431,0.001645
27504000,0.0324,0.013523,0.002678,0.000431,0.004349
27505000,0.0324,0.013523,0.002678,0.000431,0.000940
27506000,0.0324,0.013523,0.002678,0.000431,0.000705
27507000,0.0324,0.013523,0.002678,0.000431,0.000940
27508000,0.0324,0.013523,0.002678,0.000431,0.000823
27509000,0.0324,0.013523,0.002678,0.000431,0.000823
27510000,0.0324,0.013523,0.002678,0.000431,0.000940
27511000,0.0324,0.013523,0.002678,0.000431,0.000940
27512000,0.0324,0.013523,0.002678,0.000431,0.037962
27513000,0.0324,0.013523,0.002678,0.000431,0.504078
27514000,0.0324,0.013523,0.002678,0.000431,0.599511
27515000,0.0324,0.013523,0.002678,0.000431,0.130691
27516000,0.0324,0.013523,0.002678,0.000431,0.133982
27517000,0.0324,0.013523,0.002678,0.000431,0.508309
27518000,0.0324,0.013523,0.002678,0.000431,0.247867
27519000,0.0324,0.013523,0.002678,0.000431,0.243166
27520000,0.0324,0.013523,0.002678,0.000431,0.328726
27521000,0.0324,0.013523,0.002678,0.000431,0.160426
27522000,0.0324,0.013523,0.002678,0.000431,0.138566
27523000,0.0324,0.013523,0.002678,0.000431,0.151611
27524000,0.0324,0.013523,0.002678,0.000431,0.216134
27525000,0.0324,0.013523,0.002678,0.000431,0.375738
27526000,0.0324,0.013523,0.002678,0.000431,0.056884
27527000,0.0324,0.013523,0.002678,0.000431,0.048187
27528000,0.0324,0.013523,0.002678,0.000431,0.039607
27529000,0.0324,0.013523,0.002678,0.000431,0.026091
27530000,0.0324,0.013523,0.002678,0.000431,0.019980
27531000,0.0324,0.013523,0.002678,0.000431,0.020450
27532000,0.0324,0.013523,0.002678,0.000431,0.015631
27533000,0.0324,0.013523,0.002678,0.000431,0.014456
27534000,0.0324,0.013523,0.002678,0.000431,0.009167
27535000,0.0324,0.013523,0.002678,0.000431,0.008697
27536000,0.0324,0.013523,0.002678,0.000431,0.008109
27537000,0.0324,0.013523,0.002678,0.000431,0.008345
27538000,0.0324,0.013523,0.002678,0.000431,0.007639
27539000,0.0324,0.013523,0.002678,0.000431,0.008227
27540000,0.0324,0.013523,0.002678,0.000431,0.007639
27541000,0.0324,0.013523,0.002678,0.000431,0.008932
27542000,0.0324,0.013523,0.002678,0.000431,0.006347
27543000,0.0324,0.013523,0.002678,0.000431,0.005994
27544000,0.0324,0.013523,0.002678,0.000431,0.006111
27545000,0.0324,0.013523,0.002678,0.000431,0.005876
27546000,0.0324,0.013523,0.002678,0.000431,0.006347
27547000,0.0324,0.013523,0.002678,0.000431,0.009050
27548000,0.0324,0.013523,0.002678,0.000431,0.005171
27549000,0.0324,0.013523,0.002678,0.000431,0.004466
27550000,0.0324,0.013523,0.002678,0.000431,0.004349
27551000,0.0324,0.013523,0.002678,0.000431,0.004349
27552000,0.0324,0.013523,0.002678,0.000431,0.003996
27553000,0.0324,0.013523,0.002678,0.000431,0.004466
27554000,0.0324,0.013523,0.002678,0.000431,0.004349
27555000,0.0324,0.013523,0.002678,0.000431,0.004231
27556000,0.0324,0.013523,0.002678,0.000431,0.004231
27557000,0.0324,0.013523,0.002678,0.000431,0.005524
27558000,0.0324,0.013523,0.002678,0.000431,0.004701
27559000,0.0324,0.013523,0.002678,0.000431,0.002468
27560000,0.0324,0.013523,0.002678,0.000431,0.002703
27561000,0.0324,0.013523,0.002678,0.000431,0.002351
27562000,0.0324,0.013523,0.002678,0.000431,0.002468
27563000,0.0324,0.013523,0.002678,0.000431,0.002586
27564000,0.0324,0.013523,0.002678,0.000431,0.002586
27565000,0.0324,0.013523,0.002678,0.000431,0.002468
27566000,0.0324,0.013523,0.002678,0.000431,0.002468
27567000,0.0324,0.013523,0.002678,0.000431,0.002586
27568000,0.0324,0.013523,0.002678,0.000431,0.002233
27569000,0.0324,0.013523,0.002678,0.000431,0.002821
27570000,0.0324,0.013523,0.002678,0.000431,0.002468
27571000,0.0324,0.013523,0.002678,0.000431,0.002351
27572000,0.0324,0.013523,0.002678,0.000431,0.002586
27573000,0.0324,0.013523,0.002678,0.000431,0.002468
27574000,0.0324,0.013523,0.002678,0.000431,0.002586
27575000,0.0324,0.013523,0.002678,0.000431,0.002586
27576000,0.0324,0.013523,0.002678,0.000431,0.002468
27577000,0.0324,0.013523,0.002678,0.000431,0.002468
27578000,0.0324,0.013523,0.002678,0.000431,0.002586
27579000,0.0324,0.013523,0.002678,0.000431,0.002586
27580000,0.0324,0.013523,0.002678,0.000431,0.002468
27581000,0.0324,0.013523,0.002678,0.000431,0.002351
27582000,0.0324,0.013523,0.002678,0.000431,0.002586
27583000,0.0324,0.013523,0.002678,0.000431,0.002703
27584000,0.0324,0.013523,0.002678,0.000431,0.002351
27585000,0.0324,0.013523,0.002678,0.000431,0.002586
27586000,0.0324,0.013523,0.002678,0.000431,0.002468
27587000,0.0324,0.013523,0.002678,0.000431,0.002586
27588000,0.0324,0.013523,0.002678,0.000431,0.002468
27589000,0.0324,0.013523,0.002678,0.000431,0.002468
27590000,0.0324,0.013523,0.002678,0.000431,0.002586
27591000,0.0324,0.013523,0.002678,0.000431,0.002351
27592000,0.0324,0.013523,0.002678,0.000431,0.002703
27593000,0.0324,0.013523,0.002678,0.000431,0.002351
27594000,0.0324,0.013523,0.002678,0.000431,0.002586
27595000,0.0324,0.013523,0.002678,0.000431,0.002468
27596000,0.0324,0.013523,0.002678,0.000431,0.004349
27597000,0.0324,0.013523,0.002678,0.000431,0.003761
27598000,0.0324,0.013523,0.002678,0.000431,0.000705
27599000,0.0324,0.013523,0.002678,0.000431,0.000940
27600000,0.0324,0.013523,0.002678,0.000431,0.000705
27601000,0.0324,0.013523,0.002678,0.000431,0.000940
27602000,0.0324,0.013523,0.002678,0.000431,0.000823
27603000,0.0324,0.013523,0.002678,0.000431,0.000823
27604000,0.0324,0.013523,0.002678,0.000431,0.000823
27605000,0.0324,0.013523,0.002678,0.000431,0.000823
27606000,0.0324,0.013523,0.002678,0.000431,0.000940
27607000,0.0324,0.013523,0.002678,0.000431,0.000705
27608000,0.0324,0.013523,0.002678,0.000431,0.000940
27609000,0.0324,0.013523,0.002678,0.000431,0.000823
27610000,0.0324,0.013523,0.002678,0.000431,0.000823
27611000,0.0324,0.013523,0.002678,0.000431,0.000823
27612000,0.0324,0.013523,0.002678,0.000431,0.000823
27613000,0.0324,0.013523,0.002678,0.000431,0.000940
27614000,0.0324,0.013523,0.002678,0.000431,0.000705
27615000,0.0324,0.013523,0.002678,0.000431,0.000823
27616000,0.0324,0.013523,0.002678,0.000431,0.000940
27617000,0.0324,0.013523,0.002678,0.000431,0.000823
27618000,0.0324,0.013523,0.002678,0.000431,0.000823
27619000,0.0324,0.013523,0.002678,0.000431,0.000823
27620000,0.0324,0.013523,0.002678,0.000431,0.000705
27621000,0.0324,0.013523,0.002678,0.000431,0.000940
27622000,0.0324,0.013523,0.002678,0.000431,0.000940
27623000,0.0324,0.013523,0.002678,0.000431,0.000705
27624000,0.0324,0.013523,0.002678,0.000431,0.000940
27625000,0.0324,0.013523,0.002678,0.000431,0.000705
27626000,0.0324,0.013523,0.002678,0.000431,0.000940
27627000,0.0324,0.013523,0.002678,0.000431,0.000940
27628000,0.0324,0.013523,0.002678,0.000431,0.000705
27629000,0.0324,0.013523,0.002678,0.000431,0.000940
27630000,0.0324,0.013523,0.002678,0.000431,0.000705
27631000,0.0324,0.013523,0.002678,0.000431,0.000940
27632000,0.0324,0.013523,0.002678,0.000431,0.000823
27633000,0.0324,0.013523,0.002678,0.000431,0.000823
27634000,0.0324,0.013523,0.002678,0.000431,0.000823
27635000,0.0324,0.013523,0.002678,0.000431,0.000823
27636000,0.0324,0.013523,0.002678,0.000431,0.000940
27637000,0.0324,0.013523,0.002678,0.000431,0.000705
27638000,0.0324,0.013523,0.002678,0.000431,0.000940
27639000,0.0324,0.013523,0.002678,0.000431,0.000823
27640000,0.0324,0.013523,0.002678,0.000431,0.000823
27641000,0.0324,0.013523,0.002678,0.000431,0.000823
27642000,0.0324,0.013523,0.002678,0.000431,0.000823
27643000,0.0324,0.013523,0.002678,0.000431,0.000940
27644000,0.0324,0.013523,0.002678,0.000431,0.000705
27645000,0.0324,0.013523,0.002678,0.000431,0.000940
27646000,0.0324,0.013523,0.002678,0.000431,0.000823
27647000,0.0324,0.013523,0.002678,0.000431,0.000823
27648000,0.0324,0.013523,0.002678,0.000431,0.000705
27649000,0.0324,0.013523,0.002678,0.000431,0.000940
27650000,0.0324,0.013523,0.002678,0.000431,0.000940
27651000,0.0324,0.013523,0.002678,0.000431,0.000705
27652000,0.0324,0.013523,0.002678,0.000431,0.000940
27653000,0.0324,0.013523,0.002678,0.000431,0.000705
27654000,0.0324,0.013523,0.002678,0.000431,0.000940
27655000,0.0324,0.013523,0.002678,0.000431,0.000823
27656000,0.0324,0.013523,0.002678,0.000431,0.000823
27657000,0.0324,0.013523,0.002678,0.000431,0.000940
27658000,0.0324,0.013523,0.002678,0.000431,0.000705
27659000,0.0324,0.013523,0.002678,0.000431,0.000940
27660000,0.0324,0.013523,0.002678,0.000431,0.000823
27661000,0.0324,0.013523,0.002678,0.000431,0.000823
27662000,0.0324,0.013523,0.002678,0.000431,0.000823
27663000,0.0324,0.013523,0.002678,0.000431,0.000823
27664000,0.0324,0.013523,0.002678,0.000431,0.000823
27665000,0.0324,0.013523,0.002678,0.000431,0.000823
27666000,0.0324,0.013523,0.002678,0.000431,0.000940
27667000,0.0324,0.013523,0.002678,0.000431,0.000705
27668000,0.0324,0.013523,0.002678,0.000431,0.000823
27669000,0.0324,0.013523,0.002678,0.000431,0.000940
27670000,0.0324,0.013523,0.002678,0.000431,0.000823
27671000,0.0324,0.013523,0.002678,0.000431,0.000823
27672000,0.0324,0.013523,0.002678,0.000431,0.000823
27673000,0.0324,0.013523,0.002678,0.000431,0.000705
27674000,0.0324,0.013523,0.002678,0.000431,0.000940
27675000,0.0324,0.013523,0.002678,0.000431,0.000940
27676000,0.0324,0.013523,0.002678,0.000431,0.000705
27677000,0.0324,0.013523,0.002678,0.000431,0.000940
27678000,0.0324,0.013523,0.002678,0.000431,0.000705
27679000,0.0324,0.013523,0.002678,0.000431,0.000940
27680000,0.0324,0.013523,0.002678,0.000431,0.000940
27681000,0.0324,0.013523,0.002678,0.000431,0.000705
27682000,0.0324,0.013523,0.002678,0.000431,0.000940
27683000,0.0324,0.013523,0.002678,0.000431,0.000705
27684000,0.0324,0.013523,0.002678,0.000431,0.000940
27685000,0.0324,0.013523,0.002678,0.000431,0.000823
27686000,0.0324,0.013523,0.002678,0.000431,0.000823
27687000,0.0324,0.013523,0.002678,0.000431,0.000823
27688000,0.0324,0.013523,0.002678,0.000431,0.000823
27689000,0.0324,0.013523,0.002678,0.000431,0.000940
27690000,0.0324,0.013523,0.002678,0.000431,0.000705
27691000,0.0324,0.013523,0.002678,0.000431,0.000940
27692000,0.0324,0.013523,0.002678,0.000431,0.000823
27693000,0.0324,0.013523,0.002678,0.000431,0.000823
27694000,0.0324,0.013523,0.002678,0.000431,0.000823
27695000,0.0324,0.013523,0.002678,0.000431,0.000823
27696000,0.0324,0.013523,0.002678,0.000431,0.000940
27697000,0.0324,0.013523,0.002678,0.000431,0.000705
27698000,0.0324,0.013523,0.002678,0.000431,0.000940
27699000,0.0324,0.013523,0.002678,0.000431,0.000823
27700000,0.0324,0.013523,0.002678,0.000431,0.000823
27701000,0.0324,0.013523,0.002678,0.000431,0.000705
27702000,0.0324,0.013523,0.002678,0.000431,0.000940
27703000,0.0324,0.013523,0.002678,0.000431,0.000940
27704000,0.0324,0.013523,0.002678,0.000431,0.000705
27705000,0.0324,0.013523,0.002678,0.000431,0.000940
27706000,0.0324,0.013523,0.002678,0.000431,0.000705
27707000,0.0324,0.013523,0.002678,0.000431,0.000940
27708000,0.0324,0.013523,0.002678,0.000431,0.000823
27709000,0.0324,0.013523,0.002678,0.000431,0.000823
27710000,0.0324,0.013523,0.002678,0.000431,0.000940
27711000,0.0324,0.013523,0.002678,0.000431,0.000705
27712000,0.0324,0.013523,0.002678,0.000431,0.000940
27713000,0.0324,0.013523,0.002678,0.000431,0.000705
27714000,0.0324,0.013523,0.002678,0.000431,0.000940
27715000,0.0324,0.013523,0.002678,0.000431,0.000823
27716000,0.0324,0.013523,0.002678,0.000431,0.000823
27717000,0.0324,0.013523,0.002678,0.000431,0.000823
27718000,0.0324,0.013523,0.002678,0.000431,0.000823
27719000,0.0324,0.013523,0.002678,0.000431,0.000940
27720000,0.0324,0.013523,0.002678,0.000431,0.000705
27721000,0.0324,0.013523,0.002678,0.000431,0.000823
27722000,0.0324,0.013523,0.002678,0.000431,0.000940
27723000,0.0324,0.013523,0.002678,0.000431,0.000823
27724000,0.0324,0.013523,0.002678,0.000431,0.000823
27725000,0.0324,0.013523,0.002678,0.000431,0.000823
27726000,0.0324,0.013523,0.002678,0.000431,0.000705
27727000,0.0324,0.013523,0.002678,0.000431,0.000940
27728000,0.0324,0.013523,0.002678,0.000431,0.000940
27729000,0.0324,0.013523,0.002678,0.000431,0.000705
27730000,0.0324,0.013523,0.002678,0.000431,0.000940
27731000,0.0324,0.013523,0.002678,0.000431,0.000705
27732000,0.0324,0.013523,0.002678,0.000431,0.000940
27733000,0.0324,0.013523,0.002678,0.000431,0.000940
27734000,0.0324,0.013523,0.002678,0.000431,0.000705
27735000,0.0324,0.013523,0.002678,0.000431,0.000940
27736000,0.0324,0.013523,0.002678,0.000431,0.000705
27737000,0.0324,0.013523,0.002678,0.000431,0.000940
27738000,0.0324,0.013523,0.002678,0.000431,0.000823
27739000,0.0324,0.013523,0.002678,0.000431,0.000823
27740000,0.0324,0.013523,0.002678,0.000431,0.000823
27741000,0.0324,0.013523,0.002678,0.000431,0.000823
27742000,0.0324,0.013523,0.002678,0.000431,0.000940
27743000,0.0324,0.013523,0.002678,0.000431,0.000705
27744000,0.0324,0.013523,0.002678,0.000431,0.000940
27745000,0.0324,0.013523,0.002678,0.000431,0.000823
27746000,0.0324,0.013523,0.002678,0.000431,0.000823
27747000,0.0324,0.013523,0.002678,0.000431,0.000823
27748000,0.0324,0.013523,0.002678,0.000431,0.000823
27749000,0.0324,0.013523,0.002678,0.000431,0.000823
27750000,0.0324,0.013523,0.002678,0.000431,0.000823
27751000,0.0324,0.013523,0.002678,0.000431,0.000940
27752000,0.0324,0.013523,0.002678,0.000431,0.000705
27753000,0.0324,0.013523,0.002678,0.000431,0.000940
27754000,0.0324,0.013523,0.002678,0.000431,0.000705
27755000,0.0324,0.013523,0.002678,0.000431,0.000940
27756000,0.0324,0.013523,0.002678,0.000431,0.000940
27757000,0.0324,0.013523,0.002678,0.000431,0.000705
27758000,0.0324,0.013523,0.002678,0.000431,0.000940
27759000,0.0324,0.013523,0.002678,0.000431,0.000705
27760000,0.0324,0.013523,0.002678,0.000431,0.000940
27761000,0.0324,0.013523,0.002678,0.000431,0.000823
27762000,0.0324,0.013523,0.002678,0.000431,0.000823
27763000,0.0324,0.013523,0.002678,0.000431,0.000940
27764000,0.0324,0.013523,0.002678,0.000431,0.000705
27765000,0.0324,0.013523,0.002678,0.000431,0.000940
27766000,0.0324,0.013523,0.002678,0.000431,0.000823
27767000,0.0324,0.013523,0.002678,0.000431,0.000823
27768000,0.0324,0.013523,0.002678,0.000431,0.000823
27769000,0.0324,0.013523,0.002678,0.000431,0.000823
27770000,0.0324,0.013523,0.002678,0.000431,0.000823
27771000,0.0324,0.013523,0.002678,0.000431,0.000823
27772000,0.0324,0.013523,0.002678,0.000431,0.000940
27773000,0.0324,0.013523,0.002678,0.000431,0.000705
27774000,0.0324,0.013523,0.002678,0.000431,0.000823
27775000,0.0324,0.013523,0.002678,0.000431,0.000940
27776000,0.0324,0.013523,0.002678,0.000431,0.000823
27777000,0.0324,0.013523,0.002678,0.000431,0.000823
27778000,0.0324,0.013523,0.002678,0.000431,0.000823
27779000,0.0324,0.013523,0.002678,0.000431,0.000823
27780000,0.0324,0.013523,0.002678,0.000431,0.000823
27781000,0.0324,0.013523,0.002678,0.000431,0.000940
27782000,0.0324,0.013523,0.002678,0.000431,0.000823
27783000,0.0324,0.013523,0.002678,0.000431,0.000823
27784000,0.0324,0.013523,0.002678,0.000431,0.000705
27785000,0.0324,0.013523,0.002678,0.000431,0.000940
27786000,0.0324,0.013523,0.002678,0.000431,0.000940
27787000,0.0324,0.013523,0.002678,0.000431,0.000705
27788000,0.0324,0.013523,0.002678,0.000431,0.000940
27789000,0.0324,0.013523,0.002678,0.000431,0.000705
27790000,0.0324,0.013523,0.002678,0.000431,0.000940
27791000,0.0324,0.013523,0.002678,0.000431,0.000940
27792000,0.0324,0.013523,0.002678,0.000431,0.000705
27793000,0.0324,0.013523,0.002678,0.000431,0.000940
27794000,0.0324,0.013523,0.002678,0.000431,0.000705
27795000,0.0324,0.013523,0.002678,0.000431,0.000940
27796000,0.0324,0.013523,0.002678,0.000431,0.000823
27797000,0.0324,0.013523,0.002678,0.000431,0.000823
27798000,0.0324,0.013523,0.002678,0.000431,0.000823
27799000,0.0324,0.013523,0.002678,0.000431,0.000823
27800000,0.0324,0.013523,0.002678,0.000431,0.000940
27801000,0.0324,0.013523,0.002678,0.000431,0.000823
27802000,0.0324,0.013523,0.002678,0.000431,0.000823
27803000,0.0324,0.013523,0.002678,0.000431,0.000823
27804000,0.0324,0.013523,0.002678,0.000431,0.000823
27805000,0.0324,0.013523,0.002678,0.000431,0.000823
27806000,0.0324,0.013523,0.002678,0.000431,0.000823
27807000,0.0324,0.013523,0.002678,0.000431,0.002586
27808000,0.0324,0.013523,0.002678,0.000431,0.411701
27809000,0.0324,0.013523,0.002678,0.000431,0.667443
27810000,0.0324,0.013523,0.002678,0.000431,0.131161
27811000,0.0324,0.013523,0.002678,0.000431,0.134452
27812000,0.0324,0.013523,0.002678,0.000431,0.181699
27813000,0.0324,0.013523,0.002678,0.000431,0.576946
27814000,0.0324,0.013523,0.002678,0.000431,0.280540
27815000,0.0324,0.013523,0.002678,0.000431,0.298639
27816000,0.0324,0.013523,0.002678,0.000431,0.208377
27817000,0.0324,0.013523,0.002678,0.000431,0.141974
27818000,0.0324,0.013523,0.002678,0.000431,0.132337
27819000,0.0324,0.013523,0.002678,0.000431,0.237289
27820000,0.0324,0.013523,0.002678,0.000431,0.349176
27821000,0.0324,0.013523,0.002678,0.000431,0.032085
27822000,0.0324,0.013523,0.002678,0.000431,0.029852
27823000,0.0324,0.013523,0.002678,0.000431,0.026561
27824000,0.0324,0.013523,0.002678,0.000431,0.024093
27825000,0.0324,0.013523,0.002678,0.000431,0.019040
27826000,0.0324,0.013523,0.002678,0.000431,0.016101
27827000,0.0324,0.013523,0.002678,0.000431,0.015396
27828000,0.0324,0.013523,0.002678,0.000431,0.017159
27829000,0.0324,0.013523,0.002678,0.000431,0.014456
27830000,0.0324,0.013523,0.002678,0.000431,0.015514
27831000,0.0324,0.013523,0.002678,0.000431,0.011635
27832000,0.0324,0.013523,0.002678,0.000431,0.011988
27833000,0.0324,0.013523,0.002678,0.000431,0.011870
27834000,0.0324,0.013523,0.002678,0.000431,0.014926
27835000,0.0324,0.013523,0.002678,0.000431,0.010342
27836000,0.0324,0.013523,0.002678,0.000431,0.011518
27837000,0.0324,0.013523,0.002678,0.000431,0.010342
27838000,0.0324,0.013523,0.002678,0.000431,0.012223
27839000,0.0324,0.013523,0.002678,0.000431,0.009990
27840000,0.0324,0.013523,0.002678,0.000431,0.007522
27841000,0.0324,0.013523,0.002678,0.000431,0.007052
27842000,0.0324,0.013523,0.002678,0.000431,0.008697
27843000,0.0324,0.013523,0.002678,0.000431,0.006111
27844000,0.0324,0.013523,0.002678,0.000431,0.005876
27845000,0.0324,0.013523,0.002678,0.000431,0.006934
27846000,0.0324,0.013523,0.002678,0.000431,0.006347
27847000,0.0324,0.013523,0.002678,0.000431,0.005994
27848000,0.0324,0.013523,0.002678,0.000431,0.004231
27849000,0.0324,0.013523,0.002678,0.000431,0.004113
27850000,0.0324,0.013523,0.002678,0.000431,0.004466
27851000,0.0324,0.013523,0.002678,0.000431,0.004231
27852000,0.0324,0.013523,0.002678,0.000431,0.004231
27853000,0.0324,0.013523,0.002678,0.000431,0.004819
27854000,0.0324,0.013523,0.002678,0.000431,0.004819
27855000,0.0324,0.013523,0.002678,0.000431,0.003643
27856000,0.0324,0.013523,0.002678,0.000431,0.003056
27857000,0.0324,0.013523,0.002678,0.000431,0.003526
27858000,0.0324,0.013523,0.002678,0.000431,0.005171
27859000,0.0324,0.013523,0.002678,0.000431,0.002821
27860000,0.0324,0.013523,0.002678,0.000431,0.002351
27861000,0.0324,0.013523,0.002678,0.000431,0.004113
27862000,0.0324,0.013523,0.002678,0.000431,0.001763
27863000,0.0324,0.013523,0.002678,0.000431,0.001645
27864000,0.0324,0.013523,0.002678,0.000431,0.001645
27865000,0.0324,0.013523,0.002678,0.000431,0.001880
27866000,0.0324,0.013523,0.002678,0.000431,0.001763
27867000,0.0324,0.013523,0.002678,0.000431,0.001645
27868000,0.0324,0.013523,0.002678,0.000431,0.001528
27869000,0.0324,0.013523,0.002678,0.000431,0.001880
27870000,0.0324,0.013523,0.002678,0.000431,0.002468
27871000,0.0324,0.013523,0.002678,0.000431,0.001998
27872000,0.0324,0.013523,0.002678,0.000431,0.000823
27873000,0.0324,0.013523,0.002678,0.000431,0.000940
27874000,0.0324,0.013523,0.002678,0.000431,0.000823
27875000,0.0324,0.013523,0.002678,0.000431,0.000823
27876000,0.0324,0.013523,0.002678,0.000431,0.000940
27877000,0.0324,0.013523,0.002678,0.000431,0.000940
27878000,0.0324,0.013523,0.002678,0.000431,0.000823
27879000,0.0324,0.013523,0.002678,0.000431,0.000940
27880000,0.0324,0.013523,0.002678,0.000431,0.000940
27881000,0.0324,0.013523,0.002678,0.000431,0.000823
27882000,0.0324,0.013523,0.002678,0.000431,0.000940
27883000,0.0324,0.013523,0.002678,0.000431,0.000823
27884000,0.0324,0.013523,0.002678,0.000431,0.000823
27885000,0.0324,0.013523,0.002678,0.000431,0.000940
27886000,0.0324,0.013523,0.002678,0.000431,0.000940
27887000,0.0324,0.013523,0.002678,0.000431,0.000823
27888000,0.0324,0.013523,0.002678,0.000431,0.000823
27889000,0.0324,0.013523,0.002678,0.000431,0.000940
27890000,0.0324,0.013523,0.002678,0.000431,0.000940
27891000,0.0324,0.013523,0.002678,0.000431,0.000705
27892000,0.0324,0.013523,0.002678,0.000431,0.000940
27893000,0.0324,0.013523,0.002678,0.000431,0.000940
27894000,0.0324,0.013523,0.002678,0.000431,0.000940
27895000,0.0324,0.013523,0.002678,0.000431,0.000705
27896000,0.0324,0.013523,0.002678,0.000431,0.000940
27897000,0.0324,0.013523,0.002678,0.000431,0.000940
27898000,0.0324,0.013523,0.002678,0.000431,0.000823
27899000,0.0324,0.013523,0.002678,0.000431,0.000823
27900000,0.0324,0.013523,0.002678,0.000431,0.000940
27901000,0.0324,0.013523,0.002678,0.000431,0.000940
27902000,0.0324,0.013523,0.002678,0.000431,0.000823
27903000,0.0324,0.013523,0.002678,0.000431,0.000823
27904000,0.0324,0.013523,0.002678,0.000431,0.000940
27905000,0.0324,0.013523,0.002678,0.000431,0.000823
27906000,0.0324,0.013523,0.002678,0.000431,0.000823
27907000,0.0324,0.013523,0.002678,0.000431,0.000940
27908000,0.0324,0.013523,0.002678,0.000431,0.192159
27909000,0.0324,0.013523,0.002678,0.000431,0.462826
27910000,0.0324,0.013523,0.002678,0.000431,0.486567
27911000,0.0324,0.013523,0.002678,0.000431,0.132572
27912000,0.0324,0.013523,0.002678,0.000431,0.147263
27913000,0.0324,0.013523,0.002678,0.000431,0.635357
27914000,0.0324,0.013523,0.002678,0.000431,0.237995
27915000,0.0324,0.013523,0.002678,0.000431,0.241520
27916000,0.0324,0.013523,0.002678,0.000431,0.258562
27917000,0.0324,0.013523,0.002678,0.000431,0.141621
27918000,0.0324,0.013523,0.002678,0.000431,0.147145
27919000,0.0324,0.013523,0.002678,0.000431,0.106716
27920000,0.0324,0.013523,0.002678,0.000431,0.391486
27921000,0.0324,0.013523,0.002678,0.000431,0.207672
27922000,0.0324,0.013523,0.002678,0.000431,0.045131
27923000,0.0324,0.013523,0.002678,0.000431,0.034318
27924000,0.0324,0.013523,0.002678,0.000431,0.030910
27925000,0.0324,0.013523,0.002678,0.000431,0.030087
27926000,0.0324,0.013523,0.002678,0.000431,0.019510
27927000,0.0324,0.013523,0.002678,0.000431,0.014338
27928000,0.0324,0.013523,0.002678,0.000431,0.013633
27929000,0.0324,0.013523,0.002678,0.000431,0.016689
27930000,0.0324,0.013523,0.002678,0.000431,0.012811
27931000,0.0324,0.013523,0.002678,0.000431,0.013633
27932000,0.0324,0.013523,0.002678,0.000431,0.011870
27933000,0.0324,0.013523,0.002678,0.000431,0.012223
27934000,0.0324,0.013523,0.002678,0.000431,0.008697
27935000,0.0324,0.013523,0.002678,0.000431,0.006464
27936000,0.0324,0.013523,0.002678,0.000431,0.005641
27937000,0.0324,0.013523,0.002678,0.000431,0.005876
27938000,0.0324,0.013523,0.002678,0.000431,0.005406
27939000,0.0324,0.013523,0.002678,0.000431,0.005759
27940000,0.0324,0.013523,0.002678,0.000431,0.005876
27941000,0.0324,0.013523,0.002678,0.000431,0.005524
27942000,0.0324,0.013523,0.002678,0.000431,0.005759
27943000,0.0324,0.013523,0.002678,0.000431,0.005759
27944000,0.0324,0.013523,0.002678,0.000431,0.005876
27945000,0.0324,0.013523,0.002678,0.000431,0.005406
27946000,0.0324,0.013523,0.002678,0.000431,0.005406
27947000,0.0324,0.013523,0.002678,0.000431,0.006464
27948000,0.0324,0.013523,0.002678,0.000431,0.005289
27949000,0.0324,0.013523,0.002678,0.000431,0.005759
27950000,0.0324,0.013523,0.002678,0.000431,0.005994
27951000,0.0324,0.013523,0.002678,0.000431,0.004584
27952000,0.0324,0.013523,0.002678,0.000431,0.005289
27953000,0.0324,0.013523,0.002678,0.000431,0.005171
27954000,0.0324,0.013523,0.002678,0.000431,0.004349
27955000,0.0324,0.013523,0.002678,0.000431,0.005524
27956000,0.0324,0.013523,0.002678,0.000431,0.005171
27957000,0.0324,0.013523,0.002678,0.000431,0.004584
27958000,0.0324,0.013523,0.002678,0.000431,0.005171
27959000,0.0324,0.013523,0.002678,0.000431,0.004701
27960000,0.0324,0.013523,0.002678,0.000431,0.005289
27961000,0.0324,0.013523,0.002678,0.000431,0.006229
27962000,0.0324,0.013523,0.002678,0.000431,0.003056
27963000,0.0324,0.013523,0.002678,0.000431,0.003408
27964000,0.0324,0.013523,0.002678,0.000431,0.003408
27965000,0.0324,0.013523,0.002678,0.000431,0.003173
27966000,0.0324,0.013523,0.002678,0.000431,0.003291
27967000,0.0324,0.013523,0.002678,0.000431,0.003526
27968000,0.0324,0.013523,0.002678,0.000431,0.003173
27969000,0.0324,0.013523,0.002678,0.000431,0.003173
27970000,0.0324,0.013523,0.002678,0.000431,0.003291
27971000,0.0324,0.013523,0.002678,0.000431,0.003291
27972000,0.0324,0.013523,0.002678,0.000431,0.003408
27973000,0.0324,0.013523,0.002678,0.000431,0.003056
27974000,0.0324,0.013523,0.002678,0.000431,0.003408
27975000,0.0324,0.013523,0.002678,0.000431,0.003173
27976000,0.0324,0.013523,0.002678,0.000431,0.003056
27977000,0.0324,0.013523,0.002678,0.000431,0.003408
27978000,0.0324,0.013523,0.002678,0.000431,0.003056
27979000,0.0324,0.013523,0.002678,0.000431,0.003291
27980000,0.0324,0.013523,0.002678,0.000431,0.003408
27981000,0.0324,0.013523,0.002678,0.000431,0.003056
27982000,0.0324,0.013523,0.002678,0.000431,0.003173
27983000,0.0324,0.013523,0.002678,0.000431,0.003408
27984000,0.0324,0.013523,0.002678,0.000431,0.003173
27985000,0.0324,0.013523,0.002678,0.000431,0.003173
27986000,0.0324,0.013523,0.002678,0.000431,0.003291
27987000,0.0324,0.013523,0.002678,0.000431,0.003173
27988000,0.0324,0.013523,0.002678,0.000431,0.003173
27989000,0.0324,0.013523,0.002678,0.000431,0.003408
27990000,0.0324,0.013523,0.002678,0.000431,0.002938
27991000,0.0324,0.013523,0.002678,0.000431,0.003526
27992000,0.0324,0.013523,0.002678,0.000431,0.003056
27993000,0.0324,0.013523,0.002678,0.000431,0.003173
27994000,0.0324,0.013523,0.002678,0.000431,0.003761
27995000,0.0324,0.013523,0.002678,0.000431,0.002938
27996000,0.0324,0.013523,0.002678,0.000431,0.003291
27997000,0.0324,0.013523,0.002678,0.000431,0.002821
27998000,0.0324,0.013523,0.002678,0.000431,0.002703
27999000,0.0324,0.013523,0.002678,0.000431,0.002821
