Cycle,Area(mm^2),PeakDynamic(W),SubthresholdLeakage(W),GateLeakage(W),RunTimeDynamic(W)
66000000,0.0324,0.013523,0.002678,0.000431,0.000940
66001000,0.0324,0.013523,0.002678,0.000431,0.000823
66002000,0.0324,0.013523,0.002678,0.000431,0.000823
66003000,0.0324,0.013523,0.002678,0.000431,0.000823
66004000,0.0324,0.013523,0.002678,0.000431,0.000823
66005000,0.0324,0.013523,0.002678,0.000431,0.000705
66006000,0.0324,0.013523,0.002678,0.000431,0.000940
66007000,0.0324,0.013523,0.002678,0.000431,0.000940
66008000,0.0324,0.013523,0.002678,0.000431,0.000705
66009000,0.0324,0.013523,0.002678,0.000431,0.000940
66010000,0.0324,0.013523,0.002678,0.000431,0.000705
66011000,0.0324,0.013523,0.002678,0.000431,0.000940
66012000,0.0324,0.013523,0.002678,0.000431,0.000940
66013000,0.0324,0.013523,0.002678,0.000431,0.000705
66014000,0.0324,0.013523,0.002678,0.000431,0.013516
66015000,0.0324,0.013523,0.002678,0.000431,0.550032
66016000,0.0324,0.013523,0.002678,0.000431,0.588229
66017000,0.0324,0.013523,0.002678,0.000431,0.137978
66018000,0.0324,0.013523,0.002678,0.000431,0.132102
66019000,0.0324,0.013523,0.002678,0.000431,0.484569
66020000,0.0324,0.013523,0.002678,0.000431,0.334250
66021000,0.0324,0.013523,0.002678,0.000431,0.263146
66022000,0.0324,0.013523,0.002678,0.000431,0.325553
66023000,0.0324,0.013523,0.002678,0.000431,0.149613
66024000,0.0324,0.013523,0.002678,0.000431,0.146440
66025000,0.0324,0.013523,0.002678,0.000431,0.102014
66026000,0.0324,0.013523,0.002678,0.000431,0.433797
66027000,0.0324,0.013523,0.002678,0.000431,0.204264
66028000,0.0324,0.013523,0.002678,0.000431,0.097078
66029000,0.0324,0.013523,0.002678,0.000431,0.073338
66030000,0.0324,0.013523,0.002678,0.000431,0.064053
66031000,0.0324,0.013523,0.002678,0.000431,0.054298
66032000,0.0324,0.013523,0.002678,0.000431,0.041252
66033000,0.0324,0.013523,0.002678,0.000431,0.035376
66034000,0.0324,0.013523,0.002678,0.000431,0.028207
66035000,0.0324,0.013523,0.002678,0.000431,0.022800
66036000,0.0324,0.013523,0.002678,0.000431,0.016336
66037000,0.0324,0.013523,0.002678,0.000431,0.017629
66038000,0.0324,0.013523,0.002678,0.000431,0.009990
66039000,0.0324,0.013523,0.002678,0.000431,0.011283
66040000,0.0324,0.013523,0.002678,0.000431,0.010342
66041000,0.0324,0.013523,0.002678,0.000431,0.012223
66042000,0.0324,0.013523,0.002678,0.000431,0.009872
66043000,0.0324,0.013523,0.002678,0.000431,0.010930
66044000,0.0324,0.013523,0.002678,0.000431,0.010578
66045000,0.0324,0.013523,0.002678,0.000431,0.007522
66046000,0.0324,0.013523,0.002678,0.000431,0.008109
66047000,0.0324,0.013523,0.002678,0.000431,0.007992
66048000,0.0324,0.013523,0.002678,0.000431,0.007992
66049000,0.0324,0.013523,0.002678,0.000431,0.008227
66050000,0.0324,0.013523,0.002678,0.000431,0.007639
66051000,0.0324,0.013523,0.002678,0.000431,0.008109
66052000,0.0324,0.013523,0.002678,0.000431,0.007992
66053000,0.0324,0.013523,0.002678,0.000431,0.008345
66054000,0.0324,0.013523,0.002678,0.000431,0.007639
66055000,0.0324,0.013523,0.002678,0.000431,0.006699
66056000,0.0324,0.013523,0.002678,0.000431,0.010460
66057000,0.0324,0.013523,0.002678,0.000431,0.006464
66058000,0.0324,0.013523,0.002678,0.000431,0.004819
66059000,0.0324,0.013523,0.002678,0.000431,0.005524
66060000,0.0324,0.013523,0.002678,0.000431,0.004819
66061000,0.0324,0.013523,0.002678,0.000431,0.003643
66062000,0.0324,0.013523,0.002678,0.000431,0.004231
66063000,0.0324,0.013523,0.002678,0.000431,0.003408
66064000,0.0324,0.013523,0.002678,0.000431,0.004113
66065000,0.0324,0.013523,0.002678,0.000431,0.002821
66066000,0.0324,0.013523,0.002678,0.000431,0.005641
66067000,0.0324,0.013523,0.002678,0.000431,0.001880
66068000,0.0324,0.013523,0.002678,0.000431,0.001763
66069000,0.0324,0.013523,0.002678,0.000431,0.001528
66070000,0.0324,0.013523,0.002678,0.000431,0.001763
66071000,0.0324,0.013523,0.002678,0.000431,0.001645
66072000,0.0324,0.013523,0.002678,0.000431,0.001645
66073000,0.0324,0.013523,0.002678,0.000431,0.001763
66074000,0.0324,0.013523,0.002678,0.000431,0.001645
66075000,0.0324,0.013523,0.002678,0.000431,0.001763
66076000,0.0324,0.013523,0.002678,0.000431,0.001528
66077000,0.0324,0.013523,0.002678,0.000431,0.001763
66078000,0.0324,0.013523,0.002678,0.000431,0.001528
66079000,0.0324,0.013523,0.002678,0.000431,0.001763
66080000,0.0324,0.013523,0.002678,0.000431,0.001763
66081000,0.0324,0.013523,0.002678,0.000431,0.001528
66082000,0.0324,0.013523,0.002678,0.000431,0.001763
66083000,0.0324,0.013523,0.002678,0.000431,0.001528
66084000,0.0324,0.013523,0.002678,0.000431,0.001880
66085000,0.0324,0.013523,0.002678,0.000431,0.001528
66086000,0.0324,0.013523,0.002678,0.000431,0.001645
66087000,0.0324,0.013523,0.002678,0.000431,0.001763
66088000,0.0324,0.013523,0.002678,0.000431,0.002938
66089000,0.0324,0.013523,0.002678,0.000431,0.000940
66090000,0.0324,0.013523,0.002678,0.000431,0.000823
66091000,0.0324,0.013523,0.002678,0.000431,0.000823
66092000,0.0324,0.013523,0.002678,0.000431,0.000823
66093000,0.0324,0.013523,0.002678,0.000431,0.000823
66094000,0.0324,0.013523,0.002678,0.000431,0.000823
66095000,0.0324,0.013523,0.002678,0.000431,0.000823
66096000,0.0324,0.013523,0.002678,0.000431,0.000940
66097000,0.0324,0.013523,0.002678,0.000431,0.000823
66098000,0.0324,0.013523,0.002678,0.000431,0.000705
66099000,0.0324,0.013523,0.002678,0.000431,0.000940
66100000,0.0324,0.013523,0.002678,0.000431,0.000823
66101000,0.0324,0.013523,0.002678,0.000431,0.000823
66102000,0.0324,0.013523,0.002678,0.000431,0.000823
66103000,0.0324,0.013523,0.002678,0.000431,0.000823
66104000,0.0324,0.013523,0.002678,0.000431,0.000823
66105000,0.0324,0.013523,0.002678,0.000431,0.000940
66106000,0.0324,0.013523,0.002678,0.000431,0.000705
66107000,0.0324,0.013523,0.002678,0.000431,0.000940
66108000,0.0324,0.013523,0.002678,0.000431,0.000823
66109000,0.0324,0.013523,0.002678,0.000431,0.000823
66110000,0.0324,0.013523,0.002678,0.000431,0.000705
66111000,0.0324,0.013523,0.002678,0.000431,0.001645
66112000,0.0324,0.013523,0.002678,0.000431,0.398421
66113000,0.0324,0.013523,0.002678,0.000431,0.668853
66114000,0.0324,0.013523,0.002678,0.000431,0.193099
66115000,0.0324,0.013523,0.002678,0.000431,0.134217
66116000,0.0324,0.013523,0.002678,0.000431,0.167243
66117000,0.0324,0.013523,0.002678,0.000431,0.555791
66118000,0.0324,0.013523,0.002678,0.000431,0.248690
66119000,0.0324,0.013523,0.002678,0.000431,0.319794
66120000,0.0324,0.013523,0.002678,0.000431,0.207437
66121000,0.0324,0.013523,0.002678,0.000431,0.151729
66122000,0.0324,0.013523,0.002678,0.000431,0.132102
66123000,0.0324,0.013523,0.002678,0.000431,0.244459
66124000,0.0324,0.013523,0.002678,0.000431,0.377030
66125000,0.0324,0.013523,0.002678,0.000431,0.102602
66126000,0.0324,0.013523,0.002678,0.000431,0.077451
66127000,0.0324,0.013523,0.002678,0.000431,0.065816
66128000,0.0324,0.013523,0.002678,0.000431,0.061467
66129000,0.0324,0.013523,0.002678,0.000431,0.044543
66130000,0.0324,0.013523,0.002678,0.000431,0.047481
66131000,0.0324,0.013523,0.002678,0.000431,0.034083
66132000,0.0324,0.013523,0.002678,0.000431,0.031380
66133000,0.0324,0.013523,0.002678,0.000431,0.027031
66134000,0.0324,0.013523,0.002678,0.000431,0.022800
66135000,0.0324,0.013523,0.002678,0.000431,0.025151
66136000,0.0324,0.013523,0.002678,0.000431,0.022213
66137000,0.0324,0.013523,0.002678,0.000431,0.016571
66138000,0.0324,0.013523,0.002678,0.000431,0.016454
66139000,0.0324,0.013523,0.002678,0.000431,0.014573
66140000,0.0324,0.013523,0.002678,0.000431,0.013633
66141000,0.0324,0.013523,0.002678,0.000431,0.013751
66142000,0.0324,0.013523,0.002678,0.000431,0.014926
66143000,0.0324,0.013523,0.002678,0.000431,0.012693
66144000,0.0324,0.013523,0.002678,0.000431,0.010813
66145000,0.0324,0.013523,0.002678,0.000431,0.012576
66146000,0.0324,0.013523,0.002678,0.000431,0.011753
66147000,0.0324,0.013523,0.002678,0.000431,0.009755
66148000,0.0324,0.013523,0.002678,0.000431,0.009167
66149000,0.0324,0.013523,0.002678,0.000431,0.009520
66150000,0.0324,0.013523,0.002678,0.000431,0.008345
66151000,0.0324,0.013523,0.002678,0.000431,0.011165
66152000,0.0324,0.013523,0.002678,0.000431,0.009990
66153000,0.0324,0.013523,0.002678,0.000431,0.007757
66154000,0.0324,0.013523,0.002678,0.000431,0.007522
66155000,0.0324,0.013523,0.002678,0.000431,0.006464
66156000,0.0324,0.013523,0.002678,0.000431,0.009755
66157000,0.0324,0.013523,0.002678,0.000431,0.007052
66158000,0.0324,0.013523,0.002678,0.000431,0.004936
66159000,0.0324,0.013523,0.002678,0.000431,0.005759
66160000,0.0324,0.013523,0.002678,0.000431,0.007874
66161000,0.0324,0.013523,0.002678,0.000431,0.003761
66162000,0.0324,0.013523,0.002678,0.000431,0.003761
66163000,0.0324,0.013523,0.002678,0.000431,0.003996
66164000,0.0324,0.013523,0.002678,0.000431,0.003643
66165000,0.0324,0.013523,0.002678,0.000431,0.003761
66166000,0.0324,0.013523,0.002678,0.000431,0.003761
66167000,0.0324,0.013523,0.002678,0.000431,0.003526
66168000,0.0324,0.013523,0.002678,0.000431,0.004113
66169000,0.0324,0.013523,0.002678,0.000431,0.003878
66170000,0.0324,0.013523,0.002678,0.000431,0.003056
66171000,0.0324,0.013523,0.002678,0.000431,0.003408
66172000,0.0324,0.013523,0.002678,0.000431,0.004231
66173000,0.0324,0.013523,0.002678,0.000431,0.002116
66174000,0.0324,0.013523,0.002678,0.000431,0.002703
66175000,0.0324,0.013523,0.002678,0.000431,0.002233
66176000,0.0324,0.013523,0.002678,0.000431,0.002586
66177000,0.0324,0.013523,0.002678,0.000431,0.002351
66178000,0.0324,0.013523,0.002678,0.000431,0.002821
66179000,0.0324,0.013523,0.002678,0.000431,0.002586
66180000,0.0324,0.013523,0.002678,0.000431,0.002351
66181000,0.0324,0.013523,0.002678,0.000431,0.002468
66182000,0.0324,0.013523,0.002678,0.000431,0.001645
66183000,0.0324,0.013523,0.002678,0.000431,0.001880
66184000,0.0324,0.013523,0.002678,0.000431,0.001528
66185000,0.0324,0.013523,0.002678,0.000431,0.001763
66186000,0.0324,0.013523,0.002678,0.000431,0.001528
66187000,0.0324,0.013523,0.002678,0.000431,0.001763
66188000,0.0324,0.013523,0.002678,0.000431,0.001763
66189000,0.0324,0.013523,0.002678,0.000431,0.001528
66190000,0.0324,0.013523,0.002678,0.000431,0.001763
66191000,0.0324,0.013523,0.002678,0.000431,0.001528
66192000,0.0324,0.013523,0.002678,0.000431,0.001880
66193000,0.0324,0.013523,0.002678,0.000431,0.001528
66194000,0.0324,0.013523,0.002678,0.000431,0.001763
66195000,0.0324,0.013523,0.002678,0.000431,0.001528
66196000,0.0324,0.013523,0.002678,0.000431,0.001763
66197000,0.0324,0.013523,0.002678,0.000431,0.001763
66198000,0.0324,0.013523,0.002678,0.000431,0.001528
66199000,0.0324,0.013523,0.002678,0.000431,0.001763
66200000,0.0324,0.013523,0.002678,0.000431,0.001528
66201000,0.0324,0.013523,0.002678,0.000431,0.001763
66202000,0.0324,0.013523,0.002678,0.000431,0.001645
66203000,0.0324,0.013523,0.002678,0.000431,0.001763
66204000,0.0324,0.013523,0.002678,0.000431,0.001528
66205000,0.0324,0.013523,0.002678,0.000431,0.001763
66206000,0.0324,0.013523,0.002678,0.000431,0.001763
66207000,0.0324,0.013523,0.002678,0.000431,0.001645
66208000,0.0324,0.013523,0.002678,0.000431,0.001645
66209000,0.0324,0.013523,0.002678,0.000431,0.001645
66210000,0.0324,0.013523,0.002678,0.000431,0.001645
66211000,0.0324,0.013523,0.002678,0.000431,0.001645
66212000,0.0324,0.013523,0.002678,0.000431,0.001645
66213000,0.0324,0.013523,0.002678,0.000431,0.001763
66214000,0.0324,0.013523,0.002678,0.000431,0.001645
66215000,0.0324,0.013523,0.002678,0.000431,0.001645
66216000,0.0324,0.013523,0.002678,0.000431,0.001763
66217000,0.0324,0.013523,0.002678,0.000431,0.001528
66218000,0.0324,0.013523,0.002678,0.000431,0.001763
66219000,0.0324,0.013523,0.002678,0.000431,0.001763
66220000,0.0324,0.013523,0.002678,0.000431,0.001410
66221000,0.0324,0.013523,0.002678,0.000431,0.001880
66222000,0.0324,0.013523,0.002678,0.000431,0.001645
66223000,0.0324,0.013523,0.002678,0.000431,0.001645
66224000,0.0324,0.013523,0.002678,0.000431,0.001763
66225000,0.0324,0.013523,0.002678,0.000431,0.001645
66226000,0.0324,0.013523,0.002678,0.000431,0.001763
66227000,0.0324,0.013523,0.002678,0.000431,0.001763
66228000,0.0324,0.013523,0.002678,0.000431,0.001528
66229000,0.0324,0.013523,0.002678,0.000431,0.001880
66230000,0.0324,0.013523,0.002678,0.000431,0.001410
66231000,0.0324,0.013523,0.002678,0.000431,0.001763
66232000,0.0324,0.013523,0.002678,0.000431,0.001763
66233000,0.0324,0.013523,0.002678,0.000431,0.001645
66234000,0.0324,0.013523,0.002678,0.000431,0.001645
66235000,0.0324,0.013523,0.002678,0.000431,0.003173
66236000,0.0324,0.013523,0.002678,0.000431,0.000823
66237000,0.0324,0.013523,0.002678,0.000431,0.000823
66238000,0.0324,0.013523,0.002678,0.000431,0.000940
66239000,0.0324,0.013523,0.002678,0.000431,0.000823
66240000,0.0324,0.013523,0.002678,0.000431,0.000823
66241000,0.0324,0.013523,0.002678,0.000431,0.000705
66242000,0.0324,0.013523,0.002678,0.000431,0.000940
66243000,0.0324,0.013523,0.002678,0.000431,0.000940
66244000,0.0324,0.013523,0.002678,0.000431,0.000705
66245000,0.0324,0.013523,0.002678,0.000431,0.000940
66246000,0.0324,0.013523,0.002678,0.000431,0.000705
66247000,0.0324,0.013523,0.002678,0.000431,0.000940
66248000,0.0324,0.013523,0.002678,0.000431,0.000940
66249000,0.0324,0.013523,0.002678,0.000431,0.000705
66250000,0.0324,0.013523,0.002678,0.000431,0.000940
66251000,0.0324,0.013523,0.002678,0.000431,0.000705
66252000,0.0324,0.013523,0.002678,0.000431,0.000940
66253000,0.0324,0.013523,0.002678,0.000431,0.000823
66254000,0.0324,0.013523,0.002678,0.000431,0.000823
66255000,0.0324,0.013523,0.002678,0.000431,0.000823
66256000,0.0324,0.013523,0.002678,0.000431,0.000823
66257000,0.0324,0.013523,0.002678,0.000431,0.000940
66258000,0.0324,0.013523,0.002678,0.000431,0.000823
66259000,0.0324,0.013523,0.002678,0.000431,0.000823
66260000,0.0324,0.013523,0.002678,0.000431,0.000823
66261000,0.0324,0.013523,0.002678,0.000431,0.000823
66262000,0.0324,0.013523,0.002678,0.000431,0.000823
66263000,0.0324,0.013523,0.002678,0.000431,0.000823
66264000,0.0324,0.013523,0.002678,0.000431,0.000940
66265000,0.0324,0.013523,0.002678,0.000431,0.000705
66266000,0.0324,0.013523,0.002678,0.000431,0.000940
66267000,0.0324,0.013523,0.002678,0.000431,0.000823
66268000,0.0324,0.013523,0.002678,0.000431,0.000823
66269000,0.0324,0.013523,0.002678,0.000431,0.000705
66270000,0.0324,0.013523,0.002678,0.000431,0.000940
66271000,0.0324,0.013523,0.002678,0.000431,0.071810
66272000,0.0324,0.013523,0.002678,0.000431,0.524881
66273000,0.0324,0.013523,0.002678,0.000431,0.593635
66274000,0.0324,0.013523,0.002678,0.000431,0.132572
66275000,0.0324,0.013523,0.002678,0.000431,0.133512
66276000,0.0324,0.013523,0.002678,0.000431,0.552618
66277000,0.0324,0.013523,0.002678,0.000431,0.234469
66278000,0.0324,0.013523,0.002678,0.000431,0.276661
66279000,0.0324,0.013523,0.002678,0.000431,0.272078
66280000,0.0324,0.013523,0.002678,0.000431,0.140329
66281000,0.0324,0.013523,0.002678,0.000431,0.149613
66282000,0.0324,0.013523,0.002678,0.000431,0.122934
66283000,0.0324,0.013523,0.002678,0.000431,0.329784
66284000,0.0324,0.013523,0.002678,0.000431,0.273135
66285000,0.0324,0.013523,0.002678,0.000431,0.056061
66286000,0.0324,0.013523,0.002678,0.000431,0.045248
66287000,0.0324,0.013523,0.002678,0.000431,0.036551
66288000,0.0324,0.013523,0.002678,0.000431,0.032320
66289000,0.0324,0.013523,0.002678,0.000431,0.032438
66290000,0.0324,0.013523,0.002678,0.000431,0.020802
66291000,0.0324,0.013523,0.002678,0.000431,0.012928
66292000,0.0324,0.013523,0.002678,0.000431,0.012105
66293000,0.0324,0.013523,0.002678,0.000431,0.013046
66294000,0.0324,0.013523,0.002678,0.000431,0.014221
66295000,0.0324,0.013523,0.002678,0.000431,0.011048
66296000,0.0324,0.013523,0.002678,0.000431,0.013046
66297000,0.0324,0.013523,0.002678,0.000431,0.012340
66298000,0.0324,0.013523,0.002678,0.000431,0.009167
66299000,0.0324,0.013523,0.002678,0.000431,0.013516
66300000,0.0324,0.013523,0.002678,0.000431,0.007757
66301000,0.0324,0.013523,0.002678,0.000431,0.008227
66302000,0.0324,0.013523,0.002678,0.000431,0.007874
66303000,0.0324,0.013523,0.002678,0.000431,0.008462
66304000,0.0324,0.013523,0.002678,0.000431,0.009872
66305000,0.0324,0.013523,0.002678,0.000431,0.007522
66306000,0.0324,0.013523,0.002678,0.000431,0.006817
66307000,0.0324,0.013523,0.002678,0.000431,0.007287
66308000,0.0324,0.013523,0.002678,0.000431,0.007522
66309000,0.0324,0.013523,0.002678,0.000431,0.006817
66310000,0.0324,0.013523,0.002678,0.000431,0.007169
66311000,0.0324,0.013523,0.002678,0.000431,0.007404
66312000,0.0324,0.013523,0.002678,0.000431,0.007052
66313000,0.0324,0.013523,0.002678,0.000431,0.007404
66314000,0.0324,0.013523,0.002678,0.000431,0.007169
66315000,0.0324,0.013523,0.002678,0.000431,0.006347
66316000,0.0324,0.013523,0.002678,0.000431,0.008227
66317000,0.0324,0.013523,0.002678,0.000431,0.005759
66318000,0.0324,0.013523,0.002678,0.000431,0.006229
66319000,0.0324,0.013523,0.002678,0.000431,0.005641
66320000,0.0324,0.013523,0.002678,0.000431,0.005876
66321000,0.0324,0.013523,0.002678,0.000431,0.005759
66322000,0.0324,0.013523,0.002678,0.000431,0.005759
66323000,0.0324,0.013523,0.002678,0.000431,0.005994
66324000,0.0324,0.013523,0.002678,0.000431,0.005641
66325000,0.0324,0.013523,0.002678,0.000431,0.006111
66326000,0.0324,0.013523,0.002678,0.000431,0.005759
66327000,0.0324,0.013523,0.002678,0.000431,0.005876
66328000,0.0324,0.013523,0.002678,0.000431,0.005876
66329000,0.0324,0.013523,0.002678,0.000431,0.005641
66330000,0.0324,0.013523,0.002678,0.000431,0.006229
66331000,0.0324,0.013523,0.002678,0.000431,0.007052
66332000,0.0324,0.013523,0.002678,0.000431,0.004819
66333000,0.0324,0.013523,0.002678,0.000431,0.004936
66334000,0.0324,0.013523,0.002678,0.000431,0.005054
66335000,0.0324,0.013523,0.002678,0.000431,0.005171
66336000,0.0324,0.013523,0.002678,0.000431,0.005054
66337000,0.0324,0.013523,0.002678,0.000431,0.004936
66338000,0.0324,0.013523,0.002678,0.000431,0.005054
66339000,0.0324,0.013523,0.002678,0.000431,0.004819
66340000,0.0324,0.013523,0.002678,0.000431,0.005054
66341000,0.0324,0.013523,0.002678,0.000431,0.005406
66342000,0.0324,0.013523,0.002678,0.000431,0.004701
66343000,0.0324,0.013523,0.002678,0.000431,0.005054
66344000,0.0324,0.013523,0.002678,0.000431,0.005054
66345000,0.0324,0.013523,0.002678,0.000431,0.005054
66346000,0.0324,0.013523,0.002678,0.000431,0.005054
66347000,0.0324,0.013523,0.002678,0.000431,0.004819
66348000,0.0324,0.013523,0.002678,0.000431,0.005171
66349000,0.0324,0.013523,0.002678,0.000431,0.005054
66350000,0.0324,0.013523,0.002678,0.000431,0.004936
66351000,0.0324,0.013523,0.002678,0.000431,0.006817
66352000,0.0324,0.013523,0.002678,0.000431,0.005289
66353000,0.0324,0.013523,0.002678,0.000431,0.003291
66354000,0.0324,0.013523,0.002678,0.000431,0.003408
66355000,0.0324,0.013523,0.002678,0.000431,0.003173
66356000,0.0324,0.013523,0.002678,0.000431,0.003643
66357000,0.0324,0.013523,0.002678,0.000431,0.003173
66358000,0.0324,0.013523,0.002678,0.000431,0.003408
66359000,0.0324,0.013523,0.002678,0.000431,0.003291
66360000,0.0324,0.013523,0.002678,0.000431,0.003643
66361000,0.0324,0.013523,0.002678,0.000431,0.003056
66362000,0.0324,0.013523,0.002678,0.000431,0.003291
66363000,0.0324,0.013523,0.002678,0.000431,0.003761
66364000,0.0324,0.013523,0.002678,0.000431,0.003173
66365000,0.0324,0.013523,0.002678,0.000431,0.003173
66366000,0.0324,0.013523,0.002678,0.000431,0.003408
66367000,0.0324,0.013523,0.002678,0.000431,0.003643
66368000,0.0324,0.013523,0.002678,0.000431,0.003056
66369000,0.0324,0.013523,0.002678,0.000431,0.003291
66370000,0.0324,0.013523,0.002678,0.000431,0.003761
66371000,0.0324,0.013523,0.002678,0.000431,0.003291
66372000,0.0324,0.013523,0.002678,0.000431,0.003173
66373000,0.0324,0.013523,0.002678,0.000431,0.003291
66374000,0.0324,0.013523,0.002678,0.000431,0.003643
66375000,0.0324,0.013523,0.002678,0.000431,0.003408
66376000,0.0324,0.013523,0.002678,0.000431,0.003056
66377000,0.0324,0.013523,0.002678,0.000431,0.003643
66378000,0.0324,0.013523,0.002678,0.000431,0.003291
66379000,0.0324,0.013523,0.002678,0.000431,0.003408
66380000,0.0324,0.013523,0.002678,0.000431,0.003408
66381000,0.0324,0.013523,0.002678,0.000431,0.003291
66382000,0.0324,0.013523,0.002678,0.000431,0.003408
66383000,0.0324,0.013523,0.002678,0.000431,0.003056
66384000,0.0324,0.013523,0.002678,0.000431,0.003526
66385000,0.0324,0.013523,0.002678,0.000431,0.003408
66386000,0.0324,0.013523,0.002678,0.000431,0.003526
66387000,0.0324,0.013523,0.002678,0.000431,0.003291
66388000,0.0324,0.013523,0.002678,0.000431,0.003173
66389000,0.0324,0.013523,0.002678,0.000431,0.003996
66390000,0.0324,0.013523,0.002678,0.000431,0.001763
66391000,0.0324,0.013523,0.002678,0.000431,0.001645
66392000,0.0324,0.013523,0.002678,0.000431,0.001645
66393000,0.0324,0.013523,0.002678,0.000431,0.001645
66394000,0.0324,0.013523,0.002678,0.000431,0.001880
66395000,0.0324,0.013523,0.002678,0.000431,0.001763
66396000,0.0324,0.013523,0.002678,0.000431,0.001528
66397000,0.0324,0.013523,0.002678,0.000431,0.002586
66398000,0.0324,0.013523,0.002678,0.000431,0.001763
66399000,0.0324,0.013523,0.002678,0.000431,0.000940
66400000,0.0324,0.013523,0.002678,0.000431,0.000823
66401000,0.0324,0.013523,0.002678,0.000431,0.000823
66402000,0.0324,0.013523,0.002678,0.000431,0.000940
66403000,0.0324,0.013523,0.002678,0.000431,0.000705
66404000,0.0324,0.013523,0.002678,0.000431,0.000940
66405000,0.0324,0.013523,0.002678,0.000431,0.000823
66406000,0.0324,0.013523,0.002678,0.000431,0.000823
66407000,0.0324,0.013523,0.002678,0.000431,0.000823
66408000,0.0324,0.013523,0.002678,0.000431,0.000823
66409000,0.0324,0.013523,0.002678,0.000431,0.000823
66410000,0.0324,0.013523,0.002678,0.000431,0.000823
66411000,0.0324,0.013523,0.002678,0.000431,0.000940
66412000,0.0324,0.013523,0.002678,0.000431,0.000705
66413000,0.0324,0.013523,0.002678,0.000431,0.000940
66414000,0.0324,0.013523,0.002678,0.000431,0.000823
66415000,0.0324,0.013523,0.002678,0.000431,0.000823
66416000,0.0324,0.013523,0.002678,0.000431,0.000705
66417000,0.0324,0.013523,0.002678,0.000431,0.000940
66418000,0.0324,0.013523,0.002678,0.000431,0.000940
66419000,0.0324,0.013523,0.002678,0.000431,0.000705
66420000,0.0324,0.013523,0.002678,0.000431,0.000940
66421000,0.0324,0.013523,0.002678,0.000431,0.000705
66422000,0.0324,0.013523,0.002678,0.000431,0.000940
66423000,0.0324,0.013523,0.002678,0.000431,0.000823
66424000,0.0324,0.013523,0.002678,0.000431,0.000823
66425000,0.0324,0.013523,0.002678,0.000431,0.000823
66426000,0.0324,0.013523,0.002678,0.000431,0.000823
66427000,0.0324,0.013523,0.002678,0.000431,0.000940
66428000,0.0324,0.013523,0.002678,0.000431,0.000705
66429000,0.0324,0.013523,0.002678,0.000431,0.000940
66430000,0.0324,0.013523,0.002678,0.000431,0.000823
66431000,0.0324,0.013523,0.002678,0.000431,0.000823
66432000,0.0324,0.013523,0.002678,0.000431,0.000940
66433000,0.0324,0.013523,0.002678,0.000431,0.000705
66434000,0.0324,0.013523,0.002678,0.000431,0.000940
66435000,0.0324,0.013523,0.002678,0.000431,0.009402
66436000,0.0324,0.013523,0.002678,0.000431,0.471170
66437000,0.0324,0.013523,0.002678,0.000431,0.620666
66438000,0.0324,0.013523,0.002678,0.000431,0.133277
66439000,0.0324,0.013523,0.002678,0.000431,0.133159
66440000,0.0324,0.013523,0.002678,0.000431,0.205909
66441000,0.0324,0.013523,0.002678,0.000431,0.546036
66442000,0.0324,0.013523,0.002678,0.000431,0.279952
66443000,0.0324,0.013523,0.002678,0.000431,0.298404
66444000,0.0324,0.013523,0.002678,0.000431,0.206615
66445000,0.0324,0.013523,0.002678,0.000431,0.138801
66446000,0.0324,0.013523,0.002678,0.000431,0.142209
66447000,0.0324,0.013523,0.002678,0.000431,0.232118
66448000,0.0324,0.013523,0.002678,0.000431,0.377501
66449000,0.0324,0.013523,0.002678,0.000431,0.075571
66450000,0.0324,0.013523,0.002678,0.000431,0.049949
66451000,0.0324,0.013523,0.002678,0.000431,0.054298
66452000,0.0324,0.013523,0.002678,0.000431,0.035846
66453000,0.0324,0.013523,0.002678,0.000431,0.027972
66454000,0.0324,0.013523,0.002678,0.000431,0.028559
66455000,0.0324,0.013523,0.002678,0.000431,0.022448
66456000,0.0324,0.013523,0.002678,0.000431,0.021273
66457000,0.0324,0.013523,0.002678,0.000431,0.024093
66458000,0.0324,0.013523,0.002678,0.000431,0.012340
66459000,0.0324,0.013523,0.002678,0.000431,0.012105
66460000,0.0324,0.013523,0.002678,0.000431,0.013398
66461000,0.0324,0.013523,0.002678,0.000431,0.011048
66462000,0.0324,0.013523,0.002678,0.000431,0.010225
66463000,0.0324,0.013523,0.002678,0.000431,0.011165
66464000,0.0324,0.013523,0.002678,0.000431,0.010695
66465000,0.0324,0.013523,0.002678,0.000431,0.011635
66466000,0.0324,0.013523,0.002678,0.000431,0.013751
66467000,0.0324,0.013523,0.002678,0.000431,0.007522
66468000,0.0324,0.013523,0.002678,0.000431,0.008462
66469000,0.0324,0.013523,0.002678,0.000431,0.008815
66470000,0.0324,0.013523,0.002678,0.000431,0.007639
66471000,0.0324,0.013523,0.002678,0.000431,0.008345
66472000,0.0324,0.013523,0.002678,0.000431,0.008932
66473000,0.0324,0.013523,0.002678,0.000431,0.010930
66474000,0.0324,0.013523,0.002678,0.000431,0.006934
66475000,0.0324,0.013523,0.002678,0.000431,0.006699
66476000,0.0324,0.013523,0.002678,0.000431,0.006464
66477000,0.0324,0.013523,0.002678,0.000431,0.006582
66478000,0.0324,0.013523,0.002678,0.000431,0.006229
66479000,0.0324,0.013523,0.002678,0.000431,0.006817
66480000,0.0324,0.013523,0.002678,0.000431,0.005289
66481000,0.0324,0.013523,0.002678,0.000431,0.006229
66482000,0.0324,0.013523,0.002678,0.000431,0.004936
66483000,0.0324,0.013523,0.002678,0.000431,0.002586
66484000,0.0324,0.013523,0.002678,0.000431,0.002703
66485000,0.0324,0.013523,0.002678,0.000431,0.003996
66486000,0.0324,0.013523,0.002678,0.000431,0.001880
66487000,0.0324,0.013523,0.002678,0.000431,0.001763
66488000,0.0324,0.013523,0.002678,0.000431,0.001763
66489000,0.0324,0.013523,0.002678,0.000431,0.001645
66490000,0.0324,0.013523,0.002678,0.000431,0.001645
66491000,0.0324,0.013523,0.002678,0.000431,0.001880
66492000,0.0324,0.013523,0.002678,0.000431,0.001763
66493000,0.0324,0.013523,0.002678,0.000431,0.001645
66494000,0.0324,0.013523,0.002678,0.000431,0.001645
66495000,0.0324,0.013523,0.002678,0.000431,0.001763
66496000,0.0324,0.013523,0.002678,0.000431,0.001763
66497000,0.0324,0.013523,0.002678,0.000431,0.001763
66498000,0.0324,0.013523,0.002678,0.000431,0.001763
66499000,0.0324,0.013523,0.002678,0.000431,0.001645
66500000,0.0324,0.013523,0.002678,0.000431,0.001645
66501000,0.0324,0.013523,0.002678,0.000431,0.001880
66502000,0.0324,0.013523,0.002678,0.000431,0.003408
66503000,0.0324,0.013523,0.002678,0.000431,0.000940
66504000,0.0324,0.013523,0.002678,0.000431,0.000823
66505000,0.0324,0.013523,0.002678,0.000431,0.000823
66506000,0.0324,0.013523,0.002678,0.000431,0.000823
66507000,0.0324,0.013523,0.002678,0.000431,0.000940
66508000,0.0324,0.013523,0.002678,0.000431,0.000823
66509000,0.0324,0.013523,0.002678,0.000431,0.000823
66510000,0.0324,0.013523,0.002678,0.000431,0.000705
66511000,0.0324,0.013523,0.002678,0.000431,0.000940
66512000,0.0324,0.013523,0.002678,0.000431,0.000940
66513000,0.0324,0.013523,0.002678,0.000431,0.000705
66514000,0.0324,0.013523,0.002678,0.000431,0.000940
66515000,0.0324,0.013523,0.002678,0.000431,0.000705
66516000,0.0324,0.013523,0.002678,0.000431,0.000940
66517000,0.0324,0.013523,0.002678,0.000431,0.000823
66518000,0.0324,0.013523,0.002678,0.000431,0.000823
66519000,0.0324,0.013523,0.002678,0.000431,0.000940
66520000,0.0324,0.013523,0.002678,0.000431,0.000705
66521000,0.0324,0.013523,0.002678,0.000431,0.000940
66522000,0.0324,0.013523,0.002678,0.000431,0.000705
66523000,0.0324,0.013523,0.002678,0.000431,0.000940
66524000,0.0324,0.013523,0.002678,0.000431,0.000823
66525000,0.0324,0.013523,0.002678,0.000431,0.000823
66526000,0.0324,0.013523,0.002678,0.000431,0.000823
66527000,0.0324,0.013523,0.002678,0.000431,0.000823
66528000,0.0324,0.013523,0.002678,0.000431,0.000940
66529000,0.0324,0.013523,0.002678,0.000431,0.000705
66530000,0.0324,0.013523,0.002678,0.000431,0.000940
66531000,0.0324,0.013523,0.002678,0.000431,0.000705
66532000,0.0324,0.013523,0.002678,0.000431,0.000940
66533000,0.0324,0.013523,0.002678,0.000431,0.000705
66534000,0.0324,0.013523,0.002678,0.000431,0.000940
66535000,0.0324,0.013523,0.002678,0.000431,0.000940
66536000,0.0324,0.013523,0.002678,0.000431,0.000705
66537000,0.0324,0.013523,0.002678,0.000431,0.000940
66538000,0.0324,0.013523,0.002678,0.000431,0.000705
66539000,0.0324,0.013523,0.002678,0.000431,0.000940
66540000,0.0324,0.013523,0.002678,0.000431,0.000823
66541000,0.0324,0.013523,0.002678,0.000431,0.000823
66542000,0.0324,0.013523,0.002678,0.000431,0.000823
66543000,0.0324,0.013523,0.002678,0.000431,0.000823
66544000,0.0324,0.013523,0.002678,0.000431,0.000940
66545000,0.0324,0.013523,0.002678,0.000431,0.000705
66546000,0.0324,0.013523,0.002678,0.000431,0.000940
66547000,0.0324,0.013523,0.002678,0.000431,0.000823
66548000,0.0324,0.013523,0.002678,0.000431,0.000823
66549000,0.0324,0.013523,0.002678,0.000431,0.000823
66550000,0.0324,0.013523,0.002678,0.000431,0.000823
66551000,0.0324,0.013523,0.002678,0.000431,0.000823
66552000,0.0324,0.013523,0.002678,0.000431,0.000823
66553000,0.0324,0.013523,0.002678,0.000431,0.000823
66554000,0.0324,0.013523,0.002678,0.000431,0.000940
66555000,0.0324,0.013523,0.002678,0.000431,0.000823
66556000,0.0324,0.013523,0.002678,0.000431,0.000823
66557000,0.0324,0.013523,0.002678,0.000431,0.000823
66558000,0.0324,0.013523,0.002678,0.000431,0.000705
66559000,0.0324,0.013523,0.002678,0.000431,0.000940
66560000,0.0324,0.013523,0.002678,0.000431,0.000940
66561000,0.0324,0.013523,0.002678,0.000431,0.000705
66562000,0.0324,0.013523,0.002678,0.000431,0.000940
66563000,0.0324,0.013523,0.002678,0.000431,0.000705
66564000,0.0324,0.013523,0.002678,0.000431,0.000940
66565000,0.0324,0.013523,0.002678,0.000431,0.000705
66566000,0.0324,0.013523,0.002678,0.000431,0.000940
66567000,0.0324,0.013523,0.002678,0.000431,0.001763
66568000,0.0324,0.013523,0.002678,0.000431,0.300990
66569000,0.0324,0.013523,0.002678,0.000431,0.659803
66570000,0.0324,0.013523,0.002678,0.000431,0.252686
66571000,0.0324,0.013523,0.002678,0.000431,0.133042
66572000,0.0324,0.013523,0.002678,0.000431,0.132102
66573000,0.0324,0.013523,0.002678,0.000431,0.592930
66574000,0.0324,0.013523,0.002678,0.000431,0.225184
66575000,0.0324,0.013523,0.002678,0.000431,0.255506
66576000,0.0324,0.013523,0.002678,0.000431,0.271255
66577000,0.0324,0.013523,0.002678,0.000431,0.147145
66578000,0.0324,0.013523,0.002678,0.000431,0.157605
66579000,0.0324,0.013523,0.002678,0.000431,0.109184
66580000,0.0324,0.013523,0.002678,0.000431,0.426275
66581000,0.0324,0.013523,0.002678,0.000431,0.192041
66582000,0.0324,0.013523,0.002678,0.000431,0.085561
66583000,0.0324,0.013523,0.002678,0.000431,0.076981
66584000,0.0324,0.013523,0.002678,0.000431,0.058647
66585000,0.0324,0.013523,0.002678,0.000431,0.055943
66586000,0.0324,0.013523,0.002678,0.000431,0.045131
66587000,0.0324,0.013523,0.002678,0.000431,0.043015
66588000,0.0324,0.013523,0.002678,0.000431,0.037256
66589000,0.0324,0.013523,0.002678,0.000431,0.033848
66590000,0.0324,0.013523,0.002678,0.000431,0.033731
66591000,0.0324,0.013523,0.002678,0.000431,0.026796
66592000,0.0324,0.013523,0.002678,0.000431,0.031027
66593000,0.0324,0.013523,0.002678,0.000431,0.028559
66594000,0.0324,0.013523,0.002678,0.000431,0.021038
66595000,0.0324,0.013523,0.002678,0.000431,0.021978
66596000,0.0324,0.013523,0.002678,0.000431,0.020450
66597000,0.0324,0.013523,0.002678,0.000431,0.017277
66598000,0.0324,0.013523,0.002678,0.000431,0.017864
66599000,0.0324,0.013523,0.002678,0.000431,0.017159
66600000,0.0324,0.013523,0.002678,0.000431,0.016924
66601000,0.0324,0.013523,0.002678,0.000431,0.019040
66602000,0.0324,0.013523,0.002678,0.000431,0.011283
66603000,0.0324,0.013523,0.002678,0.000431,0.009050
66604000,0.0324,0.013523,0.002678,0.000431,0.009050
66605000,0.0324,0.013523,0.002678,0.000431,0.007757
66606000,0.0324,0.013523,0.002678,0.000431,0.010930
66607000,0.0324,0.013523,0.002678,0.000431,0.007757
66608000,0.0324,0.013523,0.002678,0.000431,0.006934
66609000,0.0324,0.013523,0.002678,0.000431,0.007522
66610000,0.0324,0.013523,0.002678,0.000431,0.007874
66611000,0.0324,0.013523,0.002678,0.000431,0.006817
66612000,0.0324,0.013523,0.002678,0.000431,0.007757
66613000,0.0324,0.013523,0.002678,0.000431,0.008815
66614000,0.0324,0.013523,0.002678,0.000431,0.006934
66615000,0.0324,0.013523,0.002678,0.000431,0.006229
66616000,0.0324,0.013523,0.002678,0.000431,0.008697
66617000,0.0324,0.013523,0.002678,0.000431,0.005054
66618000,0.0324,0.013523,0.002678,0.000431,0.006582
66619000,0.0324,0.013523,0.002678,0.000431,0.005289
66620000,0.0324,0.013523,0.002678,0.000431,0.005641
66621000,0.0324,0.013523,0.002678,0.000431,0.005289
66622000,0.0324,0.013523,0.002678,0.000431,0.005994
66623000,0.0324,0.013523,0.002678,0.000431,0.006464
66624000,0.0324,0.013523,0.002678,0.000431,0.005289
66625000,0.0324,0.013523,0.002678,0.000431,0.004936
66626000,0.0324,0.013523,0.002678,0.000431,0.004936
66627000,0.0324,0.013523,0.002678,0.000431,0.006464
66628000,0.0324,0.013523,0.002678,0.000431,0.006229
66629000,0.0324,0.013523,0.002678,0.000431,0.002468
66630000,0.0324,0.013523,0.002678,0.000431,0.002821
66631000,0.0324,0.013523,0.002678,0.000431,0.002233
66632000,0.0324,0.013523,0.002678,0.000431,0.002468
66633000,0.0324,0.013523,0.002678,0.000431,0.001998
66634000,0.0324,0.013523,0.002678,0.000431,0.002586
66635000,0.0324,0.013523,0.002678,0.000431,0.002116
66636000,0.0324,0.013523,0.002678,0.000431,0.002468
66637000,0.0324,0.013523,0.002678,0.000431,0.002233
66638000,0.0324,0.013523,0.002678,0.000431,0.002351
66639000,0.0324,0.013523,0.002678,0.000431,0.002468
66640000,0.0324,0.013523,0.002678,0.000431,0.002233
66641000,0.0324,0.013523,0.002678,0.000431,0.002116
66642000,0.0324,0.013523,0.002678,0.000431,0.002586
66643000,0.0324,0.013523,0.002678,0.000431,0.002351
66644000,0.0324,0.013523,0.002678,0.000431,0.002233
66645000,0.0324,0.013523,0.002678,0.000431,0.002468
66646000,0.0324,0.013523,0.002678,0.000431,0.002116
66647000,0.0324,0.013523,0.002678,0.000431,0.002351
66648000,0.0324,0.013523,0.002678,0.000431,0.002586
66649000,0.0324,0.013523,0.002678,0.000431,0.002116
66650000,0.0324,0.013523,0.002678,0.000431,0.002351
66651000,0.0324,0.013523,0.002678,0.000431,0.002233
66652000,0.0324,0.013523,0.002678,0.000431,0.002468
66653000,0.0324,0.013523,0.002678,0.000431,0.002233
66654000,0.0324,0.013523,0.002678,0.000431,0.002351
66655000,0.0324,0.013523,0.002678,0.000431,0.002351
66656000,0.0324,0.013523,0.002678,0.000431,0.002233
66657000,0.0324,0.013523,0.002678,0.000431,0.002586
66658000,0.0324,0.013523,0.002678,0.000431,0.002116
66659000,0.0324,0.013523,0.002678,0.000431,0.002586
66660000,0.0324,0.013523,0.002678,0.000431,0.001998
66661000,0.0324,0.013523,0.002678,0.000431,0.002703
66662000,0.0324,0.013523,0.002678,0.000431,0.002468
66663000,0.0324,0.013523,0.002678,0.000431,0.002351
66664000,0.0324,0.013523,0.002678,0.000431,0.002468
66665000,0.0324,0.013523,0.002678,0.000431,0.002351
66666000,0.0324,0.013523,0.002678,0.000431,0.002351
66667000,0.0324,0.013523,0.002678,0.000431,0.001998
66668000,0.0324,0.013523,0.002678,0.000431,0.002703
66669000,0.0324,0.013523,0.002678,0.000431,0.001998
66670000,0.0324,0.013523,0.002678,0.000431,0.002468
66671000,0.0324,0.013523,0.002678,0.000431,0.002468
66672000,0.0324,0.013523,0.002678,0.000431,0.002116
66673000,0.0324,0.013523,0.002678,0.000431,0.002468
66674000,0.0324,0.013523,0.002678,0.000431,0.002233
66675000,0.0324,0.013523,0.002678,0.000431,0.001645
66676000,0.0324,0.013523,0.002678,0.000431,0.001763
66677000,0.0324,0.013523,0.002678,0.000431,0.001645
66678000,0.0324,0.013523,0.002678,0.000431,0.001645
66679000,0.0324,0.013523,0.002678,0.000431,0.001645
66680000,0.0324,0.013523,0.002678,0.000431,0.001763
66681000,0.0324,0.013523,0.002678,0.000431,0.001528
66682000,0.0324,0.013523,0.002678,0.000431,0.001763
66683000,0.0324,0.013523,0.002678,0.000431,0.001763
66684000,0.0324,0.013523,0.002678,0.000431,0.001528
66685000,0.0324,0.013523,0.002678,0.000431,0.001645
66686000,0.0324,0.013523,0.002678,0.000431,0.001763
66687000,0.0324,0.013523,0.002678,0.000431,0.001645
66688000,0.0324,0.013523,0.002678,0.000431,0.001645
66689000,0.0324,0.013523,0.002678,0.000431,0.001645
66690000,0.0324,0.013523,0.002678,0.000431,0.001645
66691000,0.0324,0.013523,0.002678,0.000431,0.001763
66692000,0.0324,0.013523,0.002678,0.000431,0.001763
66693000,0.0324,0.013523,0.002678,0.000431,0.001645
66694000,0.0324,0.013523,0.002678,0.000431,0.001528
66695000,0.0324,0.013523,0.002678,0.000431,0.001645
66696000,0.0324,0.013523,0.002678,0.000431,0.001880
66697000,0.0324,0.013523,0.002678,0.000431,0.001645
66698000,0.0324,0.013523,0.002678,0.000431,0.001645
66699000,0.0324,0.013523,0.002678,0.000431,0.001645
66700000,0.0324,0.013523,0.002678,0.000431,0.001645
66701000,0.0324,0.013523,0.002678,0.000431,0.001763
66702000,0.0324,0.013523,0.002678,0.000431,0.001645
66703000,0.0324,0.013523,0.002678,0.000431,0.001763
66704000,0.0324,0.013523,0.002678,0.000431,0.001645
66705000,0.0324,0.013523,0.002678,0.000431,0.001645
66706000,0.0324,0.013523,0.002678,0.000431,0.003291
66707000,0.0324,0.013523,0.002678,0.000431,0.000823
66708000,0.0324,0.013523,0.002678,0.000431,0.000823
66709000,0.0324,0.013523,0.002678,0.000431,0.000823
66710000,0.0324,0.013523,0.002678,0.000431,0.000823
66711000,0.0324,0.013523,0.002678,0.000431,0.000823
66712000,0.0324,0.013523,0.002678,0.000431,0.000823
66713000,0.0324,0.013523,0.002678,0.000431,0.000823
66714000,0.0324,0.013523,0.002678,0.000431,0.000940
66715000,0.0324,0.013523,0.002678,0.000431,0.000823
66716000,0.0324,0.013523,0.002678,0.000431,0.000823
66717000,0.0324,0.013523,0.002678,0.000431,0.000705
66718000,0.0324,0.013523,0.002678,0.000431,0.000940
66719000,0.0324,0.013523,0.002678,0.000431,0.000940
66720000,0.0324,0.013523,0.002678,0.000431,0.000705
66721000,0.0324,0.013523,0.002678,0.000431,0.000940
66722000,0.0324,0.013523,0.002678,0.000431,0.000705
66723000,0.0324,0.013523,0.002678,0.000431,0.000940
66724000,0.0324,0.013523,0.002678,0.000431,0.000823
66725000,0.0324,0.013523,0.002678,0.000431,0.000823
66726000,0.0324,0.013523,0.002678,0.000431,0.000823
66727000,0.0324,0.013523,0.002678,0.000431,0.000823
66728000,0.0324,0.013523,0.002678,0.000431,0.000940
66729000,0.0324,0.013523,0.002678,0.000431,0.000705
66730000,0.0324,0.013523,0.002678,0.000431,0.000940
66731000,0.0324,0.013523,0.002678,0.000431,0.000823
66732000,0.0324,0.013523,0.002678,0.000431,0.000823
66733000,0.0324,0.013523,0.002678,0.000431,0.000823
66734000,0.0324,0.013523,0.002678,0.000431,0.000823
66735000,0.0324,0.013523,0.002678,0.000431,0.000940
66736000,0.0324,0.013523,0.002678,0.000431,0.000705
66737000,0.0324,0.013523,0.002678,0.000431,0.000823
66738000,0.0324,0.013523,0.002678,0.000431,0.000823
66739000,0.0324,0.013523,0.002678,0.000431,0.000940
66740000,0.0324,0.013523,0.002678,0.000431,0.000823
66741000,0.0324,0.013523,0.002678,0.000431,0.000823
66742000,0.0324,0.013523,0.002678,0.000431,0.000705
66743000,0.0324,0.013523,0.002678,0.000431,0.000940
66744000,0.0324,0.013523,0.002678,0.000431,0.000940
66745000,0.0324,0.013523,0.002678,0.000431,0.000705
66746000,0.0324,0.013523,0.002678,0.000431,0.000940
66747000,0.0324,0.013523,0.002678,0.000431,0.000705
66748000,0.0324,0.013523,0.002678,0.000431,0.000940
66749000,0.0324,0.013523,0.002678,0.000431,0.000823
66750000,0.0324,0.013523,0.002678,0.000431,0.000823
66751000,0.0324,0.013523,0.002678,0.000431,0.000940
66752000,0.0324,0.013523,0.002678,0.000431,0.000705
66753000,0.0324,0.013523,0.002678,0.000431,0.000940
66754000,0.0324,0.013523,0.002678,0.000431,0.000823
66755000,0.0324,0.013523,0.002678,0.000431,0.000823
66756000,0.0324,0.013523,0.002678,0.000431,0.000823
66757000,0.0324,0.013523,0.002678,0.000431,0.000823
66758000,0.0324,0.013523,0.002678,0.000431,0.000823
66759000,0.0324,0.013523,0.002678,0.000431,0.000823
66760000,0.0324,0.013523,0.002678,0.000431,0.000940
66761000,0.0324,0.013523,0.002678,0.000431,0.000705
66762000,0.0324,0.013523,0.002678,0.000431,0.000940
66763000,0.0324,0.013523,0.002678,0.000431,0.000823
66764000,0.0324,0.013523,0.002678,0.000431,0.000823
66765000,0.0324,0.013523,0.002678,0.000431,0.000705
66766000,0.0324,0.013523,0.002678,0.000431,0.000940
66767000,0.0324,0.013523,0.002678,0.000431,0.000940
66768000,0.0324,0.013523,0.002678,0.000431,0.000705
66769000,0.0324,0.013523,0.002678,0.000431,0.000940
66770000,0.0324,0.013523,0.002678,0.000431,0.000705
66771000,0.0324,0.013523,0.002678,0.000431,0.000940
66772000,0.0324,0.013523,0.002678,0.000431,0.000823
66773000,0.0324,0.013523,0.002678,0.000431,0.000823
66774000,0.0324,0.013523,0.002678,0.000431,0.000823
66775000,0.0324,0.013523,0.002678,0.000431,0.000823
66776000,0.0324,0.013523,0.002678,0.000431,0.000940
66777000,0.0324,0.013523,0.002678,0.000431,0.000705
66778000,0.0324,0.013523,0.002678,0.000431,0.000940
66779000,0.0324,0.013523,0.002678,0.000431,0.000823
66780000,0.0324,0.013523,0.002678,0.000431,0.000823
66781000,0.0324,0.013523,0.002678,0.000431,0.000823
66782000,0.0324,0.013523,0.002678,0.000431,0.000823
66783000,0.0324,0.013523,0.002678,0.000431,0.000823
66784000,0.0324,0.013523,0.002678,0.000431,0.000823
66785000,0.0324,0.013523,0.002678,0.000431,0.000823
66786000,0.0324,0.013523,0.002678,0.000431,0.000823
66787000,0.0324,0.013523,0.002678,0.000431,0.000940
66788000,0.0324,0.013523,0.002678,0.000431,0.000823
66789000,0.0324,0.013523,0.002678,0.000431,0.000823
66790000,0.0324,0.013523,0.002678,0.000431,0.000705
66791000,0.0324,0.013523,0.002678,0.000431,0.000940
66792000,0.0324,0.013523,0.002678,0.000431,0.000940
66793000,0.0324,0.013523,0.002678,0.000431,0.000705
66794000,0.0324,0.013523,0.002678,0.000431,0.000940
66795000,0.0324,0.013523,0.002678,0.000431,0.000705
66796000,0.0324,0.013523,0.002678,0.000431,0.000940
66797000,0.0324,0.013523,0.002678,0.000431,0.000823
66798000,0.0324,0.013523,0.002678,0.000431,0.000823
66799000,0.0324,0.013523,0.002678,0.000431,0.000940
66800000,0.0324,0.013523,0.002678,0.000431,0.000705
66801000,0.0324,0.013523,0.002678,0.000431,0.000940
66802000,0.0324,0.013523,0.002678,0.000431,0.000823
66803000,0.0324,0.013523,0.002678,0.000431,0.000823
66804000,0.0324,0.013523,0.002678,0.000431,0.000823
66805000,0.0324,0.013523,0.002678,0.000431,0.000823
66806000,0.0324,0.013523,0.002678,0.000431,0.000940
66807000,0.0324,0.013523,0.002678,0.000431,0.000705
66808000,0.0324,0.013523,0.002678,0.000431,0.000940
66809000,0.0324,0.013523,0.002678,0.000431,0.000705
66810000,0.0324,0.013523,0.002678,0.000431,0.000940
66811000,0.0324,0.013523,0.002678,0.000431,0.000823
66812000,0.0324,0.013523,0.002678,0.000431,0.000823
66813000,0.0324,0.013523,0.002678,0.000431,0.000705
66814000,0.0324,0.013523,0.002678,0.000431,0.000940
66815000,0.0324,0.013523,0.002678,0.000431,0.000940
66816000,0.0324,0.013523,0.002678,0.000431,0.000705
66817000,0.0324,0.013523,0.002678,0.000431,0.000940
66818000,0.0324,0.013523,0.002678,0.000431,0.000705
66819000,0.0324,0.013523,0.002678,0.000431,0.000940
66820000,0.0324,0.013523,0.002678,0.000431,0.000823
66821000,0.0324,0.013523,0.002678,0.000431,0.000823
66822000,0.0324,0.013523,0.002678,0.000431,0.000940
66823000,0.0324,0.013523,0.002678,0.000431,0.000705
66824000,0.0324,0.013523,0.002678,0.000431,0.000940
66825000,0.0324,0.013523,0.002678,0.000431,0.000823
66826000,0.0324,0.013523,0.002678,0.000431,0.000823
66827000,0.0324,0.013523,0.002678,0.000431,0.000823
66828000,0.0324,0.013523,0.002678,0.000431,0.000823
66829000,0.0324,0.013523,0.002678,0.000431,0.000823
66830000,0.0324,0.013523,0.002678,0.000431,0.000823
66831000,0.0324,0.013523,0.002678,0.000431,0.000940
66832000,0.0324,0.013523,0.002678,0.000431,0.000705
66833000,0.0324,0.013523,0.002678,0.000431,0.000823
66834000,0.0324,0.013523,0.002678,0.000431,0.000940
66835000,0.0324,0.013523,0.002678,0.000431,0.000823
66836000,0.0324,0.013523,0.002678,0.000431,0.000823
66837000,0.0324,0.013523,0.002678,0.000431,0.000823
66838000,0.0324,0.013523,0.002678,0.000431,0.000823
66839000,0.0324,0.013523,0.002678,0.000431,0.000823
66840000,0.0324,0.013523,0.002678,0.000431,0.000940
66841000,0.0324,0.013523,0.002678,0.000431,0.000823
66842000,0.0324,0.013523,0.002678,0.000431,0.000823
66843000,0.0324,0.013523,0.002678,0.000431,0.000705
66844000,0.0324,0.013523,0.002678,0.000431,0.000940
66845000,0.0324,0.013523,0.002678,0.000431,0.000940
66846000,0.0324,0.013523,0.002678,0.000431,0.000705
66847000,0.0324,0.013523,0.002678,0.000431,0.000940
66848000,0.0324,0.013523,0.002678,0.000431,0.000705
66849000,0.0324,0.013523,0.002678,0.000431,0.000940
66850000,0.0324,0.013523,0.002678,0.000431,0.000823
66851000,0.0324,0.013523,0.002678,0.000431,0.000823
66852000,0.0324,0.013523,0.002678,0.000431,0.000823
66853000,0.0324,0.013523,0.002678,0.000431,0.000823
66854000,0.0324,0.013523,0.002678,0.000431,0.000940
66855000,0.0324,0.013523,0.002678,0.000431,0.000823
66856000,0.0324,0.013523,0.002678,0.000431,0.000823
66857000,0.0324,0.013523,0.002678,0.000431,0.000823
66858000,0.0324,0.013523,0.002678,0.000431,0.000823
66859000,0.0324,0.013523,0.002678,0.000431,0.000823
66860000,0.0324,0.013523,0.002678,0.000431,0.000823
66861000,0.0324,0.013523,0.002678,0.000431,0.000823
66862000,0.0324,0.013523,0.002678,0.000431,0.000823
66863000,0.0324,0.013523,0.002678,0.000431,0.000940
66864000,0.0324,0.013523,0.002678,0.000431,0.000705
66865000,0.0324,0.013523,0.002678,0.000431,0.000940
66866000,0.0324,0.013523,0.002678,0.000431,0.000823
66867000,0.0324,0.013523,0.002678,0.000431,0.000823
66868000,0.0324,0.013523,0.002678,0.000431,0.000823
66869000,0.0324,0.013523,0.002678,0.000431,0.000823
66870000,0.0324,0.013523,0.002678,0.000431,0.013751
66871000,0.0324,0.013523,0.002678,0.000431,0.551442
66872000,0.0324,0.013523,0.002678,0.000431,0.592577
66873000,0.0324,0.013523,0.002678,0.000431,0.133512
66874000,0.0324,0.013523,0.002678,0.000431,0.133512
66875000,0.0324,0.013523,0.002678,0.000431,0.538632
66876000,0.0324,0.013523,0.002678,0.000431,0.249747
66877000,0.0324,0.013523,0.002678,0.000431,0.272430
66878000,0.0324,0.013523,0.002678,0.000431,0.346708
66879000,0.0324,0.013523,0.002678,0.000431,0.137273
66880000,0.0324,0.013523,0.002678,0.000431,0.159368
66881000,0.0324,0.013523,0.002678,0.000431,0.102955
66882000,0.0324,0.013523,0.002678,0.000431,0.440261
66883000,0.0324,0.013523,0.002678,0.000431,0.174412
66884000,0.0324,0.013523,0.002678,0.000431,0.075453
66885000,0.0324,0.013523,0.002678,0.000431,0.067461
66886000,0.0324,0.013523,0.002678,0.000431,0.057824
66887000,0.0324,0.013523,0.002678,0.000431,0.049244
66888000,0.0324,0.013523,0.002678,0.000431,0.037609
66889000,0.0324,0.013523,0.002678,0.000431,0.033848
66890000,0.0324,0.013523,0.002678,0.000431,0.027502
66891000,0.0324,0.013523,0.002678,0.000431,0.026914
66892000,0.0324,0.013523,0.002678,0.000431,0.020215
66893000,0.0324,0.013523,0.002678,0.000431,0.024563
66894000,0.0324,0.013523,0.002678,0.000431,0.017864
66895000,0.0324,0.013523,0.002678,0.000431,0.021508
66896000,0.0324,0.013523,0.002678,0.000431,0.018687
66897000,0.0324,0.013523,0.002678,0.000431,0.008580
66898000,0.0324,0.013523,0.002678,0.000431,0.008815
66899000,0.0324,0.013523,0.002678,0.000431,0.008697
66900000,0.0324,0.013523,0.002678,0.000431,0.009872
66901000,0.0324,0.013523,0.002678,0.000431,0.009520
66902000,0.0324,0.013523,0.002678,0.000431,0.007874
66903000,0.0324,0.013523,0.002678,0.000431,0.008227
66904000,0.0324,0.013523,0.002678,0.000431,0.006582
66905000,0.0324,0.013523,0.002678,0.000431,0.005524
66906000,0.0324,0.013523,0.002678,0.000431,0.006934
66907000,0.0324,0.013523,0.002678,0.000431,0.005994
66908000,0.0324,0.013523,0.002678,0.000431,0.008345
66909000,0.0324,0.013523,0.002678,0.000431,0.008227
66910000,0.0324,0.013523,0.002678,0.000431,0.004701
66911000,0.0324,0.013523,0.002678,0.000431,0.003761
66912000,0.0324,0.013523,0.002678,0.000431,0.003996
66913000,0.0324,0.013523,0.002678,0.000431,0.004113
66914000,0.0324,0.013523,0.002678,0.000431,0.003761
66915000,0.0324,0.013523,0.002678,0.000431,0.004231
66916000,0.0324,0.013523,0.002678,0.000431,0.005171
66917000,0.0324,0.013523,0.002678,0.000431,0.004113
66918000,0.0324,0.013523,0.002678,0.000431,0.003291
66919000,0.0324,0.013523,0.002678,0.000431,0.003291
66920000,0.0324,0.013523,0.002678,0.000431,0.002938
66921000,0.0324,0.013523,0.002678,0.000431,0.003291
66922000,0.0324,0.013523,0.002678,0.000431,0.003761
66923000,0.0324,0.013523,0.002678,0.000431,0.002586
66924000,0.0324,0.013523,0.002678,0.000431,0.003173
66925000,0.0324,0.013523,0.002678,0.000431,0.003408
66926000,0.0324,0.013523,0.002678,0.000431,0.003173
66927000,0.0324,0.013523,0.002678,0.000431,0.003408
66928000,0.0324,0.013523,0.002678,0.000431,0.003056
66929000,0.0324,0.013523,0.002678,0.000431,0.003526
66930000,0.0324,0.013523,0.002678,0.000431,0.003408
66931000,0.0324,0.013523,0.002678,0.000431,0.002938
66932000,0.0324,0.013523,0.002678,0.000431,0.003526
66933000,0.0324,0.013523,0.002678,0.000431,0.003408
66934000,0.0324,0.013523,0.002678,0.000431,0.002821
66935000,0.0324,0.013523,0.002678,0.000431,0.003761
66936000,0.0324,0.013523,0.002678,0.000431,0.002938
66937000,0.0324,0.013523,0.002678,0.000431,0.003173
66938000,0.0324,0.013523,0.002678,0.000431,0.003408
66939000,0.0324,0.013523,0.002678,0.000431,0.003056
66940000,0.0324,0.013523,0.002678,0.000431,0.003526
66941000,0.0324,0.013523,0.002678,0.000431,0.003408
66942000,0.0324,0.013523,0.002678,0.000431,0.002938
66943000,0.0324,0.013523,0.002678,0.000431,0.003526
66944000,0.0324,0.013523,0.002678,0.000431,0.003408
66945000,0.0324,0.013523,0.002678,0.000431,0.002938
66946000,0.0324,0.013523,0.002678,0.000431,0.003643
66947000,0.0324,0.013523,0.002678,0.000431,0.002938
66948000,0.0324,0.013523,0.002678,0.000431,0.003173
66949000,0.0324,0.013523,0.002678,0.000431,0.003408
66950000,0.0324,0.013523,0.002678,0.000431,0.003526
66951000,0.0324,0.013523,0.002678,0.000431,0.003761
66952000,0.0324,0.013523,0.002678,0.000431,0.003526
66953000,0.0324,0.013523,0.002678,0.000431,0.003173
66954000,0.0324,0.013523,0.002678,0.000431,0.003056
66955000,0.0324,0.013523,0.002678,0.000431,0.003761
66956000,0.0324,0.013523,0.002678,0.000431,0.002938
66957000,0.0324,0.013523,0.002678,0.000431,0.004113
66958000,0.0324,0.013523,0.002678,0.000431,0.002821
66959000,0.0324,0.013523,0.002678,0.000431,0.003526
66960000,0.0324,0.013523,0.002678,0.000431,0.003643
66961000,0.0324,0.013523,0.002678,0.000431,0.002821
66962000,0.0324,0.013523,0.002678,0.000431,0.003878
66963000,0.0324,0.013523,0.002678,0.000431,0.002938
66964000,0.0324,0.013523,0.002678,0.000431,0.003878
66965000,0.0324,0.013523,0.002678,0.000431,0.003173
66966000,0.0324,0.013523,0.002678,0.000431,0.003291
66967000,0.0324,0.013523,0.002678,0.000431,0.003408
66968000,0.0324,0.013523,0.002678,0.000431,0.003408
66969000,0.0324,0.013523,0.002678,0.000431,0.004349
66970000,0.0324,0.013523,0.002678,0.000431,0.003291
66971000,0.0324,0.013523,0.002678,0.000431,0.001880
66972000,0.0324,0.013523,0.002678,0.000431,0.002938
66973000,0.0324,0.013523,0.002678,0.000431,0.001998
66974000,0.0324,0.013523,0.002678,0.000431,0.002586
66975000,0.0324,0.013523,0.002678,0.000431,0.002938
66976000,0.0324,0.013523,0.002678,0.000431,0.001998
66977000,0.0324,0.013523,0.002678,0.000431,0.002703
66978000,0.0324,0.013523,0.002678,0.000431,0.002468
66979000,0.0324,0.013523,0.002678,0.000431,0.002233
66980000,0.0324,0.013523,0.002678,0.000431,0.002938
66981000,0.0324,0.013523,0.002678,0.000431,0.001998
66982000,0.0324,0.013523,0.002678,0.000431,0.002586
66983000,0.0324,0.013523,0.002678,0.000431,0.001880
66984000,0.0324,0.013523,0.002678,0.000431,0.001880
66985000,0.0324,0.013523,0.002678,0.000431,0.002116
66986000,0.0324,0.013523,0.002678,0.000431,0.001645
66987000,0.0324,0.013523,0.002678,0.000431,0.001880
66988000,0.0324,0.013523,0.002678,0.000431,0.001880
66989000,0.0324,0.013523,0.002678,0.000431,0.001998
66990000,0.0324,0.013523,0.002678,0.000431,0.001998
66991000,0.0324,0.013523,0.002678,0.000431,0.001645
66992000,0.0324,0.013523,0.002678,0.000431,0.002116
66993000,0.0324,0.013523,0.002678,0.000431,0.001645
66994000,0.0324,0.013523,0.002678,0.000431,0.002351
66995000,0.0324,0.013523,0.002678,0.000431,0.001645
66996000,0.0324,0.013523,0.002678,0.000431,0.001998
66997000,0.0324,0.013523,0.002678,0.000431,0.001998
66998000,0.0324,0.013523,0.002678,0.000431,0.001528
66999000,0.0324,0.013523,0.002678,0.000431,0.002233
