Cycle,Area(mm^2),PeakDynamic(W),SubthresholdLeakage(W),GateLeakage(W),RunTimeDynamic(W)
30000000,0.0324,0.013523,0.002678,0.000431,0.007404
30001000,0.0324,0.013523,0.002678,0.000431,0.006699
30002000,0.0324,0.013523,0.002678,0.000431,0.008697
30003000,0.0324,0.013523,0.002678,0.000431,0.006817
30004000,0.0324,0.013523,0.002678,0.000431,0.006464
30005000,0.0324,0.013523,0.002678,0.000431,0.005171
30006000,0.0324,0.013523,0.002678,0.000431,0.005054
30007000,0.0324,0.013523,0.002678,0.000431,0.005406
30008000,0.0324,0.013523,0.002678,0.000431,0.004936
30009000,0.0324,0.013523,0.002678,0.000431,0.005289
30010000,0.0324,0.013523,0.002678,0.000431,0.005406
30011000,0.0324,0.013523,0.002678,0.000431,0.007052
30012000,0.0324,0.013523,0.002678,0.000431,0.004231
30013000,0.0324,0.013523,0.002678,0.000431,0.004466
30014000,0.0324,0.013523,0.002678,0.000431,0.005054
30015000,0.0324,0.013523,0.002678,0.000431,0.004819
30016000,0.0324,0.013523,0.002678,0.000431,0.003408
30017000,0.0324,0.013523,0.002678,0.000431,0.003526
30018000,0.0324,0.013523,0.002678,0.000431,0.003643
30019000,0.0324,0.013523,0.002678,0.000431,0.003526
30020000,0.0324,0.013523,0.002678,0.000431,0.004584
30021000,0.0324,0.013523,0.002678,0.000431,0.003996
30022000,0.0324,0.013523,0.002678,0.000431,0.002703
30023000,0.0324,0.013523,0.002678,0.000431,0.002703
30024000,0.0324,0.013523,0.002678,0.000431,0.002586
30025000,0.0324,0.013523,0.002678,0.000431,0.002821
30026000,0.0324,0.013523,0.002678,0.000431,0.002468
30027000,0.0324,0.013523,0.002678,0.000431,0.002703
30028000,0.0324,0.013523,0.002678,0.000431,0.002703
30029000,0.0324,0.013523,0.002678,0.000431,0.002703
30030000,0.0324,0.013523,0.002678,0.000431,0.002586
30031000,0.0324,0.013523,0.002678,0.000431,0.002586
30032000,0.0324,0.013523,0.002678,0.000431,0.002703
30033000,0.0324,0.013523,0.002678,0.000431,0.002821
30034000,0.0324,0.013523,0.002678,0.000431,0.002351
30035000,0.0324,0.013523,0.002678,0.000431,0.002703
30036000,0.0324,0.013523,0.002678,0.000431,0.002821
30037000,0.0324,0.013523,0.002678,0.000431,0.002351
30038000,0.0324,0.013523,0.002678,0.000431,0.002938
30039000,0.0324,0.013523,0.002678,0.000431,0.002586
30040000,0.0324,0.013523,0.002678,0.000431,0.002586
30041000,0.0324,0.013523,0.002678,0.000431,0.002703
30042000,0.0324,0.013523,0.002678,0.000431,0.002468
30043000,0.0324,0.013523,0.002678,0.000431,0.002821
30044000,0.0324,0.013523,0.002678,0.000431,0.002468
30045000,0.0324,0.013523,0.002678,0.000431,0.002821
30046000,0.0324,0.013523,0.002678,0.000431,0.002586
30047000,0.0324,0.013523,0.002678,0.000431,0.003878
30048000,0.0324,0.013523,0.002678,0.000431,0.001880
30049000,0.0324,0.013523,0.002678,0.000431,0.001645
30050000,0.0324,0.013523,0.002678,0.000431,0.001998
30051000,0.0324,0.013523,0.002678,0.000431,0.001645
30052000,0.0324,0.013523,0.002678,0.000431,0.001763
30053000,0.0324,0.013523,0.002678,0.000431,0.001880
30054000,0.0324,0.013523,0.002678,0.000431,0.001645
30055000,0.0324,0.013523,0.002678,0.000431,0.001763
30056000,0.0324,0.013523,0.002678,0.000431,0.001880
30057000,0.0324,0.013523,0.002678,0.000431,0.001645
30058000,0.0324,0.013523,0.002678,0.000431,0.001880
30059000,0.0324,0.013523,0.002678,0.000431,0.001763
30060000,0.0324,0.013523,0.002678,0.000431,0.001528
30061000,0.0324,0.013523,0.002678,0.000431,0.001998
30062000,0.0324,0.013523,0.002678,0.000431,0.001763
30063000,0.0324,0.013523,0.002678,0.000431,0.001880
30064000,0.0324,0.013523,0.002678,0.000431,0.001528
30065000,0.0324,0.013523,0.002678,0.000431,0.001763
30066000,0.0324,0.013523,0.002678,0.000431,0.001880
30067000,0.0324,0.013523,0.002678,0.000431,0.001645
30068000,0.0324,0.013523,0.002678,0.000431,0.001880
30069000,0.0324,0.013523,0.002678,0.000431,0.001645
30070000,0.0324,0.013523,0.002678,0.000431,0.001763
30071000,0.0324,0.013523,0.002678,0.000431,0.001998
30072000,0.0324,0.013523,0.002678,0.000431,0.001645
30073000,0.0324,0.013523,0.002678,0.000431,0.001763
30074000,0.0324,0.013523,0.002678,0.000431,0.001645
30075000,0.0324,0.013523,0.002678,0.000431,0.001880
30076000,0.0324,0.013523,0.002678,0.000431,0.001880
30077000,0.0324,0.013523,0.002678,0.000431,0.001645
30078000,0.0324,0.013523,0.002678,0.000431,0.002821
30079000,0.0324,0.013523,0.002678,0.000431,0.002233
30080000,0.0324,0.013523,0.002678,0.000431,0.000823
30081000,0.0324,0.013523,0.002678,0.000431,0.001058
30082000,0.0324,0.013523,0.002678,0.000431,0.000940
30083000,0.0324,0.013523,0.002678,0.000431,0.000823
30084000,0.0324,0.013523,0.002678,0.000431,0.001058
30085000,0.0324,0.013523,0.002678,0.000431,0.000823
30086000,0.0324,0.013523,0.002678,0.000431,0.001058
30087000,0.0324,0.013523,0.002678,0.000431,0.000823
30088000,0.0324,0.013523,0.002678,0.000431,0.000940
30089000,0.0324,0.013523,0.002678,0.000431,0.000940
30090000,0.0324,0.013523,0.002678,0.000431,0.000940
30091000,0.0324,0.013523,0.002678,0.000431,0.001058
30092000,0.0324,0.013523,0.002678,0.000431,0.000940
30093000,0.0324,0.013523,0.002678,0.000431,0.001058
30094000,0.0324,0.013523,0.002678,0.000431,0.001058
30095000,0.0324,0.013523,0.002678,0.000431,0.109184
30096000,0.0324,0.013523,0.002678,0.000431,0.471406
30097000,0.0324,0.013523,0.002678,0.000431,0.539219
30098000,0.0324,0.013523,0.002678,0.000431,0.133277
30099000,0.0324,0.013523,0.002678,0.000431,0.131397
30100000,0.0324,0.013523,0.002678,0.000431,0.552853
30101000,0.0324,0.013523,0.002678,0.000431,0.243518
30102000,0.0324,0.013523,0.002678,0.000431,0.262793
30103000,0.0324,0.013523,0.002678,0.000431,0.299462
30104000,0.0324,0.013523,0.002678,0.000431,0.144677
30105000,0.0324,0.013523,0.002678,0.000431,0.141739
30106000,0.0324,0.013523,0.002678,0.000431,0.127636
30107000,0.0324,0.013523,0.002678,0.000431,0.270550
30108000,0.0324,0.013523,0.002678,0.000431,0.312625
30109000,0.0324,0.013523,0.002678,0.000431,0.042075
30110000,0.0324,0.013523,0.002678,0.000431,0.037844
30111000,0.0324,0.013523,0.002678,0.000431,0.027031
30112000,0.0324,0.013523,0.002678,0.000431,0.026326
30113000,0.0324,0.013523,0.002678,0.000431,0.016571
30114000,0.0324,0.013523,0.002678,0.000431,0.017747
30115000,0.0324,0.013523,0.002678,0.000431,0.013398
30116000,0.0324,0.013523,0.002678,0.000431,0.013046
30117000,0.0324,0.013523,0.002678,0.000431,0.010342
30118000,0.0324,0.013523,0.002678,0.000431,0.009755
30119000,0.0324,0.013523,0.002678,0.000431,0.010107
30120000,0.0324,0.013523,0.002678,0.000431,0.011283
30121000,0.0324,0.013523,0.002678,0.000431,0.010460
30122000,0.0324,0.013523,0.002678,0.000431,0.008227
30123000,0.0324,0.013523,0.002678,0.000431,0.008697
30124000,0.0324,0.013523,0.002678,0.000431,0.009990
30125000,0.0324,0.013523,0.002678,0.000431,0.007522
30126000,0.0324,0.013523,0.002678,0.000431,0.007757
30127000,0.0324,0.013523,0.002678,0.000431,0.008345
30128000,0.0324,0.013523,0.002678,0.000431,0.008109
30129000,0.0324,0.013523,0.002678,0.000431,0.006347
30130000,0.0324,0.013523,0.002678,0.000431,0.006699
30131000,0.0324,0.013523,0.002678,0.000431,0.006582
30132000,0.0324,0.013523,0.002678,0.000431,0.007404
30133000,0.0324,0.013523,0.002678,0.000431,0.006111
30134000,0.0324,0.013523,0.002678,0.000431,0.006934
30135000,0.0324,0.013523,0.002678,0.000431,0.006817
30136000,0.0324,0.013523,0.002678,0.000431,0.008227
30137000,0.0324,0.013523,0.002678,0.000431,0.005524
30138000,0.0324,0.013523,0.002678,0.000431,0.007757
30139000,0.0324,0.013523,0.002678,0.000431,0.004936
30140000,0.0324,0.013523,0.002678,0.000431,0.005054
30141000,0.0324,0.013523,0.002678,0.000431,0.004819
30142000,0.0324,0.013523,0.002678,0.000431,0.004819
30143000,0.0324,0.013523,0.002678,0.000431,0.004466
30144000,0.0324,0.013523,0.002678,0.000431,0.004113
30145000,0.0324,0.013523,0.002678,0.000431,0.004231
30146000,0.0324,0.013523,0.002678,0.000431,0.004584
30147000,0.0324,0.013523,0.002678,0.000431,0.004113
30148000,0.0324,0.013523,0.002678,0.000431,0.004231
30149000,0.0324,0.013523,0.002678,0.000431,0.004466
30150000,0.0324,0.013523,0.002678,0.000431,0.004349
30151000,0.0324,0.013523,0.002678,0.000431,0.004349
30152000,0.0324,0.013523,0.002678,0.000431,0.003996
30153000,0.0324,0.013523,0.002678,0.000431,0.004466
30154000,0.0324,0.013523,0.002678,0.000431,0.004349
30155000,0.0324,0.013523,0.002678,0.000431,0.004466
30156000,0.0324,0.013523,0.002678,0.000431,0.004113
30157000,0.0324,0.013523,0.002678,0.000431,0.004231
30158000,0.0324,0.013523,0.002678,0.000431,0.004584
30159000,0.0324,0.013523,0.002678,0.000431,0.004113
30160000,0.0324,0.013523,0.002678,0.000431,0.004231
30161000,0.0324,0.013523,0.002678,0.000431,0.004466
30162000,0.0324,0.013523,0.002678,0.000431,0.005641
30163000,0.0324,0.013523,0.002678,0.000431,0.003408
30164000,0.0324,0.013523,0.002678,0.000431,0.003408
30165000,0.0324,0.013523,0.002678,0.000431,0.003643
30166000,0.0324,0.013523,0.002678,0.000431,0.003408
30167000,0.0324,0.013523,0.002678,0.000431,0.003291
30168000,0.0324,0.013523,0.002678,0.000431,0.003408
30169000,0.0324,0.013523,0.002678,0.000431,0.003643
30170000,0.0324,0.013523,0.002678,0.000431,0.003056
30171000,0.0324,0.013523,0.002678,0.000431,0.003526
30172000,0.0324,0.013523,0.002678,0.000431,0.003761
30173000,0.0324,0.013523,0.002678,0.000431,0.003291
30174000,0.0324,0.013523,0.002678,0.000431,0.003291
30175000,0.0324,0.013523,0.002678,0.000431,0.003408
30176000,0.0324,0.013523,0.002678,0.000431,0.005171
30177000,0.0324,0.013523,0.002678,0.000431,0.002586
30178000,0.0324,0.013523,0.002678,0.000431,0.002586
30179000,0.0324,0.013523,0.002678,0.000431,0.002468
30180000,0.0324,0.013523,0.002678,0.000431,0.002703
30181000,0.0324,0.013523,0.002678,0.000431,0.002703
30182000,0.0324,0.013523,0.002678,0.000431,0.003056
30183000,0.0324,0.013523,0.002678,0.000431,0.002938
30184000,0.0324,0.013523,0.002678,0.000431,0.001645
30185000,0.0324,0.013523,0.002678,0.000431,0.001763
30186000,0.0324,0.013523,0.002678,0.000431,0.001645
30187000,0.0324,0.013523,0.002678,0.000431,0.001645
30188000,0.0324,0.013523,0.002678,0.000431,0.001763
30189000,0.0324,0.013523,0.002678,0.000431,0.001645
30190000,0.0324,0.013523,0.002678,0.000431,0.001763
30191000,0.0324,0.013523,0.002678,0.000431,0.001645
30192000,0.0324,0.013523,0.002678,0.000431,0.001880
30193000,0.0324,0.013523,0.002678,0.000431,0.001763
30194000,0.0324,0.013523,0.002678,0.000431,0.001528
30195000,0.0324,0.013523,0.002678,0.000431,0.001645
30196000,0.0324,0.013523,0.002678,0.000431,0.003643
30197000,0.0324,0.013523,0.002678,0.000431,0.000940
30198000,0.0324,0.013523,0.002678,0.000431,0.000705
30199000,0.0324,0.013523,0.002678,0.000431,0.000940
30200000,0.0324,0.013523,0.002678,0.000431,0.000940
30201000,0.0324,0.013523,0.002678,0.000431,0.000823
30202000,0.0324,0.013523,0.002678,0.000431,0.000823
30203000,0.0324,0.013523,0.002678,0.000431,0.000940
30204000,0.0324,0.013523,0.002678,0.000431,0.000823
30205000,0.0324,0.013523,0.002678,0.000431,0.000940
30206000,0.0324,0.013523,0.002678,0.000431,0.000823
30207000,0.0324,0.013523,0.002678,0.000431,0.000940
30208000,0.0324,0.013523,0.002678,0.000431,0.000823
30209000,0.0324,0.013523,0.002678,0.000431,0.000823
30210000,0.0324,0.013523,0.002678,0.000431,0.000940
30211000,0.0324,0.013523,0.002678,0.000431,0.000940
30212000,0.0324,0.013523,0.002678,0.000431,0.000823
30213000,0.0324,0.013523,0.002678,0.000431,0.001763
30214000,0.0324,0.013523,0.002678,0.000431,0.354230
30215000,0.0324,0.013523,0.002678,0.000431,0.698470
30216000,0.0324,0.013523,0.002678,0.000431,0.134922
30217000,0.0324,0.013523,0.002678,0.000431,0.133512
30218000,0.0324,0.013523,0.002678,0.000431,0.148203
30219000,0.0324,0.013523,0.002678,0.000431,0.591872
30220000,0.0324,0.013523,0.002678,0.000431,0.236467
30221000,0.0324,0.013523,0.002678,0.000431,0.319559
30222000,0.0324,0.013523,0.002678,0.000431,0.221071
30223000,0.0324,0.013523,0.002678,0.000431,0.140329
30224000,0.0324,0.013523,0.002678,0.000431,0.180523
30225000,0.0324,0.013523,0.002678,0.000431,0.088616
30226000,0.0324,0.013523,0.002678,0.000431,0.473991
30227000,0.0324,0.013523,0.002678,0.000431,0.108949
30228000,0.0324,0.013523,0.002678,0.000431,0.061820
30229000,0.0324,0.013523,0.002678,0.000431,0.052183
30230000,0.0324,0.013523,0.002678,0.000431,0.038902
30231000,0.0324,0.013523,0.002678,0.000431,0.030322
30232000,0.0324,0.013523,0.002678,0.000431,0.021038
30233000,0.0324,0.013523,0.002678,0.000431,0.018687
30234000,0.0324,0.013523,0.002678,0.000431,0.014103
30235000,0.0324,0.013523,0.002678,0.000431,0.015631
30236000,0.0324,0.013523,0.002678,0.000431,0.014456
30237000,0.0324,0.013523,0.002678,0.000431,0.014456
30238000,0.0324,0.013523,0.002678,0.000431,0.014103
30239000,0.0324,0.013523,0.002678,0.000431,0.012928
30240000,0.0324,0.013523,0.002678,0.000431,0.007639
30241000,0.0324,0.013523,0.002678,0.000431,0.009637
30242000,0.0324,0.013523,0.002678,0.000431,0.005524
30243000,0.0324,0.013523,0.002678,0.000431,0.006347
30244000,0.0324,0.013523,0.002678,0.000431,0.007169
30245000,0.0324,0.013523,0.002678,0.000431,0.004584
30246000,0.0324,0.013523,0.002678,0.000431,0.004349
30247000,0.0324,0.013523,0.002678,0.000431,0.004113
30248000,0.0324,0.013523,0.002678,0.000431,0.004349
30249000,0.0324,0.013523,0.002678,0.000431,0.005406
30250000,0.0324,0.013523,0.002678,0.000431,0.004819
30251000,0.0324,0.013523,0.002678,0.000431,0.003056
30252000,0.0324,0.013523,0.002678,0.000431,0.003526
30253000,0.0324,0.013523,0.002678,0.000431,0.003526
30254000,0.0324,0.013523,0.002678,0.000431,0.005524
30255000,0.0324,0.013523,0.002678,0.000431,0.002468
30256000,0.0324,0.013523,0.002678,0.000431,0.002586
30257000,0.0324,0.013523,0.002678,0.000431,0.002821
30258000,0.0324,0.013523,0.002678,0.000431,0.002468
30259000,0.0324,0.013523,0.002678,0.000431,0.002468
30260000,0.0324,0.013523,0.002678,0.000431,0.002586
30261000,0.0324,0.013523,0.002678,0.000431,0.002586
30262000,0.0324,0.013523,0.002678,0.000431,0.002821
30263000,0.0324,0.013523,0.002678,0.000431,0.002351
30264000,0.0324,0.013523,0.002678,0.000431,0.002821
30265000,0.0324,0.013523,0.002678,0.000431,0.003173
30266000,0.0324,0.013523,0.002678,0.000431,0.002821
30267000,0.0324,0.013523,0.002678,0.000431,0.001763
30268000,0.0324,0.013523,0.002678,0.000431,0.001763
30269000,0.0324,0.013523,0.002678,0.000431,0.001763
30270000,0.0324,0.013523,0.002678,0.000431,0.001528
30271000,0.0324,0.013523,0.002678,0.000431,0.001880
30272000,0.0324,0.013523,0.002678,0.000431,0.001763
30273000,0.0324,0.013523,0.002678,0.000431,0.001645
30274000,0.0324,0.013523,0.002678,0.000431,0.001645
30275000,0.0324,0.013523,0.002678,0.000431,0.001763
30276000,0.0324,0.013523,0.002678,0.000431,0.001763
30277000,0.0324,0.013523,0.002678,0.000431,0.001645
30278000,0.0324,0.013523,0.002678,0.000431,0.001763
30279000,0.0324,0.013523,0.002678,0.000431,0.003643
30280000,0.0324,0.013523,0.002678,0.000431,0.000823
30281000,0.0324,0.013523,0.002678,0.000431,0.000940
30282000,0.0324,0.013523,0.002678,0.000431,0.000823
30283000,0.0324,0.013523,0.002678,0.000431,0.000940
30284000,0.0324,0.013523,0.002678,0.000431,0.000940
30285000,0.0324,0.013523,0.002678,0.000431,0.000823
30286000,0.0324,0.013523,0.002678,0.000431,0.000823
30287000,0.0324,0.013523,0.002678,0.000431,0.000940
30288000,0.0324,0.013523,0.002678,0.000431,0.000940
30289000,0.0324,0.013523,0.002678,0.000431,0.000823
30290000,0.0324,0.013523,0.002678,0.000431,0.000823
30291000,0.0324,0.013523,0.002678,0.000431,0.000940
30292000,0.0324,0.013523,0.002678,0.000431,0.000823
30293000,0.0324,0.013523,0.002678,0.000431,0.000940
30294000,0.0324,0.013523,0.002678,0.000431,0.000823
30295000,0.0324,0.013523,0.002678,0.000431,0.000940
30296000,0.0324,0.013523,0.002678,0.000431,0.000823
30297000,0.0324,0.013523,0.002678,0.000431,0.000823
30298000,0.0324,0.013523,0.002678,0.000431,0.000940
30299000,0.0324,0.013523,0.002678,0.000431,0.000940
30300000,0.0324,0.013523,0.002678,0.000431,0.000823
30301000,0.0324,0.013523,0.002678,0.000431,0.000823
30302000,0.0324,0.013523,0.002678,0.000431,0.000940
30303000,0.0324,0.013523,0.002678,0.000431,0.000940
30304000,0.0324,0.013523,0.002678,0.000431,0.000823
30305000,0.0324,0.013523,0.002678,0.000431,0.000823
30306000,0.0324,0.013523,0.002678,0.000431,0.000940
30307000,0.0324,0.013523,0.002678,0.000431,0.000940
30308000,0.0324,0.013523,0.002678,0.000431,0.000823
30309000,0.0324,0.013523,0.002678,0.000431,0.000823
30310000,0.0324,0.013523,0.002678,0.000431,0.000940
30311000,0.0324,0.013523,0.002678,0.000431,0.000823
30312000,0.0324,0.013523,0.002678,0.000431,0.000940
30313000,0.0324,0.013523,0.002678,0.000431,0.000823
30314000,0.0324,0.013523,0.002678,0.000431,0.000940
30315000,0.0324,0.013523,0.002678,0.000431,0.000823
30316000,0.0324,0.013523,0.002678,0.000431,0.000823
30317000,0.0324,0.013523,0.002678,0.000431,0.000940
30318000,0.0324,0.013523,0.002678,0.000431,0.000940
30319000,0.0324,0.013523,0.002678,0.000431,0.000823
30320000,0.0324,0.013523,0.002678,0.000431,0.000823
30321000,0.0324,0.013523,0.002678,0.000431,0.000940
30322000,0.0324,0.013523,0.002678,0.000431,0.000940
30323000,0.0324,0.013523,0.002678,0.000431,0.000705
30324000,0.0324,0.013523,0.002678,0.000431,0.000940
30325000,0.0324,0.013523,0.002678,0.000431,0.000940
30326000,0.0324,0.013523,0.002678,0.000431,0.000823
30327000,0.0324,0.013523,0.002678,0.000431,0.000940
30328000,0.0324,0.013523,0.002678,0.000431,0.000823
30329000,0.0324,0.013523,0.002678,0.000431,0.000940
30330000,0.0324,0.013523,0.002678,0.000431,0.000823
30331000,0.0324,0.013523,0.002678,0.000431,0.000823
30332000,0.0324,0.013523,0.002678,0.000431,0.000940
30333000,0.0324,0.013523,0.002678,0.000431,0.000823
30334000,0.0324,0.013523,0.002678,0.000431,0.000940
30335000,0.0324,0.013523,0.002678,0.000431,0.000823
30336000,0.0324,0.013523,0.002678,0.000431,0.000940
30337000,0.0324,0.013523,0.002678,0.000431,0.000940
30338000,0.0324,0.013523,0.002678,0.000431,0.000705
30339000,0.0324,0.013523,0.002678,0.000431,0.000940
30340000,0.0324,0.013523,0.002678,0.000431,0.000940
30341000,0.0324,0.013523,0.002678,0.000431,0.000940
30342000,0.0324,0.013523,0.002678,0.000431,0.000705
30343000,0.0324,0.013523,0.002678,0.000431,0.000940
30344000,0.0324,0.013523,0.002678,0.000431,0.000940
30345000,0.0324,0.013523,0.002678,0.000431,0.000823
30346000,0.0324,0.013523,0.002678,0.000431,0.000823
30347000,0.0324,0.013523,0.002678,0.000431,0.000940
30348000,0.0324,0.013523,0.002678,0.000431,0.000940
30349000,0.0324,0.013523,0.002678,0.000431,0.000823
30350000,0.0324,0.013523,0.002678,0.000431,0.000823
30351000,0.0324,0.013523,0.002678,0.000431,0.000940
30352000,0.0324,0.013523,0.002678,0.000431,0.000823
30353000,0.0324,0.013523,0.002678,0.000431,0.000940
30354000,0.0324,0.013523,0.002678,0.000431,0.000823
30355000,0.0324,0.013523,0.002678,0.000431,0.000940
30356000,0.0324,0.013523,0.002678,0.000431,0.000823
30357000,0.0324,0.013523,0.002678,0.000431,0.000823
30358000,0.0324,0.013523,0.002678,0.000431,0.000940
30359000,0.0324,0.013523,0.002678,0.000431,0.000940
30360000,0.0324,0.013523,0.002678,0.000431,0.000823
30361000,0.0324,0.013523,0.002678,0.000431,0.000823
30362000,0.0324,0.013523,0.002678,0.000431,0.000940
30363000,0.0324,0.013523,0.002678,0.000431,0.000940
30364000,0.0324,0.013523,0.002678,0.000431,0.000823
30365000,0.0324,0.013523,0.002678,0.000431,0.000823
30366000,0.0324,0.013523,0.002678,0.000431,0.000940
30367000,0.0324,0.013523,0.002678,0.000431,0.000823
30368000,0.0324,0.013523,0.002678,0.000431,0.000940
30369000,0.0324,0.013523,0.002678,0.000431,0.000823
30370000,0.0324,0.013523,0.002678,0.000431,0.000940
30371000,0.0324,0.013523,0.002678,0.000431,0.000823
30372000,0.0324,0.013523,0.002678,0.000431,0.000823
30373000,0.0324,0.013523,0.002678,0.000431,0.000940
30374000,0.0324,0.013523,0.002678,0.000431,0.000940
30375000,0.0324,0.013523,0.002678,0.000431,0.000823
30376000,0.0324,0.013523,0.002678,0.000431,0.000823
30377000,0.0324,0.013523,0.002678,0.000431,0.000940
30378000,0.0324,0.013523,0.002678,0.000431,0.000940
30379000,0.0324,0.013523,0.002678,0.000431,0.000705
30380000,0.0324,0.013523,0.002678,0.000431,0.000940
30381000,0.0324,0.013523,0.002678,0.000431,0.000940
30382000,0.0324,0.013523,0.002678,0.000431,0.000940
30383000,0.0324,0.013523,0.002678,0.000431,0.000705
30384000,0.0324,0.013523,0.002678,0.000431,0.000940
30385000,0.0324,0.013523,0.002678,0.000431,0.000940
30386000,0.0324,0.013523,0.002678,0.000431,0.000823
30387000,0.0324,0.013523,0.002678,0.000431,0.000940
30388000,0.0324,0.013523,0.002678,0.000431,0.000823
30389000,0.0324,0.013523,0.002678,0.000431,0.000940
30390000,0.0324,0.013523,0.002678,0.000431,0.000823
30391000,0.0324,0.013523,0.002678,0.000431,0.000823
30392000,0.0324,0.013523,0.002678,0.000431,0.000940
30393000,0.0324,0.013523,0.002678,0.000431,0.000823
30394000,0.0324,0.013523,0.002678,0.000431,0.000940
30395000,0.0324,0.013523,0.002678,0.000431,0.000823
30396000,0.0324,0.013523,0.002678,0.000431,0.000940
30397000,0.0324,0.013523,0.002678,0.000431,0.000940
30398000,0.0324,0.013523,0.002678,0.000431,0.000705
30399000,0.0324,0.013523,0.002678,0.000431,0.000940
30400000,0.0324,0.013523,0.002678,0.000431,0.000940
30401000,0.0324,0.013523,0.002678,0.000431,0.000940
30402000,0.0324,0.013523,0.002678,0.000431,0.000705
30403000,0.0324,0.013523,0.002678,0.000431,0.000940
30404000,0.0324,0.013523,0.002678,0.000431,0.000940
30405000,0.0324,0.013523,0.002678,0.000431,0.000823
30406000,0.0324,0.013523,0.002678,0.000431,0.000823
30407000,0.0324,0.013523,0.002678,0.000431,0.000940
30408000,0.0324,0.013523,0.002678,0.000431,0.000823
30409000,0.0324,0.013523,0.002678,0.000431,0.000940
30410000,0.0324,0.013523,0.002678,0.000431,0.000823
30411000,0.0324,0.013523,0.002678,0.000431,0.000940
30412000,0.0324,0.013523,0.002678,0.000431,0.000823
30413000,0.0324,0.013523,0.002678,0.000431,0.000823
30414000,0.0324,0.013523,0.002678,0.000431,0.000940
30415000,0.0324,0.013523,0.002678,0.000431,0.011283
30416000,0.0324,0.013523,0.002678,0.000431,0.486449
30417000,0.0324,0.013523,0.002678,0.000431,0.612557
30418000,0.0324,0.013523,0.002678,0.000431,0.137861
30419000,0.0324,0.013523,0.002678,0.000431,0.131749
30420000,0.0324,0.013523,0.002678,0.000431,0.410879
30421000,0.0324,0.013523,0.002678,0.000431,0.400889
30422000,0.0324,0.013523,0.002678,0.000431,0.294761
30423000,0.0324,0.013523,0.002678,0.000431,0.333898
30424000,0.0324,0.013523,0.002678,0.000431,0.144560
30425000,0.0324,0.013523,0.002678,0.000431,0.162894
30426000,0.0324,0.013523,0.002678,0.000431,0.100604
30427000,0.0324,0.013523,0.002678,0.000431,0.467410
30428000,0.0324,0.013523,0.002678,0.000431,0.092025
30429000,0.0324,0.013523,0.002678,0.000431,0.039607
30430000,0.0324,0.013523,0.002678,0.000431,0.036081
30431000,0.0324,0.013523,0.002678,0.000431,0.027267
30432000,0.0324,0.013523,0.002678,0.000431,0.022565
30433000,0.0324,0.013523,0.002678,0.000431,0.014221
30434000,0.0324,0.013523,0.002678,0.000431,0.017864
30435000,0.0324,0.013523,0.002678,0.000431,0.011988
30436000,0.0324,0.013523,0.002678,0.000431,0.009637
30437000,0.0324,0.013523,0.002678,0.000431,0.011753
30438000,0.0324,0.013523,0.002678,0.000431,0.007874
30439000,0.0324,0.013523,0.002678,0.000431,0.003291
30440000,0.0324,0.013523,0.002678,0.000431,0.003526
30441000,0.0324,0.013523,0.002678,0.000431,0.004349
30442000,0.0324,0.013523,0.002678,0.000431,0.002703
30443000,0.0324,0.013523,0.002678,0.000431,0.002351
30444000,0.0324,0.013523,0.002678,0.000431,0.002703
30445000,0.0324,0.013523,0.002678,0.000431,0.002703
30446000,0.0324,0.013523,0.002678,0.000431,0.004113
30447000,0.0324,0.013523,0.002678,0.000431,0.001528
30448000,0.0324,0.013523,0.002678,0.000431,0.001880
30449000,0.0324,0.013523,0.002678,0.000431,0.001763
30450000,0.0324,0.013523,0.002678,0.000431,0.001763
30451000,0.0324,0.013523,0.002678,0.000431,0.001645
30452000,0.0324,0.013523,0.002678,0.000431,0.001880
30453000,0.0324,0.013523,0.002678,0.000431,0.001763
30454000,0.0324,0.013523,0.002678,0.000431,0.001645
30455000,0.0324,0.013523,0.002678,0.000431,0.001763
30456000,0.0324,0.013523,0.002678,0.000431,0.001880
30457000,0.0324,0.013523,0.002678,0.000431,0.001763
30458000,0.0324,0.013523,0.002678,0.000431,0.001645
30459000,0.0324,0.013523,0.002678,0.000431,0.001763
30460000,0.0324,0.013523,0.002678,0.000431,0.001880
30461000,0.0324,0.013523,0.002678,0.000431,0.001645
30462000,0.0324,0.013523,0.002678,0.000431,0.001763
30463000,0.0324,0.013523,0.002678,0.000431,0.001763
30464000,0.0324,0.013523,0.002678,0.000431,0.001763
30465000,0.0324,0.013523,0.002678,0.000431,0.001880
30466000,0.0324,0.013523,0.002678,0.000431,0.001528
30467000,0.0324,0.013523,0.002678,0.000431,0.001880
30468000,0.0324,0.013523,0.002678,0.000431,0.001763
30469000,0.0324,0.013523,0.002678,0.000431,0.001763
30470000,0.0324,0.013523,0.002678,0.000431,0.001645
30471000,0.0324,0.013523,0.002678,0.000431,0.002703
30472000,0.0324,0.013523,0.002678,0.000431,0.001880
30473000,0.0324,0.013523,0.002678,0.000431,0.000940
30474000,0.0324,0.013523,0.002678,0.000431,0.000940
30475000,0.0324,0.013523,0.002678,0.000431,0.000940
30476000,0.0324,0.013523,0.002678,0.000431,0.000705
30477000,0.0324,0.013523,0.002678,0.000431,0.000940
30478000,0.0324,0.013523,0.002678,0.000431,0.000940
30479000,0.0324,0.013523,0.002678,0.000431,0.000823
30480000,0.0324,0.013523,0.002678,0.000431,0.000823
30481000,0.0324,0.013523,0.002678,0.000431,0.000940
30482000,0.0324,0.013523,0.002678,0.000431,0.000940
30483000,0.0324,0.013523,0.002678,0.000431,0.000823
30484000,0.0324,0.013523,0.002678,0.000431,0.000823
30485000,0.0324,0.013523,0.002678,0.000431,0.000940
30486000,0.0324,0.013523,0.002678,0.000431,0.000823
30487000,0.0324,0.013523,0.002678,0.000431,0.000940
30488000,0.0324,0.013523,0.002678,0.000431,0.000823
30489000,0.0324,0.013523,0.002678,0.000431,0.000940
30490000,0.0324,0.013523,0.002678,0.000431,0.000823
30491000,0.0324,0.013523,0.002678,0.000431,0.000823
30492000,0.0324,0.013523,0.002678,0.000431,0.000940
30493000,0.0324,0.013523,0.002678,0.000431,0.000940
30494000,0.0324,0.013523,0.002678,0.000431,0.000940
30495000,0.0324,0.013523,0.002678,0.000431,0.000705
30496000,0.0324,0.013523,0.002678,0.000431,0.000940
30497000,0.0324,0.013523,0.002678,0.000431,0.000940
30498000,0.0324,0.013523,0.002678,0.000431,0.000823
30499000,0.0324,0.013523,0.002678,0.000431,0.000823
30500000,0.0324,0.013523,0.002678,0.000431,0.000940
30501000,0.0324,0.013523,0.002678,0.000431,0.000940
30502000,0.0324,0.013523,0.002678,0.000431,0.000823
30503000,0.0324,0.013523,0.002678,0.000431,0.000823
30504000,0.0324,0.013523,0.002678,0.000431,0.000940
30505000,0.0324,0.013523,0.002678,0.000431,0.000823
30506000,0.0324,0.013523,0.002678,0.000431,0.000940
30507000,0.0324,0.013523,0.002678,0.000431,0.000823
30508000,0.0324,0.013523,0.002678,0.000431,0.000940
30509000,0.0324,0.013523,0.002678,0.000431,0.000823
30510000,0.0324,0.013523,0.002678,0.000431,0.000823
30511000,0.0324,0.013523,0.002678,0.000431,0.198388
30512000,0.0324,0.013523,0.002678,0.000431,0.562725
30513000,0.0324,0.013523,0.002678,0.000431,0.408881
30514000,0.0324,0.013523,0.002678,0.000431,0.132572
30515000,0.0324,0.013523,0.002678,0.000431,0.132454
30516000,0.0324,0.013523,0.002678,0.000431,0.582352
30517000,0.0324,0.013523,0.002678,0.000431,0.230120
30518000,0.0324,0.013523,0.002678,0.000431,0.275721
30519000,0.0324,0.013523,0.002678,0.000431,0.295818
30520000,0.0324,0.013523,0.002678,0.000431,0.143149
30521000,0.0324,0.013523,0.002678,0.000431,0.178055
30522000,0.0324,0.013523,0.002678,0.000431,0.090497
30523000,0.0324,0.013523,0.002678,0.000431,0.466469
30524000,0.0324,0.013523,0.002678,0.000431,0.073808
30525000,0.0324,0.013523,0.002678,0.000431,0.038784
30526000,0.0324,0.013523,0.002678,0.000431,0.032555
30527000,0.0324,0.013523,0.002678,0.000431,0.033731
30528000,0.0324,0.013523,0.002678,0.000431,0.024446
30529000,0.0324,0.013523,0.002678,0.000431,0.019627
30530000,0.0324,0.013523,0.002678,0.000431,0.016807
30531000,0.0324,0.013523,0.002678,0.000431,0.014221
30532000,0.0324,0.013523,0.002678,0.000431,0.013868
30533000,0.0324,0.013523,0.002678,0.000431,0.013516
30534000,0.0324,0.013523,0.002678,0.000431,0.012693
30535000,0.0324,0.013523,0.002678,0.000431,0.011518
30536000,0.0324,0.013523,0.002678,0.000431,0.013986
30537000,0.0324,0.013523,0.002678,0.000431,0.010695
30538000,0.0324,0.013523,0.002678,0.000431,0.011635
30539000,0.0324,0.013523,0.002678,0.000431,0.010813
30540000,0.0324,0.013523,0.002678,0.000431,0.010460
30541000,0.0324,0.013523,0.002678,0.000431,0.008932
30542000,0.0324,0.013523,0.002678,0.000431,0.011518
30543000,0.0324,0.013523,0.002678,0.000431,0.007757
30544000,0.0324,0.013523,0.002678,0.000431,0.011048
30545000,0.0324,0.013523,0.002678,0.000431,0.006347
30546000,0.0324,0.013523,0.002678,0.000431,0.005054
30547000,0.0324,0.013523,0.002678,0.000431,0.006229
30548000,0.0324,0.013523,0.002678,0.000431,0.005994
30549000,0.0324,0.013523,0.002678,0.000431,0.005641
30550000,0.0324,0.013523,0.002678,0.000431,0.005876
30551000,0.0324,0.013523,0.002678,0.000431,0.005759
30552000,0.0324,0.013523,0.002678,0.000431,0.007757
30553000,0.0324,0.013523,0.002678,0.000431,0.004936
30554000,0.0324,0.013523,0.002678,0.000431,0.005054
30555000,0.0324,0.013523,0.002678,0.000431,0.006699
30556000,0.0324,0.013523,0.002678,0.000431,0.003173
30557000,0.0324,0.013523,0.002678,0.000431,0.003291
30558000,0.0324,0.013523,0.002678,0.000431,0.003056
30559000,0.0324,0.013523,0.002678,0.000431,0.003291
30560000,0.0324,0.013523,0.002678,0.000431,0.003291
30561000,0.0324,0.013523,0.002678,0.000431,0.003291
30562000,0.0324,0.013523,0.002678,0.000431,0.003291
30563000,0.0324,0.013523,0.002678,0.000431,0.003056
30564000,0.0324,0.013523,0.002678,0.000431,0.003291
30565000,0.0324,0.013523,0.002678,0.000431,0.002821
30566000,0.0324,0.013523,0.002678,0.000431,0.003761
30567000,0.0324,0.013523,0.002678,0.000431,0.003056
30568000,0.0324,0.013523,0.002678,0.000431,0.003291
30569000,0.0324,0.013523,0.002678,0.000431,0.003761
30570000,0.0324,0.013523,0.002678,0.000431,0.003056
30571000,0.0324,0.013523,0.002678,0.000431,0.001880
30572000,0.0324,0.013523,0.002678,0.000431,0.070752
30573000,0.0324,0.013523,0.002678,0.000431,0.467410
30574000,0.0324,0.013523,0.002678,0.000431,0.579296
30575000,0.0324,0.013523,0.002678,0.000431,0.132924
30576000,0.0324,0.013523,0.002678,0.000431,0.132689
30577000,0.0324,0.013523,0.002678,0.000431,0.554851
30578000,0.0324,0.013523,0.002678,0.000431,0.223068
30579000,0.0324,0.013523,0.002678,0.000431,0.252451
30580000,0.0324,0.013523,0.002678,0.000431,0.346826
30581000,0.0324,0.013523,0.002678,0.000431,0.136333
30582000,0.0324,0.013523,0.002678,0.000431,0.143619
30583000,0.0324,0.013523,0.002678,0.000431,0.137743
30584000,0.0324,0.013523,0.002678,0.000431,0.236584
30585000,0.0324,0.013523,0.002678,0.000431,0.381732
30586000,0.0324,0.013523,0.002678,0.000431,0.063230
30587000,0.0324,0.013523,0.002678,0.000431,0.053828
30588000,0.0324,0.013523,0.002678,0.000431,0.042663
30589000,0.0324,0.013523,0.002678,0.000431,0.038314
30590000,0.0324,0.013523,0.002678,0.000431,0.026561
30591000,0.0324,0.013523,0.002678,0.000431,0.021273
30592000,0.0324,0.013523,0.002678,0.000431,0.011988
30593000,0.0324,0.013523,0.002678,0.000431,0.017159
30594000,0.0324,0.013523,0.002678,0.000431,0.005054
30595000,0.0324,0.013523,0.002678,0.000431,0.004113
30596000,0.0324,0.013523,0.002678,0.000431,0.004349
30597000,0.0324,0.013523,0.002678,0.000431,0.003878
30598000,0.0324,0.013523,0.002678,0.000431,0.003996
30599000,0.0324,0.013523,0.002678,0.000431,0.004349
30600000,0.0324,0.013523,0.002678,0.000431,0.004113
30601000,0.0324,0.013523,0.002678,0.000431,0.004231
30602000,0.0324,0.013523,0.002678,0.000431,0.003761
30603000,0.0324,0.013523,0.002678,0.000431,0.004231
30604000,0.0324,0.013523,0.002678,0.000431,0.004231
30605000,0.0324,0.013523,0.002678,0.000431,0.004349
30606000,0.0324,0.013523,0.002678,0.000431,0.003878
30607000,0.0324,0.013523,0.002678,0.000431,0.004231
30608000,0.0324,0.013523,0.002678,0.000431,0.003643
30609000,0.0324,0.013523,0.002678,0.000431,0.004466
30610000,0.0324,0.013523,0.002678,0.000431,0.004113
30611000,0.0324,0.013523,0.002678,0.000431,0.004231
30612000,0.0324,0.013523,0.002678,0.000431,0.006229
30613000,0.0324,0.013523,0.002678,0.000431,0.003056
30614000,0.0324,0.013523,0.002678,0.000431,0.003291
30615000,0.0324,0.013523,0.002678,0.000431,0.003408
30616000,0.0324,0.013523,0.002678,0.000431,0.002586
30617000,0.0324,0.013523,0.002678,0.000431,0.003643
30618000,0.0324,0.013523,0.002678,0.000431,0.001645
30619000,0.0324,0.013523,0.002678,0.000431,0.001763
30620000,0.0324,0.013523,0.002678,0.000431,0.001763
30621000,0.0324,0.013523,0.002678,0.000431,0.001763
30622000,0.0324,0.013523,0.002678,0.000431,0.001528
30623000,0.0324,0.013523,0.002678,0.000431,0.001880
30624000,0.0324,0.013523,0.002678,0.000431,0.001645
30625000,0.0324,0.013523,0.002678,0.000431,0.001763
30626000,0.0324,0.013523,0.002678,0.000431,0.001528
30627000,0.0324,0.013523,0.002678,0.000431,0.001880
30628000,0.0324,0.013523,0.002678,0.000431,0.001763
30629000,0.0324,0.013523,0.002678,0.000431,0.001528
30630000,0.0324,0.013523,0.002678,0.000431,0.001880
30631000,0.0324,0.013523,0.002678,0.000431,0.001645
30632000,0.0324,0.013523,0.002678,0.000431,0.001763
30633000,0.0324,0.013523,0.002678,0.000431,0.001645
30634000,0.0324,0.013523,0.002678,0.000431,0.001763
30635000,0.0324,0.013523,0.002678,0.000431,0.001880
30636000,0.0324,0.013523,0.002678,0.000431,0.001528
30637000,0.0324,0.013523,0.002678,0.000431,0.001763
30638000,0.0324,0.013523,0.002678,0.000431,0.001763
30639000,0.0324,0.013523,0.002678,0.000431,0.001645
30640000,0.0324,0.013523,0.002678,0.000431,0.003526
30641000,0.0324,0.013523,0.002678,0.000431,0.000940
30642000,0.0324,0.013523,0.002678,0.000431,0.000940
30643000,0.0324,0.013523,0.002678,0.000431,0.000823
30644000,0.0324,0.013523,0.002678,0.000431,0.000823
30645000,0.0324,0.013523,0.002678,0.000431,0.000940
30646000,0.0324,0.013523,0.002678,0.000431,0.000940
30647000,0.0324,0.013523,0.002678,0.000431,0.000823
30648000,0.0324,0.013523,0.002678,0.000431,0.000823
30649000,0.0324,0.013523,0.002678,0.000431,0.000940
30650000,0.0324,0.013523,0.002678,0.000431,0.000940
30651000,0.0324,0.013523,0.002678,0.000431,0.000705
30652000,0.0324,0.013523,0.002678,0.000431,0.000940
30653000,0.0324,0.013523,0.002678,0.000431,0.000940
30654000,0.0324,0.013523,0.002678,0.000431,0.000940
30655000,0.0324,0.013523,0.002678,0.000431,0.000705
30656000,0.0324,0.013523,0.002678,0.000431,0.000940
30657000,0.0324,0.013523,0.002678,0.000431,0.000940
30658000,0.0324,0.013523,0.002678,0.000431,0.000823
30659000,0.0324,0.013523,0.002678,0.000431,0.000823
30660000,0.0324,0.013523,0.002678,0.000431,0.000940
30661000,0.0324,0.013523,0.002678,0.000431,0.000940
30662000,0.0324,0.013523,0.002678,0.000431,0.000823
30663000,0.0324,0.013523,0.002678,0.000431,0.000823
30664000,0.0324,0.013523,0.002678,0.000431,0.000940
30665000,0.0324,0.013523,0.002678,0.000431,0.000823
30666000,0.0324,0.013523,0.002678,0.000431,0.000940
30667000,0.0324,0.013523,0.002678,0.000431,0.000823
30668000,0.0324,0.013523,0.002678,0.000431,0.000940
30669000,0.0324,0.013523,0.002678,0.000431,0.000823
30670000,0.0324,0.013523,0.002678,0.000431,0.000823
30671000,0.0324,0.013523,0.002678,0.000431,0.000940
30672000,0.0324,0.013523,0.002678,0.000431,0.000940
30673000,0.0324,0.013523,0.002678,0.000431,0.000940
30674000,0.0324,0.013523,0.002678,0.000431,0.000705
30675000,0.0324,0.013523,0.002678,0.000431,0.000940
30676000,0.0324,0.013523,0.002678,0.000431,0.000940
30677000,0.0324,0.013523,0.002678,0.000431,0.000823
30678000,0.0324,0.013523,0.002678,0.000431,0.000823
30679000,0.0324,0.013523,0.002678,0.000431,0.000940
30680000,0.0324,0.013523,0.002678,0.000431,0.000823
30681000,0.0324,0.013523,0.002678,0.000431,0.000940
30682000,0.0324,0.013523,0.002678,0.000431,0.000823
30683000,0.0324,0.013523,0.002678,0.000431,0.000940
30684000,0.0324,0.013523,0.002678,0.000431,0.000823
30685000,0.0324,0.013523,0.002678,0.000431,0.000823
30686000,0.0324,0.013523,0.002678,0.000431,0.000940
30687000,0.0324,0.013523,0.002678,0.000431,0.000940
30688000,0.0324,0.013523,0.002678,0.000431,0.000823
30689000,0.0324,0.013523,0.002678,0.000431,0.000823
30690000,0.0324,0.013523,0.002678,0.000431,0.000940
30691000,0.0324,0.013523,0.002678,0.000431,0.000940
30692000,0.0324,0.013523,0.002678,0.000431,0.000705
30693000,0.0324,0.013523,0.002678,0.000431,0.000940
30694000,0.0324,0.013523,0.002678,0.000431,0.000940
30695000,0.0324,0.013523,0.002678,0.000431,0.000940
30696000,0.0324,0.013523,0.002678,0.000431,0.000823
30697000,0.0324,0.013523,0.002678,0.000431,0.014221
30698000,0.0324,0.013523,0.002678,0.000431,0.524763
30699000,0.0324,0.013523,0.002678,0.000431,0.586583
30700000,0.0324,0.013523,0.002678,0.000431,0.134452
30701000,0.0324,0.013523,0.002678,0.000431,0.132572
30702000,0.0324,0.013523,0.002678,0.000431,0.501375
30703000,0.0324,0.013523,0.002678,0.000431,0.356345
30704000,0.0324,0.013523,0.002678,0.000431,0.270197
30705000,0.0324,0.013523,0.002678,0.000431,0.269022
30706000,0.0324,0.013523,0.002678,0.000431,0.138683
30707000,0.0324,0.013523,0.002678,0.000431,0.159368
30708000,0.0324,0.013523,0.002678,0.000431,0.109419
30709000,0.0324,0.013523,0.002678,0.000431,0.428978
30710000,0.0324,0.013523,0.002678,0.000431,0.161601
30711000,0.0324,0.013523,0.002678,0.000431,0.049597
30712000,0.0324,0.013523,0.002678,0.000431,0.034201
30713000,0.0324,0.013523,0.002678,0.000431,0.035258
30714000,0.0324,0.013523,0.002678,0.000431,0.029735
30715000,0.0324,0.013523,0.002678,0.000431,0.024798
30716000,0.0324,0.013523,0.002678,0.000431,0.026561
30717000,0.0324,0.013523,0.002678,0.000431,0.020802
30718000,0.0324,0.013523,0.002678,0.000431,0.018452
30719000,0.0324,0.013523,0.002678,0.000431,0.023036
30720000,0.0324,0.013523,0.002678,0.000431,0.017277
30721000,0.0324,0.013523,0.002678,0.000431,0.016101
30722000,0.0324,0.013523,0.002678,0.000431,0.013633
30723000,0.0324,0.013523,0.002678,0.000431,0.012811
30724000,0.0324,0.013523,0.002678,0.000431,0.016454
30725000,0.0324,0.013523,0.002678,0.000431,0.011283
30726000,0.0324,0.013523,0.002678,0.000431,0.010695
30727000,0.0324,0.013523,0.002678,0.000431,0.009402
30728000,0.0324,0.013523,0.002678,0.000431,0.006582
30729000,0.0324,0.013523,0.002678,0.000431,0.007052
30730000,0.0324,0.013523,0.002678,0.000431,0.006229
30731000,0.0324,0.013523,0.002678,0.000431,0.006464
30732000,0.0324,0.013523,0.002678,0.000431,0.006699
30733000,0.0324,0.013523,0.002678,0.000431,0.006347
30734000,0.0324,0.013523,0.002678,0.000431,0.006699
30735000,0.0324,0.013523,0.002678,0.000431,0.006464
30736000,0.0324,0.013523,0.002678,0.000431,0.007169
30737000,0.0324,0.013523,0.002678,0.000431,0.006464
30738000,0.0324,0.013523,0.002678,0.000431,0.005994
30739000,0.0324,0.013523,0.002678,0.000431,0.005406
30740000,0.0324,0.013523,0.002678,0.000431,0.005876
30741000,0.0324,0.013523,0.002678,0.000431,0.005289
30742000,0.0324,0.013523,0.002678,0.000431,0.006347
30743000,0.0324,0.013523,0.002678,0.000431,0.010225
30744000,0.0324,0.013523,0.002678,0.000431,0.002703
30745000,0.0324,0.013523,0.002678,0.000431,0.002586
30746000,0.0324,0.013523,0.002678,0.000431,0.002586
30747000,0.0324,0.013523,0.002678,0.000431,0.002586
30748000,0.0324,0.013523,0.002678,0.000431,0.002468
30749000,0.0324,0.013523,0.002678,0.000431,0.002703
30750000,0.0324,0.013523,0.002678,0.000431,0.002351
30751000,0.0324,0.013523,0.002678,0.000431,0.002703
30752000,0.0324,0.013523,0.002678,0.000431,0.002586
30753000,0.0324,0.013523,0.002678,0.000431,0.002468
30754000,0.0324,0.013523,0.002678,0.000431,0.002586
30755000,0.0324,0.013523,0.002678,0.000431,0.002468
30756000,0.0324,0.013523,0.002678,0.000431,0.002703
30757000,0.0324,0.013523,0.002678,0.000431,0.002468
30758000,0.0324,0.013523,0.002678,0.000431,0.002468
30759000,0.0324,0.013523,0.002678,0.000431,0.002351
30760000,0.0324,0.013523,0.002678,0.000431,0.003526
30761000,0.0324,0.013523,0.002678,0.000431,0.002938
30762000,0.0324,0.013523,0.002678,0.000431,0.001645
30763000,0.0324,0.013523,0.002678,0.000431,0.003408
30764000,0.0324,0.013523,0.002678,0.000431,0.000705
30765000,0.0324,0.013523,0.002678,0.000431,0.000940
30766000,0.0324,0.013523,0.002678,0.000431,0.000940
30767000,0.0324,0.013523,0.002678,0.000431,0.000705
30768000,0.0324,0.013523,0.002678,0.000431,0.000940
30769000,0.0324,0.013523,0.002678,0.000431,0.000705
30770000,0.0324,0.013523,0.002678,0.000431,0.000940
30771000,0.0324,0.013523,0.002678,0.000431,0.000823
30772000,0.0324,0.013523,0.002678,0.000431,0.000823
30773000,0.0324,0.013523,0.002678,0.000431,0.000823
30774000,0.0324,0.013523,0.002678,0.000431,0.000823
30775000,0.0324,0.013523,0.002678,0.000431,0.000823
30776000,0.0324,0.013523,0.002678,0.000431,0.000823
30777000,0.0324,0.013523,0.002678,0.000431,0.000940
30778000,0.0324,0.013523,0.002678,0.000431,0.000705
30779000,0.0324,0.013523,0.002678,0.000431,0.000823
30780000,0.0324,0.013523,0.002678,0.000431,0.000823
30781000,0.0324,0.013523,0.002678,0.000431,0.000940
30782000,0.0324,0.013523,0.002678,0.000431,0.000823
30783000,0.0324,0.013523,0.002678,0.000431,0.000823
30784000,0.0324,0.013523,0.002678,0.000431,0.000705
30785000,0.0324,0.013523,0.002678,0.000431,0.000940
30786000,0.0324,0.013523,0.002678,0.000431,0.000940
30787000,0.0324,0.013523,0.002678,0.000431,0.000705
30788000,0.0324,0.013523,0.002678,0.000431,0.000940
30789000,0.0324,0.013523,0.002678,0.000431,0.000705
30790000,0.0324,0.013523,0.002678,0.000431,0.000940
30791000,0.0324,0.013523,0.002678,0.000431,0.000823
30792000,0.0324,0.013523,0.002678,0.000431,0.000823
30793000,0.0324,0.013523,0.002678,0.000431,0.000940
30794000,0.0324,0.013523,0.002678,0.000431,0.000705
30795000,0.0324,0.013523,0.002678,0.000431,0.000940
30796000,0.0324,0.013523,0.002678,0.000431,0.000823
30797000,0.0324,0.013523,0.002678,0.000431,0.000823
30798000,0.0324,0.013523,0.002678,0.000431,0.000823
30799000,0.0324,0.013523,0.002678,0.000431,0.000823
30800000,0.0324,0.013523,0.002678,0.000431,0.000823
30801000,0.0324,0.013523,0.002678,0.000431,0.000823
30802000,0.0324,0.013523,0.002678,0.000431,0.000940
30803000,0.0324,0.013523,0.002678,0.000431,0.000705
30804000,0.0324,0.013523,0.002678,0.000431,0.000940
30805000,0.0324,0.013523,0.002678,0.000431,0.000823
30806000,0.0324,0.013523,0.002678,0.000431,0.000823
30807000,0.0324,0.013523,0.002678,0.000431,0.000705
30808000,0.0324,0.013523,0.002678,0.000431,0.000940
30809000,0.0324,0.013523,0.002678,0.000431,0.000940
30810000,0.0324,0.013523,0.002678,0.000431,0.000705
30811000,0.0324,0.013523,0.002678,0.000431,0.000940
30812000,0.0324,0.013523,0.002678,0.000431,0.000705
30813000,0.0324,0.013523,0.002678,0.000431,0.000940
30814000,0.0324,0.013523,0.002678,0.000431,0.000823
30815000,0.0324,0.013523,0.002678,0.000431,0.000823
30816000,0.0324,0.013523,0.002678,0.000431,0.000940
30817000,0.0324,0.013523,0.002678,0.000431,0.000705
30818000,0.0324,0.013523,0.002678,0.000431,0.000940
30819000,0.0324,0.013523,0.002678,0.000431,0.000705
30820000,0.0324,0.013523,0.002678,0.000431,0.000940
30821000,0.0324,0.013523,0.002678,0.000431,0.000823
30822000,0.0324,0.013523,0.002678,0.000431,0.000823
30823000,0.0324,0.013523,0.002678,0.000431,0.000823
30824000,0.0324,0.013523,0.002678,0.000431,0.000823
30825000,0.0324,0.013523,0.002678,0.000431,0.000940
30826000,0.0324,0.013523,0.002678,0.000431,0.000705
30827000,0.0324,0.013523,0.002678,0.000431,0.000823
30828000,0.0324,0.013523,0.002678,0.000431,0.000940
30829000,0.0324,0.013523,0.002678,0.000431,0.000823
30830000,0.0324,0.013523,0.002678,0.000431,0.000823
30831000,0.0324,0.013523,0.002678,0.000431,0.000823
30832000,0.0324,0.013523,0.002678,0.000431,0.000705
30833000,0.0324,0.013523,0.002678,0.000431,0.000940
30834000,0.0324,0.013523,0.002678,0.000431,0.000940
30835000,0.0324,0.013523,0.002678,0.000431,0.000705
30836000,0.0324,0.013523,0.002678,0.000431,0.000940
30837000,0.0324,0.013523,0.002678,0.000431,0.000705
30838000,0.0324,0.013523,0.002678,0.000431,0.000940
30839000,0.0324,0.013523,0.002678,0.000431,0.000823
30840000,0.0324,0.013523,0.002678,0.000431,0.000823
30841000,0.0324,0.013523,0.002678,0.000431,0.000823
30842000,0.0324,0.013523,0.002678,0.000431,0.000823
30843000,0.0324,0.013523,0.002678,0.000431,0.000940
30844000,0.0324,0.013523,0.002678,0.000431,0.000705
30845000,0.0324,0.013523,0.002678,0.000431,0.000940
30846000,0.0324,0.013523,0.002678,0.000431,0.000823
30847000,0.0324,0.013523,0.002678,0.000431,0.000823
30848000,0.0324,0.013523,0.002678,0.000431,0.000823
30849000,0.0324,0.013523,0.002678,0.000431,0.000823
30850000,0.0324,0.013523,0.002678,0.000431,0.000823
30851000,0.0324,0.013523,0.002678,0.000431,0.000823
30852000,0.0324,0.013523,0.002678,0.000431,0.000940
30853000,0.0324,0.013523,0.002678,0.000431,0.000823
30854000,0.0324,0.013523,0.002678,0.000431,0.000823
30855000,0.0324,0.013523,0.002678,0.000431,0.000705
30856000,0.0324,0.013523,0.002678,0.000431,0.000940
30857000,0.0324,0.013523,0.002678,0.000431,0.000940
30858000,0.0324,0.013523,0.002678,0.000431,0.000705
30859000,0.0324,0.013523,0.002678,0.000431,0.000940
30860000,0.0324,0.013523,0.002678,0.000431,0.000705
30861000,0.0324,0.013523,0.002678,0.000431,0.000940
30862000,0.0324,0.013523,0.002678,0.000431,0.000823
30863000,0.0324,0.013523,0.002678,0.000431,0.000823
30864000,0.0324,0.013523,0.002678,0.000431,0.000823
30865000,0.0324,0.013523,0.002678,0.000431,0.000823
30866000,0.0324,0.013523,0.002678,0.000431,0.000940
30867000,0.0324,0.013523,0.002678,0.000431,0.000705
30868000,0.0324,0.013523,0.002678,0.000431,0.000940
30869000,0.0324,0.013523,0.002678,0.000431,0.000705
30870000,0.0324,0.013523,0.002678,0.000431,0.000823
30871000,0.0324,0.013523,0.002678,0.000431,0.000940
30872000,0.0324,0.013523,0.002678,0.000431,0.000823
30873000,0.0324,0.013523,0.002678,0.000431,0.000823
30874000,0.0324,0.013523,0.002678,0.000431,0.000823
30875000,0.0324,0.013523,0.002678,0.000431,0.000823
30876000,0.0324,0.013523,0.002678,0.000431,0.000823
30877000,0.0324,0.013523,0.002678,0.000431,0.000940
30878000,0.0324,0.013523,0.002678,0.000431,0.000705
30879000,0.0324,0.013523,0.002678,0.000431,0.000940
30880000,0.0324,0.013523,0.002678,0.000431,0.000705
30881000,0.0324,0.013523,0.002678,0.000431,0.000940
30882000,0.0324,0.013523,0.002678,0.000431,0.000940
30883000,0.0324,0.013523,0.002678,0.000431,0.000705
30884000,0.0324,0.013523,0.002678,0.000431,0.000940
30885000,0.0324,0.013523,0.002678,0.000431,0.000705
30886000,0.0324,0.013523,0.002678,0.000431,0.000940
30887000,0.0324,0.013523,0.002678,0.000431,0.000823
30888000,0.0324,0.013523,0.002678,0.000431,0.000823
30889000,0.0324,0.013523,0.002678,0.000431,0.000823
30890000,0.0324,0.013523,0.002678,0.000431,0.000823
30891000,0.0324,0.013523,0.002678,0.000431,0.000940
30892000,0.0324,0.013523,0.002678,0.000431,0.000705
30893000,0.0324,0.013523,0.002678,0.000431,0.000940
30894000,0.0324,0.013523,0.002678,0.000431,0.000823
30895000,0.0324,0.013523,0.002678,0.000431,0.000823
30896000,0.0324,0.013523,0.002678,0.000431,0.000823
30897000,0.0324,0.013523,0.002678,0.000431,0.000823
30898000,0.0324,0.013523,0.002678,0.000431,0.000823
30899000,0.0324,0.013523,0.002678,0.000431,0.000823
30900000,0.0324,0.013523,0.002678,0.000431,0.000940
30901000,0.0324,0.013523,0.002678,0.000431,0.000705
30902000,0.0324,0.013523,0.002678,0.000431,0.000940
30903000,0.0324,0.013523,0.002678,0.000431,0.000705
30904000,0.0324,0.013523,0.002678,0.000431,0.000940
30905000,0.0324,0.013523,0.002678,0.000431,0.000940
30906000,0.0324,0.013523,0.002678,0.000431,0.000705
30907000,0.0324,0.013523,0.002678,0.000431,0.000940
30908000,0.0324,0.013523,0.002678,0.000431,0.000705
30909000,0.0324,0.013523,0.002678,0.000431,0.000940
30910000,0.0324,0.013523,0.002678,0.000431,0.000823
30911000,0.0324,0.013523,0.002678,0.000431,0.000823
30912000,0.0324,0.013523,0.002678,0.000431,0.000823
30913000,0.0324,0.013523,0.002678,0.000431,0.000823
30914000,0.0324,0.013523,0.002678,0.000431,0.000940
30915000,0.0324,0.013523,0.002678,0.000431,0.000705
30916000,0.0324,0.013523,0.002678,0.000431,0.000940
30917000,0.0324,0.013523,0.002678,0.000431,0.000823
30918000,0.0324,0.013523,0.002678,0.000431,0.000705
30919000,0.0324,0.013523,0.002678,0.000431,0.000940
30920000,0.0324,0.013523,0.002678,0.000431,0.000823
30921000,0.0324,0.013523,0.002678,0.000431,0.000823
30922000,0.0324,0.013523,0.002678,0.000431,0.000823
30923000,0.0324,0.013523,0.002678,0.000431,0.000823
30924000,0.0324,0.013523,0.002678,0.000431,0.000823
30925000,0.0324,0.013523,0.002678,0.000431,0.000940
30926000,0.0324,0.013523,0.002678,0.000431,0.000823
30927000,0.0324,0.013523,0.002678,0.000431,0.000823
30928000,0.0324,0.013523,0.002678,0.000431,0.000705
30929000,0.0324,0.013523,0.002678,0.000431,0.000940
30930000,0.0324,0.013523,0.002678,0.000431,0.000940
30931000,0.0324,0.013523,0.002678,0.000431,0.000705
30932000,0.0324,0.013523,0.002678,0.000431,0.000940
30933000,0.0324,0.013523,0.002678,0.000431,0.000705
30934000,0.0324,0.013523,0.002678,0.000431,0.014573
30935000,0.0324,0.013523,0.002678,0.000431,0.492678
30936000,0.0324,0.013523,0.002678,0.000431,0.594693
30937000,0.0324,0.013523,0.002678,0.000431,0.134452
30938000,0.0324,0.013523,0.002678,0.000431,0.131161
30939000,0.0324,0.013523,0.002678,0.000431,0.363515
30940000,0.0324,0.013523,0.002678,0.000431,0.482336
30941000,0.0324,0.013523,0.002678,0.000431,0.226007
30942000,0.0324,0.013523,0.002678,0.000431,0.353407
30943000,0.0324,0.013523,0.002678,0.000431,0.136803
30944000,0.0324,0.013523,0.002678,0.000431,0.142679
30945000,0.0324,0.013523,0.002678,0.000431,0.107186
30946000,0.0324,0.013523,0.002678,0.000431,0.355875
30947000,0.0324,0.013523,0.002678,0.000431,0.285241
30948000,0.0324,0.013523,0.002678,0.000431,0.087088
30949000,0.0324,0.013523,0.002678,0.000431,0.074395
30950000,0.0324,0.013523,0.002678,0.000431,0.054768
30951000,0.0324,0.013523,0.002678,0.000431,0.043368
30952000,0.0324,0.013523,0.002678,0.000431,0.037491
30953000,0.0324,0.013523,0.002678,0.000431,0.025269
30954000,0.0324,0.013523,0.002678,0.000431,0.027031
30955000,0.0324,0.013523,0.002678,0.000431,0.024328
30956000,0.0324,0.013523,0.002678,0.000431,0.026091
30957000,0.0324,0.013523,0.002678,0.000431,0.027267
30958000,0.0324,0.013523,0.002678,0.000431,0.023976
30959000,0.0324,0.013523,0.002678,0.000431,0.018922
30960000,0.0324,0.013523,0.002678,0.000431,0.019980
30961000,0.0324,0.013523,0.002678,0.000431,0.019392
30962000,0.0324,0.013523,0.002678,0.000431,0.016454
30963000,0.0324,0.013523,0.002678,0.000431,0.019745
30964000,0.0324,0.013523,0.002678,0.000431,0.012458
30965000,0.0324,0.013523,0.002678,0.000431,0.010813
30966000,0.0324,0.013523,0.002678,0.000431,0.010930
30967000,0.0324,0.013523,0.002678,0.000431,0.010342
30968000,0.0324,0.013523,0.002678,0.000431,0.010930
30969000,0.0324,0.013523,0.002678,0.000431,0.010342
30970000,0.0324,0.013523,0.002678,0.000431,0.013281
30971000,0.0324,0.013523,0.002678,0.000431,0.009872
30972000,0.0324,0.013523,0.002678,0.000431,0.007169
30973000,0.0324,0.013523,0.002678,0.000431,0.007757
30974000,0.0324,0.013523,0.002678,0.000431,0.007052
30975000,0.0324,0.013523,0.002678,0.000431,0.007169
30976000,0.0324,0.013523,0.002678,0.000431,0.008109
30977000,0.0324,0.013523,0.002678,0.000431,0.007287
30978000,0.0324,0.013523,0.002678,0.000431,0.007052
30979000,0.0324,0.013523,0.002678,0.000431,0.007522
30980000,0.0324,0.013523,0.002678,0.000431,0.007639
30981000,0.0324,0.013523,0.002678,0.000431,0.007404
30982000,0.0324,0.013523,0.002678,0.000431,0.006934
30983000,0.0324,0.013523,0.002678,0.000431,0.007639
30984000,0.0324,0.013523,0.002678,0.000431,0.007052
30985000,0.0324,0.013523,0.002678,0.000431,0.007639
30986000,0.0324,0.013523,0.002678,0.000431,0.007404
30987000,0.0324,0.013523,0.002678,0.000431,0.007522
30988000,0.0324,0.013523,0.002678,0.000431,0.007287
30989000,0.0324,0.013523,0.002678,0.000431,0.007522
30990000,0.0324,0.013523,0.002678,0.000431,0.007287
30991000,0.0324,0.013523,0.002678,0.000431,0.008227
30992000,0.0324,0.013523,0.002678,0.000431,0.008109
30993000,0.0324,0.013523,0.002678,0.000431,0.006229
30994000,0.0324,0.013523,0.002678,0.000431,0.006582
30995000,0.0324,0.013523,0.002678,0.000431,0.009167
30996000,0.0324,0.013523,0.002678,0.000431,0.005289
30997000,0.0324,0.013523,0.002678,0.000431,0.005289
30998000,0.0324,0.013523,0.002678,0.000431,0.006229
30999000,0.0324,0.013523,0.002678,0.000431,0.005641
