Cycle,Area(mm^2),PeakDynamic(W),SubthresholdLeakage(W),GateLeakage(W),RunTimeDynamic(W)
147000000,0.0324,0.013523,0.002678,0.000431,0.001410
147001000,0.0324,0.013523,0.002678,0.000431,0.001645
147002000,0.0324,0.013523,0.002678,0.000431,0.001880
147003000,0.0324,0.013523,0.002678,0.000431,0.001645
147004000,0.0324,0.013523,0.002678,0.000431,0.001410
147005000,0.0324,0.013523,0.002678,0.000431,0.001880
147006000,0.0324,0.013523,0.002678,0.000431,0.001645
147007000,0.0324,0.013523,0.002678,0.000431,0.001645
147008000,0.0324,0.013523,0.002678,0.000431,0.001410
147009000,0.0324,0.013523,0.002678,0.000431,0.001880
147010000,0.0324,0.013523,0.002678,0.000431,0.001645
147011000,0.0324,0.013523,0.002678,0.000431,0.001645
147012000,0.0324,0.013523,0.002678,0.000431,0.001645
147013000,0.0324,0.013523,0.002678,0.000431,0.001645
147014000,0.0324,0.013523,0.002678,0.000431,0.001645
147015000,0.0324,0.013523,0.002678,0.000431,0.001528
147016000,0.0324,0.013523,0.002678,0.000431,0.001763
147017000,0.0324,0.013523,0.002678,0.000431,0.001645
147018000,0.0324,0.013523,0.002678,0.000431,0.001645
147019000,0.0324,0.013523,0.002678,0.000431,0.001645
147020000,0.0324,0.013523,0.002678,0.000431,0.001645
147021000,0.0324,0.013523,0.002678,0.000431,0.001645
147022000,0.0324,0.013523,0.002678,0.000431,0.001645
147023000,0.0324,0.013523,0.002678,0.000431,0.001645
147024000,0.0324,0.013523,0.002678,0.000431,0.001880
147025000,0.0324,0.013523,0.002678,0.000431,0.001410
147026000,0.0324,0.013523,0.002678,0.000431,0.001645
147027000,0.0324,0.013523,0.002678,0.000431,0.001763
147028000,0.0324,0.013523,0.002678,0.000431,0.001528
147029000,0.0324,0.013523,0.002678,0.000431,0.001645
147030000,0.0324,0.013523,0.002678,0.000431,0.001645
147031000,0.0324,0.013523,0.002678,0.000431,0.001880
147032000,0.0324,0.013523,0.002678,0.000431,0.001410
147033000,0.0324,0.013523,0.002678,0.000431,0.001645
147034000,0.0324,0.013523,0.002678,0.000431,0.001880
147035000,0.0324,0.013523,0.002678,0.000431,0.001645
147036000,0.0324,0.013523,0.002678,0.000431,0.001410
147037000,0.0324,0.013523,0.002678,0.000431,0.001645
147038000,0.0324,0.013523,0.002678,0.000431,0.001880
147039000,0.0324,0.013523,0.002678,0.000431,0.001645
147040000,0.0324,0.013523,0.002678,0.000431,0.001410
147041000,0.0324,0.013523,0.002678,0.000431,0.001880
147042000,0.0324,0.013523,0.002678,0.000431,0.001645
147043000,0.0324,0.013523,0.002678,0.000431,0.001645
147044000,0.0324,0.013523,0.002678,0.000431,0.001293
147045000,0.0324,0.013523,0.002678,0.000431,0.001763
147046000,0.0324,0.013523,0.002678,0.000431,0.001645
147047000,0.0324,0.013523,0.002678,0.000431,0.001763
147048000,0.0324,0.013523,0.002678,0.000431,0.001528
147049000,0.0324,0.013523,0.002678,0.000431,0.001645
147050000,0.0324,0.013523,0.002678,0.000431,0.001528
147051000,0.0324,0.013523,0.002678,0.000431,0.001763
147052000,0.0324,0.013523,0.002678,0.000431,0.001645
147053000,0.0324,0.013523,0.002678,0.000431,0.001410
147054000,0.0324,0.013523,0.002678,0.000431,0.001645
147055000,0.0324,0.013523,0.002678,0.000431,0.001880
147056000,0.0324,0.013523,0.002678,0.000431,0.001645
147057000,0.0324,0.013523,0.002678,0.000431,0.001410
147058000,0.0324,0.013523,0.002678,0.000431,0.001880
147059000,0.0324,0.013523,0.002678,0.000431,0.001645
147060000,0.0324,0.013523,0.002678,0.000431,0.001645
147061000,0.0324,0.013523,0.002678,0.000431,0.001528
147062000,0.0324,0.013523,0.002678,0.000431,0.001763
147063000,0.0324,0.013523,0.002678,0.000431,0.001645
147064000,0.0324,0.013523,0.002678,0.000431,0.001645
147065000,0.0324,0.013523,0.002678,0.000431,0.001645
147066000,0.0324,0.013523,0.002678,0.000431,0.001645
147067000,0.0324,0.013523,0.002678,0.000431,0.001645
147068000,0.0324,0.013523,0.002678,0.000431,0.001645
147069000,0.0324,0.013523,0.002678,0.000431,0.001645
147070000,0.0324,0.013523,0.002678,0.000431,0.001645
147071000,0.0324,0.013523,0.002678,0.000431,0.001645
147072000,0.0324,0.013523,0.002678,0.000431,0.001645
147073000,0.0324,0.013523,0.002678,0.000431,0.001763
147074000,0.0324,0.013523,0.002678,0.000431,0.001528
147075000,0.0324,0.013523,0.002678,0.000431,0.001645
147076000,0.0324,0.013523,0.002678,0.000431,0.001645
147077000,0.0324,0.013523,0.002678,0.000431,0.001880
147078000,0.0324,0.013523,0.002678,0.000431,0.001293
147079000,0.0324,0.013523,0.002678,0.000431,0.001763
147080000,0.0324,0.013523,0.002678,0.000431,0.001880
147081000,0.0324,0.013523,0.002678,0.000431,0.001410
147082000,0.0324,0.013523,0.002678,0.000431,0.001645
147083000,0.0324,0.013523,0.002678,0.000431,0.001645
147084000,0.0324,0.013523,0.002678,0.000431,0.001880
147085000,0.0324,0.013523,0.002678,0.000431,0.001410
147086000,0.0324,0.013523,0.002678,0.000431,0.001645
147087000,0.0324,0.013523,0.002678,0.000431,0.001880
147088000,0.0324,0.013523,0.002678,0.000431,0.001645
147089000,0.0324,0.013523,0.002678,0.000431,0.001410
147090000,0.0324,0.013523,0.002678,0.000431,0.001763
147091000,0.0324,0.013523,0.002678,0.000431,0.001763
147092000,0.0324,0.013523,0.002678,0.000431,0.001645
147093000,0.0324,0.013523,0.002678,0.000431,0.001410
147094000,0.0324,0.013523,0.002678,0.000431,0.001880
147095000,0.0324,0.013523,0.002678,0.000431,0.001645
147096000,0.0324,0.013523,0.002678,0.000431,0.001645
147097000,0.0324,0.013523,0.002678,0.000431,0.001645
147098000,0.0324,0.013523,0.002678,0.000431,0.001645
147099000,0.0324,0.013523,0.002678,0.000431,0.001645
147100000,0.0324,0.013523,0.002678,0.000431,0.001410
147101000,0.0324,0.013523,0.002678,0.000431,0.001880
147102000,0.0324,0.013523,0.002678,0.000431,0.001645
147103000,0.0324,0.013523,0.002678,0.000431,0.001645
147104000,0.0324,0.013523,0.002678,0.000431,0.001645
147105000,0.0324,0.013523,0.002678,0.000431,0.001645
147106000,0.0324,0.013523,0.002678,0.000431,0.001645
147107000,0.0324,0.013523,0.002678,0.000431,0.001528
147108000,0.0324,0.013523,0.002678,0.000431,0.001763
147109000,0.0324,0.013523,0.002678,0.000431,0.001763
147110000,0.0324,0.013523,0.002678,0.000431,0.001528
147111000,0.0324,0.013523,0.002678,0.000431,0.001645
147112000,0.0324,0.013523,0.002678,0.000431,0.001645
147113000,0.0324,0.013523,0.002678,0.000431,0.001645
147114000,0.0324,0.013523,0.002678,0.000431,0.001645
147115000,0.0324,0.013523,0.002678,0.000431,0.001645
147116000,0.0324,0.013523,0.002678,0.000431,0.001880
147117000,0.0324,0.013523,0.002678,0.000431,0.001410
147118000,0.0324,0.013523,0.002678,0.000431,0.001645
147119000,0.0324,0.013523,0.002678,0.000431,0.001763
147120000,0.0324,0.013523,0.002678,0.000431,0.001528
147121000,0.0324,0.013523,0.002678,0.000431,0.001645
147122000,0.0324,0.013523,0.002678,0.000431,0.001645
147123000,0.0324,0.013523,0.002678,0.000431,0.001410
147124000,0.0324,0.013523,0.002678,0.000431,0.001645
147125000,0.0324,0.013523,0.002678,0.000431,0.001880
147126000,0.0324,0.013523,0.002678,0.000431,0.001645
147127000,0.0324,0.013523,0.002678,0.000431,0.001175
147128000,0.0324,0.013523,0.002678,0.000431,0.000823
147129000,0.0324,0.013523,0.002678,0.000431,0.000940
147130000,0.0324,0.013523,0.002678,0.000431,0.000823
147131000,0.0324,0.013523,0.002678,0.000431,0.002116
147132000,0.0324,0.013523,0.002678,0.000431,0.509132
147133000,0.0324,0.013523,0.002678,0.000431,0.761465
147134000,0.0324,0.013523,0.002678,0.000431,0.155137
147135000,0.0324,0.013523,0.002678,0.000431,0.135863
147136000,0.0324,0.013523,0.002678,0.000431,0.488800
147137000,0.0324,0.013523,0.002678,0.000431,0.243989
147138000,0.0324,0.013523,0.002678,0.000431,0.292058
147139000,0.0324,0.013523,0.002678,0.000431,0.271255
147140000,0.0324,0.013523,0.002678,0.000431,0.155255
147141000,0.0324,0.013523,0.002678,0.000431,0.144325
147142000,0.0324,0.013523,0.002678,0.000431,0.240463
147143000,0.0324,0.013523,0.002678,0.000431,0.471993
147144000,0.0324,0.013523,0.002678,0.000431,0.188163
147145000,0.0324,0.013523,0.002678,0.000431,0.168418
147146000,0.0324,0.013523,0.002678,0.000431,0.137626
147147000,0.0324,0.013523,0.002678,0.000431,0.123757
147148000,0.0324,0.013523,0.002678,0.000431,0.110241
147149000,0.0324,0.013523,0.002678,0.000431,0.084855
147150000,0.0324,0.013523,0.002678,0.000431,0.073220
147151000,0.0324,0.013523,0.002678,0.000431,0.064170
147152000,0.0324,0.013523,0.002678,0.000431,0.068166
147153000,0.0324,0.013523,0.002678,0.000431,0.053240
147154000,0.0324,0.013523,0.002678,0.000431,0.044661
147155000,0.0324,0.013523,0.002678,0.000431,0.046541
147156000,0.0324,0.013523,0.002678,0.000431,0.036904
147157000,0.0324,0.013523,0.002678,0.000431,0.040077
147158000,0.0324,0.013523,0.002678,0.000431,0.037491
147159000,0.0324,0.013523,0.002678,0.000431,0.029970
147160000,0.0324,0.013523,0.002678,0.000431,0.032673
147161000,0.0324,0.013523,0.002678,0.000431,0.026444
147162000,0.0324,0.013523,0.002678,0.000431,0.029029
147163000,0.0324,0.013523,0.002678,0.000431,0.027502
147164000,0.0324,0.013523,0.002678,0.000431,0.026091
147165000,0.0324,0.013523,0.002678,0.000431,0.035846
147166000,0.0324,0.013523,0.002678,0.000431,0.022683
147167000,0.0324,0.013523,0.002678,0.000431,0.025504
147168000,0.0324,0.013523,0.002678,0.000431,0.024681
147169000,0.0324,0.013523,0.002678,0.000431,0.029970
147170000,0.0324,0.013523,0.002678,0.000431,0.023623
147171000,0.0324,0.013523,0.002678,0.000431,0.022565
147172000,0.0324,0.013523,0.002678,0.000431,0.024211
147173000,0.0324,0.013523,0.002678,0.000431,0.021508
147174000,0.0324,0.013523,0.002678,0.000431,0.024211
147175000,0.0324,0.013523,0.002678,0.000431,0.022683
147176000,0.0324,0.013523,0.002678,0.000431,0.019745
147177000,0.0324,0.013523,0.002678,0.000431,0.017277
147178000,0.0324,0.013523,0.002678,0.000431,0.016689
147179000,0.0324,0.013523,0.002678,0.000431,0.018334
147180000,0.0324,0.013523,0.002678,0.000431,0.018217
147181000,0.0324,0.013523,0.002678,0.000431,0.021508
147182000,0.0324,0.013523,0.002678,0.000431,0.014103
147183000,0.0324,0.013523,0.002678,0.000431,0.015044
147184000,0.0324,0.013523,0.002678,0.000431,0.014573
147185000,0.0324,0.013523,0.002678,0.000431,0.016101
147186000,0.0324,0.013523,0.002678,0.000431,0.014103
147187000,0.0324,0.013523,0.002678,0.000431,0.016219
147188000,0.0324,0.013523,0.002678,0.000431,0.017629
147189000,0.0324,0.013523,0.002678,0.000431,0.013751
147190000,0.0324,0.013523,0.002678,0.000431,0.006817
147191000,0.0324,0.013523,0.002678,0.000431,0.006582
147192000,0.0324,0.013523,0.002678,0.000431,0.006464
147193000,0.0324,0.013523,0.002678,0.000431,0.006582
147194000,0.0324,0.013523,0.002678,0.000431,0.006347
147195000,0.0324,0.013523,0.002678,0.000431,0.006699
147196000,0.0324,0.013523,0.002678,0.000431,0.010342
147197000,0.0324,0.013523,0.002678,0.000431,0.005054
147198000,0.0324,0.013523,0.002678,0.000431,0.004819
147199000,0.0324,0.013523,0.002678,0.000431,0.005289
147200000,0.0324,0.013523,0.002678,0.000431,0.004701
147201000,0.0324,0.013523,0.002678,0.000431,0.004936
147202000,0.0324,0.013523,0.002678,0.000431,0.004584
147203000,0.0324,0.013523,0.002678,0.000431,0.005171
147204000,0.0324,0.013523,0.002678,0.000431,0.005289
147205000,0.0324,0.013523,0.002678,0.000431,0.004584
147206000,0.0324,0.013523,0.002678,0.000431,0.005171
147207000,0.0324,0.013523,0.002678,0.000431,0.005524
147208000,0.0324,0.013523,0.002678,0.000431,0.005171
147209000,0.0324,0.013523,0.002678,0.000431,0.004231
147210000,0.0324,0.013523,0.002678,0.000431,0.003761
147211000,0.0324,0.013523,0.002678,0.000431,0.004349
147212000,0.0324,0.013523,0.002678,0.000431,0.004349
147213000,0.0324,0.013523,0.002678,0.000431,0.003643
147214000,0.0324,0.013523,0.002678,0.000431,0.004231
147215000,0.0324,0.013523,0.002678,0.000431,0.004113
147216000,0.0324,0.013523,0.002678,0.000431,0.004113
147217000,0.0324,0.013523,0.002678,0.000431,0.004113
147218000,0.0324,0.013523,0.002678,0.000431,0.004113
147219000,0.0324,0.013523,0.002678,0.000431,0.003996
147220000,0.0324,0.013523,0.002678,0.000431,0.003996
147221000,0.0324,0.013523,0.002678,0.000431,0.004349
147222000,0.0324,0.013523,0.002678,0.000431,0.003878
147223000,0.0324,0.013523,0.002678,0.000431,0.004113
147224000,0.0324,0.013523,0.002678,0.000431,0.004349
147225000,0.0324,0.013523,0.002678,0.000431,0.003761
147226000,0.0324,0.013523,0.002678,0.000431,0.006934
147227000,0.0324,0.013523,0.002678,0.000431,0.003173
147228000,0.0324,0.013523,0.002678,0.000431,0.003173
147229000,0.0324,0.013523,0.002678,0.000431,0.003526
147230000,0.0324,0.013523,0.002678,0.000431,0.003056
147231000,0.0324,0.013523,0.002678,0.000431,0.003291
147232000,0.0324,0.013523,0.002678,0.000431,0.003408
147233000,0.0324,0.013523,0.002678,0.000431,0.003173
147234000,0.0324,0.013523,0.002678,0.000431,0.003291
147235000,0.0324,0.013523,0.002678,0.000431,0.003173
147236000,0.0324,0.013523,0.002678,0.000431,0.003173
147237000,0.0324,0.013523,0.002678,0.000431,0.003526
147238000,0.0324,0.013523,0.002678,0.000431,0.003056
147239000,0.0324,0.013523,0.002678,0.000431,0.003291
147240000,0.0324,0.013523,0.002678,0.000431,0.003291
147241000,0.0324,0.013523,0.002678,0.000431,0.003291
147242000,0.0324,0.013523,0.002678,0.000431,0.003291
147243000,0.0324,0.013523,0.002678,0.000431,0.003056
147244000,0.0324,0.013523,0.002678,0.000431,0.003526
147245000,0.0324,0.013523,0.002678,0.000431,0.003056
147246000,0.0324,0.013523,0.002678,0.000431,0.003291
147247000,0.0324,0.013523,0.002678,0.000431,0.003526
147248000,0.0324,0.013523,0.002678,0.000431,0.002938
147249000,0.0324,0.013523,0.002678,0.000431,0.003408
147250000,0.0324,0.013523,0.002678,0.000431,0.003056
147251000,0.0324,0.013523,0.002678,0.000431,0.003291
147252000,0.0324,0.013523,0.002678,0.000431,0.003526
147253000,0.0324,0.013523,0.002678,0.000431,0.003056
147254000,0.0324,0.013523,0.002678,0.000431,0.003291
147255000,0.0324,0.013523,0.002678,0.000431,0.003291
147256000,0.0324,0.013523,0.002678,0.000431,0.003291
147257000,0.0324,0.013523,0.002678,0.000431,0.003291
147258000,0.0324,0.013523,0.002678,0.000431,0.002938
147259000,0.0324,0.013523,0.002678,0.000431,0.003408
147260000,0.0324,0.013523,0.002678,0.000431,0.003526
147261000,0.0324,0.013523,0.002678,0.000431,0.003056
147262000,0.0324,0.013523,0.002678,0.000431,0.003526
147263000,0.0324,0.013523,0.002678,0.000431,0.002938
147264000,0.0324,0.013523,0.002678,0.000431,0.003643
147265000,0.0324,0.013523,0.002678,0.000431,0.003291
147266000,0.0324,0.013523,0.002678,0.000431,0.003173
147267000,0.0324,0.013523,0.002678,0.000431,0.003173
147268000,0.0324,0.013523,0.002678,0.000431,0.003408
147269000,0.0324,0.013523,0.002678,0.000431,0.003408
147270000,0.0324,0.013523,0.002678,0.000431,0.003878
147271000,0.0324,0.013523,0.002678,0.000431,0.002116
147272000,0.0324,0.013523,0.002678,0.000431,0.002821
147273000,0.0324,0.013523,0.002678,0.000431,0.002351
147274000,0.0324,0.013523,0.002678,0.000431,0.002351
147275000,0.0324,0.013523,0.002678,0.000431,0.002586
147276000,0.0324,0.013523,0.002678,0.000431,0.002116
147277000,0.0324,0.013523,0.002678,0.000431,0.002586
147278000,0.0324,0.013523,0.002678,0.000431,0.002468
147279000,0.0324,0.013523,0.002678,0.000431,0.002233
147280000,0.0324,0.013523,0.002678,0.000431,0.002586
147281000,0.0324,0.013523,0.002678,0.000431,0.002351
147282000,0.0324,0.013523,0.002678,0.000431,0.002351
147283000,0.0324,0.013523,0.002678,0.000431,0.002703
147284000,0.0324,0.013523,0.002678,0.000431,0.002233
147285000,0.0324,0.013523,0.002678,0.000431,0.002351
147286000,0.0324,0.013523,0.002678,0.000431,0.002233
147287000,0.0324,0.013523,0.002678,0.000431,0.002468
147288000,0.0324,0.013523,0.002678,0.000431,0.004936
147289000,0.0324,0.013523,0.002678,0.000431,0.001293
147290000,0.0324,0.013523,0.002678,0.000431,0.001880
147291000,0.0324,0.013523,0.002678,0.000431,0.001293
147292000,0.0324,0.013523,0.002678,0.000431,0.001763
147293000,0.0324,0.013523,0.002678,0.000431,0.001645
147294000,0.0324,0.013523,0.002678,0.000431,0.001410
147295000,0.0324,0.013523,0.002678,0.000431,0.001645
147296000,0.0324,0.013523,0.002678,0.000431,0.001528
147297000,0.0324,0.013523,0.002678,0.000431,0.001763
147298000,0.0324,0.013523,0.002678,0.000431,0.001410
147299000,0.0324,0.013523,0.002678,0.000431,0.001645
147300000,0.0324,0.013523,0.002678,0.000431,0.001645
147301000,0.0324,0.013523,0.002678,0.000431,0.001528
147302000,0.0324,0.013523,0.002678,0.000431,0.001528
147303000,0.0324,0.013523,0.002678,0.000431,0.001645
147304000,0.0324,0.013523,0.002678,0.000431,0.001410
147305000,0.0324,0.013523,0.002678,0.000431,0.001645
147306000,0.0324,0.013523,0.002678,0.000431,0.001528
147307000,0.0324,0.013523,0.002678,0.000431,0.001528
147308000,0.0324,0.013523,0.002678,0.000431,0.001880
147309000,0.0324,0.013523,0.002678,0.000431,0.000823
147310000,0.0324,0.013523,0.002678,0.000431,0.000823
147311000,0.0324,0.013523,0.002678,0.000431,0.000823
147312000,0.0324,0.013523,0.002678,0.000431,0.245869
147313000,0.0324,0.013523,0.002678,0.000431,0.696119
147314000,0.0324,0.013523,0.002678,0.000431,0.436147
147315000,0.0324,0.013523,0.002678,0.000431,0.137273
147316000,0.0324,0.013523,0.002678,0.000431,0.293350
147317000,0.0324,0.013523,0.002678,0.000431,0.502433
147318000,0.0324,0.013523,0.002678,0.000431,0.300755
147319000,0.0324,0.013523,0.002678,0.000431,0.287591
147320000,0.0324,0.013523,0.002678,0.000431,0.148086
147321000,0.0324,0.013523,0.002678,0.000431,0.139036
147322000,0.0324,0.013523,0.002678,0.000431,0.241873
147323000,0.0324,0.013523,0.002678,0.000431,0.475637
147324000,0.0324,0.013523,0.002678,0.000431,0.160779
147325000,0.0324,0.013523,0.002678,0.000431,0.162659
147326000,0.0324,0.013523,0.002678,0.000431,0.149261
147327000,0.0324,0.013523,0.002678,0.000431,0.111182
147328000,0.0324,0.013523,0.002678,0.000431,0.106010
147329000,0.0324,0.013523,0.002678,0.000431,0.082505
147330000,0.0324,0.013523,0.002678,0.000431,0.072632
147331000,0.0324,0.013523,0.002678,0.000431,0.058176
147332000,0.0324,0.013523,0.002678,0.000431,0.054651
147333000,0.0324,0.013523,0.002678,0.000431,0.043838
147334000,0.0324,0.013523,0.002678,0.000431,0.038314
147335000,0.0324,0.013523,0.002678,0.000431,0.038902
147336000,0.0324,0.013523,0.002678,0.000431,0.036669
147337000,0.0324,0.013523,0.002678,0.000431,0.028677
147338000,0.0324,0.013523,0.002678,0.000431,0.027149
147339000,0.0324,0.013523,0.002678,0.000431,0.028912
147340000,0.0324,0.013523,0.002678,0.000431,0.026326
147341000,0.0324,0.013523,0.002678,0.000431,0.022918
147342000,0.0324,0.013523,0.002678,0.000431,0.021743
147343000,0.0324,0.013523,0.002678,0.000431,0.019745
147344000,0.0324,0.013523,0.002678,0.000431,0.023506
147345000,0.0324,0.013523,0.002678,0.000431,0.019040
147346000,0.0324,0.013523,0.002678,0.000431,0.021038
147347000,0.0324,0.013523,0.002678,0.000431,0.017747
147348000,0.0324,0.013523,0.002678,0.000431,0.017864
147349000,0.0324,0.013523,0.002678,0.000431,0.015044
147350000,0.0324,0.013523,0.002678,0.000431,0.014691
147351000,0.0324,0.013523,0.002678,0.000431,0.016336
147352000,0.0324,0.013523,0.002678,0.000431,0.012458
147353000,0.0324,0.013523,0.002678,0.000431,0.013281
147354000,0.0324,0.013523,0.002678,0.000431,0.010930
147355000,0.0324,0.013523,0.002678,0.000431,0.011400
147356000,0.0324,0.013523,0.002678,0.000431,0.010578
147357000,0.0324,0.013523,0.002678,0.000431,0.011165
147358000,0.0324,0.013523,0.002678,0.000431,0.010225
147359000,0.0324,0.013523,0.002678,0.000431,0.010460
147360000,0.0324,0.013523,0.002678,0.000431,0.012693
147361000,0.0324,0.013523,0.002678,0.000431,0.008462
147362000,0.0324,0.013523,0.002678,0.000431,0.010342
147363000,0.0324,0.013523,0.002678,0.000431,0.008815
147364000,0.0324,0.013523,0.002678,0.000431,0.009755
147365000,0.0324,0.013523,0.002678,0.000431,0.009520
147366000,0.0324,0.013523,0.002678,0.000431,0.009050
147367000,0.0324,0.013523,0.002678,0.000431,0.010342
147368000,0.0324,0.013523,0.002678,0.000431,0.011283
147369000,0.0324,0.013523,0.002678,0.000431,0.008932
147370000,0.0324,0.013523,0.002678,0.000431,0.008580
147371000,0.0324,0.013523,0.002678,0.000431,0.008345
147372000,0.0324,0.013523,0.002678,0.000431,0.008462
147373000,0.0324,0.013523,0.002678,0.000431,0.008580
147374000,0.0324,0.013523,0.002678,0.000431,0.008462
147375000,0.0324,0.013523,0.002678,0.000431,0.008932
147376000,0.0324,0.013523,0.002678,0.000431,0.008345
147377000,0.0324,0.013523,0.002678,0.000431,0.008580
147378000,0.0324,0.013523,0.002678,0.000431,0.008580
147379000,0.0324,0.013523,0.002678,0.000431,0.011870
147380000,0.0324,0.013523,0.002678,0.000431,0.009755
147381000,0.0324,0.013523,0.002678,0.000431,0.006699
147382000,0.0324,0.013523,0.002678,0.000431,0.007287
147383000,0.0324,0.013523,0.002678,0.000431,0.006347
147384000,0.0324,0.013523,0.002678,0.000431,0.007052
147385000,0.0324,0.013523,0.002678,0.000431,0.007052
147386000,0.0324,0.013523,0.002678,0.000431,0.006582
147387000,0.0324,0.013523,0.002678,0.000431,0.007287
147388000,0.0324,0.013523,0.002678,0.000431,0.006464
147389000,0.0324,0.013523,0.002678,0.000431,0.006464
147390000,0.0324,0.013523,0.002678,0.000431,0.007639
147391000,0.0324,0.013523,0.002678,0.000431,0.006464
147392000,0.0324,0.013523,0.002678,0.000431,0.006699
147393000,0.0324,0.013523,0.002678,0.000431,0.005641
147394000,0.0324,0.013523,0.002678,0.000431,0.007052
147395000,0.0324,0.013523,0.002678,0.000431,0.006464
147396000,0.0324,0.013523,0.002678,0.000431,0.004936
147397000,0.0324,0.013523,0.002678,0.000431,0.004936
147398000,0.0324,0.013523,0.002678,0.000431,0.004936
147399000,0.0324,0.013523,0.002678,0.000431,0.005406
147400000,0.0324,0.013523,0.002678,0.000431,0.004466
147401000,0.0324,0.013523,0.002678,0.000431,0.006229
147402000,0.0324,0.013523,0.002678,0.000431,0.004231
147403000,0.0324,0.013523,0.002678,0.000431,0.004466
147404000,0.0324,0.013523,0.002678,0.000431,0.003761
147405000,0.0324,0.013523,0.002678,0.000431,0.004231
147406000,0.0324,0.013523,0.002678,0.000431,0.004113
147407000,0.0324,0.013523,0.002678,0.000431,0.004349
147408000,0.0324,0.013523,0.002678,0.000431,0.004231
147409000,0.0324,0.013523,0.002678,0.000431,0.003878
147410000,0.0324,0.013523,0.002678,0.000431,0.004584
147411000,0.0324,0.013523,0.002678,0.000431,0.003761
147412000,0.0324,0.013523,0.002678,0.000431,0.004231
147413000,0.0324,0.013523,0.002678,0.000431,0.004584
147414000,0.0324,0.013523,0.002678,0.000431,0.003878
147415000,0.0324,0.013523,0.002678,0.000431,0.004113
147416000,0.0324,0.013523,0.002678,0.000431,0.004113
147417000,0.0324,0.013523,0.002678,0.000431,0.004349
147418000,0.0324,0.013523,0.002678,0.000431,0.004113
147419000,0.0324,0.013523,0.002678,0.000431,0.003996
147420000,0.0324,0.013523,0.002678,0.000431,0.004231
147421000,0.0324,0.013523,0.002678,0.000431,0.003996
147422000,0.0324,0.013523,0.002678,0.000431,0.003408
147423000,0.0324,0.013523,0.002678,0.000431,0.004349
147424000,0.0324,0.013523,0.002678,0.000431,0.004231
147425000,0.0324,0.013523,0.002678,0.000431,0.002351
147426000,0.0324,0.013523,0.002678,0.000431,0.002586
147427000,0.0324,0.013523,0.002678,0.000431,0.002351
147428000,0.0324,0.013523,0.002678,0.000431,0.002586
147429000,0.0324,0.013523,0.002678,0.000431,0.002468
147430000,0.0324,0.013523,0.002678,0.000431,0.002468
147431000,0.0324,0.013523,0.002678,0.000431,0.002703
147432000,0.0324,0.013523,0.002678,0.000431,0.002233
147433000,0.0324,0.013523,0.002678,0.000431,0.002821
147434000,0.0324,0.013523,0.002678,0.000431,0.002116
147435000,0.0324,0.013523,0.002678,0.000431,0.002821
147436000,0.0324,0.013523,0.002678,0.000431,0.002703
147437000,0.0324,0.013523,0.002678,0.000431,0.002233
147438000,0.0324,0.013523,0.002678,0.000431,0.002703
147439000,0.0324,0.013523,0.002678,0.000431,0.002233
147440000,0.0324,0.013523,0.002678,0.000431,0.002703
147441000,0.0324,0.013523,0.002678,0.000431,0.002468
147442000,0.0324,0.013523,0.002678,0.000431,0.002468
147443000,0.0324,0.013523,0.002678,0.000431,0.002468
147444000,0.0324,0.013523,0.002678,0.000431,0.002586
147445000,0.0324,0.013523,0.002678,0.000431,0.002703
147446000,0.0324,0.013523,0.002678,0.000431,0.002233
147447000,0.0324,0.013523,0.002678,0.000431,0.002586
147448000,0.0324,0.013523,0.002678,0.000431,0.002586
147449000,0.0324,0.013523,0.002678,0.000431,0.002586
147450000,0.0324,0.013523,0.002678,0.000431,0.002351
147451000,0.0324,0.013523,0.002678,0.000431,0.002586
147452000,0.0324,0.013523,0.002678,0.000431,0.002468
147453000,0.0324,0.013523,0.002678,0.000431,0.002468
147454000,0.0324,0.013523,0.002678,0.000431,0.002468
147455000,0.0324,0.013523,0.002678,0.000431,0.002468
147456000,0.0324,0.013523,0.002678,0.000431,0.002821
147457000,0.0324,0.013523,0.002678,0.000431,0.002351
147458000,0.0324,0.013523,0.002678,0.000431,0.002586
147459000,0.0324,0.013523,0.002678,0.000431,0.002233
147460000,0.0324,0.013523,0.002678,0.000431,0.002703
147461000,0.0324,0.013523,0.002678,0.000431,0.002703
147462000,0.0324,0.013523,0.002678,0.000431,0.002233
147463000,0.0324,0.013523,0.002678,0.000431,0.002703
147464000,0.0324,0.013523,0.002678,0.000431,0.002233
147465000,0.0324,0.013523,0.002678,0.000431,0.002821
147466000,0.0324,0.013523,0.002678,0.000431,0.002351
147467000,0.0324,0.013523,0.002678,0.000431,0.002586
147468000,0.0324,0.013523,0.002678,0.000431,0.002703
147469000,0.0324,0.013523,0.002678,0.000431,0.002233
147470000,0.0324,0.013523,0.002678,0.000431,0.002586
147471000,0.0324,0.013523,0.002678,0.000431,0.002586
147472000,0.0324,0.013523,0.002678,0.000431,0.002586
147473000,0.0324,0.013523,0.002678,0.000431,0.002351
147474000,0.0324,0.013523,0.002678,0.000431,0.002586
147475000,0.0324,0.013523,0.002678,0.000431,0.002351
147476000,0.0324,0.013523,0.002678,0.000431,0.002586
147477000,0.0324,0.013523,0.002678,0.000431,0.002703
147478000,0.0324,0.013523,0.002678,0.000431,0.002233
147479000,0.0324,0.013523,0.002678,0.000431,0.002821
147480000,0.0324,0.013523,0.002678,0.000431,0.002351
147481000,0.0324,0.013523,0.002678,0.000431,0.002586
147482000,0.0324,0.013523,0.002678,0.000431,0.002351
147483000,0.0324,0.013523,0.002678,0.000431,0.002586
147484000,0.0324,0.013523,0.002678,0.000431,0.002703
147485000,0.0324,0.013523,0.002678,0.000431,0.002233
147486000,0.0324,0.013523,0.002678,0.000431,0.002703
147487000,0.0324,0.013523,0.002678,0.000431,0.002233
147488000,0.0324,0.013523,0.002678,0.000431,0.006111
147489000,0.0324,0.013523,0.002678,0.000431,0.001058
147490000,0.0324,0.013523,0.002678,0.000431,0.000705
147491000,0.0324,0.013523,0.002678,0.000431,0.000940
147492000,0.0324,0.013523,0.002678,0.000431,0.000823
147493000,0.0324,0.013523,0.002678,0.000431,0.000823
147494000,0.0324,0.013523,0.002678,0.000431,0.000823
147495000,0.0324,0.013523,0.002678,0.000431,0.000823
147496000,0.0324,0.013523,0.002678,0.000431,0.000823
147497000,0.0324,0.013523,0.002678,0.000431,0.000940
147498000,0.0324,0.013523,0.002678,0.000431,0.000705
147499000,0.0324,0.013523,0.002678,0.000431,0.000823
147500000,0.0324,0.013523,0.002678,0.000431,0.000940
147501000,0.0324,0.013523,0.002678,0.000431,0.000823
147502000,0.0324,0.013523,0.002678,0.000431,0.000823
147503000,0.0324,0.013523,0.002678,0.000431,0.000823
147504000,0.0324,0.013523,0.002678,0.000431,0.000705
147505000,0.0324,0.013523,0.002678,0.000431,0.000940
147506000,0.0324,0.013523,0.002678,0.000431,0.000705
147507000,0.0324,0.013523,0.002678,0.000431,0.000940
147508000,0.0324,0.013523,0.002678,0.000431,0.000823
147509000,0.0324,0.013523,0.002678,0.000431,0.000823
147510000,0.0324,0.013523,0.002678,0.000431,0.000940
147511000,0.0324,0.013523,0.002678,0.000431,0.000705
147512000,0.0324,0.013523,0.002678,0.000431,0.000705
147513000,0.0324,0.013523,0.002678,0.000431,0.000940
147514000,0.0324,0.013523,0.002678,0.000431,0.000940
147515000,0.0324,0.013523,0.002678,0.000431,0.000705
147516000,0.0324,0.013523,0.002678,0.000431,0.000940
147517000,0.0324,0.013523,0.002678,0.000431,0.000705
147518000,0.0324,0.013523,0.002678,0.000431,0.000940
147519000,0.0324,0.013523,0.002678,0.000431,0.000940
147520000,0.0324,0.013523,0.002678,0.000431,0.099194
147521000,0.0324,0.013523,0.002678,0.000431,0.738665
147522000,0.0324,0.013523,0.002678,0.000431,0.523823
147523000,0.0324,0.013523,0.002678,0.000431,0.135863
147524000,0.0324,0.013523,0.002678,0.000431,0.143619
147525000,0.0324,0.013523,0.002678,0.000431,0.551560
147526000,0.0324,0.013523,0.002678,0.000431,0.242461
147527000,0.0324,0.013523,0.002678,0.000431,0.356816
147528000,0.0324,0.013523,0.002678,0.000431,0.165010
147529000,0.0324,0.013523,0.002678,0.000431,0.169828
147530000,0.0324,0.013523,0.002678,0.000431,0.098019
147531000,0.0324,0.013523,0.002678,0.000431,0.508192
147532000,0.0324,0.013523,0.002678,0.000431,0.272783
147533000,0.0324,0.013523,0.002678,0.000431,0.184637
147534000,0.0324,0.013523,0.002678,0.000431,0.161366
147535000,0.0324,0.013523,0.002678,0.000431,0.125403
147536000,0.0324,0.013523,0.002678,0.000431,0.119526
147537000,0.0324,0.013523,0.002678,0.000431,0.107773
147538000,0.0324,0.013523,0.002678,0.000431,0.109301
147539000,0.0324,0.013523,0.002678,0.000431,0.079096
147540000,0.0324,0.013523,0.002678,0.000431,0.077098
147541000,0.0324,0.013523,0.002678,0.000431,0.060174
147542000,0.0324,0.013523,0.002678,0.000431,0.062172
147543000,0.0324,0.013523,0.002678,0.000431,0.053945
147544000,0.0324,0.013523,0.002678,0.000431,0.047246
147545000,0.0324,0.013523,0.002678,0.000431,0.051007
147546000,0.0324,0.013523,0.002678,0.000431,0.044661
147547000,0.0324,0.013523,0.002678,0.000431,0.035376
147548000,0.0324,0.013523,0.002678,0.000431,0.032790
147549000,0.0324,0.013523,0.002678,0.000431,0.029735
147550000,0.0324,0.013523,0.002678,0.000431,0.036316
147551000,0.0324,0.013523,0.002678,0.000431,0.023623
147552000,0.0324,0.013523,0.002678,0.000431,0.025621
147553000,0.0324,0.013523,0.002678,0.000431,0.023506
147554000,0.0324,0.013523,0.002678,0.000431,0.023036
147555000,0.0324,0.013523,0.002678,0.000431,0.021625
147556000,0.0324,0.013523,0.002678,0.000431,0.021390
147557000,0.0324,0.013523,0.002678,0.000431,0.021390
147558000,0.0324,0.013523,0.002678,0.000431,0.022448
147559000,0.0324,0.013523,0.002678,0.000431,0.020920
147560000,0.0324,0.013523,0.002678,0.000431,0.017159
147561000,0.0324,0.013523,0.002678,0.000431,0.019745
147562000,0.0324,0.013523,0.002678,0.000431,0.018687
147563000,0.0324,0.013523,0.002678,0.000431,0.017042
147564000,0.0324,0.013523,0.002678,0.000431,0.017629
147565000,0.0324,0.013523,0.002678,0.000431,0.017982
147566000,0.0324,0.013523,0.002678,0.000431,0.019275
147567000,0.0324,0.013523,0.002678,0.000431,0.014691
147568000,0.0324,0.013523,0.002678,0.000431,0.015749
147569000,0.0324,0.013523,0.002678,0.000431,0.014573
147570000,0.0324,0.013523,0.002678,0.000431,0.015866
147571000,0.0324,0.013523,0.002678,0.000431,0.015044
147572000,0.0324,0.013523,0.002678,0.000431,0.013163
147573000,0.0324,0.013523,0.002678,0.000431,0.014456
147574000,0.0324,0.013523,0.002678,0.000431,0.015749
147575000,0.0324,0.013523,0.002678,0.000431,0.011870
147576000,0.0324,0.013523,0.002678,0.000431,0.015631
147577000,0.0324,0.013523,0.002678,0.000431,0.012458
147578000,0.0324,0.013523,0.002678,0.000431,0.011988
147579000,0.0324,0.013523,0.002678,0.000431,0.013046
147580000,0.0324,0.013523,0.002678,0.000431,0.011518
147581000,0.0324,0.013523,0.002678,0.000431,0.012340
147582000,0.0324,0.013523,0.002678,0.000431,0.011048
147583000,0.0324,0.013523,0.002678,0.000431,0.011635
147584000,0.0324,0.013523,0.002678,0.000431,0.013751
147585000,0.0324,0.013523,0.002678,0.000431,0.008815
147586000,0.0324,0.013523,0.002678,0.000431,0.010107
147587000,0.0324,0.013523,0.002678,0.000431,0.007404
147588000,0.0324,0.013523,0.002678,0.000431,0.007757
147589000,0.0324,0.013523,0.002678,0.000431,0.007639
147590000,0.0324,0.013523,0.002678,0.000431,0.007169
147591000,0.0324,0.013523,0.002678,0.000431,0.007992
147592000,0.0324,0.013523,0.002678,0.000431,0.007639
147593000,0.0324,0.013523,0.002678,0.000431,0.007522
147594000,0.0324,0.013523,0.002678,0.000431,0.007287
147595000,0.0324,0.013523,0.002678,0.000431,0.007874
147596000,0.0324,0.013523,0.002678,0.000431,0.007639
147597000,0.0324,0.013523,0.002678,0.000431,0.009520
147598000,0.0324,0.013523,0.002678,0.000431,0.006817
147599000,0.0324,0.013523,0.002678,0.000431,0.007052
147600000,0.0324,0.013523,0.002678,0.000431,0.007992
147601000,0.0324,0.013523,0.002678,0.000431,0.005641
147602000,0.0324,0.013523,0.002678,0.000431,0.006934
147603000,0.0324,0.013523,0.002678,0.000431,0.007404
147604000,0.0324,0.013523,0.002678,0.000431,0.003761
147605000,0.0324,0.013523,0.002678,0.000431,0.003056
147606000,0.0324,0.013523,0.002678,0.000431,0.003643
147607000,0.0324,0.013523,0.002678,0.000431,0.005171
147608000,0.0324,0.013523,0.002678,0.000431,0.002703
147609000,0.0324,0.013523,0.002678,0.000431,0.002351
147610000,0.0324,0.013523,0.002678,0.000431,0.002586
147611000,0.0324,0.013523,0.002678,0.000431,0.002821
147612000,0.0324,0.013523,0.002678,0.000431,0.002351
147613000,0.0324,0.013523,0.002678,0.000431,0.002468
147614000,0.0324,0.013523,0.002678,0.000431,0.002586
147615000,0.0324,0.013523,0.002678,0.000431,0.004113
147616000,0.0324,0.013523,0.002678,0.000431,0.003996
147617000,0.0324,0.013523,0.002678,0.000431,0.000940
147618000,0.0324,0.013523,0.002678,0.000431,0.000940
147619000,0.0324,0.013523,0.002678,0.000431,0.000705
147620000,0.0324,0.013523,0.002678,0.000431,0.000940
147621000,0.0324,0.013523,0.002678,0.000431,0.000705
147622000,0.0324,0.013523,0.002678,0.000431,0.000940
147623000,0.0324,0.013523,0.002678,0.000431,0.000823
147624000,0.0324,0.013523,0.002678,0.000431,0.000823
147625000,0.0324,0.013523,0.002678,0.000431,0.000705
147626000,0.0324,0.013523,0.002678,0.000431,0.000940
147627000,0.0324,0.013523,0.002678,0.000431,0.000940
147628000,0.0324,0.013523,0.002678,0.000431,0.000705
147629000,0.0324,0.013523,0.002678,0.000431,0.000940
147630000,0.0324,0.013523,0.002678,0.000431,0.001998
147631000,0.0324,0.013523,0.002678,0.000431,0.498790
147632000,0.0324,0.013523,0.002678,0.000431,0.734081
147633000,0.0324,0.013523,0.002678,0.000431,0.187457
147634000,0.0324,0.013523,0.002678,0.000431,0.140094
147635000,0.0324,0.013523,0.002678,0.000431,0.501140
147636000,0.0324,0.013523,0.002678,0.000431,0.259620
147637000,0.0324,0.013523,0.002678,0.000431,0.245399
147638000,0.0324,0.013523,0.002678,0.000431,0.277014
147639000,0.0324,0.013523,0.002678,0.000431,0.150319
147640000,0.0324,0.013523,0.002678,0.000431,0.168300
147641000,0.0324,0.013523,0.002678,0.000431,0.178760
147642000,0.0324,0.013523,0.002678,0.000431,0.520532
147643000,0.0324,0.013523,0.002678,0.000431,0.199093
147644000,0.0324,0.013523,0.002678,0.000431,0.181816
147645000,0.0324,0.013523,0.002678,0.000431,0.156077
147646000,0.0324,0.013523,0.002678,0.000431,0.132572
147647000,0.0324,0.013523,0.002678,0.000431,0.112474
147648000,0.0324,0.013523,0.002678,0.000431,0.091554
147649000,0.0324,0.013523,0.002678,0.000431,0.084973
147650000,0.0324,0.013523,0.002678,0.000431,0.072280
147651000,0.0324,0.013523,0.002678,0.000431,0.073808
147652000,0.0324,0.013523,0.002678,0.000431,0.058294
147653000,0.0324,0.013523,0.002678,0.000431,0.061115
147654000,0.0324,0.013523,0.002678,0.000431,0.055708
147655000,0.0324,0.013523,0.002678,0.000431,0.048304
147656000,0.0324,0.013523,0.002678,0.000431,0.041958
147657000,0.0324,0.013523,0.002678,0.000431,0.040195
147658000,0.0324,0.013523,0.002678,0.000431,0.037609
147659000,0.0324,0.013523,0.002678,0.000431,0.025151
147660000,0.0324,0.013523,0.002678,0.000431,0.025621
147661000,0.0324,0.013523,0.002678,0.000431,0.026561
147662000,0.0324,0.013523,0.002678,0.000431,0.018452
147663000,0.0324,0.013523,0.002678,0.000431,0.021978
147664000,0.0324,0.013523,0.002678,0.000431,0.019862
147665000,0.0324,0.013523,0.002678,0.000431,0.018687
147666000,0.0324,0.013523,0.002678,0.000431,0.020685
147667000,0.0324,0.013523,0.002678,0.000431,0.011635
147668000,0.0324,0.013523,0.002678,0.000431,0.015514
147669000,0.0324,0.013523,0.002678,0.000431,0.013281
147670000,0.0324,0.013523,0.002678,0.000431,0.014809
147671000,0.0324,0.013523,0.002678,0.000431,0.012693
147672000,0.0324,0.013523,0.002678,0.000431,0.012928
147673000,0.0324,0.013523,0.002678,0.000431,0.013398
147674000,0.0324,0.013523,0.002678,0.000431,0.010930
147675000,0.0324,0.013523,0.002678,0.000431,0.011283
147676000,0.0324,0.013523,0.002678,0.000431,0.011518
147677000,0.0324,0.013523,0.002678,0.000431,0.011048
147678000,0.0324,0.013523,0.002678,0.000431,0.011165
147679000,0.0324,0.013523,0.002678,0.000431,0.011283
147680000,0.0324,0.013523,0.002678,0.000431,0.010460
147681000,0.0324,0.013523,0.002678,0.000431,0.012928
147682000,0.0324,0.013523,0.002678,0.000431,0.009520
147683000,0.0324,0.013523,0.002678,0.000431,0.012458
147684000,0.0324,0.013523,0.002678,0.000431,0.010930
147685000,0.0324,0.013523,0.002678,0.000431,0.010930
147686000,0.0324,0.013523,0.002678,0.000431,0.012105
147687000,0.0324,0.013523,0.002678,0.000431,0.010460
147688000,0.0324,0.013523,0.002678,0.000431,0.014926
147689000,0.0324,0.013523,0.002678,0.000431,0.009637
147690000,0.0324,0.013523,0.002678,0.000431,0.010695
147691000,0.0324,0.013523,0.002678,0.000431,0.012811
147692000,0.0324,0.013523,0.002678,0.000431,0.009167
147693000,0.0324,0.013523,0.002678,0.000431,0.009402
147694000,0.0324,0.013523,0.002678,0.000431,0.009167
147695000,0.0324,0.013523,0.002678,0.000431,0.008815
147696000,0.0324,0.013523,0.002678,0.000431,0.009755
147697000,0.0324,0.013523,0.002678,0.000431,0.007287
147698000,0.0324,0.013523,0.002678,0.000431,0.008227
147699000,0.0324,0.013523,0.002678,0.000431,0.008580
147700000,0.0324,0.013523,0.002678,0.000431,0.006699
147701000,0.0324,0.013523,0.002678,0.000431,0.009637
147702000,0.0324,0.013523,0.002678,0.000431,0.007287
147703000,0.0324,0.013523,0.002678,0.000431,0.008227
147704000,0.0324,0.013523,0.002678,0.000431,0.007992
147705000,0.0324,0.013523,0.002678,0.000431,0.007287
147706000,0.0324,0.013523,0.002678,0.000431,0.009167
147707000,0.0324,0.013523,0.002678,0.000431,0.006934
147708000,0.0324,0.013523,0.002678,0.000431,0.007169
147709000,0.0324,0.013523,0.002678,0.000431,0.008462
147710000,0.0324,0.013523,0.002678,0.000431,0.007639
147711000,0.0324,0.013523,0.002678,0.000431,0.007639
147712000,0.0324,0.013523,0.002678,0.000431,0.008815
147713000,0.0324,0.013523,0.002678,0.000431,0.004936
147714000,0.0324,0.013523,0.002678,0.000431,0.008932
147715000,0.0324,0.013523,0.002678,0.000431,0.004466
147716000,0.0324,0.013523,0.002678,0.000431,0.005171
147717000,0.0324,0.013523,0.002678,0.000431,0.003291
147718000,0.0324,0.013523,0.002678,0.000431,0.003056
147719000,0.0324,0.013523,0.002678,0.000431,0.002351
147720000,0.0324,0.013523,0.002678,0.000431,0.002586
147721000,0.0324,0.013523,0.002678,0.000431,0.002703
147722000,0.0324,0.013523,0.002678,0.000431,0.003056
147723000,0.0324,0.013523,0.002678,0.000431,0.002468
147724000,0.0324,0.013523,0.002678,0.000431,0.001763
147725000,0.0324,0.013523,0.002678,0.000431,0.004584
147726000,0.0324,0.013523,0.002678,0.000431,0.000705
147727000,0.0324,0.013523,0.002678,0.000431,0.000940
147728000,0.0324,0.013523,0.002678,0.000431,0.000823
147729000,0.0324,0.013523,0.002678,0.000431,0.000823
147730000,0.0324,0.013523,0.002678,0.000431,0.000823
147731000,0.0324,0.013523,0.002678,0.000431,0.000823
147732000,0.0324,0.013523,0.002678,0.000431,0.000823
147733000,0.0324,0.013523,0.002678,0.000431,0.000823
147734000,0.0324,0.013523,0.002678,0.000431,0.000823
147735000,0.0324,0.013523,0.002678,0.000431,0.000823
147736000,0.0324,0.013523,0.002678,0.000431,0.000940
147737000,0.0324,0.013523,0.002678,0.000431,0.000823
147738000,0.0324,0.013523,0.002678,0.000431,0.000823
147739000,0.0324,0.013523,0.002678,0.000431,0.000705
147740000,0.0324,0.013523,0.002678,0.000431,0.000940
147741000,0.0324,0.013523,0.002678,0.000431,0.000940
147742000,0.0324,0.013523,0.002678,0.000431,0.000705
147743000,0.0324,0.013523,0.002678,0.000431,0.000940
147744000,0.0324,0.013523,0.002678,0.000431,0.000705
147745000,0.0324,0.013523,0.002678,0.000431,0.000940
147746000,0.0324,0.013523,0.002678,0.000431,0.000823
147747000,0.0324,0.013523,0.002678,0.000431,0.000823
147748000,0.0324,0.013523,0.002678,0.000431,0.000940
147749000,0.0324,0.013523,0.002678,0.000431,0.000705
147750000,0.0324,0.013523,0.002678,0.000431,0.000940
147751000,0.0324,0.013523,0.002678,0.000431,0.000823
147752000,0.0324,0.013523,0.002678,0.000431,0.000823
147753000,0.0324,0.013523,0.002678,0.000431,0.000823
147754000,0.0324,0.013523,0.002678,0.000431,0.000823
147755000,0.0324,0.013523,0.002678,0.000431,0.000823
147756000,0.0324,0.013523,0.002678,0.000431,0.000823
147757000,0.0324,0.013523,0.002678,0.000431,0.000940
147758000,0.0324,0.013523,0.002678,0.000431,0.000705
147759000,0.0324,0.013523,0.002678,0.000431,0.000940
147760000,0.0324,0.013523,0.002678,0.000431,0.000823
147761000,0.0324,0.013523,0.002678,0.000431,0.000823
147762000,0.0324,0.013523,0.002678,0.000431,0.000705
147763000,0.0324,0.013523,0.002678,0.000431,0.000940
147764000,0.0324,0.013523,0.002678,0.000431,0.000940
147765000,0.0324,0.013523,0.002678,0.000431,0.000705
147766000,0.0324,0.013523,0.002678,0.000431,0.000940
147767000,0.0324,0.013523,0.002678,0.000431,0.000705
147768000,0.0324,0.013523,0.002678,0.000431,0.000940
147769000,0.0324,0.013523,0.002678,0.000431,0.000823
147770000,0.0324,0.013523,0.002678,0.000431,0.000823
147771000,0.0324,0.013523,0.002678,0.000431,0.000940
147772000,0.0324,0.013523,0.002678,0.000431,0.000705
147773000,0.0324,0.013523,0.002678,0.000431,0.000705
147774000,0.0324,0.013523,0.002678,0.000431,0.000940
147775000,0.0324,0.013523,0.002678,0.000431,0.000940
147776000,0.0324,0.013523,0.002678,0.000431,0.000705
147777000,0.0324,0.013523,0.002678,0.000431,0.000940
147778000,0.0324,0.013523,0.002678,0.000431,0.021273
147779000,0.0324,0.013523,0.002678,0.000431,0.762875
147780000,0.0324,0.013523,0.002678,0.000431,0.545096
147781000,0.0324,0.013523,0.002678,0.000431,0.135863
147782000,0.0324,0.013523,0.002678,0.000431,0.210140
147783000,0.0324,0.013523,0.002678,0.000431,0.555086
147784000,0.0324,0.013523,0.002678,0.000431,0.285829
147785000,0.0324,0.013523,0.002678,0.000431,0.312155
147786000,0.0324,0.013523,0.002678,0.000431,0.154550
147787000,0.0324,0.013523,0.002678,0.000431,0.105540
147788000,0.0324,0.013523,0.002678,0.000431,0.453894
147789000,0.0324,0.013523,0.002678,0.000431,0.365160
147790000,0.0324,0.013523,0.002678,0.000431,0.227770
147791000,0.0324,0.013523,0.002678,0.000431,0.191571
147792000,0.0324,0.013523,0.002678,0.000431,0.169946
147793000,0.0324,0.013523,0.002678,0.000431,0.132689
147794000,0.0324,0.013523,0.002678,0.000431,0.115295
147795000,0.0324,0.013523,0.002678,0.000431,0.110241
147796000,0.0324,0.013523,0.002678,0.000431,0.089792
147797000,0.0324,0.013523,0.002678,0.000431,0.076511
147798000,0.0324,0.013523,0.002678,0.000431,0.066403
147799000,0.0324,0.013523,0.002678,0.000431,0.060645
147800000,0.0324,0.013523,0.002678,0.000431,0.056531
147801000,0.0324,0.013523,0.002678,0.000431,0.041135
147802000,0.0324,0.013523,0.002678,0.000431,0.043015
147803000,0.0324,0.013523,0.002678,0.000431,0.027384
147804000,0.0324,0.013523,0.002678,0.000431,0.027972
147805000,0.0324,0.013523,0.002678,0.000431,0.021860
147806000,0.0324,0.013523,0.002678,0.000431,0.023153
147807000,0.0324,0.013523,0.002678,0.000431,0.025269
147808000,0.0324,0.013523,0.002678,0.000431,0.019862
147809000,0.0324,0.013523,0.002678,0.000431,0.019627
147810000,0.0324,0.013523,0.002678,0.000431,0.020685
147811000,0.0324,0.013523,0.002678,0.000431,0.019627
147812000,0.0324,0.013523,0.002678,0.000431,0.021743
147813000,0.0324,0.013523,0.002678,0.000431,0.019157
147814000,0.0324,0.013523,0.002678,0.000431,0.017982
147815000,0.0324,0.013523,0.002678,0.000431,0.018452
147816000,0.0324,0.013523,0.002678,0.000431,0.017864
147817000,0.0324,0.013523,0.002678,0.000431,0.019392
147818000,0.0324,0.013523,0.002678,0.000431,0.016924
147819000,0.0324,0.013523,0.002678,0.000431,0.018334
147820000,0.0324,0.013523,0.002678,0.000431,0.018687
147821000,0.0324,0.013523,0.002678,0.000431,0.018922
147822000,0.0324,0.013523,0.002678,0.000431,0.016924
147823000,0.0324,0.013523,0.002678,0.000431,0.018687
147824000,0.0324,0.013523,0.002678,0.000431,0.020097
147825000,0.0324,0.013523,0.002678,0.000431,0.016219
147826000,0.0324,0.013523,0.002678,0.000431,0.016219
147827000,0.0324,0.013523,0.002678,0.000431,0.018922
147828000,0.0324,0.013523,0.002678,0.000431,0.014573
147829000,0.0324,0.013523,0.002678,0.000431,0.014573
147830000,0.0324,0.013523,0.002678,0.000431,0.015279
147831000,0.0324,0.013523,0.002678,0.000431,0.015631
147832000,0.0324,0.013523,0.002678,0.000431,0.014456
147833000,0.0324,0.013523,0.002678,0.000431,0.015161
147834000,0.0324,0.013523,0.002678,0.000431,0.014338
147835000,0.0324,0.013523,0.002678,0.000431,0.015631
147836000,0.0324,0.013523,0.002678,0.000431,0.014456
147837000,0.0324,0.013523,0.002678,0.000431,0.015161
147838000,0.0324,0.013523,0.002678,0.000431,0.014221
147839000,0.0324,0.013523,0.002678,0.000431,0.014809
147840000,0.0324,0.013523,0.002678,0.000431,0.014221
147841000,0.0324,0.013523,0.002678,0.000431,0.014456
147842000,0.0324,0.013523,0.002678,0.000431,0.014691
147843000,0.0324,0.013523,0.002678,0.000431,0.014573
147844000,0.0324,0.013523,0.002678,0.000431,0.013633
147845000,0.0324,0.013523,0.002678,0.000431,0.013516
147846000,0.0324,0.013523,0.002678,0.000431,0.018569
147847000,0.0324,0.013523,0.002678,0.000431,0.019392
147848000,0.0324,0.013523,0.002678,0.000431,0.010342
147849000,0.0324,0.013523,0.002678,0.000431,0.010930
147850000,0.0324,0.013523,0.002678,0.000431,0.010930
147851000,0.0324,0.013523,0.002678,0.000431,0.010460
147852000,0.0324,0.013523,0.002678,0.000431,0.011165
147853000,0.0324,0.013523,0.002678,0.000431,0.015749
147854000,0.0324,0.013523,0.002678,0.000431,0.008109
147855000,0.0324,0.013523,0.002678,0.000431,0.008932
147856000,0.0324,0.013523,0.002678,0.000431,0.008580
147857000,0.0324,0.013523,0.002678,0.000431,0.011518
147858000,0.0324,0.013523,0.002678,0.000431,0.007639
147859000,0.0324,0.013523,0.002678,0.000431,0.007404
147860000,0.0324,0.013523,0.002678,0.000431,0.007287
147861000,0.0324,0.013523,0.002678,0.000431,0.007287
147862000,0.0324,0.013523,0.002678,0.000431,0.008227
147863000,0.0324,0.013523,0.002678,0.000431,0.005759
147864000,0.0324,0.013523,0.002678,0.000431,0.003291
147865000,0.0324,0.013523,0.002678,0.000431,0.003643
147866000,0.0324,0.013523,0.002678,0.000431,0.003526
147867000,0.0324,0.013523,0.002678,0.000431,0.003173
147868000,0.0324,0.013523,0.002678,0.000431,0.003643
147869000,0.0324,0.013523,0.002678,0.000431,0.003291
147870000,0.0324,0.013523,0.002678,0.000431,0.003526
147871000,0.0324,0.013523,0.002678,0.000431,0.003526
147872000,0.0324,0.013523,0.002678,0.000431,0.003291
147873000,0.0324,0.013523,0.002678,0.000431,0.003408
147874000,0.0324,0.013523,0.002678,0.000431,0.003408
147875000,0.0324,0.013523,0.002678,0.000431,0.003643
147876000,0.0324,0.013523,0.002678,0.000431,0.003526
147877000,0.0324,0.013523,0.002678,0.000431,0.003291
147878000,0.0324,0.013523,0.002678,0.000431,0.003173
147879000,0.0324,0.013523,0.002678,0.000431,0.003526
147880000,0.0324,0.013523,0.002678,0.000431,0.003291
147881000,0.0324,0.013523,0.002678,0.000431,0.003291
147882000,0.0324,0.013523,0.002678,0.000431,0.003526
147883000,0.0324,0.013523,0.002678,0.000431,0.005641
147884000,0.0324,0.013523,0.002678,0.000431,0.002468
147885000,0.0324,0.013523,0.002678,0.000431,0.002468
147886000,0.0324,0.013523,0.002678,0.000431,0.002586
147887000,0.0324,0.013523,0.002678,0.000431,0.002351
147888000,0.0324,0.013523,0.002678,0.000431,0.002821
147889000,0.0324,0.013523,0.002678,0.000431,0.002351
147890000,0.0324,0.013523,0.002678,0.000431,0.002586
147891000,0.0324,0.013523,0.002678,0.000431,0.002703
147892000,0.0324,0.013523,0.002678,0.000431,0.002468
147893000,0.0324,0.013523,0.002678,0.000431,0.002703
147894000,0.0324,0.013523,0.002678,0.000431,0.002233
147895000,0.0324,0.013523,0.002678,0.000431,0.002821
147896000,0.0324,0.013523,0.002678,0.000431,0.004701
147897000,0.0324,0.013523,0.002678,0.000431,0.001645
147898000,0.0324,0.013523,0.002678,0.000431,0.001645
147899000,0.0324,0.013523,0.002678,0.000431,0.001763
147900000,0.0324,0.013523,0.002678,0.000431,0.001645
147901000,0.0324,0.013523,0.002678,0.000431,0.001763
147902000,0.0324,0.013523,0.002678,0.000431,0.001763
147903000,0.0324,0.013523,0.002678,0.000431,0.001763
147904000,0.0324,0.013523,0.002678,0.000431,0.001528
147905000,0.0324,0.013523,0.002678,0.000431,0.001763
147906000,0.0324,0.013523,0.002678,0.000431,0.001763
147907000,0.0324,0.013523,0.002678,0.000431,0.001763
147908000,0.0324,0.013523,0.002678,0.000431,0.001645
147909000,0.0324,0.013523,0.002678,0.000431,0.001645
147910000,0.0324,0.013523,0.002678,0.000431,0.001763
147911000,0.0324,0.013523,0.002678,0.000431,0.001880
147912000,0.0324,0.013523,0.002678,0.000431,0.001528
147913000,0.0324,0.013523,0.002678,0.000431,0.001763
147914000,0.0324,0.013523,0.002678,0.000431,0.001645
147915000,0.0324,0.013523,0.002678,0.000431,0.001763
147916000,0.0324,0.013523,0.002678,0.000431,0.001880
147917000,0.0324,0.013523,0.002678,0.000431,0.001528
147918000,0.0324,0.013523,0.002678,0.000431,0.001880
147919000,0.0324,0.013523,0.002678,0.000431,0.001528
147920000,0.0324,0.013523,0.002678,0.000431,0.001763
147921000,0.0324,0.013523,0.002678,0.000431,0.001763
147922000,0.0324,0.013523,0.002678,0.000431,0.001645
147923000,0.0324,0.013523,0.002678,0.000431,0.003643
147924000,0.0324,0.013523,0.002678,0.000431,0.000823
147925000,0.0324,0.013523,0.002678,0.000431,0.000940
147926000,0.0324,0.013523,0.002678,0.000431,0.000940
147927000,0.0324,0.013523,0.002678,0.000431,0.000705
147928000,0.0324,0.013523,0.002678,0.000431,0.000940
147929000,0.0324,0.013523,0.002678,0.000431,0.000940
147930000,0.0324,0.013523,0.002678,0.000431,0.000940
147931000,0.0324,0.013523,0.002678,0.000431,0.000705
147932000,0.0324,0.013523,0.002678,0.000431,0.000940
147933000,0.0324,0.013523,0.002678,0.000431,0.000940
147934000,0.0324,0.013523,0.002678,0.000431,0.000823
147935000,0.0324,0.013523,0.002678,0.000431,0.000823
147936000,0.0324,0.013523,0.002678,0.000431,0.000940
147937000,0.0324,0.013523,0.002678,0.000431,0.000940
147938000,0.0324,0.013523,0.002678,0.000431,0.000823
147939000,0.0324,0.013523,0.002678,0.000431,0.000823
147940000,0.0324,0.013523,0.002678,0.000431,0.000940
147941000,0.0324,0.013523,0.002678,0.000431,0.000823
147942000,0.0324,0.013523,0.002678,0.000431,0.000940
147943000,0.0324,0.013523,0.002678,0.000431,0.000823
147944000,0.0324,0.013523,0.002678,0.000431,0.000940
147945000,0.0324,0.013523,0.002678,0.000431,0.000823
147946000,0.0324,0.013523,0.002678,0.000431,0.000823
147947000,0.0324,0.013523,0.002678,0.000431,0.000940
147948000,0.0324,0.013523,0.002678,0.000431,0.000940
147949000,0.0324,0.013523,0.002678,0.000431,0.000823
147950000,0.0324,0.013523,0.002678,0.000431,0.000823
147951000,0.0324,0.013523,0.002678,0.000431,0.000940
147952000,0.0324,0.013523,0.002678,0.000431,0.000940
147953000,0.0324,0.013523,0.002678,0.000431,0.000823
147954000,0.0324,0.013523,0.002678,0.000431,0.000823
147955000,0.0324,0.013523,0.002678,0.000431,0.000940
147956000,0.0324,0.013523,0.002678,0.000431,0.000823
147957000,0.0324,0.013523,0.002678,0.000431,0.000940
147958000,0.0324,0.013523,0.002678,0.000431,0.000823
147959000,0.0324,0.013523,0.002678,0.000431,0.000940
147960000,0.0324,0.013523,0.002678,0.000431,0.000823
147961000,0.0324,0.013523,0.002678,0.000431,0.000823
147962000,0.0324,0.013523,0.002678,0.000431,0.000940
147963000,0.0324,0.013523,0.002678,0.000431,0.000940
147964000,0.0324,0.013523,0.002678,0.000431,0.000823
147965000,0.0324,0.013523,0.002678,0.000431,0.000823
147966000,0.0324,0.013523,0.002678,0.000431,0.000940
147967000,0.0324,0.013523,0.002678,0.000431,0.000940
147968000,0.0324,0.013523,0.002678,0.000431,0.000705
147969000,0.0324,0.013523,0.002678,0.000431,0.000940
147970000,0.0324,0.013523,0.002678,0.000431,0.000940
147971000,0.0324,0.013523,0.002678,0.000431,0.000940
147972000,0.0324,0.013523,0.002678,0.000431,0.000705
147973000,0.0324,0.013523,0.002678,0.000431,0.000940
147974000,0.0324,0.013523,0.002678,0.000431,0.000940
147975000,0.0324,0.013523,0.002678,0.000431,0.000823
147976000,0.0324,0.013523,0.002678,0.000431,0.000940
147977000,0.0324,0.013523,0.002678,0.000431,0.000823
147978000,0.0324,0.013523,0.002678,0.000431,0.000940
147979000,0.0324,0.013523,0.002678,0.000431,0.000823
147980000,0.0324,0.013523,0.002678,0.000431,0.000823
147981000,0.0324,0.013523,0.002678,0.000431,0.000940
147982000,0.0324,0.013523,0.002678,0.000431,0.000940
147983000,0.0324,0.013523,0.002678,0.000431,0.000823
147984000,0.0324,0.013523,0.002678,0.000431,0.000823
147985000,0.0324,0.013523,0.002678,0.000431,0.000940
147986000,0.0324,0.013523,0.002678,0.000431,0.000940
147987000,0.0324,0.013523,0.002678,0.000431,0.000705
147988000,0.0324,0.013523,0.002678,0.000431,0.000940
147989000,0.0324,0.013523,0.002678,0.000431,0.000940
147990000,0.0324,0.013523,0.002678,0.000431,0.000940
147991000,0.0324,0.013523,0.002678,0.000431,0.000705
147992000,0.0324,0.013523,0.002678,0.000431,0.000940
147993000,0.0324,0.013523,0.002678,0.000431,0.000940
147994000,0.0324,0.013523,0.002678,0.000431,0.000823
147995000,0.0324,0.013523,0.002678,0.000431,0.000823
147996000,0.0324,0.013523,0.002678,0.000431,0.000940
147997000,0.0324,0.013523,0.002678,0.000431,0.000823
147998000,0.0324,0.013523,0.002678,0.000431,0.000940
147999000,0.0324,0.013523,0.002678,0.000431,0.000823
