Cycle,Area(mm^2),PeakDynamic(W),SubthresholdLeakage(W),GateLeakage(W),RunTimeDynamic(W)
28000000,0.0324,0.013523,0.002678,0.000431,0.002586
28001000,0.0324,0.013523,0.002678,0.000431,0.002468
28002000,0.0324,0.013523,0.002678,0.000431,0.002703
28003000,0.0324,0.013523,0.002678,0.000431,0.002703
28004000,0.0324,0.013523,0.002678,0.000431,0.002586
28005000,0.0324,0.013523,0.002678,0.000431,0.002586
28006000,0.0324,0.013523,0.002678,0.000431,0.002703
28007000,0.0324,0.013523,0.002678,0.000431,0.002586
28008000,0.0324,0.013523,0.002678,0.000431,0.002703
28009000,0.0324,0.013523,0.002678,0.000431,0.002586
28010000,0.0324,0.013523,0.002678,0.000431,0.002586
28011000,0.0324,0.013523,0.002678,0.000431,0.002586
28012000,0.0324,0.013523,0.002678,0.000431,0.002586
28013000,0.0324,0.013523,0.002678,0.000431,0.002821
28014000,0.0324,0.013523,0.002678,0.000431,0.002586
28015000,0.0324,0.013523,0.002678,0.000431,0.002468
28016000,0.0324,0.013523,0.002678,0.000431,0.002703
28017000,0.0324,0.013523,0.002678,0.000431,0.002703
28018000,0.0324,0.013523,0.002678,0.000431,0.002703
28019000,0.0324,0.013523,0.002678,0.000431,0.002468
28020000,0.0324,0.013523,0.002678,0.000431,0.002703
28021000,0.0324,0.013523,0.002678,0.000431,0.002703
28022000,0.0324,0.013523,0.002678,0.000431,0.002586
28023000,0.0324,0.013523,0.002678,0.000431,0.004701
28024000,0.0324,0.013523,0.002678,0.000431,0.001763
28025000,0.0324,0.013523,0.002678,0.000431,0.001880
28026000,0.0324,0.013523,0.002678,0.000431,0.001645
28027000,0.0324,0.013523,0.002678,0.000431,0.001880
28028000,0.0324,0.013523,0.002678,0.000431,0.001645
28029000,0.0324,0.013523,0.002678,0.000431,0.001763
28030000,0.0324,0.013523,0.002678,0.000431,0.001763
28031000,0.0324,0.013523,0.002678,0.000431,0.001763
28032000,0.0324,0.013523,0.002678,0.000431,0.001880
28033000,0.0324,0.013523,0.002678,0.000431,0.001645
28034000,0.0324,0.013523,0.002678,0.000431,0.001763
28035000,0.0324,0.013523,0.002678,0.000431,0.001763
28036000,0.0324,0.013523,0.002678,0.000431,0.001763
28037000,0.0324,0.013523,0.002678,0.000431,0.001763
28038000,0.0324,0.013523,0.002678,0.000431,0.001645
28039000,0.0324,0.013523,0.002678,0.000431,0.001763
28040000,0.0324,0.013523,0.002678,0.000431,0.001880
28041000,0.0324,0.013523,0.002678,0.000431,0.001763
28042000,0.0324,0.013523,0.002678,0.000431,0.001763
28043000,0.0324,0.013523,0.002678,0.000431,0.001645
28044000,0.0324,0.013523,0.002678,0.000431,0.001763
28045000,0.0324,0.013523,0.002678,0.000431,0.001763
28046000,0.0324,0.013523,0.002678,0.000431,0.001880
28047000,0.0324,0.013523,0.002678,0.000431,0.001645
28048000,0.0324,0.013523,0.002678,0.000431,0.001763
28049000,0.0324,0.013523,0.002678,0.000431,0.001763
28050000,0.0324,0.013523,0.002678,0.000431,0.001763
28051000,0.0324,0.013523,0.002678,0.000431,0.001645
28052000,0.0324,0.013523,0.002678,0.000431,0.001880
28053000,0.0324,0.013523,0.002678,0.000431,0.001645
28054000,0.0324,0.013523,0.002678,0.000431,0.001880
28055000,0.0324,0.013523,0.002678,0.000431,0.001763
28056000,0.0324,0.013523,0.002678,0.000431,0.001763
28057000,0.0324,0.013523,0.002678,0.000431,0.001645
28058000,0.0324,0.013523,0.002678,0.000431,0.001763
28059000,0.0324,0.013523,0.002678,0.000431,0.001880
28060000,0.0324,0.013523,0.002678,0.000431,0.001645
28061000,0.0324,0.013523,0.002678,0.000431,0.001763
28062000,0.0324,0.013523,0.002678,0.000431,0.001763
28063000,0.0324,0.013523,0.002678,0.000431,0.001763
28064000,0.0324,0.013523,0.002678,0.000431,0.001763
28065000,0.0324,0.013523,0.002678,0.000431,0.001763
28066000,0.0324,0.013523,0.002678,0.000431,0.001763
28067000,0.0324,0.013523,0.002678,0.000431,0.001645
28068000,0.0324,0.013523,0.002678,0.000431,0.001880
28069000,0.0324,0.013523,0.002678,0.000431,0.001763
28070000,0.0324,0.013523,0.002678,0.000431,0.001645
28071000,0.0324,0.013523,0.002678,0.000431,0.001763
28072000,0.0324,0.013523,0.002678,0.000431,0.001763
28073000,0.0324,0.013523,0.002678,0.000431,0.001880
28074000,0.0324,0.013523,0.002678,0.000431,0.001645
28075000,0.0324,0.013523,0.002678,0.000431,0.001880
28076000,0.0324,0.013523,0.002678,0.000431,0.001645
28077000,0.0324,0.013523,0.002678,0.000431,0.001763
28078000,0.0324,0.013523,0.002678,0.000431,0.001763
28079000,0.0324,0.013523,0.002678,0.000431,0.001763
28080000,0.0324,0.013523,0.002678,0.000431,0.001763
28081000,0.0324,0.013523,0.002678,0.000431,0.001763
28082000,0.0324,0.013523,0.002678,0.000431,0.001763
28083000,0.0324,0.013523,0.002678,0.000431,0.001763
28084000,0.0324,0.013523,0.002678,0.000431,0.001645
28085000,0.0324,0.013523,0.002678,0.000431,0.001763
28086000,0.0324,0.013523,0.002678,0.000431,0.001763
28087000,0.0324,0.013523,0.002678,0.000431,0.001880
28088000,0.0324,0.013523,0.002678,0.000431,0.001645
28089000,0.0324,0.013523,0.002678,0.000431,0.001645
28090000,0.0324,0.013523,0.002678,0.000431,0.001763
28091000,0.0324,0.013523,0.002678,0.000431,0.001763
28092000,0.0324,0.013523,0.002678,0.000431,0.001645
28093000,0.0324,0.013523,0.002678,0.000431,0.003291
28094000,0.0324,0.013523,0.002678,0.000431,0.000940
28095000,0.0324,0.013523,0.002678,0.000431,0.000940
28096000,0.0324,0.013523,0.002678,0.000431,0.000823
28097000,0.0324,0.013523,0.002678,0.000431,0.000823
28098000,0.0324,0.013523,0.002678,0.000431,0.000940
28099000,0.0324,0.013523,0.002678,0.000431,0.000823
28100000,0.0324,0.013523,0.002678,0.000431,0.000940
28101000,0.0324,0.013523,0.002678,0.000431,0.000823
28102000,0.0324,0.013523,0.002678,0.000431,0.000940
28103000,0.0324,0.013523,0.002678,0.000431,0.000823
28104000,0.0324,0.013523,0.002678,0.000431,0.000823
28105000,0.0324,0.013523,0.002678,0.000431,0.000940
28106000,0.0324,0.013523,0.002678,0.000431,0.000940
28107000,0.0324,0.013523,0.002678,0.000431,0.000823
28108000,0.0324,0.013523,0.002678,0.000431,0.000823
28109000,0.0324,0.013523,0.002678,0.000431,0.000940
28110000,0.0324,0.013523,0.002678,0.000431,0.071105
28111000,0.0324,0.013523,0.002678,0.000431,0.509015
28112000,0.0324,0.013523,0.002678,0.000431,0.555908
28113000,0.0324,0.013523,0.002678,0.000431,0.132572
28114000,0.0324,0.013523,0.002678,0.000431,0.133512
28115000,0.0324,0.013523,0.002678,0.000431,0.556143
28116000,0.0324,0.013523,0.002678,0.000431,0.230943
28117000,0.0324,0.013523,0.002678,0.000431,0.281833
28118000,0.0324,0.013523,0.002678,0.000431,0.284418
28119000,0.0324,0.013523,0.002678,0.000431,0.143032
28120000,0.0324,0.013523,0.002678,0.000431,0.141974
28121000,0.0324,0.013523,0.002678,0.000431,0.131749
28122000,0.0324,0.013523,0.002678,0.000431,0.280187
28123000,0.0324,0.013523,0.002678,0.000431,0.349764
28124000,0.0324,0.013523,0.002678,0.000431,0.075453
28125000,0.0324,0.013523,0.002678,0.000431,0.056766
28126000,0.0324,0.013523,0.002678,0.000431,0.040430
28127000,0.0324,0.013523,0.002678,0.000431,0.041135
28128000,0.0324,0.013523,0.002678,0.000431,0.025621
28129000,0.0324,0.013523,0.002678,0.000431,0.023623
28130000,0.0324,0.013523,0.002678,0.000431,0.025621
28131000,0.0324,0.013523,0.002678,0.000431,0.019745
28132000,0.0324,0.013523,0.002678,0.000431,0.016336
28133000,0.0324,0.013523,0.002678,0.000431,0.011048
28134000,0.0324,0.013523,0.002678,0.000431,0.009050
28135000,0.0324,0.013523,0.002678,0.000431,0.008697
28136000,0.0324,0.013523,0.002678,0.000431,0.004466
28137000,0.0324,0.013523,0.002678,0.000431,0.003996
28138000,0.0324,0.013523,0.002678,0.000431,0.004113
28139000,0.0324,0.013523,0.002678,0.000431,0.004113
28140000,0.0324,0.013523,0.002678,0.000431,0.003996
28141000,0.0324,0.013523,0.002678,0.000431,0.004231
28142000,0.0324,0.013523,0.002678,0.000431,0.004349
28143000,0.0324,0.013523,0.002678,0.000431,0.003878
28144000,0.0324,0.013523,0.002678,0.000431,0.004349
28145000,0.0324,0.013523,0.002678,0.000431,0.003878
28146000,0.0324,0.013523,0.002678,0.000431,0.004113
28147000,0.0324,0.013523,0.002678,0.000431,0.008815
28148000,0.0324,0.013523,0.002678,0.000431,0.002116
28149000,0.0324,0.013523,0.002678,0.000431,0.002821
28150000,0.0324,0.013523,0.002678,0.000431,0.002233
28151000,0.0324,0.013523,0.002678,0.000431,0.002586
28152000,0.0324,0.013523,0.002678,0.000431,0.002468
28153000,0.0324,0.013523,0.002678,0.000431,0.002233
28154000,0.0324,0.013523,0.002678,0.000431,0.002821
28155000,0.0324,0.013523,0.002678,0.000431,0.002351
28156000,0.0324,0.013523,0.002678,0.000431,0.002468
28157000,0.0324,0.013523,0.002678,0.000431,0.002468
28158000,0.0324,0.013523,0.002678,0.000431,0.002351
28159000,0.0324,0.013523,0.002678,0.000431,0.002586
28160000,0.0324,0.013523,0.002678,0.000431,0.002351
28161000,0.0324,0.013523,0.002678,0.000431,0.002351
28162000,0.0324,0.013523,0.002678,0.000431,0.003878
28163000,0.0324,0.013523,0.002678,0.000431,0.002703
28164000,0.0324,0.013523,0.002678,0.000431,0.000705
28165000,0.0324,0.013523,0.002678,0.000431,0.000940
28166000,0.0324,0.013523,0.002678,0.000431,0.000940
28167000,0.0324,0.013523,0.002678,0.000431,0.000823
28168000,0.0324,0.013523,0.002678,0.000431,0.000823
28169000,0.0324,0.013523,0.002678,0.000431,0.000940
28170000,0.0324,0.013523,0.002678,0.000431,0.000940
28171000,0.0324,0.013523,0.002678,0.000431,0.000823
28172000,0.0324,0.013523,0.002678,0.000431,0.000823
28173000,0.0324,0.013523,0.002678,0.000431,0.000940
28174000,0.0324,0.013523,0.002678,0.000431,0.000823
28175000,0.0324,0.013523,0.002678,0.000431,0.000940
28176000,0.0324,0.013523,0.002678,0.000431,0.000823
28177000,0.0324,0.013523,0.002678,0.000431,0.000940
28178000,0.0324,0.013523,0.002678,0.000431,0.000823
28179000,0.0324,0.013523,0.002678,0.000431,0.000823
28180000,0.0324,0.013523,0.002678,0.000431,0.000940
28181000,0.0324,0.013523,0.002678,0.000431,0.000940
28182000,0.0324,0.013523,0.002678,0.000431,0.000940
28183000,0.0324,0.013523,0.002678,0.000431,0.000705
28184000,0.0324,0.013523,0.002678,0.000431,0.000940
28185000,0.0324,0.013523,0.002678,0.000431,0.000940
28186000,0.0324,0.013523,0.002678,0.000431,0.000823
28187000,0.0324,0.013523,0.002678,0.000431,0.000823
28188000,0.0324,0.013523,0.002678,0.000431,0.000940
28189000,0.0324,0.013523,0.002678,0.000431,0.000823
28190000,0.0324,0.013523,0.002678,0.000431,0.000940
28191000,0.0324,0.013523,0.002678,0.000431,0.000823
28192000,0.0324,0.013523,0.002678,0.000431,0.000940
28193000,0.0324,0.013523,0.002678,0.000431,0.000823
28194000,0.0324,0.013523,0.002678,0.000431,0.000823
28195000,0.0324,0.013523,0.002678,0.000431,0.000940
28196000,0.0324,0.013523,0.002678,0.000431,0.000940
28197000,0.0324,0.013523,0.002678,0.000431,0.000823
28198000,0.0324,0.013523,0.002678,0.000431,0.000823
28199000,0.0324,0.013523,0.002678,0.000431,0.000940
28200000,0.0324,0.013523,0.002678,0.000431,0.000940
28201000,0.0324,0.013523,0.002678,0.000431,0.000705
28202000,0.0324,0.013523,0.002678,0.000431,0.000940
28203000,0.0324,0.013523,0.002678,0.000431,0.000940
28204000,0.0324,0.013523,0.002678,0.000431,0.000940
28205000,0.0324,0.013523,0.002678,0.000431,0.000823
28206000,0.0324,0.013523,0.002678,0.000431,0.000823
28207000,0.0324,0.013523,0.002678,0.000431,0.000940
28208000,0.0324,0.013523,0.002678,0.000431,0.000823
28209000,0.0324,0.013523,0.002678,0.000431,0.000940
28210000,0.0324,0.013523,0.002678,0.000431,0.000823
28211000,0.0324,0.013523,0.002678,0.000431,0.000940
28212000,0.0324,0.013523,0.002678,0.000431,0.000823
28213000,0.0324,0.013523,0.002678,0.000431,0.000823
28214000,0.0324,0.013523,0.002678,0.000431,0.000940
28215000,0.0324,0.013523,0.002678,0.000431,0.000940
28216000,0.0324,0.013523,0.002678,0.000431,0.000823
28217000,0.0324,0.013523,0.002678,0.000431,0.000823
28218000,0.0324,0.013523,0.002678,0.000431,0.000940
28219000,0.0324,0.013523,0.002678,0.000431,0.000940
28220000,0.0324,0.013523,0.002678,0.000431,0.000705
28221000,0.0324,0.013523,0.002678,0.000431,0.000940
28222000,0.0324,0.013523,0.002678,0.000431,0.000940
28223000,0.0324,0.013523,0.002678,0.000431,0.000940
28224000,0.0324,0.013523,0.002678,0.000431,0.000705
28225000,0.0324,0.013523,0.002678,0.000431,0.000940
28226000,0.0324,0.013523,0.002678,0.000431,0.000940
28227000,0.0324,0.013523,0.002678,0.000431,0.000823
28228000,0.0324,0.013523,0.002678,0.000431,0.000823
28229000,0.0324,0.013523,0.002678,0.000431,0.000940
28230000,0.0324,0.013523,0.002678,0.000431,0.000940
28231000,0.0324,0.013523,0.002678,0.000431,0.000823
28232000,0.0324,0.013523,0.002678,0.000431,0.000823
28233000,0.0324,0.013523,0.002678,0.000431,0.000940
28234000,0.0324,0.013523,0.002678,0.000431,0.000823
28235000,0.0324,0.013523,0.002678,0.000431,0.000823
28236000,0.0324,0.013523,0.002678,0.000431,0.000940
28237000,0.0324,0.013523,0.002678,0.000431,0.000940
28238000,0.0324,0.013523,0.002678,0.000431,0.000823
28239000,0.0324,0.013523,0.002678,0.000431,0.000823
28240000,0.0324,0.013523,0.002678,0.000431,0.000940
28241000,0.0324,0.013523,0.002678,0.000431,0.000940
28242000,0.0324,0.013523,0.002678,0.000431,0.000823
28243000,0.0324,0.013523,0.002678,0.000431,0.000823
28244000,0.0324,0.013523,0.002678,0.000431,0.000940
28245000,0.0324,0.013523,0.002678,0.000431,0.000940
28246000,0.0324,0.013523,0.002678,0.000431,0.000940
28247000,0.0324,0.013523,0.002678,0.000431,0.108361
28248000,0.0324,0.013523,0.002678,0.000431,0.551912
28249000,0.0324,0.013523,0.002678,0.000431,0.529582
28250000,0.0324,0.013523,0.002678,0.000431,0.133982
28251000,0.0324,0.013523,0.002678,0.000431,0.132572
28252000,0.0324,0.013523,0.002678,0.000431,0.575653
28253000,0.0324,0.013523,0.002678,0.000431,0.252921
28254000,0.0324,0.013523,0.002678,0.000431,0.295231
28255000,0.0324,0.013523,0.002678,0.000431,0.288532
28256000,0.0324,0.013523,0.002678,0.000431,0.141974
28257000,0.0324,0.013523,0.002678,0.000431,0.161484
28258000,0.0324,0.013523,0.002678,0.000431,0.129869
28259000,0.0324,0.013523,0.002678,0.000431,0.436617
28260000,0.0324,0.013523,0.002678,0.000431,0.044543
28261000,0.0324,0.013523,0.002678,0.000431,0.025034
28262000,0.0324,0.013523,0.002678,0.000431,0.018569
28263000,0.0324,0.013523,0.002678,0.000431,0.013633
28264000,0.0324,0.013523,0.002678,0.000431,0.014338
28265000,0.0324,0.013523,0.002678,0.000431,0.011635
28266000,0.0324,0.013523,0.002678,0.000431,0.009520
28267000,0.0324,0.013523,0.002678,0.000431,0.009050
28268000,0.0324,0.013523,0.002678,0.000431,0.010342
28269000,0.0324,0.013523,0.002678,0.000431,0.009402
28270000,0.0324,0.013523,0.002678,0.000431,0.006464
28271000,0.0324,0.013523,0.002678,0.000431,0.006934
28272000,0.0324,0.013523,0.002678,0.000431,0.007522
28273000,0.0324,0.013523,0.002678,0.000431,0.006582
28274000,0.0324,0.013523,0.002678,0.000431,0.005876
28275000,0.0324,0.013523,0.002678,0.000431,0.005994
28276000,0.0324,0.013523,0.002678,0.000431,0.005876
28277000,0.0324,0.013523,0.002678,0.000431,0.005641
28278000,0.0324,0.013523,0.002678,0.000431,0.005641
28279000,0.0324,0.013523,0.002678,0.000431,0.009402
28280000,0.0324,0.013523,0.002678,0.000431,0.004231
28281000,0.0324,0.013523,0.002678,0.000431,0.004113
28282000,0.0324,0.013523,0.002678,0.000431,0.004584
28283000,0.0324,0.013523,0.002678,0.000431,0.003878
28284000,0.0324,0.013523,0.002678,0.000431,0.004231
28285000,0.0324,0.013523,0.002678,0.000431,0.004349
28286000,0.0324,0.013523,0.002678,0.000431,0.004349
28287000,0.0324,0.013523,0.002678,0.000431,0.003878
28288000,0.0324,0.013523,0.002678,0.000431,0.004349
28289000,0.0324,0.013523,0.002678,0.000431,0.004349
28290000,0.0324,0.013523,0.002678,0.000431,0.004231
28291000,0.0324,0.013523,0.002678,0.000431,0.004231
28292000,0.0324,0.013523,0.002678,0.000431,0.004231
28293000,0.0324,0.013523,0.002678,0.000431,0.004349
28294000,0.0324,0.013523,0.002678,0.000431,0.003878
28295000,0.0324,0.013523,0.002678,0.000431,0.004466
28296000,0.0324,0.013523,0.002678,0.000431,0.004349
28297000,0.0324,0.013523,0.002678,0.000431,0.003996
28298000,0.0324,0.013523,0.002678,0.000431,0.004349
28299000,0.0324,0.013523,0.002678,0.000431,0.003996
28300000,0.0324,0.013523,0.002678,0.000431,0.004466
28301000,0.0324,0.013523,0.002678,0.000431,0.004113
28302000,0.0324,0.013523,0.002678,0.000431,0.004231
28303000,0.0324,0.013523,0.002678,0.000431,0.004113
28304000,0.0324,0.013523,0.002678,0.000431,0.004231
28305000,0.0324,0.013523,0.002678,0.000431,0.004701
28306000,0.0324,0.013523,0.002678,0.000431,0.003761
28307000,0.0324,0.013523,0.002678,0.000431,0.004466
28308000,0.0324,0.013523,0.002678,0.000431,0.004113
28309000,0.0324,0.013523,0.002678,0.000431,0.004231
28310000,0.0324,0.013523,0.002678,0.000431,0.004231
28311000,0.0324,0.013523,0.002678,0.000431,0.004231
28312000,0.0324,0.013523,0.002678,0.000431,0.004584
28313000,0.0324,0.013523,0.002678,0.000431,0.003761
28314000,0.0324,0.013523,0.002678,0.000431,0.004349
28315000,0.0324,0.013523,0.002678,0.000431,0.004349
28316000,0.0324,0.013523,0.002678,0.000431,0.004231
28317000,0.0324,0.013523,0.002678,0.000431,0.003996
28318000,0.0324,0.013523,0.002678,0.000431,0.004349
28319000,0.0324,0.013523,0.002678,0.000431,0.004349
28320000,0.0324,0.013523,0.002678,0.000431,0.003996
28321000,0.0324,0.013523,0.002678,0.000431,0.004349
28322000,0.0324,0.013523,0.002678,0.000431,0.004113
28323000,0.0324,0.013523,0.002678,0.000431,0.004584
28324000,0.0324,0.013523,0.002678,0.000431,0.003878
28325000,0.0324,0.013523,0.002678,0.000431,0.004349
28326000,0.0324,0.013523,0.002678,0.000431,0.004231
28327000,0.0324,0.013523,0.002678,0.000431,0.004231
28328000,0.0324,0.013523,0.002678,0.000431,0.004466
28329000,0.0324,0.013523,0.002678,0.000431,0.003878
28330000,0.0324,0.013523,0.002678,0.000431,0.004466
28331000,0.0324,0.013523,0.002678,0.000431,0.004113
28332000,0.0324,0.013523,0.002678,0.000431,0.006582
28333000,0.0324,0.013523,0.002678,0.000431,0.003291
28334000,0.0324,0.013523,0.002678,0.000431,0.003643
28335000,0.0324,0.013523,0.002678,0.000431,0.003408
28336000,0.0324,0.013523,0.002678,0.000431,0.003291
28337000,0.0324,0.013523,0.002678,0.000431,0.003291
28338000,0.0324,0.013523,0.002678,0.000431,0.005406
28339000,0.0324,0.013523,0.002678,0.000431,0.003526
28340000,0.0324,0.013523,0.002678,0.000431,0.002586
28341000,0.0324,0.013523,0.002678,0.000431,0.001763
28342000,0.0324,0.013523,0.002678,0.000431,0.001410
28343000,0.0324,0.013523,0.002678,0.000431,0.001880
28344000,0.0324,0.013523,0.002678,0.000431,0.001763
28345000,0.0324,0.013523,0.002678,0.000431,0.001528
28346000,0.0324,0.013523,0.002678,0.000431,0.001880
28347000,0.0324,0.013523,0.002678,0.000431,0.001410
28348000,0.0324,0.013523,0.002678,0.000431,0.001880
28349000,0.0324,0.013523,0.002678,0.000431,0.001645
28350000,0.0324,0.013523,0.002678,0.000431,0.001645
28351000,0.0324,0.013523,0.002678,0.000431,0.001763
28352000,0.0324,0.013523,0.002678,0.000431,0.001528
28353000,0.0324,0.013523,0.002678,0.000431,0.001763
28354000,0.0324,0.013523,0.002678,0.000431,0.001645
28355000,0.0324,0.013523,0.002678,0.000431,0.001763
28356000,0.0324,0.013523,0.002678,0.000431,0.001528
28357000,0.0324,0.013523,0.002678,0.000431,0.001645
28358000,0.0324,0.013523,0.002678,0.000431,0.001880
28359000,0.0324,0.013523,0.002678,0.000431,0.001645
28360000,0.0324,0.013523,0.002678,0.000431,0.001645
28361000,0.0324,0.013523,0.002678,0.000431,0.001645
28362000,0.0324,0.013523,0.002678,0.000431,0.001528
28363000,0.0324,0.013523,0.002678,0.000431,0.001763
28364000,0.0324,0.013523,0.002678,0.000431,0.001763
28365000,0.0324,0.013523,0.002678,0.000431,0.001645
28366000,0.0324,0.013523,0.002678,0.000431,0.001645
28367000,0.0324,0.013523,0.002678,0.000431,0.001645
28368000,0.0324,0.013523,0.002678,0.000431,0.001763
28369000,0.0324,0.013523,0.002678,0.000431,0.001763
28370000,0.0324,0.013523,0.002678,0.000431,0.001410
28371000,0.0324,0.013523,0.002678,0.000431,0.001880
28372000,0.0324,0.013523,0.002678,0.000431,0.001645
28373000,0.0324,0.013523,0.002678,0.000431,0.001645
28374000,0.0324,0.013523,0.002678,0.000431,0.001763
28375000,0.0324,0.013523,0.002678,0.000431,0.001528
28376000,0.0324,0.013523,0.002678,0.000431,0.001763
28377000,0.0324,0.013523,0.002678,0.000431,0.001645
28378000,0.0324,0.013523,0.002678,0.000431,0.001763
28379000,0.0324,0.013523,0.002678,0.000431,0.001645
28380000,0.0324,0.013523,0.002678,0.000431,0.001645
28381000,0.0324,0.013523,0.002678,0.000431,0.001763
28382000,0.0324,0.013523,0.002678,0.000431,0.001528
28383000,0.0324,0.013523,0.002678,0.000431,0.001763
28384000,0.0324,0.013523,0.002678,0.000431,0.001645
28385000,0.0324,0.013523,0.002678,0.000431,0.001763
28386000,0.0324,0.013523,0.002678,0.000431,0.001528
28387000,0.0324,0.013523,0.002678,0.000431,0.001763
28388000,0.0324,0.013523,0.002678,0.000431,0.001645
28389000,0.0324,0.013523,0.002678,0.000431,0.001645
28390000,0.0324,0.013523,0.002678,0.000431,0.001528
28391000,0.0324,0.013523,0.002678,0.000431,0.001763
28392000,0.0324,0.013523,0.002678,0.000431,0.001880
28393000,0.0324,0.013523,0.002678,0.000431,0.001528
28394000,0.0324,0.013523,0.002678,0.000431,0.001763
28395000,0.0324,0.013523,0.002678,0.000431,0.001410
28396000,0.0324,0.013523,0.002678,0.000431,0.001880
28397000,0.0324,0.013523,0.002678,0.000431,0.001763
28398000,0.0324,0.013523,0.002678,0.000431,0.001528
28399000,0.0324,0.013523,0.002678,0.000431,0.001763
28400000,0.0324,0.013523,0.002678,0.000431,0.001528
28401000,0.0324,0.013523,0.002678,0.000431,0.001880
28402000,0.0324,0.013523,0.002678,0.000431,0.001528
28403000,0.0324,0.013523,0.002678,0.000431,0.001763
28404000,0.0324,0.013523,0.002678,0.000431,0.001763
28405000,0.0324,0.013523,0.002678,0.000431,0.001528
28406000,0.0324,0.013523,0.002678,0.000431,0.001763
28407000,0.0324,0.013523,0.002678,0.000431,0.001645
28408000,0.0324,0.013523,0.002678,0.000431,0.001645
28409000,0.0324,0.013523,0.002678,0.000431,0.001645
28410000,0.0324,0.013523,0.002678,0.000431,0.001645
28411000,0.0324,0.013523,0.002678,0.000431,0.001763
28412000,0.0324,0.013523,0.002678,0.000431,0.001645
28413000,0.0324,0.013523,0.002678,0.000431,0.001763
28414000,0.0324,0.013523,0.002678,0.000431,0.001645
28415000,0.0324,0.013523,0.002678,0.000431,0.001528
28416000,0.0324,0.013523,0.002678,0.000431,0.001763
28417000,0.0324,0.013523,0.002678,0.000431,0.001763
28418000,0.0324,0.013523,0.002678,0.000431,0.001528
28419000,0.0324,0.013523,0.002678,0.000431,0.001763
28420000,0.0324,0.013523,0.002678,0.000431,0.001645
28421000,0.0324,0.013523,0.002678,0.000431,0.001645
28422000,0.0324,0.013523,0.002678,0.000431,0.001763
28423000,0.0324,0.013523,0.002678,0.000431,0.001528
28424000,0.0324,0.013523,0.002678,0.000431,0.001880
28425000,0.0324,0.013523,0.002678,0.000431,0.001645
28426000,0.0324,0.013523,0.002678,0.000431,0.001645
28427000,0.0324,0.013523,0.002678,0.000431,0.001763
28428000,0.0324,0.013523,0.002678,0.000431,0.001528
28429000,0.0324,0.013523,0.002678,0.000431,0.001763
28430000,0.0324,0.013523,0.002678,0.000431,0.001645
28431000,0.0324,0.013523,0.002678,0.000431,0.001645
28432000,0.0324,0.013523,0.002678,0.000431,0.001645
28433000,0.0324,0.013523,0.002678,0.000431,0.001763
28434000,0.0324,0.013523,0.002678,0.000431,0.001763
28435000,0.0324,0.013523,0.002678,0.000431,0.001528
28436000,0.0324,0.013523,0.002678,0.000431,0.001763
28437000,0.0324,0.013523,0.002678,0.000431,0.001645
28438000,0.0324,0.013523,0.002678,0.000431,0.001528
28439000,0.0324,0.013523,0.002678,0.000431,0.001763
28440000,0.0324,0.013523,0.002678,0.000431,0.001763
28441000,0.0324,0.013523,0.002678,0.000431,0.001528
28442000,0.0324,0.013523,0.002678,0.000431,0.001763
28443000,0.0324,0.013523,0.002678,0.000431,0.001528
28444000,0.0324,0.013523,0.002678,0.000431,0.001880
28445000,0.0324,0.013523,0.002678,0.000431,0.001763
28446000,0.0324,0.013523,0.002678,0.000431,0.001528
28447000,0.0324,0.013523,0.002678,0.000431,0.001763
28448000,0.0324,0.013523,0.002678,0.000431,0.001410
28449000,0.0324,0.013523,0.002678,0.000431,0.001880
28450000,0.0324,0.013523,0.002678,0.000431,0.001763
28451000,0.0324,0.013523,0.002678,0.000431,0.001528
28452000,0.0324,0.013523,0.002678,0.000431,0.001763
28453000,0.0324,0.013523,0.002678,0.000431,0.001528
28454000,0.0324,0.013523,0.002678,0.000431,0.001880
28455000,0.0324,0.013523,0.002678,0.000431,0.001645
28456000,0.0324,0.013523,0.002678,0.000431,0.001645
28457000,0.0324,0.013523,0.002678,0.000431,0.001763
28458000,0.0324,0.013523,0.002678,0.000431,0.001410
28459000,0.0324,0.013523,0.002678,0.000431,0.001880
28460000,0.0324,0.013523,0.002678,0.000431,0.001645
28461000,0.0324,0.013523,0.002678,0.000431,0.001645
28462000,0.0324,0.013523,0.002678,0.000431,0.001645
28463000,0.0324,0.013523,0.002678,0.000431,0.001645
28464000,0.0324,0.013523,0.002678,0.000431,0.001763
28465000,0.0324,0.013523,0.002678,0.000431,0.001645
28466000,0.0324,0.013523,0.002678,0.000431,0.001763
28467000,0.0324,0.013523,0.002678,0.000431,0.001645
28468000,0.0324,0.013523,0.002678,0.000431,0.001528
28469000,0.0324,0.013523,0.002678,0.000431,0.001763
28470000,0.0324,0.013523,0.002678,0.000431,0.001763
28471000,0.0324,0.013523,0.002678,0.000431,0.001410
28472000,0.0324,0.013523,0.002678,0.000431,0.001880
28473000,0.0324,0.013523,0.002678,0.000431,0.001645
28474000,0.0324,0.013523,0.002678,0.000431,0.001645
28475000,0.0324,0.013523,0.002678,0.000431,0.001763
28476000,0.0324,0.013523,0.002678,0.000431,0.001528
28477000,0.0324,0.013523,0.002678,0.000431,0.001880
28478000,0.0324,0.013523,0.002678,0.000431,0.001528
28479000,0.0324,0.013523,0.002678,0.000431,0.001763
28480000,0.0324,0.013523,0.002678,0.000431,0.001645
28481000,0.0324,0.013523,0.002678,0.000431,0.001645
28482000,0.0324,0.013523,0.002678,0.000431,0.001645
28483000,0.0324,0.013523,0.002678,0.000431,0.001645
28484000,0.0324,0.013523,0.002678,0.000431,0.001763
28485000,0.0324,0.013523,0.002678,0.000431,0.001645
28486000,0.0324,0.013523,0.002678,0.000431,0.001763
28487000,0.0324,0.013523,0.002678,0.000431,0.001528
28488000,0.0324,0.013523,0.002678,0.000431,0.001763
28489000,0.0324,0.013523,0.002678,0.000431,0.001645
28490000,0.0324,0.013523,0.002678,0.000431,0.001645
28491000,0.0324,0.013523,0.002678,0.000431,0.001528
28492000,0.0324,0.013523,0.002678,0.000431,0.001763
28493000,0.0324,0.013523,0.002678,0.000431,0.001880
28494000,0.0324,0.013523,0.002678,0.000431,0.001528
28495000,0.0324,0.013523,0.002678,0.000431,0.001763
28496000,0.0324,0.013523,0.002678,0.000431,0.001410
28497000,0.0324,0.013523,0.002678,0.000431,0.001880
28498000,0.0324,0.013523,0.002678,0.000431,0.001763
28499000,0.0324,0.013523,0.002678,0.000431,0.001528
28500000,0.0324,0.013523,0.002678,0.000431,0.001880
28501000,0.0324,0.013523,0.002678,0.000431,0.001410
28502000,0.0324,0.013523,0.002678,0.000431,0.001880
28503000,0.0324,0.013523,0.002678,0.000431,0.001645
28504000,0.0324,0.013523,0.002678,0.000431,0.001645
28505000,0.0324,0.013523,0.002678,0.000431,0.001763
28506000,0.0324,0.013523,0.002678,0.000431,0.001528
28507000,0.0324,0.013523,0.002678,0.000431,0.001880
28508000,0.0324,0.013523,0.002678,0.000431,0.001528
28509000,0.0324,0.013523,0.002678,0.000431,0.001763
28510000,0.0324,0.013523,0.002678,0.000431,0.001645
28511000,0.0324,0.013523,0.002678,0.000431,0.001645
28512000,0.0324,0.013523,0.002678,0.000431,0.001645
28513000,0.0324,0.013523,0.002678,0.000431,0.001645
28514000,0.0324,0.013523,0.002678,0.000431,0.001880
28515000,0.0324,0.013523,0.002678,0.000431,0.001528
28516000,0.0324,0.013523,0.002678,0.000431,0.001645
28517000,0.0324,0.013523,0.002678,0.000431,0.001763
28518000,0.0324,0.013523,0.002678,0.000431,0.001645
28519000,0.0324,0.013523,0.002678,0.000431,0.001645
28520000,0.0324,0.013523,0.002678,0.000431,0.001645
28521000,0.0324,0.013523,0.002678,0.000431,0.001763
28522000,0.0324,0.013523,0.002678,0.000431,0.001528
28523000,0.0324,0.013523,0.002678,0.000431,0.001880
28524000,0.0324,0.013523,0.002678,0.000431,0.001528
28525000,0.0324,0.013523,0.002678,0.000431,0.001763
28526000,0.0324,0.013523,0.002678,0.000431,0.001645
28527000,0.0324,0.013523,0.002678,0.000431,0.001645
28528000,0.0324,0.013523,0.002678,0.000431,0.001880
28529000,0.0324,0.013523,0.002678,0.000431,0.001410
28530000,0.0324,0.013523,0.002678,0.000431,0.001880
28531000,0.0324,0.013523,0.002678,0.000431,0.001528
28532000,0.0324,0.013523,0.002678,0.000431,0.001763
28533000,0.0324,0.013523,0.002678,0.000431,0.001645
28534000,0.0324,0.013523,0.002678,0.000431,0.001645
28535000,0.0324,0.013523,0.002678,0.000431,0.001880
28536000,0.0324,0.013523,0.002678,0.000431,0.001410
28537000,0.0324,0.013523,0.002678,0.000431,0.001880
28538000,0.0324,0.013523,0.002678,0.000431,0.001645
28539000,0.0324,0.013523,0.002678,0.000431,0.001645
28540000,0.0324,0.013523,0.002678,0.000431,0.001645
28541000,0.0324,0.013523,0.002678,0.000431,0.001645
28542000,0.0324,0.013523,0.002678,0.000431,0.001880
28543000,0.0324,0.013523,0.002678,0.000431,0.001410
28544000,0.0324,0.013523,0.002678,0.000431,0.001763
28545000,0.0324,0.013523,0.002678,0.000431,0.001763
28546000,0.0324,0.013523,0.002678,0.000431,0.001645
28547000,0.0324,0.013523,0.002678,0.000431,0.001645
28548000,0.0324,0.013523,0.002678,0.000431,0.001645
28549000,0.0324,0.013523,0.002678,0.000431,0.001645
28550000,0.0324,0.013523,0.002678,0.000431,0.001645
28551000,0.0324,0.013523,0.002678,0.000431,0.001880
28552000,0.0324,0.013523,0.002678,0.000431,0.002821
28553000,0.0324,0.013523,0.002678,0.000431,0.000823
28554000,0.0324,0.013523,0.002678,0.000431,0.000705
28555000,0.0324,0.013523,0.002678,0.000431,0.000940
28556000,0.0324,0.013523,0.002678,0.000431,0.000940
28557000,0.0324,0.013523,0.002678,0.000431,0.000705
28558000,0.0324,0.013523,0.002678,0.000431,0.000940
28559000,0.0324,0.013523,0.002678,0.000431,0.000705
28560000,0.0324,0.013523,0.002678,0.000431,0.000940
28561000,0.0324,0.013523,0.002678,0.000431,0.000823
28562000,0.0324,0.013523,0.002678,0.000431,0.000823
28563000,0.0324,0.013523,0.002678,0.000431,0.000940
28564000,0.0324,0.013523,0.002678,0.000431,0.000705
28565000,0.0324,0.013523,0.002678,0.000431,0.000940
28566000,0.0324,0.013523,0.002678,0.000431,0.000823
28567000,0.0324,0.013523,0.002678,0.000431,0.000823
28568000,0.0324,0.013523,0.002678,0.000431,0.000823
28569000,0.0324,0.013523,0.002678,0.000431,0.000823
28570000,0.0324,0.013523,0.002678,0.000431,0.000940
28571000,0.0324,0.013523,0.002678,0.000431,0.000705
28572000,0.0324,0.013523,0.002678,0.000431,0.000940
28573000,0.0324,0.013523,0.002678,0.000431,0.000823
28574000,0.0324,0.013523,0.002678,0.000431,0.000823
28575000,0.0324,0.013523,0.002678,0.000431,0.000823
28576000,0.0324,0.013523,0.002678,0.000431,0.000823
28577000,0.0324,0.013523,0.002678,0.000431,0.000940
28578000,0.0324,0.013523,0.002678,0.000431,0.000705
28579000,0.0324,0.013523,0.002678,0.000431,0.000823
28580000,0.0324,0.013523,0.002678,0.000431,0.000940
28581000,0.0324,0.013523,0.002678,0.000431,0.000823
28582000,0.0324,0.013523,0.002678,0.000431,0.000823
28583000,0.0324,0.013523,0.002678,0.000431,0.000823
28584000,0.0324,0.013523,0.002678,0.000431,0.000823
28585000,0.0324,0.013523,0.002678,0.000431,0.000823
28586000,0.0324,0.013523,0.002678,0.000431,0.000940
28587000,0.0324,0.013523,0.002678,0.000431,0.000823
28588000,0.0324,0.013523,0.002678,0.000431,0.000823
28589000,0.0324,0.013523,0.002678,0.000431,0.000705
28590000,0.0324,0.013523,0.002678,0.000431,0.000940
28591000,0.0324,0.013523,0.002678,0.000431,0.000940
28592000,0.0324,0.013523,0.002678,0.000431,0.000705
28593000,0.0324,0.013523,0.002678,0.000431,0.000940
28594000,0.0324,0.013523,0.002678,0.000431,0.000705
28595000,0.0324,0.013523,0.002678,0.000431,0.000940
28596000,0.0324,0.013523,0.002678,0.000431,0.000823
28597000,0.0324,0.013523,0.002678,0.000431,0.000823
28598000,0.0324,0.013523,0.002678,0.000431,0.000940
28599000,0.0324,0.013523,0.002678,0.000431,0.000705
28600000,0.0324,0.013523,0.002678,0.000431,0.000940
28601000,0.0324,0.013523,0.002678,0.000431,0.000823
28602000,0.0324,0.013523,0.002678,0.000431,0.000823
28603000,0.0324,0.013523,0.002678,0.000431,0.000823
28604000,0.0324,0.013523,0.002678,0.000431,0.000823
28605000,0.0324,0.013523,0.002678,0.000431,0.000940
28606000,0.0324,0.013523,0.002678,0.000431,0.000705
28607000,0.0324,0.013523,0.002678,0.000431,0.000940
28608000,0.0324,0.013523,0.002678,0.000431,0.000823
28609000,0.0324,0.013523,0.002678,0.000431,0.000823
28610000,0.0324,0.013523,0.002678,0.000431,0.000823
28611000,0.0324,0.013523,0.002678,0.000431,0.000823
28612000,0.0324,0.013523,0.002678,0.000431,0.000940
28613000,0.0324,0.013523,0.002678,0.000431,0.000705
28614000,0.0324,0.013523,0.002678,0.000431,0.000940
28615000,0.0324,0.013523,0.002678,0.000431,0.000823
28616000,0.0324,0.013523,0.002678,0.000431,0.000823
28617000,0.0324,0.013523,0.002678,0.000431,0.000705
28618000,0.0324,0.013523,0.002678,0.000431,0.000940
28619000,0.0324,0.013523,0.002678,0.000431,0.000940
28620000,0.0324,0.013523,0.002678,0.000431,0.000705
28621000,0.0324,0.013523,0.002678,0.000431,0.000940
28622000,0.0324,0.013523,0.002678,0.000431,0.000705
28623000,0.0324,0.013523,0.002678,0.000431,0.000940
28624000,0.0324,0.013523,0.002678,0.000431,0.000823
28625000,0.0324,0.013523,0.002678,0.000431,0.000823
28626000,0.0324,0.013523,0.002678,0.000431,0.000940
28627000,0.0324,0.013523,0.002678,0.000431,0.000705
28628000,0.0324,0.013523,0.002678,0.000431,0.000940
28629000,0.0324,0.013523,0.002678,0.000431,0.000823
28630000,0.0324,0.013523,0.002678,0.000431,0.000823
28631000,0.0324,0.013523,0.002678,0.000431,0.000823
28632000,0.0324,0.013523,0.002678,0.000431,0.000823
28633000,0.0324,0.013523,0.002678,0.000431,0.000940
28634000,0.0324,0.013523,0.002678,0.000431,0.000705
28635000,0.0324,0.013523,0.002678,0.000431,0.000940
28636000,0.0324,0.013523,0.002678,0.000431,0.000823
28637000,0.0324,0.013523,0.002678,0.000431,0.000823
28638000,0.0324,0.013523,0.002678,0.000431,0.000823
28639000,0.0324,0.013523,0.002678,0.000431,0.000823
28640000,0.0324,0.013523,0.002678,0.000431,0.000940
28641000,0.0324,0.013523,0.002678,0.000431,0.000705
28642000,0.0324,0.013523,0.002678,0.000431,0.000823
28643000,0.0324,0.013523,0.002678,0.000431,0.000940
28644000,0.0324,0.013523,0.002678,0.000431,0.000823
28645000,0.0324,0.013523,0.002678,0.000431,0.000823
28646000,0.0324,0.013523,0.002678,0.000431,0.000823
28647000,0.0324,0.013523,0.002678,0.000431,0.000705
28648000,0.0324,0.013523,0.002678,0.000431,0.000940
28649000,0.0324,0.013523,0.002678,0.000431,0.000705
28650000,0.0324,0.013523,0.002678,0.000431,0.000940
28651000,0.0324,0.013523,0.002678,0.000431,0.000940
28652000,0.0324,0.013523,0.002678,0.000431,0.000705
28653000,0.0324,0.013523,0.002678,0.000431,0.000940
28654000,0.0324,0.013523,0.002678,0.000431,0.000705
28655000,0.0324,0.013523,0.002678,0.000431,0.000940
28656000,0.0324,0.013523,0.002678,0.000431,0.000823
28657000,0.0324,0.013523,0.002678,0.000431,0.000823
28658000,0.0324,0.013523,0.002678,0.000431,0.000823
28659000,0.0324,0.013523,0.002678,0.000431,0.000823
28660000,0.0324,0.013523,0.002678,0.000431,0.000940
28661000,0.0324,0.013523,0.002678,0.000431,0.000705
28662000,0.0324,0.013523,0.002678,0.000431,0.000940
28663000,0.0324,0.013523,0.002678,0.000431,0.000823
28664000,0.0324,0.013523,0.002678,0.000431,0.000823
28665000,0.0324,0.013523,0.002678,0.000431,0.000823
28666000,0.0324,0.013523,0.002678,0.000431,0.000823
28667000,0.0324,0.013523,0.002678,0.000431,0.000940
28668000,0.0324,0.013523,0.002678,0.000431,0.000705
28669000,0.0324,0.013523,0.002678,0.000431,0.000823
28670000,0.0324,0.013523,0.002678,0.000431,0.000823
28671000,0.0324,0.013523,0.002678,0.000431,0.000940
28672000,0.0324,0.013523,0.002678,0.000431,0.000823
28673000,0.0324,0.013523,0.002678,0.000431,0.000823
28674000,0.0324,0.013523,0.002678,0.000431,0.000705
28675000,0.0324,0.013523,0.002678,0.000431,0.000940
28676000,0.0324,0.013523,0.002678,0.000431,0.000940
28677000,0.0324,0.013523,0.002678,0.000431,0.000705
28678000,0.0324,0.013523,0.002678,0.000431,0.000940
28679000,0.0324,0.013523,0.002678,0.000431,0.000705
28680000,0.0324,0.013523,0.002678,0.000431,0.000940
28681000,0.0324,0.013523,0.002678,0.000431,0.000823
28682000,0.0324,0.013523,0.002678,0.000431,0.000823
28683000,0.0324,0.013523,0.002678,0.000431,0.000940
28684000,0.0324,0.013523,0.002678,0.000431,0.000705
28685000,0.0324,0.013523,0.002678,0.000431,0.000940
28686000,0.0324,0.013523,0.002678,0.000431,0.000823
28687000,0.0324,0.013523,0.002678,0.000431,0.000823
28688000,0.0324,0.013523,0.002678,0.000431,0.000823
28689000,0.0324,0.013523,0.002678,0.000431,0.000823
28690000,0.0324,0.013523,0.002678,0.000431,0.000823
28691000,0.0324,0.013523,0.002678,0.000431,0.000823
28692000,0.0324,0.013523,0.002678,0.000431,0.000940
28693000,0.0324,0.013523,0.002678,0.000431,0.000705
28694000,0.0324,0.013523,0.002678,0.000431,0.000940
28695000,0.0324,0.013523,0.002678,0.000431,0.000823
28696000,0.0324,0.013523,0.002678,0.000431,0.001528
28697000,0.0324,0.013523,0.002678,0.000431,0.332605
28698000,0.0324,0.013523,0.002678,0.000431,0.679783
28699000,0.0324,0.013523,0.002678,0.000431,0.145500
28700000,0.0324,0.013523,0.002678,0.000431,0.133982
28701000,0.0324,0.013523,0.002678,0.000431,0.131632
28702000,0.0324,0.013523,0.002678,0.000431,0.601157
28703000,0.0324,0.013523,0.002678,0.000431,0.227182
28704000,0.0324,0.013523,0.002678,0.000431,0.282185
28705000,0.0324,0.013523,0.002678,0.000431,0.269257
28706000,0.0324,0.013523,0.002678,0.000431,0.137861
28707000,0.0324,0.013523,0.002678,0.000431,0.150436
28708000,0.0324,0.013523,0.002678,0.000431,0.107656
28709000,0.0324,0.013523,0.002678,0.000431,0.401476
28710000,0.0324,0.013523,0.002678,0.000431,0.174999
28711000,0.0324,0.013523,0.002678,0.000431,0.042310
28712000,0.0324,0.013523,0.002678,0.000431,0.033966
28713000,0.0324,0.013523,0.002678,0.000431,0.025386
28714000,0.0324,0.013523,0.002678,0.000431,0.026914
28715000,0.0324,0.013523,0.002678,0.000431,0.018217
28716000,0.0324,0.013523,0.002678,0.000431,0.018452
28717000,0.0324,0.013523,0.002678,0.000431,0.014103
28718000,0.0324,0.013523,0.002678,0.000431,0.014456
28719000,0.0324,0.013523,0.002678,0.000431,0.016336
28720000,0.0324,0.013523,0.002678,0.000431,0.014573
28721000,0.0324,0.013523,0.002678,0.000431,0.016336
28722000,0.0324,0.013523,0.002678,0.000431,0.011870
28723000,0.0324,0.013523,0.002678,0.000431,0.012811
28724000,0.0324,0.013523,0.002678,0.000431,0.011988
28725000,0.0324,0.013523,0.002678,0.000431,0.009402
28726000,0.0324,0.013523,0.002678,0.000431,0.005406
28727000,0.0324,0.013523,0.002678,0.000431,0.005171
28728000,0.0324,0.013523,0.002678,0.000431,0.004936
28729000,0.0324,0.013523,0.002678,0.000431,0.005171
28730000,0.0324,0.013523,0.002678,0.000431,0.005289
28731000,0.0324,0.013523,0.002678,0.000431,0.004584
28732000,0.0324,0.013523,0.002678,0.000431,0.005406
28733000,0.0324,0.013523,0.002678,0.000431,0.005171
28734000,0.0324,0.013523,0.002678,0.000431,0.005054
28735000,0.0324,0.013523,0.002678,0.000431,0.004936
28736000,0.0324,0.013523,0.002678,0.000431,0.006111
28737000,0.0324,0.013523,0.002678,0.000431,0.004231
28738000,0.0324,0.013523,0.002678,0.000431,0.004231
28739000,0.0324,0.013523,0.002678,0.000431,0.004231
28740000,0.0324,0.013523,0.002678,0.000431,0.004349
28741000,0.0324,0.013523,0.002678,0.000431,0.004231
28742000,0.0324,0.013523,0.002678,0.000431,0.004466
28743000,0.0324,0.013523,0.002678,0.000431,0.003996
28744000,0.0324,0.013523,0.002678,0.000431,0.004349
28745000,0.0324,0.013523,0.002678,0.000431,0.004349
28746000,0.0324,0.013523,0.002678,0.000431,0.004349
28747000,0.0324,0.013523,0.002678,0.000431,0.004113
28748000,0.0324,0.013523,0.002678,0.000431,0.004349
28749000,0.0324,0.013523,0.002678,0.000431,0.006817
28750000,0.0324,0.013523,0.002678,0.000431,0.003526
28751000,0.0324,0.013523,0.002678,0.000431,0.002703
28752000,0.0324,0.013523,0.002678,0.000431,0.002233
28753000,0.0324,0.013523,0.002678,0.000431,0.002703
28754000,0.0324,0.013523,0.002678,0.000431,0.002586
28755000,0.0324,0.013523,0.002678,0.000431,0.002586
28756000,0.0324,0.013523,0.002678,0.000431,0.002586
28757000,0.0324,0.013523,0.002678,0.000431,0.002468
28758000,0.0324,0.013523,0.002678,0.000431,0.002703
28759000,0.0324,0.013523,0.002678,0.000431,0.002468
28760000,0.0324,0.013523,0.002678,0.000431,0.002468
28761000,0.0324,0.013523,0.002678,0.000431,0.002586
28762000,0.0324,0.013523,0.002678,0.000431,0.002586
28763000,0.0324,0.013523,0.002678,0.000431,0.002586
28764000,0.0324,0.013523,0.002678,0.000431,0.002468
28765000,0.0324,0.013523,0.002678,0.000431,0.002703
28766000,0.0324,0.013523,0.002678,0.000431,0.002468
28767000,0.0324,0.013523,0.002678,0.000431,0.002351
28768000,0.0324,0.013523,0.002678,0.000431,0.002703
28769000,0.0324,0.013523,0.002678,0.000431,0.002703
28770000,0.0324,0.013523,0.002678,0.000431,0.002586
28771000,0.0324,0.013523,0.002678,0.000431,0.003643
28772000,0.0324,0.013523,0.002678,0.000431,0.002116
28773000,0.0324,0.013523,0.002678,0.000431,0.001763
28774000,0.0324,0.013523,0.002678,0.000431,0.001645
28775000,0.0324,0.013523,0.002678,0.000431,0.001528
28776000,0.0324,0.013523,0.002678,0.000431,0.001880
28777000,0.0324,0.013523,0.002678,0.000431,0.001645
28778000,0.0324,0.013523,0.002678,0.000431,0.001645
28779000,0.0324,0.013523,0.002678,0.000431,0.001645
28780000,0.0324,0.013523,0.002678,0.000431,0.001645
28781000,0.0324,0.013523,0.002678,0.000431,0.001763
28782000,0.0324,0.013523,0.002678,0.000431,0.001645
28783000,0.0324,0.013523,0.002678,0.000431,0.001645
28784000,0.0324,0.013523,0.002678,0.000431,0.001763
28785000,0.0324,0.013523,0.002678,0.000431,0.001645
28786000,0.0324,0.013523,0.002678,0.000431,0.001645
28787000,0.0324,0.013523,0.002678,0.000431,0.001645
28788000,0.0324,0.013523,0.002678,0.000431,0.001645
28789000,0.0324,0.013523,0.002678,0.000431,0.001763
28790000,0.0324,0.013523,0.002678,0.000431,0.001645
28791000,0.0324,0.013523,0.002678,0.000431,0.001763
28792000,0.0324,0.013523,0.002678,0.000431,0.001410
28793000,0.0324,0.013523,0.002678,0.000431,0.001880
28794000,0.0324,0.013523,0.002678,0.000431,0.001763
28795000,0.0324,0.013523,0.002678,0.000431,0.001528
28796000,0.0324,0.013523,0.002678,0.000431,0.001763
28797000,0.0324,0.013523,0.002678,0.000431,0.001528
28798000,0.0324,0.013523,0.002678,0.000431,0.001763
28799000,0.0324,0.013523,0.002678,0.000431,0.001645
28800000,0.0324,0.013523,0.002678,0.000431,0.001645
28801000,0.0324,0.013523,0.002678,0.000431,0.001880
28802000,0.0324,0.013523,0.002678,0.000431,0.001528
28803000,0.0324,0.013523,0.002678,0.000431,0.001763
28804000,0.0324,0.013523,0.002678,0.000431,0.001645
28805000,0.0324,0.013523,0.002678,0.000431,0.001528
28806000,0.0324,0.013523,0.002678,0.000431,0.001763
28807000,0.0324,0.013523,0.002678,0.000431,0.001763
28808000,0.0324,0.013523,0.002678,0.000431,0.001528
28809000,0.0324,0.013523,0.002678,0.000431,0.001763
28810000,0.0324,0.013523,0.002678,0.000431,0.001645
28811000,0.0324,0.013523,0.002678,0.000431,0.001645
28812000,0.0324,0.013523,0.002678,0.000431,0.001880
28813000,0.0324,0.013523,0.002678,0.000431,0.001528
28814000,0.0324,0.013523,0.002678,0.000431,0.001763
28815000,0.0324,0.013523,0.002678,0.000431,0.001410
28816000,0.0324,0.013523,0.002678,0.000431,0.001880
28817000,0.0324,0.013523,0.002678,0.000431,0.001763
28818000,0.0324,0.013523,0.002678,0.000431,0.001528
28819000,0.0324,0.013523,0.002678,0.000431,0.001880
28820000,0.0324,0.013523,0.002678,0.000431,0.001410
28821000,0.0324,0.013523,0.002678,0.000431,0.001880
28822000,0.0324,0.013523,0.002678,0.000431,0.001528
28823000,0.0324,0.013523,0.002678,0.000431,0.001763
28824000,0.0324,0.013523,0.002678,0.000431,0.001645
28825000,0.0324,0.013523,0.002678,0.000431,0.001645
28826000,0.0324,0.013523,0.002678,0.000431,0.001763
28827000,0.0324,0.013523,0.002678,0.000431,0.001528
28828000,0.0324,0.013523,0.002678,0.000431,0.001763
28829000,0.0324,0.013523,0.002678,0.000431,0.001645
28830000,0.0324,0.013523,0.002678,0.000431,0.001763
28831000,0.0324,0.013523,0.002678,0.000431,0.001528
28832000,0.0324,0.013523,0.002678,0.000431,0.001763
28833000,0.0324,0.013523,0.002678,0.000431,0.001528
28834000,0.0324,0.013523,0.002678,0.000431,0.001763
28835000,0.0324,0.013523,0.002678,0.000431,0.001763
28836000,0.0324,0.013523,0.002678,0.000431,0.001528
28837000,0.0324,0.013523,0.002678,0.000431,0.001880
28838000,0.0324,0.013523,0.002678,0.000431,0.001528
28839000,0.0324,0.013523,0.002678,0.000431,0.001763
28840000,0.0324,0.013523,0.002678,0.000431,0.001528
28841000,0.0324,0.013523,0.002678,0.000431,0.001763
28842000,0.0324,0.013523,0.002678,0.000431,0.001763
28843000,0.0324,0.013523,0.002678,0.000431,0.001528
28844000,0.0324,0.013523,0.002678,0.000431,0.001763
28845000,0.0324,0.013523,0.002678,0.000431,0.001528
28846000,0.0324,0.013523,0.002678,0.000431,0.001880
28847000,0.0324,0.013523,0.002678,0.000431,0.001528
28848000,0.0324,0.013523,0.002678,0.000431,0.001645
28849000,0.0324,0.013523,0.002678,0.000431,0.001763
28850000,0.0324,0.013523,0.002678,0.000431,0.001645
28851000,0.0324,0.013523,0.002678,0.000431,0.001763
28852000,0.0324,0.013523,0.002678,0.000431,0.001528
28853000,0.0324,0.013523,0.002678,0.000431,0.001645
28854000,0.0324,0.013523,0.002678,0.000431,0.001763
28855000,0.0324,0.013523,0.002678,0.000431,0.001763
28856000,0.0324,0.013523,0.002678,0.000431,0.001528
28857000,0.0324,0.013523,0.002678,0.000431,0.001763
28858000,0.0324,0.013523,0.002678,0.000431,0.001410
28859000,0.0324,0.013523,0.002678,0.000431,0.001880
28860000,0.0324,0.013523,0.002678,0.000431,0.001880
28861000,0.0324,0.013523,0.002678,0.000431,0.001410
28862000,0.0324,0.013523,0.002678,0.000431,0.001880
28863000,0.0324,0.013523,0.002678,0.000431,0.001410
28864000,0.0324,0.013523,0.002678,0.000431,0.001880
28865000,0.0324,0.013523,0.002678,0.000431,0.001763
28866000,0.0324,0.013523,0.002678,0.000431,0.001528
28867000,0.0324,0.013523,0.002678,0.000431,0.001763
28868000,0.0324,0.013523,0.002678,0.000431,0.001528
28869000,0.0324,0.013523,0.002678,0.000431,0.001880
28870000,0.0324,0.013523,0.002678,0.000431,0.001645
28871000,0.0324,0.013523,0.002678,0.000431,0.001645
28872000,0.0324,0.013523,0.002678,0.000431,0.001645
28873000,0.0324,0.013523,0.002678,0.000431,0.001645
28874000,0.0324,0.013523,0.002678,0.000431,0.001763
28875000,0.0324,0.013523,0.002678,0.000431,0.001528
28876000,0.0324,0.013523,0.002678,0.000431,0.001880
28877000,0.0324,0.013523,0.002678,0.000431,0.001528
28878000,0.0324,0.013523,0.002678,0.000431,0.001645
28879000,0.0324,0.013523,0.002678,0.000431,0.001763
28880000,0.0324,0.013523,0.002678,0.000431,0.001645
28881000,0.0324,0.013523,0.002678,0.000431,0.001528
28882000,0.0324,0.013523,0.002678,0.000431,0.001763
28883000,0.0324,0.013523,0.002678,0.000431,0.001763
28884000,0.0324,0.013523,0.002678,0.000431,0.001528
28885000,0.0324,0.013523,0.002678,0.000431,0.001880
28886000,0.0324,0.013523,0.002678,0.000431,0.001528
28887000,0.0324,0.013523,0.002678,0.000431,0.001763
28888000,0.0324,0.013523,0.002678,0.000431,0.001645
28889000,0.0324,0.013523,0.002678,0.000431,0.001645
28890000,0.0324,0.013523,0.002678,0.000431,0.001880
28891000,0.0324,0.013523,0.002678,0.000431,0.001410
28892000,0.0324,0.013523,0.002678,0.000431,0.001880
28893000,0.0324,0.013523,0.002678,0.000431,0.001528
28894000,0.0324,0.013523,0.002678,0.000431,0.001763
28895000,0.0324,0.013523,0.002678,0.000431,0.001645
28896000,0.0324,0.013523,0.002678,0.000431,0.001645
28897000,0.0324,0.013523,0.002678,0.000431,0.001880
28898000,0.0324,0.013523,0.002678,0.000431,0.001410
28899000,0.0324,0.013523,0.002678,0.000431,0.001880
28900000,0.0324,0.013523,0.002678,0.000431,0.001645
28901000,0.0324,0.013523,0.002678,0.000431,0.001645
28902000,0.0324,0.013523,0.002678,0.000431,0.001645
28903000,0.0324,0.013523,0.002678,0.000431,0.001645
28904000,0.0324,0.013523,0.002678,0.000431,0.001880
28905000,0.0324,0.013523,0.002678,0.000431,0.001410
28906000,0.0324,0.013523,0.002678,0.000431,0.001763
28907000,0.0324,0.013523,0.002678,0.000431,0.001763
28908000,0.0324,0.013523,0.002678,0.000431,0.001645
28909000,0.0324,0.013523,0.002678,0.000431,0.001645
28910000,0.0324,0.013523,0.002678,0.000431,0.001645
28911000,0.0324,0.013523,0.002678,0.000431,0.001645
28912000,0.0324,0.013523,0.002678,0.000431,0.001645
28913000,0.0324,0.013523,0.002678,0.000431,0.001880
28914000,0.0324,0.013523,0.002678,0.000431,0.001763
28915000,0.0324,0.013523,0.002678,0.000431,0.001528
28916000,0.0324,0.013523,0.002678,0.000431,0.001410
28917000,0.0324,0.013523,0.002678,0.000431,0.001880
28918000,0.0324,0.013523,0.002678,0.000431,0.001880
28919000,0.0324,0.013523,0.002678,0.000431,0.001410
28920000,0.0324,0.013523,0.002678,0.000431,0.001880
28921000,0.0324,0.013523,0.002678,0.000431,0.001410
28922000,0.0324,0.013523,0.002678,0.000431,0.001880
28923000,0.0324,0.013523,0.002678,0.000431,0.001645
28924000,0.0324,0.013523,0.002678,0.000431,0.001645
28925000,0.0324,0.013523,0.002678,0.000431,0.001880
28926000,0.0324,0.013523,0.002678,0.000431,0.001410
28927000,0.0324,0.013523,0.002678,0.000431,0.001880
28928000,0.0324,0.013523,0.002678,0.000431,0.001645
28929000,0.0324,0.013523,0.002678,0.000431,0.001645
28930000,0.0324,0.013523,0.002678,0.000431,0.001645
28931000,0.0324,0.013523,0.002678,0.000431,0.001645
28932000,0.0324,0.013523,0.002678,0.000431,0.001645
28933000,0.0324,0.013523,0.002678,0.000431,0.001645
28934000,0.0324,0.013523,0.002678,0.000431,0.001880
28935000,0.0324,0.013523,0.002678,0.000431,0.001528
28936000,0.0324,0.013523,0.002678,0.000431,0.001645
28937000,0.0324,0.013523,0.002678,0.000431,0.001763
28938000,0.0324,0.013523,0.002678,0.000431,0.001645
28939000,0.0324,0.013523,0.002678,0.000431,0.001645
28940000,0.0324,0.013523,0.002678,0.000431,0.001645
28941000,0.0324,0.013523,0.002678,0.000431,0.001645
28942000,0.0324,0.013523,0.002678,0.000431,0.001645
28943000,0.0324,0.013523,0.002678,0.000431,0.001880
28944000,0.0324,0.013523,0.002678,0.000431,0.001410
28945000,0.0324,0.013523,0.002678,0.000431,0.001880
28946000,0.0324,0.013523,0.002678,0.000431,0.001645
28947000,0.0324,0.013523,0.002678,0.000431,0.001645
28948000,0.0324,0.013523,0.002678,0.000431,0.001880
28949000,0.0324,0.013523,0.002678,0.000431,0.001410
28950000,0.0324,0.013523,0.002678,0.000431,0.001880
28951000,0.0324,0.013523,0.002678,0.000431,0.001528
28952000,0.0324,0.013523,0.002678,0.000431,0.001763
28953000,0.0324,0.013523,0.002678,0.000431,0.001645
28954000,0.0324,0.013523,0.002678,0.000431,0.001645
28955000,0.0324,0.013523,0.002678,0.000431,0.001763
28956000,0.0324,0.013523,0.002678,0.000431,0.001528
28957000,0.0324,0.013523,0.002678,0.000431,0.001880
28958000,0.0324,0.013523,0.002678,0.000431,0.001528
28959000,0.0324,0.013523,0.002678,0.000431,0.001763
28960000,0.0324,0.013523,0.002678,0.000431,0.001645
28961000,0.0324,0.013523,0.002678,0.000431,0.001645
28962000,0.0324,0.013523,0.002678,0.000431,0.001645
28963000,0.0324,0.013523,0.002678,0.000431,0.001645
28964000,0.0324,0.013523,0.002678,0.000431,0.001528
28965000,0.0324,0.013523,0.002678,0.000431,0.001880
28966000,0.0324,0.013523,0.002678,0.000431,0.001763
28967000,0.0324,0.013523,0.002678,0.000431,0.001528
28968000,0.0324,0.013523,0.002678,0.000431,0.001763
28969000,0.0324,0.013523,0.002678,0.000431,0.001410
28970000,0.0324,0.013523,0.002678,0.000431,0.001880
28971000,0.0324,0.013523,0.002678,0.000431,0.001763
28972000,0.0324,0.013523,0.002678,0.000431,0.001528
28973000,0.0324,0.013523,0.002678,0.000431,0.001880
28974000,0.0324,0.013523,0.002678,0.000431,0.001410
28975000,0.0324,0.013523,0.002678,0.000431,0.001880
28976000,0.0324,0.013523,0.002678,0.000431,0.001763
28977000,0.0324,0.013523,0.002678,0.000431,0.001528
28978000,0.0324,0.013523,0.002678,0.000431,0.001763
28979000,0.0324,0.013523,0.002678,0.000431,0.001528
28980000,0.0324,0.013523,0.002678,0.000431,0.001763
28981000,0.0324,0.013523,0.002678,0.000431,0.001645
28982000,0.0324,0.013523,0.002678,0.000431,0.001763
28983000,0.0324,0.013523,0.002678,0.000431,0.001645
28984000,0.0324,0.013523,0.002678,0.000431,0.001528
28985000,0.0324,0.013523,0.002678,0.000431,0.001880
28986000,0.0324,0.013523,0.002678,0.000431,0.001645
28987000,0.0324,0.013523,0.002678,0.000431,0.001645
28988000,0.0324,0.013523,0.002678,0.000431,0.001645
28989000,0.0324,0.013523,0.002678,0.000431,0.001528
28990000,0.0324,0.013523,0.002678,0.000431,0.001880
28991000,0.0324,0.013523,0.002678,0.000431,0.001645
28992000,0.0324,0.013523,0.002678,0.000431,0.001645
28993000,0.0324,0.013523,0.002678,0.000431,0.001763
28994000,0.0324,0.013523,0.002678,0.000431,0.001528
28995000,0.0324,0.013523,0.002678,0.000431,0.001763
28996000,0.0324,0.013523,0.002678,0.000431,0.001645
28997000,0.0324,0.013523,0.002678,0.000431,0.001645
28998000,0.0324,0.013523,0.002678,0.000431,0.001763
28999000,0.0324,0.013523,0.002678,0.000431,0.001645
