Cycle,Area(mm^2),PeakDynamic(W),SubthresholdLeakage(W),GateLeakage(W),RunTimeDynamic(W)
127000000,0.0324,0.013523,0.002678,0.000431,0.000940
127001000,0.0324,0.013523,0.002678,0.000431,0.000823
127002000,0.0324,0.013523,0.002678,0.000431,0.000823
127003000,0.0324,0.013523,0.002678,0.000431,0.000823
127004000,0.0324,0.013523,0.002678,0.000431,0.000823
127005000,0.0324,0.013523,0.002678,0.000431,0.000823
127006000,0.0324,0.013523,0.002678,0.000431,0.000823
127007000,0.0324,0.013523,0.002678,0.000431,0.000705
127008000,0.0324,0.013523,0.002678,0.000431,0.000940
127009000,0.0324,0.013523,0.002678,0.000431,0.000940
127010000,0.0324,0.013523,0.002678,0.000431,0.000823
127011000,0.0324,0.013523,0.002678,0.000431,0.000823
127012000,0.0324,0.013523,0.002678,0.000431,0.000705
127013000,0.0324,0.013523,0.002678,0.000431,0.000940
127014000,0.0324,0.013523,0.002678,0.000431,0.000940
127015000,0.0324,0.013523,0.002678,0.000431,0.000705
127016000,0.0324,0.013523,0.002678,0.000431,0.000940
127017000,0.0324,0.013523,0.002678,0.000431,0.000705
127018000,0.0324,0.013523,0.002678,0.000431,0.000940
127019000,0.0324,0.013523,0.002678,0.000431,0.000823
127020000,0.0324,0.013523,0.002678,0.000431,0.000823
127021000,0.0324,0.013523,0.002678,0.000431,0.000823
127022000,0.0324,0.013523,0.002678,0.000431,0.000823
127023000,0.0324,0.013523,0.002678,0.000431,0.000940
127024000,0.0324,0.013523,0.002678,0.000431,0.000823
127025000,0.0324,0.013523,0.002678,0.000431,0.000823
127026000,0.0324,0.013523,0.002678,0.000431,0.019275
127027000,0.0324,0.013523,0.002678,0.000431,0.520415
127028000,0.0324,0.013523,0.002678,0.000431,0.596338
127029000,0.0324,0.013523,0.002678,0.000431,0.132572
127030000,0.0324,0.013523,0.002678,0.000431,0.132572
127031000,0.0324,0.013523,0.002678,0.000431,0.533931
127032000,0.0324,0.013523,0.002678,0.000431,0.266319
127033000,0.0324,0.013523,0.002678,0.000431,0.289237
127034000,0.0324,0.013523,0.002678,0.000431,0.335073
127035000,0.0324,0.013523,0.002678,0.000431,0.142092
127036000,0.0324,0.013523,0.002678,0.000431,0.149731
127037000,0.0324,0.013523,0.002678,0.000431,0.096608
127038000,0.0324,0.013523,0.002678,0.000431,0.432856
127039000,0.0324,0.013523,0.002678,0.000431,0.174764
127040000,0.0324,0.013523,0.002678,0.000431,0.081094
127041000,0.0324,0.013523,0.002678,0.000431,0.072162
127042000,0.0324,0.013523,0.002678,0.000431,0.059234
127043000,0.0324,0.013523,0.002678,0.000431,0.053005
127044000,0.0324,0.013523,0.002678,0.000431,0.057589
127045000,0.0324,0.013523,0.002678,0.000431,0.050655
127046000,0.0324,0.013523,0.002678,0.000431,0.052888
127047000,0.0324,0.013523,0.002678,0.000431,0.042075
127048000,0.0324,0.013523,0.002678,0.000431,0.035846
127049000,0.0324,0.013523,0.002678,0.000431,0.033966
127050000,0.0324,0.013523,0.002678,0.000431,0.033496
127051000,0.0324,0.013523,0.002678,0.000431,0.030557
127052000,0.0324,0.013523,0.002678,0.000431,0.033260
127053000,0.0324,0.013523,0.002678,0.000431,0.022800
127054000,0.0324,0.013523,0.002678,0.000431,0.024211
127055000,0.0324,0.013523,0.002678,0.000431,0.024798
127056000,0.0324,0.013523,0.002678,0.000431,0.015984
127057000,0.0324,0.013523,0.002678,0.000431,0.021978
127058000,0.0324,0.013523,0.002678,0.000431,0.012811
127059000,0.0324,0.013523,0.002678,0.000431,0.012693
127060000,0.0324,0.013523,0.002678,0.000431,0.012576
127061000,0.0324,0.013523,0.002678,0.000431,0.011988
127062000,0.0324,0.013523,0.002678,0.000431,0.012811
127063000,0.0324,0.013523,0.002678,0.000431,0.013633
127064000,0.0324,0.013523,0.002678,0.000431,0.011400
127065000,0.0324,0.013523,0.002678,0.000431,0.013046
127066000,0.0324,0.013523,0.002678,0.000431,0.010225
127067000,0.0324,0.013523,0.002678,0.000431,0.011518
127068000,0.0324,0.013523,0.002678,0.000431,0.009520
127069000,0.0324,0.013523,0.002678,0.000431,0.011048
127070000,0.0324,0.013523,0.002678,0.000431,0.008227
127071000,0.0324,0.013523,0.002678,0.000431,0.008697
127072000,0.0324,0.013523,0.002678,0.000431,0.007992
127073000,0.0324,0.013523,0.002678,0.000431,0.013516
127074000,0.0324,0.013523,0.002678,0.000431,0.010460
127075000,0.0324,0.013523,0.002678,0.000431,0.005876
127076000,0.0324,0.013523,0.002678,0.000431,0.005759
127077000,0.0324,0.013523,0.002678,0.000431,0.005876
127078000,0.0324,0.013523,0.002678,0.000431,0.005994
127079000,0.0324,0.013523,0.002678,0.000431,0.005641
127080000,0.0324,0.013523,0.002678,0.000431,0.005876
127081000,0.0324,0.013523,0.002678,0.000431,0.005759
127082000,0.0324,0.013523,0.002678,0.000431,0.006111
127083000,0.0324,0.013523,0.002678,0.000431,0.005759
127084000,0.0324,0.013523,0.002678,0.000431,0.005641
127085000,0.0324,0.013523,0.002678,0.000431,0.005994
127086000,0.0324,0.013523,0.002678,0.000431,0.005641
127087000,0.0324,0.013523,0.002678,0.000431,0.005994
127088000,0.0324,0.013523,0.002678,0.000431,0.006111
127089000,0.0324,0.013523,0.002678,0.000431,0.009520
127090000,0.0324,0.013523,0.002678,0.000431,0.005406
127091000,0.0324,0.013523,0.002678,0.000431,0.004231
127092000,0.0324,0.013523,0.002678,0.000431,0.003996
127093000,0.0324,0.013523,0.002678,0.000431,0.004466
127094000,0.0324,0.013523,0.002678,0.000431,0.004113
127095000,0.0324,0.013523,0.002678,0.000431,0.003173
127096000,0.0324,0.013523,0.002678,0.000431,0.003408
127097000,0.0324,0.013523,0.002678,0.000431,0.003643
127098000,0.0324,0.013523,0.002678,0.000431,0.003526
127099000,0.0324,0.013523,0.002678,0.000431,0.003056
127100000,0.0324,0.013523,0.002678,0.000431,0.003643
127101000,0.0324,0.013523,0.002678,0.000431,0.003408
127102000,0.0324,0.013523,0.002678,0.000431,0.003526
127103000,0.0324,0.013523,0.002678,0.000431,0.003173
127104000,0.0324,0.013523,0.002678,0.000431,0.003526
127105000,0.0324,0.013523,0.002678,0.000431,0.003761
127106000,0.0324,0.013523,0.002678,0.000431,0.003056
127107000,0.0324,0.013523,0.002678,0.000431,0.003526
127108000,0.0324,0.013523,0.002678,0.000431,0.003408
127109000,0.0324,0.013523,0.002678,0.000431,0.003526
127110000,0.0324,0.013523,0.002678,0.000431,0.003643
127111000,0.0324,0.013523,0.002678,0.000431,0.003173
127112000,0.0324,0.013523,0.002678,0.000431,0.003643
127113000,0.0324,0.013523,0.002678,0.000431,0.003408
127114000,0.0324,0.013523,0.002678,0.000431,0.003408
127115000,0.0324,0.013523,0.002678,0.000431,0.003173
127116000,0.0324,0.013523,0.002678,0.000431,0.003643
127117000,0.0324,0.013523,0.002678,0.000431,0.003878
127118000,0.0324,0.013523,0.002678,0.000431,0.003408
127119000,0.0324,0.013523,0.002678,0.000431,0.003408
127120000,0.0324,0.013523,0.002678,0.000431,0.003291
127121000,0.0324,0.013523,0.002678,0.000431,0.003643
127122000,0.0324,0.013523,0.002678,0.000431,0.003526
127123000,0.0324,0.013523,0.002678,0.000431,0.005054
127124000,0.0324,0.013523,0.002678,0.000431,0.002351
127125000,0.0324,0.013523,0.002678,0.000431,0.002821
127126000,0.0324,0.013523,0.002678,0.000431,0.002586
127127000,0.0324,0.013523,0.002678,0.000431,0.002468
127128000,0.0324,0.013523,0.002678,0.000431,0.003761
127129000,0.0324,0.013523,0.002678,0.000431,0.003056
127130000,0.0324,0.013523,0.002678,0.000431,0.001763
127131000,0.0324,0.013523,0.002678,0.000431,0.001645
127132000,0.0324,0.013523,0.002678,0.000431,0.003056
127133000,0.0324,0.013523,0.002678,0.000431,0.000940
127134000,0.0324,0.013523,0.002678,0.000431,0.000823
127135000,0.0324,0.013523,0.002678,0.000431,0.013633
127136000,0.0324,0.013523,0.002678,0.000431,0.517829
127137000,0.0324,0.013523,0.002678,0.000431,0.599041
127138000,0.0324,0.013523,0.002678,0.000431,0.132102
127139000,0.0324,0.013523,0.002678,0.000431,0.137038
127140000,0.0324,0.013523,0.002678,0.000431,0.432151
127141000,0.0324,0.013523,0.002678,0.000431,0.361399
127142000,0.0324,0.013523,0.002678,0.000431,0.233058
127143000,0.0324,0.013523,0.002678,0.000431,0.328256
127144000,0.0324,0.013523,0.002678,0.000431,0.183226
127145000,0.0324,0.013523,0.002678,0.000431,0.144325
127146000,0.0324,0.013523,0.002678,0.000431,0.129281
127147000,0.0324,0.013523,0.002678,0.000431,0.254684
127148000,0.0324,0.013523,0.002678,0.000431,0.358343
127149000,0.0324,0.013523,0.002678,0.000431,0.074160
127150000,0.0324,0.013523,0.002678,0.000431,0.057236
127151000,0.0324,0.013523,0.002678,0.000431,0.054533
127152000,0.0324,0.013523,0.002678,0.000431,0.048304
127153000,0.0324,0.013523,0.002678,0.000431,0.043838
127154000,0.0324,0.013523,0.002678,0.000431,0.041252
127155000,0.0324,0.013523,0.002678,0.000431,0.030087
127156000,0.0324,0.013523,0.002678,0.000431,0.036551
127157000,0.0324,0.013523,0.002678,0.000431,0.032908
127158000,0.0324,0.013523,0.002678,0.000431,0.027854
127159000,0.0324,0.013523,0.002678,0.000431,0.025504
127160000,0.0324,0.013523,0.002678,0.000431,0.023388
127161000,0.0324,0.013523,0.002678,0.000431,0.022683
127162000,0.0324,0.013523,0.002678,0.000431,0.018805
127163000,0.0324,0.013523,0.002678,0.000431,0.021038
127164000,0.0324,0.013523,0.002678,0.000431,0.018217
127165000,0.0324,0.013523,0.002678,0.000431,0.017394
127166000,0.0324,0.013523,0.002678,0.000431,0.018569
127167000,0.0324,0.013523,0.002678,0.000431,0.014573
127168000,0.0324,0.013523,0.002678,0.000431,0.016336
127169000,0.0324,0.013523,0.002678,0.000431,0.013986
127170000,0.0324,0.013523,0.002678,0.000431,0.016101
127171000,0.0324,0.013523,0.002678,0.000431,0.016571
127172000,0.0324,0.013523,0.002678,0.000431,0.013751
127173000,0.0324,0.013523,0.002678,0.000431,0.013046
127174000,0.0324,0.013523,0.002678,0.000431,0.012693
127175000,0.0324,0.013523,0.002678,0.000431,0.013398
127176000,0.0324,0.013523,0.002678,0.000431,0.013046
127177000,0.0324,0.013523,0.002678,0.000431,0.013633
127178000,0.0324,0.013523,0.002678,0.000431,0.013633
127179000,0.0324,0.013523,0.002678,0.000431,0.012576
127180000,0.0324,0.013523,0.002678,0.000431,0.011048
127181000,0.0324,0.013523,0.002678,0.000431,0.011753
127182000,0.0324,0.013523,0.002678,0.000431,0.013633
127183000,0.0324,0.013523,0.002678,0.000431,0.011048
127184000,0.0324,0.013523,0.002678,0.000431,0.010578
127185000,0.0324,0.013523,0.002678,0.000431,0.009520
127186000,0.0324,0.013523,0.002678,0.000431,0.009755
127187000,0.0324,0.013523,0.002678,0.000431,0.008109
127188000,0.0324,0.013523,0.002678,0.000431,0.009402
127189000,0.0324,0.013523,0.002678,0.000431,0.009285
127190000,0.0324,0.013523,0.002678,0.000431,0.008580
127191000,0.0324,0.013523,0.002678,0.000431,0.011753
127192000,0.0324,0.013523,0.002678,0.000431,0.009167
127193000,0.0324,0.013523,0.002678,0.000431,0.006582
127194000,0.0324,0.013523,0.002678,0.000431,0.006582
127195000,0.0324,0.013523,0.002678,0.000431,0.006347
127196000,0.0324,0.013523,0.002678,0.000431,0.006817
127197000,0.0324,0.013523,0.002678,0.000431,0.006111
127198000,0.0324,0.013523,0.002678,0.000431,0.006934
127199000,0.0324,0.013523,0.002678,0.000431,0.006934
127200000,0.0324,0.013523,0.002678,0.000431,0.005994
127201000,0.0324,0.013523,0.002678,0.000431,0.007287
127202000,0.0324,0.013523,0.002678,0.000431,0.005994
127203000,0.0324,0.013523,0.002678,0.000431,0.006817
127204000,0.0324,0.013523,0.002678,0.000431,0.006582
127205000,0.0324,0.013523,0.002678,0.000431,0.013163
127206000,0.0324,0.013523,0.002678,0.000431,0.004231
127207000,0.0324,0.013523,0.002678,0.000431,0.004113
127208000,0.0324,0.013523,0.002678,0.000431,0.003996
127209000,0.0324,0.013523,0.002678,0.000431,0.004349
127210000,0.0324,0.013523,0.002678,0.000431,0.003761
127211000,0.0324,0.013523,0.002678,0.000431,0.004466
127212000,0.0324,0.013523,0.002678,0.000431,0.004113
127213000,0.0324,0.013523,0.002678,0.000431,0.003996
127214000,0.0324,0.013523,0.002678,0.000431,0.005759
127215000,0.0324,0.013523,0.002678,0.000431,0.003173
127216000,0.0324,0.013523,0.002678,0.000431,0.003173
127217000,0.0324,0.013523,0.002678,0.000431,0.003526
127218000,0.0324,0.013523,0.002678,0.000431,0.003173
127219000,0.0324,0.013523,0.002678,0.000431,0.003291
127220000,0.0324,0.013523,0.002678,0.000431,0.002938
127221000,0.0324,0.013523,0.002678,0.000431,0.003526
127222000,0.0324,0.013523,0.002678,0.000431,0.003173
127223000,0.0324,0.013523,0.002678,0.000431,0.003173
127224000,0.0324,0.013523,0.002678,0.000431,0.002821
127225000,0.0324,0.013523,0.002678,0.000431,0.003643
127226000,0.0324,0.013523,0.002678,0.000431,0.003408
127227000,0.0324,0.013523,0.002678,0.000431,0.002938
127228000,0.0324,0.013523,0.002678,0.000431,0.003526
127229000,0.0324,0.013523,0.002678,0.000431,0.002938
127230000,0.0324,0.013523,0.002678,0.000431,0.003408
127231000,0.0324,0.013523,0.002678,0.000431,0.003291
127232000,0.0324,0.013523,0.002678,0.000431,0.003291
127233000,0.0324,0.013523,0.002678,0.000431,0.003173
127234000,0.0324,0.013523,0.002678,0.000431,0.003291
127235000,0.0324,0.013523,0.002678,0.000431,0.003291
127236000,0.0324,0.013523,0.002678,0.000431,0.003173
127237000,0.0324,0.013523,0.002678,0.000431,0.003408
127238000,0.0324,0.013523,0.002678,0.000431,0.003056
127239000,0.0324,0.013523,0.002678,0.000431,0.007404
127240000,0.0324,0.013523,0.002678,0.000431,0.002586
127241000,0.0324,0.013523,0.002678,0.000431,0.002468
127242000,0.0324,0.013523,0.002678,0.000431,0.002233
127243000,0.0324,0.013523,0.002678,0.000431,0.002468
127244000,0.0324,0.013523,0.002678,0.000431,0.002468
127245000,0.0324,0.013523,0.002678,0.000431,0.002233
127246000,0.0324,0.013523,0.002678,0.000431,0.002821
127247000,0.0324,0.013523,0.002678,0.000431,0.003408
127248000,0.0324,0.013523,0.002678,0.000431,0.000823
127249000,0.0324,0.013523,0.002678,0.000431,0.000823
127250000,0.0324,0.013523,0.002678,0.000431,0.000823
127251000,0.0324,0.013523,0.002678,0.000431,0.000823
127252000,0.0324,0.013523,0.002678,0.000431,0.000823
127253000,0.0324,0.013523,0.002678,0.000431,0.000823
127254000,0.0324,0.013523,0.002678,0.000431,0.000823
127255000,0.0324,0.013523,0.002678,0.000431,0.000940
127256000,0.0324,0.013523,0.002678,0.000431,0.000823
127257000,0.0324,0.013523,0.002678,0.000431,0.000823
127258000,0.0324,0.013523,0.002678,0.000431,0.000705
127259000,0.0324,0.013523,0.002678,0.000431,0.000940
127260000,0.0324,0.013523,0.002678,0.000431,0.000940
127261000,0.0324,0.013523,0.002678,0.000431,0.000705
127262000,0.0324,0.013523,0.002678,0.000431,0.000940
127263000,0.0324,0.013523,0.002678,0.000431,0.000705
127264000,0.0324,0.013523,0.002678,0.000431,0.000940
127265000,0.0324,0.013523,0.002678,0.000431,0.000823
127266000,0.0324,0.013523,0.002678,0.000431,0.000823
127267000,0.0324,0.013523,0.002678,0.000431,0.000823
127268000,0.0324,0.013523,0.002678,0.000431,0.000823
127269000,0.0324,0.013523,0.002678,0.000431,0.000940
127270000,0.0324,0.013523,0.002678,0.000431,0.000705
127271000,0.0324,0.013523,0.002678,0.000431,0.000940
127272000,0.0324,0.013523,0.002678,0.000431,0.000823
127273000,0.0324,0.013523,0.002678,0.000431,0.000823
127274000,0.0324,0.013523,0.002678,0.000431,0.000823
127275000,0.0324,0.013523,0.002678,0.000431,0.000823
127276000,0.0324,0.013523,0.002678,0.000431,0.000823
127277000,0.0324,0.013523,0.002678,0.000431,0.000823
127278000,0.0324,0.013523,0.002678,0.000431,0.000940
127279000,0.0324,0.013523,0.002678,0.000431,0.000705
127280000,0.0324,0.013523,0.002678,0.000431,0.000940
127281000,0.0324,0.013523,0.002678,0.000431,0.000705
127282000,0.0324,0.013523,0.002678,0.000431,0.000940
127283000,0.0324,0.013523,0.002678,0.000431,0.000940
127284000,0.0324,0.013523,0.002678,0.000431,0.000705
127285000,0.0324,0.013523,0.002678,0.000431,0.000940
127286000,0.0324,0.013523,0.002678,0.000431,0.000705
127287000,0.0324,0.013523,0.002678,0.000431,0.000940
127288000,0.0324,0.013523,0.002678,0.000431,0.000823
127289000,0.0324,0.013523,0.002678,0.000431,0.000823
127290000,0.0324,0.013523,0.002678,0.000431,0.000823
127291000,0.0324,0.013523,0.002678,0.000431,0.000823
127292000,0.0324,0.013523,0.002678,0.000431,0.000940
127293000,0.0324,0.013523,0.002678,0.000431,0.000705
127294000,0.0324,0.013523,0.002678,0.000431,0.000940
127295000,0.0324,0.013523,0.002678,0.000431,0.000823
127296000,0.0324,0.013523,0.002678,0.000431,0.000823
127297000,0.0324,0.013523,0.002678,0.000431,0.000823
127298000,0.0324,0.013523,0.002678,0.000431,0.000823
127299000,0.0324,0.013523,0.002678,0.000431,0.000940
127300000,0.0324,0.013523,0.002678,0.000431,0.000705
127301000,0.0324,0.013523,0.002678,0.000431,0.000823
127302000,0.0324,0.013523,0.002678,0.000431,0.000823
127303000,0.0324,0.013523,0.002678,0.000431,0.000940
127304000,0.0324,0.013523,0.002678,0.000431,0.000705
127305000,0.0324,0.013523,0.002678,0.000431,0.000940
127306000,0.0324,0.013523,0.002678,0.000431,0.000823
127307000,0.0324,0.013523,0.002678,0.000431,0.000823
127308000,0.0324,0.013523,0.002678,0.000431,0.000940
127309000,0.0324,0.013523,0.002678,0.000431,0.000705
127310000,0.0324,0.013523,0.002678,0.000431,0.000940
127311000,0.0324,0.013523,0.002678,0.000431,0.000705
127312000,0.0324,0.013523,0.002678,0.000431,0.000940
127313000,0.0324,0.013523,0.002678,0.000431,0.000823
127314000,0.0324,0.013523,0.002678,0.000431,0.000823
127315000,0.0324,0.013523,0.002678,0.000431,0.000823
127316000,0.0324,0.013523,0.002678,0.000431,0.000823
127317000,0.0324,0.013523,0.002678,0.000431,0.021743
127318000,0.0324,0.013523,0.002678,0.000431,0.519827
127319000,0.0324,0.013523,0.002678,0.000431,0.600334
127320000,0.0324,0.013523,0.002678,0.000431,0.133042
127321000,0.0324,0.013523,0.002678,0.000431,0.133982
127322000,0.0324,0.013523,0.002678,0.000431,0.491620
127323000,0.0324,0.013523,0.002678,0.000431,0.278777
127324000,0.0324,0.013523,0.002678,0.000431,0.267612
127325000,0.0324,0.013523,0.002678,0.000431,0.305103
127326000,0.0324,0.013523,0.002678,0.000431,0.161249
127327000,0.0324,0.013523,0.002678,0.000431,0.143737
127328000,0.0324,0.013523,0.002678,0.000431,0.142562
127329000,0.0324,0.013523,0.002678,0.000431,0.234116
127330000,0.0324,0.013523,0.002678,0.000431,0.391369
127331000,0.0324,0.013523,0.002678,0.000431,0.097783
127332000,0.0324,0.013523,0.002678,0.000431,0.071810
127333000,0.0324,0.013523,0.002678,0.000431,0.061820
127334000,0.0324,0.013523,0.002678,0.000431,0.060409
127335000,0.0324,0.013523,0.002678,0.000431,0.055591
127336000,0.0324,0.013523,0.002678,0.000431,0.050185
127337000,0.0324,0.013523,0.002678,0.000431,0.048187
127338000,0.0324,0.013523,0.002678,0.000431,0.045013
127339000,0.0324,0.013523,0.002678,0.000431,0.039960
127340000,0.0324,0.013523,0.002678,0.000431,0.037609
127341000,0.0324,0.013523,0.002678,0.000431,0.042898
127342000,0.0324,0.013523,0.002678,0.000431,0.037374
127343000,0.0324,0.013523,0.002678,0.000431,0.032203
127344000,0.0324,0.013523,0.002678,0.000431,0.030792
127345000,0.0324,0.013523,0.002678,0.000431,0.030440
127346000,0.0324,0.013523,0.002678,0.000431,0.028442
127347000,0.0324,0.013523,0.002678,0.000431,0.027619
127348000,0.0324,0.013523,0.002678,0.000431,0.024681
127349000,0.0324,0.013523,0.002678,0.000431,0.024328
127350000,0.0324,0.013523,0.002678,0.000431,0.022213
127351000,0.0324,0.013523,0.002678,0.000431,0.023271
127352000,0.0324,0.013523,0.002678,0.000431,0.018687
127353000,0.0324,0.013523,0.002678,0.000431,0.018805
127354000,0.0324,0.013523,0.002678,0.000431,0.017512
127355000,0.0324,0.013523,0.002678,0.000431,0.019040
127356000,0.0324,0.013523,0.002678,0.000431,0.019627
127357000,0.0324,0.013523,0.002678,0.000431,0.016807
127358000,0.0324,0.013523,0.002678,0.000431,0.019157
127359000,0.0324,0.013523,0.002678,0.000431,0.017159
127360000,0.0324,0.013523,0.002678,0.000431,0.014573
127361000,0.0324,0.013523,0.002678,0.000431,0.016454
127362000,0.0324,0.013523,0.002678,0.000431,0.019392
127363000,0.0324,0.013523,0.002678,0.000431,0.009872
127364000,0.0324,0.013523,0.002678,0.000431,0.011283
127365000,0.0324,0.013523,0.002678,0.000431,0.010930
127366000,0.0324,0.013523,0.002678,0.000431,0.008109
127367000,0.0324,0.013523,0.002678,0.000431,0.008932
127368000,0.0324,0.013523,0.002678,0.000431,0.008932
127369000,0.0324,0.013523,0.002678,0.000431,0.007874
127370000,0.0324,0.013523,0.002678,0.000431,0.008345
127371000,0.0324,0.013523,0.002678,0.000431,0.007169
127372000,0.0324,0.013523,0.002678,0.000431,0.006817
127373000,0.0324,0.013523,0.002678,0.000431,0.009285
127374000,0.0324,0.013523,0.002678,0.000431,0.005876
127375000,0.0324,0.013523,0.002678,0.000431,0.008345
127376000,0.0324,0.013523,0.002678,0.000431,0.007639
127377000,0.0324,0.013523,0.002678,0.000431,0.004113
127378000,0.0324,0.013523,0.002678,0.000431,0.004466
127379000,0.0324,0.013523,0.002678,0.000431,0.004113
127380000,0.0324,0.013523,0.002678,0.000431,0.004231
127381000,0.0324,0.013523,0.002678,0.000431,0.004349
127382000,0.0324,0.013523,0.002678,0.000431,0.003996
127383000,0.0324,0.013523,0.002678,0.000431,0.004466
127384000,0.0324,0.013523,0.002678,0.000431,0.003996
127385000,0.0324,0.013523,0.002678,0.000431,0.004349
127386000,0.0324,0.013523,0.002678,0.000431,0.004231
127387000,0.0324,0.013523,0.002678,0.000431,0.004113
127388000,0.0324,0.013523,0.002678,0.000431,0.004466
127389000,0.0324,0.013523,0.002678,0.000431,0.003996
127390000,0.0324,0.013523,0.002678,0.000431,0.004466
127391000,0.0324,0.013523,0.002678,0.000431,0.003996
127392000,0.0324,0.013523,0.002678,0.000431,0.004349
127393000,0.0324,0.013523,0.002678,0.000431,0.004231
127394000,0.0324,0.013523,0.002678,0.000431,0.004231
127395000,0.0324,0.013523,0.002678,0.000431,0.004231
127396000,0.0324,0.013523,0.002678,0.000431,0.004231
127397000,0.0324,0.013523,0.002678,0.000431,0.006464
127398000,0.0324,0.013523,0.002678,0.000431,0.003408
127399000,0.0324,0.013523,0.002678,0.000431,0.003408
127400000,0.0324,0.013523,0.002678,0.000431,0.003408
127401000,0.0324,0.013523,0.002678,0.000431,0.003291
127402000,0.0324,0.013523,0.002678,0.000431,0.003408
127403000,0.0324,0.013523,0.002678,0.000431,0.003291
127404000,0.0324,0.013523,0.002678,0.000431,0.003643
127405000,0.0324,0.013523,0.002678,0.000431,0.003291
127406000,0.0324,0.013523,0.002678,0.000431,0.003291
127407000,0.0324,0.013523,0.002678,0.000431,0.003291
127408000,0.0324,0.013523,0.002678,0.000431,0.003526
127409000,0.0324,0.013523,0.002678,0.000431,0.003408
127410000,0.0324,0.013523,0.002678,0.000431,0.003291
127411000,0.0324,0.013523,0.002678,0.000431,0.003526
127412000,0.0324,0.013523,0.002678,0.000431,0.007169
127413000,0.0324,0.013523,0.002678,0.000431,0.001645
127414000,0.0324,0.013523,0.002678,0.000431,0.001880
127415000,0.0324,0.013523,0.002678,0.000431,0.001645
127416000,0.0324,0.013523,0.002678,0.000431,0.001763
127417000,0.0324,0.013523,0.002678,0.000431,0.001528
127418000,0.0324,0.013523,0.002678,0.000431,0.001880
127419000,0.0324,0.013523,0.002678,0.000431,0.001763
127420000,0.0324,0.013523,0.002678,0.000431,0.001645
127421000,0.0324,0.013523,0.002678,0.000431,0.001645
127422000,0.0324,0.013523,0.002678,0.000431,0.001763
127423000,0.0324,0.013523,0.002678,0.000431,0.001763
127424000,0.0324,0.013523,0.002678,0.000431,0.001645
127425000,0.0324,0.013523,0.002678,0.000431,0.001763
127426000,0.0324,0.013523,0.002678,0.000431,0.001763
127427000,0.0324,0.013523,0.002678,0.000431,0.001763
127428000,0.0324,0.013523,0.002678,0.000431,0.001528
127429000,0.0324,0.013523,0.002678,0.000431,0.001880
127430000,0.0324,0.013523,0.002678,0.000431,0.001645
127431000,0.0324,0.013523,0.002678,0.000431,0.001763
127432000,0.0324,0.013523,0.002678,0.000431,0.001645
127433000,0.0324,0.013523,0.002678,0.000431,0.001645
127434000,0.0324,0.013523,0.002678,0.000431,0.001880
127435000,0.0324,0.013523,0.002678,0.000431,0.001763
127436000,0.0324,0.013523,0.002678,0.000431,0.001645
127437000,0.0324,0.013523,0.002678,0.000431,0.002703
127438000,0.0324,0.013523,0.002678,0.000431,0.002233
127439000,0.0324,0.013523,0.002678,0.000431,0.000940
127440000,0.0324,0.013523,0.002678,0.000431,0.000705
127441000,0.0324,0.013523,0.002678,0.000431,0.000940
127442000,0.0324,0.013523,0.002678,0.000431,0.000940
127443000,0.0324,0.013523,0.002678,0.000431,0.000705
127444000,0.0324,0.013523,0.002678,0.000431,0.000940
127445000,0.0324,0.013523,0.002678,0.000431,0.000823
127446000,0.0324,0.013523,0.002678,0.000431,0.000823
127447000,0.0324,0.013523,0.002678,0.000431,0.002351
127448000,0.0324,0.013523,0.002678,0.000431,0.463414
127449000,0.0324,0.013523,0.002678,0.000431,0.676257
127450000,0.0324,0.013523,0.002678,0.000431,0.137155
127451000,0.0324,0.013523,0.002678,0.000431,0.133042
127452000,0.0324,0.013523,0.002678,0.000431,0.180758
127453000,0.0324,0.013523,0.002678,0.000431,0.567779
127454000,0.0324,0.013523,0.002678,0.000431,0.240580
127455000,0.0324,0.013523,0.002678,0.000431,0.329902
127456000,0.0324,0.013523,0.002678,0.000431,0.212961
127457000,0.0324,0.013523,0.002678,0.000431,0.143149
127458000,0.0324,0.013523,0.002678,0.000431,0.132807
127459000,0.0324,0.013523,0.002678,0.000431,0.245399
127460000,0.0324,0.013523,0.002678,0.000431,0.354935
127461000,0.0324,0.013523,0.002678,0.000431,0.070399
127462000,0.0324,0.013523,0.002678,0.000431,0.058059
127463000,0.0324,0.013523,0.002678,0.000431,0.054886
127464000,0.0324,0.013523,0.002678,0.000431,0.051242
127465000,0.0324,0.013523,0.002678,0.000431,0.047364
127466000,0.0324,0.013523,0.002678,0.000431,0.039842
127467000,0.0324,0.013523,0.002678,0.000431,0.039254
127468000,0.0324,0.013523,0.002678,0.000431,0.036199
127469000,0.0324,0.013523,0.002678,0.000431,0.030087
127470000,0.0324,0.013523,0.002678,0.000431,0.030910
127471000,0.0324,0.013523,0.002678,0.000431,0.027384
127472000,0.0324,0.013523,0.002678,0.000431,0.025621
127473000,0.0324,0.013523,0.002678,0.000431,0.026091
127474000,0.0324,0.013523,0.002678,0.000431,0.026444
127475000,0.0324,0.013523,0.002678,0.000431,0.022683
127476000,0.0324,0.013523,0.002678,0.000431,0.024093
127477000,0.0324,0.013523,0.002678,0.000431,0.022683
127478000,0.0324,0.013523,0.002678,0.000431,0.023976
127479000,0.0324,0.013523,0.002678,0.000431,0.021625
127480000,0.0324,0.013523,0.002678,0.000431,0.019275
127481000,0.0324,0.013523,0.002678,0.000431,0.017277
127482000,0.0324,0.013523,0.002678,0.000431,0.018452
127483000,0.0324,0.013523,0.002678,0.000431,0.019157
127484000,0.0324,0.013523,0.002678,0.000431,0.021390
127485000,0.0324,0.013523,0.002678,0.000431,0.014221
127486000,0.0324,0.013523,0.002678,0.000431,0.012576
127487000,0.0324,0.013523,0.002678,0.000431,0.011165
127488000,0.0324,0.013523,0.002678,0.000431,0.013751
127489000,0.0324,0.013523,0.002678,0.000431,0.013516
127490000,0.0324,0.013523,0.002678,0.000431,0.009285
127491000,0.0324,0.013523,0.002678,0.000431,0.008815
127492000,0.0324,0.013523,0.002678,0.000431,0.007992
127493000,0.0324,0.013523,0.002678,0.000431,0.007757
127494000,0.0324,0.013523,0.002678,0.000431,0.007992
127495000,0.0324,0.013523,0.002678,0.000431,0.008345
127496000,0.0324,0.013523,0.002678,0.000431,0.007404
127497000,0.0324,0.013523,0.002678,0.000431,0.008815
127498000,0.0324,0.013523,0.002678,0.000431,0.007992
127499000,0.0324,0.013523,0.002678,0.000431,0.007522
127500000,0.0324,0.013523,0.002678,0.000431,0.008580
127501000,0.0324,0.013523,0.002678,0.000431,0.007874
127502000,0.0324,0.013523,0.002678,0.000431,0.007874
127503000,0.0324,0.013523,0.002678,0.000431,0.008697
127504000,0.0324,0.013523,0.002678,0.000431,0.007639
127505000,0.0324,0.013523,0.002678,0.000431,0.008580
127506000,0.0324,0.013523,0.002678,0.000431,0.007757
127507000,0.0324,0.013523,0.002678,0.000431,0.007757
127508000,0.0324,0.013523,0.002678,0.000431,0.007992
127509000,0.0324,0.013523,0.002678,0.000431,0.009167
127510000,0.0324,0.013523,0.002678,0.000431,0.007404
127511000,0.0324,0.013523,0.002678,0.000431,0.007874
127512000,0.0324,0.013523,0.002678,0.000431,0.008462
127513000,0.0324,0.013523,0.002678,0.000431,0.008815
127514000,0.0324,0.013523,0.002678,0.000431,0.007992
127515000,0.0324,0.013523,0.002678,0.000431,0.007404
127516000,0.0324,0.013523,0.002678,0.000431,0.007052
127517000,0.0324,0.013523,0.002678,0.000431,0.007052
127518000,0.0324,0.013523,0.002678,0.000431,0.006464
127519000,0.0324,0.013523,0.002678,0.000431,0.006817
127520000,0.0324,0.013523,0.002678,0.000431,0.006582
127521000,0.0324,0.013523,0.002678,0.000431,0.006464
127522000,0.0324,0.013523,0.002678,0.000431,0.006699
127523000,0.0324,0.013523,0.002678,0.000431,0.006699
127524000,0.0324,0.013523,0.002678,0.000431,0.006817
127525000,0.0324,0.013523,0.002678,0.000431,0.006464
127526000,0.0324,0.013523,0.002678,0.000431,0.006464
127527000,0.0324,0.013523,0.002678,0.000431,0.007052
127528000,0.0324,0.013523,0.002678,0.000431,0.006817
127529000,0.0324,0.013523,0.002678,0.000431,0.006229
127530000,0.0324,0.013523,0.002678,0.000431,0.007052
127531000,0.0324,0.013523,0.002678,0.000431,0.006229
127532000,0.0324,0.013523,0.002678,0.000431,0.006934
127533000,0.0324,0.013523,0.002678,0.000431,0.006817
127534000,0.0324,0.013523,0.002678,0.000431,0.006229
127535000,0.0324,0.013523,0.002678,0.000431,0.007052
127536000,0.0324,0.013523,0.002678,0.000431,0.006464
127537000,0.0324,0.013523,0.002678,0.000431,0.006699
127538000,0.0324,0.013523,0.002678,0.000431,0.006699
127539000,0.0324,0.013523,0.002678,0.000431,0.006817
127540000,0.0324,0.013523,0.002678,0.000431,0.006582
127541000,0.0324,0.013523,0.002678,0.000431,0.006817
127542000,0.0324,0.013523,0.002678,0.000431,0.006582
127543000,0.0324,0.013523,0.002678,0.000431,0.006817
127544000,0.0324,0.013523,0.002678,0.000431,0.008580
127545000,0.0324,0.013523,0.002678,0.000431,0.005641
127546000,0.0324,0.013523,0.002678,0.000431,0.006347
127547000,0.0324,0.013523,0.002678,0.000431,0.005289
127548000,0.0324,0.013523,0.002678,0.000431,0.006111
127549000,0.0324,0.013523,0.002678,0.000431,0.005641
127550000,0.0324,0.013523,0.002678,0.000431,0.006582
127551000,0.0324,0.013523,0.002678,0.000431,0.007522
127552000,0.0324,0.013523,0.002678,0.000431,0.004584
127553000,0.0324,0.013523,0.002678,0.000431,0.007169
127554000,0.0324,0.013523,0.002678,0.000431,0.003878
127555000,0.0324,0.013523,0.002678,0.000431,0.004231
127556000,0.0324,0.013523,0.002678,0.000431,0.004231
127557000,0.0324,0.013523,0.002678,0.000431,0.003996
127558000,0.0324,0.013523,0.002678,0.000431,0.004231
127559000,0.0324,0.013523,0.002678,0.000431,0.004113
127560000,0.0324,0.013523,0.002678,0.000431,0.004113
127561000,0.0324,0.013523,0.002678,0.000431,0.004113
127562000,0.0324,0.013523,0.002678,0.000431,0.004113
127563000,0.0324,0.013523,0.002678,0.000431,0.003761
127564000,0.0324,0.013523,0.002678,0.000431,0.004113
127565000,0.0324,0.013523,0.002678,0.000431,0.004113
127566000,0.0324,0.013523,0.002678,0.000431,0.003996
127567000,0.0324,0.013523,0.002678,0.000431,0.004231
127568000,0.0324,0.013523,0.002678,0.000431,0.004113
127569000,0.0324,0.013523,0.002678,0.000431,0.004231
127570000,0.0324,0.013523,0.002678,0.000431,0.004349
127571000,0.0324,0.013523,0.002678,0.000431,0.003643
127572000,0.0324,0.013523,0.002678,0.000431,0.004466
127573000,0.0324,0.013523,0.002678,0.000431,0.004113
127574000,0.0324,0.013523,0.002678,0.000431,0.004231
127575000,0.0324,0.013523,0.002678,0.000431,0.003996
127576000,0.0324,0.013523,0.002678,0.000431,0.004231
127577000,0.0324,0.013523,0.002678,0.000431,0.003996
127578000,0.0324,0.013523,0.002678,0.000431,0.004113
127579000,0.0324,0.013523,0.002678,0.000431,0.004466
127580000,0.0324,0.013523,0.002678,0.000431,0.003761
127581000,0.0324,0.013523,0.002678,0.000431,0.004466
127582000,0.0324,0.013523,0.002678,0.000431,0.003996
127583000,0.0324,0.013523,0.002678,0.000431,0.004231
127584000,0.0324,0.013523,0.002678,0.000431,0.004113
127585000,0.0324,0.013523,0.002678,0.000431,0.003878
127586000,0.0324,0.013523,0.002678,0.000431,0.005524
127587000,0.0324,0.013523,0.002678,0.000431,0.003173
127588000,0.0324,0.013523,0.002678,0.000431,0.003173
127589000,0.0324,0.013523,0.002678,0.000431,0.003291
127590000,0.0324,0.013523,0.002678,0.000431,0.003526
127591000,0.0324,0.013523,0.002678,0.000431,0.003056
127592000,0.0324,0.013523,0.002678,0.000431,0.003526
127593000,0.0324,0.013523,0.002678,0.000431,0.003291
127594000,0.0324,0.013523,0.002678,0.000431,0.003291
127595000,0.0324,0.013523,0.002678,0.000431,0.002938
127596000,0.0324,0.013523,0.002678,0.000431,0.003526
127597000,0.0324,0.013523,0.002678,0.000431,0.003408
127598000,0.0324,0.013523,0.002678,0.000431,0.003173
127599000,0.0324,0.013523,0.002678,0.000431,0.003408
127600000,0.0324,0.013523,0.002678,0.000431,0.003056
127601000,0.0324,0.013523,0.002678,0.000431,0.003526
127602000,0.0324,0.013523,0.002678,0.000431,0.003408
127603000,0.0324,0.013523,0.002678,0.000431,0.003056
127604000,0.0324,0.013523,0.002678,0.000431,0.003291
127605000,0.0324,0.013523,0.002678,0.000431,0.003408
127606000,0.0324,0.013523,0.002678,0.000431,0.003408
127607000,0.0324,0.013523,0.002678,0.000431,0.002821
127608000,0.0324,0.013523,0.002678,0.000431,0.002586
127609000,0.0324,0.013523,0.002678,0.000431,0.002468
127610000,0.0324,0.013523,0.002678,0.000431,0.003878
127611000,0.0324,0.013523,0.002678,0.000431,0.001763
127612000,0.0324,0.013523,0.002678,0.000431,0.001645
127613000,0.0324,0.013523,0.002678,0.000431,0.001645
127614000,0.0324,0.013523,0.002678,0.000431,0.001645
127615000,0.0324,0.013523,0.002678,0.000431,0.001763
127616000,0.0324,0.013523,0.002678,0.000431,0.001763
127617000,0.0324,0.013523,0.002678,0.000431,0.003526
127618000,0.0324,0.013523,0.002678,0.000431,0.001058
127619000,0.0324,0.013523,0.002678,0.000431,0.000705
127620000,0.0324,0.013523,0.002678,0.000431,0.000940
127621000,0.0324,0.013523,0.002678,0.000431,0.000823
127622000,0.0324,0.013523,0.002678,0.000431,0.000823
127623000,0.0324,0.013523,0.002678,0.000431,0.000823
127624000,0.0324,0.013523,0.002678,0.000431,0.000823
127625000,0.0324,0.013523,0.002678,0.000431,0.000940
127626000,0.0324,0.013523,0.002678,0.000431,0.000705
127627000,0.0324,0.013523,0.002678,0.000431,0.000940
127628000,0.0324,0.013523,0.002678,0.000431,0.000823
127629000,0.0324,0.013523,0.002678,0.000431,0.000823
127630000,0.0324,0.013523,0.002678,0.000431,0.000823
127631000,0.0324,0.013523,0.002678,0.000431,0.000823
127632000,0.0324,0.013523,0.002678,0.000431,0.000823
127633000,0.0324,0.013523,0.002678,0.000431,0.000823
127634000,0.0324,0.013523,0.002678,0.000431,0.000940
127635000,0.0324,0.013523,0.002678,0.000431,0.000823
127636000,0.0324,0.013523,0.002678,0.000431,0.000823
127637000,0.0324,0.013523,0.002678,0.000431,0.000705
127638000,0.0324,0.013523,0.002678,0.000431,0.000940
127639000,0.0324,0.013523,0.002678,0.000431,0.000940
127640000,0.0324,0.013523,0.002678,0.000431,0.000705
127641000,0.0324,0.013523,0.002678,0.000431,0.000940
127642000,0.0324,0.013523,0.002678,0.000431,0.000705
127643000,0.0324,0.013523,0.002678,0.000431,0.000940
127644000,0.0324,0.013523,0.002678,0.000431,0.000823
127645000,0.0324,0.013523,0.002678,0.000431,0.000823
127646000,0.0324,0.013523,0.002678,0.000431,0.000823
127647000,0.0324,0.013523,0.002678,0.000431,0.000823
127648000,0.0324,0.013523,0.002678,0.000431,0.000940
127649000,0.0324,0.013523,0.002678,0.000431,0.000823
127650000,0.0324,0.013523,0.002678,0.000431,0.000823
127651000,0.0324,0.013523,0.002678,0.000431,0.000823
127652000,0.0324,0.013523,0.002678,0.000431,0.000823
127653000,0.0324,0.013523,0.002678,0.000431,0.000823
127654000,0.0324,0.013523,0.002678,0.000431,0.000823
127655000,0.0324,0.013523,0.002678,0.000431,0.020802
127656000,0.0324,0.013523,0.002678,0.000431,0.511835
127657000,0.0324,0.013523,0.002678,0.000431,0.602449
127658000,0.0324,0.013523,0.002678,0.000431,0.132337
127659000,0.0324,0.013523,0.002678,0.000431,0.133277
127660000,0.0324,0.013523,0.002678,0.000431,0.540512
127661000,0.0324,0.013523,0.002678,0.000431,0.302165
127662000,0.0324,0.013523,0.002678,0.000431,0.247749
127663000,0.0324,0.013523,0.002678,0.000431,0.317209
127664000,0.0324,0.013523,0.002678,0.000431,0.142092
127665000,0.0324,0.013523,0.002678,0.000431,0.142092
127666000,0.0324,0.013523,0.002678,0.000431,0.109066
127667000,0.0324,0.013523,0.002678,0.000431,0.358343
127668000,0.0324,0.013523,0.002678,0.000431,0.261030
127669000,0.0324,0.013523,0.002678,0.000431,0.067696
127670000,0.0324,0.013523,0.002678,0.000431,0.057471
127671000,0.0324,0.013523,0.002678,0.000431,0.053593
127672000,0.0324,0.013523,0.002678,0.000431,0.047599
127673000,0.0324,0.013523,0.002678,0.000431,0.045483
127674000,0.0324,0.013523,0.002678,0.000431,0.044308
127675000,0.0324,0.013523,0.002678,0.000431,0.042310
127676000,0.0324,0.013523,0.002678,0.000431,0.041252
127677000,0.0324,0.013523,0.002678,0.000431,0.032555
127678000,0.0324,0.013523,0.002678,0.000431,0.033378
127679000,0.0324,0.013523,0.002678,0.000431,0.037139
127680000,0.0324,0.013523,0.002678,0.000431,0.029735
127681000,0.0324,0.013523,0.002678,0.000431,0.026679
127682000,0.0324,0.013523,0.002678,0.000431,0.025856
127683000,0.0324,0.013523,0.002678,0.000431,0.025621
127684000,0.0324,0.013523,0.002678,0.000431,0.026796
127685000,0.0324,0.013523,0.002678,0.000431,0.022683
127686000,0.0324,0.013523,0.002678,0.000431,0.021508
127687000,0.0324,0.013523,0.002678,0.000431,0.022213
127688000,0.0324,0.013523,0.002678,0.000431,0.022918
127689000,0.0324,0.013523,0.002678,0.000431,0.023153
127690000,0.0324,0.013523,0.002678,0.000431,0.021038
127691000,0.0324,0.013523,0.002678,0.000431,0.022448
127692000,0.0324,0.013523,0.002678,0.000431,0.018805
127693000,0.0324,0.013523,0.002678,0.000431,0.016101
127694000,0.0324,0.013523,0.002678,0.000431,0.020332
127695000,0.0324,0.013523,0.002678,0.000431,0.014573
127696000,0.0324,0.013523,0.002678,0.000431,0.014809
127697000,0.0324,0.013523,0.002678,0.000431,0.016689
127698000,0.0324,0.013523,0.002678,0.000431,0.011753
127699000,0.0324,0.013523,0.002678,0.000431,0.011165
127700000,0.0324,0.013523,0.002678,0.000431,0.012340
127701000,0.0324,0.013523,0.002678,0.000431,0.010460
127702000,0.0324,0.013523,0.002678,0.000431,0.010342
127703000,0.0324,0.013523,0.002678,0.000431,0.009402
127704000,0.0324,0.013523,0.002678,0.000431,0.009520
127705000,0.0324,0.013523,0.002678,0.000431,0.009402
127706000,0.0324,0.013523,0.002678,0.000431,0.009755
127707000,0.0324,0.013523,0.002678,0.000431,0.009520
127708000,0.0324,0.013523,0.002678,0.000431,0.009990
127709000,0.0324,0.013523,0.002678,0.000431,0.010695
127710000,0.0324,0.013523,0.002678,0.000431,0.009050
127711000,0.0324,0.013523,0.002678,0.000431,0.008932
127712000,0.0324,0.013523,0.002678,0.000431,0.008462
127713000,0.0324,0.013523,0.002678,0.000431,0.007992
127714000,0.0324,0.013523,0.002678,0.000431,0.008580
127715000,0.0324,0.013523,0.002678,0.000431,0.007757
127716000,0.0324,0.013523,0.002678,0.000431,0.008109
127717000,0.0324,0.013523,0.002678,0.000431,0.008580
127718000,0.0324,0.013523,0.002678,0.000431,0.007522
127719000,0.0324,0.013523,0.002678,0.000431,0.008697
127720000,0.0324,0.013523,0.002678,0.000431,0.009167
127721000,0.0324,0.013523,0.002678,0.000431,0.007992
127722000,0.0324,0.013523,0.002678,0.000431,0.007522
127723000,0.0324,0.013523,0.002678,0.000431,0.010107
127724000,0.0324,0.013523,0.002678,0.000431,0.006464
127725000,0.0324,0.013523,0.002678,0.000431,0.006229
127726000,0.0324,0.013523,0.002678,0.000431,0.006817
127727000,0.0324,0.013523,0.002678,0.000431,0.006582
127728000,0.0324,0.013523,0.002678,0.000431,0.006464
127729000,0.0324,0.013523,0.002678,0.000431,0.006464
127730000,0.0324,0.013523,0.002678,0.000431,0.006347
127731000,0.0324,0.013523,0.002678,0.000431,0.007052
127732000,0.0324,0.013523,0.002678,0.000431,0.006111
127733000,0.0324,0.013523,0.002678,0.000431,0.006464
127734000,0.0324,0.013523,0.002678,0.000431,0.006934
127735000,0.0324,0.013523,0.002678,0.000431,0.006464
127736000,0.0324,0.013523,0.002678,0.000431,0.006582
127737000,0.0324,0.013523,0.002678,0.000431,0.006582
127738000,0.0324,0.013523,0.002678,0.000431,0.006464
127739000,0.0324,0.013523,0.002678,0.000431,0.006817
127740000,0.0324,0.013523,0.002678,0.000431,0.006582
127741000,0.0324,0.013523,0.002678,0.000431,0.006464
127742000,0.0324,0.013523,0.002678,0.000431,0.006699
127743000,0.0324,0.013523,0.002678,0.000431,0.006464
127744000,0.0324,0.013523,0.002678,0.000431,0.006699
127745000,0.0324,0.013523,0.002678,0.000431,0.006699
127746000,0.0324,0.013523,0.002678,0.000431,0.006582
127747000,0.0324,0.013523,0.002678,0.000431,0.006229
127748000,0.0324,0.013523,0.002678,0.000431,0.006464
127749000,0.0324,0.013523,0.002678,0.000431,0.006817
127750000,0.0324,0.013523,0.002678,0.000431,0.006347
127751000,0.0324,0.013523,0.002678,0.000431,0.007757
127752000,0.0324,0.013523,0.002678,0.000431,0.005054
127753000,0.0324,0.013523,0.002678,0.000431,0.005289
127754000,0.0324,0.013523,0.002678,0.000431,0.005054
127755000,0.0324,0.013523,0.002678,0.000431,0.004819
127756000,0.0324,0.013523,0.002678,0.000431,0.005171
127757000,0.0324,0.013523,0.002678,0.000431,0.005054
127758000,0.0324,0.013523,0.002678,0.000431,0.004701
127759000,0.0324,0.013523,0.002678,0.000431,0.005171
127760000,0.0324,0.013523,0.002678,0.000431,0.005171
127761000,0.0324,0.013523,0.002678,0.000431,0.005054
127762000,0.0324,0.013523,0.002678,0.000431,0.005054
127763000,0.0324,0.013523,0.002678,0.000431,0.004936
127764000,0.0324,0.013523,0.002678,0.000431,0.005054
127765000,0.0324,0.013523,0.002678,0.000431,0.005054
127766000,0.0324,0.013523,0.002678,0.000431,0.005171
127767000,0.0324,0.013523,0.002678,0.000431,0.004936
127768000,0.0324,0.013523,0.002678,0.000431,0.005054
127769000,0.0324,0.013523,0.002678,0.000431,0.004936
127770000,0.0324,0.013523,0.002678,0.000431,0.007757
127771000,0.0324,0.013523,0.002678,0.000431,0.003878
127772000,0.0324,0.013523,0.002678,0.000431,0.004466
127773000,0.0324,0.013523,0.002678,0.000431,0.004349
127774000,0.0324,0.013523,0.002678,0.000431,0.003996
127775000,0.0324,0.013523,0.002678,0.000431,0.004584
127776000,0.0324,0.013523,0.002678,0.000431,0.004231
127777000,0.0324,0.013523,0.002678,0.000431,0.004936
127778000,0.0324,0.013523,0.002678,0.000431,0.003291
127779000,0.0324,0.013523,0.002678,0.000431,0.003761
127780000,0.0324,0.013523,0.002678,0.000431,0.003291
127781000,0.0324,0.013523,0.002678,0.000431,0.003173
127782000,0.0324,0.013523,0.002678,0.000431,0.003643
127783000,0.0324,0.013523,0.002678,0.000431,0.003173
127784000,0.0324,0.013523,0.002678,0.000431,0.003291
127785000,0.0324,0.013523,0.002678,0.000431,0.003408
127786000,0.0324,0.013523,0.002678,0.000431,0.003408
127787000,0.0324,0.013523,0.002678,0.000431,0.003408
127788000,0.0324,0.013523,0.002678,0.000431,0.003173
127789000,0.0324,0.013523,0.002678,0.000431,0.003761
127790000,0.0324,0.013523,0.002678,0.000431,0.003056
127791000,0.0324,0.013523,0.002678,0.000431,0.003408
127792000,0.0324,0.013523,0.002678,0.000431,0.003526
127793000,0.0324,0.013523,0.002678,0.000431,0.003291
127794000,0.0324,0.013523,0.002678,0.000431,0.003173
127795000,0.0324,0.013523,0.002678,0.000431,0.003526
127796000,0.0324,0.013523,0.002678,0.000431,0.003408
127797000,0.0324,0.013523,0.002678,0.000431,0.003408
127798000,0.0324,0.013523,0.002678,0.000431,0.003173
127799000,0.0324,0.013523,0.002678,0.000431,0.003408
127800000,0.0324,0.013523,0.002678,0.000431,0.003408
127801000,0.0324,0.013523,0.002678,0.000431,0.003291
127802000,0.0324,0.013523,0.002678,0.000431,0.003291
127803000,0.0324,0.013523,0.002678,0.000431,0.003526
127804000,0.0324,0.013523,0.002678,0.000431,0.003526
127805000,0.0324,0.013523,0.002678,0.000431,0.005641
127806000,0.0324,0.013523,0.002678,0.000431,0.002586
127807000,0.0324,0.013523,0.002678,0.000431,0.002586
127808000,0.0324,0.013523,0.002678,0.000431,0.002703
127809000,0.0324,0.013523,0.002678,0.000431,0.002233
127810000,0.0324,0.013523,0.002678,0.000431,0.002586
127811000,0.0324,0.013523,0.002678,0.000431,0.002821
127812000,0.0324,0.013523,0.002678,0.000431,0.002233
127813000,0.0324,0.013523,0.002678,0.000431,0.002468
127814000,0.0324,0.013523,0.002678,0.000431,0.002703
127815000,0.0324,0.013523,0.002678,0.000431,0.002703
127816000,0.0324,0.013523,0.002678,0.000431,0.002233
127817000,0.0324,0.013523,0.002678,0.000431,0.002468
127818000,0.0324,0.013523,0.002678,0.000431,0.002821
127819000,0.0324,0.013523,0.002678,0.000431,0.002468
127820000,0.0324,0.013523,0.002678,0.000431,0.002351
127821000,0.0324,0.013523,0.002678,0.000431,0.003291
127822000,0.0324,0.013523,0.002678,0.000431,0.001998
127823000,0.0324,0.013523,0.002678,0.000431,0.000823
127824000,0.0324,0.013523,0.002678,0.000431,0.000823
127825000,0.0324,0.013523,0.002678,0.000431,0.000940
127826000,0.0324,0.013523,0.002678,0.000431,0.000940
127827000,0.0324,0.013523,0.002678,0.000431,0.000705
127828000,0.0324,0.013523,0.002678,0.000431,0.000940
127829000,0.0324,0.013523,0.002678,0.000431,0.000940
127830000,0.0324,0.013523,0.002678,0.000431,0.000940
127831000,0.0324,0.013523,0.002678,0.000431,0.000705
127832000,0.0324,0.013523,0.002678,0.000431,0.000940
127833000,0.0324,0.013523,0.002678,0.000431,0.000940
127834000,0.0324,0.013523,0.002678,0.000431,0.000823
127835000,0.0324,0.013523,0.002678,0.000431,0.000823
127836000,0.0324,0.013523,0.002678,0.000431,0.000940
127837000,0.0324,0.013523,0.002678,0.000431,0.000940
127838000,0.0324,0.013523,0.002678,0.000431,0.000823
127839000,0.0324,0.013523,0.002678,0.000431,0.000823
127840000,0.0324,0.013523,0.002678,0.000431,0.000940
127841000,0.0324,0.013523,0.002678,0.000431,0.000823
127842000,0.0324,0.013523,0.002678,0.000431,0.000940
127843000,0.0324,0.013523,0.002678,0.000431,0.000823
127844000,0.0324,0.013523,0.002678,0.000431,0.000940
127845000,0.0324,0.013523,0.002678,0.000431,0.000823
127846000,0.0324,0.013523,0.002678,0.000431,0.000823
127847000,0.0324,0.013523,0.002678,0.000431,0.000940
127848000,0.0324,0.013523,0.002678,0.000431,0.000940
127849000,0.0324,0.013523,0.002678,0.000431,0.000940
127850000,0.0324,0.013523,0.002678,0.000431,0.000705
127851000,0.0324,0.013523,0.002678,0.000431,0.000940
127852000,0.0324,0.013523,0.002678,0.000431,0.000940
127853000,0.0324,0.013523,0.002678,0.000431,0.000823
127854000,0.0324,0.013523,0.002678,0.000431,0.000823
127855000,0.0324,0.013523,0.002678,0.000431,0.000940
127856000,0.0324,0.013523,0.002678,0.000431,0.000940
127857000,0.0324,0.013523,0.002678,0.000431,0.000940
127858000,0.0324,0.013523,0.002678,0.000431,0.110124
127859000,0.0324,0.013523,0.002678,0.000431,0.523353
127860000,0.0324,0.013523,0.002678,0.000431,0.533931
127861000,0.0324,0.013523,0.002678,0.000431,0.134922
127862000,0.0324,0.013523,0.002678,0.000431,0.132102
127863000,0.0324,0.013523,0.002678,0.000431,0.574125
127864000,0.0324,0.013523,0.002678,0.000431,0.237877
127865000,0.0324,0.013523,0.002678,0.000431,0.301460
127866000,0.0324,0.013523,0.002678,0.000431,0.311215
127867000,0.0324,0.013523,0.002678,0.000431,0.143032
127868000,0.0324,0.013523,0.002678,0.000431,0.167830
127869000,0.0324,0.013523,0.002678,0.000431,0.089086
127870000,0.0324,0.013523,0.002678,0.000431,0.469878
127871000,0.0324,0.013523,0.002678,0.000431,0.118116
127872000,0.0324,0.013523,0.002678,0.000431,0.078861
127873000,0.0324,0.013523,0.002678,0.000431,0.074865
127874000,0.0324,0.013523,0.002678,0.000431,0.059234
127875000,0.0324,0.013523,0.002678,0.000431,0.059117
127876000,0.0324,0.013523,0.002678,0.000431,0.048539
127877000,0.0324,0.013523,0.002678,0.000431,0.048774
127878000,0.0324,0.013523,0.002678,0.000431,0.043250
127879000,0.0324,0.013523,0.002678,0.000431,0.041135
127880000,0.0324,0.013523,0.002678,0.000431,0.036786
127881000,0.0324,0.013523,0.002678,0.000431,0.038197
127882000,0.0324,0.013523,0.002678,0.000431,0.024328
127883000,0.0324,0.013523,0.002678,0.000431,0.030087
127884000,0.0324,0.013523,0.002678,0.000431,0.022565
127885000,0.0324,0.013523,0.002678,0.000431,0.021155
127886000,0.0324,0.013523,0.002678,0.000431,0.025504
127887000,0.0324,0.013523,0.002678,0.000431,0.021038
127888000,0.0324,0.013523,0.002678,0.000431,0.018805
127889000,0.0324,0.013523,0.002678,0.000431,0.021625
127890000,0.0324,0.013523,0.002678,0.000431,0.019275
127891000,0.0324,0.013523,0.002678,0.000431,0.016101
127892000,0.0324,0.013523,0.002678,0.000431,0.016101
127893000,0.0324,0.013523,0.002678,0.000431,0.020567
127894000,0.0324,0.013523,0.002678,0.000431,0.013516
127895000,0.0324,0.013523,0.002678,0.000431,0.012223
127896000,0.0324,0.013523,0.002678,0.000431,0.015984
127897000,0.0324,0.013523,0.002678,0.000431,0.014456
127898000,0.0324,0.013523,0.002678,0.000431,0.011048
127899000,0.0324,0.013523,0.002678,0.000431,0.011283
127900000,0.0324,0.013523,0.002678,0.000431,0.010813
127901000,0.0324,0.013523,0.002678,0.000431,0.011518
127902000,0.0324,0.013523,0.002678,0.000431,0.010578
127903000,0.0324,0.013523,0.002678,0.000431,0.011870
127904000,0.0324,0.013523,0.002678,0.000431,0.009872
127905000,0.0324,0.013523,0.002678,0.000431,0.011283
127906000,0.0324,0.013523,0.002678,0.000431,0.010578
127907000,0.0324,0.013523,0.002678,0.000431,0.011635
127908000,0.0324,0.013523,0.002678,0.000431,0.010107
127909000,0.0324,0.013523,0.002678,0.000431,0.010930
127910000,0.0324,0.013523,0.002678,0.000431,0.011988
127911000,0.0324,0.013523,0.002678,0.000431,0.012458
127912000,0.0324,0.013523,0.002678,0.000431,0.009755
127913000,0.0324,0.013523,0.002678,0.000431,0.010930
127914000,0.0324,0.013523,0.002678,0.000431,0.011400
127915000,0.0324,0.013523,0.002678,0.000431,0.008815
127916000,0.0324,0.013523,0.002678,0.000431,0.009990
127917000,0.0324,0.013523,0.002678,0.000431,0.009167
127918000,0.0324,0.013523,0.002678,0.000431,0.008462
127919000,0.0324,0.013523,0.002678,0.000431,0.009990
127920000,0.0324,0.013523,0.002678,0.000431,0.009167
127921000,0.0324,0.013523,0.002678,0.000431,0.009167
127922000,0.0324,0.013523,0.002678,0.000431,0.009637
127923000,0.0324,0.013523,0.002678,0.000431,0.008815
127924000,0.0324,0.013523,0.002678,0.000431,0.009990
127925000,0.0324,0.013523,0.002678,0.000431,0.009050
127926000,0.0324,0.013523,0.002678,0.000431,0.008932
127927000,0.0324,0.013523,0.002678,0.000431,0.009755
127928000,0.0324,0.013523,0.002678,0.000431,0.009402
127929000,0.0324,0.013523,0.002678,0.000431,0.009167
127930000,0.0324,0.013523,0.002678,0.000431,0.010225
127931000,0.0324,0.013523,0.002678,0.000431,0.008580
127932000,0.0324,0.013523,0.002678,0.000431,0.011283
127933000,0.0324,0.013523,0.002678,0.000431,0.007287
127934000,0.0324,0.013523,0.002678,0.000431,0.007757
127935000,0.0324,0.013523,0.002678,0.000431,0.007639
127936000,0.0324,0.013523,0.002678,0.000431,0.008109
127937000,0.0324,0.013523,0.002678,0.000431,0.006817
127938000,0.0324,0.013523,0.002678,0.000431,0.007287
127939000,0.0324,0.013523,0.002678,0.000431,0.007052
127940000,0.0324,0.013523,0.002678,0.000431,0.006934
127941000,0.0324,0.013523,0.002678,0.000431,0.007169
127942000,0.0324,0.013523,0.002678,0.000431,0.007404
127943000,0.0324,0.013523,0.002678,0.000431,0.006934
127944000,0.0324,0.013523,0.002678,0.000431,0.007169
127945000,0.0324,0.013523,0.002678,0.000431,0.006582
127946000,0.0324,0.013523,0.002678,0.000431,0.006934
127947000,0.0324,0.013523,0.002678,0.000431,0.006699
127948000,0.0324,0.013523,0.002678,0.000431,0.005759
127949000,0.0324,0.013523,0.002678,0.000431,0.006934
127950000,0.0324,0.013523,0.002678,0.000431,0.006464
127951000,0.0324,0.013523,0.002678,0.000431,0.005876
127952000,0.0324,0.013523,0.002678,0.000431,0.006817
127953000,0.0324,0.013523,0.002678,0.000431,0.006817
127954000,0.0324,0.013523,0.002678,0.000431,0.006229
127955000,0.0324,0.013523,0.002678,0.000431,0.005876
127956000,0.0324,0.013523,0.002678,0.000431,0.007052
127957000,0.0324,0.013523,0.002678,0.000431,0.006347
127958000,0.0324,0.013523,0.002678,0.000431,0.005994
127959000,0.0324,0.013523,0.002678,0.000431,0.007287
127960000,0.0324,0.013523,0.002678,0.000431,0.006111
127961000,0.0324,0.013523,0.002678,0.000431,0.006111
127962000,0.0324,0.013523,0.002678,0.000431,0.006347
127963000,0.0324,0.013523,0.002678,0.000431,0.007052
127964000,0.0324,0.013523,0.002678,0.000431,0.006111
127965000,0.0324,0.013523,0.002678,0.000431,0.006111
127966000,0.0324,0.013523,0.002678,0.000431,0.007169
127967000,0.0324,0.013523,0.002678,0.000431,0.005759
127968000,0.0324,0.013523,0.002678,0.000431,0.005759
127969000,0.0324,0.013523,0.002678,0.000431,0.007639
127970000,0.0324,0.013523,0.002678,0.000431,0.005171
127971000,0.0324,0.013523,0.002678,0.000431,0.004936
127972000,0.0324,0.013523,0.002678,0.000431,0.004819
127973000,0.0324,0.013523,0.002678,0.000431,0.005171
127974000,0.0324,0.013523,0.002678,0.000431,0.004584
127975000,0.0324,0.013523,0.002678,0.000431,0.005054
127976000,0.0324,0.013523,0.002678,0.000431,0.005524
127977000,0.0324,0.013523,0.002678,0.000431,0.004231
127978000,0.0324,0.013523,0.002678,0.000431,0.004936
127979000,0.0324,0.013523,0.002678,0.000431,0.004819
127980000,0.0324,0.013523,0.002678,0.000431,0.004819
127981000,0.0324,0.013523,0.002678,0.000431,0.005054
127982000,0.0324,0.013523,0.002678,0.000431,0.004701
127983000,0.0324,0.013523,0.002678,0.000431,0.004819
127984000,0.0324,0.013523,0.002678,0.000431,0.007169
127985000,0.0324,0.013523,0.002678,0.000431,0.003996
127986000,0.0324,0.013523,0.002678,0.000431,0.004349
127987000,0.0324,0.013523,0.002678,0.000431,0.003761
127988000,0.0324,0.013523,0.002678,0.000431,0.004113
127989000,0.0324,0.013523,0.002678,0.000431,0.003996
127990000,0.0324,0.013523,0.002678,0.000431,0.004113
127991000,0.0324,0.013523,0.002678,0.000431,0.003761
127992000,0.0324,0.013523,0.002678,0.000431,0.004349
127993000,0.0324,0.013523,0.002678,0.000431,0.003996
127994000,0.0324,0.013523,0.002678,0.000431,0.003878
127995000,0.0324,0.013523,0.002678,0.000431,0.004231
127996000,0.0324,0.013523,0.002678,0.000431,0.003878
127997000,0.0324,0.013523,0.002678,0.000431,0.004231
127998000,0.0324,0.013523,0.002678,0.000431,0.004113
127999000,0.0324,0.013523,0.002678,0.000431,0.003878
