Cycle,Area(mm^2),PeakDynamic(W),SubthresholdLeakage(W),GateLeakage(W),RunTimeDynamic(W)
107000000,0.0324,0.013523,0.002678,0.000431,0.000940
107001000,0.0324,0.013523,0.002678,0.000431,0.000940
107002000,0.0324,0.013523,0.002678,0.000431,0.000705
107003000,0.0324,0.013523,0.002678,0.000431,0.000940
107004000,0.0324,0.013523,0.002678,0.000431,0.000940
107005000,0.0324,0.013523,0.002678,0.000431,0.000823
107006000,0.0324,0.013523,0.002678,0.000431,0.000823
107007000,0.0324,0.013523,0.002678,0.000431,0.000940
107008000,0.0324,0.013523,0.002678,0.000431,0.000940
107009000,0.0324,0.013523,0.002678,0.000431,0.000823
107010000,0.0324,0.013523,0.002678,0.000431,0.000823
107011000,0.0324,0.013523,0.002678,0.000431,0.000940
107012000,0.0324,0.013523,0.002678,0.000431,0.000823
107013000,0.0324,0.013523,0.002678,0.000431,0.000940
107014000,0.0324,0.013523,0.002678,0.000431,0.000823
107015000,0.0324,0.013523,0.002678,0.000431,0.000705
107016000,0.0324,0.013523,0.002678,0.000431,0.000940
107017000,0.0324,0.013523,0.002678,0.000431,0.000940
107018000,0.0324,0.013523,0.002678,0.000431,0.000705
107019000,0.0324,0.013523,0.002678,0.000431,0.000940
107020000,0.0324,0.013523,0.002678,0.000431,0.000705
107021000,0.0324,0.013523,0.002678,0.000431,0.000940
107022000,0.0324,0.013523,0.002678,0.000431,0.000940
107023000,0.0324,0.013523,0.002678,0.000431,0.000705
107024000,0.0324,0.013523,0.002678,0.000431,0.000940
107025000,0.0324,0.013523,0.002678,0.000431,0.000823
107026000,0.0324,0.013523,0.002678,0.000431,0.000823
107027000,0.0324,0.013523,0.002678,0.000431,0.000940
107028000,0.0324,0.013523,0.002678,0.000431,0.000940
107029000,0.0324,0.013523,0.002678,0.000431,0.000823
107030000,0.0324,0.013523,0.002678,0.000431,0.000823
107031000,0.0324,0.013523,0.002678,0.000431,0.000940
107032000,0.0324,0.013523,0.002678,0.000431,0.000823
107033000,0.0324,0.013523,0.002678,0.000431,0.000940
107034000,0.0324,0.013523,0.002678,0.000431,0.000823
107035000,0.0324,0.013523,0.002678,0.000431,0.000705
107036000,0.0324,0.013523,0.002678,0.000431,0.000940
107037000,0.0324,0.013523,0.002678,0.000431,0.000940
107038000,0.0324,0.013523,0.002678,0.000431,0.000705
107039000,0.0324,0.013523,0.002678,0.000431,0.000940
107040000,0.0324,0.013523,0.002678,0.000431,0.000705
107041000,0.0324,0.013523,0.002678,0.000431,0.000940
107042000,0.0324,0.013523,0.002678,0.000431,0.000823
107043000,0.0324,0.013523,0.002678,0.000431,0.000823
107044000,0.0324,0.013523,0.002678,0.000431,0.000940
107045000,0.0324,0.013523,0.002678,0.000431,0.000823
107046000,0.0324,0.013523,0.002678,0.000431,0.000823
107047000,0.0324,0.013523,0.002678,0.000431,0.000940
107048000,0.0324,0.013523,0.002678,0.000431,0.000940
107049000,0.0324,0.013523,0.002678,0.000431,0.000823
107050000,0.0324,0.013523,0.002678,0.000431,0.000823
107051000,0.0324,0.013523,0.002678,0.000431,0.000940
107052000,0.0324,0.013523,0.002678,0.000431,0.000823
107053000,0.0324,0.013523,0.002678,0.000431,0.000940
107054000,0.0324,0.013523,0.002678,0.000431,0.000823
107055000,0.0324,0.013523,0.002678,0.000431,0.000940
107056000,0.0324,0.013523,0.002678,0.000431,0.000823
107057000,0.0324,0.013523,0.002678,0.000431,0.000823
107058000,0.0324,0.013523,0.002678,0.000431,0.000940
107059000,0.0324,0.013523,0.002678,0.000431,0.000940
107060000,0.0324,0.013523,0.002678,0.000431,0.000823
107061000,0.0324,0.013523,0.002678,0.000431,0.000823
107062000,0.0324,0.013523,0.002678,0.000431,0.000940
107063000,0.0324,0.013523,0.002678,0.000431,0.000940
107064000,0.0324,0.013523,0.002678,0.000431,0.000705
107065000,0.0324,0.013523,0.002678,0.000431,0.000940
107066000,0.0324,0.013523,0.002678,0.000431,0.000940
107067000,0.0324,0.013523,0.002678,0.000431,0.000940
107068000,0.0324,0.013523,0.002678,0.000431,0.000705
107069000,0.0324,0.013523,0.002678,0.000431,0.000940
107070000,0.0324,0.013523,0.002678,0.000431,0.000940
107071000,0.0324,0.013523,0.002678,0.000431,0.000823
107072000,0.0324,0.013523,0.002678,0.000431,0.000823
107073000,0.0324,0.013523,0.002678,0.000431,0.000940
107074000,0.0324,0.013523,0.002678,0.000431,0.000940
107075000,0.0324,0.013523,0.002678,0.000431,0.000823
107076000,0.0324,0.013523,0.002678,0.000431,0.000823
107077000,0.0324,0.013523,0.002678,0.000431,0.000940
107078000,0.0324,0.013523,0.002678,0.000431,0.000823
107079000,0.0324,0.013523,0.002678,0.000431,0.000940
107080000,0.0324,0.013523,0.002678,0.000431,0.000823
107081000,0.0324,0.013523,0.002678,0.000431,0.000940
107082000,0.0324,0.013523,0.002678,0.000431,0.000823
107083000,0.0324,0.013523,0.002678,0.000431,0.000823
107084000,0.0324,0.013523,0.002678,0.000431,0.000940
107085000,0.0324,0.013523,0.002678,0.000431,0.000940
107086000,0.0324,0.013523,0.002678,0.000431,0.000940
107087000,0.0324,0.013523,0.002678,0.000431,0.000940
107088000,0.0324,0.013523,0.002678,0.000431,0.000823
107089000,0.0324,0.013523,0.002678,0.000431,0.000823
107090000,0.0324,0.013523,0.002678,0.000431,0.000940
107091000,0.0324,0.013523,0.002678,0.000431,0.000940
107092000,0.0324,0.013523,0.002678,0.000431,0.000823
107093000,0.0324,0.013523,0.002678,0.000431,0.000823
107094000,0.0324,0.013523,0.002678,0.000431,0.000940
107095000,0.0324,0.013523,0.002678,0.000431,0.000823
107096000,0.0324,0.013523,0.002678,0.000431,0.000940
107097000,0.0324,0.013523,0.002678,0.000431,0.000823
107098000,0.0324,0.013523,0.002678,0.000431,0.000940
107099000,0.0324,0.013523,0.002678,0.000431,0.000823
107100000,0.0324,0.013523,0.002678,0.000431,0.000823
107101000,0.0324,0.013523,0.002678,0.000431,0.000940
107102000,0.0324,0.013523,0.002678,0.000431,0.000940
107103000,0.0324,0.013523,0.002678,0.000431,0.000823
107104000,0.0324,0.013523,0.002678,0.000431,0.000823
107105000,0.0324,0.013523,0.002678,0.000431,0.000940
107106000,0.0324,0.013523,0.002678,0.000431,0.000940
107107000,0.0324,0.013523,0.002678,0.000431,0.000823
107108000,0.0324,0.013523,0.002678,0.000431,0.000823
107109000,0.0324,0.013523,0.002678,0.000431,0.000940
107110000,0.0324,0.013523,0.002678,0.000431,0.000823
107111000,0.0324,0.013523,0.002678,0.000431,0.000940
107112000,0.0324,0.013523,0.002678,0.000431,0.000823
107113000,0.0324,0.013523,0.002678,0.000431,0.000940
107114000,0.0324,0.013523,0.002678,0.000431,0.000823
107115000,0.0324,0.013523,0.002678,0.000431,0.000823
107116000,0.0324,0.013523,0.002678,0.000431,0.000940
107117000,0.0324,0.013523,0.002678,0.000431,0.000940
107118000,0.0324,0.013523,0.002678,0.000431,0.000823
107119000,0.0324,0.013523,0.002678,0.000431,0.000823
107120000,0.0324,0.013523,0.002678,0.000431,0.000940
107121000,0.0324,0.013523,0.002678,0.000431,0.000940
107122000,0.0324,0.013523,0.002678,0.000431,0.000705
107123000,0.0324,0.013523,0.002678,0.000431,0.000940
107124000,0.0324,0.013523,0.002678,0.000431,0.000940
107125000,0.0324,0.013523,0.002678,0.000431,0.000940
107126000,0.0324,0.013523,0.002678,0.000431,0.000705
107127000,0.0324,0.013523,0.002678,0.000431,0.000940
107128000,0.0324,0.013523,0.002678,0.000431,0.000940
107129000,0.0324,0.013523,0.002678,0.000431,0.000823
107130000,0.0324,0.013523,0.002678,0.000431,0.000940
107131000,0.0324,0.013523,0.002678,0.000431,0.000823
107132000,0.0324,0.013523,0.002678,0.000431,0.000940
107133000,0.0324,0.013523,0.002678,0.000431,0.000823
107134000,0.0324,0.013523,0.002678,0.000431,0.000823
107135000,0.0324,0.013523,0.002678,0.000431,0.000940
107136000,0.0324,0.013523,0.002678,0.000431,0.000823
107137000,0.0324,0.013523,0.002678,0.000431,0.000940
107138000,0.0324,0.013523,0.002678,0.000431,0.000823
107139000,0.0324,0.013523,0.002678,0.000431,0.000940
107140000,0.0324,0.013523,0.002678,0.000431,0.000940
107141000,0.0324,0.013523,0.002678,0.000431,0.000705
107142000,0.0324,0.013523,0.002678,0.000431,0.000940
107143000,0.0324,0.013523,0.002678,0.000431,0.000940
107144000,0.0324,0.013523,0.002678,0.000431,0.000940
107145000,0.0324,0.013523,0.002678,0.000431,0.000705
107146000,0.0324,0.013523,0.002678,0.000431,0.001763
107147000,0.0324,0.013523,0.002678,0.000431,0.346356
107148000,0.0324,0.013523,0.002678,0.000431,0.666267
107149000,0.0324,0.013523,0.002678,0.000431,0.165362
107150000,0.0324,0.013523,0.002678,0.000431,0.132572
107151000,0.0324,0.013523,0.002678,0.000431,0.132572
107152000,0.0324,0.013523,0.002678,0.000431,0.586466
107153000,0.0324,0.013523,0.002678,0.000431,0.219895
107154000,0.0324,0.013523,0.002678,0.000431,0.282303
107155000,0.0324,0.013523,0.002678,0.000431,0.262205
107156000,0.0324,0.013523,0.002678,0.000431,0.142209
107157000,0.0324,0.013523,0.002678,0.000431,0.142797
107158000,0.0324,0.013523,0.002678,0.000431,0.112945
107159000,0.0324,0.013523,0.002678,0.000431,0.330842
107160000,0.0324,0.013523,0.002678,0.000431,0.244929
107161000,0.0324,0.013523,0.002678,0.000431,0.035611
107162000,0.0324,0.013523,0.002678,0.000431,0.025621
107163000,0.0324,0.013523,0.002678,0.000431,0.022448
107164000,0.0324,0.013523,0.002678,0.000431,0.016924
107165000,0.0324,0.013523,0.002678,0.000431,0.018217
107166000,0.0324,0.013523,0.002678,0.000431,0.012811
107167000,0.0324,0.013523,0.002678,0.000431,0.012811
107168000,0.0324,0.013523,0.002678,0.000431,0.013046
107169000,0.0324,0.013523,0.002678,0.000431,0.012223
107170000,0.0324,0.013523,0.002678,0.000431,0.011283
107171000,0.0324,0.013523,0.002678,0.000431,0.013986
107172000,0.0324,0.013523,0.002678,0.000431,0.011283
107173000,0.0324,0.013523,0.002678,0.000431,0.010695
107174000,0.0324,0.013523,0.002678,0.000431,0.013163
107175000,0.0324,0.013523,0.002678,0.000431,0.009872
107176000,0.0324,0.013523,0.002678,0.000431,0.010225
107177000,0.0324,0.013523,0.002678,0.000431,0.011048
107178000,0.0324,0.013523,0.002678,0.000431,0.012223
107179000,0.0324,0.013523,0.002678,0.000431,0.009050
107180000,0.0324,0.013523,0.002678,0.000431,0.010578
107181000,0.0324,0.013523,0.002678,0.000431,0.008227
107182000,0.0324,0.013523,0.002678,0.000431,0.007404
107183000,0.0324,0.013523,0.002678,0.000431,0.008697
107184000,0.0324,0.013523,0.002678,0.000431,0.008345
107185000,0.0324,0.013523,0.002678,0.000431,0.006817
107186000,0.0324,0.013523,0.002678,0.000431,0.006464
107187000,0.0324,0.013523,0.002678,0.000431,0.006699
107188000,0.0324,0.013523,0.002678,0.000431,0.007052
107189000,0.0324,0.013523,0.002678,0.000431,0.005994
107190000,0.0324,0.013523,0.002678,0.000431,0.006817
107191000,0.0324,0.013523,0.002678,0.000431,0.008109
107192000,0.0324,0.013523,0.002678,0.000431,0.006347
107193000,0.0324,0.013523,0.002678,0.000431,0.005054
107194000,0.0324,0.013523,0.002678,0.000431,0.005876
107195000,0.0324,0.013523,0.002678,0.000431,0.006111
107196000,0.0324,0.013523,0.002678,0.000431,0.005289
107197000,0.0324,0.013523,0.002678,0.000431,0.005876
107198000,0.0324,0.013523,0.002678,0.000431,0.007757
107199000,0.0324,0.013523,0.002678,0.000431,0.004466
107200000,0.0324,0.013523,0.002678,0.000431,0.006464
107201000,0.0324,0.013523,0.002678,0.000431,0.003643
107202000,0.0324,0.013523,0.002678,0.000431,0.003526
107203000,0.0324,0.013523,0.002678,0.000431,0.003173
107204000,0.0324,0.013523,0.002678,0.000431,0.003408
107205000,0.0324,0.013523,0.002678,0.000431,0.003643
107206000,0.0324,0.013523,0.002678,0.000431,0.003643
107207000,0.0324,0.013523,0.002678,0.000431,0.003526
107208000,0.0324,0.013523,0.002678,0.000431,0.004466
107209000,0.0324,0.013523,0.002678,0.000431,0.002116
107210000,0.0324,0.013523,0.002678,0.000431,0.003996
107211000,0.0324,0.013523,0.002678,0.000431,0.001058
107212000,0.0324,0.013523,0.002678,0.000431,0.000823
107213000,0.0324,0.013523,0.002678,0.000431,0.000823
107214000,0.0324,0.013523,0.002678,0.000431,0.000823
107215000,0.0324,0.013523,0.002678,0.000431,0.000823
107216000,0.0324,0.013523,0.002678,0.000431,0.000823
107217000,0.0324,0.013523,0.002678,0.000431,0.000823
107218000,0.0324,0.013523,0.002678,0.000431,0.000823
107219000,0.0324,0.013523,0.002678,0.000431,0.000823
107220000,0.0324,0.013523,0.002678,0.000431,0.000940
107221000,0.0324,0.013523,0.002678,0.000431,0.000823
107222000,0.0324,0.013523,0.002678,0.000431,0.000823
107223000,0.0324,0.013523,0.002678,0.000431,0.000705
107224000,0.0324,0.013523,0.002678,0.000431,0.000940
107225000,0.0324,0.013523,0.002678,0.000431,0.000940
107226000,0.0324,0.013523,0.002678,0.000431,0.000705
107227000,0.0324,0.013523,0.002678,0.000431,0.000940
107228000,0.0324,0.013523,0.002678,0.000431,0.000705
107229000,0.0324,0.013523,0.002678,0.000431,0.000940
107230000,0.0324,0.013523,0.002678,0.000431,0.000823
107231000,0.0324,0.013523,0.002678,0.000431,0.000823
107232000,0.0324,0.013523,0.002678,0.000431,0.000940
107233000,0.0324,0.013523,0.002678,0.000431,0.000705
107234000,0.0324,0.013523,0.002678,0.000431,0.000940
107235000,0.0324,0.013523,0.002678,0.000431,0.000823
107236000,0.0324,0.013523,0.002678,0.000431,0.000823
107237000,0.0324,0.013523,0.002678,0.000431,0.000823
107238000,0.0324,0.013523,0.002678,0.000431,0.000823
107239000,0.0324,0.013523,0.002678,0.000431,0.000823
107240000,0.0324,0.013523,0.002678,0.000431,0.001645
107241000,0.0324,0.013523,0.002678,0.000431,0.335073
107242000,0.0324,0.013523,0.002678,0.000431,0.686012
107243000,0.0324,0.013523,0.002678,0.000431,0.139859
107244000,0.0324,0.013523,0.002678,0.000431,0.134922
107245000,0.0324,0.013523,0.002678,0.000431,0.136685
107246000,0.0324,0.013523,0.002678,0.000431,0.616670
107247000,0.0324,0.013523,0.002678,0.000431,0.263028
107248000,0.0324,0.013523,0.002678,0.000431,0.234351
107249000,0.0324,0.013523,0.002678,0.000431,0.263851
107250000,0.0324,0.013523,0.002678,0.000431,0.137626
107251000,0.0324,0.013523,0.002678,0.000431,0.151846
107252000,0.0324,0.013523,0.002678,0.000431,0.099664
107253000,0.0324,0.013523,0.002678,0.000431,0.416872
107254000,0.0324,0.013523,0.002678,0.000431,0.139741
107255000,0.0324,0.013523,0.002678,0.000431,0.026561
107256000,0.0324,0.013523,0.002678,0.000431,0.021038
107257000,0.0324,0.013523,0.002678,0.000431,0.017159
107258000,0.0324,0.013523,0.002678,0.000431,0.016807
107259000,0.0324,0.013523,0.002678,0.000431,0.018334
107260000,0.0324,0.013523,0.002678,0.000431,0.016571
107261000,0.0324,0.013523,0.002678,0.000431,0.012458
107262000,0.0324,0.013523,0.002678,0.000431,0.011988
107263000,0.0324,0.013523,0.002678,0.000431,0.013281
107264000,0.0324,0.013523,0.002678,0.000431,0.010813
107265000,0.0324,0.013523,0.002678,0.000431,0.007757
107266000,0.0324,0.013523,0.002678,0.000431,0.008227
107267000,0.0324,0.013523,0.002678,0.000431,0.007992
107268000,0.0324,0.013523,0.002678,0.000431,0.007287
107269000,0.0324,0.013523,0.002678,0.000431,0.008697
107270000,0.0324,0.013523,0.002678,0.000431,0.006817
107271000,0.0324,0.013523,0.002678,0.000431,0.006347
107272000,0.0324,0.013523,0.002678,0.000431,0.006699
107273000,0.0324,0.013523,0.002678,0.000431,0.006699
107274000,0.0324,0.013523,0.002678,0.000431,0.006347
107275000,0.0324,0.013523,0.002678,0.000431,0.006699
107276000,0.0324,0.013523,0.002678,0.000431,0.006229
107277000,0.0324,0.013523,0.002678,0.000431,0.007522
107278000,0.0324,0.013523,0.002678,0.000431,0.005054
107279000,0.0324,0.013523,0.002678,0.000431,0.005054
107280000,0.0324,0.013523,0.002678,0.000431,0.005171
107281000,0.0324,0.013523,0.002678,0.000431,0.004936
107282000,0.0324,0.013523,0.002678,0.000431,0.005171
107283000,0.0324,0.013523,0.002678,0.000431,0.005054
107284000,0.0324,0.013523,0.002678,0.000431,0.006582
107285000,0.0324,0.013523,0.002678,0.000431,0.005994
107286000,0.0324,0.013523,0.002678,0.000431,0.004231
107287000,0.0324,0.013523,0.002678,0.000431,0.004231
107288000,0.0324,0.013523,0.002678,0.000431,0.003996
107289000,0.0324,0.013523,0.002678,0.000431,0.004584
107290000,0.0324,0.013523,0.002678,0.000431,0.004349
107291000,0.0324,0.013523,0.002678,0.000431,0.003996
107292000,0.0324,0.013523,0.002678,0.000431,0.004349
107293000,0.0324,0.013523,0.002678,0.000431,0.005994
107294000,0.0324,0.013523,0.002678,0.000431,0.003408
107295000,0.0324,0.013523,0.002678,0.000431,0.003291
107296000,0.0324,0.013523,0.002678,0.000431,0.003643
107297000,0.0324,0.013523,0.002678,0.000431,0.003526
107298000,0.0324,0.013523,0.002678,0.000431,0.003761
107299000,0.0324,0.013523,0.002678,0.000431,0.003173
107300000,0.0324,0.013523,0.002678,0.000431,0.003408
107301000,0.0324,0.013523,0.002678,0.000431,0.003643
107302000,0.0324,0.013523,0.002678,0.000431,0.003526
107303000,0.0324,0.013523,0.002678,0.000431,0.003526
107304000,0.0324,0.013523,0.002678,0.000431,0.003173
107305000,0.0324,0.013523,0.002678,0.000431,0.003761
107306000,0.0324,0.013523,0.002678,0.000431,0.003408
107307000,0.0324,0.013523,0.002678,0.000431,0.003291
107308000,0.0324,0.013523,0.002678,0.000431,0.003526
107309000,0.0324,0.013523,0.002678,0.000431,0.003643
107310000,0.0324,0.013523,0.002678,0.000431,0.004231
107311000,0.0324,0.013523,0.002678,0.000431,0.002586
107312000,0.0324,0.013523,0.002678,0.000431,0.002703
107313000,0.0324,0.013523,0.002678,0.000431,0.002586
107314000,0.0324,0.013523,0.002678,0.000431,0.002468
107315000,0.0324,0.013523,0.002678,0.000431,0.002586
107316000,0.0324,0.013523,0.002678,0.000431,0.002703
107317000,0.0324,0.013523,0.002678,0.000431,0.002703
107318000,0.0324,0.013523,0.002678,0.000431,0.002586
107319000,0.0324,0.013523,0.002678,0.000431,0.002351
107320000,0.0324,0.013523,0.002678,0.000431,0.002821
107321000,0.0324,0.013523,0.002678,0.000431,0.002703
107322000,0.0324,0.013523,0.002678,0.000431,0.002351
107323000,0.0324,0.013523,0.002678,0.000431,0.002703
107324000,0.0324,0.013523,0.002678,0.000431,0.002468
107325000,0.0324,0.013523,0.002678,0.000431,0.002821
107326000,0.0324,0.013523,0.002678,0.000431,0.002586
107327000,0.0324,0.013523,0.002678,0.000431,0.002351
107328000,0.0324,0.013523,0.002678,0.000431,0.002821
107329000,0.0324,0.013523,0.002678,0.000431,0.003526
107330000,0.0324,0.013523,0.002678,0.000431,0.003291
107331000,0.0324,0.013523,0.002678,0.000431,0.001645
107332000,0.0324,0.013523,0.002678,0.000431,0.001763
107333000,0.0324,0.013523,0.002678,0.000431,0.001645
107334000,0.0324,0.013523,0.002678,0.000431,0.001645
107335000,0.0324,0.013523,0.002678,0.000431,0.001880
107336000,0.0324,0.013523,0.002678,0.000431,0.001645
107337000,0.0324,0.013523,0.002678,0.000431,0.001763
107338000,0.0324,0.013523,0.002678,0.000431,0.001645
107339000,0.0324,0.013523,0.002678,0.000431,0.001763
107340000,0.0324,0.013523,0.002678,0.000431,0.001763
107341000,0.0324,0.013523,0.002678,0.000431,0.001528
107342000,0.0324,0.013523,0.002678,0.000431,0.001763
107343000,0.0324,0.013523,0.002678,0.000431,0.001763
107344000,0.0324,0.013523,0.002678,0.000431,0.001880
107345000,0.0324,0.013523,0.002678,0.000431,0.001410
107346000,0.0324,0.013523,0.002678,0.000431,0.001880
107347000,0.0324,0.013523,0.002678,0.000431,0.001645
107348000,0.0324,0.013523,0.002678,0.000431,0.001763
107349000,0.0324,0.013523,0.002678,0.000431,0.001763
107350000,0.0324,0.013523,0.002678,0.000431,0.001645
107351000,0.0324,0.013523,0.002678,0.000431,0.001880
107352000,0.0324,0.013523,0.002678,0.000431,0.001645
107353000,0.0324,0.013523,0.002678,0.000431,0.001880
107354000,0.0324,0.013523,0.002678,0.000431,0.001528
107355000,0.0324,0.013523,0.002678,0.000431,0.001763
107356000,0.0324,0.013523,0.002678,0.000431,0.001763
107357000,0.0324,0.013523,0.002678,0.000431,0.001645
107358000,0.0324,0.013523,0.002678,0.000431,0.001763
107359000,0.0324,0.013523,0.002678,0.000431,0.001645
107360000,0.0324,0.013523,0.002678,0.000431,0.001880
107361000,0.0324,0.013523,0.002678,0.000431,0.001645
107362000,0.0324,0.013523,0.002678,0.000431,0.003056
107363000,0.0324,0.013523,0.002678,0.000431,0.002586
107364000,0.0324,0.013523,0.002678,0.000431,0.000823
107365000,0.0324,0.013523,0.002678,0.000431,0.000823
107366000,0.0324,0.013523,0.002678,0.000431,0.000823
107367000,0.0324,0.013523,0.002678,0.000431,0.000823
107368000,0.0324,0.013523,0.002678,0.000431,0.000823
107369000,0.0324,0.013523,0.002678,0.000431,0.000940
107370000,0.0324,0.013523,0.002678,0.000431,0.000823
107371000,0.0324,0.013523,0.002678,0.000431,0.000823
107372000,0.0324,0.013523,0.002678,0.000431,0.000705
107373000,0.0324,0.013523,0.002678,0.000431,0.000940
107374000,0.0324,0.013523,0.002678,0.000431,0.000940
107375000,0.0324,0.013523,0.002678,0.000431,0.000705
107376000,0.0324,0.013523,0.002678,0.000431,0.000940
107377000,0.0324,0.013523,0.002678,0.000431,0.000705
107378000,0.0324,0.013523,0.002678,0.000431,0.000940
107379000,0.0324,0.013523,0.002678,0.000431,0.000823
107380000,0.0324,0.013523,0.002678,0.000431,0.000823
107381000,0.0324,0.013523,0.002678,0.000431,0.000940
107382000,0.0324,0.013523,0.002678,0.000431,0.000705
107383000,0.0324,0.013523,0.002678,0.000431,0.187457
107384000,0.0324,0.013523,0.002678,0.000431,0.534636
107385000,0.0324,0.013523,0.002678,0.000431,0.392662
107386000,0.0324,0.013523,0.002678,0.000431,0.131632
107387000,0.0324,0.013523,0.002678,0.000431,0.131632
107388000,0.0324,0.013523,0.002678,0.000431,0.570952
107389000,0.0324,0.013523,0.002678,0.000431,0.260442
107390000,0.0324,0.013523,0.002678,0.000431,0.249277
107391000,0.0324,0.013523,0.002678,0.000431,0.290647
107392000,0.0324,0.013523,0.002678,0.000431,0.143502
107393000,0.0324,0.013523,0.002678,0.000431,0.142444
107394000,0.0324,0.013523,0.002678,0.000431,0.125403
107395000,0.0324,0.013523,0.002678,0.000431,0.242461
107396000,0.0324,0.013523,0.002678,0.000431,0.331547
107397000,0.0324,0.013523,0.002678,0.000431,0.024563
107398000,0.0324,0.013523,0.002678,0.000431,0.019980
107399000,0.0324,0.013523,0.002678,0.000431,0.019745
107400000,0.0324,0.013523,0.002678,0.000431,0.017629
107401000,0.0324,0.013523,0.002678,0.000431,0.017394
107402000,0.0324,0.013523,0.002678,0.000431,0.015984
107403000,0.0324,0.013523,0.002678,0.000431,0.017512
107404000,0.0324,0.013523,0.002678,0.000431,0.013868
107405000,0.0324,0.013523,0.002678,0.000431,0.014809
107406000,0.0324,0.013523,0.002678,0.000431,0.013046
107407000,0.0324,0.013523,0.002678,0.000431,0.012928
107408000,0.0324,0.013523,0.002678,0.000431,0.012576
107409000,0.0324,0.013523,0.002678,0.000431,0.012811
107410000,0.0324,0.013523,0.002678,0.000431,0.014221
107411000,0.0324,0.013523,0.002678,0.000431,0.012340
107412000,0.0324,0.013523,0.002678,0.000431,0.009520
107413000,0.0324,0.013523,0.002678,0.000431,0.010225
107414000,0.0324,0.013523,0.002678,0.000431,0.011400
107415000,0.0324,0.013523,0.002678,0.000431,0.009520
107416000,0.0324,0.013523,0.002678,0.000431,0.008697
107417000,0.0324,0.013523,0.002678,0.000431,0.008345
107418000,0.0324,0.013523,0.002678,0.000431,0.008345
107419000,0.0324,0.013523,0.002678,0.000431,0.008697
107420000,0.0324,0.013523,0.002678,0.000431,0.008580
107421000,0.0324,0.013523,0.002678,0.000431,0.008227
107422000,0.0324,0.013523,0.002678,0.000431,0.008932
107423000,0.0324,0.013523,0.002678,0.000431,0.008109
107424000,0.0324,0.013523,0.002678,0.000431,0.008932
107425000,0.0324,0.013523,0.002678,0.000431,0.008462
107426000,0.0324,0.013523,0.002678,0.000431,0.008462
107427000,0.0324,0.013523,0.002678,0.000431,0.008697
107428000,0.0324,0.013523,0.002678,0.000431,0.008109
107429000,0.0324,0.013523,0.002678,0.000431,0.009050
107430000,0.0324,0.013523,0.002678,0.000431,0.007992
107431000,0.0324,0.013523,0.002678,0.000431,0.008815
107432000,0.0324,0.013523,0.002678,0.000431,0.008580
107433000,0.0324,0.013523,0.002678,0.000431,0.009637
107434000,0.0324,0.013523,0.002678,0.000431,0.009050
107435000,0.0324,0.013523,0.002678,0.000431,0.007639
107436000,0.0324,0.013523,0.002678,0.000431,0.007639
107437000,0.0324,0.013523,0.002678,0.000431,0.009872
107438000,0.0324,0.013523,0.002678,0.000431,0.008227
107439000,0.0324,0.013523,0.002678,0.000431,0.005994
107440000,0.0324,0.013523,0.002678,0.000431,0.006347
107441000,0.0324,0.013523,0.002678,0.000431,0.005406
107442000,0.0324,0.013523,0.002678,0.000431,0.007757
107443000,0.0324,0.013523,0.002678,0.000431,0.005406
107444000,0.0324,0.013523,0.002678,0.000431,0.004936
107445000,0.0324,0.013523,0.002678,0.000431,0.005171
107446000,0.0324,0.013523,0.002678,0.000431,0.004819
107447000,0.0324,0.013523,0.002678,0.000431,0.005524
107448000,0.0324,0.013523,0.002678,0.000431,0.005054
107449000,0.0324,0.013523,0.002678,0.000431,0.005171
107450000,0.0324,0.013523,0.002678,0.000431,0.005054
107451000,0.0324,0.013523,0.002678,0.000431,0.005171
107452000,0.0324,0.013523,0.002678,0.000431,0.005171
107453000,0.0324,0.013523,0.002678,0.000431,0.004936
107454000,0.0324,0.013523,0.002678,0.000431,0.005289
107455000,0.0324,0.013523,0.002678,0.000431,0.005054
107456000,0.0324,0.013523,0.002678,0.000431,0.005289
107457000,0.0324,0.013523,0.002678,0.000431,0.005054
107458000,0.0324,0.013523,0.002678,0.000431,0.005054
107459000,0.0324,0.013523,0.002678,0.000431,0.004936
107460000,0.0324,0.013523,0.002678,0.000431,0.005289
107461000,0.0324,0.013523,0.002678,0.000431,0.005171
107462000,0.0324,0.013523,0.002678,0.000431,0.004936
107463000,0.0324,0.013523,0.002678,0.000431,0.005524
107464000,0.0324,0.013523,0.002678,0.000431,0.004819
107465000,0.0324,0.013523,0.002678,0.000431,0.005289
107466000,0.0324,0.013523,0.002678,0.000431,0.005054
107467000,0.0324,0.013523,0.002678,0.000431,0.005171
107468000,0.0324,0.013523,0.002678,0.000431,0.007287
107469000,0.0324,0.013523,0.002678,0.000431,0.003643
107470000,0.0324,0.013523,0.002678,0.000431,0.004701
107471000,0.0324,0.013523,0.002678,0.000431,0.004113
107472000,0.0324,0.013523,0.002678,0.000431,0.004349
107473000,0.0324,0.013523,0.002678,0.000431,0.005759
107474000,0.0324,0.013523,0.002678,0.000431,0.003408
107475000,0.0324,0.013523,0.002678,0.000431,0.003526
107476000,0.0324,0.013523,0.002678,0.000431,0.003408
107477000,0.0324,0.013523,0.002678,0.000431,0.003291
107478000,0.0324,0.013523,0.002678,0.000431,0.003643
107479000,0.0324,0.013523,0.002678,0.000431,0.003996
107480000,0.0324,0.013523,0.002678,0.000431,0.003056
107481000,0.0324,0.013523,0.002678,0.000431,0.002468
107482000,0.0324,0.013523,0.002678,0.000431,0.002821
107483000,0.0324,0.013523,0.002678,0.000431,0.002468
107484000,0.0324,0.013523,0.002678,0.000431,0.002233
107485000,0.0324,0.013523,0.002678,0.000431,0.002703
107486000,0.0324,0.013523,0.002678,0.000431,0.002703
107487000,0.0324,0.013523,0.002678,0.000431,0.002468
107488000,0.0324,0.013523,0.002678,0.000431,0.003173
107489000,0.0324,0.013523,0.002678,0.000431,0.000940
107490000,0.0324,0.013523,0.002678,0.000431,0.000940
107491000,0.0324,0.013523,0.002678,0.000431,0.000823
107492000,0.0324,0.013523,0.002678,0.000431,0.000823
107493000,0.0324,0.013523,0.002678,0.000431,0.000940
107494000,0.0324,0.013523,0.002678,0.000431,0.000940
107495000,0.0324,0.013523,0.002678,0.000431,0.000823
107496000,0.0324,0.013523,0.002678,0.000431,0.000823
107497000,0.0324,0.013523,0.002678,0.000431,0.000940
107498000,0.0324,0.013523,0.002678,0.000431,0.000940
107499000,0.0324,0.013523,0.002678,0.000431,0.000823
107500000,0.0324,0.013523,0.002678,0.000431,0.000823
107501000,0.0324,0.013523,0.002678,0.000431,0.000940
107502000,0.0324,0.013523,0.002678,0.000431,0.000823
107503000,0.0324,0.013523,0.002678,0.000431,0.000940
107504000,0.0324,0.013523,0.002678,0.000431,0.000823
107505000,0.0324,0.013523,0.002678,0.000431,0.000940
107506000,0.0324,0.013523,0.002678,0.000431,0.000823
107507000,0.0324,0.013523,0.002678,0.000431,0.000823
107508000,0.0324,0.013523,0.002678,0.000431,0.000940
107509000,0.0324,0.013523,0.002678,0.000431,0.000940
107510000,0.0324,0.013523,0.002678,0.000431,0.000823
107511000,0.0324,0.013523,0.002678,0.000431,0.000823
107512000,0.0324,0.013523,0.002678,0.000431,0.000940
107513000,0.0324,0.013523,0.002678,0.000431,0.000940
107514000,0.0324,0.013523,0.002678,0.000431,0.000705
107515000,0.0324,0.013523,0.002678,0.000431,0.000940
107516000,0.0324,0.013523,0.002678,0.000431,0.000940
107517000,0.0324,0.013523,0.002678,0.000431,0.000823
107518000,0.0324,0.013523,0.002678,0.000431,0.000823
107519000,0.0324,0.013523,0.002678,0.000431,0.000940
107520000,0.0324,0.013523,0.002678,0.000431,0.000940
107521000,0.0324,0.013523,0.002678,0.000431,0.000823
107522000,0.0324,0.013523,0.002678,0.000431,0.000823
107523000,0.0324,0.013523,0.002678,0.000431,0.000940
107524000,0.0324,0.013523,0.002678,0.000431,0.000823
107525000,0.0324,0.013523,0.002678,0.000431,0.000940
107526000,0.0324,0.013523,0.002678,0.000431,0.000823
107527000,0.0324,0.013523,0.002678,0.000431,0.000940
107528000,0.0324,0.013523,0.002678,0.000431,0.000940
107529000,0.0324,0.013523,0.002678,0.000431,0.000705
107530000,0.0324,0.013523,0.002678,0.000431,0.000940
107531000,0.0324,0.013523,0.002678,0.000431,0.000940
107532000,0.0324,0.013523,0.002678,0.000431,0.000940
107533000,0.0324,0.013523,0.002678,0.000431,0.000705
107534000,0.0324,0.013523,0.002678,0.000431,0.000940
107535000,0.0324,0.013523,0.002678,0.000431,0.000940
107536000,0.0324,0.013523,0.002678,0.000431,0.000823
107537000,0.0324,0.013523,0.002678,0.000431,0.000823
107538000,0.0324,0.013523,0.002678,0.000431,0.071575
107539000,0.0324,0.013523,0.002678,0.000431,0.437792
107540000,0.0324,0.013523,0.002678,0.000431,0.570247
107541000,0.0324,0.013523,0.002678,0.000431,0.131632
107542000,0.0324,0.013523,0.002678,0.000431,0.133982
107543000,0.0324,0.013523,0.002678,0.000431,0.504196
107544000,0.0324,0.013523,0.002678,0.000431,0.255036
107545000,0.0324,0.013523,0.002678,0.000431,0.231295
107546000,0.0324,0.013523,0.002678,0.000431,0.249982
107547000,0.0324,0.013523,0.002678,0.000431,0.195332
107548000,0.0324,0.013523,0.002678,0.000431,0.144090
107549000,0.0324,0.013523,0.002678,0.000431,0.149261
107550000,0.0324,0.013523,0.002678,0.000431,0.115413
107551000,0.0324,0.013523,0.002678,0.000431,0.381379
107552000,0.0324,0.013523,0.002678,0.000431,0.214371
107553000,0.0324,0.013523,0.002678,0.000431,0.063583
107554000,0.0324,0.013523,0.002678,0.000431,0.049714
107555000,0.0324,0.013523,0.002678,0.000431,0.040312
107556000,0.0324,0.013523,0.002678,0.000431,0.038314
107557000,0.0324,0.013523,0.002678,0.000431,0.030675
107558000,0.0324,0.013523,0.002678,0.000431,0.030792
107559000,0.0324,0.013523,0.002678,0.000431,0.029500
107560000,0.0324,0.013523,0.002678,0.000431,0.025151
107561000,0.0324,0.013523,0.002678,0.000431,0.021273
107562000,0.0324,0.013523,0.002678,0.000431,0.019275
107563000,0.0324,0.013523,0.002678,0.000431,0.024328
107564000,0.0324,0.013523,0.002678,0.000431,0.017277
107565000,0.0324,0.013523,0.002678,0.000431,0.015044
107566000,0.0324,0.013523,0.002678,0.000431,0.014221
107567000,0.0324,0.013523,0.002678,0.000431,0.014221
107568000,0.0324,0.013523,0.002678,0.000431,0.015161
107569000,0.0324,0.013523,0.002678,0.000431,0.008580
107570000,0.0324,0.013523,0.002678,0.000431,0.007404
107571000,0.0324,0.013523,0.002678,0.000431,0.007404
107572000,0.0324,0.013523,0.002678,0.000431,0.009050
107573000,0.0324,0.013523,0.002678,0.000431,0.005759
107574000,0.0324,0.013523,0.002678,0.000431,0.005994
107575000,0.0324,0.013523,0.002678,0.000431,0.005524
107576000,0.0324,0.013523,0.002678,0.000431,0.007169
107577000,0.0324,0.013523,0.002678,0.000431,0.004231
107578000,0.0324,0.013523,0.002678,0.000431,0.005641
107579000,0.0324,0.013523,0.002678,0.000431,0.004466
107580000,0.0324,0.013523,0.002678,0.000431,0.004349
107581000,0.0324,0.013523,0.002678,0.000431,0.002821
107582000,0.0324,0.013523,0.002678,0.000431,0.001763
107583000,0.0324,0.013523,0.002678,0.000431,0.001763
107584000,0.0324,0.013523,0.002678,0.000431,0.001645
107585000,0.0324,0.013523,0.002678,0.000431,0.001763
107586000,0.0324,0.013523,0.002678,0.000431,0.001645
107587000,0.0324,0.013523,0.002678,0.000431,0.001880
107588000,0.0324,0.013523,0.002678,0.000431,0.001528
107589000,0.0324,0.013523,0.002678,0.000431,0.001645
107590000,0.0324,0.013523,0.002678,0.000431,0.001880
107591000,0.0324,0.013523,0.002678,0.000431,0.001763
107592000,0.0324,0.013523,0.002678,0.000431,0.001645
107593000,0.0324,0.013523,0.002678,0.000431,0.001645
107594000,0.0324,0.013523,0.002678,0.000431,0.001645
107595000,0.0324,0.013523,0.002678,0.000431,0.001880
107596000,0.0324,0.013523,0.002678,0.000431,0.001528
107597000,0.0324,0.013523,0.002678,0.000431,0.001763
107598000,0.0324,0.013523,0.002678,0.000431,0.001763
107599000,0.0324,0.013523,0.002678,0.000431,0.001763
107600000,0.0324,0.013523,0.002678,0.000431,0.001645
107601000,0.0324,0.013523,0.002678,0.000431,0.001645
107602000,0.0324,0.013523,0.002678,0.000431,0.001763
107603000,0.0324,0.013523,0.002678,0.000431,0.001645
107604000,0.0324,0.013523,0.002678,0.000431,0.001880
107605000,0.0324,0.013523,0.002678,0.000431,0.001528
107606000,0.0324,0.013523,0.002678,0.000431,0.001880
107607000,0.0324,0.013523,0.002678,0.000431,0.003878
107608000,0.0324,0.013523,0.002678,0.000431,0.000940
107609000,0.0324,0.013523,0.002678,0.000431,0.000940
107610000,0.0324,0.013523,0.002678,0.000431,0.005759
107611000,0.0324,0.013523,0.002678,0.000431,0.454364
107612000,0.0324,0.013523,0.002678,0.000431,0.635005
107613000,0.0324,0.013523,0.002678,0.000431,0.133982
107614000,0.0324,0.013523,0.002678,0.000431,0.132102
107615000,0.0324,0.013523,0.002678,0.000431,0.206379
107616000,0.0324,0.013523,0.002678,0.000431,0.541335
107617000,0.0324,0.013523,0.002678,0.000431,0.250218
107618000,0.0324,0.013523,0.002678,0.000431,0.311685
107619000,0.0324,0.013523,0.002678,0.000431,0.230590
107620000,0.0324,0.013523,0.002678,0.000431,0.141386
107621000,0.0324,0.013523,0.002678,0.000431,0.141386
107622000,0.0324,0.013523,0.002678,0.000431,0.199210
107623000,0.0324,0.013523,0.002678,0.000431,0.387138
107624000,0.0324,0.013523,0.002678,0.000431,0.038197
107625000,0.0324,0.013523,0.002678,0.000431,0.029382
107626000,0.0324,0.013523,0.002678,0.000431,0.028207
107627000,0.0324,0.013523,0.002678,0.000431,0.025151
107628000,0.0324,0.013523,0.002678,0.000431,0.023036
107629000,0.0324,0.013523,0.002678,0.000431,0.019627
107630000,0.0324,0.013523,0.002678,0.000431,0.016101
107631000,0.0324,0.013523,0.002678,0.000431,0.017629
107632000,0.0324,0.013523,0.002678,0.000431,0.014926
107633000,0.0324,0.013523,0.002678,0.000431,0.014456
107634000,0.0324,0.013523,0.002678,0.000431,0.013633
107635000,0.0324,0.013523,0.002678,0.000431,0.015161
107636000,0.0324,0.013523,0.002678,0.000431,0.012576
107637000,0.0324,0.013523,0.002678,0.000431,0.012576
107638000,0.0324,0.013523,0.002678,0.000431,0.012693
107639000,0.0324,0.013523,0.002678,0.000431,0.011518
107640000,0.0324,0.013523,0.002678,0.000431,0.015044
107641000,0.0324,0.013523,0.002678,0.000431,0.010460
107642000,0.0324,0.013523,0.002678,0.000431,0.011635
107643000,0.0324,0.013523,0.002678,0.000431,0.010225
107644000,0.0324,0.013523,0.002678,0.000431,0.013281
107645000,0.0324,0.013523,0.002678,0.000431,0.009402
107646000,0.0324,0.013523,0.002678,0.000431,0.009285
107647000,0.0324,0.013523,0.002678,0.000431,0.011048
107648000,0.0324,0.013523,0.002678,0.000431,0.008109
107649000,0.0324,0.013523,0.002678,0.000431,0.008815
107650000,0.0324,0.013523,0.002678,0.000431,0.009520
107651000,0.0324,0.013523,0.002678,0.000431,0.007522
107652000,0.0324,0.013523,0.002678,0.000431,0.007757
107653000,0.0324,0.013523,0.002678,0.000431,0.008580
107654000,0.0324,0.013523,0.002678,0.000431,0.007404
107655000,0.0324,0.013523,0.002678,0.000431,0.006934
107656000,0.0324,0.013523,0.002678,0.000431,0.008227
107657000,0.0324,0.013523,0.002678,0.000431,0.005406
107658000,0.0324,0.013523,0.002678,0.000431,0.006111
107659000,0.0324,0.013523,0.002678,0.000431,0.006699
107660000,0.0324,0.013523,0.002678,0.000431,0.005524
107661000,0.0324,0.013523,0.002678,0.000431,0.003173
107662000,0.0324,0.013523,0.002678,0.000431,0.003408
107663000,0.0324,0.013523,0.002678,0.000431,0.003056
107664000,0.0324,0.013523,0.002678,0.000431,0.003526
107665000,0.0324,0.013523,0.002678,0.000431,0.003408
107666000,0.0324,0.013523,0.002678,0.000431,0.003173
107667000,0.0324,0.013523,0.002678,0.000431,0.003526
107668000,0.0324,0.013523,0.002678,0.000431,0.003056
107669000,0.0324,0.013523,0.002678,0.000431,0.003408
107670000,0.0324,0.013523,0.002678,0.000431,0.003291
107671000,0.0324,0.013523,0.002678,0.000431,0.003408
107672000,0.0324,0.013523,0.002678,0.000431,0.003173
107673000,0.0324,0.013523,0.002678,0.000431,0.003408
107674000,0.0324,0.013523,0.002678,0.000431,0.003643
107675000,0.0324,0.013523,0.002678,0.000431,0.003056
107676000,0.0324,0.013523,0.002678,0.000431,0.003173
107677000,0.0324,0.013523,0.002678,0.000431,0.003408
107678000,0.0324,0.013523,0.002678,0.000431,0.003408
107679000,0.0324,0.013523,0.002678,0.000431,0.003408
107680000,0.0324,0.013523,0.002678,0.000431,0.003408
107681000,0.0324,0.013523,0.002678,0.000431,0.003761
107682000,0.0324,0.013523,0.002678,0.000431,0.002821
107683000,0.0324,0.013523,0.002678,0.000431,0.003408
107684000,0.0324,0.013523,0.002678,0.000431,0.003643
107685000,0.0324,0.013523,0.002678,0.000431,0.003408
107686000,0.0324,0.013523,0.002678,0.000431,0.004231
107687000,0.0324,0.013523,0.002678,0.000431,0.001763
107688000,0.0324,0.013523,0.002678,0.000431,0.001645
107689000,0.0324,0.013523,0.002678,0.000431,0.001880
107690000,0.0324,0.013523,0.002678,0.000431,0.001880
107691000,0.0324,0.013523,0.002678,0.000431,0.001645
107692000,0.0324,0.013523,0.002678,0.000431,0.001763
107693000,0.0324,0.013523,0.002678,0.000431,0.001528
107694000,0.0324,0.013523,0.002678,0.000431,0.001880
107695000,0.0324,0.013523,0.002678,0.000431,0.001763
107696000,0.0324,0.013523,0.002678,0.000431,0.001645
107697000,0.0324,0.013523,0.002678,0.000431,0.001763
107698000,0.0324,0.013523,0.002678,0.000431,0.001645
107699000,0.0324,0.013523,0.002678,0.000431,0.001763
107700000,0.0324,0.013523,0.002678,0.000431,0.001645
107701000,0.0324,0.013523,0.002678,0.000431,0.001763
107702000,0.0324,0.013523,0.002678,0.000431,0.001763
107703000,0.0324,0.013523,0.002678,0.000431,0.003056
107704000,0.0324,0.013523,0.002678,0.000431,0.000940
107705000,0.0324,0.013523,0.002678,0.000431,0.000705
107706000,0.0324,0.013523,0.002678,0.000431,0.000940
107707000,0.0324,0.013523,0.002678,0.000431,0.000823
107708000,0.0324,0.013523,0.002678,0.000431,0.000823
107709000,0.0324,0.013523,0.002678,0.000431,0.000823
107710000,0.0324,0.013523,0.002678,0.000431,0.000823
107711000,0.0324,0.013523,0.002678,0.000431,0.000823
107712000,0.0324,0.013523,0.002678,0.000431,0.000823
107713000,0.0324,0.013523,0.002678,0.000431,0.000940
107714000,0.0324,0.013523,0.002678,0.000431,0.000823
107715000,0.0324,0.013523,0.002678,0.000431,0.000823
107716000,0.0324,0.013523,0.002678,0.000431,0.000705
107717000,0.0324,0.013523,0.002678,0.000431,0.000940
107718000,0.0324,0.013523,0.002678,0.000431,0.000940
107719000,0.0324,0.013523,0.002678,0.000431,0.000705
107720000,0.0324,0.013523,0.002678,0.000431,0.000940
107721000,0.0324,0.013523,0.002678,0.000431,0.000705
107722000,0.0324,0.013523,0.002678,0.000431,0.000940
107723000,0.0324,0.013523,0.002678,0.000431,0.000823
107724000,0.0324,0.013523,0.002678,0.000431,0.000823
107725000,0.0324,0.013523,0.002678,0.000431,0.000940
107726000,0.0324,0.013523,0.002678,0.000431,0.000705
107727000,0.0324,0.013523,0.002678,0.000431,0.000940
107728000,0.0324,0.013523,0.002678,0.000431,0.000823
107729000,0.0324,0.013523,0.002678,0.000431,0.000823
107730000,0.0324,0.013523,0.002678,0.000431,0.000823
107731000,0.0324,0.013523,0.002678,0.000431,0.000823
107732000,0.0324,0.013523,0.002678,0.000431,0.000823
107733000,0.0324,0.013523,0.002678,0.000431,0.000823
107734000,0.0324,0.013523,0.002678,0.000431,0.000940
107735000,0.0324,0.013523,0.002678,0.000431,0.000705
107736000,0.0324,0.013523,0.002678,0.000431,0.000823
107737000,0.0324,0.013523,0.002678,0.000431,0.000940
107738000,0.0324,0.013523,0.002678,0.000431,0.000823
107739000,0.0324,0.013523,0.002678,0.000431,0.000823
107740000,0.0324,0.013523,0.002678,0.000431,0.000823
107741000,0.0324,0.013523,0.002678,0.000431,0.000705
107742000,0.0324,0.013523,0.002678,0.000431,0.000940
107743000,0.0324,0.013523,0.002678,0.000431,0.000940
107744000,0.0324,0.013523,0.002678,0.000431,0.000705
107745000,0.0324,0.013523,0.002678,0.000431,0.000940
107746000,0.0324,0.013523,0.002678,0.000431,0.000705
107747000,0.0324,0.013523,0.002678,0.000431,0.000940
107748000,0.0324,0.013523,0.002678,0.000431,0.000940
107749000,0.0324,0.013523,0.002678,0.000431,0.000705
107750000,0.0324,0.013523,0.002678,0.000431,0.000940
107751000,0.0324,0.013523,0.002678,0.000431,0.000705
107752000,0.0324,0.013523,0.002678,0.000431,0.000940
107753000,0.0324,0.013523,0.002678,0.000431,0.000823
107754000,0.0324,0.013523,0.002678,0.000431,0.000823
107755000,0.0324,0.013523,0.002678,0.000431,0.000823
107756000,0.0324,0.013523,0.002678,0.000431,0.000823
107757000,0.0324,0.013523,0.002678,0.000431,0.000940
107758000,0.0324,0.013523,0.002678,0.000431,0.000705
107759000,0.0324,0.013523,0.002678,0.000431,0.000940
107760000,0.0324,0.013523,0.002678,0.000431,0.000823
107761000,0.0324,0.013523,0.002678,0.000431,0.000823
107762000,0.0324,0.013523,0.002678,0.000431,0.000823
107763000,0.0324,0.013523,0.002678,0.000431,0.000823
107764000,0.0324,0.013523,0.002678,0.000431,0.000823
107765000,0.0324,0.013523,0.002678,0.000431,0.000823
107766000,0.0324,0.013523,0.002678,0.000431,0.000940
107767000,0.0324,0.013523,0.002678,0.000431,0.000705
107768000,0.0324,0.013523,0.002678,0.000431,0.000940
107769000,0.0324,0.013523,0.002678,0.000431,0.000705
107770000,0.0324,0.013523,0.002678,0.000431,0.000940
107771000,0.0324,0.013523,0.002678,0.000431,0.000823
107772000,0.0324,0.013523,0.002678,0.000431,0.000823
107773000,0.0324,0.013523,0.002678,0.000431,0.000940
107774000,0.0324,0.013523,0.002678,0.000431,0.000705
107775000,0.0324,0.013523,0.002678,0.000431,0.000940
107776000,0.0324,0.013523,0.002678,0.000431,0.000823
107777000,0.0324,0.013523,0.002678,0.000431,0.000823
107778000,0.0324,0.013523,0.002678,0.000431,0.000823
107779000,0.0324,0.013523,0.002678,0.000431,0.000823
107780000,0.0324,0.013523,0.002678,0.000431,0.000940
107781000,0.0324,0.013523,0.002678,0.000431,0.000705
107782000,0.0324,0.013523,0.002678,0.000431,0.000940
107783000,0.0324,0.013523,0.002678,0.000431,0.000823
107784000,0.0324,0.013523,0.002678,0.000431,0.000823
107785000,0.0324,0.013523,0.002678,0.000431,0.000823
107786000,0.0324,0.013523,0.002678,0.000431,0.000823
107787000,0.0324,0.013523,0.002678,0.000431,0.000823
107788000,0.0324,0.013523,0.002678,0.000431,0.000823
107789000,0.0324,0.013523,0.002678,0.000431,0.000823
107790000,0.0324,0.013523,0.002678,0.000431,0.000823
107791000,0.0324,0.013523,0.002678,0.000431,0.000940
107792000,0.0324,0.013523,0.002678,0.000431,0.000823
107793000,0.0324,0.013523,0.002678,0.000431,0.000823
107794000,0.0324,0.013523,0.002678,0.000431,0.000705
107795000,0.0324,0.013523,0.002678,0.000431,0.000940
107796000,0.0324,0.013523,0.002678,0.000431,0.000940
107797000,0.0324,0.013523,0.002678,0.000431,0.000705
107798000,0.0324,0.013523,0.002678,0.000431,0.000940
107799000,0.0324,0.013523,0.002678,0.000431,0.000705
107800000,0.0324,0.013523,0.002678,0.000431,0.000940
107801000,0.0324,0.013523,0.002678,0.000431,0.000823
107802000,0.0324,0.013523,0.002678,0.000431,0.000823
107803000,0.0324,0.013523,0.002678,0.000431,0.000940
107804000,0.0324,0.013523,0.002678,0.000431,0.000705
107805000,0.0324,0.013523,0.002678,0.000431,0.000940
107806000,0.0324,0.013523,0.002678,0.000431,0.000823
107807000,0.0324,0.013523,0.002678,0.000431,0.000823
107808000,0.0324,0.013523,0.002678,0.000431,0.000823
107809000,0.0324,0.013523,0.002678,0.000431,0.000823
107810000,0.0324,0.013523,0.002678,0.000431,0.000823
107811000,0.0324,0.013523,0.002678,0.000431,0.000823
107812000,0.0324,0.013523,0.002678,0.000431,0.000940
107813000,0.0324,0.013523,0.002678,0.000431,0.000705
107814000,0.0324,0.013523,0.002678,0.000431,0.000940
107815000,0.0324,0.013523,0.002678,0.000431,0.000823
107816000,0.0324,0.013523,0.002678,0.000431,0.000823
107817000,0.0324,0.013523,0.002678,0.000431,0.000705
107818000,0.0324,0.013523,0.002678,0.000431,0.000940
107819000,0.0324,0.013523,0.002678,0.000431,0.000940
107820000,0.0324,0.013523,0.002678,0.000431,0.000705
107821000,0.0324,0.013523,0.002678,0.000431,0.000940
107822000,0.0324,0.013523,0.002678,0.000431,0.000705
107823000,0.0324,0.013523,0.002678,0.000431,0.000940
107824000,0.0324,0.013523,0.002678,0.000431,0.000823
107825000,0.0324,0.013523,0.002678,0.000431,0.000823
107826000,0.0324,0.013523,0.002678,0.000431,0.000940
107827000,0.0324,0.013523,0.002678,0.000431,0.000705
107828000,0.0324,0.013523,0.002678,0.000431,0.000940
107829000,0.0324,0.013523,0.002678,0.000431,0.000823
107830000,0.0324,0.013523,0.002678,0.000431,0.000823
107831000,0.0324,0.013523,0.002678,0.000431,0.000823
107832000,0.0324,0.013523,0.002678,0.000431,0.000823
107833000,0.0324,0.013523,0.002678,0.000431,0.000823
107834000,0.0324,0.013523,0.002678,0.000431,0.000823
107835000,0.0324,0.013523,0.002678,0.000431,0.000940
107836000,0.0324,0.013523,0.002678,0.000431,0.000823
107837000,0.0324,0.013523,0.002678,0.000431,0.000823
107838000,0.0324,0.013523,0.002678,0.000431,0.000823
107839000,0.0324,0.013523,0.002678,0.000431,0.000823
107840000,0.0324,0.013523,0.002678,0.000431,0.000823
107841000,0.0324,0.013523,0.002678,0.000431,0.000823
107842000,0.0324,0.013523,0.002678,0.000431,0.000823
107843000,0.0324,0.013523,0.002678,0.000431,0.000823
107844000,0.0324,0.013523,0.002678,0.000431,0.000940
107845000,0.0324,0.013523,0.002678,0.000431,0.000823
107846000,0.0324,0.013523,0.002678,0.000431,0.000823
107847000,0.0324,0.013523,0.002678,0.000431,0.000705
107848000,0.0324,0.013523,0.002678,0.000431,0.000940
107849000,0.0324,0.013523,0.002678,0.000431,0.000940
107850000,0.0324,0.013523,0.002678,0.000431,0.000705
107851000,0.0324,0.013523,0.002678,0.000431,0.000940
107852000,0.0324,0.013523,0.002678,0.000431,0.000705
107853000,0.0324,0.013523,0.002678,0.000431,0.000940
107854000,0.0324,0.013523,0.002678,0.000431,0.000823
107855000,0.0324,0.013523,0.002678,0.000431,0.000823
107856000,0.0324,0.013523,0.002678,0.000431,0.000940
107857000,0.0324,0.013523,0.002678,0.000431,0.000705
107858000,0.0324,0.013523,0.002678,0.000431,0.000940
107859000,0.0324,0.013523,0.002678,0.000431,0.000823
107860000,0.0324,0.013523,0.002678,0.000431,0.000823
107861000,0.0324,0.013523,0.002678,0.000431,0.000823
107862000,0.0324,0.013523,0.002678,0.000431,0.000823
107863000,0.0324,0.013523,0.002678,0.000431,0.000823
107864000,0.0324,0.013523,0.002678,0.000431,0.000823
107865000,0.0324,0.013523,0.002678,0.000431,0.000940
107866000,0.0324,0.013523,0.002678,0.000431,0.000705
107867000,0.0324,0.013523,0.002678,0.000431,0.000940
107868000,0.0324,0.013523,0.002678,0.000431,0.000823
107869000,0.0324,0.013523,0.002678,0.000431,0.000823
107870000,0.0324,0.013523,0.002678,0.000431,0.000705
107871000,0.0324,0.013523,0.002678,0.000431,0.000940
107872000,0.0324,0.013523,0.002678,0.000431,0.000940
107873000,0.0324,0.013523,0.002678,0.000431,0.000705
107874000,0.0324,0.013523,0.002678,0.000431,0.000940
107875000,0.0324,0.013523,0.002678,0.000431,0.000705
107876000,0.0324,0.013523,0.002678,0.000431,0.000940
107877000,0.0324,0.013523,0.002678,0.000431,0.000823
107878000,0.0324,0.013523,0.002678,0.000431,0.000823
107879000,0.0324,0.013523,0.002678,0.000431,0.000940
107880000,0.0324,0.013523,0.002678,0.000431,0.000705
107881000,0.0324,0.013523,0.002678,0.000431,0.000940
107882000,0.0324,0.013523,0.002678,0.000431,0.000823
107883000,0.0324,0.013523,0.002678,0.000431,0.000823
107884000,0.0324,0.013523,0.002678,0.000431,0.000823
107885000,0.0324,0.013523,0.002678,0.000431,0.000823
107886000,0.0324,0.013523,0.002678,0.000431,0.000940
107887000,0.0324,0.013523,0.002678,0.000431,0.000705
107888000,0.0324,0.013523,0.002678,0.000431,0.000940
107889000,0.0324,0.013523,0.002678,0.000431,0.000823
107890000,0.0324,0.013523,0.002678,0.000431,0.000823
107891000,0.0324,0.013523,0.002678,0.000431,0.000823
107892000,0.0324,0.013523,0.002678,0.000431,0.000823
107893000,0.0324,0.013523,0.002678,0.000431,0.000823
107894000,0.0324,0.013523,0.002678,0.000431,0.000823
107895000,0.0324,0.013523,0.002678,0.000431,0.000823
107896000,0.0324,0.013523,0.002678,0.000431,0.000940
107897000,0.0324,0.013523,0.002678,0.000431,0.000823
107898000,0.0324,0.013523,0.002678,0.000431,0.000823
107899000,0.0324,0.013523,0.002678,0.000431,0.000823
107900000,0.0324,0.013523,0.002678,0.000431,0.000705
107901000,0.0324,0.013523,0.002678,0.000431,0.000940
107902000,0.0324,0.013523,0.002678,0.000431,0.000940
107903000,0.0324,0.013523,0.002678,0.000431,0.000705
107904000,0.0324,0.013523,0.002678,0.000431,0.000940
107905000,0.0324,0.013523,0.002678,0.000431,0.000705
107906000,0.0324,0.013523,0.002678,0.000431,0.000940
107907000,0.0324,0.013523,0.002678,0.000431,0.000823
107908000,0.0324,0.013523,0.002678,0.000431,0.000823
107909000,0.0324,0.013523,0.002678,0.000431,0.000940
107910000,0.0324,0.013523,0.002678,0.000431,0.000705
107911000,0.0324,0.013523,0.002678,0.000431,0.000940
107912000,0.0324,0.013523,0.002678,0.000431,0.000823
107913000,0.0324,0.013523,0.002678,0.000431,0.000823
107914000,0.0324,0.013523,0.002678,0.000431,0.000823
107915000,0.0324,0.013523,0.002678,0.000431,0.000823
107916000,0.0324,0.013523,0.002678,0.000431,0.000940
107917000,0.0324,0.013523,0.002678,0.000431,0.000705
107918000,0.0324,0.013523,0.002678,0.000431,0.000940
107919000,0.0324,0.013523,0.002678,0.000431,0.000823
107920000,0.0324,0.013523,0.002678,0.000431,0.000823
107921000,0.0324,0.013523,0.002678,0.000431,0.000823
107922000,0.0324,0.013523,0.002678,0.000431,0.000823
107923000,0.0324,0.013523,0.002678,0.000431,0.000940
107924000,0.0324,0.013523,0.002678,0.000431,0.000705
107925000,0.0324,0.013523,0.002678,0.000431,0.000940
107926000,0.0324,0.013523,0.002678,0.000431,0.000823
107927000,0.0324,0.013523,0.002678,0.000431,0.000823
107928000,0.0324,0.013523,0.002678,0.000431,0.000705
107929000,0.0324,0.013523,0.002678,0.000431,0.000940
107930000,0.0324,0.013523,0.002678,0.000431,0.000940
107931000,0.0324,0.013523,0.002678,0.000431,0.000705
107932000,0.0324,0.013523,0.002678,0.000431,0.000940
107933000,0.0324,0.013523,0.002678,0.000431,0.000705
107934000,0.0324,0.013523,0.002678,0.000431,0.000940
107935000,0.0324,0.013523,0.002678,0.000431,0.000940
107936000,0.0324,0.013523,0.002678,0.000431,0.000705
107937000,0.0324,0.013523,0.002678,0.000431,0.000940
107938000,0.0324,0.013523,0.002678,0.000431,0.000705
107939000,0.0324,0.013523,0.002678,0.000431,0.000940
107940000,0.0324,0.013523,0.002678,0.000431,0.000823
107941000,0.0324,0.013523,0.002678,0.000431,0.000823
107942000,0.0324,0.013523,0.002678,0.000431,0.000823
107943000,0.0324,0.013523,0.002678,0.000431,0.000823
107944000,0.0324,0.013523,0.002678,0.000431,0.000940
107945000,0.0324,0.013523,0.002678,0.000431,0.000705
107946000,0.0324,0.013523,0.002678,0.000431,0.000940
107947000,0.0324,0.013523,0.002678,0.000431,0.000823
107948000,0.0324,0.013523,0.002678,0.000431,0.000823
107949000,0.0324,0.013523,0.002678,0.000431,0.000823
107950000,0.0324,0.013523,0.002678,0.000431,0.000823
107951000,0.0324,0.013523,0.002678,0.000431,0.000940
107952000,0.0324,0.013523,0.002678,0.000431,0.000705
107953000,0.0324,0.013523,0.002678,0.000431,0.000823
107954000,0.0324,0.013523,0.002678,0.000431,0.000940
107955000,0.0324,0.013523,0.002678,0.000431,0.000823
107956000,0.0324,0.013523,0.002678,0.000431,0.000823
107957000,0.0324,0.013523,0.002678,0.000431,0.000823
107958000,0.0324,0.013523,0.002678,0.000431,0.000823
107959000,0.0324,0.013523,0.002678,0.000431,0.000823
107960000,0.0324,0.013523,0.002678,0.000431,0.000940
107961000,0.0324,0.013523,0.002678,0.000431,0.000823
107962000,0.0324,0.013523,0.002678,0.000431,0.000823
107963000,0.0324,0.013523,0.002678,0.000431,0.000705
107964000,0.0324,0.013523,0.002678,0.000431,0.000940
107965000,0.0324,0.013523,0.002678,0.000431,0.000940
107966000,0.0324,0.013523,0.002678,0.000431,0.000705
107967000,0.0324,0.013523,0.002678,0.000431,0.000940
107968000,0.0324,0.013523,0.002678,0.000431,0.000705
107969000,0.0324,0.013523,0.002678,0.000431,0.000940
107970000,0.0324,0.013523,0.002678,0.000431,0.000823
107971000,0.0324,0.013523,0.002678,0.000431,0.000823
107972000,0.0324,0.013523,0.002678,0.000431,0.000940
107973000,0.0324,0.013523,0.002678,0.000431,0.000705
107974000,0.0324,0.013523,0.002678,0.000431,0.000940
107975000,0.0324,0.013523,0.002678,0.000431,0.000823
107976000,0.0324,0.013523,0.002678,0.000431,0.000823
107977000,0.0324,0.013523,0.002678,0.000431,0.000823
107978000,0.0324,0.013523,0.002678,0.000431,0.000823
107979000,0.0324,0.013523,0.002678,0.000431,0.000940
107980000,0.0324,0.013523,0.002678,0.000431,0.000705
107981000,0.0324,0.013523,0.002678,0.000431,0.000940
107982000,0.0324,0.013523,0.002678,0.000431,0.000823
107983000,0.0324,0.013523,0.002678,0.000431,0.000823
107984000,0.0324,0.013523,0.002678,0.000431,0.000823
107985000,0.0324,0.013523,0.002678,0.000431,0.000823
107986000,0.0324,0.013523,0.002678,0.000431,0.000823
107987000,0.0324,0.013523,0.002678,0.000431,0.000823
107988000,0.0324,0.013523,0.002678,0.000431,0.000940
107989000,0.0324,0.013523,0.002678,0.000431,0.000705
107990000,0.0324,0.013523,0.002678,0.000431,0.000940
107991000,0.0324,0.013523,0.002678,0.000431,0.000705
107992000,0.0324,0.013523,0.002678,0.000431,0.000940
107993000,0.0324,0.013523,0.002678,0.000431,0.000940
107994000,0.0324,0.013523,0.002678,0.000431,0.000705
107995000,0.0324,0.013523,0.002678,0.000431,0.000940
107996000,0.0324,0.013523,0.002678,0.000431,0.000705
107997000,0.0324,0.013523,0.002678,0.000431,0.000940
107998000,0.0324,0.013523,0.002678,0.000431,0.000823
107999000,0.0324,0.013523,0.002678,0.000431,0.000823
