Cycle,Area(mm^2),PeakDynamic(W),SubthresholdLeakage(W),GateLeakage(W),RunTimeDynamic(W)
131000000,0.0324,0.013523,0.002678,0.000431,0.014573
131001000,0.0324,0.013523,0.002678,0.000431,0.014103
131002000,0.0324,0.013523,0.002678,0.000431,0.016219
131003000,0.0324,0.013523,0.002678,0.000431,0.012693
131004000,0.0324,0.013523,0.002678,0.000431,0.011988
131005000,0.0324,0.013523,0.002678,0.000431,0.012458
131006000,0.0324,0.013523,0.002678,0.000431,0.012928
131007000,0.0324,0.013523,0.002678,0.000431,0.011753
131008000,0.0324,0.013523,0.002678,0.000431,0.012693
131009000,0.0324,0.013523,0.002678,0.000431,0.012693
131010000,0.0324,0.013523,0.002678,0.000431,0.011988
131011000,0.0324,0.013523,0.002678,0.000431,0.013398
131012000,0.0324,0.013523,0.002678,0.000431,0.012576
131013000,0.0324,0.013523,0.002678,0.000431,0.013516
131014000,0.0324,0.013523,0.002678,0.000431,0.010225
131015000,0.0324,0.013523,0.002678,0.000431,0.011753
131016000,0.0324,0.013523,0.002678,0.000431,0.008345
131017000,0.0324,0.013523,0.002678,0.000431,0.008345
131018000,0.0324,0.013523,0.002678,0.000431,0.007992
131019000,0.0324,0.013523,0.002678,0.000431,0.009755
131020000,0.0324,0.013523,0.002678,0.000431,0.007874
131021000,0.0324,0.013523,0.002678,0.000431,0.007404
131022000,0.0324,0.013523,0.002678,0.000431,0.007639
131023000,0.0324,0.013523,0.002678,0.000431,0.007052
131024000,0.0324,0.013523,0.002678,0.000431,0.007639
131025000,0.0324,0.013523,0.002678,0.000431,0.007639
131026000,0.0324,0.013523,0.002678,0.000431,0.006934
131027000,0.0324,0.013523,0.002678,0.000431,0.007522
131028000,0.0324,0.013523,0.002678,0.000431,0.009637
131029000,0.0324,0.013523,0.002678,0.000431,0.006699
131030000,0.0324,0.013523,0.002678,0.000431,0.007052
131031000,0.0324,0.013523,0.002678,0.000431,0.003761
131032000,0.0324,0.013523,0.002678,0.000431,0.003761
131033000,0.0324,0.013523,0.002678,0.000431,0.003173
131034000,0.0324,0.013523,0.002678,0.000431,0.003291
131035000,0.0324,0.013523,0.002678,0.000431,0.003291
131036000,0.0324,0.013523,0.002678,0.000431,0.003408
131037000,0.0324,0.013523,0.002678,0.000431,0.002938
131038000,0.0324,0.013523,0.002678,0.000431,0.003408
131039000,0.0324,0.013523,0.002678,0.000431,0.003291
131040000,0.0324,0.013523,0.002678,0.000431,0.003056
131041000,0.0324,0.013523,0.002678,0.000431,0.003526
131042000,0.0324,0.013523,0.002678,0.000431,0.002938
131043000,0.0324,0.013523,0.002678,0.000431,0.003408
131044000,0.0324,0.013523,0.002678,0.000431,0.003643
131045000,0.0324,0.013523,0.002678,0.000431,0.002703
131046000,0.0324,0.013523,0.002678,0.000431,0.003291
131047000,0.0324,0.013523,0.002678,0.000431,0.006347
131048000,0.0324,0.013523,0.002678,0.000431,0.002116
131049000,0.0324,0.013523,0.002678,0.000431,0.002468
131050000,0.0324,0.013523,0.002678,0.000431,0.002586
131051000,0.0324,0.013523,0.002678,0.000431,0.002116
131052000,0.0324,0.013523,0.002678,0.000431,0.002586
131053000,0.0324,0.013523,0.002678,0.000431,0.002116
131054000,0.0324,0.013523,0.002678,0.000431,0.002586
131055000,0.0324,0.013523,0.002678,0.000431,0.002586
131056000,0.0324,0.013523,0.002678,0.000431,0.002116
131057000,0.0324,0.013523,0.002678,0.000431,0.002586
131058000,0.0324,0.013523,0.002678,0.000431,0.002468
131059000,0.0324,0.013523,0.002678,0.000431,0.002233
131060000,0.0324,0.013523,0.002678,0.000431,0.002233
131061000,0.0324,0.013523,0.002678,0.000431,0.002468
131062000,0.0324,0.013523,0.002678,0.000431,0.002351
131063000,0.0324,0.013523,0.002678,0.000431,0.002351
131064000,0.0324,0.013523,0.002678,0.000431,0.002586
131065000,0.0324,0.013523,0.002678,0.000431,0.002116
131066000,0.0324,0.013523,0.002678,0.000431,0.002586
131067000,0.0324,0.013523,0.002678,0.000431,0.002233
131068000,0.0324,0.013523,0.002678,0.000431,0.002468
131069000,0.0324,0.013523,0.002678,0.000431,0.002468
131070000,0.0324,0.013523,0.002678,0.000431,0.002233
131071000,0.0324,0.013523,0.002678,0.000431,0.002586
131072000,0.0324,0.013523,0.002678,0.000431,0.002233
131073000,0.0324,0.013523,0.002678,0.000431,0.002468
131074000,0.0324,0.013523,0.002678,0.000431,0.002468
131075000,0.0324,0.013523,0.002678,0.000431,0.002233
131076000,0.0324,0.013523,0.002678,0.000431,0.002468
131077000,0.0324,0.013523,0.002678,0.000431,0.002468
131078000,0.0324,0.013523,0.002678,0.000431,0.002116
131079000,0.0324,0.013523,0.002678,0.000431,0.002586
131080000,0.0324,0.013523,0.002678,0.000431,0.002468
131081000,0.0324,0.013523,0.002678,0.000431,0.001998
131082000,0.0324,0.013523,0.002678,0.000431,0.002821
131083000,0.0324,0.013523,0.002678,0.000431,0.002116
131084000,0.0324,0.013523,0.002678,0.000431,0.002351
131085000,0.0324,0.013523,0.002678,0.000431,0.002586
131086000,0.0324,0.013523,0.002678,0.000431,0.002116
131087000,0.0324,0.013523,0.002678,0.000431,0.003643
131088000,0.0324,0.013523,0.002678,0.000431,0.001763
131089000,0.0324,0.013523,0.002678,0.000431,0.001175
131090000,0.0324,0.013523,0.002678,0.000431,0.001763
131091000,0.0324,0.013523,0.002678,0.000431,0.001528
131092000,0.0324,0.013523,0.002678,0.000431,0.001528
131093000,0.0324,0.013523,0.002678,0.000431,0.001645
131094000,0.0324,0.013523,0.002678,0.000431,0.001293
131095000,0.0324,0.013523,0.002678,0.000431,0.001528
131096000,0.0324,0.013523,0.002678,0.000431,0.001880
131097000,0.0324,0.013523,0.002678,0.000431,0.001293
131098000,0.0324,0.013523,0.002678,0.000431,0.001528
131099000,0.0324,0.013523,0.002678,0.000431,0.001880
131100000,0.0324,0.013523,0.002678,0.000431,0.001175
131101000,0.0324,0.013523,0.002678,0.000431,0.001645
131102000,0.0324,0.013523,0.002678,0.000431,0.001645
131103000,0.0324,0.013523,0.002678,0.000431,0.001410
131104000,0.0324,0.013523,0.002678,0.000431,0.001645
131105000,0.0324,0.013523,0.002678,0.000431,0.001645
131106000,0.0324,0.013523,0.002678,0.000431,0.001410
131107000,0.0324,0.013523,0.002678,0.000431,0.001645
131108000,0.0324,0.013523,0.002678,0.000431,0.001410
131109000,0.0324,0.013523,0.002678,0.000431,0.001645
131110000,0.0324,0.013523,0.002678,0.000431,0.001645
131111000,0.0324,0.013523,0.002678,0.000431,0.001410
131112000,0.0324,0.013523,0.002678,0.000431,0.001645
131113000,0.0324,0.013523,0.002678,0.000431,0.001528
131114000,0.0324,0.013523,0.002678,0.000431,0.001528
131115000,0.0324,0.013523,0.002678,0.000431,0.001645
131116000,0.0324,0.013523,0.002678,0.000431,0.001410
131117000,0.0324,0.013523,0.002678,0.000431,0.001645
131118000,0.0324,0.013523,0.002678,0.000431,0.001410
131119000,0.0324,0.013523,0.002678,0.000431,0.001528
131120000,0.0324,0.013523,0.002678,0.000431,0.001763
131121000,0.0324,0.013523,0.002678,0.000431,0.001410
131122000,0.0324,0.013523,0.002678,0.000431,0.001410
131123000,0.0324,0.013523,0.002678,0.000431,0.001645
131124000,0.0324,0.013523,0.002678,0.000431,0.001528
131125000,0.0324,0.013523,0.002678,0.000431,0.001528
131126000,0.0324,0.013523,0.002678,0.000431,0.001645
131127000,0.0324,0.013523,0.002678,0.000431,0.001410
131128000,0.0324,0.013523,0.002678,0.000431,0.001645
131129000,0.0324,0.013523,0.002678,0.000431,0.001645
131130000,0.0324,0.013523,0.002678,0.000431,0.001293
131131000,0.0324,0.013523,0.002678,0.000431,0.001763
131132000,0.0324,0.013523,0.002678,0.000431,0.001528
131133000,0.0324,0.013523,0.002678,0.000431,0.001293
131134000,0.0324,0.013523,0.002678,0.000431,0.001880
131135000,0.0324,0.013523,0.002678,0.000431,0.001293
131136000,0.0324,0.013523,0.002678,0.000431,0.001528
131137000,0.0324,0.013523,0.002678,0.000431,0.001880
131138000,0.0324,0.013523,0.002678,0.000431,0.001175
131139000,0.0324,0.013523,0.002678,0.000431,0.001645
131140000,0.0324,0.013523,0.002678,0.000431,0.001880
131141000,0.0324,0.013523,0.002678,0.000431,0.001058
131142000,0.0324,0.013523,0.002678,0.000431,0.001763
131143000,0.0324,0.013523,0.002678,0.000431,0.001528
131144000,0.0324,0.013523,0.002678,0.000431,0.001528
131145000,0.0324,0.013523,0.002678,0.000431,0.001645
131146000,0.0324,0.013523,0.002678,0.000431,0.001293
131147000,0.0324,0.013523,0.002678,0.000431,0.001763
131148000,0.0324,0.013523,0.002678,0.000431,0.001645
131149000,0.0324,0.013523,0.002678,0.000431,0.001175
131150000,0.0324,0.013523,0.002678,0.000431,0.000823
131151000,0.0324,0.013523,0.002678,0.000431,0.000705
131152000,0.0324,0.013523,0.002678,0.000431,0.000940
131153000,0.0324,0.013523,0.002678,0.000431,0.000940
131154000,0.0324,0.013523,0.002678,0.000431,0.000705
131155000,0.0324,0.013523,0.002678,0.000431,0.000940
131156000,0.0324,0.013523,0.002678,0.000431,0.000705
131157000,0.0324,0.013523,0.002678,0.000431,0.000940
131158000,0.0324,0.013523,0.002678,0.000431,0.000940
131159000,0.0324,0.013523,0.002678,0.000431,0.001645
131160000,0.0324,0.013523,0.002678,0.000431,0.231648
131161000,0.0324,0.013523,0.002678,0.000431,0.589404
131162000,0.0324,0.013523,0.002678,0.000431,0.310157
131163000,0.0324,0.013523,0.002678,0.000431,0.131161
131164000,0.0324,0.013523,0.002678,0.000431,0.133982
131165000,0.0324,0.013523,0.002678,0.000431,0.591519
131166000,0.0324,0.013523,0.002678,0.000431,0.236467
131167000,0.0324,0.013523,0.002678,0.000431,0.277719
131168000,0.0324,0.013523,0.002678,0.000431,0.259737
131169000,0.0324,0.013523,0.002678,0.000431,0.143267
131170000,0.0324,0.013523,0.002678,0.000431,0.143384
131171000,0.0324,0.013523,0.002678,0.000431,0.116000
131172000,0.0324,0.013523,0.002678,0.000431,0.328491
131173000,0.0324,0.013523,0.002678,0.000431,0.246809
131174000,0.0324,0.013523,0.002678,0.000431,0.037256
131175000,0.0324,0.013523,0.002678,0.000431,0.031027
131176000,0.0324,0.013523,0.002678,0.000431,0.030792
131177000,0.0324,0.013523,0.002678,0.000431,0.029852
131178000,0.0324,0.013523,0.002678,0.000431,0.022683
131179000,0.0324,0.013523,0.002678,0.000431,0.023153
131180000,0.0324,0.013523,0.002678,0.000431,0.023388
131181000,0.0324,0.013523,0.002678,0.000431,0.020097
131182000,0.0324,0.013523,0.002678,0.000431,0.020332
131183000,0.0324,0.013523,0.002678,0.000431,0.018099
131184000,0.0324,0.013523,0.002678,0.000431,0.016807
131185000,0.0324,0.013523,0.002678,0.000431,0.016924
131186000,0.0324,0.013523,0.002678,0.000431,0.016336
131187000,0.0324,0.013523,0.002678,0.000431,0.014691
131188000,0.0324,0.013523,0.002678,0.000431,0.014573
131189000,0.0324,0.013523,0.002678,0.000431,0.015396
131190000,0.0324,0.013523,0.002678,0.000431,0.012458
131191000,0.0324,0.013523,0.002678,0.000431,0.014221
131192000,0.0324,0.013523,0.002678,0.000431,0.014573
131193000,0.0324,0.013523,0.002678,0.000431,0.011283
131194000,0.0324,0.013523,0.002678,0.000431,0.010813
131195000,0.0324,0.013523,0.002678,0.000431,0.011635
131196000,0.0324,0.013523,0.002678,0.000431,0.014926
131197000,0.0324,0.013523,0.002678,0.000431,0.010107
131198000,0.0324,0.013523,0.002678,0.000431,0.009402
131199000,0.0324,0.013523,0.002678,0.000431,0.006582
131200000,0.0324,0.013523,0.002678,0.000431,0.006582
131201000,0.0324,0.013523,0.002678,0.000431,0.006934
131202000,0.0324,0.013523,0.002678,0.000431,0.008227
131203000,0.0324,0.013523,0.002678,0.000431,0.006229
131204000,0.0324,0.013523,0.002678,0.000431,0.005406
131205000,0.0324,0.013523,0.002678,0.000431,0.006229
131206000,0.0324,0.013523,0.002678,0.000431,0.005641
131207000,0.0324,0.013523,0.002678,0.000431,0.005994
131208000,0.0324,0.013523,0.002678,0.000431,0.005641
131209000,0.0324,0.013523,0.002678,0.000431,0.005876
131210000,0.0324,0.013523,0.002678,0.000431,0.005994
131211000,0.0324,0.013523,0.002678,0.000431,0.005641
131212000,0.0324,0.013523,0.002678,0.000431,0.006111
131213000,0.0324,0.013523,0.002678,0.000431,0.006111
131214000,0.0324,0.013523,0.002678,0.000431,0.003878
131215000,0.0324,0.013523,0.002678,0.000431,0.005876
131216000,0.0324,0.013523,0.002678,0.000431,0.003526
131217000,0.0324,0.013523,0.002678,0.000431,0.003173
131218000,0.0324,0.013523,0.002678,0.000431,0.003173
131219000,0.0324,0.013523,0.002678,0.000431,0.003526
131220000,0.0324,0.013523,0.002678,0.000431,0.003526
131221000,0.0324,0.013523,0.002678,0.000431,0.003173
131222000,0.0324,0.013523,0.002678,0.000431,0.003408
131223000,0.0324,0.013523,0.002678,0.000431,0.003526
131224000,0.0324,0.013523,0.002678,0.000431,0.003291
131225000,0.0324,0.013523,0.002678,0.000431,0.003291
131226000,0.0324,0.013523,0.002678,0.000431,0.003408
131227000,0.0324,0.013523,0.002678,0.000431,0.003408
131228000,0.0324,0.013523,0.002678,0.000431,0.003173
131229000,0.0324,0.013523,0.002678,0.000431,0.003643
131230000,0.0324,0.013523,0.002678,0.000431,0.004584
131231000,0.0324,0.013523,0.002678,0.000431,0.002586
131232000,0.0324,0.013523,0.002678,0.000431,0.002351
131233000,0.0324,0.013523,0.002678,0.000431,0.002586
131234000,0.0324,0.013523,0.002678,0.000431,0.002468
131235000,0.0324,0.013523,0.002678,0.000431,0.002468
131236000,0.0324,0.013523,0.002678,0.000431,0.002468
131237000,0.0324,0.013523,0.002678,0.000431,0.002586
131238000,0.0324,0.013523,0.002678,0.000431,0.002351
131239000,0.0324,0.013523,0.002678,0.000431,0.002468
131240000,0.0324,0.013523,0.002678,0.000431,0.002468
131241000,0.0324,0.013523,0.002678,0.000431,0.002468
131242000,0.0324,0.013523,0.002678,0.000431,0.002351
131243000,0.0324,0.013523,0.002678,0.000431,0.002703
131244000,0.0324,0.013523,0.002678,0.000431,0.002703
131245000,0.0324,0.013523,0.002678,0.000431,0.002233
131246000,0.0324,0.013523,0.002678,0.000431,0.002468
131247000,0.0324,0.013523,0.002678,0.000431,0.002351
131248000,0.0324,0.013523,0.002678,0.000431,0.002821
131249000,0.0324,0.013523,0.002678,0.000431,0.002351
131250000,0.0324,0.013523,0.002678,0.000431,0.002351
131251000,0.0324,0.013523,0.002678,0.000431,0.002821
131252000,0.0324,0.013523,0.002678,0.000431,0.002351
131253000,0.0324,0.013523,0.002678,0.000431,0.002351
131254000,0.0324,0.013523,0.002678,0.000431,0.002586
131255000,0.0324,0.013523,0.002678,0.000431,0.002586
131256000,0.0324,0.013523,0.002678,0.000431,0.002586
131257000,0.0324,0.013523,0.002678,0.000431,0.002116
131258000,0.0324,0.013523,0.002678,0.000431,0.002821
131259000,0.0324,0.013523,0.002678,0.000431,0.002468
131260000,0.0324,0.013523,0.002678,0.000431,0.002233
131261000,0.0324,0.013523,0.002678,0.000431,0.002703
131262000,0.0324,0.013523,0.002678,0.000431,0.002468
131263000,0.0324,0.013523,0.002678,0.000431,0.002586
131264000,0.0324,0.013523,0.002678,0.000431,0.002116
131265000,0.0324,0.013523,0.002678,0.000431,0.002821
131266000,0.0324,0.013523,0.002678,0.000431,0.002351
131267000,0.0324,0.013523,0.002678,0.000431,0.002586
131268000,0.0324,0.013523,0.002678,0.000431,0.002468
131269000,0.0324,0.013523,0.002678,0.000431,0.002468
131270000,0.0324,0.013523,0.002678,0.000431,0.002351
131271000,0.0324,0.013523,0.002678,0.000431,0.002468
131272000,0.0324,0.013523,0.002678,0.000431,0.002703
131273000,0.0324,0.013523,0.002678,0.000431,0.002351
131274000,0.0324,0.013523,0.002678,0.000431,0.002586
131275000,0.0324,0.013523,0.002678,0.000431,0.002351
131276000,0.0324,0.013523,0.002678,0.000431,0.002586
131277000,0.0324,0.013523,0.002678,0.000431,0.002468
131278000,0.0324,0.013523,0.002678,0.000431,0.002468
131279000,0.0324,0.013523,0.002678,0.000431,0.002586
131280000,0.0324,0.013523,0.002678,0.000431,0.002586
131281000,0.0324,0.013523,0.002678,0.000431,0.002351
131282000,0.0324,0.013523,0.002678,0.000431,0.002468
131283000,0.0324,0.013523,0.002678,0.000431,0.002586
131284000,0.0324,0.013523,0.002678,0.000431,0.003996
131285000,0.0324,0.013523,0.002678,0.000431,0.001410
131286000,0.0324,0.013523,0.002678,0.000431,0.001645
131287000,0.0324,0.013523,0.002678,0.000431,0.001880
131288000,0.0324,0.013523,0.002678,0.000431,0.001410
131289000,0.0324,0.013523,0.002678,0.000431,0.001645
131290000,0.0324,0.013523,0.002678,0.000431,0.001880
131291000,0.0324,0.013523,0.002678,0.000431,0.001645
131292000,0.0324,0.013523,0.002678,0.000431,0.001410
131293000,0.0324,0.013523,0.002678,0.000431,0.001645
131294000,0.0324,0.013523,0.002678,0.000431,0.001880
131295000,0.0324,0.013523,0.002678,0.000431,0.001645
131296000,0.0324,0.013523,0.002678,0.000431,0.001410
131297000,0.0324,0.013523,0.002678,0.000431,0.001880
131298000,0.0324,0.013523,0.002678,0.000431,0.001645
131299000,0.0324,0.013523,0.002678,0.000431,0.001645
131300000,0.0324,0.013523,0.002678,0.000431,0.001528
131301000,0.0324,0.013523,0.002678,0.000431,0.001763
131302000,0.0324,0.013523,0.002678,0.000431,0.001645
131303000,0.0324,0.013523,0.002678,0.000431,0.001645
131304000,0.0324,0.013523,0.002678,0.000431,0.001645
131305000,0.0324,0.013523,0.002678,0.000431,0.001645
131306000,0.0324,0.013523,0.002678,0.000431,0.001645
131307000,0.0324,0.013523,0.002678,0.000431,0.001645
131308000,0.0324,0.013523,0.002678,0.000431,0.001645
131309000,0.0324,0.013523,0.002678,0.000431,0.001645
131310000,0.0324,0.013523,0.002678,0.000431,0.001645
131311000,0.0324,0.013523,0.002678,0.000431,0.001645
131312000,0.0324,0.013523,0.002678,0.000431,0.001763
131313000,0.0324,0.013523,0.002678,0.000431,0.001528
131314000,0.0324,0.013523,0.002678,0.000431,0.001645
131315000,0.0324,0.013523,0.002678,0.000431,0.001645
131316000,0.0324,0.013523,0.002678,0.000431,0.001880
131317000,0.0324,0.013523,0.002678,0.000431,0.001293
131318000,0.0324,0.013523,0.002678,0.000431,0.001763
131319000,0.0324,0.013523,0.002678,0.000431,0.001880
131320000,0.0324,0.013523,0.002678,0.000431,0.001410
131321000,0.0324,0.013523,0.002678,0.000431,0.001645
131322000,0.0324,0.013523,0.002678,0.000431,0.001645
131323000,0.0324,0.013523,0.002678,0.000431,0.001880
131324000,0.0324,0.013523,0.002678,0.000431,0.001410
131325000,0.0324,0.013523,0.002678,0.000431,0.001645
131326000,0.0324,0.013523,0.002678,0.000431,0.001880
131327000,0.0324,0.013523,0.002678,0.000431,0.001645
131328000,0.0324,0.013523,0.002678,0.000431,0.001410
131329000,0.0324,0.013523,0.002678,0.000431,0.001763
131330000,0.0324,0.013523,0.002678,0.000431,0.001763
131331000,0.0324,0.013523,0.002678,0.000431,0.001645
131332000,0.0324,0.013523,0.002678,0.000431,0.001410
131333000,0.0324,0.013523,0.002678,0.000431,0.001880
131334000,0.0324,0.013523,0.002678,0.000431,0.001645
131335000,0.0324,0.013523,0.002678,0.000431,0.001645
131336000,0.0324,0.013523,0.002678,0.000431,0.001645
131337000,0.0324,0.013523,0.002678,0.000431,0.001645
131338000,0.0324,0.013523,0.002678,0.000431,0.181346
131339000,0.0324,0.013523,0.002678,0.000431,0.393014
131340000,0.0324,0.013523,0.002678,0.000431,0.536634
131341000,0.0324,0.013523,0.002678,0.000431,0.134452
131342000,0.0324,0.013523,0.002678,0.000431,0.130221
131343000,0.0324,0.013523,0.002678,0.000431,0.538279
131344000,0.0324,0.013523,0.002678,0.000431,0.235997
131345000,0.0324,0.013523,0.002678,0.000431,0.240463
131346000,0.0324,0.013523,0.002678,0.000431,0.291235
131347000,0.0324,0.013523,0.002678,0.000431,0.154079
131348000,0.0324,0.013523,0.002678,0.000431,0.137861
131349000,0.0324,0.013523,0.002678,0.000431,0.184989
131350000,0.0324,0.013523,0.002678,0.000431,0.085561
131351000,0.0324,0.013523,0.002678,0.000431,0.448723
131352000,0.0324,0.013523,0.002678,0.000431,0.085678
131353000,0.0324,0.013523,0.002678,0.000431,0.036551
131354000,0.0324,0.013523,0.002678,0.000431,0.027854
131355000,0.0324,0.013523,0.002678,0.000431,0.027737
131356000,0.0324,0.013523,0.002678,0.000431,0.028207
131357000,0.0324,0.013523,0.002678,0.000431,0.023858
131358000,0.0324,0.013523,0.002678,0.000431,0.024328
131359000,0.0324,0.013523,0.002678,0.000431,0.022213
131360000,0.0324,0.013523,0.002678,0.000431,0.023858
131361000,0.0324,0.013523,0.002678,0.000431,0.019510
131362000,0.0324,0.013523,0.002678,0.000431,0.021155
131363000,0.0324,0.013523,0.002678,0.000431,0.019275
131364000,0.0324,0.013523,0.002678,0.000431,0.019157
131365000,0.0324,0.013523,0.002678,0.000431,0.019510
131366000,0.0324,0.013523,0.002678,0.000431,0.019392
131367000,0.0324,0.013523,0.002678,0.000431,0.018805
131368000,0.0324,0.013523,0.002678,0.000431,0.020920
131369000,0.0324,0.013523,0.002678,0.000431,0.018334
131370000,0.0324,0.013523,0.002678,0.000431,0.019157
131371000,0.0324,0.013523,0.002678,0.000431,0.017159
131372000,0.0324,0.013523,0.002678,0.000431,0.020567
131373000,0.0324,0.013523,0.002678,0.000431,0.017159
131374000,0.0324,0.013523,0.002678,0.000431,0.016924
131375000,0.0324,0.013523,0.002678,0.000431,0.014573
131376000,0.0324,0.013523,0.002678,0.000431,0.015631
131377000,0.0324,0.013523,0.002678,0.000431,0.014809
131378000,0.0324,0.013523,0.002678,0.000431,0.015279
131379000,0.0324,0.013523,0.002678,0.000431,0.013751
131380000,0.0324,0.013523,0.002678,0.000431,0.014338
131381000,0.0324,0.013523,0.002678,0.000431,0.017629
131382000,0.0324,0.013523,0.002678,0.000431,0.012223
131383000,0.0324,0.013523,0.002678,0.000431,0.012223
131384000,0.0324,0.013523,0.002678,0.000431,0.012105
131385000,0.0324,0.013523,0.002678,0.000431,0.013163
131386000,0.0324,0.013523,0.002678,0.000431,0.011518
131387000,0.0324,0.013523,0.002678,0.000431,0.012811
131388000,0.0324,0.013523,0.002678,0.000431,0.013986
131389000,0.0324,0.013523,0.002678,0.000431,0.011165
131390000,0.0324,0.013523,0.002678,0.000431,0.011988
131391000,0.0324,0.013523,0.002678,0.000431,0.010460
131392000,0.0324,0.013523,0.002678,0.000431,0.012223
131393000,0.0324,0.013523,0.002678,0.000431,0.011753
131394000,0.0324,0.013523,0.002678,0.000431,0.010930
131395000,0.0324,0.013523,0.002678,0.000431,0.012693
131396000,0.0324,0.013523,0.002678,0.000431,0.011635
131397000,0.0324,0.013523,0.002678,0.000431,0.009872
131398000,0.0324,0.013523,0.002678,0.000431,0.011165
131399000,0.0324,0.013523,0.002678,0.000431,0.010695
131400000,0.0324,0.013523,0.002678,0.000431,0.010342
131401000,0.0324,0.013523,0.002678,0.000431,0.009402
131402000,0.0324,0.013523,0.002678,0.000431,0.011048
131403000,0.0324,0.013523,0.002678,0.000431,0.010225
131404000,0.0324,0.013523,0.002678,0.000431,0.009167
131405000,0.0324,0.013523,0.002678,0.000431,0.009755
131406000,0.0324,0.013523,0.002678,0.000431,0.009402
131407000,0.0324,0.013523,0.002678,0.000431,0.008697
131408000,0.0324,0.013523,0.002678,0.000431,0.009402
131409000,0.0324,0.013523,0.002678,0.000431,0.009402
131410000,0.0324,0.013523,0.002678,0.000431,0.008932
131411000,0.0324,0.013523,0.002678,0.000431,0.009167
131412000,0.0324,0.013523,0.002678,0.000431,0.009755
131413000,0.0324,0.013523,0.002678,0.000431,0.008462
131414000,0.0324,0.013523,0.002678,0.000431,0.009285
131415000,0.0324,0.013523,0.002678,0.000431,0.011165
131416000,0.0324,0.013523,0.002678,0.000431,0.009755
131417000,0.0324,0.013523,0.002678,0.000431,0.007169
131418000,0.0324,0.013523,0.002678,0.000431,0.007169
131419000,0.0324,0.013523,0.002678,0.000431,0.008227
131420000,0.0324,0.013523,0.002678,0.000431,0.007522
131421000,0.0324,0.013523,0.002678,0.000431,0.007052
131422000,0.0324,0.013523,0.002678,0.000431,0.007522
131423000,0.0324,0.013523,0.002678,0.000431,0.007757
131424000,0.0324,0.013523,0.002678,0.000431,0.007639
131425000,0.0324,0.013523,0.002678,0.000431,0.006817
131426000,0.0324,0.013523,0.002678,0.000431,0.008109
131427000,0.0324,0.013523,0.002678,0.000431,0.007404
131428000,0.0324,0.013523,0.002678,0.000431,0.006934
131429000,0.0324,0.013523,0.002678,0.000431,0.007992
131430000,0.0324,0.013523,0.002678,0.000431,0.007522
131431000,0.0324,0.013523,0.002678,0.000431,0.007052
131432000,0.0324,0.013523,0.002678,0.000431,0.007874
131433000,0.0324,0.013523,0.002678,0.000431,0.007404
131434000,0.0324,0.013523,0.002678,0.000431,0.007287
131435000,0.0324,0.013523,0.002678,0.000431,0.007169
131436000,0.0324,0.013523,0.002678,0.000431,0.007992
131437000,0.0324,0.013523,0.002678,0.000431,0.007404
131438000,0.0324,0.013523,0.002678,0.000431,0.007287
131439000,0.0324,0.013523,0.002678,0.000431,0.008109
131440000,0.0324,0.013523,0.002678,0.000431,0.006699
131441000,0.0324,0.013523,0.002678,0.000431,0.007757
131442000,0.0324,0.013523,0.002678,0.000431,0.007757
131443000,0.0324,0.013523,0.002678,0.000431,0.007639
131444000,0.0324,0.013523,0.002678,0.000431,0.006934
131445000,0.0324,0.013523,0.002678,0.000431,0.007522
131446000,0.0324,0.013523,0.002678,0.000431,0.007992
131447000,0.0324,0.013523,0.002678,0.000431,0.006111
131448000,0.0324,0.013523,0.002678,0.000431,0.006817
131449000,0.0324,0.013523,0.002678,0.000431,0.007404
131450000,0.0324,0.013523,0.002678,0.000431,0.007874
131451000,0.0324,0.013523,0.002678,0.000431,0.003173
131452000,0.0324,0.013523,0.002678,0.000431,0.003761
131453000,0.0324,0.013523,0.002678,0.000431,0.003643
131454000,0.0324,0.013523,0.002678,0.000431,0.003173
131455000,0.0324,0.013523,0.002678,0.000431,0.003643
131456000,0.0324,0.013523,0.002678,0.000431,0.003643
131457000,0.0324,0.013523,0.002678,0.000431,0.003643
131458000,0.0324,0.013523,0.002678,0.000431,0.003291
131459000,0.0324,0.013523,0.002678,0.000431,0.003408
131460000,0.0324,0.013523,0.002678,0.000431,0.005876
131461000,0.0324,0.013523,0.002678,0.000431,0.002703
131462000,0.0324,0.013523,0.002678,0.000431,0.002586
131463000,0.0324,0.013523,0.002678,0.000431,0.002586
131464000,0.0324,0.013523,0.002678,0.000431,0.002821
131465000,0.0324,0.013523,0.002678,0.000431,0.002586
131466000,0.0324,0.013523,0.002678,0.000431,0.002351
131467000,0.0324,0.013523,0.002678,0.000431,0.002821
131468000,0.0324,0.013523,0.002678,0.000431,0.002821
131469000,0.0324,0.013523,0.002678,0.000431,0.002351
131470000,0.0324,0.013523,0.002678,0.000431,0.002586
131471000,0.0324,0.013523,0.002678,0.000431,0.002821
131472000,0.0324,0.013523,0.002678,0.000431,0.002821
131473000,0.0324,0.013523,0.002678,0.000431,0.002233
131474000,0.0324,0.013523,0.002678,0.000431,0.002703
131475000,0.0324,0.013523,0.002678,0.000431,0.002821
131476000,0.0324,0.013523,0.002678,0.000431,0.002586
131477000,0.0324,0.013523,0.002678,0.000431,0.002586
131478000,0.0324,0.013523,0.002678,0.000431,0.002586
131479000,0.0324,0.013523,0.002678,0.000431,0.002703
131480000,0.0324,0.013523,0.002678,0.000431,0.002703
131481000,0.0324,0.013523,0.002678,0.000431,0.002586
131482000,0.0324,0.013523,0.002678,0.000431,0.002703
131483000,0.0324,0.013523,0.002678,0.000431,0.002468
131484000,0.0324,0.013523,0.002678,0.000431,0.002703
131485000,0.0324,0.013523,0.002678,0.000431,0.002586
131486000,0.0324,0.013523,0.002678,0.000431,0.002821
131487000,0.0324,0.013523,0.002678,0.000431,0.002468
131488000,0.0324,0.013523,0.002678,0.000431,0.002586
131489000,0.0324,0.013523,0.002678,0.000431,0.002703
131490000,0.0324,0.013523,0.002678,0.000431,0.002703
131491000,0.0324,0.013523,0.002678,0.000431,0.002586
131492000,0.0324,0.013523,0.002678,0.000431,0.002586
131493000,0.0324,0.013523,0.002678,0.000431,0.002703
131494000,0.0324,0.013523,0.002678,0.000431,0.002703
131495000,0.0324,0.013523,0.002678,0.000431,0.002586
131496000,0.0324,0.013523,0.002678,0.000431,0.002586
131497000,0.0324,0.013523,0.002678,0.000431,0.002586
131498000,0.0324,0.013523,0.002678,0.000431,0.002703
131499000,0.0324,0.013523,0.002678,0.000431,0.002703
131500000,0.0324,0.013523,0.002678,0.000431,0.004349
131501000,0.0324,0.013523,0.002678,0.000431,0.001645
131502000,0.0324,0.013523,0.002678,0.000431,0.001763
131503000,0.0324,0.013523,0.002678,0.000431,0.001880
131504000,0.0324,0.013523,0.002678,0.000431,0.001645
131505000,0.0324,0.013523,0.002678,0.000431,0.001763
131506000,0.0324,0.013523,0.002678,0.000431,0.001763
131507000,0.0324,0.013523,0.002678,0.000431,0.001763
131508000,0.0324,0.013523,0.002678,0.000431,0.001763
131509000,0.0324,0.013523,0.002678,0.000431,0.001763
131510000,0.0324,0.013523,0.002678,0.000431,0.001763
131511000,0.0324,0.013523,0.002678,0.000431,0.001763
131512000,0.0324,0.013523,0.002678,0.000431,0.001645
131513000,0.0324,0.013523,0.002678,0.000431,0.001880
131514000,0.0324,0.013523,0.002678,0.000431,0.001763
131515000,0.0324,0.013523,0.002678,0.000431,0.001880
131516000,0.0324,0.013523,0.002678,0.000431,0.001528
131517000,0.0324,0.013523,0.002678,0.000431,0.001880
131518000,0.0324,0.013523,0.002678,0.000431,0.002586
131519000,0.0324,0.013523,0.002678,0.000431,0.001998
131520000,0.0324,0.013523,0.002678,0.000431,0.000940
131521000,0.0324,0.013523,0.002678,0.000431,0.000940
131522000,0.0324,0.013523,0.002678,0.000431,0.000940
131523000,0.0324,0.013523,0.002678,0.000431,0.000705
131524000,0.0324,0.013523,0.002678,0.000431,0.000940
131525000,0.0324,0.013523,0.002678,0.000431,0.000940
131526000,0.0324,0.013523,0.002678,0.000431,0.000823
131527000,0.0324,0.013523,0.002678,0.000431,0.000823
131528000,0.0324,0.013523,0.002678,0.000431,0.000940
131529000,0.0324,0.013523,0.002678,0.000431,0.000823
131530000,0.0324,0.013523,0.002678,0.000431,0.000940
131531000,0.0324,0.013523,0.002678,0.000431,0.000823
131532000,0.0324,0.013523,0.002678,0.000431,0.000940
131533000,0.0324,0.013523,0.002678,0.000431,0.000823
131534000,0.0324,0.013523,0.002678,0.000431,0.000823
131535000,0.0324,0.013523,0.002678,0.000431,0.000940
131536000,0.0324,0.013523,0.002678,0.000431,0.000940
131537000,0.0324,0.013523,0.002678,0.000431,0.000823
131538000,0.0324,0.013523,0.002678,0.000431,0.000823
131539000,0.0324,0.013523,0.002678,0.000431,0.000940
131540000,0.0324,0.013523,0.002678,0.000431,0.000940
131541000,0.0324,0.013523,0.002678,0.000431,0.000705
131542000,0.0324,0.013523,0.002678,0.000431,0.000940
131543000,0.0324,0.013523,0.002678,0.000431,0.000940
131544000,0.0324,0.013523,0.002678,0.000431,0.000940
131545000,0.0324,0.013523,0.002678,0.000431,0.000823
131546000,0.0324,0.013523,0.002678,0.000431,0.000823
131547000,0.0324,0.013523,0.002678,0.000431,0.000940
131548000,0.0324,0.013523,0.002678,0.000431,0.000823
131549000,0.0324,0.013523,0.002678,0.000431,0.000940
131550000,0.0324,0.013523,0.002678,0.000431,0.000823
131551000,0.0324,0.013523,0.002678,0.000431,0.000940
131552000,0.0324,0.013523,0.002678,0.000431,0.000823
131553000,0.0324,0.013523,0.002678,0.000431,0.000823
131554000,0.0324,0.013523,0.002678,0.000431,0.000940
131555000,0.0324,0.013523,0.002678,0.000431,0.060527
131556000,0.0324,0.013523,0.002678,0.000431,0.417578
131557000,0.0324,0.013523,0.002678,0.000431,0.608326
131558000,0.0324,0.013523,0.002678,0.000431,0.131161
131559000,0.0324,0.013523,0.002678,0.000431,0.133512
131560000,0.0324,0.013523,0.002678,0.000431,0.496909
131561000,0.0324,0.013523,0.002678,0.000431,0.354112
131562000,0.0324,0.013523,0.002678,0.000431,0.250923
131563000,0.0324,0.013523,0.002678,0.000431,0.314388
131564000,0.0324,0.013523,0.002678,0.000431,0.142092
131565000,0.0324,0.013523,0.002678,0.000431,0.135392
131566000,0.0324,0.013523,0.002678,0.000431,0.125403
131567000,0.0324,0.013523,0.002678,0.000431,0.261383
131568000,0.0324,0.013523,0.002678,0.000431,0.315681
131569000,0.0324,0.013523,0.002678,0.000431,0.026209
131570000,0.0324,0.013523,0.002678,0.000431,0.021860
131571000,0.0324,0.013523,0.002678,0.000431,0.020567
131572000,0.0324,0.013523,0.002678,0.000431,0.020450
131573000,0.0324,0.013523,0.002678,0.000431,0.018334
131574000,0.0324,0.013523,0.002678,0.000431,0.021743
131575000,0.0324,0.013523,0.002678,0.000431,0.016336
131576000,0.0324,0.013523,0.002678,0.000431,0.016336
131577000,0.0324,0.013523,0.002678,0.000431,0.018805
131578000,0.0324,0.013523,0.002678,0.000431,0.017042
131579000,0.0324,0.013523,0.002678,0.000431,0.014809
131580000,0.0324,0.013523,0.002678,0.000431,0.014926
131581000,0.0324,0.013523,0.002678,0.000431,0.012693
131582000,0.0324,0.013523,0.002678,0.000431,0.014338
131583000,0.0324,0.013523,0.002678,0.000431,0.012105
131584000,0.0324,0.013523,0.002678,0.000431,0.012105
131585000,0.0324,0.013523,0.002678,0.000431,0.011635
131586000,0.0324,0.013523,0.002678,0.000431,0.012928
131587000,0.0324,0.013523,0.002678,0.000431,0.010107
131588000,0.0324,0.013523,0.002678,0.000431,0.010695
131589000,0.0324,0.013523,0.002678,0.000431,0.011165
131590000,0.0324,0.013523,0.002678,0.000431,0.009167
131591000,0.0324,0.013523,0.002678,0.000431,0.009285
131592000,0.0324,0.013523,0.002678,0.000431,0.008580
131593000,0.0324,0.013523,0.002678,0.000431,0.009050
131594000,0.0324,0.013523,0.002678,0.000431,0.008815
131595000,0.0324,0.013523,0.002678,0.000431,0.008462
131596000,0.0324,0.013523,0.002678,0.000431,0.009755
131597000,0.0324,0.013523,0.002678,0.000431,0.007992
131598000,0.0324,0.013523,0.002678,0.000431,0.009050
131599000,0.0324,0.013523,0.002678,0.000431,0.009050
131600000,0.0324,0.013523,0.002678,0.000431,0.010107
131601000,0.0324,0.013523,0.002678,0.000431,0.008580
131602000,0.0324,0.013523,0.002678,0.000431,0.007639
131603000,0.0324,0.013523,0.002678,0.000431,0.008109
131604000,0.0324,0.013523,0.002678,0.000431,0.008109
131605000,0.0324,0.013523,0.002678,0.000431,0.008227
131606000,0.0324,0.013523,0.002678,0.000431,0.008697
131607000,0.0324,0.013523,0.002678,0.000431,0.006817
131608000,0.0324,0.013523,0.002678,0.000431,0.007404
131609000,0.0324,0.013523,0.002678,0.000431,0.006934
131610000,0.0324,0.013523,0.002678,0.000431,0.007052
131611000,0.0324,0.013523,0.002678,0.000431,0.007639
131612000,0.0324,0.013523,0.002678,0.000431,0.006699
131613000,0.0324,0.013523,0.002678,0.000431,0.008462
131614000,0.0324,0.013523,0.002678,0.000431,0.006347
131615000,0.0324,0.013523,0.002678,0.000431,0.006464
131616000,0.0324,0.013523,0.002678,0.000431,0.005876
131617000,0.0324,0.013523,0.002678,0.000431,0.006347
131618000,0.0324,0.013523,0.002678,0.000431,0.006464
131619000,0.0324,0.013523,0.002678,0.000431,0.005994
131620000,0.0324,0.013523,0.002678,0.000431,0.006582
131621000,0.0324,0.013523,0.002678,0.000431,0.006111
131622000,0.0324,0.013523,0.002678,0.000431,0.005759
131623000,0.0324,0.013523,0.002678,0.000431,0.006111
131624000,0.0324,0.013523,0.002678,0.000431,0.005171
131625000,0.0324,0.013523,0.002678,0.000431,0.005759
131626000,0.0324,0.013523,0.002678,0.000431,0.003643
131627000,0.0324,0.013523,0.002678,0.000431,0.003643
131628000,0.0324,0.013523,0.002678,0.000431,0.003526
131629000,0.0324,0.013523,0.002678,0.000431,0.003408
131630000,0.0324,0.013523,0.002678,0.000431,0.003526
131631000,0.0324,0.013523,0.002678,0.000431,0.003408
131632000,0.0324,0.013523,0.002678,0.000431,0.003526
131633000,0.0324,0.013523,0.002678,0.000431,0.003643
131634000,0.0324,0.013523,0.002678,0.000431,0.003408
131635000,0.0324,0.013523,0.002678,0.000431,0.003526
131636000,0.0324,0.013523,0.002678,0.000431,0.003408
131637000,0.0324,0.013523,0.002678,0.000431,0.003643
131638000,0.0324,0.013523,0.002678,0.000431,0.003526
131639000,0.0324,0.013523,0.002678,0.000431,0.005759
131640000,0.0324,0.013523,0.002678,0.000431,0.002821
131641000,0.0324,0.013523,0.002678,0.000431,0.002703
131642000,0.0324,0.013523,0.002678,0.000431,0.002703
131643000,0.0324,0.013523,0.002678,0.000431,0.002468
131644000,0.0324,0.013523,0.002678,0.000431,0.002703
131645000,0.0324,0.013523,0.002678,0.000431,0.002703
131646000,0.0324,0.013523,0.002678,0.000431,0.002468
131647000,0.0324,0.013523,0.002678,0.000431,0.002821
131648000,0.0324,0.013523,0.002678,0.000431,0.002468
131649000,0.0324,0.013523,0.002678,0.000431,0.002821
131650000,0.0324,0.013523,0.002678,0.000431,0.002703
131651000,0.0324,0.013523,0.002678,0.000431,0.002351
131652000,0.0324,0.013523,0.002678,0.000431,0.002821
131653000,0.0324,0.013523,0.002678,0.000431,0.002703
131654000,0.0324,0.013523,0.002678,0.000431,0.002586
131655000,0.0324,0.013523,0.002678,0.000431,0.002468
131656000,0.0324,0.013523,0.002678,0.000431,0.002821
131657000,0.0324,0.013523,0.002678,0.000431,0.002821
131658000,0.0324,0.013523,0.002678,0.000431,0.002233
131659000,0.0324,0.013523,0.002678,0.000431,0.002703
131660000,0.0324,0.013523,0.002678,0.000431,0.002821
131661000,0.0324,0.013523,0.002678,0.000431,0.002703
131662000,0.0324,0.013523,0.002678,0.000431,0.002351
131663000,0.0324,0.013523,0.002678,0.000431,0.002703
131664000,0.0324,0.013523,0.002678,0.000431,0.002821
131665000,0.0324,0.013523,0.002678,0.000431,0.002468
131666000,0.0324,0.013523,0.002678,0.000431,0.002468
131667000,0.0324,0.013523,0.002678,0.000431,0.002821
131668000,0.0324,0.013523,0.002678,0.000431,0.002821
131669000,0.0324,0.013523,0.002678,0.000431,0.004113
131670000,0.0324,0.013523,0.002678,0.000431,0.001645
131671000,0.0324,0.013523,0.002678,0.000431,0.001880
131672000,0.0324,0.013523,0.002678,0.000431,0.001763
131673000,0.0324,0.013523,0.002678,0.000431,0.001763
131674000,0.0324,0.013523,0.002678,0.000431,0.002703
131675000,0.0324,0.013523,0.002678,0.000431,0.000940
131676000,0.0324,0.013523,0.002678,0.000431,0.000823
131677000,0.0324,0.013523,0.002678,0.000431,0.000823
131678000,0.0324,0.013523,0.002678,0.000431,0.000940
131679000,0.0324,0.013523,0.002678,0.000431,0.000940
131680000,0.0324,0.013523,0.002678,0.000431,0.119056
131681000,0.0324,0.013523,0.002678,0.000431,0.442964
131682000,0.0324,0.013523,0.002678,0.000431,0.536164
131683000,0.0324,0.013523,0.002678,0.000431,0.134452
131684000,0.0324,0.013523,0.002678,0.000431,0.131161
131685000,0.0324,0.013523,0.002678,0.000431,0.559199
131686000,0.0324,0.013523,0.002678,0.000431,0.230003
131687000,0.0324,0.013523,0.002678,0.000431,0.248925
131688000,0.0324,0.013523,0.002678,0.000431,0.325200
131689000,0.0324,0.013523,0.002678,0.000431,0.146088
131690000,0.0324,0.013523,0.002678,0.000431,0.142092
131691000,0.0324,0.013523,0.002678,0.000431,0.139623
131692000,0.0324,0.013523,0.002678,0.000431,0.231883
131693000,0.0324,0.013523,0.002678,0.000431,0.444844
131694000,0.0324,0.013523,0.002678,0.000431,0.120466
131695000,0.0324,0.013523,0.002678,0.000431,0.112827
131696000,0.0324,0.013523,0.002678,0.000431,0.111417
131697000,0.0324,0.013523,0.002678,0.000431,0.088381
131698000,0.0324,0.013523,0.002678,0.000431,0.055591
131699000,0.0324,0.013523,0.002678,0.000431,0.049009
131700000,0.0324,0.013523,0.002678,0.000431,0.048774
131701000,0.0324,0.013523,0.002678,0.000431,0.031498
131702000,0.0324,0.013523,0.002678,0.000431,0.030205
131703000,0.0324,0.013523,0.002678,0.000431,0.024328
131704000,0.0324,0.013523,0.002678,0.000431,0.018687
131705000,0.0324,0.013523,0.002678,0.000431,0.015749
131706000,0.0324,0.013523,0.002678,0.000431,0.013281
131707000,0.0324,0.013523,0.002678,0.000431,0.019157
131708000,0.0324,0.013523,0.002678,0.000431,0.013986
131709000,0.0324,0.013523,0.002678,0.000431,0.013751
131710000,0.0324,0.013523,0.002678,0.000431,0.012811
131711000,0.0324,0.013523,0.002678,0.000431,0.011518
131712000,0.0324,0.013523,0.002678,0.000431,0.012811
131713000,0.0324,0.013523,0.002678,0.000431,0.010813
131714000,0.0324,0.013523,0.002678,0.000431,0.009990
131715000,0.0324,0.013523,0.002678,0.000431,0.010460
131716000,0.0324,0.013523,0.002678,0.000431,0.010578
131717000,0.0324,0.013523,0.002678,0.000431,0.010107
131718000,0.0324,0.013523,0.002678,0.000431,0.011518
131719000,0.0324,0.013523,0.002678,0.000431,0.009637
131720000,0.0324,0.013523,0.002678,0.000431,0.009637
131721000,0.0324,0.013523,0.002678,0.000431,0.009285
131722000,0.0324,0.013523,0.002678,0.000431,0.009637
131723000,0.0324,0.013523,0.002678,0.000431,0.009755
131724000,0.0324,0.013523,0.002678,0.000431,0.009402
131725000,0.0324,0.013523,0.002678,0.000431,0.009402
131726000,0.0324,0.013523,0.002678,0.000431,0.010107
131727000,0.0324,0.013523,0.002678,0.000431,0.011753
131728000,0.0324,0.013523,0.002678,0.000431,0.008462
131729000,0.0324,0.013523,0.002678,0.000431,0.009050
131730000,0.0324,0.013523,0.002678,0.000431,0.009402
131731000,0.0324,0.013523,0.002678,0.000431,0.007874
131732000,0.0324,0.013523,0.002678,0.000431,0.007639
131733000,0.0324,0.013523,0.002678,0.000431,0.008227
131734000,0.0324,0.013523,0.002678,0.000431,0.006817
131735000,0.0324,0.013523,0.002678,0.000431,0.008580
131736000,0.0324,0.013523,0.002678,0.000431,0.007639
131737000,0.0324,0.013523,0.002678,0.000431,0.007522
131738000,0.0324,0.013523,0.002678,0.000431,0.007639
131739000,0.0324,0.013523,0.002678,0.000431,0.008227
131740000,0.0324,0.013523,0.002678,0.000431,0.007757
131741000,0.0324,0.013523,0.002678,0.000431,0.006934
131742000,0.0324,0.013523,0.002678,0.000431,0.007169
131743000,0.0324,0.013523,0.002678,0.000431,0.007169
131744000,0.0324,0.013523,0.002678,0.000431,0.007757
131745000,0.0324,0.013523,0.002678,0.000431,0.008580
131746000,0.0324,0.013523,0.002678,0.000431,0.007639
131747000,0.0324,0.013523,0.002678,0.000431,0.004349
131748000,0.0324,0.013523,0.002678,0.000431,0.003878
131749000,0.0324,0.013523,0.002678,0.000431,0.003761
131750000,0.0324,0.013523,0.002678,0.000431,0.003643
131751000,0.0324,0.013523,0.002678,0.000431,0.006229
131752000,0.0324,0.013523,0.002678,0.000431,0.002351
131753000,0.0324,0.013523,0.002678,0.000431,0.002116
131754000,0.0324,0.013523,0.002678,0.000431,0.002821
131755000,0.0324,0.013523,0.002678,0.000431,0.001998
131756000,0.0324,0.013523,0.002678,0.000431,0.002468
131757000,0.0324,0.013523,0.002678,0.000431,0.002351
131758000,0.0324,0.013523,0.002678,0.000431,0.002116
131759000,0.0324,0.013523,0.002678,0.000431,0.002233
131760000,0.0324,0.013523,0.002678,0.000431,0.002703
131761000,0.0324,0.013523,0.002678,0.000431,0.001880
131762000,0.0324,0.013523,0.002678,0.000431,0.002586
131763000,0.0324,0.013523,0.002678,0.000431,0.002468
131764000,0.0324,0.013523,0.002678,0.000431,0.001998
131765000,0.0324,0.013523,0.002678,0.000431,0.002586
131766000,0.0324,0.013523,0.002678,0.000431,0.002351
131767000,0.0324,0.013523,0.002678,0.000431,0.002116
131768000,0.0324,0.013523,0.002678,0.000431,0.002468
131769000,0.0324,0.013523,0.002678,0.000431,0.002116
131770000,0.0324,0.013523,0.002678,0.000431,0.002468
131771000,0.0324,0.013523,0.002678,0.000431,0.002351
131772000,0.0324,0.013523,0.002678,0.000431,0.002351
131773000,0.0324,0.013523,0.002678,0.000431,0.002116
131774000,0.0324,0.013523,0.002678,0.000431,0.002586
131775000,0.0324,0.013523,0.002678,0.000431,0.001998
131776000,0.0324,0.013523,0.002678,0.000431,0.002468
131777000,0.0324,0.013523,0.002678,0.000431,0.002821
131778000,0.0324,0.013523,0.002678,0.000431,0.001880
131779000,0.0324,0.013523,0.002678,0.000431,0.002351
131780000,0.0324,0.013523,0.002678,0.000431,0.004584
131781000,0.0324,0.013523,0.002678,0.000431,0.001058
131782000,0.0324,0.013523,0.002678,0.000431,0.001763
131783000,0.0324,0.013523,0.002678,0.000431,0.001528
131784000,0.0324,0.013523,0.002678,0.000431,0.001293
131785000,0.0324,0.013523,0.002678,0.000431,0.001880
131786000,0.0324,0.013523,0.002678,0.000431,0.001293
131787000,0.0324,0.013523,0.002678,0.000431,0.001293
131788000,0.0324,0.013523,0.002678,0.000431,0.001645
131789000,0.0324,0.013523,0.002678,0.000431,0.001645
131790000,0.0324,0.013523,0.002678,0.000431,0.001175
131791000,0.0324,0.013523,0.002678,0.000431,0.001880
131792000,0.0324,0.013523,0.002678,0.000431,0.001175
131793000,0.0324,0.013523,0.002678,0.000431,0.001410
131794000,0.0324,0.013523,0.002678,0.000431,0.001645
131795000,0.0324,0.013523,0.002678,0.000431,0.001293
131796000,0.0324,0.013523,0.002678,0.000431,0.001528
131797000,0.0324,0.013523,0.002678,0.000431,0.001880
131798000,0.0324,0.013523,0.002678,0.000431,0.001058
131799000,0.0324,0.013523,0.002678,0.000431,0.001763
131800000,0.0324,0.013523,0.002678,0.000431,0.001528
131801000,0.0324,0.013523,0.002678,0.000431,0.001293
131802000,0.0324,0.013523,0.002678,0.000431,0.001410
131803000,0.0324,0.013523,0.002678,0.000431,0.001645
131804000,0.0324,0.013523,0.002678,0.000431,0.001175
131805000,0.0324,0.013523,0.002678,0.000431,0.001880
131806000,0.0324,0.013523,0.002678,0.000431,0.001293
131807000,0.0324,0.013523,0.002678,0.000431,0.001528
131808000,0.0324,0.013523,0.002678,0.000431,0.001645
131809000,0.0324,0.013523,0.002678,0.000431,0.001410
131810000,0.0324,0.013523,0.002678,0.000431,0.001410
131811000,0.0324,0.013523,0.002678,0.000431,0.001645
131812000,0.0324,0.013523,0.002678,0.000431,0.001293
131813000,0.0324,0.013523,0.002678,0.000431,0.001528
131814000,0.0324,0.013523,0.002678,0.000431,0.001645
131815000,0.0324,0.013523,0.002678,0.000431,0.001175
131816000,0.0324,0.013523,0.002678,0.000431,0.001645
131817000,0.0324,0.013523,0.002678,0.000431,0.001645
131818000,0.0324,0.013523,0.002678,0.000431,0.001058
131819000,0.0324,0.013523,0.002678,0.000431,0.001763
131820000,0.0324,0.013523,0.002678,0.000431,0.001528
131821000,0.0324,0.013523,0.002678,0.000431,0.001293
131822000,0.0324,0.013523,0.002678,0.000431,0.001645
131823000,0.0324,0.013523,0.002678,0.000431,0.001528
131824000,0.0324,0.013523,0.002678,0.000431,0.001528
131825000,0.0324,0.013523,0.002678,0.000431,0.000940
131826000,0.0324,0.013523,0.002678,0.000431,0.072632
131827000,0.0324,0.013523,0.002678,0.000431,0.650754
131828000,0.0324,0.013523,0.002678,0.000431,0.554851
131829000,0.0324,0.013523,0.002678,0.000431,0.133982
131830000,0.0324,0.013523,0.002678,0.000431,0.183461
131831000,0.0324,0.013523,0.002678,0.000431,0.614790
131832000,0.0324,0.013523,0.002678,0.000431,0.304398
131833000,0.0324,0.013523,0.002678,0.000431,0.352232
131834000,0.0324,0.013523,0.002678,0.000431,0.149143
131835000,0.0324,0.013523,0.002678,0.000431,0.117528
131836000,0.0324,0.013523,0.002678,0.000431,0.248572
131837000,0.0324,0.013523,0.002678,0.000431,0.485626
131838000,0.0324,0.013523,0.002678,0.000431,0.196272
131839000,0.0324,0.013523,0.002678,0.000431,0.167008
131840000,0.0324,0.013523,0.002678,0.000431,0.137273
131841000,0.0324,0.013523,0.002678,0.000431,0.115765
131842000,0.0324,0.013523,0.002678,0.000431,0.099546
131843000,0.0324,0.013523,0.002678,0.000431,0.092847
131844000,0.0324,0.013523,0.002678,0.000431,0.088734
131845000,0.0324,0.013523,0.002678,0.000431,0.062525
131846000,0.0324,0.013523,0.002678,0.000431,0.057236
131847000,0.0324,0.013523,0.002678,0.000431,0.050185
131848000,0.0324,0.013523,0.002678,0.000431,0.043368
131849000,0.0324,0.013523,0.002678,0.000431,0.033378
131850000,0.0324,0.013523,0.002678,0.000431,0.033731
131851000,0.0324,0.013523,0.002678,0.000431,0.037491
131852000,0.0324,0.013523,0.002678,0.000431,0.026561
131853000,0.0324,0.013523,0.002678,0.000431,0.025739
131854000,0.0324,0.013523,0.002678,0.000431,0.026561
131855000,0.0324,0.013523,0.002678,0.000431,0.020920
131856000,0.0324,0.013523,0.002678,0.000431,0.023153
131857000,0.0324,0.013523,0.002678,0.000431,0.020802
131858000,0.0324,0.013523,0.002678,0.000431,0.016219
131859000,0.0324,0.013523,0.002678,0.000431,0.015279
131860000,0.0324,0.013523,0.002678,0.000431,0.015044
131861000,0.0324,0.013523,0.002678,0.000431,0.015514
131862000,0.0324,0.013523,0.002678,0.000431,0.013633
131863000,0.0324,0.013523,0.002678,0.000431,0.014456
131864000,0.0324,0.013523,0.002678,0.000431,0.011988
131865000,0.0324,0.013523,0.002678,0.000431,0.011635
131866000,0.0324,0.013523,0.002678,0.000431,0.008462
131867000,0.0324,0.013523,0.002678,0.000431,0.012105
131868000,0.0324,0.013523,0.002678,0.000431,0.006934
131869000,0.0324,0.013523,0.002678,0.000431,0.007052
131870000,0.0324,0.013523,0.002678,0.000431,0.006347
131871000,0.0324,0.013523,0.002678,0.000431,0.006699
131872000,0.0324,0.013523,0.002678,0.000431,0.008109
131873000,0.0324,0.013523,0.002678,0.000431,0.005876
131874000,0.0324,0.013523,0.002678,0.000431,0.005641
131875000,0.0324,0.013523,0.002678,0.000431,0.005524
131876000,0.0324,0.013523,0.002678,0.000431,0.005876
131877000,0.0324,0.013523,0.002678,0.000431,0.005289
131878000,0.0324,0.013523,0.002678,0.000431,0.007404
131879000,0.0324,0.013523,0.002678,0.000431,0.005171
131880000,0.0324,0.013523,0.002678,0.000431,0.007404
131881000,0.0324,0.013523,0.002678,0.000431,0.004231
131882000,0.0324,0.013523,0.002678,0.000431,0.003878
131883000,0.0324,0.013523,0.002678,0.000431,0.006229
131884000,0.0324,0.013523,0.002678,0.000431,0.003173
131885000,0.0324,0.013523,0.002678,0.000431,0.003173
131886000,0.0324,0.013523,0.002678,0.000431,0.002938
131887000,0.0324,0.013523,0.002678,0.000431,0.004349
131888000,0.0324,0.013523,0.002678,0.000431,0.003526
131889000,0.0324,0.013523,0.002678,0.000431,0.002116
131890000,0.0324,0.013523,0.002678,0.000431,0.002586
131891000,0.0324,0.013523,0.002678,0.000431,0.002116
131892000,0.0324,0.013523,0.002678,0.000431,0.002116
131893000,0.0324,0.013523,0.002678,0.000431,0.002703
131894000,0.0324,0.013523,0.002678,0.000431,0.002116
131895000,0.0324,0.013523,0.002678,0.000431,0.002351
131896000,0.0324,0.013523,0.002678,0.000431,0.002351
131897000,0.0324,0.013523,0.002678,0.000431,0.002351
131898000,0.0324,0.013523,0.002678,0.000431,0.002233
131899000,0.0324,0.013523,0.002678,0.000431,0.002233
131900000,0.0324,0.013523,0.002678,0.000431,0.002116
131901000,0.0324,0.013523,0.002678,0.000431,0.001880
131902000,0.0324,0.013523,0.002678,0.000431,0.002233
131903000,0.0324,0.013523,0.002678,0.000431,0.002468
131904000,0.0324,0.013523,0.002678,0.000431,0.001998
131905000,0.0324,0.013523,0.002678,0.000431,0.002586
131906000,0.0324,0.013523,0.002678,0.000431,0.002233
131907000,0.0324,0.013523,0.002678,0.000431,0.002233
131908000,0.0324,0.013523,0.002678,0.000431,0.001880
131909000,0.0324,0.013523,0.002678,0.000431,0.001528
131910000,0.0324,0.013523,0.002678,0.000431,0.001880
131911000,0.0324,0.013523,0.002678,0.000431,0.001528
131912000,0.0324,0.013523,0.002678,0.000431,0.001763
131913000,0.0324,0.013523,0.002678,0.000431,0.001645
131914000,0.0324,0.013523,0.002678,0.000431,0.001645
131915000,0.0324,0.013523,0.002678,0.000431,0.001645
131916000,0.0324,0.013523,0.002678,0.000431,0.001645
131917000,0.0324,0.013523,0.002678,0.000431,0.001763
131918000,0.0324,0.013523,0.002678,0.000431,0.001528
131919000,0.0324,0.013523,0.002678,0.000431,0.002703
131920000,0.0324,0.013523,0.002678,0.000431,0.001998
131921000,0.0324,0.013523,0.002678,0.000431,0.000823
131922000,0.0324,0.013523,0.002678,0.000431,0.000705
131923000,0.0324,0.013523,0.002678,0.000431,0.000940
131924000,0.0324,0.013523,0.002678,0.000431,0.000940
131925000,0.0324,0.013523,0.002678,0.000431,0.000705
131926000,0.0324,0.013523,0.002678,0.000431,0.000940
131927000,0.0324,0.013523,0.002678,0.000431,0.000705
131928000,0.0324,0.013523,0.002678,0.000431,0.000940
131929000,0.0324,0.013523,0.002678,0.000431,0.000823
131930000,0.0324,0.013523,0.002678,0.000431,0.000823
131931000,0.0324,0.013523,0.002678,0.000431,0.000940
131932000,0.0324,0.013523,0.002678,0.000431,0.000705
131933000,0.0324,0.013523,0.002678,0.000431,0.000940
131934000,0.0324,0.013523,0.002678,0.000431,0.000705
131935000,0.0324,0.013523,0.002678,0.000431,0.000940
131936000,0.0324,0.013523,0.002678,0.000431,0.000823
131937000,0.0324,0.013523,0.002678,0.000431,0.000823
131938000,0.0324,0.013523,0.002678,0.000431,0.000823
131939000,0.0324,0.013523,0.002678,0.000431,0.000823
131940000,0.0324,0.013523,0.002678,0.000431,0.000940
131941000,0.0324,0.013523,0.002678,0.000431,0.000705
131942000,0.0324,0.013523,0.002678,0.000431,0.000823
131943000,0.0324,0.013523,0.002678,0.000431,0.000940
131944000,0.0324,0.013523,0.002678,0.000431,0.000823
131945000,0.0324,0.013523,0.002678,0.000431,0.000823
131946000,0.0324,0.013523,0.002678,0.000431,0.000823
131947000,0.0324,0.013523,0.002678,0.000431,0.000705
131948000,0.0324,0.013523,0.002678,0.000431,0.000940
131949000,0.0324,0.013523,0.002678,0.000431,0.000940
131950000,0.0324,0.013523,0.002678,0.000431,0.000705
131951000,0.0324,0.013523,0.002678,0.000431,0.000940
131952000,0.0324,0.013523,0.002678,0.000431,0.000705
131953000,0.0324,0.013523,0.002678,0.000431,0.000940
131954000,0.0324,0.013523,0.002678,0.000431,0.000705
131955000,0.0324,0.013523,0.002678,0.000431,0.000940
131956000,0.0324,0.013523,0.002678,0.000431,0.000823
131957000,0.0324,0.013523,0.002678,0.000431,0.000823
131958000,0.0324,0.013523,0.002678,0.000431,0.000823
131959000,0.0324,0.013523,0.002678,0.000431,0.000823
131960000,0.0324,0.013523,0.002678,0.000431,0.000823
131961000,0.0324,0.013523,0.002678,0.000431,0.000823
131962000,0.0324,0.013523,0.002678,0.000431,0.000940
131963000,0.0324,0.013523,0.002678,0.000431,0.000705
131964000,0.0324,0.013523,0.002678,0.000431,0.000940
131965000,0.0324,0.013523,0.002678,0.000431,0.000940
131966000,0.0324,0.013523,0.002678,0.000431,0.000823
131967000,0.0324,0.013523,0.002678,0.000431,0.000940
131968000,0.0324,0.013523,0.002678,0.000431,0.000823
131969000,0.0324,0.013523,0.002678,0.000431,0.000940
131970000,0.0324,0.013523,0.002678,0.000431,0.000823
131971000,0.0324,0.013523,0.002678,0.000431,0.000823
131972000,0.0324,0.013523,0.002678,0.000431,0.000940
131973000,0.0324,0.013523,0.002678,0.000431,0.000823
131974000,0.0324,0.013523,0.002678,0.000431,0.000823
131975000,0.0324,0.013523,0.002678,0.000431,0.000940
131976000,0.0324,0.013523,0.002678,0.000431,0.000705
131977000,0.0324,0.013523,0.002678,0.000431,0.000940
131978000,0.0324,0.013523,0.002678,0.000431,0.000823
131979000,0.0324,0.013523,0.002678,0.000431,0.000823
131980000,0.0324,0.013523,0.002678,0.000431,0.000823
131981000,0.0324,0.013523,0.002678,0.000431,0.000823
131982000,0.0324,0.013523,0.002678,0.000431,0.000940
131983000,0.0324,0.013523,0.002678,0.000431,0.000705
131984000,0.0324,0.013523,0.002678,0.000431,0.000940
131985000,0.0324,0.013523,0.002678,0.000431,0.000705
131986000,0.0324,0.013523,0.002678,0.000431,0.000940
131987000,0.0324,0.013523,0.002678,0.000431,0.000823
131988000,0.0324,0.013523,0.002678,0.000431,0.000823
131989000,0.0324,0.013523,0.002678,0.000431,0.000705
131990000,0.0324,0.013523,0.002678,0.000431,0.000940
131991000,0.0324,0.013523,0.002678,0.000431,0.000940
131992000,0.0324,0.013523,0.002678,0.000431,0.000705
131993000,0.0324,0.013523,0.002678,0.000431,0.000940
131994000,0.0324,0.013523,0.002678,0.000431,0.000940
131995000,0.0324,0.013523,0.002678,0.000431,0.000823
131996000,0.0324,0.013523,0.002678,0.000431,0.000823
131997000,0.0324,0.013523,0.002678,0.000431,0.000940
131998000,0.0324,0.013523,0.002678,0.000431,0.000823
131999000,0.0324,0.013523,0.002678,0.000431,0.000940
