Cycle,Area(mm^2),PeakDynamic(W),SubthresholdLeakage(W),GateLeakage(W),RunTimeDynamic(W)
13000000,0.0324,0.013523,0.002678,0.000431,0.000823
13001000,0.0324,0.013523,0.002678,0.000431,0.000823
13002000,0.0324,0.013523,0.002678,0.000431,0.000823
13003000,0.0324,0.013523,0.002678,0.000431,0.000940
13004000,0.0324,0.013523,0.002678,0.000431,0.000823
13005000,0.0324,0.013523,0.002678,0.000431,0.000823
13006000,0.0324,0.013523,0.002678,0.000431,0.000705
13007000,0.0324,0.013523,0.002678,0.000431,0.000940
13008000,0.0324,0.013523,0.002678,0.000431,0.000940
13009000,0.0324,0.013523,0.002678,0.000431,0.000705
13010000,0.0324,0.013523,0.002678,0.000431,0.000940
13011000,0.0324,0.013523,0.002678,0.000431,0.000705
13012000,0.0324,0.013523,0.002678,0.000431,0.000940
13013000,0.0324,0.013523,0.002678,0.000431,0.000940
13014000,0.0324,0.013523,0.002678,0.000431,0.000705
13015000,0.0324,0.013523,0.002678,0.000431,0.000940
13016000,0.0324,0.013523,0.002678,0.000431,0.000705
13017000,0.0324,0.013523,0.002678,0.000431,0.000940
13018000,0.0324,0.013523,0.002678,0.000431,0.000823
13019000,0.0324,0.013523,0.002678,0.000431,0.000823
13020000,0.0324,0.013523,0.002678,0.000431,0.000823
13021000,0.0324,0.013523,0.002678,0.000431,0.000823
13022000,0.0324,0.013523,0.002678,0.000431,0.000940
13023000,0.0324,0.013523,0.002678,0.000431,0.000705
13024000,0.0324,0.013523,0.002678,0.000431,0.000940
13025000,0.0324,0.013523,0.002678,0.000431,0.000705
13026000,0.0324,0.013523,0.002678,0.000431,0.000940
13027000,0.0324,0.013523,0.002678,0.000431,0.000823
13028000,0.0324,0.013523,0.002678,0.000431,0.000823
13029000,0.0324,0.013523,0.002678,0.000431,0.070634
13030000,0.0324,0.013523,0.002678,0.000431,0.482218
13031000,0.0324,0.013523,0.002678,0.000431,0.601744
13032000,0.0324,0.013523,0.002678,0.000431,0.130926
13033000,0.0324,0.013523,0.002678,0.000431,0.134687
13034000,0.0324,0.013523,0.002678,0.000431,0.560609
13035000,0.0324,0.013523,0.002678,0.000431,0.221306
13036000,0.0324,0.013523,0.002678,0.000431,0.287827
13037000,0.0324,0.013523,0.002678,0.000431,0.283713
13038000,0.0324,0.013523,0.002678,0.000431,0.138096
13039000,0.0324,0.013523,0.002678,0.000431,0.152434
13040000,0.0324,0.013523,0.002678,0.000431,0.123992
13041000,0.0324,0.013523,0.002678,0.000431,0.302988
13042000,0.0324,0.013523,0.002678,0.000431,0.315211
13043000,0.0324,0.013523,0.002678,0.000431,0.050185
13044000,0.0324,0.013523,0.002678,0.000431,0.033025
13045000,0.0324,0.013523,0.002678,0.000431,0.029265
13046000,0.0324,0.013523,0.002678,0.000431,0.019745
13047000,0.0324,0.013523,0.002678,0.000431,0.017512
13048000,0.0324,0.013523,0.002678,0.000431,0.016924
13049000,0.0324,0.013523,0.002678,0.000431,0.012105
13050000,0.0324,0.013523,0.002678,0.000431,0.009402
13051000,0.0324,0.013523,0.002678,0.000431,0.009285
13052000,0.0324,0.013523,0.002678,0.000431,0.008815
13053000,0.0324,0.013523,0.002678,0.000431,0.009520
13054000,0.0324,0.013523,0.002678,0.000431,0.009167
13055000,0.0324,0.013523,0.002678,0.000431,0.009520
13056000,0.0324,0.013523,0.002678,0.000431,0.009167
13057000,0.0324,0.013523,0.002678,0.000431,0.012576
13058000,0.0324,0.013523,0.002678,0.000431,0.007287
13059000,0.0324,0.013523,0.002678,0.000431,0.007757
13060000,0.0324,0.013523,0.002678,0.000431,0.007287
13061000,0.0324,0.013523,0.002678,0.000431,0.009637
13062000,0.0324,0.013523,0.002678,0.000431,0.007169
13063000,0.0324,0.013523,0.002678,0.000431,0.006229
13064000,0.0324,0.013523,0.002678,0.000431,0.006582
13065000,0.0324,0.013523,0.002678,0.000431,0.007052
13066000,0.0324,0.013523,0.002678,0.000431,0.006347
13067000,0.0324,0.013523,0.002678,0.000431,0.006582
13068000,0.0324,0.013523,0.002678,0.000431,0.007052
13069000,0.0324,0.013523,0.002678,0.000431,0.006229
13070000,0.0324,0.013523,0.002678,0.000431,0.005171
13071000,0.0324,0.013523,0.002678,0.000431,0.005289
13072000,0.0324,0.013523,0.002678,0.000431,0.004819
13073000,0.0324,0.013523,0.002678,0.000431,0.005171
13074000,0.0324,0.013523,0.002678,0.000431,0.005054
13075000,0.0324,0.013523,0.002678,0.000431,0.005171
13076000,0.0324,0.013523,0.002678,0.000431,0.005054
13077000,0.0324,0.013523,0.002678,0.000431,0.007052
13078000,0.0324,0.013523,0.002678,0.000431,0.004113
13079000,0.0324,0.013523,0.002678,0.000431,0.004113
13080000,0.0324,0.013523,0.002678,0.000431,0.004349
13081000,0.0324,0.013523,0.002678,0.000431,0.004231
13082000,0.0324,0.013523,0.002678,0.000431,0.004231
13083000,0.0324,0.013523,0.002678,0.000431,0.003996
13084000,0.0324,0.013523,0.002678,0.000431,0.004466
13085000,0.0324,0.013523,0.002678,0.000431,0.004349
13086000,0.0324,0.013523,0.002678,0.000431,0.004349
13087000,0.0324,0.013523,0.002678,0.000431,0.003878
13088000,0.0324,0.013523,0.002678,0.000431,0.004466
13089000,0.0324,0.013523,0.002678,0.000431,0.004584
13090000,0.0324,0.013523,0.002678,0.000431,0.003761
13091000,0.0324,0.013523,0.002678,0.000431,0.004584
13092000,0.0324,0.013523,0.002678,0.000431,0.004113
13093000,0.0324,0.013523,0.002678,0.000431,0.004349
13094000,0.0324,0.013523,0.002678,0.000431,0.004466
13095000,0.0324,0.013523,0.002678,0.000431,0.003878
13096000,0.0324,0.013523,0.002678,0.000431,0.004584
13097000,0.0324,0.013523,0.002678,0.000431,0.004113
13098000,0.0324,0.013523,0.002678,0.000431,0.004466
13099000,0.0324,0.013523,0.002678,0.000431,0.004231
13100000,0.0324,0.013523,0.002678,0.000431,0.004113
13101000,0.0324,0.013523,0.002678,0.000431,0.004466
13102000,0.0324,0.013523,0.002678,0.000431,0.004113
13103000,0.0324,0.013523,0.002678,0.000431,0.004466
13104000,0.0324,0.013523,0.002678,0.000431,0.004113
13105000,0.0324,0.013523,0.002678,0.000431,0.005994
13106000,0.0324,0.013523,0.002678,0.000431,0.005406
13107000,0.0324,0.013523,0.002678,0.000431,0.003291
13108000,0.0324,0.013523,0.002678,0.000431,0.003643
13109000,0.0324,0.013523,0.002678,0.000431,0.003173
13110000,0.0324,0.013523,0.002678,0.000431,0.003291
13111000,0.0324,0.013523,0.002678,0.000431,0.003408
13112000,0.0324,0.013523,0.002678,0.000431,0.005876
13113000,0.0324,0.013523,0.002678,0.000431,0.002468
13114000,0.0324,0.013523,0.002678,0.000431,0.002703
13115000,0.0324,0.013523,0.002678,0.000431,0.002116
13116000,0.0324,0.013523,0.002678,0.000431,0.002821
13117000,0.0324,0.013523,0.002678,0.000431,0.002821
13118000,0.0324,0.013523,0.002678,0.000431,0.002351
13119000,0.0324,0.013523,0.002678,0.000431,0.002586
13120000,0.0324,0.013523,0.002678,0.000431,0.002351
13121000,0.0324,0.013523,0.002678,0.000431,0.002821
13122000,0.0324,0.013523,0.002678,0.000431,0.002468
13123000,0.0324,0.013523,0.002678,0.000431,0.002468
13124000,0.0324,0.013523,0.002678,0.000431,0.002703
13125000,0.0324,0.013523,0.002678,0.000431,0.002233
13126000,0.0324,0.013523,0.002678,0.000431,0.002703
13127000,0.0324,0.013523,0.002678,0.000431,0.002468
13128000,0.0324,0.013523,0.002678,0.000431,0.002586
13129000,0.0324,0.013523,0.002678,0.000431,0.002351
13130000,0.0324,0.013523,0.002678,0.000431,0.002468
13131000,0.0324,0.013523,0.002678,0.000431,0.002703
13132000,0.0324,0.013523,0.002678,0.000431,0.002351
13133000,0.0324,0.013523,0.002678,0.000431,0.002703
13134000,0.0324,0.013523,0.002678,0.000431,0.002351
13135000,0.0324,0.013523,0.002678,0.000431,0.002468
13136000,0.0324,0.013523,0.002678,0.000431,0.002586
13137000,0.0324,0.013523,0.002678,0.000431,0.002586
13138000,0.0324,0.013523,0.002678,0.000431,0.002586
13139000,0.0324,0.013523,0.002678,0.000431,0.002351
13140000,0.0324,0.013523,0.002678,0.000431,0.002586
13141000,0.0324,0.013523,0.002678,0.000431,0.002586
13142000,0.0324,0.013523,0.002678,0.000431,0.004819
13143000,0.0324,0.013523,0.002678,0.000431,0.001645
13144000,0.0324,0.013523,0.002678,0.000431,0.001645
13145000,0.0324,0.013523,0.002678,0.000431,0.001880
13146000,0.0324,0.013523,0.002678,0.000431,0.001645
13147000,0.0324,0.013523,0.002678,0.000431,0.001763
13148000,0.0324,0.013523,0.002678,0.000431,0.001528
13149000,0.0324,0.013523,0.002678,0.000431,0.001880
13150000,0.0324,0.013523,0.002678,0.000431,0.001763
13151000,0.0324,0.013523,0.002678,0.000431,0.001645
13152000,0.0324,0.013523,0.002678,0.000431,0.001645
13153000,0.0324,0.013523,0.002678,0.000431,0.001645
13154000,0.0324,0.013523,0.002678,0.000431,0.001763
13155000,0.0324,0.013523,0.002678,0.000431,0.001645
13156000,0.0324,0.013523,0.002678,0.000431,0.001645
13157000,0.0324,0.013523,0.002678,0.000431,0.001763
13158000,0.0324,0.013523,0.002678,0.000431,0.001645
13159000,0.0324,0.013523,0.002678,0.000431,0.001645
13160000,0.0324,0.013523,0.002678,0.000431,0.001528
13161000,0.0324,0.013523,0.002678,0.000431,0.003526
13162000,0.0324,0.013523,0.002678,0.000431,0.000823
13163000,0.0324,0.013523,0.002678,0.000431,0.000823
13164000,0.0324,0.013523,0.002678,0.000431,0.000823
13165000,0.0324,0.013523,0.002678,0.000431,0.000940
13166000,0.0324,0.013523,0.002678,0.000431,0.000823
13167000,0.0324,0.013523,0.002678,0.000431,0.000823
13168000,0.0324,0.013523,0.002678,0.000431,0.000705
13169000,0.0324,0.013523,0.002678,0.000431,0.000940
13170000,0.0324,0.013523,0.002678,0.000431,0.000940
13171000,0.0324,0.013523,0.002678,0.000431,0.000705
13172000,0.0324,0.013523,0.002678,0.000431,0.000940
13173000,0.0324,0.013523,0.002678,0.000431,0.000705
13174000,0.0324,0.013523,0.002678,0.000431,0.000940
13175000,0.0324,0.013523,0.002678,0.000431,0.000823
13176000,0.0324,0.013523,0.002678,0.000431,0.000823
13177000,0.0324,0.013523,0.002678,0.000431,0.000940
13178000,0.0324,0.013523,0.002678,0.000431,0.000705
13179000,0.0324,0.013523,0.002678,0.000431,0.000940
13180000,0.0324,0.013523,0.002678,0.000431,0.000823
13181000,0.0324,0.013523,0.002678,0.000431,0.000940
13182000,0.0324,0.013523,0.002678,0.000431,0.000823
13183000,0.0324,0.013523,0.002678,0.000431,0.000940
13184000,0.0324,0.013523,0.002678,0.000431,0.041135
13185000,0.0324,0.013523,0.002678,0.000431,0.492326
13186000,0.0324,0.013523,0.002678,0.000431,0.604212
13187000,0.0324,0.013523,0.002678,0.000431,0.130691
13188000,0.0324,0.013523,0.002678,0.000431,0.134922
13189000,0.0324,0.013523,0.002678,0.000431,0.511013
13190000,0.0324,0.013523,0.002678,0.000431,0.259855
13191000,0.0324,0.013523,0.002678,0.000431,0.275133
13192000,0.0324,0.013523,0.002678,0.000431,0.292058
13193000,0.0324,0.013523,0.002678,0.000431,0.159251
13194000,0.0324,0.013523,0.002678,0.000431,0.143267
13195000,0.0324,0.013523,0.002678,0.000431,0.140564
13196000,0.0324,0.013523,0.002678,0.000431,0.235056
13197000,0.0324,0.013523,0.002678,0.000431,0.403239
13198000,0.0324,0.013523,0.002678,0.000431,0.095080
13199000,0.0324,0.013523,0.002678,0.000431,0.075101
13200000,0.0324,0.013523,0.002678,0.000431,0.052888
13201000,0.0324,0.013523,0.002678,0.000431,0.040312
13202000,0.0324,0.013523,0.002678,0.000431,0.029029
13203000,0.0324,0.013523,0.002678,0.000431,0.023976
13204000,0.0324,0.013523,0.002678,0.000431,0.023858
13205000,0.0324,0.013523,0.002678,0.000431,0.021155
13206000,0.0324,0.013523,0.002678,0.000431,0.014338
13207000,0.0324,0.013523,0.002678,0.000431,0.015631
13208000,0.0324,0.013523,0.002678,0.000431,0.009990
13209000,0.0324,0.013523,0.002678,0.000431,0.012928
13210000,0.0324,0.013523,0.002678,0.000431,0.008462
13211000,0.0324,0.013523,0.002678,0.000431,0.009520
13212000,0.0324,0.013523,0.002678,0.000431,0.009402
13213000,0.0324,0.013523,0.002678,0.000431,0.002116
13214000,0.0324,0.013523,0.002678,0.000431,0.002821
13215000,0.0324,0.013523,0.002678,0.000431,0.002351
13216000,0.0324,0.013523,0.002678,0.000431,0.003996
13217000,0.0324,0.013523,0.002678,0.000431,0.000823
13218000,0.0324,0.013523,0.002678,0.000431,0.000823
13219000,0.0324,0.013523,0.002678,0.000431,0.000940
13220000,0.0324,0.013523,0.002678,0.000431,0.000705
13221000,0.0324,0.013523,0.002678,0.000431,0.000940
13222000,0.0324,0.013523,0.002678,0.000431,0.000823
13223000,0.0324,0.013523,0.002678,0.000431,0.000823
13224000,0.0324,0.013523,0.002678,0.000431,0.000823
13225000,0.0324,0.013523,0.002678,0.000431,0.000823
13226000,0.0324,0.013523,0.002678,0.000431,0.000940
13227000,0.0324,0.013523,0.002678,0.000431,0.000705
13228000,0.0324,0.013523,0.002678,0.000431,0.000940
13229000,0.0324,0.013523,0.002678,0.000431,0.000823
13230000,0.0324,0.013523,0.002678,0.000431,0.000823
13231000,0.0324,0.013523,0.002678,0.000431,0.000823
13232000,0.0324,0.013523,0.002678,0.000431,0.000823
13233000,0.0324,0.013523,0.002678,0.000431,0.000705
13234000,0.0324,0.013523,0.002678,0.000431,0.000940
13235000,0.0324,0.013523,0.002678,0.000431,0.000940
13236000,0.0324,0.013523,0.002678,0.000431,0.000705
13237000,0.0324,0.013523,0.002678,0.000431,0.000940
13238000,0.0324,0.013523,0.002678,0.000431,0.000705
13239000,0.0324,0.013523,0.002678,0.000431,0.000940
13240000,0.0324,0.013523,0.002678,0.000431,0.000940
13241000,0.0324,0.013523,0.002678,0.000431,0.000705
13242000,0.0324,0.013523,0.002678,0.000431,0.000940
13243000,0.0324,0.013523,0.002678,0.000431,0.000705
13244000,0.0324,0.013523,0.002678,0.000431,0.000940
13245000,0.0324,0.013523,0.002678,0.000431,0.000823
13246000,0.0324,0.013523,0.002678,0.000431,0.000823
13247000,0.0324,0.013523,0.002678,0.000431,0.000823
13248000,0.0324,0.013523,0.002678,0.000431,0.000823
13249000,0.0324,0.013523,0.002678,0.000431,0.000940
13250000,0.0324,0.013523,0.002678,0.000431,0.000705
13251000,0.0324,0.013523,0.002678,0.000431,0.000940
13252000,0.0324,0.013523,0.002678,0.000431,0.000705
13253000,0.0324,0.013523,0.002678,0.000431,0.000823
13254000,0.0324,0.013523,0.002678,0.000431,0.000940
13255000,0.0324,0.013523,0.002678,0.000431,0.000823
13256000,0.0324,0.013523,0.002678,0.000431,0.000823
13257000,0.0324,0.013523,0.002678,0.000431,0.000823
13258000,0.0324,0.013523,0.002678,0.000431,0.000823
13259000,0.0324,0.013523,0.002678,0.000431,0.000823
13260000,0.0324,0.013523,0.002678,0.000431,0.000940
13261000,0.0324,0.013523,0.002678,0.000431,0.000823
13262000,0.0324,0.013523,0.002678,0.000431,0.000823
13263000,0.0324,0.013523,0.002678,0.000431,0.000705
13264000,0.0324,0.013523,0.002678,0.000431,0.000940
13265000,0.0324,0.013523,0.002678,0.000431,0.000940
13266000,0.0324,0.013523,0.002678,0.000431,0.000705
13267000,0.0324,0.013523,0.002678,0.000431,0.000940
13268000,0.0324,0.013523,0.002678,0.000431,0.000705
13269000,0.0324,0.013523,0.002678,0.000431,0.000940
13270000,0.0324,0.013523,0.002678,0.000431,0.000823
13271000,0.0324,0.013523,0.002678,0.000431,0.000823
13272000,0.0324,0.013523,0.002678,0.000431,0.000940
13273000,0.0324,0.013523,0.002678,0.000431,0.126343
13274000,0.0324,0.013523,0.002678,0.000431,0.590932
13275000,0.0324,0.013523,0.002678,0.000431,0.523353
13276000,0.0324,0.013523,0.002678,0.000431,0.134922
13277000,0.0324,0.013523,0.002678,0.000431,0.132102
13278000,0.0324,0.013523,0.002678,0.000431,0.565781
13279000,0.0324,0.013523,0.002678,0.000431,0.283948
13280000,0.0324,0.013523,0.002678,0.000431,0.276779
13281000,0.0324,0.013523,0.002678,0.000431,0.270432
13282000,0.0324,0.013523,0.002678,0.000431,0.138448
13283000,0.0324,0.013523,0.002678,0.000431,0.167595
13284000,0.0324,0.013523,0.002678,0.000431,0.132219
13285000,0.0324,0.013523,0.002678,0.000431,0.471053
13286000,0.0324,0.013523,0.002678,0.000431,0.092142
13287000,0.0324,0.013523,0.002678,0.000431,0.059117
13288000,0.0324,0.013523,0.002678,0.000431,0.043368
13289000,0.0324,0.013523,0.002678,0.000431,0.035141
13290000,0.0324,0.013523,0.002678,0.000431,0.026444
13291000,0.0324,0.013523,0.002678,0.000431,0.028912
13292000,0.0324,0.013523,0.002678,0.000431,0.015161
13293000,0.0324,0.013523,0.002678,0.000431,0.014691
13294000,0.0324,0.013523,0.002678,0.000431,0.015161
13295000,0.0324,0.013523,0.002678,0.000431,0.014456
13296000,0.0324,0.013523,0.002678,0.000431,0.011870
13297000,0.0324,0.013523,0.002678,0.000431,0.013516
13298000,0.0324,0.013523,0.002678,0.000431,0.010930
13299000,0.0324,0.013523,0.002678,0.000431,0.011165
13300000,0.0324,0.013523,0.002678,0.000431,0.014573
13301000,0.0324,0.013523,0.002678,0.000431,0.008345
13302000,0.0324,0.013523,0.002678,0.000431,0.009285
13303000,0.0324,0.013523,0.002678,0.000431,0.013046
13304000,0.0324,0.013523,0.002678,0.000431,0.006464
13305000,0.0324,0.013523,0.002678,0.000431,0.007404
13306000,0.0324,0.013523,0.002678,0.000431,0.005289
13307000,0.0324,0.013523,0.002678,0.000431,0.006111
13308000,0.0324,0.013523,0.002678,0.000431,0.008227
13309000,0.0324,0.013523,0.002678,0.000431,0.006229
13310000,0.0324,0.013523,0.002678,0.000431,0.003173
13311000,0.0324,0.013523,0.002678,0.000431,0.001645
13312000,0.0324,0.013523,0.002678,0.000431,0.001645
13313000,0.0324,0.013523,0.002678,0.000431,0.001763
13314000,0.0324,0.013523,0.002678,0.000431,0.001763
13315000,0.0324,0.013523,0.002678,0.000431,0.001528
13316000,0.0324,0.013523,0.002678,0.000431,0.003996
13317000,0.0324,0.013523,0.002678,0.000431,0.000940
13318000,0.0324,0.013523,0.002678,0.000431,0.000705
13319000,0.0324,0.013523,0.002678,0.000431,0.000940
13320000,0.0324,0.013523,0.002678,0.000431,0.000705
13321000,0.0324,0.013523,0.002678,0.000431,0.000940
13322000,0.0324,0.013523,0.002678,0.000431,0.000823
13323000,0.0324,0.013523,0.002678,0.000431,0.000823
13324000,0.0324,0.013523,0.002678,0.000431,0.000940
13325000,0.0324,0.013523,0.002678,0.000431,0.000705
13326000,0.0324,0.013523,0.002678,0.000431,0.000940
13327000,0.0324,0.013523,0.002678,0.000431,0.000823
13328000,0.0324,0.013523,0.002678,0.000431,0.000823
13329000,0.0324,0.013523,0.002678,0.000431,0.000823
13330000,0.0324,0.013523,0.002678,0.000431,0.000823
13331000,0.0324,0.013523,0.002678,0.000431,0.000940
13332000,0.0324,0.013523,0.002678,0.000431,0.000705
13333000,0.0324,0.013523,0.002678,0.000431,0.000940
13334000,0.0324,0.013523,0.002678,0.000431,0.000823
13335000,0.0324,0.013523,0.002678,0.000431,0.000823
13336000,0.0324,0.013523,0.002678,0.000431,0.000940
13337000,0.0324,0.013523,0.002678,0.000431,0.000705
13338000,0.0324,0.013523,0.002678,0.000431,0.000940
13339000,0.0324,0.013523,0.002678,0.000431,0.000823
13340000,0.0324,0.013523,0.002678,0.000431,0.000823
13341000,0.0324,0.013523,0.002678,0.000431,0.204852
13342000,0.0324,0.013523,0.002678,0.000431,0.519122
13343000,0.0324,0.013523,0.002678,0.000431,0.488330
13344000,0.0324,0.013523,0.002678,0.000431,0.133512
13345000,0.0324,0.013523,0.002678,0.000431,0.131279
13346000,0.0324,0.013523,0.002678,0.000431,0.613967
13347000,0.0324,0.013523,0.002678,0.000431,0.312507
13348000,0.0324,0.013523,0.002678,0.000431,0.255154
13349000,0.0324,0.013523,0.002678,0.000431,0.246104
13350000,0.0324,0.013523,0.002678,0.000431,0.136685
13351000,0.0324,0.013523,0.002678,0.000431,0.163717
13352000,0.0324,0.013523,0.002678,0.000431,0.140094
13353000,0.0324,0.013523,0.002678,0.000431,0.502668
13354000,0.0324,0.013523,0.002678,0.000431,0.142209
13355000,0.0324,0.013523,0.002678,0.000431,0.105188
13356000,0.0324,0.013523,0.002678,0.000431,0.084738
13357000,0.0324,0.013523,0.002678,0.000431,0.069812
13358000,0.0324,0.013523,0.002678,0.000431,0.049479
13359000,0.0324,0.013523,0.002678,0.000431,0.037609
13360000,0.0324,0.013523,0.002678,0.000431,0.034436
13361000,0.0324,0.013523,0.002678,0.000431,0.027619
13362000,0.0324,0.013523,0.002678,0.000431,0.027149
13363000,0.0324,0.013523,0.002678,0.000431,0.025856
13364000,0.0324,0.013523,0.002678,0.000431,0.020332
13365000,0.0324,0.013523,0.002678,0.000431,0.012693
13366000,0.0324,0.013523,0.002678,0.000431,0.015044
13367000,0.0324,0.013523,0.002678,0.000431,0.012928
13368000,0.0324,0.013523,0.002678,0.000431,0.013633
13369000,0.0324,0.013523,0.002678,0.000431,0.011753
13370000,0.0324,0.013523,0.002678,0.000431,0.011165
13371000,0.0324,0.013523,0.002678,0.000431,0.006111
13372000,0.0324,0.013523,0.002678,0.000431,0.009872
13373000,0.0324,0.013523,0.002678,0.000431,0.007169
13374000,0.0324,0.013523,0.002678,0.000431,0.004349
13375000,0.0324,0.013523,0.002678,0.000431,0.004936
13376000,0.0324,0.013523,0.002678,0.000431,0.004231
13377000,0.0324,0.013523,0.002678,0.000431,0.004819
13378000,0.0324,0.013523,0.002678,0.000431,0.004584
13379000,0.0324,0.013523,0.002678,0.000431,0.007287
13380000,0.0324,0.013523,0.002678,0.000431,0.003878
13381000,0.0324,0.013523,0.002678,0.000431,0.003408
13382000,0.0324,0.013523,0.002678,0.000431,0.004113
13383000,0.0324,0.013523,0.002678,0.000431,0.003408
13384000,0.0324,0.013523,0.002678,0.000431,0.003878
13385000,0.0324,0.013523,0.002678,0.000431,0.003526
13386000,0.0324,0.013523,0.002678,0.000431,0.005994
13387000,0.0324,0.013523,0.002678,0.000431,0.002703
13388000,0.0324,0.013523,0.002678,0.000431,0.003996
13389000,0.0324,0.013523,0.002678,0.000431,0.001763
13390000,0.0324,0.013523,0.002678,0.000431,0.001645
13391000,0.0324,0.013523,0.002678,0.000431,0.001645
13392000,0.0324,0.013523,0.002678,0.000431,0.001763
13393000,0.0324,0.013523,0.002678,0.000431,0.001528
13394000,0.0324,0.013523,0.002678,0.000431,0.001763
13395000,0.0324,0.013523,0.002678,0.000431,0.001645
13396000,0.0324,0.013523,0.002678,0.000431,0.001645
13397000,0.0324,0.013523,0.002678,0.000431,0.001528
13398000,0.0324,0.013523,0.002678,0.000431,0.001880
13399000,0.0324,0.013523,0.002678,0.000431,0.001763
13400000,0.0324,0.013523,0.002678,0.000431,0.001528
13401000,0.0324,0.013523,0.002678,0.000431,0.004113
13402000,0.0324,0.013523,0.002678,0.000431,0.000705
13403000,0.0324,0.013523,0.002678,0.000431,0.000940
13404000,0.0324,0.013523,0.002678,0.000431,0.000823
13405000,0.0324,0.013523,0.002678,0.000431,0.000823
13406000,0.0324,0.013523,0.002678,0.000431,0.000940
13407000,0.0324,0.013523,0.002678,0.000431,0.000705
13408000,0.0324,0.013523,0.002678,0.000431,0.000940
13409000,0.0324,0.013523,0.002678,0.000431,0.000823
13410000,0.0324,0.013523,0.002678,0.000431,0.000823
13411000,0.0324,0.013523,0.002678,0.000431,0.000823
13412000,0.0324,0.013523,0.002678,0.000431,0.000823
13413000,0.0324,0.013523,0.002678,0.000431,0.000823
13414000,0.0324,0.013523,0.002678,0.000431,0.000823
13415000,0.0324,0.013523,0.002678,0.000431,0.000940
13416000,0.0324,0.013523,0.002678,0.000431,0.000823
13417000,0.0324,0.013523,0.002678,0.000431,0.000705
13418000,0.0324,0.013523,0.002678,0.000431,0.000940
13419000,0.0324,0.013523,0.002678,0.000431,0.000823
13420000,0.0324,0.013523,0.002678,0.000431,0.000823
13421000,0.0324,0.013523,0.002678,0.000431,0.000823
13422000,0.0324,0.013523,0.002678,0.000431,0.000823
13423000,0.0324,0.013523,0.002678,0.000431,0.000823
13424000,0.0324,0.013523,0.002678,0.000431,0.000940
13425000,0.0324,0.013523,0.002678,0.000431,0.000823
13426000,0.0324,0.013523,0.002678,0.000431,0.000823
13427000,0.0324,0.013523,0.002678,0.000431,0.000705
13428000,0.0324,0.013523,0.002678,0.000431,0.000940
13429000,0.0324,0.013523,0.002678,0.000431,0.000940
13430000,0.0324,0.013523,0.002678,0.000431,0.000705
13431000,0.0324,0.013523,0.002678,0.000431,0.000940
13432000,0.0324,0.013523,0.002678,0.000431,0.000705
13433000,0.0324,0.013523,0.002678,0.000431,0.000940
13434000,0.0324,0.013523,0.002678,0.000431,0.000823
13435000,0.0324,0.013523,0.002678,0.000431,0.000823
13436000,0.0324,0.013523,0.002678,0.000431,0.000940
13437000,0.0324,0.013523,0.002678,0.000431,0.000705
13438000,0.0324,0.013523,0.002678,0.000431,0.000940
13439000,0.0324,0.013523,0.002678,0.000431,0.000823
13440000,0.0324,0.013523,0.002678,0.000431,0.000823
13441000,0.0324,0.013523,0.002678,0.000431,0.000823
13442000,0.0324,0.013523,0.002678,0.000431,0.000823
13443000,0.0324,0.013523,0.002678,0.000431,0.000823
13444000,0.0324,0.013523,0.002678,0.000431,0.000823
13445000,0.0324,0.013523,0.002678,0.000431,0.000940
13446000,0.0324,0.013523,0.002678,0.000431,0.000823
13447000,0.0324,0.013523,0.002678,0.000431,0.000823
13448000,0.0324,0.013523,0.002678,0.000431,0.000823
13449000,0.0324,0.013523,0.002678,0.000431,0.000823
13450000,0.0324,0.013523,0.002678,0.000431,0.000705
13451000,0.0324,0.013523,0.002678,0.000431,0.000940
13452000,0.0324,0.013523,0.002678,0.000431,0.000940
13453000,0.0324,0.013523,0.002678,0.000431,0.000705
13454000,0.0324,0.013523,0.002678,0.000431,0.000940
13455000,0.0324,0.013523,0.002678,0.000431,0.000705
13456000,0.0324,0.013523,0.002678,0.000431,0.000940
13457000,0.0324,0.013523,0.002678,0.000431,0.000823
13458000,0.0324,0.013523,0.002678,0.000431,0.000823
13459000,0.0324,0.013523,0.002678,0.000431,0.000940
13460000,0.0324,0.013523,0.002678,0.000431,0.000705
13461000,0.0324,0.013523,0.002678,0.000431,0.000940
13462000,0.0324,0.013523,0.002678,0.000431,0.000823
13463000,0.0324,0.013523,0.002678,0.000431,0.000823
13464000,0.0324,0.013523,0.002678,0.000431,0.000823
13465000,0.0324,0.013523,0.002678,0.000431,0.000823
13466000,0.0324,0.013523,0.002678,0.000431,0.000940
13467000,0.0324,0.013523,0.002678,0.000431,0.000705
13468000,0.0324,0.013523,0.002678,0.000431,0.000940
13469000,0.0324,0.013523,0.002678,0.000431,0.000705
13470000,0.0324,0.013523,0.002678,0.000431,0.000823
13471000,0.0324,0.013523,0.002678,0.000431,0.000940
13472000,0.0324,0.013523,0.002678,0.000431,0.000823
13473000,0.0324,0.013523,0.002678,0.000431,0.000823
13474000,0.0324,0.013523,0.002678,0.000431,0.000823
13475000,0.0324,0.013523,0.002678,0.000431,0.000823
13476000,0.0324,0.013523,0.002678,0.000431,0.000823
13477000,0.0324,0.013523,0.002678,0.000431,0.000940
13478000,0.0324,0.013523,0.002678,0.000431,0.000823
13479000,0.0324,0.013523,0.002678,0.000431,0.000823
13480000,0.0324,0.013523,0.002678,0.000431,0.000705
13481000,0.0324,0.013523,0.002678,0.000431,0.000940
13482000,0.0324,0.013523,0.002678,0.000431,0.000940
13483000,0.0324,0.013523,0.002678,0.000431,0.000705
13484000,0.0324,0.013523,0.002678,0.000431,0.000940
13485000,0.0324,0.013523,0.002678,0.000431,0.000705
13486000,0.0324,0.013523,0.002678,0.000431,0.000940
13487000,0.0324,0.013523,0.002678,0.000431,0.000823
13488000,0.0324,0.013523,0.002678,0.000431,0.000823
13489000,0.0324,0.013523,0.002678,0.000431,0.000940
13490000,0.0324,0.013523,0.002678,0.000431,0.000705
13491000,0.0324,0.013523,0.002678,0.000431,0.000940
13492000,0.0324,0.013523,0.002678,0.000431,0.000823
13493000,0.0324,0.013523,0.002678,0.000431,0.000823
13494000,0.0324,0.013523,0.002678,0.000431,0.000823
13495000,0.0324,0.013523,0.002678,0.000431,0.000823
13496000,0.0324,0.013523,0.002678,0.000431,0.000940
13497000,0.0324,0.013523,0.002678,0.000431,0.000705
13498000,0.0324,0.013523,0.002678,0.000431,0.000940
13499000,0.0324,0.013523,0.002678,0.000431,0.000823
13500000,0.0324,0.013523,0.002678,0.000431,0.000823
13501000,0.0324,0.013523,0.002678,0.000431,0.000823
13502000,0.0324,0.013523,0.002678,0.000431,0.000823
13503000,0.0324,0.013523,0.002678,0.000431,0.000823
13504000,0.0324,0.013523,0.002678,0.000431,0.000823
13505000,0.0324,0.013523,0.002678,0.000431,0.000940
13506000,0.0324,0.013523,0.002678,0.000431,0.000705
13507000,0.0324,0.013523,0.002678,0.000431,0.000940
13508000,0.0324,0.013523,0.002678,0.000431,0.000705
13509000,0.0324,0.013523,0.002678,0.000431,0.000940
13510000,0.0324,0.013523,0.002678,0.000431,0.000940
13511000,0.0324,0.013523,0.002678,0.000431,0.000705
13512000,0.0324,0.013523,0.002678,0.000431,0.000940
13513000,0.0324,0.013523,0.002678,0.000431,0.000705
13514000,0.0324,0.013523,0.002678,0.000431,0.000940
13515000,0.0324,0.013523,0.002678,0.000431,0.000823
13516000,0.0324,0.013523,0.002678,0.000431,0.000823
13517000,0.0324,0.013523,0.002678,0.000431,0.000823
13518000,0.0324,0.013523,0.002678,0.000431,0.000823
13519000,0.0324,0.013523,0.002678,0.000431,0.000940
13520000,0.0324,0.013523,0.002678,0.000431,0.000705
13521000,0.0324,0.013523,0.002678,0.000431,0.000940
13522000,0.0324,0.013523,0.002678,0.000431,0.000823
13523000,0.0324,0.013523,0.002678,0.000431,0.000823
13524000,0.0324,0.013523,0.002678,0.000431,0.000823
13525000,0.0324,0.013523,0.002678,0.000431,0.071222
13526000,0.0324,0.013523,0.002678,0.000431,0.629011
13527000,0.0324,0.013523,0.002678,0.000431,0.591167
13528000,0.0324,0.013523,0.002678,0.000431,0.132572
13529000,0.0324,0.013523,0.002678,0.000431,0.134922
13530000,0.0324,0.013523,0.002678,0.000431,0.548034
13531000,0.0324,0.013523,0.002678,0.000431,0.242578
13532000,0.0324,0.013523,0.002678,0.000431,0.295701
13533000,0.0324,0.013523,0.002678,0.000431,0.293115
13534000,0.0324,0.013523,0.002678,0.000431,0.145970
13535000,0.0324,0.013523,0.002678,0.000431,0.155255
13536000,0.0324,0.013523,0.002678,0.000431,0.151259
13537000,0.0324,0.013523,0.002678,0.000431,0.512423
13538000,0.0324,0.013523,0.002678,0.000431,0.145735
13539000,0.0324,0.013523,0.002678,0.000431,0.098136
13540000,0.0324,0.013523,0.002678,0.000431,0.083680
13541000,0.0324,0.013523,0.002678,0.000431,0.058882
13542000,0.0324,0.013523,0.002678,0.000431,0.045601
13543000,0.0324,0.013523,0.002678,0.000431,0.033025
13544000,0.0324,0.013523,0.002678,0.000431,0.041017
13545000,0.0324,0.013523,0.002678,0.000431,0.024916
13546000,0.0324,0.013523,0.002678,0.000431,0.034083
13547000,0.0324,0.013523,0.002678,0.000431,0.024446
13548000,0.0324,0.013523,0.002678,0.000431,0.020802
13549000,0.0324,0.013523,0.002678,0.000431,0.018687
13550000,0.0324,0.013523,0.002678,0.000431,0.023388
13551000,0.0324,0.013523,0.002678,0.000431,0.016571
13552000,0.0324,0.013523,0.002678,0.000431,0.016571
13553000,0.0324,0.013523,0.002678,0.000431,0.018569
13554000,0.0324,0.013523,0.002678,0.000431,0.013633
13555000,0.0324,0.013523,0.002678,0.000431,0.013046
13556000,0.0324,0.013523,0.002678,0.000431,0.010342
13557000,0.0324,0.013523,0.002678,0.000431,0.007522
13558000,0.0324,0.013523,0.002678,0.000431,0.009167
13559000,0.0324,0.013523,0.002678,0.000431,0.010225
13560000,0.0324,0.013523,0.002678,0.000431,0.005289
13561000,0.0324,0.013523,0.002678,0.000431,0.005641
13562000,0.0324,0.013523,0.002678,0.000431,0.005406
13563000,0.0324,0.013523,0.002678,0.000431,0.006699
13564000,0.0324,0.013523,0.002678,0.000431,0.004584
13565000,0.0324,0.013523,0.002678,0.000431,0.009520
13566000,0.0324,0.013523,0.002678,0.000431,0.002586
13567000,0.0324,0.013523,0.002678,0.000431,0.002703
13568000,0.0324,0.013523,0.002678,0.000431,0.002586
13569000,0.0324,0.013523,0.002678,0.000431,0.002703
13570000,0.0324,0.013523,0.002678,0.000431,0.002468
13571000,0.0324,0.013523,0.002678,0.000431,0.002703
13572000,0.0324,0.013523,0.002678,0.000431,0.004819
13573000,0.0324,0.013523,0.002678,0.000431,0.003408
13574000,0.0324,0.013523,0.002678,0.000431,0.002586
13575000,0.0324,0.013523,0.002678,0.000431,0.000823
13576000,0.0324,0.013523,0.002678,0.000431,0.000940
13577000,0.0324,0.013523,0.002678,0.000431,0.000940
13578000,0.0324,0.013523,0.002678,0.000431,0.000823
13579000,0.0324,0.013523,0.002678,0.000431,0.000823
13580000,0.0324,0.013523,0.002678,0.000431,0.000940
13581000,0.0324,0.013523,0.002678,0.000431,0.000940
13582000,0.0324,0.013523,0.002678,0.000431,0.000705
13583000,0.0324,0.013523,0.002678,0.000431,0.000940
13584000,0.0324,0.013523,0.002678,0.000431,0.000940
13585000,0.0324,0.013523,0.002678,0.000431,0.000940
13586000,0.0324,0.013523,0.002678,0.000431,0.000705
13587000,0.0324,0.013523,0.002678,0.000431,0.000940
13588000,0.0324,0.013523,0.002678,0.000431,0.000940
13589000,0.0324,0.013523,0.002678,0.000431,0.000823
13590000,0.0324,0.013523,0.002678,0.000431,0.000823
13591000,0.0324,0.013523,0.002678,0.000431,0.000940
13592000,0.0324,0.013523,0.002678,0.000431,0.000940
13593000,0.0324,0.013523,0.002678,0.000431,0.000823
13594000,0.0324,0.013523,0.002678,0.000431,0.000823
13595000,0.0324,0.013523,0.002678,0.000431,0.000940
13596000,0.0324,0.013523,0.002678,0.000431,0.000823
13597000,0.0324,0.013523,0.002678,0.000431,0.000940
13598000,0.0324,0.013523,0.002678,0.000431,0.000823
13599000,0.0324,0.013523,0.002678,0.000431,0.000940
13600000,0.0324,0.013523,0.002678,0.000431,0.000940
13601000,0.0324,0.013523,0.002678,0.000431,0.000705
13602000,0.0324,0.013523,0.002678,0.000431,0.000940
13603000,0.0324,0.013523,0.002678,0.000431,0.000940
13604000,0.0324,0.013523,0.002678,0.000431,0.000940
13605000,0.0324,0.013523,0.002678,0.000431,0.000705
13606000,0.0324,0.013523,0.002678,0.000431,0.000940
13607000,0.0324,0.013523,0.002678,0.000431,0.000940
13608000,0.0324,0.013523,0.002678,0.000431,0.000823
13609000,0.0324,0.013523,0.002678,0.000431,0.000823
13610000,0.0324,0.013523,0.002678,0.000431,0.000940
13611000,0.0324,0.013523,0.002678,0.000431,0.000823
13612000,0.0324,0.013523,0.002678,0.000431,0.000940
13613000,0.0324,0.013523,0.002678,0.000431,0.000823
13614000,0.0324,0.013523,0.002678,0.000431,0.000940
13615000,0.0324,0.013523,0.002678,0.000431,0.000823
13616000,0.0324,0.013523,0.002678,0.000431,0.000823
13617000,0.0324,0.013523,0.002678,0.000431,0.000940
13618000,0.0324,0.013523,0.002678,0.000431,0.000940
13619000,0.0324,0.013523,0.002678,0.000431,0.000823
13620000,0.0324,0.013523,0.002678,0.000431,0.000823
13621000,0.0324,0.013523,0.002678,0.000431,0.000940
13622000,0.0324,0.013523,0.002678,0.000431,0.000940
13623000,0.0324,0.013523,0.002678,0.000431,0.000823
13624000,0.0324,0.013523,0.002678,0.000431,0.000823
13625000,0.0324,0.013523,0.002678,0.000431,0.072045
13626000,0.0324,0.013523,0.002678,0.000431,0.650401
13627000,0.0324,0.013523,0.002678,0.000431,0.569894
13628000,0.0324,0.013523,0.002678,0.000431,0.133512
13629000,0.0324,0.013523,0.002678,0.000431,0.133982
13630000,0.0324,0.013523,0.002678,0.000431,0.559082
13631000,0.0324,0.013523,0.002678,0.000431,0.273018
13632000,0.0324,0.013523,0.002678,0.000431,0.234351
13633000,0.0324,0.013523,0.002678,0.000431,0.276426
13634000,0.0324,0.013523,0.002678,0.000431,0.145735
13635000,0.0324,0.013523,0.002678,0.000431,0.170768
13636000,0.0324,0.013523,0.002678,0.000431,0.140094
13637000,0.0324,0.013523,0.002678,0.000431,0.474579
13638000,0.0324,0.013523,0.002678,0.000431,0.105188
13639000,0.0324,0.013523,0.002678,0.000431,0.084738
13640000,0.0324,0.013523,0.002678,0.000431,0.062760
13641000,0.0324,0.013523,0.002678,0.000431,0.057941
13642000,0.0324,0.013523,0.002678,0.000431,0.049009
13643000,0.0324,0.013523,0.002678,0.000431,0.032908
13644000,0.0324,0.013523,0.002678,0.000431,0.043250
13645000,0.0324,0.013523,0.002678,0.000431,0.024328
13646000,0.0324,0.013523,0.002678,0.000431,0.014456
13647000,0.0324,0.013523,0.002678,0.000431,0.013633
13648000,0.0324,0.013523,0.002678,0.000431,0.013163
13649000,0.0324,0.013523,0.002678,0.000431,0.016219
13650000,0.0324,0.013523,0.002678,0.000431,0.011518
13651000,0.0324,0.013523,0.002678,0.000431,0.013633
13652000,0.0324,0.013523,0.002678,0.000431,0.010225
13653000,0.0324,0.013523,0.002678,0.000431,0.012340
13654000,0.0324,0.013523,0.002678,0.000431,0.013516
13655000,0.0324,0.013523,0.002678,0.000431,0.009402
13656000,0.0324,0.013523,0.002678,0.000431,0.008462
13657000,0.0324,0.013523,0.002678,0.000431,0.007757
13658000,0.0324,0.013523,0.002678,0.000431,0.008345
13659000,0.0324,0.013523,0.002678,0.000431,0.005994
13660000,0.0324,0.013523,0.002678,0.000431,0.005171
13661000,0.0324,0.013523,0.002678,0.000431,0.005759
13662000,0.0324,0.013523,0.002678,0.000431,0.005289
13663000,0.0324,0.013523,0.002678,0.000431,0.005641
13664000,0.0324,0.013523,0.002678,0.000431,0.005759
13665000,0.0324,0.013523,0.002678,0.000431,0.006111
13666000,0.0324,0.013523,0.002678,0.000431,0.008109
13667000,0.0324,0.013523,0.002678,0.000431,0.003643
13668000,0.0324,0.013523,0.002678,0.000431,0.003761
13669000,0.0324,0.013523,0.002678,0.000431,0.004113
13670000,0.0324,0.013523,0.002678,0.000431,0.003408
13671000,0.0324,0.013523,0.002678,0.000431,0.004231
13672000,0.0324,0.013523,0.002678,0.000431,0.004466
13673000,0.0324,0.013523,0.002678,0.000431,0.004584
13674000,0.0324,0.013523,0.002678,0.000431,0.001998
13675000,0.0324,0.013523,0.002678,0.000431,0.001763
13676000,0.0324,0.013523,0.002678,0.000431,0.001645
13677000,0.0324,0.013523,0.002678,0.000431,0.001763
13678000,0.0324,0.013523,0.002678,0.000431,0.001880
13679000,0.0324,0.013523,0.002678,0.000431,0.001763
13680000,0.0324,0.013523,0.002678,0.000431,0.001528
13681000,0.0324,0.013523,0.002678,0.000431,0.001880
13682000,0.0324,0.013523,0.002678,0.000431,0.001763
13683000,0.0324,0.013523,0.002678,0.000431,0.001763
13684000,0.0324,0.013523,0.002678,0.000431,0.001763
13685000,0.0324,0.013523,0.002678,0.000431,0.001763
13686000,0.0324,0.013523,0.002678,0.000431,0.001763
13687000,0.0324,0.013523,0.002678,0.000431,0.001645
13688000,0.0324,0.013523,0.002678,0.000431,0.001763
13689000,0.0324,0.013523,0.002678,0.000431,0.001880
13690000,0.0324,0.013523,0.002678,0.000431,0.001763
13691000,0.0324,0.013523,0.002678,0.000431,0.001645
13692000,0.0324,0.013523,0.002678,0.000431,0.003173
13693000,0.0324,0.013523,0.002678,0.000431,0.001058
13694000,0.0324,0.013523,0.002678,0.000431,0.000940
13695000,0.0324,0.013523,0.002678,0.000431,0.000705
13696000,0.0324,0.013523,0.002678,0.000431,0.000940
13697000,0.0324,0.013523,0.002678,0.000431,0.000940
13698000,0.0324,0.013523,0.002678,0.000431,0.000940
13699000,0.0324,0.013523,0.002678,0.000431,0.000705
13700000,0.0324,0.013523,0.002678,0.000431,0.000940
13701000,0.0324,0.013523,0.002678,0.000431,0.000940
13702000,0.0324,0.013523,0.002678,0.000431,0.000823
13703000,0.0324,0.013523,0.002678,0.000431,0.000823
13704000,0.0324,0.013523,0.002678,0.000431,0.000940
13705000,0.0324,0.013523,0.002678,0.000431,0.000940
13706000,0.0324,0.013523,0.002678,0.000431,0.000823
13707000,0.0324,0.013523,0.002678,0.000431,0.000823
13708000,0.0324,0.013523,0.002678,0.000431,0.000940
13709000,0.0324,0.013523,0.002678,0.000431,0.000823
13710000,0.0324,0.013523,0.002678,0.000431,0.000940
13711000,0.0324,0.013523,0.002678,0.000431,0.000823
13712000,0.0324,0.013523,0.002678,0.000431,0.000940
13713000,0.0324,0.013523,0.002678,0.000431,0.000823
13714000,0.0324,0.013523,0.002678,0.000431,0.000823
13715000,0.0324,0.013523,0.002678,0.000431,0.000940
13716000,0.0324,0.013523,0.002678,0.000431,0.000940
13717000,0.0324,0.013523,0.002678,0.000431,0.000823
13718000,0.0324,0.013523,0.002678,0.000431,0.000823
13719000,0.0324,0.013523,0.002678,0.000431,0.000940
13720000,0.0324,0.013523,0.002678,0.000431,0.000940
13721000,0.0324,0.013523,0.002678,0.000431,0.000823
13722000,0.0324,0.013523,0.002678,0.000431,0.000823
13723000,0.0324,0.013523,0.002678,0.000431,0.000940
13724000,0.0324,0.013523,0.002678,0.000431,0.000823
13725000,0.0324,0.013523,0.002678,0.000431,0.000940
13726000,0.0324,0.013523,0.002678,0.000431,0.000823
13727000,0.0324,0.013523,0.002678,0.000431,0.000940
13728000,0.0324,0.013523,0.002678,0.000431,0.000823
13729000,0.0324,0.013523,0.002678,0.000431,0.000823
13730000,0.0324,0.013523,0.002678,0.000431,0.000940
13731000,0.0324,0.013523,0.002678,0.000431,0.000940
13732000,0.0324,0.013523,0.002678,0.000431,0.000823
13733000,0.0324,0.013523,0.002678,0.000431,0.000823
13734000,0.0324,0.013523,0.002678,0.000431,0.000940
13735000,0.0324,0.013523,0.002678,0.000431,0.000940
13736000,0.0324,0.013523,0.002678,0.000431,0.000705
13737000,0.0324,0.013523,0.002678,0.000431,0.000940
13738000,0.0324,0.013523,0.002678,0.000431,0.000940
13739000,0.0324,0.013523,0.002678,0.000431,0.000940
13740000,0.0324,0.013523,0.002678,0.000431,0.000705
13741000,0.0324,0.013523,0.002678,0.000431,0.000940
13742000,0.0324,0.013523,0.002678,0.000431,0.000940
13743000,0.0324,0.013523,0.002678,0.000431,0.000823
13744000,0.0324,0.013523,0.002678,0.000431,0.000940
13745000,0.0324,0.013523,0.002678,0.000431,0.000823
13746000,0.0324,0.013523,0.002678,0.000431,0.000940
13747000,0.0324,0.013523,0.002678,0.000431,0.000823
13748000,0.0324,0.013523,0.002678,0.000431,0.000823
13749000,0.0324,0.013523,0.002678,0.000431,0.000940
13750000,0.0324,0.013523,0.002678,0.000431,0.000823
13751000,0.0324,0.013523,0.002678,0.000431,0.000940
13752000,0.0324,0.013523,0.002678,0.000431,0.000823
13753000,0.0324,0.013523,0.002678,0.000431,0.000940
13754000,0.0324,0.013523,0.002678,0.000431,0.000940
13755000,0.0324,0.013523,0.002678,0.000431,0.000705
13756000,0.0324,0.013523,0.002678,0.000431,0.000940
13757000,0.0324,0.013523,0.002678,0.000431,0.000940
13758000,0.0324,0.013523,0.002678,0.000431,0.000940
13759000,0.0324,0.013523,0.002678,0.000431,0.000705
13760000,0.0324,0.013523,0.002678,0.000431,0.000940
13761000,0.0324,0.013523,0.002678,0.000431,0.000940
13762000,0.0324,0.013523,0.002678,0.000431,0.000823
13763000,0.0324,0.013523,0.002678,0.000431,0.000823
13764000,0.0324,0.013523,0.002678,0.000431,0.000940
13765000,0.0324,0.013523,0.002678,0.000431,0.000823
13766000,0.0324,0.013523,0.002678,0.000431,0.000940
13767000,0.0324,0.013523,0.002678,0.000431,0.000823
13768000,0.0324,0.013523,0.002678,0.000431,0.000940
13769000,0.0324,0.013523,0.002678,0.000431,0.000823
13770000,0.0324,0.013523,0.002678,0.000431,0.000823
13771000,0.0324,0.013523,0.002678,0.000431,0.000940
13772000,0.0324,0.013523,0.002678,0.000431,0.000940
13773000,0.0324,0.013523,0.002678,0.000431,0.000823
13774000,0.0324,0.013523,0.002678,0.000431,0.000823
13775000,0.0324,0.013523,0.002678,0.000431,0.000940
13776000,0.0324,0.013523,0.002678,0.000431,0.000940
13777000,0.0324,0.013523,0.002678,0.000431,0.000823
13778000,0.0324,0.013523,0.002678,0.000431,0.220953
13779000,0.0324,0.013523,0.002678,0.000431,0.657453
13780000,0.0324,0.013523,0.002678,0.000431,0.373505
13781000,0.0324,0.013523,0.002678,0.000431,0.131161
13782000,0.0324,0.013523,0.002678,0.000431,0.134922
13783000,0.0324,0.013523,0.002678,0.000431,0.589521
13784000,0.0324,0.013523,0.002678,0.000431,0.219190
13785000,0.0324,0.013523,0.002678,0.000431,0.285358
13786000,0.0324,0.013523,0.002678,0.000431,0.242108
13787000,0.0324,0.013523,0.002678,0.000431,0.151141
13788000,0.0324,0.013523,0.002678,0.000431,0.173942
13789000,0.0324,0.013523,0.002678,0.000431,0.112122
13790000,0.0324,0.013523,0.002678,0.000431,0.491268
13791000,0.0324,0.013523,0.002678,0.000431,0.120819
13792000,0.0324,0.013523,0.002678,0.000431,0.070047
13793000,0.0324,0.013523,0.002678,0.000431,0.060057
13794000,0.0324,0.013523,0.002678,0.000431,0.055121
13795000,0.0324,0.013523,0.002678,0.000431,0.033613
13796000,0.0324,0.013523,0.002678,0.000431,0.030087
13797000,0.0324,0.013523,0.002678,0.000431,0.022683
13798000,0.0324,0.013523,0.002678,0.000431,0.026091
13799000,0.0324,0.013523,0.002678,0.000431,0.022800
13800000,0.0324,0.013523,0.002678,0.000431,0.020332
13801000,0.0324,0.013523,0.002678,0.000431,0.019392
13802000,0.0324,0.013523,0.002678,0.000431,0.022330
13803000,0.0324,0.013523,0.002678,0.000431,0.016807
13804000,0.0324,0.013523,0.002678,0.000431,0.017747
13805000,0.0324,0.013523,0.002678,0.000431,0.016454
13806000,0.0324,0.013523,0.002678,0.000431,0.018099
13807000,0.0324,0.013523,0.002678,0.000431,0.017512
13808000,0.0324,0.013523,0.002678,0.000431,0.015044
13809000,0.0324,0.013523,0.002678,0.000431,0.018452
13810000,0.0324,0.013523,0.002678,0.000431,0.017394
13811000,0.0324,0.013523,0.002678,0.000431,0.013633
13812000,0.0324,0.013523,0.002678,0.000431,0.013986
13813000,0.0324,0.013523,0.002678,0.000431,0.012105
13814000,0.0324,0.013523,0.002678,0.000431,0.016219
13815000,0.0324,0.013523,0.002678,0.000431,0.012458
13816000,0.0324,0.013523,0.002678,0.000431,0.009402
13817000,0.0324,0.013523,0.002678,0.000431,0.011635
13818000,0.0324,0.013523,0.002678,0.000431,0.008462
13819000,0.0324,0.013523,0.002678,0.000431,0.008815
13820000,0.0324,0.013523,0.002678,0.000431,0.009990
13821000,0.0324,0.013523,0.002678,0.000431,0.007992
13822000,0.0324,0.013523,0.002678,0.000431,0.009520
13823000,0.0324,0.013523,0.002678,0.000431,0.008345
13824000,0.0324,0.013523,0.002678,0.000431,0.009285
13825000,0.0324,0.013523,0.002678,0.000431,0.010342
13826000,0.0324,0.013523,0.002678,0.000431,0.009167
13827000,0.0324,0.013523,0.002678,0.000431,0.008227
13828000,0.0324,0.013523,0.002678,0.000431,0.008345
13829000,0.0324,0.013523,0.002678,0.000431,0.007757
13830000,0.0324,0.013523,0.002678,0.000431,0.007639
13831000,0.0324,0.013523,0.002678,0.000431,0.007169
13832000,0.0324,0.013523,0.002678,0.000431,0.006699
13833000,0.0324,0.013523,0.002678,0.000431,0.004819
13834000,0.0324,0.013523,0.002678,0.000431,0.004819
13835000,0.0324,0.013523,0.002678,0.000431,0.005171
13836000,0.0324,0.013523,0.002678,0.000431,0.005054
13837000,0.0324,0.013523,0.002678,0.000431,0.005054
13838000,0.0324,0.013523,0.002678,0.000431,0.004819
13839000,0.0324,0.013523,0.002678,0.000431,0.005054
13840000,0.0324,0.013523,0.002678,0.000431,0.005054
13841000,0.0324,0.013523,0.002678,0.000431,0.004936
13842000,0.0324,0.013523,0.002678,0.000431,0.004936
13843000,0.0324,0.013523,0.002678,0.000431,0.004936
13844000,0.0324,0.013523,0.002678,0.000431,0.005054
13845000,0.0324,0.013523,0.002678,0.000431,0.004936
13846000,0.0324,0.013523,0.002678,0.000431,0.004936
13847000,0.0324,0.013523,0.002678,0.000431,0.005289
13848000,0.0324,0.013523,0.002678,0.000431,0.004819
13849000,0.0324,0.013523,0.002678,0.000431,0.005054
13850000,0.0324,0.013523,0.002678,0.000431,0.005054
13851000,0.0324,0.013523,0.002678,0.000431,0.005289
13852000,0.0324,0.013523,0.002678,0.000431,0.004584
13853000,0.0324,0.013523,0.002678,0.000431,0.005054
13854000,0.0324,0.013523,0.002678,0.000431,0.005406
13855000,0.0324,0.013523,0.002678,0.000431,0.004819
13856000,0.0324,0.013523,0.002678,0.000431,0.004701
13857000,0.0324,0.013523,0.002678,0.000431,0.005641
13858000,0.0324,0.013523,0.002678,0.000431,0.004701
13859000,0.0324,0.013523,0.002678,0.000431,0.005171
13860000,0.0324,0.013523,0.002678,0.000431,0.004466
13861000,0.0324,0.013523,0.002678,0.000431,0.005406
13862000,0.0324,0.013523,0.002678,0.000431,0.005171
13863000,0.0324,0.013523,0.002678,0.000431,0.007522
13864000,0.0324,0.013523,0.002678,0.000431,0.003996
13865000,0.0324,0.013523,0.002678,0.000431,0.004113
13866000,0.0324,0.013523,0.002678,0.000431,0.004349
13867000,0.0324,0.013523,0.002678,0.000431,0.003878
13868000,0.0324,0.013523,0.002678,0.000431,0.004231
13869000,0.0324,0.013523,0.002678,0.000431,0.004466
13870000,0.0324,0.013523,0.002678,0.000431,0.004113
13871000,0.0324,0.013523,0.002678,0.000431,0.003878
13872000,0.0324,0.013523,0.002678,0.000431,0.003996
13873000,0.0324,0.013523,0.002678,0.000431,0.004584
13874000,0.0324,0.013523,0.002678,0.000431,0.004231
13875000,0.0324,0.013523,0.002678,0.000431,0.003643
13876000,0.0324,0.013523,0.002678,0.000431,0.004466
13877000,0.0324,0.013523,0.002678,0.000431,0.005994
13878000,0.0324,0.013523,0.002678,0.000431,0.003291
13879000,0.0324,0.013523,0.002678,0.000431,0.003173
13880000,0.0324,0.013523,0.002678,0.000431,0.003408
13881000,0.0324,0.013523,0.002678,0.000431,0.003408
13882000,0.0324,0.013523,0.002678,0.000431,0.003173
13883000,0.0324,0.013523,0.002678,0.000431,0.003291
13884000,0.0324,0.013523,0.002678,0.000431,0.003291
13885000,0.0324,0.013523,0.002678,0.000431,0.003408
13886000,0.0324,0.013523,0.002678,0.000431,0.003408
13887000,0.0324,0.013523,0.002678,0.000431,0.003056
13888000,0.0324,0.013523,0.002678,0.000431,0.003761
13889000,0.0324,0.013523,0.002678,0.000431,0.002938
13890000,0.0324,0.013523,0.002678,0.000431,0.003291
13891000,0.0324,0.013523,0.002678,0.000431,0.003408
13892000,0.0324,0.013523,0.002678,0.000431,0.003526
13893000,0.0324,0.013523,0.002678,0.000431,0.003291
13894000,0.0324,0.013523,0.002678,0.000431,0.002938
13895000,0.0324,0.013523,0.002678,0.000431,0.003643
13896000,0.0324,0.013523,0.002678,0.000431,0.003291
13897000,0.0324,0.013523,0.002678,0.000431,0.003291
13898000,0.0324,0.013523,0.002678,0.000431,0.003408
13899000,0.0324,0.013523,0.002678,0.000431,0.003173
13900000,0.0324,0.013523,0.002678,0.000431,0.003408
13901000,0.0324,0.013523,0.002678,0.000431,0.003173
13902000,0.0324,0.013523,0.002678,0.000431,0.003291
13903000,0.0324,0.013523,0.002678,0.000431,0.003526
13904000,0.0324,0.013523,0.002678,0.000431,0.003173
13905000,0.0324,0.013523,0.002678,0.000431,0.003291
13906000,0.0324,0.013523,0.002678,0.000431,0.003173
13907000,0.0324,0.013523,0.002678,0.000431,0.003761
13908000,0.0324,0.013523,0.002678,0.000431,0.002821
13909000,0.0324,0.013523,0.002678,0.000431,0.003408
13910000,0.0324,0.013523,0.002678,0.000431,0.003643
13911000,0.0324,0.013523,0.002678,0.000431,0.003291
13912000,0.0324,0.013523,0.002678,0.000431,0.002938
13913000,0.0324,0.013523,0.002678,0.000431,0.003291
13914000,0.0324,0.013523,0.002678,0.000431,0.003643
13915000,0.0324,0.013523,0.002678,0.000431,0.003408
13916000,0.0324,0.013523,0.002678,0.000431,0.002821
13917000,0.0324,0.013523,0.002678,0.000431,0.003643
13918000,0.0324,0.013523,0.002678,0.000431,0.003291
13919000,0.0324,0.013523,0.002678,0.000431,0.003291
13920000,0.0324,0.013523,0.002678,0.000431,0.003056
13921000,0.0324,0.013523,0.002678,0.000431,0.003408
13922000,0.0324,0.013523,0.002678,0.000431,0.003291
13923000,0.0324,0.013523,0.002678,0.000431,0.003291
13924000,0.0324,0.013523,0.002678,0.000431,0.003291
13925000,0.0324,0.013523,0.002678,0.000431,0.003173
13926000,0.0324,0.013523,0.002678,0.000431,0.003408
13927000,0.0324,0.013523,0.002678,0.000431,0.003291
13928000,0.0324,0.013523,0.002678,0.000431,0.003173
13929000,0.0324,0.013523,0.002678,0.000431,0.003643
13930000,0.0324,0.013523,0.002678,0.000431,0.003173
13931000,0.0324,0.013523,0.002678,0.000431,0.003056
13932000,0.0324,0.013523,0.002678,0.000431,0.003408
13933000,0.0324,0.013523,0.002678,0.000431,0.003408
13934000,0.0324,0.013523,0.002678,0.000431,0.003408
13935000,0.0324,0.013523,0.002678,0.000431,0.002821
13936000,0.0324,0.013523,0.002678,0.000431,0.003643
13937000,0.0324,0.013523,0.002678,0.000431,0.003173
13938000,0.0324,0.013523,0.002678,0.000431,0.003291
13939000,0.0324,0.013523,0.002678,0.000431,0.003408
13940000,0.0324,0.013523,0.002678,0.000431,0.003173
13941000,0.0324,0.013523,0.002678,0.000431,0.003291
13942000,0.0324,0.013523,0.002678,0.000431,0.003291
13943000,0.0324,0.013523,0.002678,0.000431,0.003173
13944000,0.0324,0.013523,0.002678,0.000431,0.003526
13945000,0.0324,0.013523,0.002678,0.000431,0.003056
13946000,0.0324,0.013523,0.002678,0.000431,0.003291
13947000,0.0324,0.013523,0.002678,0.000431,0.003291
13948000,0.0324,0.013523,0.002678,0.000431,0.003643
13949000,0.0324,0.013523,0.002678,0.000431,0.002821
13950000,0.0324,0.013523,0.002678,0.000431,0.003408
13951000,0.0324,0.013523,0.002678,0.000431,0.003526
13952000,0.0324,0.013523,0.002678,0.000431,0.003291
13953000,0.0324,0.013523,0.002678,0.000431,0.003291
13954000,0.0324,0.013523,0.002678,0.000431,0.002821
13955000,0.0324,0.013523,0.002678,0.000431,0.003761
13956000,0.0324,0.013523,0.002678,0.000431,0.003291
13957000,0.0324,0.013523,0.002678,0.000431,0.003173
13958000,0.0324,0.013523,0.002678,0.000431,0.003408
13959000,0.0324,0.013523,0.002678,0.000431,0.005759
13960000,0.0324,0.013523,0.002678,0.000431,0.004113
13961000,0.0324,0.013523,0.002678,0.000431,0.000823
13962000,0.0324,0.013523,0.002678,0.000431,0.000940
13963000,0.0324,0.013523,0.002678,0.000431,0.000823
13964000,0.0324,0.013523,0.002678,0.000431,0.000823
13965000,0.0324,0.013523,0.002678,0.000431,0.000940
13966000,0.0324,0.013523,0.002678,0.000431,0.000940
13967000,0.0324,0.013523,0.002678,0.000431,0.000823
13968000,0.0324,0.013523,0.002678,0.000431,0.000823
13969000,0.0324,0.013523,0.002678,0.000431,0.000940
13970000,0.0324,0.013523,0.002678,0.000431,0.000940
13971000,0.0324,0.013523,0.002678,0.000431,0.000823
13972000,0.0324,0.013523,0.002678,0.000431,0.000823
13973000,0.0324,0.013523,0.002678,0.000431,0.000940
13974000,0.0324,0.013523,0.002678,0.000431,0.000823
13975000,0.0324,0.013523,0.002678,0.000431,0.000940
13976000,0.0324,0.013523,0.002678,0.000431,0.000823
13977000,0.0324,0.013523,0.002678,0.000431,0.000940
13978000,0.0324,0.013523,0.002678,0.000431,0.000823
13979000,0.0324,0.013523,0.002678,0.000431,0.000823
13980000,0.0324,0.013523,0.002678,0.000431,0.000940
13981000,0.0324,0.013523,0.002678,0.000431,0.000940
13982000,0.0324,0.013523,0.002678,0.000431,0.000823
13983000,0.0324,0.013523,0.002678,0.000431,0.000823
13984000,0.0324,0.013523,0.002678,0.000431,0.000940
13985000,0.0324,0.013523,0.002678,0.000431,0.000940
13986000,0.0324,0.013523,0.002678,0.000431,0.000705
13987000,0.0324,0.013523,0.002678,0.000431,0.000940
13988000,0.0324,0.013523,0.002678,0.000431,0.000940
13989000,0.0324,0.013523,0.002678,0.000431,0.000940
13990000,0.0324,0.013523,0.002678,0.000431,0.000705
13991000,0.0324,0.013523,0.002678,0.000431,0.000940
13992000,0.0324,0.013523,0.002678,0.000431,0.000940
13993000,0.0324,0.013523,0.002678,0.000431,0.000823
13994000,0.0324,0.013523,0.002678,0.000431,0.000940
13995000,0.0324,0.013523,0.002678,0.000431,0.000823
13996000,0.0324,0.013523,0.002678,0.000431,0.000940
13997000,0.0324,0.013523,0.002678,0.000431,0.000823
13998000,0.0324,0.013523,0.002678,0.000431,0.000823
13999000,0.0324,0.013523,0.002678,0.000431,0.000940
