Cycle,Area(mm^2),PeakDynamic(W),SubthresholdLeakage(W),GateLeakage(W),RunTimeDynamic(W)
136000000,0.0324,0.013523,0.002678,0.000431,0.005759
136001000,0.0324,0.013523,0.002678,0.000431,0.005289
136002000,0.0324,0.013523,0.002678,0.000431,0.004231
136003000,0.0324,0.013523,0.002678,0.000431,0.004349
136004000,0.0324,0.013523,0.002678,0.000431,0.003996
136005000,0.0324,0.013523,0.002678,0.000431,0.004113
136006000,0.0324,0.013523,0.002678,0.000431,0.007287
136007000,0.0324,0.013523,0.002678,0.000431,0.001763
136008000,0.0324,0.013523,0.002678,0.000431,0.001528
136009000,0.0324,0.013523,0.002678,0.000431,0.001880
136010000,0.0324,0.013523,0.002678,0.000431,0.001645
136011000,0.0324,0.013523,0.002678,0.000431,0.001645
136012000,0.0324,0.013523,0.002678,0.000431,0.001763
136013000,0.0324,0.013523,0.002678,0.000431,0.003408
136014000,0.0324,0.013523,0.002678,0.000431,0.001058
136015000,0.0324,0.013523,0.002678,0.000431,0.000823
136016000,0.0324,0.013523,0.002678,0.000431,0.000823
136017000,0.0324,0.013523,0.002678,0.000431,0.000940
136018000,0.0324,0.013523,0.002678,0.000431,0.000705
136019000,0.0324,0.013523,0.002678,0.000431,0.000940
136020000,0.0324,0.013523,0.002678,0.000431,0.000705
136021000,0.0324,0.013523,0.002678,0.000431,0.000940
136022000,0.0324,0.013523,0.002678,0.000431,0.000823
136023000,0.0324,0.013523,0.002678,0.000431,0.000823
136024000,0.0324,0.013523,0.002678,0.000431,0.000823
136025000,0.0324,0.013523,0.002678,0.000431,0.000823
136026000,0.0324,0.013523,0.002678,0.000431,0.000940
136027000,0.0324,0.013523,0.002678,0.000431,0.000705
136028000,0.0324,0.013523,0.002678,0.000431,0.000940
136029000,0.0324,0.013523,0.002678,0.000431,0.000940
136030000,0.0324,0.013523,0.002678,0.000431,0.000823
136031000,0.0324,0.013523,0.002678,0.000431,0.000823
136032000,0.0324,0.013523,0.002678,0.000431,0.000940
136033000,0.0324,0.013523,0.002678,0.000431,0.000940
136034000,0.0324,0.013523,0.002678,0.000431,0.000823
136035000,0.0324,0.013523,0.002678,0.000431,0.000823
136036000,0.0324,0.013523,0.002678,0.000431,0.000940
136037000,0.0324,0.013523,0.002678,0.000431,0.000823
136038000,0.0324,0.013523,0.002678,0.000431,0.000823
136039000,0.0324,0.013523,0.002678,0.000431,0.000940
136040000,0.0324,0.013523,0.002678,0.000431,0.000705
136041000,0.0324,0.013523,0.002678,0.000431,0.000940
136042000,0.0324,0.013523,0.002678,0.000431,0.000823
136043000,0.0324,0.013523,0.002678,0.000431,0.000823
136044000,0.0324,0.013523,0.002678,0.000431,0.000823
136045000,0.0324,0.013523,0.002678,0.000431,0.000823
136046000,0.0324,0.013523,0.002678,0.000431,0.000940
136047000,0.0324,0.013523,0.002678,0.000431,0.000705
136048000,0.0324,0.013523,0.002678,0.000431,0.001058
136049000,0.0324,0.013523,0.002678,0.000431,0.000823
136050000,0.0324,0.013523,0.002678,0.000431,0.000940
136051000,0.0324,0.013523,0.002678,0.000431,0.000823
136052000,0.0324,0.013523,0.002678,0.000431,0.000823
136053000,0.0324,0.013523,0.002678,0.000431,0.000823
136054000,0.0324,0.013523,0.002678,0.000431,0.000823
136055000,0.0324,0.013523,0.002678,0.000431,0.000823
136056000,0.0324,0.013523,0.002678,0.000431,0.000823
136057000,0.0324,0.013523,0.002678,0.000431,0.000940
136058000,0.0324,0.013523,0.002678,0.000431,0.000823
136059000,0.0324,0.013523,0.002678,0.000431,0.000823
136060000,0.0324,0.013523,0.002678,0.000431,0.000705
136061000,0.0324,0.013523,0.002678,0.000431,0.000940
136062000,0.0324,0.013523,0.002678,0.000431,0.000940
136063000,0.0324,0.013523,0.002678,0.000431,0.000823
136064000,0.0324,0.013523,0.002678,0.000431,0.000823
136065000,0.0324,0.013523,0.002678,0.000431,0.000940
136066000,0.0324,0.013523,0.002678,0.000431,0.000940
136067000,0.0324,0.013523,0.002678,0.000431,0.000940
136068000,0.0324,0.013523,0.002678,0.000431,0.044661
136069000,0.0324,0.013523,0.002678,0.000431,0.674142
136070000,0.0324,0.013523,0.002678,0.000431,0.576123
136071000,0.0324,0.013523,0.002678,0.000431,0.133630
136072000,0.0324,0.013523,0.002678,0.000431,0.135745
136073000,0.0324,0.013523,0.002678,0.000431,0.535341
136074000,0.0324,0.013523,0.002678,0.000431,0.238112
136075000,0.0324,0.013523,0.002678,0.000431,0.277131
136076000,0.0324,0.013523,0.002678,0.000431,0.226007
136077000,0.0324,0.013523,0.002678,0.000431,0.153962
136078000,0.0324,0.013523,0.002678,0.000431,0.152317
136079000,0.0324,0.013523,0.002678,0.000431,0.230473
136080000,0.0324,0.013523,0.002678,0.000431,0.519240
136081000,0.0324,0.013523,0.002678,0.000431,0.203794
136082000,0.0324,0.013523,0.002678,0.000431,0.178643
136083000,0.0324,0.013523,0.002678,0.000431,0.153609
136084000,0.0324,0.013523,0.002678,0.000431,0.133865
136085000,0.0324,0.013523,0.002678,0.000431,0.102837
136086000,0.0324,0.013523,0.002678,0.000431,0.072045
136087000,0.0324,0.013523,0.002678,0.000431,0.063465
136088000,0.0324,0.013523,0.002678,0.000431,0.055356
136089000,0.0324,0.013523,0.002678,0.000431,0.050537
136090000,0.0324,0.013523,0.002678,0.000431,0.046541
136091000,0.0324,0.013523,0.002678,0.000431,0.031262
136092000,0.0324,0.013523,0.002678,0.000431,0.031850
136093000,0.0324,0.013523,0.002678,0.000431,0.025856
136094000,0.0324,0.013523,0.002678,0.000431,0.027619
136095000,0.0324,0.013523,0.002678,0.000431,0.023388
136096000,0.0324,0.013523,0.002678,0.000431,0.024798
136097000,0.0324,0.013523,0.002678,0.000431,0.020215
136098000,0.0324,0.013523,0.002678,0.000431,0.019510
136099000,0.0324,0.013523,0.002678,0.000431,0.020920
136100000,0.0324,0.013523,0.002678,0.000431,0.016454
136101000,0.0324,0.013523,0.002678,0.000431,0.018099
136102000,0.0324,0.013523,0.002678,0.000431,0.014691
136103000,0.0324,0.013523,0.002678,0.000431,0.014809
136104000,0.0324,0.013523,0.002678,0.000431,0.014926
136105000,0.0324,0.013523,0.002678,0.000431,0.013046
136106000,0.0324,0.013523,0.002678,0.000431,0.013633
136107000,0.0324,0.013523,0.002678,0.000431,0.010930
136108000,0.0324,0.013523,0.002678,0.000431,0.012105
136109000,0.0324,0.013523,0.002678,0.000431,0.009990
136110000,0.0324,0.013523,0.002678,0.000431,0.009990
136111000,0.0324,0.013523,0.002678,0.000431,0.009637
136112000,0.0324,0.013523,0.002678,0.000431,0.009167
136113000,0.0324,0.013523,0.002678,0.000431,0.009402
136114000,0.0324,0.013523,0.002678,0.000431,0.009402
136115000,0.0324,0.013523,0.002678,0.000431,0.009167
136116000,0.0324,0.013523,0.002678,0.000431,0.011283
136117000,0.0324,0.013523,0.002678,0.000431,0.008697
136118000,0.0324,0.013523,0.002678,0.000431,0.009285
136119000,0.0324,0.013523,0.002678,0.000431,0.007992
136120000,0.0324,0.013523,0.002678,0.000431,0.006229
136121000,0.0324,0.013523,0.002678,0.000431,0.007404
136122000,0.0324,0.013523,0.002678,0.000431,0.006347
136123000,0.0324,0.013523,0.002678,0.000431,0.007052
136124000,0.0324,0.013523,0.002678,0.000431,0.009637
136125000,0.0324,0.013523,0.002678,0.000431,0.005759
136126000,0.0324,0.013523,0.002678,0.000431,0.006347
136127000,0.0324,0.013523,0.002678,0.000431,0.005641
136128000,0.0324,0.013523,0.002678,0.000431,0.005876
136129000,0.0324,0.013523,0.002678,0.000431,0.006229
136130000,0.0324,0.013523,0.002678,0.000431,0.005759
136131000,0.0324,0.013523,0.002678,0.000431,0.005994
136132000,0.0324,0.013523,0.002678,0.000431,0.005641
136133000,0.0324,0.013523,0.002678,0.000431,0.006347
136134000,0.0324,0.013523,0.002678,0.000431,0.005524
136135000,0.0324,0.013523,0.002678,0.000431,0.009050
136136000,0.0324,0.013523,0.002678,0.000431,0.004936
136137000,0.0324,0.013523,0.002678,0.000431,0.004936
136138000,0.0324,0.013523,0.002678,0.000431,0.005171
136139000,0.0324,0.013523,0.002678,0.000431,0.005171
136140000,0.0324,0.013523,0.002678,0.000431,0.006347
136141000,0.0324,0.013523,0.002678,0.000431,0.004231
136142000,0.0324,0.013523,0.002678,0.000431,0.004113
136143000,0.0324,0.013523,0.002678,0.000431,0.004113
136144000,0.0324,0.013523,0.002678,0.000431,0.004701
136145000,0.0324,0.013523,0.002678,0.000431,0.003878
136146000,0.0324,0.013523,0.002678,0.000431,0.004466
136147000,0.0324,0.013523,0.002678,0.000431,0.003761
136148000,0.0324,0.013523,0.002678,0.000431,0.004584
136149000,0.0324,0.013523,0.002678,0.000431,0.004466
136150000,0.0324,0.013523,0.002678,0.000431,0.003761
136151000,0.0324,0.013523,0.002678,0.000431,0.004584
136152000,0.0324,0.013523,0.002678,0.000431,0.003761
136153000,0.0324,0.013523,0.002678,0.000431,0.004584
136154000,0.0324,0.013523,0.002678,0.000431,0.003996
136155000,0.0324,0.013523,0.002678,0.000431,0.004231
136156000,0.0324,0.013523,0.002678,0.000431,0.004113
136157000,0.0324,0.013523,0.002678,0.000431,0.004113
136158000,0.0324,0.013523,0.002678,0.000431,0.004584
136159000,0.0324,0.013523,0.002678,0.000431,0.003643
136160000,0.0324,0.013523,0.002678,0.000431,0.004584
136161000,0.0324,0.013523,0.002678,0.000431,0.003996
136162000,0.0324,0.013523,0.002678,0.000431,0.004231
136163000,0.0324,0.013523,0.002678,0.000431,0.004231
136164000,0.0324,0.013523,0.002678,0.000431,0.004113
136165000,0.0324,0.013523,0.002678,0.000431,0.004231
136166000,0.0324,0.013523,0.002678,0.000431,0.006699
136167000,0.0324,0.013523,0.002678,0.000431,0.003761
136168000,0.0324,0.013523,0.002678,0.000431,0.003643
136169000,0.0324,0.013523,0.002678,0.000431,0.012105
136170000,0.0324,0.013523,0.002678,0.000431,0.229885
136171000,0.0324,0.013523,0.002678,0.000431,0.715159
136172000,0.0324,0.013523,0.002678,0.000431,0.480103
136173000,0.0324,0.013523,0.002678,0.000431,0.134922
136174000,0.0324,0.013523,0.002678,0.000431,0.262558
136175000,0.0324,0.013523,0.002678,0.000431,0.436500
136176000,0.0324,0.013523,0.002678,0.000431,0.242696
136177000,0.0324,0.013523,0.002678,0.000431,0.327198
136178000,0.0324,0.013523,0.002678,0.000431,0.156195
136179000,0.0324,0.013523,0.002678,0.000431,0.157488
136180000,0.0324,0.013523,0.002678,0.000431,0.161131
136181000,0.0324,0.013523,0.002678,0.000431,0.516301
136182000,0.0324,0.013523,0.002678,0.000431,0.214254
136183000,0.0324,0.013523,0.002678,0.000431,0.157605
136184000,0.0324,0.013523,0.002678,0.000431,0.147028
136185000,0.0324,0.013523,0.002678,0.000431,0.125168
136186000,0.0324,0.013523,0.002678,0.000431,0.097313
136187000,0.0324,0.013523,0.002678,0.000431,0.084620
136188000,0.0324,0.013523,0.002678,0.000431,0.050537
136189000,0.0324,0.013523,0.002678,0.000431,0.044661
136190000,0.0324,0.013523,0.002678,0.000431,0.038549
136191000,0.0324,0.013523,0.002678,0.000431,0.040195
136192000,0.0324,0.013523,0.002678,0.000431,0.042193
136193000,0.0324,0.013523,0.002678,0.000431,0.021743
136194000,0.0324,0.013523,0.002678,0.000431,0.019980
136195000,0.0324,0.013523,0.002678,0.000431,0.023741
136196000,0.0324,0.013523,0.002678,0.000431,0.017864
136197000,0.0324,0.013523,0.002678,0.000431,0.016689
136198000,0.0324,0.013523,0.002678,0.000431,0.015749
136199000,0.0324,0.013523,0.002678,0.000431,0.018569
136200000,0.0324,0.013523,0.002678,0.000431,0.015514
136201000,0.0324,0.013523,0.002678,0.000431,0.012340
136202000,0.0324,0.013523,0.002678,0.000431,0.012576
136203000,0.0324,0.013523,0.002678,0.000431,0.010930
136204000,0.0324,0.013523,0.002678,0.000431,0.012223
136205000,0.0324,0.013523,0.002678,0.000431,0.011870
136206000,0.0324,0.013523,0.002678,0.000431,0.011753
136207000,0.0324,0.013523,0.002678,0.000431,0.011753
136208000,0.0324,0.013523,0.002678,0.000431,0.014573
136209000,0.0324,0.013523,0.002678,0.000431,0.011870
136210000,0.0324,0.013523,0.002678,0.000431,0.011988
136211000,0.0324,0.013523,0.002678,0.000431,0.007874
136212000,0.0324,0.013523,0.002678,0.000431,0.006347
136213000,0.0324,0.013523,0.002678,0.000431,0.008345
136214000,0.0324,0.013523,0.002678,0.000431,0.006817
136215000,0.0324,0.013523,0.002678,0.000431,0.005289
136216000,0.0324,0.013523,0.002678,0.000431,0.004584
136217000,0.0324,0.013523,0.002678,0.000431,0.004936
136218000,0.0324,0.013523,0.002678,0.000431,0.004701
136219000,0.0324,0.013523,0.002678,0.000431,0.004936
136220000,0.0324,0.013523,0.002678,0.000431,0.004701
136221000,0.0324,0.013523,0.002678,0.000431,0.004936
136222000,0.0324,0.013523,0.002678,0.000431,0.004936
136223000,0.0324,0.013523,0.002678,0.000431,0.005054
136224000,0.0324,0.013523,0.002678,0.000431,0.005054
136225000,0.0324,0.013523,0.002678,0.000431,0.005406
136226000,0.0324,0.013523,0.002678,0.000431,0.004584
136227000,0.0324,0.013523,0.002678,0.000431,0.005289
136228000,0.0324,0.013523,0.002678,0.000431,0.007992
136229000,0.0324,0.013523,0.002678,0.000431,0.003878
136230000,0.0324,0.013523,0.002678,0.000431,0.004349
136231000,0.0324,0.013523,0.002678,0.000431,0.004113
136232000,0.0324,0.013523,0.002678,0.000431,0.004349
136233000,0.0324,0.013523,0.002678,0.000431,0.004231
136234000,0.0324,0.013523,0.002678,0.000431,0.003996
136235000,0.0324,0.013523,0.002678,0.000431,0.004466
136236000,0.0324,0.013523,0.002678,0.000431,0.004231
136237000,0.0324,0.013523,0.002678,0.000431,0.004113
136238000,0.0324,0.013523,0.002678,0.000431,0.004466
136239000,0.0324,0.013523,0.002678,0.000431,0.003878
136240000,0.0324,0.013523,0.002678,0.000431,0.004349
136241000,0.0324,0.013523,0.002678,0.000431,0.007522
136242000,0.0324,0.013523,0.002678,0.000431,0.003056
136243000,0.0324,0.013523,0.002678,0.000431,0.002938
136244000,0.0324,0.013523,0.002678,0.000431,0.002821
136245000,0.0324,0.013523,0.002678,0.000431,0.003056
136246000,0.0324,0.013523,0.002678,0.000431,0.002351
136247000,0.0324,0.013523,0.002678,0.000431,0.002703
136248000,0.0324,0.013523,0.002678,0.000431,0.002468
136249000,0.0324,0.013523,0.002678,0.000431,0.002351
136250000,0.0324,0.013523,0.002678,0.000431,0.002586
136251000,0.0324,0.013523,0.002678,0.000431,0.002586
136252000,0.0324,0.013523,0.002678,0.000431,0.002351
136253000,0.0324,0.013523,0.002678,0.000431,0.002703
136254000,0.0324,0.013523,0.002678,0.000431,0.002351
136255000,0.0324,0.013523,0.002678,0.000431,0.002586
136256000,0.0324,0.013523,0.002678,0.000431,0.002468
136257000,0.0324,0.013523,0.002678,0.000431,0.002468
136258000,0.0324,0.013523,0.002678,0.000431,0.002586
136259000,0.0324,0.013523,0.002678,0.000431,0.002468
136260000,0.0324,0.013523,0.002678,0.000431,0.002586
136261000,0.0324,0.013523,0.002678,0.000431,0.002468
136262000,0.0324,0.013523,0.002678,0.000431,0.002586
136263000,0.0324,0.013523,0.002678,0.000431,0.002468
136264000,0.0324,0.013523,0.002678,0.000431,0.002351
136265000,0.0324,0.013523,0.002678,0.000431,0.002586
136266000,0.0324,0.013523,0.002678,0.000431,0.003526
136267000,0.0324,0.013523,0.002678,0.000431,0.002703
136268000,0.0324,0.013523,0.002678,0.000431,0.001763
136269000,0.0324,0.013523,0.002678,0.000431,0.001528
136270000,0.0324,0.013523,0.002678,0.000431,0.001763
136271000,0.0324,0.013523,0.002678,0.000431,0.001645
136272000,0.0324,0.013523,0.002678,0.000431,0.001763
136273000,0.0324,0.013523,0.002678,0.000431,0.001645
136274000,0.0324,0.013523,0.002678,0.000431,0.001645
136275000,0.0324,0.013523,0.002678,0.000431,0.001645
136276000,0.0324,0.013523,0.002678,0.000431,0.001763
136277000,0.0324,0.013523,0.002678,0.000431,0.001528
136278000,0.0324,0.013523,0.002678,0.000431,0.001763
136279000,0.0324,0.013523,0.002678,0.000431,0.001763
136280000,0.0324,0.013523,0.002678,0.000431,0.001528
136281000,0.0324,0.013523,0.002678,0.000431,0.001763
136282000,0.0324,0.013523,0.002678,0.000431,0.001528
136283000,0.0324,0.013523,0.002678,0.000431,0.001763
136284000,0.0324,0.013523,0.002678,0.000431,0.001645
136285000,0.0324,0.013523,0.002678,0.000431,0.001645
136286000,0.0324,0.013523,0.002678,0.000431,0.001763
136287000,0.0324,0.013523,0.002678,0.000431,0.001645
136288000,0.0324,0.013523,0.002678,0.000431,0.001763
136289000,0.0324,0.013523,0.002678,0.000431,0.001410
136290000,0.0324,0.013523,0.002678,0.000431,0.001880
136291000,0.0324,0.013523,0.002678,0.000431,0.001645
136292000,0.0324,0.013523,0.002678,0.000431,0.001528
136293000,0.0324,0.013523,0.002678,0.000431,0.001645
136294000,0.0324,0.013523,0.002678,0.000431,0.001645
136295000,0.0324,0.013523,0.002678,0.000431,0.001763
136296000,0.0324,0.013523,0.002678,0.000431,0.004466
136297000,0.0324,0.013523,0.002678,0.000431,0.000823
136298000,0.0324,0.013523,0.002678,0.000431,0.000823
136299000,0.0324,0.013523,0.002678,0.000431,0.000823
136300000,0.0324,0.013523,0.002678,0.000431,0.000705
136301000,0.0324,0.013523,0.002678,0.000431,0.000940
136302000,0.0324,0.013523,0.002678,0.000431,0.000940
136303000,0.0324,0.013523,0.002678,0.000431,0.000705
136304000,0.0324,0.013523,0.002678,0.000431,0.000940
136305000,0.0324,0.013523,0.002678,0.000431,0.000705
136306000,0.0324,0.013523,0.002678,0.000431,0.000940
136307000,0.0324,0.013523,0.002678,0.000431,0.000940
136308000,0.0324,0.013523,0.002678,0.000431,0.000705
136309000,0.0324,0.013523,0.002678,0.000431,0.000940
136310000,0.0324,0.013523,0.002678,0.000431,0.000705
136311000,0.0324,0.013523,0.002678,0.000431,0.000940
136312000,0.0324,0.013523,0.002678,0.000431,0.000823
136313000,0.0324,0.013523,0.002678,0.000431,0.000823
136314000,0.0324,0.013523,0.002678,0.000431,0.000823
136315000,0.0324,0.013523,0.002678,0.000431,0.000823
136316000,0.0324,0.013523,0.002678,0.000431,0.000823
136317000,0.0324,0.013523,0.002678,0.000431,0.000823
136318000,0.0324,0.013523,0.002678,0.000431,0.000940
136319000,0.0324,0.013523,0.002678,0.000431,0.000705
136320000,0.0324,0.013523,0.002678,0.000431,0.000823
136321000,0.0324,0.013523,0.002678,0.000431,0.000940
136322000,0.0324,0.013523,0.002678,0.000431,0.000823
136323000,0.0324,0.013523,0.002678,0.000431,0.000823
136324000,0.0324,0.013523,0.002678,0.000431,0.000823
136325000,0.0324,0.013523,0.002678,0.000431,0.000823
136326000,0.0324,0.013523,0.002678,0.000431,0.000823
136327000,0.0324,0.013523,0.002678,0.000431,0.000940
136328000,0.0324,0.013523,0.002678,0.000431,0.000705
136329000,0.0324,0.013523,0.002678,0.000431,0.000940
136330000,0.0324,0.013523,0.002678,0.000431,0.000705
136331000,0.0324,0.013523,0.002678,0.000431,0.000940
136332000,0.0324,0.013523,0.002678,0.000431,0.000940
136333000,0.0324,0.013523,0.002678,0.000431,0.000705
136334000,0.0324,0.013523,0.002678,0.000431,0.000940
136335000,0.0324,0.013523,0.002678,0.000431,0.000705
136336000,0.0324,0.013523,0.002678,0.000431,0.000940
136337000,0.0324,0.013523,0.002678,0.000431,0.000823
136338000,0.0324,0.013523,0.002678,0.000431,0.000823
136339000,0.0324,0.013523,0.002678,0.000431,0.000823
136340000,0.0324,0.013523,0.002678,0.000431,0.000823
136341000,0.0324,0.013523,0.002678,0.000431,0.000823
136342000,0.0324,0.013523,0.002678,0.000431,0.000823
136343000,0.0324,0.013523,0.002678,0.000431,0.000940
136344000,0.0324,0.013523,0.002678,0.000431,0.000823
136345000,0.0324,0.013523,0.002678,0.000431,0.000823
136346000,0.0324,0.013523,0.002678,0.000431,0.000823
136347000,0.0324,0.013523,0.002678,0.000431,0.000823
136348000,0.0324,0.013523,0.002678,0.000431,0.000705
136349000,0.0324,0.013523,0.002678,0.000431,0.000940
136350000,0.0324,0.013523,0.002678,0.000431,0.000940
136351000,0.0324,0.013523,0.002678,0.000431,0.000705
136352000,0.0324,0.013523,0.002678,0.000431,0.000940
136353000,0.0324,0.013523,0.002678,0.000431,0.000705
136354000,0.0324,0.013523,0.002678,0.000431,0.000940
136355000,0.0324,0.013523,0.002678,0.000431,0.000823
136356000,0.0324,0.013523,0.002678,0.000431,0.000823
136357000,0.0324,0.013523,0.002678,0.000431,0.000940
136358000,0.0324,0.013523,0.002678,0.000431,0.000705
136359000,0.0324,0.013523,0.002678,0.000431,0.000940
136360000,0.0324,0.013523,0.002678,0.000431,0.000823
136361000,0.0324,0.013523,0.002678,0.000431,0.000823
136362000,0.0324,0.013523,0.002678,0.000431,0.000823
136363000,0.0324,0.013523,0.002678,0.000431,0.000823
136364000,0.0324,0.013523,0.002678,0.000431,0.000823
136365000,0.0324,0.013523,0.002678,0.000431,0.000823
136366000,0.0324,0.013523,0.002678,0.000431,0.000940
136367000,0.0324,0.013523,0.002678,0.000431,0.000705
136368000,0.0324,0.013523,0.002678,0.000431,0.000823
136369000,0.0324,0.013523,0.002678,0.000431,0.000940
136370000,0.0324,0.013523,0.002678,0.000431,0.000823
136371000,0.0324,0.013523,0.002678,0.000431,0.000823
136372000,0.0324,0.013523,0.002678,0.000431,0.000823
136373000,0.0324,0.013523,0.002678,0.000431,0.000705
136374000,0.0324,0.013523,0.002678,0.000431,0.000940
136375000,0.0324,0.013523,0.002678,0.000431,0.000940
136376000,0.0324,0.013523,0.002678,0.000431,0.000705
136377000,0.0324,0.013523,0.002678,0.000431,0.000940
136378000,0.0324,0.013523,0.002678,0.000431,0.000705
136379000,0.0324,0.013523,0.002678,0.000431,0.000940
136380000,0.0324,0.013523,0.002678,0.000431,0.000705
136381000,0.0324,0.013523,0.002678,0.000431,0.027619
136382000,0.0324,0.013523,0.002678,0.000431,0.721741
136383000,0.0324,0.013523,0.002678,0.000431,0.574948
136384000,0.0324,0.013523,0.002678,0.000431,0.133982
136385000,0.0324,0.013523,0.002678,0.000431,0.135863
136386000,0.0324,0.013523,0.002678,0.000431,0.554498
136387000,0.0324,0.013523,0.002678,0.000431,0.234469
136388000,0.0324,0.013523,0.002678,0.000431,0.352820
136389000,0.0324,0.013523,0.002678,0.000431,0.212726
136390000,0.0324,0.013523,0.002678,0.000431,0.158898
136391000,0.0324,0.013523,0.002678,0.000431,0.103777
136392000,0.0324,0.013523,0.002678,0.000431,0.505724
136393000,0.0324,0.013523,0.002678,0.000431,0.260678
136394000,0.0324,0.013523,0.002678,0.000431,0.172061
136395000,0.0324,0.013523,0.002678,0.000431,0.160426
136396000,0.0324,0.013523,0.002678,0.000431,0.126225
136397000,0.0324,0.013523,0.002678,0.000431,0.114355
136398000,0.0324,0.013523,0.002678,0.000431,0.091907
136399000,0.0324,0.013523,0.002678,0.000431,0.078039
136400000,0.0324,0.013523,0.002678,0.000431,0.086853
136401000,0.0324,0.013523,0.002678,0.000431,0.063348
136402000,0.0324,0.013523,0.002678,0.000431,0.063583
136403000,0.0324,0.013523,0.002678,0.000431,0.051712
136404000,0.0324,0.013523,0.002678,0.000431,0.041958
136405000,0.0324,0.013523,0.002678,0.000431,0.044896
136406000,0.0324,0.013523,0.002678,0.000431,0.047834
136407000,0.0324,0.013523,0.002678,0.000431,0.039607
136408000,0.0324,0.013523,0.002678,0.000431,0.044191
136409000,0.0324,0.013523,0.002678,0.000431,0.035611
136410000,0.0324,0.013523,0.002678,0.000431,0.036434
136411000,0.0324,0.013523,0.002678,0.000431,0.025151
136412000,0.0324,0.013523,0.002678,0.000431,0.019745
136413000,0.0324,0.013523,0.002678,0.000431,0.015161
136414000,0.0324,0.013523,0.002678,0.000431,0.014338
136415000,0.0324,0.013523,0.002678,0.000431,0.014809
136416000,0.0324,0.013523,0.002678,0.000431,0.014456
136417000,0.0324,0.013523,0.002678,0.000431,0.014338
136418000,0.0324,0.013523,0.002678,0.000431,0.013516
136419000,0.0324,0.013523,0.002678,0.000431,0.015866
136420000,0.0324,0.013523,0.002678,0.000431,0.014573
136421000,0.0324,0.013523,0.002678,0.000431,0.011870
136422000,0.0324,0.013523,0.002678,0.000431,0.011635
136423000,0.0324,0.013523,0.002678,0.000431,0.013281
136424000,0.0324,0.013523,0.002678,0.000431,0.011870
136425000,0.0324,0.013523,0.002678,0.000431,0.010930
136426000,0.0324,0.013523,0.002678,0.000431,0.009402
136427000,0.0324,0.013523,0.002678,0.000431,0.010695
136428000,0.0324,0.013523,0.002678,0.000431,0.010930
136429000,0.0324,0.013523,0.002678,0.000431,0.008697
136430000,0.0324,0.013523,0.002678,0.000431,0.007992
136431000,0.0324,0.013523,0.002678,0.000431,0.010107
136432000,0.0324,0.013523,0.002678,0.000431,0.008815
136433000,0.0324,0.013523,0.002678,0.000431,0.006464
136434000,0.0324,0.013523,0.002678,0.000431,0.006229
136435000,0.0324,0.013523,0.002678,0.000431,0.006464
136436000,0.0324,0.013523,0.002678,0.000431,0.006347
136437000,0.0324,0.013523,0.002678,0.000431,0.006229
136438000,0.0324,0.013523,0.002678,0.000431,0.006111
136439000,0.0324,0.013523,0.002678,0.000431,0.006229
136440000,0.0324,0.013523,0.002678,0.000431,0.006229
136441000,0.0324,0.013523,0.002678,0.000431,0.009402
136442000,0.0324,0.013523,0.002678,0.000431,0.005406
136443000,0.0324,0.013523,0.002678,0.000431,0.005759
136444000,0.0324,0.013523,0.002678,0.000431,0.005171
136445000,0.0324,0.013523,0.002678,0.000431,0.005406
136446000,0.0324,0.013523,0.002678,0.000431,0.005641
136447000,0.0324,0.013523,0.002678,0.000431,0.005171
136448000,0.0324,0.013523,0.002678,0.000431,0.004936
136449000,0.0324,0.013523,0.002678,0.000431,0.004584
136450000,0.0324,0.013523,0.002678,0.000431,0.004584
136451000,0.0324,0.013523,0.002678,0.000431,0.005406
136452000,0.0324,0.013523,0.002678,0.000431,0.003173
136453000,0.0324,0.013523,0.002678,0.000431,0.003408
136454000,0.0324,0.013523,0.002678,0.000431,0.003408
136455000,0.0324,0.013523,0.002678,0.000431,0.003291
136456000,0.0324,0.013523,0.002678,0.000431,0.003291
136457000,0.0324,0.013523,0.002678,0.000431,0.003291
136458000,0.0324,0.013523,0.002678,0.000431,0.003408
136459000,0.0324,0.013523,0.002678,0.000431,0.003408
136460000,0.0324,0.013523,0.002678,0.000431,0.003291
136461000,0.0324,0.013523,0.002678,0.000431,0.003408
136462000,0.0324,0.013523,0.002678,0.000431,0.003056
136463000,0.0324,0.013523,0.002678,0.000431,0.005171
136464000,0.0324,0.013523,0.002678,0.000431,0.002703
136465000,0.0324,0.013523,0.002678,0.000431,0.002351
136466000,0.0324,0.013523,0.002678,0.000431,0.002586
136467000,0.0324,0.013523,0.002678,0.000431,0.003761
136468000,0.0324,0.013523,0.002678,0.000431,0.003643
136469000,0.0324,0.013523,0.002678,0.000431,0.001645
136470000,0.0324,0.013523,0.002678,0.000431,0.001645
136471000,0.0324,0.013523,0.002678,0.000431,0.001763
136472000,0.0324,0.013523,0.002678,0.000431,0.001528
136473000,0.0324,0.013523,0.002678,0.000431,0.001880
136474000,0.0324,0.013523,0.002678,0.000431,0.001528
136475000,0.0324,0.013523,0.002678,0.000431,0.001763
136476000,0.0324,0.013523,0.002678,0.000431,0.001645
136477000,0.0324,0.013523,0.002678,0.000431,0.001645
136478000,0.0324,0.013523,0.002678,0.000431,0.001645
136479000,0.0324,0.013523,0.002678,0.000431,0.001645
136480000,0.0324,0.013523,0.002678,0.000431,0.001763
136481000,0.0324,0.013523,0.002678,0.000431,0.001645
136482000,0.0324,0.013523,0.002678,0.000431,0.001763
136483000,0.0324,0.013523,0.002678,0.000431,0.001528
136484000,0.0324,0.013523,0.002678,0.000431,0.001763
136485000,0.0324,0.013523,0.002678,0.000431,0.001528
136486000,0.0324,0.013523,0.002678,0.000431,0.001763
136487000,0.0324,0.013523,0.002678,0.000431,0.001763
136488000,0.0324,0.013523,0.002678,0.000431,0.001528
136489000,0.0324,0.013523,0.002678,0.000431,0.001880
136490000,0.0324,0.013523,0.002678,0.000431,0.001528
136491000,0.0324,0.013523,0.002678,0.000431,0.001763
136492000,0.0324,0.013523,0.002678,0.000431,0.001528
136493000,0.0324,0.013523,0.002678,0.000431,0.001763
136494000,0.0324,0.013523,0.002678,0.000431,0.001763
136495000,0.0324,0.013523,0.002678,0.000431,0.001528
136496000,0.0324,0.013523,0.002678,0.000431,0.001880
136497000,0.0324,0.013523,0.002678,0.000431,0.001410
136498000,0.0324,0.013523,0.002678,0.000431,0.001880
136499000,0.0324,0.013523,0.002678,0.000431,0.001528
136500000,0.0324,0.013523,0.002678,0.000431,0.001763
136501000,0.0324,0.013523,0.002678,0.000431,0.001763
136502000,0.0324,0.013523,0.002678,0.000431,0.001528
136503000,0.0324,0.013523,0.002678,0.000431,0.001763
136504000,0.0324,0.013523,0.002678,0.000431,0.001645
136505000,0.0324,0.013523,0.002678,0.000431,0.001763
136506000,0.0324,0.013523,0.002678,0.000431,0.001528
136507000,0.0324,0.013523,0.002678,0.000431,0.001763
136508000,0.0324,0.013523,0.002678,0.000431,0.001645
136509000,0.0324,0.013523,0.002678,0.000431,0.001645
136510000,0.0324,0.013523,0.002678,0.000431,0.001763
136511000,0.0324,0.013523,0.002678,0.000431,0.001528
136512000,0.0324,0.013523,0.002678,0.000431,0.001763
136513000,0.0324,0.013523,0.002678,0.000431,0.001645
136514000,0.0324,0.013523,0.002678,0.000431,0.001645
136515000,0.0324,0.013523,0.002678,0.000431,0.001528
136516000,0.0324,0.013523,0.002678,0.000431,0.001880
136517000,0.0324,0.013523,0.002678,0.000431,0.001763
136518000,0.0324,0.013523,0.002678,0.000431,0.001528
136519000,0.0324,0.013523,0.002678,0.000431,0.001645
136520000,0.0324,0.013523,0.002678,0.000431,0.001645
136521000,0.0324,0.013523,0.002678,0.000431,0.001880
136522000,0.0324,0.013523,0.002678,0.000431,0.001528
136523000,0.0324,0.013523,0.002678,0.000431,0.001763
136524000,0.0324,0.013523,0.002678,0.000431,0.001645
136525000,0.0324,0.013523,0.002678,0.000431,0.001645
136526000,0.0324,0.013523,0.002678,0.000431,0.001763
136527000,0.0324,0.013523,0.002678,0.000431,0.001528
136528000,0.0324,0.013523,0.002678,0.000431,0.001880
136529000,0.0324,0.013523,0.002678,0.000431,0.001528
136530000,0.0324,0.013523,0.002678,0.000431,0.001763
136531000,0.0324,0.013523,0.002678,0.000431,0.001645
136532000,0.0324,0.013523,0.002678,0.000431,0.001645
136533000,0.0324,0.013523,0.002678,0.000431,0.001763
136534000,0.0324,0.013523,0.002678,0.000431,0.001528
136535000,0.0324,0.013523,0.002678,0.000431,0.001645
136536000,0.0324,0.013523,0.002678,0.000431,0.001763
136537000,0.0324,0.013523,0.002678,0.000431,0.001763
136538000,0.0324,0.013523,0.002678,0.000431,0.001528
136539000,0.0324,0.013523,0.002678,0.000431,0.001763
136540000,0.0324,0.013523,0.002678,0.000431,0.001528
136541000,0.0324,0.013523,0.002678,0.000431,0.001763
136542000,0.0324,0.013523,0.002678,0.000431,0.001645
136543000,0.0324,0.013523,0.002678,0.000431,0.001645
136544000,0.0324,0.013523,0.002678,0.000431,0.001880
136545000,0.0324,0.013523,0.002678,0.000431,0.001410
136546000,0.0324,0.013523,0.002678,0.000431,0.001880
136547000,0.0324,0.013523,0.002678,0.000431,0.001645
136548000,0.0324,0.013523,0.002678,0.000431,0.001645
136549000,0.0324,0.013523,0.002678,0.000431,0.001763
136550000,0.0324,0.013523,0.002678,0.000431,0.003056
136551000,0.0324,0.013523,0.002678,0.000431,0.002586
136552000,0.0324,0.013523,0.002678,0.000431,0.542393
136553000,0.0324,0.013523,0.002678,0.000431,0.747244
136554000,0.0324,0.013523,0.002678,0.000431,0.151846
136555000,0.0324,0.013523,0.002678,0.000431,0.133982
136556000,0.0324,0.013523,0.002678,0.000431,0.530640
136557000,0.0324,0.013523,0.002678,0.000431,0.242108
136558000,0.0324,0.013523,0.002678,0.000431,0.327904
136559000,0.0324,0.013523,0.002678,0.000431,0.243636
136560000,0.0324,0.013523,0.002678,0.000431,0.165950
136561000,0.0324,0.013523,0.002678,0.000431,0.109889
136562000,0.0324,0.013523,0.002678,0.000431,0.479633
136563000,0.0324,0.013523,0.002678,0.000431,0.311802
136564000,0.0324,0.013523,0.002678,0.000431,0.196272
136565000,0.0324,0.013523,0.002678,0.000431,0.154079
136566000,0.0324,0.013523,0.002678,0.000431,0.125755
136567000,0.0324,0.013523,0.002678,0.000431,0.094845
136568000,0.0324,0.013523,0.002678,0.000431,0.085325
136569000,0.0324,0.013523,0.002678,0.000431,0.061115
136570000,0.0324,0.013523,0.002678,0.000431,0.067696
136571000,0.0324,0.013523,0.002678,0.000431,0.046776
136572000,0.0324,0.013523,0.002678,0.000431,0.042545
136573000,0.0324,0.013523,0.002678,0.000431,0.038314
136574000,0.0324,0.013523,0.002678,0.000431,0.038197
136575000,0.0324,0.013523,0.002678,0.000431,0.028794
136576000,0.0324,0.013523,0.002678,0.000431,0.027384
136577000,0.0324,0.013523,0.002678,0.000431,0.033848
136578000,0.0324,0.013523,0.002678,0.000431,0.029970
136579000,0.0324,0.013523,0.002678,0.000431,0.032085
136580000,0.0324,0.013523,0.002678,0.000431,0.020685
136581000,0.0324,0.013523,0.002678,0.000431,0.021508
136582000,0.0324,0.013523,0.002678,0.000431,0.017277
136583000,0.0324,0.013523,0.002678,0.000431,0.016689
136584000,0.0324,0.013523,0.002678,0.000431,0.014573
136585000,0.0324,0.013523,0.002678,0.000431,0.013163
136586000,0.0324,0.013523,0.002678,0.000431,0.015279
136587000,0.0324,0.013523,0.002678,0.000431,0.009755
136588000,0.0324,0.013523,0.002678,0.000431,0.009520
136589000,0.0324,0.013523,0.002678,0.000431,0.007992
136590000,0.0324,0.013523,0.002678,0.000431,0.007404
136591000,0.0324,0.013523,0.002678,0.000431,0.007874
136592000,0.0324,0.013523,0.002678,0.000431,0.007522
136593000,0.0324,0.013523,0.002678,0.000431,0.011988
136594000,0.0324,0.013523,0.002678,0.000431,0.009050
136595000,0.0324,0.013523,0.002678,0.000431,0.005054
136596000,0.0324,0.013523,0.002678,0.000431,0.007639
136597000,0.0324,0.013523,0.002678,0.000431,0.003761
136598000,0.0324,0.013523,0.002678,0.000431,0.006229
136599000,0.0324,0.013523,0.002678,0.000431,0.003643
136600000,0.0324,0.013523,0.002678,0.000431,0.007874
136601000,0.0324,0.013523,0.002678,0.000431,0.004584
136602000,0.0324,0.013523,0.002678,0.000431,0.000940
136603000,0.0324,0.013523,0.002678,0.000431,0.000940
136604000,0.0324,0.013523,0.002678,0.000431,0.000823
136605000,0.0324,0.013523,0.002678,0.000431,0.000823
136606000,0.0324,0.013523,0.002678,0.000431,0.000823
136607000,0.0324,0.013523,0.002678,0.000431,0.000823
136608000,0.0324,0.013523,0.002678,0.000431,0.000823
136609000,0.0324,0.013523,0.002678,0.000431,0.000823
136610000,0.0324,0.013523,0.002678,0.000431,0.000940
136611000,0.0324,0.013523,0.002678,0.000431,0.000705
136612000,0.0324,0.013523,0.002678,0.000431,0.000940
136613000,0.0324,0.013523,0.002678,0.000431,0.000823
136614000,0.0324,0.013523,0.002678,0.000431,0.000823
136615000,0.0324,0.013523,0.002678,0.000431,0.000705
136616000,0.0324,0.013523,0.002678,0.000431,0.000940
136617000,0.0324,0.013523,0.002678,0.000431,0.000940
136618000,0.0324,0.013523,0.002678,0.000431,0.000705
136619000,0.0324,0.013523,0.002678,0.000431,0.000940
136620000,0.0324,0.013523,0.002678,0.000431,0.000705
136621000,0.0324,0.013523,0.002678,0.000431,0.000940
136622000,0.0324,0.013523,0.002678,0.000431,0.000823
136623000,0.0324,0.013523,0.002678,0.000431,0.000823
136624000,0.0324,0.013523,0.002678,0.000431,0.000940
136625000,0.0324,0.013523,0.002678,0.000431,0.000705
136626000,0.0324,0.013523,0.002678,0.000431,0.000940
136627000,0.0324,0.013523,0.002678,0.000431,0.000823
136628000,0.0324,0.013523,0.002678,0.000431,0.000823
136629000,0.0324,0.013523,0.002678,0.000431,0.000823
136630000,0.0324,0.013523,0.002678,0.000431,0.000823
136631000,0.0324,0.013523,0.002678,0.000431,0.000823
136632000,0.0324,0.013523,0.002678,0.000431,0.000823
136633000,0.0324,0.013523,0.002678,0.000431,0.000823
136634000,0.0324,0.013523,0.002678,0.000431,0.000823
136635000,0.0324,0.013523,0.002678,0.000431,0.000823
136636000,0.0324,0.013523,0.002678,0.000431,0.000823
136637000,0.0324,0.013523,0.002678,0.000431,0.000940
136638000,0.0324,0.013523,0.002678,0.000431,0.000823
136639000,0.0324,0.013523,0.002678,0.000431,0.000823
136640000,0.0324,0.013523,0.002678,0.000431,0.000705
136641000,0.0324,0.013523,0.002678,0.000431,0.000940
136642000,0.0324,0.013523,0.002678,0.000431,0.000940
136643000,0.0324,0.013523,0.002678,0.000431,0.000705
136644000,0.0324,0.013523,0.002678,0.000431,0.000940
136645000,0.0324,0.013523,0.002678,0.000431,0.000705
136646000,0.0324,0.013523,0.002678,0.000431,0.000940
136647000,0.0324,0.013523,0.002678,0.000431,0.000940
136648000,0.0324,0.013523,0.002678,0.000431,0.000823
136649000,0.0324,0.013523,0.002678,0.000431,0.000823
136650000,0.0324,0.013523,0.002678,0.000431,0.000940
136651000,0.0324,0.013523,0.002678,0.000431,0.010342
136652000,0.0324,0.013523,0.002678,0.000431,0.666855
136653000,0.0324,0.013523,0.002678,0.000431,0.669911
136654000,0.0324,0.013523,0.002678,0.000431,0.135392
136655000,0.0324,0.013523,0.002678,0.000431,0.135863
136656000,0.0324,0.013523,0.002678,0.000431,0.536281
136657000,0.0324,0.013523,0.002678,0.000431,0.271960
136658000,0.0324,0.013523,0.002678,0.000431,0.300049
136659000,0.0324,0.013523,0.002678,0.000431,0.215547
136660000,0.0324,0.013523,0.002678,0.000431,0.170651
136661000,0.0324,0.013523,0.002678,0.000431,0.107421
136662000,0.0324,0.013523,0.002678,0.000431,0.467880
136663000,0.0324,0.013523,0.002678,0.000431,0.275839
136664000,0.0324,0.013523,0.002678,0.000431,0.182521
136665000,0.0324,0.013523,0.002678,0.000431,0.151259
136666000,0.0324,0.013523,0.002678,0.000431,0.123875
136667000,0.0324,0.013523,0.002678,0.000431,0.104835
136668000,0.0324,0.013523,0.002678,0.000431,0.090497
136669000,0.0324,0.013523,0.002678,0.000431,0.082857
136670000,0.0324,0.013523,0.002678,0.000431,0.059939
136671000,0.0324,0.013523,0.002678,0.000431,0.070282
136672000,0.0324,0.013523,0.002678,0.000431,0.055708
136673000,0.0324,0.013523,0.002678,0.000431,0.043368
136674000,0.0324,0.013523,0.002678,0.000431,0.030322
136675000,0.0324,0.013523,0.002678,0.000431,0.030087
136676000,0.0324,0.013523,0.002678,0.000431,0.034083
136677000,0.0324,0.013523,0.002678,0.000431,0.030322
136678000,0.0324,0.013523,0.002678,0.000431,0.024328
136679000,0.0324,0.013523,0.002678,0.000431,0.021743
136680000,0.0324,0.013523,0.002678,0.000431,0.023271
136681000,0.0324,0.013523,0.002678,0.000431,0.018569
136682000,0.0324,0.013523,0.002678,0.000431,0.020567
136683000,0.0324,0.013523,0.002678,0.000431,0.020215
136684000,0.0324,0.013523,0.002678,0.000431,0.021860
136685000,0.0324,0.013523,0.002678,0.000431,0.019157
136686000,0.0324,0.013523,0.002678,0.000431,0.025386
136687000,0.0324,0.013523,0.002678,0.000431,0.018452
136688000,0.0324,0.013523,0.002678,0.000431,0.014338
136689000,0.0324,0.013523,0.002678,0.000431,0.017159
136690000,0.0324,0.013523,0.002678,0.000431,0.017394
136691000,0.0324,0.013523,0.002678,0.000431,0.013163
136692000,0.0324,0.013523,0.002678,0.000431,0.013868
136693000,0.0324,0.013523,0.002678,0.000431,0.013163
136694000,0.0324,0.013523,0.002678,0.000431,0.013868
136695000,0.0324,0.013523,0.002678,0.000431,0.013046
136696000,0.0324,0.013523,0.002678,0.000431,0.011048
136697000,0.0324,0.013523,0.002678,0.000431,0.011048
136698000,0.0324,0.013523,0.002678,0.000431,0.014103
136699000,0.0324,0.013523,0.002678,0.000431,0.007052
136700000,0.0324,0.013523,0.002678,0.000431,0.010107
136701000,0.0324,0.013523,0.002678,0.000431,0.004936
136702000,0.0324,0.013523,0.002678,0.000431,0.004936
136703000,0.0324,0.013523,0.002678,0.000431,0.004936
136704000,0.0324,0.013523,0.002678,0.000431,0.005054
136705000,0.0324,0.013523,0.002678,0.000431,0.004819
136706000,0.0324,0.013523,0.002678,0.000431,0.006464
136707000,0.0324,0.013523,0.002678,0.000431,0.005289
136708000,0.0324,0.013523,0.002678,0.000431,0.005876
136709000,0.0324,0.013523,0.002678,0.000431,0.002938
136710000,0.0324,0.013523,0.002678,0.000431,0.003526
136711000,0.0324,0.013523,0.002678,0.000431,0.003291
136712000,0.0324,0.013523,0.002678,0.000431,0.002938
136713000,0.0324,0.013523,0.002678,0.000431,0.003761
136714000,0.0324,0.013523,0.002678,0.000431,0.002821
136715000,0.0324,0.013523,0.002678,0.000431,0.003526
136716000,0.0324,0.013523,0.002678,0.000431,0.003173
136717000,0.0324,0.013523,0.002678,0.000431,0.003056
136718000,0.0324,0.013523,0.002678,0.000431,0.003526
136719000,0.0324,0.013523,0.002678,0.000431,0.003173
136720000,0.0324,0.013523,0.002678,0.000431,0.003408
136721000,0.0324,0.013523,0.002678,0.000431,0.003056
136722000,0.0324,0.013523,0.002678,0.000431,0.004701
136723000,0.0324,0.013523,0.002678,0.000431,0.001763
136724000,0.0324,0.013523,0.002678,0.000431,0.001763
136725000,0.0324,0.013523,0.002678,0.000431,0.001528
136726000,0.0324,0.013523,0.002678,0.000431,0.001763
136727000,0.0324,0.013523,0.002678,0.000431,0.001528
136728000,0.0324,0.013523,0.002678,0.000431,0.001763
136729000,0.0324,0.013523,0.002678,0.000431,0.001763
136730000,0.0324,0.013523,0.002678,0.000431,0.001528
136731000,0.0324,0.013523,0.002678,0.000431,0.004231
136732000,0.0324,0.013523,0.002678,0.000431,0.000823
136733000,0.0324,0.013523,0.002678,0.000431,0.000940
136734000,0.0324,0.013523,0.002678,0.000431,0.000705
136735000,0.0324,0.013523,0.002678,0.000431,0.000940
136736000,0.0324,0.013523,0.002678,0.000431,0.000823
136737000,0.0324,0.013523,0.002678,0.000431,0.000823
136738000,0.0324,0.013523,0.002678,0.000431,0.000823
136739000,0.0324,0.013523,0.002678,0.000431,0.000823
136740000,0.0324,0.013523,0.002678,0.000431,0.000940
136741000,0.0324,0.013523,0.002678,0.000431,0.000705
136742000,0.0324,0.013523,0.002678,0.000431,0.000940
136743000,0.0324,0.013523,0.002678,0.000431,0.000823
136744000,0.0324,0.013523,0.002678,0.000431,0.000823
136745000,0.0324,0.013523,0.002678,0.000431,0.000705
136746000,0.0324,0.013523,0.002678,0.000431,0.000940
136747000,0.0324,0.013523,0.002678,0.000431,0.000940
136748000,0.0324,0.013523,0.002678,0.000431,0.000705
136749000,0.0324,0.013523,0.002678,0.000431,0.000940
136750000,0.0324,0.013523,0.002678,0.000431,0.000705
136751000,0.0324,0.013523,0.002678,0.000431,0.000940
136752000,0.0324,0.013523,0.002678,0.000431,0.000823
136753000,0.0324,0.013523,0.002678,0.000431,0.000823
136754000,0.0324,0.013523,0.002678,0.000431,0.000940
136755000,0.0324,0.013523,0.002678,0.000431,0.000705
136756000,0.0324,0.013523,0.002678,0.000431,0.000940
136757000,0.0324,0.013523,0.002678,0.000431,0.000823
136758000,0.0324,0.013523,0.002678,0.000431,0.000823
136759000,0.0324,0.013523,0.002678,0.000431,0.000823
136760000,0.0324,0.013523,0.002678,0.000431,0.000823
136761000,0.0324,0.013523,0.002678,0.000431,0.000823
136762000,0.0324,0.013523,0.002678,0.000431,0.000823
136763000,0.0324,0.013523,0.002678,0.000431,0.000940
136764000,0.0324,0.013523,0.002678,0.000431,0.000705
136765000,0.0324,0.013523,0.002678,0.000431,0.000823
136766000,0.0324,0.013523,0.002678,0.000431,0.000940
136767000,0.0324,0.013523,0.002678,0.000431,0.000823
136768000,0.0324,0.013523,0.002678,0.000431,0.000823
136769000,0.0324,0.013523,0.002678,0.000431,0.000823
136770000,0.0324,0.013523,0.002678,0.000431,0.000705
136771000,0.0324,0.013523,0.002678,0.000431,0.000940
136772000,0.0324,0.013523,0.002678,0.000431,0.070869
136773000,0.0324,0.013523,0.002678,0.000431,0.673907
136774000,0.0324,0.013523,0.002678,0.000431,0.554615
136775000,0.0324,0.013523,0.002678,0.000431,0.142562
136776000,0.0324,0.013523,0.002678,0.000431,0.159251
136777000,0.0324,0.013523,0.002678,0.000431,0.634652
136778000,0.0324,0.013523,0.002678,0.000431,0.246927
136779000,0.0324,0.013523,0.002678,0.000431,0.330842
136780000,0.0324,0.013523,0.002678,0.000431,0.154550
136781000,0.0324,0.013523,0.002678,0.000431,0.182169
136782000,0.0324,0.013523,0.002678,0.000431,0.083092
136783000,0.0324,0.013523,0.002678,0.000431,0.553675
136784000,0.0324,0.013523,0.002678,0.000431,0.241285
136785000,0.0324,0.013523,0.002678,0.000431,0.187693
136786000,0.0324,0.013523,0.002678,0.000431,0.167713
136787000,0.0324,0.013523,0.002678,0.000431,0.136098
136788000,0.0324,0.013523,0.002678,0.000431,0.104247
136789000,0.0324,0.013523,0.002678,0.000431,0.086736
136790000,0.0324,0.013523,0.002678,0.000431,0.076981
136791000,0.0324,0.013523,0.002678,0.000431,0.058529
136792000,0.0324,0.013523,0.002678,0.000431,0.047716
136793000,0.0324,0.013523,0.002678,0.000431,0.043485
136794000,0.0324,0.013523,0.002678,0.000431,0.042075
136795000,0.0324,0.013523,0.002678,0.000431,0.040547
136796000,0.0324,0.013523,0.002678,0.000431,0.038902
136797000,0.0324,0.013523,0.002678,0.000431,0.036669
136798000,0.0324,0.013523,0.002678,0.000431,0.032203
136799000,0.0324,0.013523,0.002678,0.000431,0.032555
136800000,0.0324,0.013523,0.002678,0.000431,0.034083
136801000,0.0324,0.013523,0.002678,0.000431,0.029735
136802000,0.0324,0.013523,0.002678,0.000431,0.024211
136803000,0.0324,0.013523,0.002678,0.000431,0.024916
136804000,0.0324,0.013523,0.002678,0.000431,0.024328
136805000,0.0324,0.013523,0.002678,0.000431,0.026209
136806000,0.0324,0.013523,0.002678,0.000431,0.025034
136807000,0.0324,0.013523,0.002678,0.000431,0.025386
136808000,0.0324,0.013523,0.002678,0.000431,0.026326
136809000,0.0324,0.013523,0.002678,0.000431,0.019275
136810000,0.0324,0.013523,0.002678,0.000431,0.028089
136811000,0.0324,0.013523,0.002678,0.000431,0.016101
136812000,0.0324,0.013523,0.002678,0.000431,0.016571
136813000,0.0324,0.013523,0.002678,0.000431,0.015631
136814000,0.0324,0.013523,0.002678,0.000431,0.014456
136815000,0.0324,0.013523,0.002678,0.000431,0.015044
136816000,0.0324,0.013523,0.002678,0.000431,0.011283
136817000,0.0324,0.013523,0.002678,0.000431,0.015279
136818000,0.0324,0.013523,0.002678,0.000431,0.012576
136819000,0.0324,0.013523,0.002678,0.000431,0.010460
136820000,0.0324,0.013523,0.002678,0.000431,0.012811
136821000,0.0324,0.013523,0.002678,0.000431,0.010342
136822000,0.0324,0.013523,0.002678,0.000431,0.009637
136823000,0.0324,0.013523,0.002678,0.000431,0.013046
136824000,0.0324,0.013523,0.002678,0.000431,0.008462
136825000,0.0324,0.013523,0.002678,0.000431,0.007874
136826000,0.0324,0.013523,0.002678,0.000431,0.009990
136827000,0.0324,0.013523,0.002678,0.000431,0.005289
136828000,0.0324,0.013523,0.002678,0.000431,0.004936
136829000,0.0324,0.013523,0.002678,0.000431,0.004231
136830000,0.0324,0.013523,0.002678,0.000431,0.004936
136831000,0.0324,0.013523,0.002678,0.000431,0.005406
136832000,0.0324,0.013523,0.002678,0.000431,0.003761
136833000,0.0324,0.013523,0.002678,0.000431,0.004819
136834000,0.0324,0.013523,0.002678,0.000431,0.004584
136835000,0.0324,0.013523,0.002678,0.000431,0.004936
136836000,0.0324,0.013523,0.002678,0.000431,0.004231
136837000,0.0324,0.013523,0.002678,0.000431,0.005406
136838000,0.0324,0.013523,0.002678,0.000431,0.003878
136839000,0.0324,0.013523,0.002678,0.000431,0.005054
136840000,0.0324,0.013523,0.002678,0.000431,0.004584
136841000,0.0324,0.013523,0.002678,0.000431,0.004819
136842000,0.0324,0.013523,0.002678,0.000431,0.006582
136843000,0.0324,0.013523,0.002678,0.000431,0.003996
136844000,0.0324,0.013523,0.002678,0.000431,0.003056
136845000,0.0324,0.013523,0.002678,0.000431,0.003526
136846000,0.0324,0.013523,0.002678,0.000431,0.002938
136847000,0.0324,0.013523,0.002678,0.000431,0.003408
136848000,0.0324,0.013523,0.002678,0.000431,0.003056
136849000,0.0324,0.013523,0.002678,0.000431,0.003526
136850000,0.0324,0.013523,0.002678,0.000431,0.003291
136851000,0.0324,0.013523,0.002678,0.000431,0.002821
136852000,0.0324,0.013523,0.002678,0.000431,0.003761
136853000,0.0324,0.013523,0.002678,0.000431,0.003056
136854000,0.0324,0.013523,0.002678,0.000431,0.002821
136855000,0.0324,0.013523,0.002678,0.000431,0.002821
136856000,0.0324,0.013523,0.002678,0.000431,0.002586
136857000,0.0324,0.013523,0.002678,0.000431,0.003761
136858000,0.0324,0.013523,0.002678,0.000431,0.003291
136859000,0.0324,0.013523,0.002678,0.000431,0.003173
136860000,0.0324,0.013523,0.002678,0.000431,0.003408
136861000,0.0324,0.013523,0.002678,0.000431,0.003056
136862000,0.0324,0.013523,0.002678,0.000431,0.003526
136863000,0.0324,0.013523,0.002678,0.000431,0.003291
136864000,0.0324,0.013523,0.002678,0.000431,0.003173
136865000,0.0324,0.013523,0.002678,0.000431,0.002938
136866000,0.0324,0.013523,0.002678,0.000431,0.003526
136867000,0.0324,0.013523,0.002678,0.000431,0.002938
136868000,0.0324,0.013523,0.002678,0.000431,0.003526
136869000,0.0324,0.013523,0.002678,0.000431,0.003173
136870000,0.0324,0.013523,0.002678,0.000431,0.003173
136871000,0.0324,0.013523,0.002678,0.000431,0.005641
136872000,0.0324,0.013523,0.002678,0.000431,0.002351
136873000,0.0324,0.013523,0.002678,0.000431,0.002351
136874000,0.0324,0.013523,0.002678,0.000431,0.002586
136875000,0.0324,0.013523,0.002678,0.000431,0.002351
136876000,0.0324,0.013523,0.002678,0.000431,0.002351
136877000,0.0324,0.013523,0.002678,0.000431,0.002703
136878000,0.0324,0.013523,0.002678,0.000431,0.000823
136879000,0.0324,0.013523,0.002678,0.000431,0.000940
136880000,0.0324,0.013523,0.002678,0.000431,0.000705
136881000,0.0324,0.013523,0.002678,0.000431,0.000940
136882000,0.0324,0.013523,0.002678,0.000431,0.001880
136883000,0.0324,0.013523,0.002678,0.000431,0.422749
136884000,0.0324,0.013523,0.002678,0.000431,0.790259
136885000,0.0324,0.013523,0.002678,0.000431,0.203794
136886000,0.0324,0.013523,0.002678,0.000431,0.136920
136887000,0.0324,0.013523,0.002678,0.000431,0.511365
136888000,0.0324,0.013523,0.002678,0.000431,0.298287
136889000,0.0324,0.013523,0.002678,0.000431,0.285711
136890000,0.0324,0.013523,0.002678,0.000431,0.251745
136891000,0.0324,0.013523,0.002678,0.000431,0.160073
136892000,0.0324,0.013523,0.002678,0.000431,0.103777
136893000,0.0324,0.013523,0.002678,0.000431,0.363162
136894000,0.0324,0.013523,0.002678,0.000431,0.369861
136895000,0.0324,0.013523,0.002678,0.000431,0.169593
136896000,0.0324,0.013523,0.002678,0.000431,0.141269
136897000,0.0324,0.013523,0.002678,0.000431,0.130221
136898000,0.0324,0.013523,0.002678,0.000431,0.099546
136899000,0.0324,0.013523,0.002678,0.000431,0.103542
136900000,0.0324,0.013523,0.002678,0.000431,0.074043
136901000,0.0324,0.013523,0.002678,0.000431,0.057471
136902000,0.0324,0.013523,0.002678,0.000431,0.054651
136903000,0.0324,0.013523,0.002678,0.000431,0.046306
136904000,0.0324,0.013523,0.002678,0.000431,0.035846
136905000,0.0324,0.013523,0.002678,0.000431,0.040547
136906000,0.0324,0.013523,0.002678,0.000431,0.034436
136907000,0.0324,0.013523,0.002678,0.000431,0.029852
136908000,0.0324,0.013523,0.002678,0.000431,0.027972
136909000,0.0324,0.013523,0.002678,0.000431,0.029735
136910000,0.0324,0.013523,0.002678,0.000431,0.027384
136911000,0.0324,0.013523,0.002678,0.000431,0.029735
136912000,0.0324,0.013523,0.002678,0.000431,0.024211
136913000,0.0324,0.013523,0.002678,0.000431,0.020920
136914000,0.0324,0.013523,0.002678,0.000431,0.029147
136915000,0.0324,0.013523,0.002678,0.000431,0.021390
136916000,0.0324,0.013523,0.002678,0.000431,0.017277
136917000,0.0324,0.013523,0.002678,0.000431,0.017277
136918000,0.0324,0.013523,0.002678,0.000431,0.017629
136919000,0.0324,0.013523,0.002678,0.000431,0.015866
136920000,0.0324,0.013523,0.002678,0.000431,0.013868
136921000,0.0324,0.013523,0.002678,0.000431,0.014221
136922000,0.0324,0.013523,0.002678,0.000431,0.013398
136923000,0.0324,0.013523,0.002678,0.000431,0.013868
136924000,0.0324,0.013523,0.002678,0.000431,0.014221
136925000,0.0324,0.013523,0.002678,0.000431,0.014103
136926000,0.0324,0.013523,0.002678,0.000431,0.013046
136927000,0.0324,0.013523,0.002678,0.000431,0.013398
136928000,0.0324,0.013523,0.002678,0.000431,0.014221
136929000,0.0324,0.013523,0.002678,0.000431,0.012693
136930000,0.0324,0.013523,0.002678,0.000431,0.011988
136931000,0.0324,0.013523,0.002678,0.000431,0.012340
136932000,0.0324,0.013523,0.002678,0.000431,0.011283
136933000,0.0324,0.013523,0.002678,0.000431,0.012458
136934000,0.0324,0.013523,0.002678,0.000431,0.012693
136935000,0.0324,0.013523,0.002678,0.000431,0.011048
136936000,0.0324,0.013523,0.002678,0.000431,0.013046
136937000,0.0324,0.013523,0.002678,0.000431,0.010813
136938000,0.0324,0.013523,0.002678,0.000431,0.008932
136939000,0.0324,0.013523,0.002678,0.000431,0.009402
136940000,0.0324,0.013523,0.002678,0.000431,0.008462
136941000,0.0324,0.013523,0.002678,0.000431,0.008462
136942000,0.0324,0.013523,0.002678,0.000431,0.009167
136943000,0.0324,0.013523,0.002678,0.000431,0.008109
136944000,0.0324,0.013523,0.002678,0.000431,0.009167
136945000,0.0324,0.013523,0.002678,0.000431,0.007052
136946000,0.0324,0.013523,0.002678,0.000431,0.007874
136947000,0.0324,0.013523,0.002678,0.000431,0.006817
136948000,0.0324,0.013523,0.002678,0.000431,0.007287
136949000,0.0324,0.013523,0.002678,0.000431,0.007404
136950000,0.0324,0.013523,0.002678,0.000431,0.006817
136951000,0.0324,0.013523,0.002678,0.000431,0.007287
136952000,0.0324,0.013523,0.002678,0.000431,0.006582
136953000,0.0324,0.013523,0.002678,0.000431,0.009520
136954000,0.0324,0.013523,0.002678,0.000431,0.005641
136955000,0.0324,0.013523,0.002678,0.000431,0.005876
136956000,0.0324,0.013523,0.002678,0.000431,0.011400
136957000,0.0324,0.013523,0.002678,0.000431,0.003996
136958000,0.0324,0.013523,0.002678,0.000431,0.004349
136959000,0.0324,0.013523,0.002678,0.000431,0.003996
136960000,0.0324,0.013523,0.002678,0.000431,0.004231
136961000,0.0324,0.013523,0.002678,0.000431,0.005289
136962000,0.0324,0.013523,0.002678,0.000431,0.004584
136963000,0.0324,0.013523,0.002678,0.000431,0.003173
136964000,0.0324,0.013523,0.002678,0.000431,0.003291
136965000,0.0324,0.013523,0.002678,0.000431,0.003526
136966000,0.0324,0.013523,0.002678,0.000431,0.003408
136967000,0.0324,0.013523,0.002678,0.000431,0.003056
136968000,0.0324,0.013523,0.002678,0.000431,0.003526
136969000,0.0324,0.013523,0.002678,0.000431,0.002938
136970000,0.0324,0.013523,0.002678,0.000431,0.003643
136971000,0.0324,0.013523,0.002678,0.000431,0.002821
136972000,0.0324,0.013523,0.002678,0.000431,0.003643
136973000,0.0324,0.013523,0.002678,0.000431,0.003173
136974000,0.0324,0.013523,0.002678,0.000431,0.003173
136975000,0.0324,0.013523,0.002678,0.000431,0.003526
136976000,0.0324,0.013523,0.002678,0.000431,0.002938
136977000,0.0324,0.013523,0.002678,0.000431,0.003526
136978000,0.0324,0.013523,0.002678,0.000431,0.003291
136979000,0.0324,0.013523,0.002678,0.000431,0.003173
136980000,0.0324,0.013523,0.002678,0.000431,0.003173
136981000,0.0324,0.013523,0.002678,0.000431,0.002938
136982000,0.0324,0.013523,0.002678,0.000431,0.003643
136983000,0.0324,0.013523,0.002678,0.000431,0.002821
136984000,0.0324,0.013523,0.002678,0.000431,0.003526
136985000,0.0324,0.013523,0.002678,0.000431,0.003173
136986000,0.0324,0.013523,0.002678,0.000431,0.003878
136987000,0.0324,0.013523,0.002678,0.000431,0.005171
136988000,0.0324,0.013523,0.002678,0.000431,0.000940
136989000,0.0324,0.013523,0.002678,0.000431,0.000940
136990000,0.0324,0.013523,0.002678,0.000431,0.000940
136991000,0.0324,0.013523,0.002678,0.000431,0.003996
136992000,0.0324,0.013523,0.002678,0.000431,0.554968
136993000,0.0324,0.013523,0.002678,0.000431,0.684837
136994000,0.0324,0.013523,0.002678,0.000431,0.144560
136995000,0.0324,0.013523,0.002678,0.000431,0.134687
136996000,0.0324,0.013523,0.002678,0.000431,0.523588
136997000,0.0324,0.013523,0.002678,0.000431,0.241520
136998000,0.0324,0.013523,0.002678,0.000431,0.301225
136999000,0.0324,0.013523,0.002678,0.000431,0.276896
