Cycle,Area(mm^2),PeakDynamic(W),SubthresholdLeakage(W),GateLeakage(W),RunTimeDynamic(W)
134000000,0.0324,0.013523,0.002678,0.000431,0.004113
134001000,0.0324,0.013523,0.002678,0.000431,0.004349
134002000,0.0324,0.013523,0.002678,0.000431,0.004584
134003000,0.0324,0.013523,0.002678,0.000431,0.003996
134004000,0.0324,0.013523,0.002678,0.000431,0.004349
134005000,0.0324,0.013523,0.002678,0.000431,0.004466
134006000,0.0324,0.013523,0.002678,0.000431,0.004231
134007000,0.0324,0.013523,0.002678,0.000431,0.005406
134008000,0.0324,0.013523,0.002678,0.000431,0.003526
134009000,0.0324,0.013523,0.002678,0.000431,0.003526
134010000,0.0324,0.013523,0.002678,0.000431,0.003291
134011000,0.0324,0.013523,0.002678,0.000431,0.003526
134012000,0.0324,0.013523,0.002678,0.000431,0.003291
134013000,0.0324,0.013523,0.002678,0.000431,0.003643
134014000,0.0324,0.013523,0.002678,0.000431,0.003291
134015000,0.0324,0.013523,0.002678,0.000431,0.004349
134016000,0.0324,0.013523,0.002678,0.000431,0.002703
134017000,0.0324,0.013523,0.002678,0.000431,0.002586
134018000,0.0324,0.013523,0.002678,0.000431,0.002468
134019000,0.0324,0.013523,0.002678,0.000431,0.002586
134020000,0.0324,0.013523,0.002678,0.000431,0.002586
134021000,0.0324,0.013523,0.002678,0.000431,0.002468
134022000,0.0324,0.013523,0.002678,0.000431,0.002586
134023000,0.0324,0.013523,0.002678,0.000431,0.002468
134024000,0.0324,0.013523,0.002678,0.000431,0.002586
134025000,0.0324,0.013523,0.002678,0.000431,0.002468
134026000,0.0324,0.013523,0.002678,0.000431,0.002586
134027000,0.0324,0.013523,0.002678,0.000431,0.002468
134028000,0.0324,0.013523,0.002678,0.000431,0.002703
134029000,0.0324,0.013523,0.002678,0.000431,0.003408
134030000,0.0324,0.013523,0.002678,0.000431,0.003643
134031000,0.0324,0.013523,0.002678,0.000431,0.001528
134032000,0.0324,0.013523,0.002678,0.000431,0.001645
134033000,0.0324,0.013523,0.002678,0.000431,0.001880
134034000,0.0324,0.013523,0.002678,0.000431,0.001645
134035000,0.0324,0.013523,0.002678,0.000431,0.001645
134036000,0.0324,0.013523,0.002678,0.000431,0.001645
134037000,0.0324,0.013523,0.002678,0.000431,0.001645
134038000,0.0324,0.013523,0.002678,0.000431,0.001763
134039000,0.0324,0.013523,0.002678,0.000431,0.001645
134040000,0.0324,0.013523,0.002678,0.000431,0.001763
134041000,0.0324,0.013523,0.002678,0.000431,0.001528
134042000,0.0324,0.013523,0.002678,0.000431,0.001763
134043000,0.0324,0.013523,0.002678,0.000431,0.001645
134044000,0.0324,0.013523,0.002678,0.000431,0.001645
134045000,0.0324,0.013523,0.002678,0.000431,0.001763
134046000,0.0324,0.013523,0.002678,0.000431,0.001528
134047000,0.0324,0.013523,0.002678,0.000431,0.001763
134048000,0.0324,0.013523,0.002678,0.000431,0.001645
134049000,0.0324,0.013523,0.002678,0.000431,0.001763
134050000,0.0324,0.013523,0.002678,0.000431,0.001410
134051000,0.0324,0.013523,0.002678,0.000431,0.001880
134052000,0.0324,0.013523,0.002678,0.000431,0.001645
134053000,0.0324,0.013523,0.002678,0.000431,0.001645
134054000,0.0324,0.013523,0.002678,0.000431,0.001763
134055000,0.0324,0.013523,0.002678,0.000431,0.001528
134056000,0.0324,0.013523,0.002678,0.000431,0.001763
134057000,0.0324,0.013523,0.002678,0.000431,0.001645
134058000,0.0324,0.013523,0.002678,0.000431,0.001763
134059000,0.0324,0.013523,0.002678,0.000431,0.001645
134060000,0.0324,0.013523,0.002678,0.000431,0.001645
134061000,0.0324,0.013523,0.002678,0.000431,0.001645
134062000,0.0324,0.013523,0.002678,0.000431,0.001763
134063000,0.0324,0.013523,0.002678,0.000431,0.001645
134064000,0.0324,0.013523,0.002678,0.000431,0.001645
134065000,0.0324,0.013523,0.002678,0.000431,0.001645
134066000,0.0324,0.013523,0.002678,0.000431,0.001645
134067000,0.0324,0.013523,0.002678,0.000431,0.001763
134068000,0.0324,0.013523,0.002678,0.000431,0.001645
134069000,0.0324,0.013523,0.002678,0.000431,0.001645
134070000,0.0324,0.013523,0.002678,0.000431,0.001528
134071000,0.0324,0.013523,0.002678,0.000431,0.001880
134072000,0.0324,0.013523,0.002678,0.000431,0.001645
134073000,0.0324,0.013523,0.002678,0.000431,0.001645
134074000,0.0324,0.013523,0.002678,0.000431,0.001763
134075000,0.0324,0.013523,0.002678,0.000431,0.001410
134076000,0.0324,0.013523,0.002678,0.000431,0.001880
134077000,0.0324,0.013523,0.002678,0.000431,0.001763
134078000,0.0324,0.013523,0.002678,0.000431,0.001528
134079000,0.0324,0.013523,0.002678,0.000431,0.001763
134080000,0.0324,0.013523,0.002678,0.000431,0.001528
134081000,0.0324,0.013523,0.002678,0.000431,0.001763
134082000,0.0324,0.013523,0.002678,0.000431,0.001763
134083000,0.0324,0.013523,0.002678,0.000431,0.001645
134084000,0.0324,0.013523,0.002678,0.000431,0.001763
134085000,0.0324,0.013523,0.002678,0.000431,0.001528
134086000,0.0324,0.013523,0.002678,0.000431,0.001763
134087000,0.0324,0.013523,0.002678,0.000431,0.001645
134088000,0.0324,0.013523,0.002678,0.000431,0.001645
134089000,0.0324,0.013523,0.002678,0.000431,0.001645
134090000,0.0324,0.013523,0.002678,0.000431,0.001645
134091000,0.0324,0.013523,0.002678,0.000431,0.001763
134092000,0.0324,0.013523,0.002678,0.000431,0.001645
134093000,0.0324,0.013523,0.002678,0.000431,0.001763
134094000,0.0324,0.013523,0.002678,0.000431,0.001645
134095000,0.0324,0.013523,0.002678,0.000431,0.001528
134096000,0.0324,0.013523,0.002678,0.000431,0.001763
134097000,0.0324,0.013523,0.002678,0.000431,0.001763
134098000,0.0324,0.013523,0.002678,0.000431,0.001645
134099000,0.0324,0.013523,0.002678,0.000431,0.001645
134100000,0.0324,0.013523,0.002678,0.000431,0.001645
134101000,0.0324,0.013523,0.002678,0.000431,0.001645
134102000,0.0324,0.013523,0.002678,0.000431,0.001763
134103000,0.0324,0.013523,0.002678,0.000431,0.001528
134104000,0.0324,0.013523,0.002678,0.000431,0.001880
134105000,0.0324,0.013523,0.002678,0.000431,0.001645
134106000,0.0324,0.013523,0.002678,0.000431,0.001645
134107000,0.0324,0.013523,0.002678,0.000431,0.001763
134108000,0.0324,0.013523,0.002678,0.000431,0.001528
134109000,0.0324,0.013523,0.002678,0.000431,0.001763
134110000,0.0324,0.013523,0.002678,0.000431,0.001645
134111000,0.0324,0.013523,0.002678,0.000431,0.001645
134112000,0.0324,0.013523,0.002678,0.000431,0.001645
134113000,0.0324,0.013523,0.002678,0.000431,0.001763
134114000,0.0324,0.013523,0.002678,0.000431,0.001645
134115000,0.0324,0.013523,0.002678,0.000431,0.001645
134116000,0.0324,0.013523,0.002678,0.000431,0.001763
134117000,0.0324,0.013523,0.002678,0.000431,0.001645
134118000,0.0324,0.013523,0.002678,0.000431,0.001528
134119000,0.0324,0.013523,0.002678,0.000431,0.001763
134120000,0.0324,0.013523,0.002678,0.000431,0.001763
134121000,0.0324,0.013523,0.002678,0.000431,0.001645
134122000,0.0324,0.013523,0.002678,0.000431,0.001645
134123000,0.0324,0.013523,0.002678,0.000431,0.001528
134124000,0.0324,0.013523,0.002678,0.000431,0.001880
134125000,0.0324,0.013523,0.002678,0.000431,0.001645
134126000,0.0324,0.013523,0.002678,0.000431,0.001645
134127000,0.0324,0.013523,0.002678,0.000431,0.001763
134128000,0.0324,0.013523,0.002678,0.000431,0.001528
134129000,0.0324,0.013523,0.002678,0.000431,0.001763
134130000,0.0324,0.013523,0.002678,0.000431,0.001763
134131000,0.0324,0.013523,0.002678,0.000431,0.001645
134132000,0.0324,0.013523,0.002678,0.000431,0.001645
134133000,0.0324,0.013523,0.002678,0.000431,0.001528
134134000,0.0324,0.013523,0.002678,0.000431,0.001763
134135000,0.0324,0.013523,0.002678,0.000431,0.001763
134136000,0.0324,0.013523,0.002678,0.000431,0.001645
134137000,0.0324,0.013523,0.002678,0.000431,0.006229
134138000,0.0324,0.013523,0.002678,0.000431,0.000705
134139000,0.0324,0.013523,0.002678,0.000431,0.000940
134140000,0.0324,0.013523,0.002678,0.000431,0.000823
134141000,0.0324,0.013523,0.002678,0.000431,0.000823
134142000,0.0324,0.013523,0.002678,0.000431,0.000940
134143000,0.0324,0.013523,0.002678,0.000431,0.000705
134144000,0.0324,0.013523,0.002678,0.000431,0.000940
134145000,0.0324,0.013523,0.002678,0.000431,0.000823
134146000,0.0324,0.013523,0.002678,0.000431,0.000823
134147000,0.0324,0.013523,0.002678,0.000431,0.000823
134148000,0.0324,0.013523,0.002678,0.000431,0.000823
134149000,0.0324,0.013523,0.002678,0.000431,0.000940
134150000,0.0324,0.013523,0.002678,0.000431,0.000705
134151000,0.0324,0.013523,0.002678,0.000431,0.000940
134152000,0.0324,0.013523,0.002678,0.000431,0.000823
134153000,0.0324,0.013523,0.002678,0.000431,0.000823
134154000,0.0324,0.013523,0.002678,0.000431,0.000823
134155000,0.0324,0.013523,0.002678,0.000431,0.000823
134156000,0.0324,0.013523,0.002678,0.000431,0.000940
134157000,0.0324,0.013523,0.002678,0.000431,0.000705
134158000,0.0324,0.013523,0.002678,0.000431,0.000940
134159000,0.0324,0.013523,0.002678,0.000431,0.000823
134160000,0.0324,0.013523,0.002678,0.000431,0.000823
134161000,0.0324,0.013523,0.002678,0.000431,0.000705
134162000,0.0324,0.013523,0.002678,0.000431,0.000940
134163000,0.0324,0.013523,0.002678,0.000431,0.000940
134164000,0.0324,0.013523,0.002678,0.000431,0.000705
134165000,0.0324,0.013523,0.002678,0.000431,0.000940
134166000,0.0324,0.013523,0.002678,0.000431,0.000705
134167000,0.0324,0.013523,0.002678,0.000431,0.000940
134168000,0.0324,0.013523,0.002678,0.000431,0.000823
134169000,0.0324,0.013523,0.002678,0.000431,0.000705
134170000,0.0324,0.013523,0.002678,0.000431,0.014691
134171000,0.0324,0.013523,0.002678,0.000431,0.725737
134172000,0.0324,0.013523,0.002678,0.000431,0.591402
134173000,0.0324,0.013523,0.002678,0.000431,0.138213
134174000,0.0324,0.013523,0.002678,0.000431,0.159486
134175000,0.0324,0.013523,0.002678,0.000431,0.604918
134176000,0.0324,0.013523,0.002678,0.000431,0.261030
134177000,0.0324,0.013523,0.002678,0.000431,0.288297
134178000,0.0324,0.013523,0.002678,0.000431,0.164187
134179000,0.0324,0.013523,0.002678,0.000431,0.158075
134180000,0.0324,0.013523,0.002678,0.000431,0.112827
134181000,0.0324,0.013523,0.002678,0.000431,0.497379
134182000,0.0324,0.013523,0.002678,0.000431,0.310862
134183000,0.0324,0.013523,0.002678,0.000431,0.189455
134184000,0.0324,0.013523,0.002678,0.000431,0.179818
134185000,0.0324,0.013523,0.002678,0.000431,0.138096
134186000,0.0324,0.013523,0.002678,0.000431,0.121642
134187000,0.0324,0.013523,0.002678,0.000431,0.107068
134188000,0.0324,0.013523,0.002678,0.000431,0.080037
134189000,0.0324,0.013523,0.002678,0.000431,0.069577
134190000,0.0324,0.013523,0.002678,0.000431,0.051830
134191000,0.0324,0.013523,0.002678,0.000431,0.042193
134192000,0.0324,0.013523,0.002678,0.000431,0.033966
134193000,0.0324,0.013523,0.002678,0.000431,0.037844
134194000,0.0324,0.013523,0.002678,0.000431,0.032790
134195000,0.0324,0.013523,0.002678,0.000431,0.020332
134196000,0.0324,0.013523,0.002678,0.000431,0.025739
134197000,0.0324,0.013523,0.002678,0.000431,0.024211
134198000,0.0324,0.013523,0.002678,0.000431,0.014103
134199000,0.0324,0.013523,0.002678,0.000431,0.014221
134200000,0.0324,0.013523,0.002678,0.000431,0.012693
134201000,0.0324,0.013523,0.002678,0.000431,0.014691
134202000,0.0324,0.013523,0.002678,0.000431,0.010578
134203000,0.0324,0.013523,0.002678,0.000431,0.011635
134204000,0.0324,0.013523,0.002678,0.000431,0.010342
134205000,0.0324,0.013523,0.002678,0.000431,0.011048
134206000,0.0324,0.013523,0.002678,0.000431,0.010695
134207000,0.0324,0.013523,0.002678,0.000431,0.010813
134208000,0.0324,0.013523,0.002678,0.000431,0.009520
134209000,0.0324,0.013523,0.002678,0.000431,0.009755
134210000,0.0324,0.013523,0.002678,0.000431,0.011753
134211000,0.0324,0.013523,0.002678,0.000431,0.011048
134212000,0.0324,0.013523,0.002678,0.000431,0.009402
134213000,0.0324,0.013523,0.002678,0.000431,0.007169
134214000,0.0324,0.013523,0.002678,0.000431,0.007287
134215000,0.0324,0.013523,0.002678,0.000431,0.009755
134216000,0.0324,0.013523,0.002678,0.000431,0.006817
134217000,0.0324,0.013523,0.002678,0.000431,0.009637
134218000,0.0324,0.013523,0.002678,0.000431,0.004349
134219000,0.0324,0.013523,0.002678,0.000431,0.006229
134220000,0.0324,0.013523,0.002678,0.000431,0.002938
134221000,0.0324,0.013523,0.002678,0.000431,0.003526
134222000,0.0324,0.013523,0.002678,0.000431,0.002938
134223000,0.0324,0.013523,0.002678,0.000431,0.004113
134224000,0.0324,0.013523,0.002678,0.000431,0.001763
134225000,0.0324,0.013523,0.002678,0.000431,0.001528
134226000,0.0324,0.013523,0.002678,0.000431,0.003878
134227000,0.0324,0.013523,0.002678,0.000431,0.096138
134228000,0.0324,0.013523,0.002678,0.000431,0.804245
134229000,0.0324,0.013523,0.002678,0.000431,0.514656
134230000,0.0324,0.013523,0.002678,0.000431,0.135392
134231000,0.0324,0.013523,0.002678,0.000431,0.241638
134232000,0.0324,0.013523,0.002678,0.000431,0.540865
134233000,0.0324,0.013523,0.002678,0.000431,0.268552
134234000,0.0324,0.013523,0.002678,0.000431,0.300520
134235000,0.0324,0.013523,0.002678,0.000431,0.148203
134236000,0.0324,0.013523,0.002678,0.000431,0.139623
134237000,0.0324,0.013523,0.002678,0.000431,0.247984
134238000,0.0324,0.013523,0.002678,0.000431,0.438498
134239000,0.0324,0.013523,0.002678,0.000431,0.148908
134240000,0.0324,0.013523,0.002678,0.000431,0.116941
134241000,0.0324,0.013523,0.002678,0.000431,0.106481
134242000,0.0324,0.013523,0.002678,0.000431,0.063935
134243000,0.0324,0.013523,0.002678,0.000431,0.049127
134244000,0.0324,0.013523,0.002678,0.000431,0.039960
134245000,0.0324,0.013523,0.002678,0.000431,0.035729
134246000,0.0324,0.013523,0.002678,0.000431,0.015866
134247000,0.0324,0.013523,0.002678,0.000431,0.013046
134248000,0.0324,0.013523,0.002678,0.000431,0.007404
134249000,0.0324,0.013523,0.002678,0.000431,0.007992
134250000,0.0324,0.013523,0.002678,0.000431,0.009872
134251000,0.0324,0.013523,0.002678,0.000431,0.007757
134252000,0.0324,0.013523,0.002678,0.000431,0.004113
134253000,0.0324,0.013523,0.002678,0.000431,0.004113
134254000,0.0324,0.013523,0.002678,0.000431,0.007522
134255000,0.0324,0.013523,0.002678,0.000431,0.006464
134256000,0.0324,0.013523,0.002678,0.000431,0.001528
134257000,0.0324,0.013523,0.002678,0.000431,0.003408
134258000,0.0324,0.013523,0.002678,0.000431,0.000823
134259000,0.0324,0.013523,0.002678,0.000431,0.000823
134260000,0.0324,0.013523,0.002678,0.000431,0.000823
134261000,0.0324,0.013523,0.002678,0.000431,0.000823
134262000,0.0324,0.013523,0.002678,0.000431,0.000823
134263000,0.0324,0.013523,0.002678,0.000431,0.000823
134264000,0.0324,0.013523,0.002678,0.000431,0.000940
134265000,0.0324,0.013523,0.002678,0.000431,0.000705
134266000,0.0324,0.013523,0.002678,0.000431,0.000940
134267000,0.0324,0.013523,0.002678,0.000431,0.000823
134268000,0.0324,0.013523,0.002678,0.000431,0.000823
134269000,0.0324,0.013523,0.002678,0.000431,0.000705
134270000,0.0324,0.013523,0.002678,0.000431,0.000940
134271000,0.0324,0.013523,0.002678,0.000431,0.000940
134272000,0.0324,0.013523,0.002678,0.000431,0.000705
134273000,0.0324,0.013523,0.002678,0.000431,0.000940
134274000,0.0324,0.013523,0.002678,0.000431,0.000705
134275000,0.0324,0.013523,0.002678,0.000431,0.000940
134276000,0.0324,0.013523,0.002678,0.000431,0.000823
134277000,0.0324,0.013523,0.002678,0.000431,0.000823
134278000,0.0324,0.013523,0.002678,0.000431,0.000940
134279000,0.0324,0.013523,0.002678,0.000431,0.000705
134280000,0.0324,0.013523,0.002678,0.000431,0.000940
134281000,0.0324,0.013523,0.002678,0.000431,0.000705
134282000,0.0324,0.013523,0.002678,0.000431,0.000940
134283000,0.0324,0.013523,0.002678,0.000431,0.000705
134284000,0.0324,0.013523,0.002678,0.000431,0.173472
134285000,0.0324,0.013523,0.002678,0.000431,0.630656
134286000,0.0324,0.013523,0.002678,0.000431,0.497144
134287000,0.0324,0.013523,0.002678,0.000431,0.139036
134288000,0.0324,0.013523,0.002678,0.000431,0.177703
134289000,0.0324,0.013523,0.002678,0.000431,0.559552
134290000,0.0324,0.013523,0.002678,0.000431,0.262911
134291000,0.0324,0.013523,0.002678,0.000431,0.354818
134292000,0.0324,0.013523,0.002678,0.000431,0.141621
134293000,0.0324,0.013523,0.002678,0.000431,0.190161
134294000,0.0324,0.013523,0.002678,0.000431,0.082975
134295000,0.0324,0.013523,0.002678,0.000431,0.546036
134296000,0.0324,0.013523,0.002678,0.000431,0.244106
134297000,0.0324,0.013523,0.002678,0.000431,0.184989
134298000,0.0324,0.013523,0.002678,0.000431,0.145852
134299000,0.0324,0.013523,0.002678,0.000431,0.126108
134300000,0.0324,0.013523,0.002678,0.000431,0.099076
134301000,0.0324,0.013523,0.002678,0.000431,0.065581
134302000,0.0324,0.013523,0.002678,0.000431,0.053710
134303000,0.0324,0.013523,0.002678,0.000431,0.045483
134304000,0.0324,0.013523,0.002678,0.000431,0.032908
134305000,0.0324,0.013523,0.002678,0.000431,0.033613
134306000,0.0324,0.013523,0.002678,0.000431,0.023036
134307000,0.0324,0.013523,0.002678,0.000431,0.019157
134308000,0.0324,0.013523,0.002678,0.000431,0.023388
134309000,0.0324,0.013523,0.002678,0.000431,0.018569
134310000,0.0324,0.013523,0.002678,0.000431,0.013868
134311000,0.0324,0.013523,0.002678,0.000431,0.015396
134312000,0.0324,0.013523,0.002678,0.000431,0.012458
134313000,0.0324,0.013523,0.002678,0.000431,0.013633
134314000,0.0324,0.013523,0.002678,0.000431,0.015396
134315000,0.0324,0.013523,0.002678,0.000431,0.013163
134316000,0.0324,0.013523,0.002678,0.000431,0.015396
134317000,0.0324,0.013523,0.002678,0.000431,0.009755
134318000,0.0324,0.013523,0.002678,0.000431,0.010813
134319000,0.0324,0.013523,0.002678,0.000431,0.010460
134320000,0.0324,0.013523,0.002678,0.000431,0.007874
134321000,0.0324,0.013523,0.002678,0.000431,0.009637
134322000,0.0324,0.013523,0.002678,0.000431,0.006582
134323000,0.0324,0.013523,0.002678,0.000431,0.006464
134324000,0.0324,0.013523,0.002678,0.000431,0.006817
134325000,0.0324,0.013523,0.002678,0.000431,0.006817
134326000,0.0324,0.013523,0.002678,0.000431,0.006934
134327000,0.0324,0.013523,0.002678,0.000431,0.006817
134328000,0.0324,0.013523,0.002678,0.000431,0.006582
134329000,0.0324,0.013523,0.002678,0.000431,0.006817
134330000,0.0324,0.013523,0.002678,0.000431,0.008109
134331000,0.0324,0.013523,0.002678,0.000431,0.005994
134332000,0.0324,0.013523,0.002678,0.000431,0.005876
134333000,0.0324,0.013523,0.002678,0.000431,0.009872
134334000,0.0324,0.013523,0.002678,0.000431,0.004231
134335000,0.0324,0.013523,0.002678,0.000431,0.004231
134336000,0.0324,0.013523,0.002678,0.000431,0.004349
134337000,0.0324,0.013523,0.002678,0.000431,0.004113
134338000,0.0324,0.013523,0.002678,0.000431,0.004584
134339000,0.0324,0.013523,0.002678,0.000431,0.003996
134340000,0.0324,0.013523,0.002678,0.000431,0.004231
134341000,0.0324,0.013523,0.002678,0.000431,0.004466
134342000,0.0324,0.013523,0.002678,0.000431,0.006347
134343000,0.0324,0.013523,0.002678,0.000431,0.003291
134344000,0.0324,0.013523,0.002678,0.000431,0.003526
134345000,0.0324,0.013523,0.002678,0.000431,0.003291
134346000,0.0324,0.013523,0.002678,0.000431,0.003291
134347000,0.0324,0.013523,0.002678,0.000431,0.003526
134348000,0.0324,0.013523,0.002678,0.000431,0.003291
134349000,0.0324,0.013523,0.002678,0.000431,0.003291
134350000,0.0324,0.013523,0.002678,0.000431,0.003526
134351000,0.0324,0.013523,0.002678,0.000431,0.005994
134352000,0.0324,0.013523,0.002678,0.000431,0.002468
134353000,0.0324,0.013523,0.002678,0.000431,0.002586
134354000,0.0324,0.013523,0.002678,0.000431,0.002586
134355000,0.0324,0.013523,0.002678,0.000431,0.002586
134356000,0.0324,0.013523,0.002678,0.000431,0.002468
134357000,0.0324,0.013523,0.002678,0.000431,0.002468
134358000,0.0324,0.013523,0.002678,0.000431,0.002703
134359000,0.0324,0.013523,0.002678,0.000431,0.005641
134360000,0.0324,0.013523,0.002678,0.000431,0.001763
134361000,0.0324,0.013523,0.002678,0.000431,0.001763
134362000,0.0324,0.013523,0.002678,0.000431,0.001645
134363000,0.0324,0.013523,0.002678,0.000431,0.001880
134364000,0.0324,0.013523,0.002678,0.000431,0.001645
134365000,0.0324,0.013523,0.002678,0.000431,0.004584
134366000,0.0324,0.013523,0.002678,0.000431,0.000823
134367000,0.0324,0.013523,0.002678,0.000431,0.000823
134368000,0.0324,0.013523,0.002678,0.000431,0.000823
134369000,0.0324,0.013523,0.002678,0.000431,0.000823
134370000,0.0324,0.013523,0.002678,0.000431,0.000940
134371000,0.0324,0.013523,0.002678,0.000431,0.000705
134372000,0.0324,0.013523,0.002678,0.000431,0.000823
134373000,0.0324,0.013523,0.002678,0.000431,0.000940
134374000,0.0324,0.013523,0.002678,0.000431,0.000823
134375000,0.0324,0.013523,0.002678,0.000431,0.000705
134376000,0.0324,0.013523,0.002678,0.000431,0.000940
134377000,0.0324,0.013523,0.002678,0.000431,0.001763
134378000,0.0324,0.013523,0.002678,0.000431,0.503608
134379000,0.0324,0.013523,0.002678,0.000431,0.754296
134380000,0.0324,0.013523,0.002678,0.000431,0.163599
134381000,0.0324,0.013523,0.002678,0.000431,0.135392
134382000,0.0324,0.013523,0.002678,0.000431,0.556496
134383000,0.0324,0.013523,0.002678,0.000431,0.286416
134384000,0.0324,0.013523,0.002678,0.000431,0.288532
134385000,0.0324,0.013523,0.002678,0.000431,0.235409
134386000,0.0324,0.013523,0.002678,0.000431,0.149026
134387000,0.0324,0.013523,0.002678,0.000431,0.121642
134388000,0.0324,0.013523,0.002678,0.000431,0.378088
134389000,0.0324,0.013523,0.002678,0.000431,0.388783
134390000,0.0324,0.013523,0.002678,0.000431,0.190866
134391000,0.0324,0.013523,0.002678,0.000431,0.143737
134392000,0.0324,0.013523,0.002678,0.000431,0.132689
134393000,0.0324,0.013523,0.002678,0.000431,0.107421
134394000,0.0324,0.013523,0.002678,0.000431,0.094258
134395000,0.0324,0.013523,0.002678,0.000431,0.071340
134396000,0.0324,0.013523,0.002678,0.000431,0.059352
134397000,0.0324,0.013523,0.002678,0.000431,0.051360
134398000,0.0324,0.013523,0.002678,0.000431,0.047246
134399000,0.0324,0.013523,0.002678,0.000431,0.037727
134400000,0.0324,0.013523,0.002678,0.000431,0.037844
134401000,0.0324,0.013523,0.002678,0.000431,0.031380
134402000,0.0324,0.013523,0.002678,0.000431,0.025269
134403000,0.0324,0.013523,0.002678,0.000431,0.026561
134404000,0.0324,0.013523,0.002678,0.000431,0.024563
134405000,0.0324,0.013523,0.002678,0.000431,0.025974
134406000,0.0324,0.013523,0.002678,0.000431,0.020685
134407000,0.0324,0.013523,0.002678,0.000431,0.021743
134408000,0.0324,0.013523,0.002678,0.000431,0.016454
134409000,0.0324,0.013523,0.002678,0.000431,0.019392
134410000,0.0324,0.013523,0.002678,0.000431,0.015866
134411000,0.0324,0.013523,0.002678,0.000431,0.017512
134412000,0.0324,0.013523,0.002678,0.000431,0.016336
134413000,0.0324,0.013523,0.002678,0.000431,0.012693
134414000,0.0324,0.013523,0.002678,0.000431,0.012105
134415000,0.0324,0.013523,0.002678,0.000431,0.013986
134416000,0.0324,0.013523,0.002678,0.000431,0.013163
134417000,0.0324,0.013523,0.002678,0.000431,0.012458
134418000,0.0324,0.013523,0.002678,0.000431,0.013163
134419000,0.0324,0.013523,0.002678,0.000431,0.014926
134420000,0.0324,0.013523,0.002678,0.000431,0.011400
134421000,0.0324,0.013523,0.002678,0.000431,0.013986
134422000,0.0324,0.013523,0.002678,0.000431,0.009637
134423000,0.0324,0.013523,0.002678,0.000431,0.011753
134424000,0.0324,0.013523,0.002678,0.000431,0.011048
134425000,0.0324,0.013523,0.002678,0.000431,0.010578
134426000,0.0324,0.013523,0.002678,0.000431,0.011165
134427000,0.0324,0.013523,0.002678,0.000431,0.009990
134428000,0.0324,0.013523,0.002678,0.000431,0.010930
134429000,0.0324,0.013523,0.002678,0.000431,0.009872
134430000,0.0324,0.013523,0.002678,0.000431,0.010107
134431000,0.0324,0.013523,0.002678,0.000431,0.010225
134432000,0.0324,0.013523,0.002678,0.000431,0.010460
134433000,0.0324,0.013523,0.002678,0.000431,0.008815
134434000,0.0324,0.013523,0.002678,0.000431,0.007757
134435000,0.0324,0.013523,0.002678,0.000431,0.005054
134436000,0.0324,0.013523,0.002678,0.000431,0.004349
134437000,0.0324,0.013523,0.002678,0.000431,0.007169
134438000,0.0324,0.013523,0.002678,0.000431,0.005171
134439000,0.0324,0.013523,0.002678,0.000431,0.002703
134440000,0.0324,0.013523,0.002678,0.000431,0.004584
134441000,0.0324,0.013523,0.002678,0.000431,0.001880
134442000,0.0324,0.013523,0.002678,0.000431,0.001880
134443000,0.0324,0.013523,0.002678,0.000431,0.002938
134444000,0.0324,0.013523,0.002678,0.000431,0.000940
134445000,0.0324,0.013523,0.002678,0.000431,0.000705
134446000,0.0324,0.013523,0.002678,0.000431,0.000940
134447000,0.0324,0.013523,0.002678,0.000431,0.000823
134448000,0.0324,0.013523,0.002678,0.000431,0.000823
134449000,0.0324,0.013523,0.002678,0.000431,0.000940
134450000,0.0324,0.013523,0.002678,0.000431,0.000705
134451000,0.0324,0.013523,0.002678,0.000431,0.000940
134452000,0.0324,0.013523,0.002678,0.000431,0.000705
134453000,0.0324,0.013523,0.002678,0.000431,0.000823
134454000,0.0324,0.013523,0.002678,0.000431,0.000823
134455000,0.0324,0.013523,0.002678,0.000431,0.000705
134456000,0.0324,0.013523,0.002678,0.000431,0.000940
134457000,0.0324,0.013523,0.002678,0.000431,0.000940
134458000,0.0324,0.013523,0.002678,0.000431,0.000705
134459000,0.0324,0.013523,0.002678,0.000431,0.000940
134460000,0.0324,0.013523,0.002678,0.000431,0.000705
134461000,0.0324,0.013523,0.002678,0.000431,0.000940
134462000,0.0324,0.013523,0.002678,0.000431,0.000940
134463000,0.0324,0.013523,0.002678,0.000431,0.000705
134464000,0.0324,0.013523,0.002678,0.000431,0.000940
134465000,0.0324,0.013523,0.002678,0.000431,0.000705
134466000,0.0324,0.013523,0.002678,0.000431,0.000940
134467000,0.0324,0.013523,0.002678,0.000431,0.000823
134468000,0.0324,0.013523,0.002678,0.000431,0.000823
134469000,0.0324,0.013523,0.002678,0.000431,0.000823
134470000,0.0324,0.013523,0.002678,0.000431,0.000823
134471000,0.0324,0.013523,0.002678,0.000431,0.000940
134472000,0.0324,0.013523,0.002678,0.000431,0.000705
134473000,0.0324,0.013523,0.002678,0.000431,0.002586
134474000,0.0324,0.013523,0.002678,0.000431,0.604682
134475000,0.0324,0.013523,0.002678,0.000431,0.698000
134476000,0.0324,0.013523,0.002678,0.000431,0.136215
134477000,0.0324,0.013523,0.002678,0.000431,0.135157
134478000,0.0324,0.013523,0.002678,0.000431,0.578709
134479000,0.0324,0.013523,0.002678,0.000431,0.284066
134480000,0.0324,0.013523,0.002678,0.000431,0.269022
134481000,0.0324,0.013523,0.002678,0.000431,0.168535
134482000,0.0324,0.013523,0.002678,0.000431,0.161836
134483000,0.0324,0.013523,0.002678,0.000431,0.109066
134484000,0.0324,0.013523,0.002678,0.000431,0.512188
134485000,0.0324,0.013523,0.002678,0.000431,0.287239
134486000,0.0324,0.013523,0.002678,0.000431,0.179701
134487000,0.0324,0.013523,0.002678,0.000431,0.140211
134488000,0.0324,0.013523,0.002678,0.000431,0.126343
134489000,0.0324,0.013523,0.002678,0.000431,0.104483
134490000,0.0324,0.013523,0.002678,0.000431,0.095080
134491000,0.0324,0.013523,0.002678,0.000431,0.058999
134492000,0.0324,0.013523,0.002678,0.000431,0.051830
134493000,0.0324,0.013523,0.002678,0.000431,0.040665
134494000,0.0324,0.013523,0.002678,0.000431,0.040547
134495000,0.0324,0.013523,0.002678,0.000431,0.038902
134496000,0.0324,0.013523,0.002678,0.000431,0.035964
134497000,0.0324,0.013523,0.002678,0.000431,0.029500
134498000,0.0324,0.013523,0.002678,0.000431,0.019980
134499000,0.0324,0.013523,0.002678,0.000431,0.023388
134500000,0.0324,0.013523,0.002678,0.000431,0.020802
134501000,0.0324,0.013523,0.002678,0.000431,0.012340
134502000,0.0324,0.013523,0.002678,0.000431,0.013868
134503000,0.0324,0.013523,0.002678,0.000431,0.015279
134504000,0.0324,0.013523,0.002678,0.000431,0.010578
134505000,0.0324,0.013523,0.002678,0.000431,0.011400
134506000,0.0324,0.013523,0.002678,0.000431,0.010342
134507000,0.0324,0.013523,0.002678,0.000431,0.015396
134508000,0.0324,0.013523,0.002678,0.000431,0.010342
134509000,0.0324,0.013523,0.002678,0.000431,0.012340
134510000,0.0324,0.013523,0.002678,0.000431,0.008580
134511000,0.0324,0.013523,0.002678,0.000431,0.009285
134512000,0.0324,0.013523,0.002678,0.000431,0.009285
134513000,0.0324,0.013523,0.002678,0.000431,0.008345
134514000,0.0324,0.013523,0.002678,0.000431,0.011518
134515000,0.0324,0.013523,0.002678,0.000431,0.005759
134516000,0.0324,0.013523,0.002678,0.000431,0.007639
134517000,0.0324,0.013523,0.002678,0.000431,0.007287
134518000,0.0324,0.013523,0.002678,0.000431,0.009285
134519000,0.0324,0.013523,0.002678,0.000431,0.002351
134520000,0.0324,0.013523,0.002678,0.000431,0.002586
134521000,0.0324,0.013523,0.002678,0.000431,0.004584
134522000,0.0324,0.013523,0.002678,0.000431,0.001645
134523000,0.0324,0.013523,0.002678,0.000431,0.001645
134524000,0.0324,0.013523,0.002678,0.000431,0.001645
134525000,0.0324,0.013523,0.002678,0.000431,0.001645
134526000,0.0324,0.013523,0.002678,0.000431,0.001763
134527000,0.0324,0.013523,0.002678,0.000431,0.001410
134528000,0.0324,0.013523,0.002678,0.000431,0.001763
134529000,0.0324,0.013523,0.002678,0.000431,0.001880
134530000,0.0324,0.013523,0.002678,0.000431,0.001410
134531000,0.0324,0.013523,0.002678,0.000431,0.001763
134532000,0.0324,0.013523,0.002678,0.000431,0.001528
134533000,0.0324,0.013523,0.002678,0.000431,0.001880
134534000,0.0324,0.013523,0.002678,0.000431,0.001528
134535000,0.0324,0.013523,0.002678,0.000431,0.001763
134536000,0.0324,0.013523,0.002678,0.000431,0.001528
134537000,0.0324,0.013523,0.002678,0.000431,0.001763
134538000,0.0324,0.013523,0.002678,0.000431,0.001763
134539000,0.0324,0.013523,0.002678,0.000431,0.001528
134540000,0.0324,0.013523,0.002678,0.000431,0.001880
134541000,0.0324,0.013523,0.002678,0.000431,0.001410
134542000,0.0324,0.013523,0.002678,0.000431,0.001880
134543000,0.0324,0.013523,0.002678,0.000431,0.001528
134544000,0.0324,0.013523,0.002678,0.000431,0.001763
134545000,0.0324,0.013523,0.002678,0.000431,0.001645
134546000,0.0324,0.013523,0.002678,0.000431,0.001645
134547000,0.0324,0.013523,0.002678,0.000431,0.001645
134548000,0.0324,0.013523,0.002678,0.000431,0.001645
134549000,0.0324,0.013523,0.002678,0.000431,0.001763
134550000,0.0324,0.013523,0.002678,0.000431,0.001645
134551000,0.0324,0.013523,0.002678,0.000431,0.001763
134552000,0.0324,0.013523,0.002678,0.000431,0.003291
134553000,0.0324,0.013523,0.002678,0.000431,0.000823
134554000,0.0324,0.013523,0.002678,0.000431,0.000940
134555000,0.0324,0.013523,0.002678,0.000431,0.000823
134556000,0.0324,0.013523,0.002678,0.000431,0.014221
134557000,0.0324,0.013523,0.002678,0.000431,0.663564
134558000,0.0324,0.013523,0.002678,0.000431,0.629128
134559000,0.0324,0.013523,0.002678,0.000431,0.147850
134560000,0.0324,0.013523,0.002678,0.000431,0.134805
134561000,0.0324,0.013523,0.002678,0.000431,0.566721
134562000,0.0324,0.013523,0.002678,0.000431,0.296876
134563000,0.0324,0.013523,0.002678,0.000431,0.284301
134564000,0.0324,0.013523,0.002678,0.000431,0.210846
134565000,0.0324,0.013523,0.002678,0.000431,0.160543
134566000,0.0324,0.013523,0.002678,0.000431,0.112122
134567000,0.0324,0.013523,0.002678,0.000431,0.495851
134568000,0.0324,0.013523,0.002678,0.000431,0.350704
134569000,0.0324,0.013523,0.002678,0.000431,0.235644
134570000,0.0324,0.013523,0.002678,0.000431,0.187575
134571000,0.0324,0.013523,0.002678,0.000431,0.163129
134572000,0.0324,0.013523,0.002678,0.000431,0.133982
134573000,0.0324,0.013523,0.002678,0.000431,0.102720
134574000,0.0324,0.013523,0.002678,0.000431,0.067461
134575000,0.0324,0.013523,0.002678,0.000431,0.055826
134576000,0.0324,0.013523,0.002678,0.000431,0.038667
134577000,0.0324,0.013523,0.002678,0.000431,0.035023
134578000,0.0324,0.013523,0.002678,0.000431,0.035023
134579000,0.0324,0.013523,0.002678,0.000431,0.019392
134580000,0.0324,0.013523,0.002678,0.000431,0.024446
134581000,0.0324,0.013523,0.002678,0.000431,0.018569
134582000,0.0324,0.013523,0.002678,0.000431,0.015044
134583000,0.0324,0.013523,0.002678,0.000431,0.014338
134584000,0.0324,0.013523,0.002678,0.000431,0.012693
134585000,0.0324,0.013523,0.002678,0.000431,0.009637
134586000,0.0324,0.013523,0.002678,0.000431,0.009755
134587000,0.0324,0.013523,0.002678,0.000431,0.009755
134588000,0.0324,0.013523,0.002678,0.000431,0.011753
134589000,0.0324,0.013523,0.002678,0.000431,0.013633
134590000,0.0324,0.013523,0.002678,0.000431,0.006817
134591000,0.0324,0.013523,0.002678,0.000431,0.006582
134592000,0.0324,0.013523,0.002678,0.000431,0.006347
134593000,0.0324,0.013523,0.002678,0.000431,0.006934
134594000,0.0324,0.013523,0.002678,0.000431,0.005759
134595000,0.0324,0.013523,0.002678,0.000431,0.006934
134596000,0.0324,0.013523,0.002678,0.000431,0.006699
134597000,0.0324,0.013523,0.002678,0.000431,0.005994
134598000,0.0324,0.013523,0.002678,0.000431,0.006934
134599000,0.0324,0.013523,0.002678,0.000431,0.006111
134600000,0.0324,0.013523,0.002678,0.000431,0.006464
134601000,0.0324,0.013523,0.002678,0.000431,0.006699
134602000,0.0324,0.013523,0.002678,0.000431,0.006347
134603000,0.0324,0.013523,0.002678,0.000431,0.006699
134604000,0.0324,0.013523,0.002678,0.000431,0.006229
134605000,0.0324,0.013523,0.002678,0.000431,0.006464
134606000,0.0324,0.013523,0.002678,0.000431,0.007169
134607000,0.0324,0.013523,0.002678,0.000431,0.005759
134608000,0.0324,0.013523,0.002678,0.000431,0.006582
134609000,0.0324,0.013523,0.002678,0.000431,0.006464
134610000,0.0324,0.013523,0.002678,0.000431,0.006699
134611000,0.0324,0.013523,0.002678,0.000431,0.006582
134612000,0.0324,0.013523,0.002678,0.000431,0.006347
134613000,0.0324,0.013523,0.002678,0.000431,0.006464
134614000,0.0324,0.013523,0.002678,0.000431,0.006464
134615000,0.0324,0.013523,0.002678,0.000431,0.006464
134616000,0.0324,0.013523,0.002678,0.000431,0.006347
134617000,0.0324,0.013523,0.002678,0.000431,0.006582
134618000,0.0324,0.013523,0.002678,0.000431,0.006464
134619000,0.0324,0.013523,0.002678,0.000431,0.006817
134620000,0.0324,0.013523,0.002678,0.000431,0.005994
134621000,0.0324,0.013523,0.002678,0.000431,0.006699
134622000,0.0324,0.013523,0.002678,0.000431,0.008345
134623000,0.0324,0.013523,0.002678,0.000431,0.005876
134624000,0.0324,0.013523,0.002678,0.000431,0.008109
134625000,0.0324,0.013523,0.002678,0.000431,0.005171
134626000,0.0324,0.013523,0.002678,0.000431,0.003761
134627000,0.0324,0.013523,0.002678,0.000431,0.002351
134628000,0.0324,0.013523,0.002678,0.000431,0.003643
134629000,0.0324,0.013523,0.002678,0.000431,0.003291
134630000,0.0324,0.013523,0.002678,0.000431,0.002938
134631000,0.0324,0.013523,0.002678,0.000431,0.003291
134632000,0.0324,0.013523,0.002678,0.000431,0.002821
134633000,0.0324,0.013523,0.002678,0.000431,0.003291
134634000,0.0324,0.013523,0.002678,0.000431,0.003291
134635000,0.0324,0.013523,0.002678,0.000431,0.002938
134636000,0.0324,0.013523,0.002678,0.000431,0.003291
134637000,0.0324,0.013523,0.002678,0.000431,0.003173
134638000,0.0324,0.013523,0.002678,0.000431,0.002821
134639000,0.0324,0.013523,0.002678,0.000431,0.003761
134640000,0.0324,0.013523,0.002678,0.000431,0.002703
134641000,0.0324,0.013523,0.002678,0.000431,0.003408
134642000,0.0324,0.013523,0.002678,0.000431,0.002703
134643000,0.0324,0.013523,0.002678,0.000431,0.003408
134644000,0.0324,0.013523,0.002678,0.000431,0.003408
134645000,0.0324,0.013523,0.002678,0.000431,0.002821
134646000,0.0324,0.013523,0.002678,0.000431,0.003526
134647000,0.0324,0.013523,0.002678,0.000431,0.005524
134648000,0.0324,0.013523,0.002678,0.000431,0.002703
134649000,0.0324,0.013523,0.002678,0.000431,0.002116
134650000,0.0324,0.013523,0.002678,0.000431,0.002351
134651000,0.0324,0.013523,0.002678,0.000431,0.002468
134652000,0.0324,0.013523,0.002678,0.000431,0.002116
134653000,0.0324,0.013523,0.002678,0.000431,0.002351
134654000,0.0324,0.013523,0.002678,0.000431,0.002468
134655000,0.0324,0.013523,0.002678,0.000431,0.001998
134656000,0.0324,0.013523,0.002678,0.000431,0.002468
134657000,0.0324,0.013523,0.002678,0.000431,0.002351
134658000,0.0324,0.013523,0.002678,0.000431,0.002116
134659000,0.0324,0.013523,0.002678,0.000431,0.002821
134660000,0.0324,0.013523,0.002678,0.000431,0.001645
134661000,0.0324,0.013523,0.002678,0.000431,0.002821
134662000,0.0324,0.013523,0.002678,0.000431,0.002351
134663000,0.0324,0.013523,0.002678,0.000431,0.002116
134664000,0.0324,0.013523,0.002678,0.000431,0.002468
134665000,0.0324,0.013523,0.002678,0.000431,0.001998
134666000,0.0324,0.013523,0.002678,0.000431,0.002468
134667000,0.0324,0.013523,0.002678,0.000431,0.002468
134668000,0.0324,0.013523,0.002678,0.000431,0.001998
134669000,0.0324,0.013523,0.002678,0.000431,0.002468
134670000,0.0324,0.013523,0.002678,0.000431,0.002351
134671000,0.0324,0.013523,0.002678,0.000431,0.002116
134672000,0.0324,0.013523,0.002678,0.000431,0.002821
134673000,0.0324,0.013523,0.002678,0.000431,0.001998
134674000,0.0324,0.013523,0.002678,0.000431,0.002468
134675000,0.0324,0.013523,0.002678,0.000431,0.001880
134676000,0.0324,0.013523,0.002678,0.000431,0.002586
134677000,0.0324,0.013523,0.002678,0.000431,0.002468
134678000,0.0324,0.013523,0.002678,0.000431,0.001998
134679000,0.0324,0.013523,0.002678,0.000431,0.002821
134680000,0.0324,0.013523,0.002678,0.000431,0.001880
134681000,0.0324,0.013523,0.002678,0.000431,0.002586
134682000,0.0324,0.013523,0.002678,0.000431,0.002468
134683000,0.0324,0.013523,0.002678,0.000431,0.001998
134684000,0.0324,0.013523,0.002678,0.000431,0.002468
134685000,0.0324,0.013523,0.002678,0.000431,0.002233
134686000,0.0324,0.013523,0.002678,0.000431,0.002233
134687000,0.0324,0.013523,0.002678,0.000431,0.002468
134688000,0.0324,0.013523,0.002678,0.000431,0.001998
134689000,0.0324,0.013523,0.002678,0.000431,0.002468
134690000,0.0324,0.013523,0.002678,0.000431,0.002468
134691000,0.0324,0.013523,0.002678,0.000431,0.001998
134692000,0.0324,0.013523,0.002678,0.000431,0.002821
134693000,0.0324,0.013523,0.002678,0.000431,0.001998
134694000,0.0324,0.013523,0.002678,0.000431,0.002468
134695000,0.0324,0.013523,0.002678,0.000431,0.002351
134696000,0.0324,0.013523,0.002678,0.000431,0.002116
134697000,0.0324,0.013523,0.002678,0.000431,0.002821
134698000,0.0324,0.013523,0.002678,0.000431,0.001645
134699000,0.0324,0.013523,0.002678,0.000431,0.002821
134700000,0.0324,0.013523,0.002678,0.000431,0.002116
134701000,0.0324,0.013523,0.002678,0.000431,0.002351
134702000,0.0324,0.013523,0.002678,0.000431,0.002468
134703000,0.0324,0.013523,0.002678,0.000431,0.001998
134704000,0.0324,0.013523,0.002678,0.000431,0.002468
134705000,0.0324,0.013523,0.002678,0.000431,0.002468
134706000,0.0324,0.013523,0.002678,0.000431,0.001998
134707000,0.0324,0.013523,0.002678,0.000431,0.002468
134708000,0.0324,0.013523,0.002678,0.000431,0.001998
134709000,0.0324,0.013523,0.002678,0.000431,0.002468
134710000,0.0324,0.013523,0.002678,0.000431,0.002821
134711000,0.0324,0.013523,0.002678,0.000431,0.001645
134712000,0.0324,0.013523,0.002678,0.000431,0.002821
134713000,0.0324,0.013523,0.002678,0.000431,0.001880
134714000,0.0324,0.013523,0.002678,0.000431,0.002586
134715000,0.0324,0.013523,0.002678,0.000431,0.002468
134716000,0.0324,0.013523,0.002678,0.000431,0.001998
134717000,0.0324,0.013523,0.002678,0.000431,0.002468
134718000,0.0324,0.013523,0.002678,0.000431,0.002233
134719000,0.0324,0.013523,0.002678,0.000431,0.002233
134720000,0.0324,0.013523,0.002678,0.000431,0.002468
134721000,0.0324,0.013523,0.002678,0.000431,0.002351
134722000,0.0324,0.013523,0.002678,0.000431,0.002116
134723000,0.0324,0.013523,0.002678,0.000431,0.002468
134724000,0.0324,0.013523,0.002678,0.000431,0.001998
134725000,0.0324,0.013523,0.002678,0.000431,0.002821
134726000,0.0324,0.013523,0.002678,0.000431,0.001998
134727000,0.0324,0.013523,0.002678,0.000431,0.002468
134728000,0.0324,0.013523,0.002678,0.000431,0.002351
134729000,0.0324,0.013523,0.002678,0.000431,0.002116
134730000,0.0324,0.013523,0.002678,0.000431,0.002821
134731000,0.0324,0.013523,0.002678,0.000431,0.001645
134732000,0.0324,0.013523,0.002678,0.000431,0.002821
134733000,0.0324,0.013523,0.002678,0.000431,0.002116
134734000,0.0324,0.013523,0.002678,0.000431,0.002351
134735000,0.0324,0.013523,0.002678,0.000431,0.002116
134736000,0.0324,0.013523,0.002678,0.000431,0.002351
134737000,0.0324,0.013523,0.002678,0.000431,0.002468
134738000,0.0324,0.013523,0.002678,0.000431,0.002468
134739000,0.0324,0.013523,0.002678,0.000431,0.001998
134740000,0.0324,0.013523,0.002678,0.000431,0.002468
134741000,0.0324,0.013523,0.002678,0.000431,0.001998
134742000,0.0324,0.013523,0.002678,0.000431,0.002468
134743000,0.0324,0.013523,0.002678,0.000431,0.002821
134744000,0.0324,0.013523,0.002678,0.000431,0.001645
134745000,0.0324,0.013523,0.002678,0.000431,0.002821
134746000,0.0324,0.013523,0.002678,0.000431,0.001880
134747000,0.0324,0.013523,0.002678,0.000431,0.002586
134748000,0.0324,0.013523,0.002678,0.000431,0.002468
134749000,0.0324,0.013523,0.002678,0.000431,0.001998
134750000,0.0324,0.013523,0.002678,0.000431,0.002468
134751000,0.0324,0.013523,0.002678,0.000431,0.002233
134752000,0.0324,0.013523,0.002678,0.000431,0.002233
134753000,0.0324,0.013523,0.002678,0.000431,0.002468
134754000,0.0324,0.013523,0.002678,0.000431,0.002116
134755000,0.0324,0.013523,0.002678,0.000431,0.002351
134756000,0.0324,0.013523,0.002678,0.000431,0.002468
134757000,0.0324,0.013523,0.002678,0.000431,0.001998
134758000,0.0324,0.013523,0.002678,0.000431,0.002821
134759000,0.0324,0.013523,0.002678,0.000431,0.001998
134760000,0.0324,0.013523,0.002678,0.000431,0.002468
134761000,0.0324,0.013523,0.002678,0.000431,0.002351
134762000,0.0324,0.013523,0.002678,0.000431,0.002116
134763000,0.0324,0.013523,0.002678,0.000431,0.002821
134764000,0.0324,0.013523,0.002678,0.000431,0.001645
134765000,0.0324,0.013523,0.002678,0.000431,0.002821
134766000,0.0324,0.013523,0.002678,0.000431,0.002116
134767000,0.0324,0.013523,0.002678,0.000431,0.002351
134768000,0.0324,0.013523,0.002678,0.000431,0.002468
134769000,0.0324,0.013523,0.002678,0.000431,0.001998
134770000,0.0324,0.013523,0.002678,0.000431,0.002468
134771000,0.0324,0.013523,0.002678,0.000431,0.002468
134772000,0.0324,0.013523,0.002678,0.000431,0.001998
134773000,0.0324,0.013523,0.002678,0.000431,0.002468
134774000,0.0324,0.013523,0.002678,0.000431,0.002351
134775000,0.0324,0.013523,0.002678,0.000431,0.002116
134776000,0.0324,0.013523,0.002678,0.000431,0.002821
134777000,0.0324,0.013523,0.002678,0.000431,0.001645
134778000,0.0324,0.013523,0.002678,0.000431,0.002821
134779000,0.0324,0.013523,0.002678,0.000431,0.001880
134780000,0.0324,0.013523,0.002678,0.000431,0.002586
134781000,0.0324,0.013523,0.002678,0.000431,0.002468
134782000,0.0324,0.013523,0.002678,0.000431,0.001998
134783000,0.0324,0.013523,0.002678,0.000431,0.002821
134784000,0.0324,0.013523,0.002678,0.000431,0.001880
134785000,0.0324,0.013523,0.002678,0.000431,0.002586
134786000,0.0324,0.013523,0.002678,0.000431,0.002468
134787000,0.0324,0.013523,0.002678,0.000431,0.001998
134788000,0.0324,0.013523,0.002678,0.000431,0.002468
134789000,0.0324,0.013523,0.002678,0.000431,0.002233
134790000,0.0324,0.013523,0.002678,0.000431,0.002233
134791000,0.0324,0.013523,0.002678,0.000431,0.002468
134792000,0.0324,0.013523,0.002678,0.000431,0.001998
134793000,0.0324,0.013523,0.002678,0.000431,0.002468
134794000,0.0324,0.013523,0.002678,0.000431,0.002468
134795000,0.0324,0.013523,0.002678,0.000431,0.001998
134796000,0.0324,0.013523,0.002678,0.000431,0.002821
134797000,0.0324,0.013523,0.002678,0.000431,0.001645
134798000,0.0324,0.013523,0.002678,0.000431,0.002821
134799000,0.0324,0.013523,0.002678,0.000431,0.002351
134800000,0.0324,0.013523,0.002678,0.000431,0.002116
134801000,0.0324,0.013523,0.002678,0.000431,0.002468
134802000,0.0324,0.013523,0.002678,0.000431,0.001998
134803000,0.0324,0.013523,0.002678,0.000431,0.002703
134804000,0.0324,0.013523,0.002678,0.000431,0.002233
134805000,0.0324,0.013523,0.002678,0.000431,0.002351
134806000,0.0324,0.013523,0.002678,0.000431,0.002116
134807000,0.0324,0.013523,0.002678,0.000431,0.002351
134808000,0.0324,0.013523,0.002678,0.000431,0.002116
134809000,0.0324,0.013523,0.002678,0.000431,0.002821
134810000,0.0324,0.013523,0.002678,0.000431,0.001998
134811000,0.0324,0.013523,0.002678,0.000431,0.002468
134812000,0.0324,0.013523,0.002678,0.000431,0.001880
134813000,0.0324,0.013523,0.002678,0.000431,0.002586
134814000,0.0324,0.013523,0.002678,0.000431,0.002821
134815000,0.0324,0.013523,0.002678,0.000431,0.001645
134816000,0.0324,0.013523,0.002678,0.000431,0.002351
134817000,0.0324,0.013523,0.002678,0.000431,0.001645
134818000,0.0324,0.013523,0.002678,0.000431,0.002468
134819000,0.0324,0.013523,0.002678,0.000431,0.001998
134820000,0.0324,0.013523,0.002678,0.000431,0.002468
134821000,0.0324,0.013523,0.002678,0.000431,0.002468
134822000,0.0324,0.013523,0.002678,0.000431,0.002351
134823000,0.0324,0.013523,0.002678,0.000431,0.002116
134824000,0.0324,0.013523,0.002678,0.000431,0.002351
134825000,0.0324,0.013523,0.002678,0.000431,0.002116
134826000,0.0324,0.013523,0.002678,0.000431,0.002821
134827000,0.0324,0.013523,0.002678,0.000431,0.001998
134828000,0.0324,0.013523,0.002678,0.000431,0.002468
134829000,0.0324,0.013523,0.002678,0.000431,0.001880
134830000,0.0324,0.013523,0.002678,0.000431,0.002586
134831000,0.0324,0.013523,0.002678,0.000431,0.002468
134832000,0.0324,0.013523,0.002678,0.000431,0.001998
134833000,0.0324,0.013523,0.002678,0.000431,0.002821
134834000,0.0324,0.013523,0.002678,0.000431,0.001880
134835000,0.0324,0.013523,0.002678,0.000431,0.002586
134836000,0.0324,0.013523,0.002678,0.000431,0.002468
134837000,0.0324,0.013523,0.002678,0.000431,0.001998
134838000,0.0324,0.013523,0.002678,0.000431,0.002468
134839000,0.0324,0.013523,0.002678,0.000431,0.002233
134840000,0.0324,0.013523,0.002678,0.000431,0.002233
134841000,0.0324,0.013523,0.002678,0.000431,0.002468
134842000,0.0324,0.013523,0.002678,0.000431,0.001998
134843000,0.0324,0.013523,0.002678,0.000431,0.002468
134844000,0.0324,0.013523,0.002678,0.000431,0.002468
134845000,0.0324,0.013523,0.002678,0.000431,0.001998
134846000,0.0324,0.013523,0.002678,0.000431,0.002821
134847000,0.0324,0.013523,0.002678,0.000431,0.001645
134848000,0.0324,0.013523,0.002678,0.000431,0.002821
134849000,0.0324,0.013523,0.002678,0.000431,0.002351
134850000,0.0324,0.013523,0.002678,0.000431,0.002116
134851000,0.0324,0.013523,0.002678,0.000431,0.002468
134852000,0.0324,0.013523,0.002678,0.000431,0.001998
134853000,0.0324,0.013523,0.002678,0.000431,0.002468
134854000,0.0324,0.013523,0.002678,0.000431,0.002468
134855000,0.0324,0.013523,0.002678,0.000431,0.002351
134856000,0.0324,0.013523,0.002678,0.000431,0.002116
134857000,0.0324,0.013523,0.002678,0.000431,0.002351
134858000,0.0324,0.013523,0.002678,0.000431,0.002116
134859000,0.0324,0.013523,0.002678,0.000431,0.002821
134860000,0.0324,0.013523,0.002678,0.000431,0.001998
134861000,0.0324,0.013523,0.002678,0.000431,0.002468
134862000,0.0324,0.013523,0.002678,0.000431,0.001880
134863000,0.0324,0.013523,0.002678,0.000431,0.002586
134864000,0.0324,0.013523,0.002678,0.000431,0.002586
134865000,0.0324,0.013523,0.002678,0.000431,0.001880
134866000,0.0324,0.013523,0.002678,0.000431,0.002821
134867000,0.0324,0.013523,0.002678,0.000431,0.001880
134868000,0.0324,0.013523,0.002678,0.000431,0.002586
134869000,0.0324,0.013523,0.002678,0.000431,0.002468
134870000,0.0324,0.013523,0.002678,0.000431,0.001998
134871000,0.0324,0.013523,0.002678,0.000431,0.002468
134872000,0.0324,0.013523,0.002678,0.000431,0.002233
134873000,0.0324,0.013523,0.002678,0.000431,0.002233
134874000,0.0324,0.013523,0.002678,0.000431,0.002468
134875000,0.0324,0.013523,0.002678,0.000431,0.001998
134876000,0.0324,0.013523,0.002678,0.000431,0.002468
134877000,0.0324,0.013523,0.002678,0.000431,0.002468
134878000,0.0324,0.013523,0.002678,0.000431,0.001998
134879000,0.0324,0.013523,0.002678,0.000431,0.002821
134880000,0.0324,0.013523,0.002678,0.000431,0.001645
134881000,0.0324,0.013523,0.002678,0.000431,0.002821
134882000,0.0324,0.013523,0.002678,0.000431,0.002351
134883000,0.0324,0.013523,0.002678,0.000431,0.002116
134884000,0.0324,0.013523,0.002678,0.000431,0.002468
134885000,0.0324,0.013523,0.002678,0.000431,0.001998
134886000,0.0324,0.013523,0.002678,0.000431,0.002468
134887000,0.0324,0.013523,0.002678,0.000431,0.002468
134888000,0.0324,0.013523,0.002678,0.000431,0.002351
134889000,0.0324,0.013523,0.002678,0.000431,0.002116
134890000,0.0324,0.013523,0.002678,0.000431,0.002351
134891000,0.0324,0.013523,0.002678,0.000431,0.002116
134892000,0.0324,0.013523,0.002678,0.000431,0.002468
134893000,0.0324,0.013523,0.002678,0.000431,0.001645
134894000,0.0324,0.013523,0.002678,0.000431,0.001645
134895000,0.0324,0.013523,0.002678,0.000431,0.001645
134896000,0.0324,0.013523,0.002678,0.000431,0.256211
134897000,0.0324,0.013523,0.002678,0.000431,0.756294
134898000,0.0324,0.013523,0.002678,0.000431,0.457890
134899000,0.0324,0.013523,0.002678,0.000431,0.135275
134900000,0.0324,0.013523,0.002678,0.000431,0.270197
134901000,0.0324,0.013523,0.002678,0.000431,0.476929
134902000,0.0324,0.013523,0.002678,0.000431,0.290882
134903000,0.0324,0.013523,0.002678,0.000431,0.274546
134904000,0.0324,0.013523,0.002678,0.000431,0.149378
134905000,0.0324,0.013523,0.002678,0.000431,0.135745
134906000,0.0324,0.013523,0.002678,0.000431,0.249042
134907000,0.0324,0.013523,0.002678,0.000431,0.506546
134908000,0.0324,0.013523,0.002678,0.000431,0.200268
134909000,0.0324,0.013523,0.002678,0.000431,0.166302
134910000,0.0324,0.013523,0.002678,0.000431,0.131867
134911000,0.0324,0.013523,0.002678,0.000431,0.109771
134912000,0.0324,0.013523,0.002678,0.000431,0.086266
134913000,0.0324,0.013523,0.002678,0.000431,0.073573
134914000,0.0324,0.013523,0.002678,0.000431,0.066874
134915000,0.0324,0.013523,0.002678,0.000431,0.052653
134916000,0.0324,0.013523,0.002678,0.000431,0.042193
134917000,0.0324,0.013523,0.002678,0.000431,0.042898
134918000,0.0324,0.013523,0.002678,0.000431,0.037727
134919000,0.0324,0.013523,0.002678,0.000431,0.032908
134920000,0.0324,0.013523,0.002678,0.000431,0.026209
134921000,0.0324,0.013523,0.002678,0.000431,0.022565
134922000,0.0324,0.013523,0.002678,0.000431,0.021978
134923000,0.0324,0.013523,0.002678,0.000431,0.025151
134924000,0.0324,0.013523,0.002678,0.000431,0.024563
134925000,0.0324,0.013523,0.002678,0.000431,0.019275
134926000,0.0324,0.013523,0.002678,0.000431,0.019040
134927000,0.0324,0.013523,0.002678,0.000431,0.020685
134928000,0.0324,0.013523,0.002678,0.000431,0.017629
134929000,0.0324,0.013523,0.002678,0.000431,0.017159
134930000,0.0324,0.013523,0.002678,0.000431,0.016336
134931000,0.0324,0.013523,0.002678,0.000431,0.014809
134932000,0.0324,0.013523,0.002678,0.000431,0.014809
134933000,0.0324,0.013523,0.002678,0.000431,0.014691
134934000,0.0324,0.013523,0.002678,0.000431,0.014809
134935000,0.0324,0.013523,0.002678,0.000431,0.017747
134936000,0.0324,0.013523,0.002678,0.000431,0.012811
134937000,0.0324,0.013523,0.002678,0.000431,0.012693
134938000,0.0324,0.013523,0.002678,0.000431,0.012928
134939000,0.0324,0.013523,0.002678,0.000431,0.012576
134940000,0.0324,0.013523,0.002678,0.000431,0.012928
134941000,0.0324,0.013523,0.002678,0.000431,0.012458
134942000,0.0324,0.013523,0.002678,0.000431,0.015396
134943000,0.0324,0.013523,0.002678,0.000431,0.012811
134944000,0.0324,0.013523,0.002678,0.000431,0.013163
134945000,0.0324,0.013523,0.002678,0.000431,0.011165
134946000,0.0324,0.013523,0.002678,0.000431,0.008932
134947000,0.0324,0.013523,0.002678,0.000431,0.009637
134948000,0.0324,0.013523,0.002678,0.000431,0.008932
134949000,0.0324,0.013523,0.002678,0.000431,0.008697
134950000,0.0324,0.013523,0.002678,0.000431,0.011870
134951000,0.0324,0.013523,0.002678,0.000431,0.008227
134952000,0.0324,0.013523,0.002678,0.000431,0.008932
134953000,0.0324,0.013523,0.002678,0.000431,0.010225
134954000,0.0324,0.013523,0.002678,0.000431,0.009167
134955000,0.0324,0.013523,0.002678,0.000431,0.006699
134956000,0.0324,0.013523,0.002678,0.000431,0.006934
134957000,0.0324,0.013523,0.002678,0.000431,0.007287
134958000,0.0324,0.013523,0.002678,0.000431,0.006229
134959000,0.0324,0.013523,0.002678,0.000431,0.007287
134960000,0.0324,0.013523,0.002678,0.000431,0.006582
134961000,0.0324,0.013523,0.002678,0.000431,0.007639
134962000,0.0324,0.013523,0.002678,0.000431,0.006817
134963000,0.0324,0.013523,0.002678,0.000431,0.005759
134964000,0.0324,0.013523,0.002678,0.000431,0.005994
134965000,0.0324,0.013523,0.002678,0.000431,0.005994
134966000,0.0324,0.013523,0.002678,0.000431,0.005759
134967000,0.0324,0.013523,0.002678,0.000431,0.005876
134968000,0.0324,0.013523,0.002678,0.000431,0.005876
134969000,0.0324,0.013523,0.002678,0.000431,0.006229
134970000,0.0324,0.013523,0.002678,0.000431,0.005759
134971000,0.0324,0.013523,0.002678,0.000431,0.005876
134972000,0.0324,0.013523,0.002678,0.000431,0.005994
134973000,0.0324,0.013523,0.002678,0.000431,0.005641
134974000,0.0324,0.013523,0.002678,0.000431,0.005994
134975000,0.0324,0.013523,0.002678,0.000431,0.005876
134976000,0.0324,0.013523,0.002678,0.000431,0.005641
134977000,0.0324,0.013523,0.002678,0.000431,0.006464
134978000,0.0324,0.013523,0.002678,0.000431,0.006817
134979000,0.0324,0.013523,0.002678,0.000431,0.006229
134980000,0.0324,0.013523,0.002678,0.000431,0.004819
134981000,0.0324,0.013523,0.002678,0.000431,0.004936
134982000,0.0324,0.013523,0.002678,0.000431,0.005524
134983000,0.0324,0.013523,0.002678,0.000431,0.005289
134984000,0.0324,0.013523,0.002678,0.000431,0.008697
134985000,0.0324,0.013523,0.002678,0.000431,0.003291
134986000,0.0324,0.013523,0.002678,0.000431,0.003526
134987000,0.0324,0.013523,0.002678,0.000431,0.003526
134988000,0.0324,0.013523,0.002678,0.000431,0.005054
134989000,0.0324,0.013523,0.002678,0.000431,0.004349
134990000,0.0324,0.013523,0.002678,0.000431,0.002586
134991000,0.0324,0.013523,0.002678,0.000431,0.002468
134992000,0.0324,0.013523,0.002678,0.000431,0.002703
134993000,0.0324,0.013523,0.002678,0.000431,0.002468
134994000,0.0324,0.013523,0.002678,0.000431,0.002586
134995000,0.0324,0.013523,0.002678,0.000431,0.002586
134996000,0.0324,0.013523,0.002678,0.000431,0.002468
134997000,0.0324,0.013523,0.002678,0.000431,0.002586
134998000,0.0324,0.013523,0.002678,0.000431,0.002586
134999000,0.0324,0.013523,0.002678,0.000431,0.002586
