Cycle,Area(mm^2),PeakDynamic(W),SubthresholdLeakage(W),GateLeakage(W),RunTimeDynamic(W)
31000000,0.0324,0.013523,0.002678,0.000431,0.005289
31001000,0.0324,0.013523,0.002678,0.000431,0.004936
31002000,0.0324,0.013523,0.002678,0.000431,0.004936
31003000,0.0324,0.013523,0.002678,0.000431,0.007052
31004000,0.0324,0.013523,0.002678,0.000431,0.004349
31005000,0.0324,0.013523,0.002678,0.000431,0.004113
31006000,0.0324,0.013523,0.002678,0.000431,0.004466
31007000,0.0324,0.013523,0.002678,0.000431,0.003996
31008000,0.0324,0.013523,0.002678,0.000431,0.004349
31009000,0.0324,0.013523,0.002678,0.000431,0.005641
31010000,0.0324,0.013523,0.002678,0.000431,0.005054
31011000,0.0324,0.013523,0.002678,0.000431,0.003291
31012000,0.0324,0.013523,0.002678,0.000431,0.003526
31013000,0.0324,0.013523,0.002678,0.000431,0.003173
31014000,0.0324,0.013523,0.002678,0.000431,0.003526
31015000,0.0324,0.013523,0.002678,0.000431,0.003526
31016000,0.0324,0.013523,0.002678,0.000431,0.003056
31017000,0.0324,0.013523,0.002678,0.000431,0.003408
31018000,0.0324,0.013523,0.002678,0.000431,0.003643
31019000,0.0324,0.013523,0.002678,0.000431,0.003291
31020000,0.0324,0.013523,0.002678,0.000431,0.003291
31021000,0.0324,0.013523,0.002678,0.000431,0.003526
31022000,0.0324,0.013523,0.002678,0.000431,0.003056
31023000,0.0324,0.013523,0.002678,0.000431,0.003526
31024000,0.0324,0.013523,0.002678,0.000431,0.003643
31025000,0.0324,0.013523,0.002678,0.000431,0.003173
31026000,0.0324,0.013523,0.002678,0.000431,0.003526
31027000,0.0324,0.013523,0.002678,0.000431,0.003173
31028000,0.0324,0.013523,0.002678,0.000431,0.003408
31029000,0.0324,0.013523,0.002678,0.000431,0.003291
31030000,0.0324,0.013523,0.002678,0.000431,0.003643
31031000,0.0324,0.013523,0.002678,0.000431,0.003408
31032000,0.0324,0.013523,0.002678,0.000431,0.003291
31033000,0.0324,0.013523,0.002678,0.000431,0.003526
31034000,0.0324,0.013523,0.002678,0.000431,0.003173
31035000,0.0324,0.013523,0.002678,0.000431,0.003643
31036000,0.0324,0.013523,0.002678,0.000431,0.003291
31037000,0.0324,0.013523,0.002678,0.000431,0.003526
31038000,0.0324,0.013523,0.002678,0.000431,0.004231
31039000,0.0324,0.013523,0.002678,0.000431,0.002703
31040000,0.0324,0.013523,0.002678,0.000431,0.002703
31041000,0.0324,0.013523,0.002678,0.000431,0.002468
31042000,0.0324,0.013523,0.002678,0.000431,0.002468
31043000,0.0324,0.013523,0.002678,0.000431,0.002586
31044000,0.0324,0.013523,0.002678,0.000431,0.002703
31045000,0.0324,0.013523,0.002678,0.000431,0.002351
31046000,0.0324,0.013523,0.002678,0.000431,0.002586
31047000,0.0324,0.013523,0.002678,0.000431,0.002703
31048000,0.0324,0.013523,0.002678,0.000431,0.002468
31049000,0.0324,0.013523,0.002678,0.000431,0.002586
31050000,0.0324,0.013523,0.002678,0.000431,0.002468
31051000,0.0324,0.013523,0.002678,0.000431,0.002586
31052000,0.0324,0.013523,0.002678,0.000431,0.002351
31053000,0.0324,0.013523,0.002678,0.000431,0.002821
31054000,0.0324,0.013523,0.002678,0.000431,0.002586
31055000,0.0324,0.013523,0.002678,0.000431,0.002468
31056000,0.0324,0.013523,0.002678,0.000431,0.002468
31057000,0.0324,0.013523,0.002678,0.000431,0.002468
31058000,0.0324,0.013523,0.002678,0.000431,0.002821
31059000,0.0324,0.013523,0.002678,0.000431,0.002468
31060000,0.0324,0.013523,0.002678,0.000431,0.002703
31061000,0.0324,0.013523,0.002678,0.000431,0.003408
31062000,0.0324,0.013523,0.002678,0.000431,0.001880
31063000,0.0324,0.013523,0.002678,0.000431,0.001763
31064000,0.0324,0.013523,0.002678,0.000431,0.001645
31065000,0.0324,0.013523,0.002678,0.000431,0.001763
31066000,0.0324,0.013523,0.002678,0.000431,0.001645
31067000,0.0324,0.013523,0.002678,0.000431,0.001880
31068000,0.0324,0.013523,0.002678,0.000431,0.001528
31069000,0.0324,0.013523,0.002678,0.000431,0.001763
31070000,0.0324,0.013523,0.002678,0.000431,0.001763
31071000,0.0324,0.013523,0.002678,0.000431,0.001645
31072000,0.0324,0.013523,0.002678,0.000431,0.001763
31073000,0.0324,0.013523,0.002678,0.000431,0.001645
31074000,0.0324,0.013523,0.002678,0.000431,0.001880
31075000,0.0324,0.013523,0.002678,0.000431,0.001528
31076000,0.0324,0.013523,0.002678,0.000431,0.001763
31077000,0.0324,0.013523,0.002678,0.000431,0.001880
31078000,0.0324,0.013523,0.002678,0.000431,0.001763
31079000,0.0324,0.013523,0.002678,0.000431,0.003173
31080000,0.0324,0.013523,0.002678,0.000431,0.000823
31081000,0.0324,0.013523,0.002678,0.000431,0.000940
31082000,0.0324,0.013523,0.002678,0.000431,0.000940
31083000,0.0324,0.013523,0.002678,0.000431,0.000823
31084000,0.0324,0.013523,0.002678,0.000431,0.000823
31085000,0.0324,0.013523,0.002678,0.000431,0.000940
31086000,0.0324,0.013523,0.002678,0.000431,0.000823
31087000,0.0324,0.013523,0.002678,0.000431,0.000940
31088000,0.0324,0.013523,0.002678,0.000431,0.000823
31089000,0.0324,0.013523,0.002678,0.000431,0.000940
31090000,0.0324,0.013523,0.002678,0.000431,0.000823
31091000,0.0324,0.013523,0.002678,0.000431,0.000823
31092000,0.0324,0.013523,0.002678,0.000431,0.000940
31093000,0.0324,0.013523,0.002678,0.000431,0.000940
31094000,0.0324,0.013523,0.002678,0.000431,0.000823
31095000,0.0324,0.013523,0.002678,0.000431,0.000823
31096000,0.0324,0.013523,0.002678,0.000431,0.000940
31097000,0.0324,0.013523,0.002678,0.000431,0.000940
31098000,0.0324,0.013523,0.002678,0.000431,0.000705
31099000,0.0324,0.013523,0.002678,0.000431,0.000940
31100000,0.0324,0.013523,0.002678,0.000431,0.000940
31101000,0.0324,0.013523,0.002678,0.000431,0.000940
31102000,0.0324,0.013523,0.002678,0.000431,0.000705
31103000,0.0324,0.013523,0.002678,0.000431,0.000940
31104000,0.0324,0.013523,0.002678,0.000431,0.000940
31105000,0.0324,0.013523,0.002678,0.000431,0.000823
31106000,0.0324,0.013523,0.002678,0.000431,0.000823
31107000,0.0324,0.013523,0.002678,0.000431,0.000940
31108000,0.0324,0.013523,0.002678,0.000431,0.000940
31109000,0.0324,0.013523,0.002678,0.000431,0.000823
31110000,0.0324,0.013523,0.002678,0.000431,0.000823
31111000,0.0324,0.013523,0.002678,0.000431,0.000940
31112000,0.0324,0.013523,0.002678,0.000431,0.000823
31113000,0.0324,0.013523,0.002678,0.000431,0.000940
31114000,0.0324,0.013523,0.002678,0.000431,0.000823
31115000,0.0324,0.013523,0.002678,0.000431,0.000940
31116000,0.0324,0.013523,0.002678,0.000431,0.000823
31117000,0.0324,0.013523,0.002678,0.000431,0.000823
31118000,0.0324,0.013523,0.002678,0.000431,0.000940
31119000,0.0324,0.013523,0.002678,0.000431,0.000940
31120000,0.0324,0.013523,0.002678,0.000431,0.000940
31121000,0.0324,0.013523,0.002678,0.000431,0.000705
31122000,0.0324,0.013523,0.002678,0.000431,0.000940
31123000,0.0324,0.013523,0.002678,0.000431,0.000940
31124000,0.0324,0.013523,0.002678,0.000431,0.000823
31125000,0.0324,0.013523,0.002678,0.000431,0.000823
31126000,0.0324,0.013523,0.002678,0.000431,0.000940
31127000,0.0324,0.013523,0.002678,0.000431,0.000823
31128000,0.0324,0.013523,0.002678,0.000431,0.000940
31129000,0.0324,0.013523,0.002678,0.000431,0.000823
31130000,0.0324,0.013523,0.002678,0.000431,0.000940
31131000,0.0324,0.013523,0.002678,0.000431,0.000823
31132000,0.0324,0.013523,0.002678,0.000431,0.000823
31133000,0.0324,0.013523,0.002678,0.000431,0.000940
31134000,0.0324,0.013523,0.002678,0.000431,0.000940
31135000,0.0324,0.013523,0.002678,0.000431,0.000823
31136000,0.0324,0.013523,0.002678,0.000431,0.000823
31137000,0.0324,0.013523,0.002678,0.000431,0.000940
31138000,0.0324,0.013523,0.002678,0.000431,0.000940
31139000,0.0324,0.013523,0.002678,0.000431,0.000705
31140000,0.0324,0.013523,0.002678,0.000431,0.000940
31141000,0.0324,0.013523,0.002678,0.000431,0.000940
31142000,0.0324,0.013523,0.002678,0.000431,0.000940
31143000,0.0324,0.013523,0.002678,0.000431,0.000823
31144000,0.0324,0.013523,0.002678,0.000431,0.000823
31145000,0.0324,0.013523,0.002678,0.000431,0.000940
31146000,0.0324,0.013523,0.002678,0.000431,0.000823
31147000,0.0324,0.013523,0.002678,0.000431,0.000940
31148000,0.0324,0.013523,0.002678,0.000431,0.000823
31149000,0.0324,0.013523,0.002678,0.000431,0.000940
31150000,0.0324,0.013523,0.002678,0.000431,0.000823
31151000,0.0324,0.013523,0.002678,0.000431,0.000823
31152000,0.0324,0.013523,0.002678,0.000431,0.000940
31153000,0.0324,0.013523,0.002678,0.000431,0.003291
31154000,0.0324,0.013523,0.002678,0.000431,0.490680
31155000,0.0324,0.013523,0.002678,0.000431,0.648638
31156000,0.0324,0.013523,0.002678,0.000431,0.133042
31157000,0.0324,0.013523,0.002678,0.000431,0.133042
31158000,0.0324,0.013523,0.002678,0.000431,0.399361
31159000,0.0324,0.013523,0.002678,0.000431,0.456009
31160000,0.0324,0.013523,0.002678,0.000431,0.265379
31161000,0.0324,0.013523,0.002678,0.000431,0.305456
31162000,0.0324,0.013523,0.002678,0.000431,0.137626
31163000,0.0324,0.013523,0.002678,0.000431,0.159838
31164000,0.0324,0.013523,0.002678,0.000431,0.101544
31165000,0.0324,0.013523,0.002678,0.000431,0.476342
31166000,0.0324,0.013523,0.002678,0.000431,0.149966
31167000,0.0324,0.013523,0.002678,0.000431,0.074278
31168000,0.0324,0.013523,0.002678,0.000431,0.065346
31169000,0.0324,0.013523,0.002678,0.000431,0.048657
31170000,0.0324,0.013523,0.002678,0.000431,0.040782
31171000,0.0324,0.013523,0.002678,0.000431,0.029617
31172000,0.0324,0.013523,0.002678,0.000431,0.027149
31173000,0.0324,0.013523,0.002678,0.000431,0.027384
31174000,0.0324,0.013523,0.002678,0.000431,0.019980
31175000,0.0324,0.013523,0.002678,0.000431,0.018334
31176000,0.0324,0.013523,0.002678,0.000431,0.017629
31177000,0.0324,0.013523,0.002678,0.000431,0.014809
31178000,0.0324,0.013523,0.002678,0.000431,0.013516
31179000,0.0324,0.013523,0.002678,0.000431,0.014221
31180000,0.0324,0.013523,0.002678,0.000431,0.016571
31181000,0.0324,0.013523,0.002678,0.000431,0.011988
31182000,0.0324,0.013523,0.002678,0.000431,0.011988
31183000,0.0324,0.013523,0.002678,0.000431,0.010813
31184000,0.0324,0.013523,0.002678,0.000431,0.013398
31185000,0.0324,0.013523,0.002678,0.000431,0.011283
31186000,0.0324,0.013523,0.002678,0.000431,0.010578
31187000,0.0324,0.013523,0.002678,0.000431,0.009990
31188000,0.0324,0.013523,0.002678,0.000431,0.011165
31189000,0.0324,0.013523,0.002678,0.000431,0.009402
31190000,0.0324,0.013523,0.002678,0.000431,0.009050
31191000,0.0324,0.013523,0.002678,0.000431,0.008345
31192000,0.0324,0.013523,0.002678,0.000431,0.010578
31193000,0.0324,0.013523,0.002678,0.000431,0.008345
31194000,0.0324,0.013523,0.002678,0.000431,0.007874
31195000,0.0324,0.013523,0.002678,0.000431,0.010695
31196000,0.0324,0.013523,0.002678,0.000431,0.006347
31197000,0.0324,0.013523,0.002678,0.000431,0.007639
31198000,0.0324,0.013523,0.002678,0.000431,0.005054
31199000,0.0324,0.013523,0.002678,0.000431,0.004936
31200000,0.0324,0.013523,0.002678,0.000431,0.005171
31201000,0.0324,0.013523,0.002678,0.000431,0.005406
31202000,0.0324,0.013523,0.002678,0.000431,0.004584
31203000,0.0324,0.013523,0.002678,0.000431,0.005171
31204000,0.0324,0.013523,0.002678,0.000431,0.005171
31205000,0.0324,0.013523,0.002678,0.000431,0.005171
31206000,0.0324,0.013523,0.002678,0.000431,0.004936
31207000,0.0324,0.013523,0.002678,0.000431,0.005876
31208000,0.0324,0.013523,0.002678,0.000431,0.005759
31209000,0.0324,0.013523,0.002678,0.000431,0.007522
31210000,0.0324,0.013523,0.002678,0.000431,0.003173
31211000,0.0324,0.013523,0.002678,0.000431,0.004349
31212000,0.0324,0.013523,0.002678,0.000431,0.004349
31213000,0.0324,0.013523,0.002678,0.000431,0.002468
31214000,0.0324,0.013523,0.002678,0.000431,0.002351
31215000,0.0324,0.013523,0.002678,0.000431,0.002703
31216000,0.0324,0.013523,0.002678,0.000431,0.002468
31217000,0.0324,0.013523,0.002678,0.000431,0.002351
31218000,0.0324,0.013523,0.002678,0.000431,0.002468
31219000,0.0324,0.013523,0.002678,0.000431,0.002703
31220000,0.0324,0.013523,0.002678,0.000431,0.002351
31221000,0.0324,0.013523,0.002678,0.000431,0.002351
31222000,0.0324,0.013523,0.002678,0.000431,0.002586
31223000,0.0324,0.013523,0.002678,0.000431,0.002586
31224000,0.0324,0.013523,0.002678,0.000431,0.002468
31225000,0.0324,0.013523,0.002678,0.000431,0.002468
31226000,0.0324,0.013523,0.002678,0.000431,0.002586
31227000,0.0324,0.013523,0.002678,0.000431,0.002351
31228000,0.0324,0.013523,0.002678,0.000431,0.002586
31229000,0.0324,0.013523,0.002678,0.000431,0.002351
31230000,0.0324,0.013523,0.002678,0.000431,0.002586
31231000,0.0324,0.013523,0.002678,0.000431,0.002468
31232000,0.0324,0.013523,0.002678,0.000431,0.002468
31233000,0.0324,0.013523,0.002678,0.000431,0.003291
31234000,0.0324,0.013523,0.002678,0.000431,0.002703
31235000,0.0324,0.013523,0.002678,0.000431,0.001645
31236000,0.0324,0.013523,0.002678,0.000431,0.001645
31237000,0.0324,0.013523,0.002678,0.000431,0.001645
31238000,0.0324,0.013523,0.002678,0.000431,0.001645
31239000,0.0324,0.013523,0.002678,0.000431,0.001645
31240000,0.0324,0.013523,0.002678,0.000431,0.001645
31241000,0.0324,0.013523,0.002678,0.000431,0.001763
31242000,0.0324,0.013523,0.002678,0.000431,0.001528
31243000,0.0324,0.013523,0.002678,0.000431,0.001645
31244000,0.0324,0.013523,0.002678,0.000431,0.001645
31245000,0.0324,0.013523,0.002678,0.000431,0.001880
31246000,0.0324,0.013523,0.002678,0.000431,0.001293
31247000,0.0324,0.013523,0.002678,0.000431,0.001763
31248000,0.0324,0.013523,0.002678,0.000431,0.001880
31249000,0.0324,0.013523,0.002678,0.000431,0.001410
31250000,0.0324,0.013523,0.002678,0.000431,0.001645
31251000,0.0324,0.013523,0.002678,0.000431,0.001645
31252000,0.0324,0.013523,0.002678,0.000431,0.001880
31253000,0.0324,0.013523,0.002678,0.000431,0.001410
31254000,0.0324,0.013523,0.002678,0.000431,0.001645
31255000,0.0324,0.013523,0.002678,0.000431,0.001880
31256000,0.0324,0.013523,0.002678,0.000431,0.001645
31257000,0.0324,0.013523,0.002678,0.000431,0.001410
31258000,0.0324,0.013523,0.002678,0.000431,0.001763
31259000,0.0324,0.013523,0.002678,0.000431,0.001763
31260000,0.0324,0.013523,0.002678,0.000431,0.001645
31261000,0.0324,0.013523,0.002678,0.000431,0.001410
31262000,0.0324,0.013523,0.002678,0.000431,0.001880
31263000,0.0324,0.013523,0.002678,0.000431,0.001645
31264000,0.0324,0.013523,0.002678,0.000431,0.001645
31265000,0.0324,0.013523,0.002678,0.000431,0.001645
31266000,0.0324,0.013523,0.002678,0.000431,0.001645
31267000,0.0324,0.013523,0.002678,0.000431,0.001645
31268000,0.0324,0.013523,0.002678,0.000431,0.001645
31269000,0.0324,0.013523,0.002678,0.000431,0.001645
31270000,0.0324,0.013523,0.002678,0.000431,0.001645
31271000,0.0324,0.013523,0.002678,0.000431,0.001645
31272000,0.0324,0.013523,0.002678,0.000431,0.001645
31273000,0.0324,0.013523,0.002678,0.000431,0.001645
31274000,0.0324,0.013523,0.002678,0.000431,0.001645
31275000,0.0324,0.013523,0.002678,0.000431,0.001528
31276000,0.0324,0.013523,0.002678,0.000431,0.001763
31277000,0.0324,0.013523,0.002678,0.000431,0.001880
31278000,0.0324,0.013523,0.002678,0.000431,0.001410
31279000,0.0324,0.013523,0.002678,0.000431,0.001645
31280000,0.0324,0.013523,0.002678,0.000431,0.001645
31281000,0.0324,0.013523,0.002678,0.000431,0.001645
31282000,0.0324,0.013523,0.002678,0.000431,0.001645
31283000,0.0324,0.013523,0.002678,0.000431,0.001645
31284000,0.0324,0.013523,0.002678,0.000431,0.001880
31285000,0.0324,0.013523,0.002678,0.000431,0.001410
31286000,0.0324,0.013523,0.002678,0.000431,0.001645
31287000,0.0324,0.013523,0.002678,0.000431,0.001763
31288000,0.0324,0.013523,0.002678,0.000431,0.001763
31289000,0.0324,0.013523,0.002678,0.000431,0.001410
31290000,0.0324,0.013523,0.002678,0.000431,0.001645
31291000,0.0324,0.013523,0.002678,0.000431,0.001880
31292000,0.0324,0.013523,0.002678,0.000431,0.001645
31293000,0.0324,0.013523,0.002678,0.000431,0.001410
31294000,0.0324,0.013523,0.002678,0.000431,0.001880
31295000,0.0324,0.013523,0.002678,0.000431,0.001645
31296000,0.0324,0.013523,0.002678,0.000431,0.001645
31297000,0.0324,0.013523,0.002678,0.000431,0.001410
31298000,0.0324,0.013523,0.002678,0.000431,0.001880
31299000,0.0324,0.013523,0.002678,0.000431,0.001645
31300000,0.0324,0.013523,0.002678,0.000431,0.001645
31301000,0.0324,0.013523,0.002678,0.000431,0.001645
31302000,0.0324,0.013523,0.002678,0.000431,0.001645
31303000,0.0324,0.013523,0.002678,0.000431,0.001645
31304000,0.0324,0.013523,0.002678,0.000431,0.001528
31305000,0.0324,0.013523,0.002678,0.000431,0.001763
31306000,0.0324,0.013523,0.002678,0.000431,0.001645
31307000,0.0324,0.013523,0.002678,0.000431,0.001645
31308000,0.0324,0.013523,0.002678,0.000431,0.001645
31309000,0.0324,0.013523,0.002678,0.000431,0.001645
31310000,0.0324,0.013523,0.002678,0.000431,0.001645
31311000,0.0324,0.013523,0.002678,0.000431,0.001645
31312000,0.0324,0.013523,0.002678,0.000431,0.001645
31313000,0.0324,0.013523,0.002678,0.000431,0.001645
31314000,0.0324,0.013523,0.002678,0.000431,0.001645
31315000,0.0324,0.013523,0.002678,0.000431,0.001645
31316000,0.0324,0.013523,0.002678,0.000431,0.001763
31317000,0.0324,0.013523,0.002678,0.000431,0.001528
31318000,0.0324,0.013523,0.002678,0.000431,0.002351
31319000,0.0324,0.013523,0.002678,0.000431,0.422749
31320000,0.0324,0.013523,0.002678,0.000431,0.707990
31321000,0.0324,0.013523,0.002678,0.000431,0.140446
31322000,0.0324,0.013523,0.002678,0.000431,0.133982
31323000,0.0324,0.013523,0.002678,0.000431,0.299579
31324000,0.0324,0.013523,0.002678,0.000431,0.448252
31325000,0.0324,0.013523,0.002678,0.000431,0.235291
31326000,0.0324,0.013523,0.002678,0.000431,0.373034
31327000,0.0324,0.013523,0.002678,0.000431,0.161131
31328000,0.0324,0.013523,0.002678,0.000431,0.152317
31329000,0.0324,0.013523,0.002678,0.000431,0.111652
31330000,0.0324,0.013523,0.002678,0.000431,0.405237
31331000,0.0324,0.013523,0.002678,0.000431,0.173001
31332000,0.0324,0.013523,0.002678,0.000431,0.032438
31333000,0.0324,0.013523,0.002678,0.000431,0.030322
31334000,0.0324,0.013523,0.002678,0.000431,0.018805
31335000,0.0324,0.013523,0.002678,0.000431,0.017864
31336000,0.0324,0.013523,0.002678,0.000431,0.015161
31337000,0.0324,0.013523,0.002678,0.000431,0.013516
31338000,0.0324,0.013523,0.002678,0.000431,0.014573
31339000,0.0324,0.013523,0.002678,0.000431,0.012928
31340000,0.0324,0.013523,0.002678,0.000431,0.012576
31341000,0.0324,0.013523,0.002678,0.000431,0.013398
31342000,0.0324,0.013523,0.002678,0.000431,0.012223
31343000,0.0324,0.013523,0.002678,0.000431,0.013046
31344000,0.0324,0.013523,0.002678,0.000431,0.015514
31345000,0.0324,0.013523,0.002678,0.000431,0.012105
31346000,0.0324,0.013523,0.002678,0.000431,0.010695
31347000,0.0324,0.013523,0.002678,0.000431,0.011048
31348000,0.0324,0.013523,0.002678,0.000431,0.011753
31349000,0.0324,0.013523,0.002678,0.000431,0.010813
31350000,0.0324,0.013523,0.002678,0.000431,0.011400
31351000,0.0324,0.013523,0.002678,0.000431,0.011635
31352000,0.0324,0.013523,0.002678,0.000431,0.012105
31353000,0.0324,0.013523,0.002678,0.000431,0.010342
31354000,0.0324,0.013523,0.002678,0.000431,0.008227
31355000,0.0324,0.013523,0.002678,0.000431,0.010930
31356000,0.0324,0.013523,0.002678,0.000431,0.007639
31357000,0.0324,0.013523,0.002678,0.000431,0.007052
31358000,0.0324,0.013523,0.002678,0.000431,0.008109
31359000,0.0324,0.013523,0.002678,0.000431,0.007639
31360000,0.0324,0.013523,0.002678,0.000431,0.007522
31361000,0.0324,0.013523,0.002678,0.000431,0.007169
31362000,0.0324,0.013523,0.002678,0.000431,0.007992
31363000,0.0324,0.013523,0.002678,0.000431,0.007522
31364000,0.0324,0.013523,0.002678,0.000431,0.007287
31365000,0.0324,0.013523,0.002678,0.000431,0.008815
31366000,0.0324,0.013523,0.002678,0.000431,0.005876
31367000,0.0324,0.013523,0.002678,0.000431,0.007404
31368000,0.0324,0.013523,0.002678,0.000431,0.005054
31369000,0.0324,0.013523,0.002678,0.000431,0.005054
31370000,0.0324,0.013523,0.002678,0.000431,0.005054
31371000,0.0324,0.013523,0.002678,0.000431,0.005171
31372000,0.0324,0.013523,0.002678,0.000431,0.005054
31373000,0.0324,0.013523,0.002678,0.000431,0.005054
31374000,0.0324,0.013523,0.002678,0.000431,0.004936
31375000,0.0324,0.013523,0.002678,0.000431,0.005054
31376000,0.0324,0.013523,0.002678,0.000431,0.005054
31377000,0.0324,0.013523,0.002678,0.000431,0.005289
31378000,0.0324,0.013523,0.002678,0.000431,0.004701
31379000,0.0324,0.013523,0.002678,0.000431,0.005171
31380000,0.0324,0.013523,0.002678,0.000431,0.005406
31381000,0.0324,0.013523,0.002678,0.000431,0.004936
31382000,0.0324,0.013523,0.002678,0.000431,0.004936
31383000,0.0324,0.013523,0.002678,0.000431,0.004819
31384000,0.0324,0.013523,0.002678,0.000431,0.005641
31385000,0.0324,0.013523,0.002678,0.000431,0.004701
31386000,0.0324,0.013523,0.002678,0.000431,0.004936
31387000,0.0324,0.013523,0.002678,0.000431,0.005406
31388000,0.0324,0.013523,0.002678,0.000431,0.005054
31389000,0.0324,0.013523,0.002678,0.000431,0.005406
31390000,0.0324,0.013523,0.002678,0.000431,0.003408
31391000,0.0324,0.013523,0.002678,0.000431,0.006111
31392000,0.0324,0.013523,0.002678,0.000431,0.005171
31393000,0.0324,0.013523,0.002678,0.000431,0.001528
31394000,0.0324,0.013523,0.002678,0.000431,0.001880
31395000,0.0324,0.013523,0.002678,0.000431,0.001645
31396000,0.0324,0.013523,0.002678,0.000431,0.001410
31397000,0.0324,0.013523,0.002678,0.000431,0.001763
31398000,0.0324,0.013523,0.002678,0.000431,0.001763
31399000,0.0324,0.013523,0.002678,0.000431,0.001645
31400000,0.0324,0.013523,0.002678,0.000431,0.001410
31401000,0.0324,0.013523,0.002678,0.000431,0.001880
31402000,0.0324,0.013523,0.002678,0.000431,0.185107
31403000,0.0324,0.013523,0.002678,0.000431,0.426392
31404000,0.0324,0.013523,0.002678,0.000431,0.523706
31405000,0.0324,0.013523,0.002678,0.000431,0.134217
31406000,0.0324,0.013523,0.002678,0.000431,0.131632
31407000,0.0324,0.013523,0.002678,0.000431,0.609266
31408000,0.0324,0.013523,0.002678,0.000431,0.272078
31409000,0.0324,0.013523,0.002678,0.000431,0.260325
31410000,0.0324,0.013523,0.002678,0.000431,0.266084
31411000,0.0324,0.013523,0.002678,0.000431,0.139741
31412000,0.0324,0.013523,0.002678,0.000431,0.153257
31413000,0.0324,0.013523,0.002678,0.000431,0.098724
31414000,0.0324,0.013523,0.002678,0.000431,0.424394
31415000,0.0324,0.013523,0.002678,0.000431,0.128811
31416000,0.0324,0.013523,0.002678,0.000431,0.025621
31417000,0.0324,0.013523,0.002678,0.000431,0.020685
31418000,0.0324,0.013523,0.002678,0.000431,0.017747
31419000,0.0324,0.013523,0.002678,0.000431,0.012223
31420000,0.0324,0.013523,0.002678,0.000431,0.012928
31421000,0.0324,0.013523,0.002678,0.000431,0.010225
31422000,0.0324,0.013523,0.002678,0.000431,0.008932
31423000,0.0324,0.013523,0.002678,0.000431,0.010578
31424000,0.0324,0.013523,0.002678,0.000431,0.010695
31425000,0.0324,0.013523,0.002678,0.000431,0.005054
31426000,0.0324,0.013523,0.002678,0.000431,0.006934
31427000,0.0324,0.013523,0.002678,0.000431,0.004584
31428000,0.0324,0.013523,0.002678,0.000431,0.004113
31429000,0.0324,0.013523,0.002678,0.000431,0.004819
31430000,0.0324,0.013523,0.002678,0.000431,0.004231
31431000,0.0324,0.013523,0.002678,0.000431,0.004701
31432000,0.0324,0.013523,0.002678,0.000431,0.004113
31433000,0.0324,0.013523,0.002678,0.000431,0.004936
31434000,0.0324,0.013523,0.002678,0.000431,0.004349
31435000,0.0324,0.013523,0.002678,0.000431,0.004584
31436000,0.0324,0.013523,0.002678,0.000431,0.004113
31437000,0.0324,0.013523,0.002678,0.000431,0.004936
31438000,0.0324,0.013523,0.002678,0.000431,0.004349
31439000,0.0324,0.013523,0.002678,0.000431,0.004584
31440000,0.0324,0.013523,0.002678,0.000431,0.004701
31441000,0.0324,0.013523,0.002678,0.000431,0.006582
31442000,0.0324,0.013523,0.002678,0.000431,0.002586
31443000,0.0324,0.013523,0.002678,0.000431,0.002703
31444000,0.0324,0.013523,0.002678,0.000431,0.002586
31445000,0.0324,0.013523,0.002678,0.000431,0.002586
31446000,0.0324,0.013523,0.002678,0.000431,0.002468
31447000,0.0324,0.013523,0.002678,0.000431,0.002703
31448000,0.0324,0.013523,0.002678,0.000431,0.003878
31449000,0.0324,0.013523,0.002678,0.000431,0.001645
31450000,0.0324,0.013523,0.002678,0.000431,0.001763
31451000,0.0324,0.013523,0.002678,0.000431,0.002821
31452000,0.0324,0.013523,0.002678,0.000431,0.000823
31453000,0.0324,0.013523,0.002678,0.000431,0.000940
31454000,0.0324,0.013523,0.002678,0.000431,0.000940
31455000,0.0324,0.013523,0.002678,0.000431,0.000823
31456000,0.0324,0.013523,0.002678,0.000431,0.000823
31457000,0.0324,0.013523,0.002678,0.000431,0.000940
31458000,0.0324,0.013523,0.002678,0.000431,0.013868
31459000,0.0324,0.013523,0.002678,0.000431,0.451426
31460000,0.0324,0.013523,0.002678,0.000431,0.593165
31461000,0.0324,0.013523,0.002678,0.000431,0.134922
31462000,0.0324,0.013523,0.002678,0.000431,0.131161
31463000,0.0324,0.013523,0.002678,0.000431,0.263498
31464000,0.0324,0.013523,0.002678,0.000431,0.579061
31465000,0.0324,0.013523,0.002678,0.000431,0.223304
31466000,0.0324,0.013523,0.002678,0.000431,0.281127
31467000,0.0324,0.013523,0.002678,0.000431,0.184754
31468000,0.0324,0.013523,0.002678,0.000431,0.142092
31469000,0.0324,0.013523,0.002678,0.000431,0.156312
31470000,0.0324,0.013523,0.002678,0.000431,0.141269
31471000,0.0324,0.013523,0.002678,0.000431,0.478927
31472000,0.0324,0.013523,0.002678,0.000431,0.087441
31473000,0.0324,0.013523,0.002678,0.000431,0.062525
31474000,0.0324,0.013523,0.002678,0.000431,0.060174
31475000,0.0324,0.013523,0.002678,0.000431,0.041487
31476000,0.0324,0.013523,0.002678,0.000431,0.039842
31477000,0.0324,0.013523,0.002678,0.000431,0.025034
31478000,0.0324,0.013523,0.002678,0.000431,0.019392
31479000,0.0324,0.013523,0.002678,0.000431,0.016689
31480000,0.0324,0.013523,0.002678,0.000431,0.012576
31481000,0.0324,0.013523,0.002678,0.000431,0.014103
31482000,0.0324,0.013523,0.002678,0.000431,0.015984
31483000,0.0324,0.013523,0.002678,0.000431,0.014103
31484000,0.0324,0.013523,0.002678,0.000431,0.008462
31485000,0.0324,0.013523,0.002678,0.000431,0.008227
31486000,0.0324,0.013523,0.002678,0.000431,0.008109
31487000,0.0324,0.013523,0.002678,0.000431,0.007639
31488000,0.0324,0.013523,0.002678,0.000431,0.009755
31489000,0.0324,0.013523,0.002678,0.000431,0.009167
31490000,0.0324,0.013523,0.002678,0.000431,0.005289
31491000,0.0324,0.013523,0.002678,0.000431,0.004349
31492000,0.0324,0.013523,0.002678,0.000431,0.004231
31493000,0.0324,0.013523,0.002678,0.000431,0.004231
31494000,0.0324,0.013523,0.002678,0.000431,0.004349
31495000,0.0324,0.013523,0.002678,0.000431,0.004231
31496000,0.0324,0.013523,0.002678,0.000431,0.005641
31497000,0.0324,0.013523,0.002678,0.000431,0.003643
31498000,0.0324,0.013523,0.002678,0.000431,0.003408
31499000,0.0324,0.013523,0.002678,0.000431,0.003408
31500000,0.0324,0.013523,0.002678,0.000431,0.003291
31501000,0.0324,0.013523,0.002678,0.000431,0.003526
31502000,0.0324,0.013523,0.002678,0.000431,0.003643
31503000,0.0324,0.013523,0.002678,0.000431,0.003408
31504000,0.0324,0.013523,0.002678,0.000431,0.003408
31505000,0.0324,0.013523,0.002678,0.000431,0.003408
31506000,0.0324,0.013523,0.002678,0.000431,0.003643
31507000,0.0324,0.013523,0.002678,0.000431,0.003526
31508000,0.0324,0.013523,0.002678,0.000431,0.003408
31509000,0.0324,0.013523,0.002678,0.000431,0.003408
31510000,0.0324,0.013523,0.002678,0.000431,0.003643
31511000,0.0324,0.013523,0.002678,0.000431,0.003526
31512000,0.0324,0.013523,0.002678,0.000431,0.003291
31513000,0.0324,0.013523,0.002678,0.000431,0.003761
31514000,0.0324,0.013523,0.002678,0.000431,0.003526
31515000,0.0324,0.013523,0.002678,0.000431,0.003526
31516000,0.0324,0.013523,0.002678,0.000431,0.003291
31517000,0.0324,0.013523,0.002678,0.000431,0.003643
31518000,0.0324,0.013523,0.002678,0.000431,0.003526
31519000,0.0324,0.013523,0.002678,0.000431,0.003408
31520000,0.0324,0.013523,0.002678,0.000431,0.003526
31521000,0.0324,0.013523,0.002678,0.000431,0.003643
31522000,0.0324,0.013523,0.002678,0.000431,0.003526
31523000,0.0324,0.013523,0.002678,0.000431,0.003408
31524000,0.0324,0.013523,0.002678,0.000431,0.005289
31525000,0.0324,0.013523,0.002678,0.000431,0.002703
31526000,0.0324,0.013523,0.002678,0.000431,0.002586
31527000,0.0324,0.013523,0.002678,0.000431,0.002586
31528000,0.0324,0.013523,0.002678,0.000431,0.002703
31529000,0.0324,0.013523,0.002678,0.000431,0.002703
31530000,0.0324,0.013523,0.002678,0.000431,0.002703
31531000,0.0324,0.013523,0.002678,0.000431,0.002351
31532000,0.0324,0.013523,0.002678,0.000431,0.002821
31533000,0.0324,0.013523,0.002678,0.000431,0.002821
31534000,0.0324,0.013523,0.002678,0.000431,0.002468
31535000,0.0324,0.013523,0.002678,0.000431,0.002468
31536000,0.0324,0.013523,0.002678,0.000431,0.002821
31537000,0.0324,0.013523,0.002678,0.000431,0.002703
31538000,0.0324,0.013523,0.002678,0.000431,0.002468
31539000,0.0324,0.013523,0.002678,0.000431,0.002586
31540000,0.0324,0.013523,0.002678,0.000431,0.002821
31541000,0.0324,0.013523,0.002678,0.000431,0.002586
31542000,0.0324,0.013523,0.002678,0.000431,0.002586
31543000,0.0324,0.013523,0.002678,0.000431,0.002586
31544000,0.0324,0.013523,0.002678,0.000431,0.002703
31545000,0.0324,0.013523,0.002678,0.000431,0.002586
31546000,0.0324,0.013523,0.002678,0.000431,0.002586
31547000,0.0324,0.013523,0.002678,0.000431,0.002703
31548000,0.0324,0.013523,0.002678,0.000431,0.002703
31549000,0.0324,0.013523,0.002678,0.000431,0.002468
31550000,0.0324,0.013523,0.002678,0.000431,0.002586
31551000,0.0324,0.013523,0.002678,0.000431,0.002821
31552000,0.0324,0.013523,0.002678,0.000431,0.002703
31553000,0.0324,0.013523,0.002678,0.000431,0.002468
31554000,0.0324,0.013523,0.002678,0.000431,0.002586
31555000,0.0324,0.013523,0.002678,0.000431,0.002821
31556000,0.0324,0.013523,0.002678,0.000431,0.002703
31557000,0.0324,0.013523,0.002678,0.000431,0.002468
31558000,0.0324,0.013523,0.002678,0.000431,0.002586
31559000,0.0324,0.013523,0.002678,0.000431,0.002703
31560000,0.0324,0.013523,0.002678,0.000431,0.002586
31561000,0.0324,0.013523,0.002678,0.000431,0.002703
31562000,0.0324,0.013523,0.002678,0.000431,0.002586
31563000,0.0324,0.013523,0.002678,0.000431,0.004113
31564000,0.0324,0.013523,0.002678,0.000431,0.001763
31565000,0.0324,0.013523,0.002678,0.000431,0.001763
31566000,0.0324,0.013523,0.002678,0.000431,0.001880
31567000,0.0324,0.013523,0.002678,0.000431,0.001763
31568000,0.0324,0.013523,0.002678,0.000431,0.001645
31569000,0.0324,0.013523,0.002678,0.000431,0.001763
31570000,0.0324,0.013523,0.002678,0.000431,0.001880
31571000,0.0324,0.013523,0.002678,0.000431,0.003291
31572000,0.0324,0.013523,0.002678,0.000431,0.000823
31573000,0.0324,0.013523,0.002678,0.000431,0.000940
31574000,0.0324,0.013523,0.002678,0.000431,0.000940
31575000,0.0324,0.013523,0.002678,0.000431,0.000940
31576000,0.0324,0.013523,0.002678,0.000431,0.000705
31577000,0.0324,0.013523,0.002678,0.000431,0.000940
31578000,0.0324,0.013523,0.002678,0.000431,0.014338
31579000,0.0324,0.013523,0.002678,0.000431,0.533225
31580000,0.0324,0.013523,0.002678,0.000431,0.611382
31581000,0.0324,0.013523,0.002678,0.000431,0.135392
31582000,0.0324,0.013523,0.002678,0.000431,0.130691
31583000,0.0324,0.013523,0.002678,0.000431,0.418400
31584000,0.0324,0.013523,0.002678,0.000431,0.419458
31585000,0.0324,0.013523,0.002678,0.000431,0.244341
31586000,0.0324,0.013523,0.002678,0.000431,0.323790
31587000,0.0324,0.013523,0.002678,0.000431,0.144090
31588000,0.0324,0.013523,0.002678,0.000431,0.153609
31589000,0.0324,0.013523,0.002678,0.000431,0.106951
31590000,0.0324,0.013523,0.002678,0.000431,0.433797
31591000,0.0324,0.013523,0.002678,0.000431,0.164069
31592000,0.0324,0.013523,0.002678,0.000431,0.051360
31593000,0.0324,0.013523,0.002678,0.000431,0.046776
31594000,0.0324,0.013523,0.002678,0.000431,0.035023
31595000,0.0324,0.013523,0.002678,0.000431,0.028442
31596000,0.0324,0.013523,0.002678,0.000431,0.021390
31597000,0.0324,0.013523,0.002678,0.000431,0.020920
31598000,0.0324,0.013523,0.002678,0.000431,0.016924
31599000,0.0324,0.013523,0.002678,0.000431,0.012811
31600000,0.0324,0.013523,0.002678,0.000431,0.014691
31601000,0.0324,0.013523,0.002678,0.000431,0.013751
31602000,0.0324,0.013523,0.002678,0.000431,0.011988
31603000,0.0324,0.013523,0.002678,0.000431,0.009520
31604000,0.0324,0.013523,0.002678,0.000431,0.009050
31605000,0.0324,0.013523,0.002678,0.000431,0.009637
31606000,0.0324,0.013523,0.002678,0.000431,0.009520
31607000,0.0324,0.013523,0.002678,0.000431,0.010225
31608000,0.0324,0.013523,0.002678,0.000431,0.008932
31609000,0.0324,0.013523,0.002678,0.000431,0.007757
31610000,0.0324,0.013523,0.002678,0.000431,0.007757
31611000,0.0324,0.013523,0.002678,0.000431,0.007992
31612000,0.0324,0.013523,0.002678,0.000431,0.007287
31613000,0.0324,0.013523,0.002678,0.000431,0.008815
31614000,0.0324,0.013523,0.002678,0.000431,0.008109
31615000,0.0324,0.013523,0.002678,0.000431,0.006934
31616000,0.0324,0.013523,0.002678,0.000431,0.006934
31617000,0.0324,0.013523,0.002678,0.000431,0.007052
31618000,0.0324,0.013523,0.002678,0.000431,0.007169
31619000,0.0324,0.013523,0.002678,0.000431,0.007874
31620000,0.0324,0.013523,0.002678,0.000431,0.005759
31621000,0.0324,0.013523,0.002678,0.000431,0.005054
31622000,0.0324,0.013523,0.002678,0.000431,0.005171
31623000,0.0324,0.013523,0.002678,0.000431,0.005289
31624000,0.0324,0.013523,0.002678,0.000431,0.005406
31625000,0.0324,0.013523,0.002678,0.000431,0.005289
31626000,0.0324,0.013523,0.002678,0.000431,0.005054
31627000,0.0324,0.013523,0.002678,0.000431,0.005054
31628000,0.0324,0.013523,0.002678,0.000431,0.005289
31629000,0.0324,0.013523,0.002678,0.000431,0.005054
31630000,0.0324,0.013523,0.002678,0.000431,0.005289
31631000,0.0324,0.013523,0.002678,0.000431,0.005289
31632000,0.0324,0.013523,0.002678,0.000431,0.004819
31633000,0.0324,0.013523,0.002678,0.000431,0.005524
31634000,0.0324,0.013523,0.002678,0.000431,0.005406
31635000,0.0324,0.013523,0.002678,0.000431,0.005171
31636000,0.0324,0.013523,0.002678,0.000431,0.006934
31637000,0.0324,0.013523,0.002678,0.000431,0.004936
31638000,0.0324,0.013523,0.002678,0.000431,0.005759
31639000,0.0324,0.013523,0.002678,0.000431,0.003526
31640000,0.0324,0.013523,0.002678,0.000431,0.003408
31641000,0.0324,0.013523,0.002678,0.000431,0.003643
31642000,0.0324,0.013523,0.002678,0.000431,0.003526
31643000,0.0324,0.013523,0.002678,0.000431,0.003408
31644000,0.0324,0.013523,0.002678,0.000431,0.003526
31645000,0.0324,0.013523,0.002678,0.000431,0.003643
31646000,0.0324,0.013523,0.002678,0.000431,0.003291
31647000,0.0324,0.013523,0.002678,0.000431,0.003526
31648000,0.0324,0.013523,0.002678,0.000431,0.003408
31649000,0.0324,0.013523,0.002678,0.000431,0.003643
31650000,0.0324,0.013523,0.002678,0.000431,0.005406
31651000,0.0324,0.013523,0.002678,0.000431,0.002586
31652000,0.0324,0.013523,0.002678,0.000431,0.002703
31653000,0.0324,0.013523,0.002678,0.000431,0.002468
31654000,0.0324,0.013523,0.002678,0.000431,0.002703
31655000,0.0324,0.013523,0.002678,0.000431,0.002703
31656000,0.0324,0.013523,0.002678,0.000431,0.002586
31657000,0.0324,0.013523,0.002678,0.000431,0.002586
31658000,0.0324,0.013523,0.002678,0.000431,0.002586
31659000,0.0324,0.013523,0.002678,0.000431,0.002703
31660000,0.0324,0.013523,0.002678,0.000431,0.002586
31661000,0.0324,0.013523,0.002678,0.000431,0.002703
31662000,0.0324,0.013523,0.002678,0.000431,0.002586
31663000,0.0324,0.013523,0.002678,0.000431,0.002468
31664000,0.0324,0.013523,0.002678,0.000431,0.002821
31665000,0.0324,0.013523,0.002678,0.000431,0.002703
31666000,0.0324,0.013523,0.002678,0.000431,0.002703
31667000,0.0324,0.013523,0.002678,0.000431,0.002468
31668000,0.0324,0.013523,0.002678,0.000431,0.002586
31669000,0.0324,0.013523,0.002678,0.000431,0.002821
31670000,0.0324,0.013523,0.002678,0.000431,0.002703
31671000,0.0324,0.013523,0.002678,0.000431,0.002586
31672000,0.0324,0.013523,0.002678,0.000431,0.002468
31673000,0.0324,0.013523,0.002678,0.000431,0.002703
31674000,0.0324,0.013523,0.002678,0.000431,0.002821
31675000,0.0324,0.013523,0.002678,0.000431,0.002468
31676000,0.0324,0.013523,0.002678,0.000431,0.002703
31677000,0.0324,0.013523,0.002678,0.000431,0.002586
31678000,0.0324,0.013523,0.002678,0.000431,0.002703
31679000,0.0324,0.013523,0.002678,0.000431,0.002586
31680000,0.0324,0.013523,0.002678,0.000431,0.002703
31681000,0.0324,0.013523,0.002678,0.000431,0.002586
31682000,0.0324,0.013523,0.002678,0.000431,0.002586
31683000,0.0324,0.013523,0.002678,0.000431,0.002703
31684000,0.0324,0.013523,0.002678,0.000431,0.002586
31685000,0.0324,0.013523,0.002678,0.000431,0.002703
31686000,0.0324,0.013523,0.002678,0.000431,0.002586
31687000,0.0324,0.013523,0.002678,0.000431,0.002468
31688000,0.0324,0.013523,0.002678,0.000431,0.002821
31689000,0.0324,0.013523,0.002678,0.000431,0.002703
31690000,0.0324,0.013523,0.002678,0.000431,0.002586
31691000,0.0324,0.013523,0.002678,0.000431,0.002468
31692000,0.0324,0.013523,0.002678,0.000431,0.002703
31693000,0.0324,0.013523,0.002678,0.000431,0.002821
31694000,0.0324,0.013523,0.002678,0.000431,0.002351
31695000,0.0324,0.013523,0.002678,0.000431,0.002703
31696000,0.0324,0.013523,0.002678,0.000431,0.002703
31697000,0.0324,0.013523,0.002678,0.000431,0.002703
31698000,0.0324,0.013523,0.002678,0.000431,0.002468
31699000,0.0324,0.013523,0.002678,0.000431,0.002703
31700000,0.0324,0.013523,0.002678,0.000431,0.002703
31701000,0.0324,0.013523,0.002678,0.000431,0.002468
31702000,0.0324,0.013523,0.002678,0.000431,0.002703
31703000,0.0324,0.013523,0.002678,0.000431,0.002703
31704000,0.0324,0.013523,0.002678,0.000431,0.002586
31705000,0.0324,0.013523,0.002678,0.000431,0.002586
31706000,0.0324,0.013523,0.002678,0.000431,0.002586
31707000,0.0324,0.013523,0.002678,0.000431,0.002821
31708000,0.0324,0.013523,0.002678,0.000431,0.002468
31709000,0.0324,0.013523,0.002678,0.000431,0.002703
31710000,0.0324,0.013523,0.002678,0.000431,0.002586
31711000,0.0324,0.013523,0.002678,0.000431,0.002703
31712000,0.0324,0.013523,0.002678,0.000431,0.004349
31713000,0.0324,0.013523,0.002678,0.000431,0.001645
31714000,0.0324,0.013523,0.002678,0.000431,0.001763
31715000,0.0324,0.013523,0.002678,0.000431,0.001763
31716000,0.0324,0.013523,0.002678,0.000431,0.001763
31717000,0.0324,0.013523,0.002678,0.000431,0.001763
31718000,0.0324,0.013523,0.002678,0.000431,0.001645
31719000,0.0324,0.013523,0.002678,0.000431,0.001763
31720000,0.0324,0.013523,0.002678,0.000431,0.001763
31721000,0.0324,0.013523,0.002678,0.000431,0.001880
31722000,0.0324,0.013523,0.002678,0.000431,0.001763
31723000,0.0324,0.013523,0.002678,0.000431,0.001645
31724000,0.0324,0.013523,0.002678,0.000431,0.001763
31725000,0.0324,0.013523,0.002678,0.000431,0.001763
31726000,0.0324,0.013523,0.002678,0.000431,0.001763
31727000,0.0324,0.013523,0.002678,0.000431,0.001763
31728000,0.0324,0.013523,0.002678,0.000431,0.001763
31729000,0.0324,0.013523,0.002678,0.000431,0.001763
31730000,0.0324,0.013523,0.002678,0.000431,0.001763
31731000,0.0324,0.013523,0.002678,0.000431,0.001763
31732000,0.0324,0.013523,0.002678,0.000431,0.001763
31733000,0.0324,0.013523,0.002678,0.000431,0.001645
31734000,0.0324,0.013523,0.002678,0.000431,0.001880
31735000,0.0324,0.013523,0.002678,0.000431,0.001645
31736000,0.0324,0.013523,0.002678,0.000431,0.001880
31737000,0.0324,0.013523,0.002678,0.000431,0.001645
31738000,0.0324,0.013523,0.002678,0.000431,0.001763
31739000,0.0324,0.013523,0.002678,0.000431,0.001763
31740000,0.0324,0.013523,0.002678,0.000431,0.001763
31741000,0.0324,0.013523,0.002678,0.000431,0.001763
31742000,0.0324,0.013523,0.002678,0.000431,0.001763
31743000,0.0324,0.013523,0.002678,0.000431,0.001763
31744000,0.0324,0.013523,0.002678,0.000431,0.001763
31745000,0.0324,0.013523,0.002678,0.000431,0.001763
31746000,0.0324,0.013523,0.002678,0.000431,0.001763
31747000,0.0324,0.013523,0.002678,0.000431,0.001645
31748000,0.0324,0.013523,0.002678,0.000431,0.003408
31749000,0.0324,0.013523,0.002678,0.000431,0.000823
31750000,0.0324,0.013523,0.002678,0.000431,0.000823
31751000,0.0324,0.013523,0.002678,0.000431,0.000940
31752000,0.0324,0.013523,0.002678,0.000431,0.000823
31753000,0.0324,0.013523,0.002678,0.000431,0.000940
31754000,0.0324,0.013523,0.002678,0.000431,0.000823
31755000,0.0324,0.013523,0.002678,0.000431,0.000940
31756000,0.0324,0.013523,0.002678,0.000431,0.000823
31757000,0.0324,0.013523,0.002678,0.000431,0.000823
31758000,0.0324,0.013523,0.002678,0.000431,0.000940
31759000,0.0324,0.013523,0.002678,0.000431,0.000940
31760000,0.0324,0.013523,0.002678,0.000431,0.000705
31761000,0.0324,0.013523,0.002678,0.000431,0.000940
31762000,0.0324,0.013523,0.002678,0.000431,0.000940
31763000,0.0324,0.013523,0.002678,0.000431,0.000940
31764000,0.0324,0.013523,0.002678,0.000431,0.000705
31765000,0.0324,0.013523,0.002678,0.000431,0.000940
31766000,0.0324,0.013523,0.002678,0.000431,0.000940
31767000,0.0324,0.013523,0.002678,0.000431,0.000823
31768000,0.0324,0.013523,0.002678,0.000431,0.000823
31769000,0.0324,0.013523,0.002678,0.000431,0.000940
31770000,0.0324,0.013523,0.002678,0.000431,0.000940
31771000,0.0324,0.013523,0.002678,0.000431,0.000823
31772000,0.0324,0.013523,0.002678,0.000431,0.000823
31773000,0.0324,0.013523,0.002678,0.000431,0.000940
31774000,0.0324,0.013523,0.002678,0.000431,0.000823
31775000,0.0324,0.013523,0.002678,0.000431,0.000940
31776000,0.0324,0.013523,0.002678,0.000431,0.000823
31777000,0.0324,0.013523,0.002678,0.000431,0.000940
31778000,0.0324,0.013523,0.002678,0.000431,0.000940
31779000,0.0324,0.013523,0.002678,0.000431,0.000705
31780000,0.0324,0.013523,0.002678,0.000431,0.000940
31781000,0.0324,0.013523,0.002678,0.000431,0.000940
31782000,0.0324,0.013523,0.002678,0.000431,0.000940
31783000,0.0324,0.013523,0.002678,0.000431,0.000940
31784000,0.0324,0.013523,0.002678,0.000431,0.000823
31785000,0.0324,0.013523,0.002678,0.000431,0.000823
31786000,0.0324,0.013523,0.002678,0.000431,0.000940
31787000,0.0324,0.013523,0.002678,0.000431,0.000823
31788000,0.0324,0.013523,0.002678,0.000431,0.000940
31789000,0.0324,0.013523,0.002678,0.000431,0.000823
31790000,0.0324,0.013523,0.002678,0.000431,0.000940
31791000,0.0324,0.013523,0.002678,0.000431,0.000823
31792000,0.0324,0.013523,0.002678,0.000431,0.000823
31793000,0.0324,0.013523,0.002678,0.000431,0.000940
31794000,0.0324,0.013523,0.002678,0.000431,0.000940
31795000,0.0324,0.013523,0.002678,0.000431,0.000823
31796000,0.0324,0.013523,0.002678,0.000431,0.000823
31797000,0.0324,0.013523,0.002678,0.000431,0.000940
31798000,0.0324,0.013523,0.002678,0.000431,0.000940
31799000,0.0324,0.013523,0.002678,0.000431,0.000823
31800000,0.0324,0.013523,0.002678,0.000431,0.000823
31801000,0.0324,0.013523,0.002678,0.000431,0.000940
31802000,0.0324,0.013523,0.002678,0.000431,0.000940
31803000,0.0324,0.013523,0.002678,0.000431,0.000823
31804000,0.0324,0.013523,0.002678,0.000431,0.000823
31805000,0.0324,0.013523,0.002678,0.000431,0.000940
31806000,0.0324,0.013523,0.002678,0.000431,0.000823
31807000,0.0324,0.013523,0.002678,0.000431,0.000940
31808000,0.0324,0.013523,0.002678,0.000431,0.000823
31809000,0.0324,0.013523,0.002678,0.000431,0.000940
31810000,0.0324,0.013523,0.002678,0.000431,0.000823
31811000,0.0324,0.013523,0.002678,0.000431,0.000823
31812000,0.0324,0.013523,0.002678,0.000431,0.000940
31813000,0.0324,0.013523,0.002678,0.000431,0.000940
31814000,0.0324,0.013523,0.002678,0.000431,0.000823
31815000,0.0324,0.013523,0.002678,0.000431,0.000823
31816000,0.0324,0.013523,0.002678,0.000431,0.000940
31817000,0.0324,0.013523,0.002678,0.000431,0.000940
31818000,0.0324,0.013523,0.002678,0.000431,0.000705
31819000,0.0324,0.013523,0.002678,0.000431,0.000940
31820000,0.0324,0.013523,0.002678,0.000431,0.001998
31821000,0.0324,0.013523,0.002678,0.000431,0.355640
31822000,0.0324,0.013523,0.002678,0.000431,0.659803
31823000,0.0324,0.013523,0.002678,0.000431,0.193216
31824000,0.0324,0.013523,0.002678,0.000431,0.132102
31825000,0.0324,0.013523,0.002678,0.000431,0.170651
31826000,0.0324,0.013523,0.002678,0.000431,0.643232
31827000,0.0324,0.013523,0.002678,0.000431,0.247749
31828000,0.0324,0.013523,0.002678,0.000431,0.300285
31829000,0.0324,0.013523,0.002678,0.000431,0.206732
31830000,0.0324,0.013523,0.002678,0.000431,0.145735
31831000,0.0324,0.013523,0.002678,0.000431,0.116705
31832000,0.0324,0.013523,0.002678,0.000431,0.306749
31833000,0.0324,0.013523,0.002678,0.000431,0.313800
31834000,0.0324,0.013523,0.002678,0.000431,0.088264
31835000,0.0324,0.013523,0.002678,0.000431,0.067344
31836000,0.0324,0.013523,0.002678,0.000431,0.054063
31837000,0.0324,0.013523,0.002678,0.000431,0.050537
31838000,0.0324,0.013523,0.002678,0.000431,0.030557
31839000,0.0324,0.013523,0.002678,0.000431,0.030322
31840000,0.0324,0.013523,0.002678,0.000431,0.023153
31841000,0.0324,0.013523,0.002678,0.000431,0.024211
31842000,0.0324,0.013523,0.002678,0.000431,0.021508
31843000,0.0324,0.013523,0.002678,0.000431,0.021625
31844000,0.0324,0.013523,0.002678,0.000431,0.017747
31845000,0.0324,0.013523,0.002678,0.000431,0.015514
31846000,0.0324,0.013523,0.002678,0.000431,0.016689
31847000,0.0324,0.013523,0.002678,0.000431,0.016924
31848000,0.0324,0.013523,0.002678,0.000431,0.011870
31849000,0.0324,0.013523,0.002678,0.000431,0.011988
31850000,0.0324,0.013523,0.002678,0.000431,0.011635
31851000,0.0324,0.013523,0.002678,0.000431,0.012223
31852000,0.0324,0.013523,0.002678,0.000431,0.012340
31853000,0.0324,0.013523,0.002678,0.000431,0.009050
31854000,0.0324,0.013523,0.002678,0.000431,0.009520
31855000,0.0324,0.013523,0.002678,0.000431,0.009520
31856000,0.0324,0.013523,0.002678,0.000431,0.009167
31857000,0.0324,0.013523,0.002678,0.000431,0.009402
31858000,0.0324,0.013523,0.002678,0.000431,0.009520
31859000,0.0324,0.013523,0.002678,0.000431,0.009167
31860000,0.0324,0.013523,0.002678,0.000431,0.009285
31861000,0.0324,0.013523,0.002678,0.000431,0.009520
31862000,0.0324,0.013523,0.002678,0.000431,0.010695
31863000,0.0324,0.013523,0.002678,0.000431,0.007757
31864000,0.0324,0.013523,0.002678,0.000431,0.009990
31865000,0.0324,0.013523,0.002678,0.000431,0.007992
31866000,0.0324,0.013523,0.002678,0.000431,0.008109
31867000,0.0324,0.013523,0.002678,0.000431,0.006582
31868000,0.0324,0.013523,0.002678,0.000431,0.006699
31869000,0.0324,0.013523,0.002678,0.000431,0.007169
31870000,0.0324,0.013523,0.002678,0.000431,0.008109
31871000,0.0324,0.013523,0.002678,0.000431,0.006817
31872000,0.0324,0.013523,0.002678,0.000431,0.004466
31873000,0.0324,0.013523,0.002678,0.000431,0.004231
31874000,0.0324,0.013523,0.002678,0.000431,0.004231
31875000,0.0324,0.013523,0.002678,0.000431,0.004113
31876000,0.0324,0.013523,0.002678,0.000431,0.004349
31877000,0.0324,0.013523,0.002678,0.000431,0.004349
31878000,0.0324,0.013523,0.002678,0.000431,0.003996
31879000,0.0324,0.013523,0.002678,0.000431,0.006229
31880000,0.0324,0.013523,0.002678,0.000431,0.003408
31881000,0.0324,0.013523,0.002678,0.000431,0.003408
31882000,0.0324,0.013523,0.002678,0.000431,0.003173
31883000,0.0324,0.013523,0.002678,0.000431,0.003408
31884000,0.0324,0.013523,0.002678,0.000431,0.003526
31885000,0.0324,0.013523,0.002678,0.000431,0.003291
31886000,0.0324,0.013523,0.002678,0.000431,0.003291
31887000,0.0324,0.013523,0.002678,0.000431,0.003526
31888000,0.0324,0.013523,0.002678,0.000431,0.003291
31889000,0.0324,0.013523,0.002678,0.000431,0.003173
31890000,0.0324,0.013523,0.002678,0.000431,0.003408
31891000,0.0324,0.013523,0.002678,0.000431,0.003526
31892000,0.0324,0.013523,0.002678,0.000431,0.003173
31893000,0.0324,0.013523,0.002678,0.000431,0.003526
31894000,0.0324,0.013523,0.002678,0.000431,0.003408
31895000,0.0324,0.013523,0.002678,0.000431,0.003291
31896000,0.0324,0.013523,0.002678,0.000431,0.003291
31897000,0.0324,0.013523,0.002678,0.000431,0.003408
31898000,0.0324,0.013523,0.002678,0.000431,0.003643
31899000,0.0324,0.013523,0.002678,0.000431,0.003056
31900000,0.0324,0.013523,0.002678,0.000431,0.004231
31901000,0.0324,0.013523,0.002678,0.000431,0.001410
31902000,0.0324,0.013523,0.002678,0.000431,0.001880
31903000,0.0324,0.013523,0.002678,0.000431,0.001763
31904000,0.0324,0.013523,0.002678,0.000431,0.001763
31905000,0.0324,0.013523,0.002678,0.000431,0.001528
31906000,0.0324,0.013523,0.002678,0.000431,0.001763
31907000,0.0324,0.013523,0.002678,0.000431,0.001880
31908000,0.0324,0.013523,0.002678,0.000431,0.001528
31909000,0.0324,0.013523,0.002678,0.000431,0.001645
31910000,0.0324,0.013523,0.002678,0.000431,0.001763
31911000,0.0324,0.013523,0.002678,0.000431,0.001763
31912000,0.0324,0.013523,0.002678,0.000431,0.001763
31913000,0.0324,0.013523,0.002678,0.000431,0.001645
31914000,0.0324,0.013523,0.002678,0.000431,0.001645
31915000,0.0324,0.013523,0.002678,0.000431,0.001763
31916000,0.0324,0.013523,0.002678,0.000431,0.001763
31917000,0.0324,0.013523,0.002678,0.000431,0.001645
31918000,0.0324,0.013523,0.002678,0.000431,0.001880
31919000,0.0324,0.013523,0.002678,0.000431,0.001528
31920000,0.0324,0.013523,0.002678,0.000431,0.001763
31921000,0.0324,0.013523,0.002678,0.000431,0.001763
31922000,0.0324,0.013523,0.002678,0.000431,0.001763
31923000,0.0324,0.013523,0.002678,0.000431,0.001645
31924000,0.0324,0.013523,0.002678,0.000431,0.001645
31925000,0.0324,0.013523,0.002678,0.000431,0.001880
31926000,0.0324,0.013523,0.002678,0.000431,0.001763
31927000,0.0324,0.013523,0.002678,0.000431,0.001645
31928000,0.0324,0.013523,0.002678,0.000431,0.001645
31929000,0.0324,0.013523,0.002678,0.000431,0.001763
31930000,0.0324,0.013523,0.002678,0.000431,0.001763
31931000,0.0324,0.013523,0.002678,0.000431,0.001645
31932000,0.0324,0.013523,0.002678,0.000431,0.001763
31933000,0.0324,0.013523,0.002678,0.000431,0.001763
31934000,0.0324,0.013523,0.002678,0.000431,0.001645
31935000,0.0324,0.013523,0.002678,0.000431,0.001645
31936000,0.0324,0.013523,0.002678,0.000431,0.001763
31937000,0.0324,0.013523,0.002678,0.000431,0.001763
31938000,0.0324,0.013523,0.002678,0.000431,0.001645
31939000,0.0324,0.013523,0.002678,0.000431,0.001763
31940000,0.0324,0.013523,0.002678,0.000431,0.001645
31941000,0.0324,0.013523,0.002678,0.000431,0.001880
31942000,0.0324,0.013523,0.002678,0.000431,0.001410
31943000,0.0324,0.013523,0.002678,0.000431,0.001880
31944000,0.0324,0.013523,0.002678,0.000431,0.001880
31945000,0.0324,0.013523,0.002678,0.000431,0.001645
31946000,0.0324,0.013523,0.002678,0.000431,0.001645
31947000,0.0324,0.013523,0.002678,0.000431,0.001645
31948000,0.0324,0.013523,0.002678,0.000431,0.001880
31949000,0.0324,0.013523,0.002678,0.000431,0.001645
31950000,0.0324,0.013523,0.002678,0.000431,0.001645
31951000,0.0324,0.013523,0.002678,0.000431,0.001763
31952000,0.0324,0.013523,0.002678,0.000431,0.001763
31953000,0.0324,0.013523,0.002678,0.000431,0.001763
31954000,0.0324,0.013523,0.002678,0.000431,0.001528
31955000,0.0324,0.013523,0.002678,0.000431,0.001880
31956000,0.0324,0.013523,0.002678,0.000431,0.003408
31957000,0.0324,0.013523,0.002678,0.000431,0.000940
31958000,0.0324,0.013523,0.002678,0.000431,0.000940
31959000,0.0324,0.013523,0.002678,0.000431,0.000940
31960000,0.0324,0.013523,0.002678,0.000431,0.000940
31961000,0.0324,0.013523,0.002678,0.000431,0.000705
31962000,0.0324,0.013523,0.002678,0.000431,0.000940
31963000,0.0324,0.013523,0.002678,0.000431,0.000940
31964000,0.0324,0.013523,0.002678,0.000431,0.000823
31965000,0.0324,0.013523,0.002678,0.000431,0.000823
31966000,0.0324,0.013523,0.002678,0.000431,0.000940
31967000,0.0324,0.013523,0.002678,0.000431,0.000940
31968000,0.0324,0.013523,0.002678,0.000431,0.000823
31969000,0.0324,0.013523,0.002678,0.000431,0.000823
31970000,0.0324,0.013523,0.002678,0.000431,0.000940
31971000,0.0324,0.013523,0.002678,0.000431,0.000823
31972000,0.0324,0.013523,0.002678,0.000431,0.000940
31973000,0.0324,0.013523,0.002678,0.000431,0.000823
31974000,0.0324,0.013523,0.002678,0.000431,0.000940
31975000,0.0324,0.013523,0.002678,0.000431,0.000823
31976000,0.0324,0.013523,0.002678,0.000431,0.000823
31977000,0.0324,0.013523,0.002678,0.000431,0.000940
31978000,0.0324,0.013523,0.002678,0.000431,0.000940
31979000,0.0324,0.013523,0.002678,0.000431,0.000823
31980000,0.0324,0.013523,0.002678,0.000431,0.000823
31981000,0.0324,0.013523,0.002678,0.000431,0.000940
31982000,0.0324,0.013523,0.002678,0.000431,0.000940
31983000,0.0324,0.013523,0.002678,0.000431,0.000705
31984000,0.0324,0.013523,0.002678,0.000431,0.000940
31985000,0.0324,0.013523,0.002678,0.000431,0.000940
31986000,0.0324,0.013523,0.002678,0.000431,0.000940
31987000,0.0324,0.013523,0.002678,0.000431,0.000823
31988000,0.0324,0.013523,0.002678,0.000431,0.000823
31989000,0.0324,0.013523,0.002678,0.000431,0.000940
31990000,0.0324,0.013523,0.002678,0.000431,0.000823
31991000,0.0324,0.013523,0.002678,0.000431,0.000940
31992000,0.0324,0.013523,0.002678,0.000431,0.000823
31993000,0.0324,0.013523,0.002678,0.000431,0.000940
31994000,0.0324,0.013523,0.002678,0.000431,0.000823
31995000,0.0324,0.013523,0.002678,0.000431,0.000823
31996000,0.0324,0.013523,0.002678,0.000431,0.000940
31997000,0.0324,0.013523,0.002678,0.000431,0.000940
31998000,0.0324,0.013523,0.002678,0.000431,0.000705
31999000,0.0324,0.013523,0.002678,0.000431,0.000940
