Cycle,Area(mm^2),PeakDynamic(W),SubthresholdLeakage(W),GateLeakage(W),RunTimeDynamic(W)
11000000,0.0324,0.013523,0.002678,0.000431,0.000940
11001000,0.0324,0.013523,0.002678,0.000431,0.000823
11002000,0.0324,0.013523,0.002678,0.000431,0.000940
11003000,0.0324,0.013523,0.002678,0.000431,0.000823
11004000,0.0324,0.013523,0.002678,0.000431,0.000823
11005000,0.0324,0.013523,0.002678,0.000431,0.000940
11006000,0.0324,0.013523,0.002678,0.000431,0.000940
11007000,0.0324,0.013523,0.002678,0.000431,0.000940
11008000,0.0324,0.013523,0.002678,0.000431,0.000705
11009000,0.0324,0.013523,0.002678,0.000431,0.000940
11010000,0.0324,0.013523,0.002678,0.000431,0.000940
11011000,0.0324,0.013523,0.002678,0.000431,0.000823
11012000,0.0324,0.013523,0.002678,0.000431,0.000823
11013000,0.0324,0.013523,0.002678,0.000431,0.000940
11014000,0.0324,0.013523,0.002678,0.000431,0.000823
11015000,0.0324,0.013523,0.002678,0.000431,0.000940
11016000,0.0324,0.013523,0.002678,0.000431,0.001528
11017000,0.0324,0.013523,0.002678,0.000431,0.358461
11018000,0.0324,0.013523,0.002678,0.000431,0.696119
11019000,0.0324,0.013523,0.002678,0.000431,0.146793
11020000,0.0324,0.013523,0.002678,0.000431,0.133512
11021000,0.0324,0.013523,0.002678,0.000431,0.132572
11022000,0.0324,0.013523,0.002678,0.000431,0.592342
11023000,0.0324,0.013523,0.002678,0.000431,0.230590
11024000,0.0324,0.013523,0.002678,0.000431,0.255859
11025000,0.0324,0.013523,0.002678,0.000431,0.275956
11026000,0.0324,0.013523,0.002678,0.000431,0.143032
11027000,0.0324,0.013523,0.002678,0.000431,0.157840
11028000,0.0324,0.013523,0.002678,0.000431,0.100604
11029000,0.0324,0.013523,0.002678,0.000431,0.460828
11030000,0.0324,0.013523,0.002678,0.000431,0.195097
11031000,0.0324,0.013523,0.002678,0.000431,0.069694
11032000,0.0324,0.013523,0.002678,0.000431,0.054886
11033000,0.0324,0.013523,0.002678,0.000431,0.039725
11034000,0.0324,0.013523,0.002678,0.000431,0.029029
11035000,0.0324,0.013523,0.002678,0.000431,0.023858
11036000,0.0324,0.013523,0.002678,0.000431,0.017042
11037000,0.0324,0.013523,0.002678,0.000431,0.017277
11038000,0.0324,0.013523,0.002678,0.000431,0.023388
11039000,0.0324,0.013523,0.002678,0.000431,0.015514
11040000,0.0324,0.013523,0.002678,0.000431,0.012105
11041000,0.0324,0.013523,0.002678,0.000431,0.009285
11042000,0.0324,0.013523,0.002678,0.000431,0.012105
11043000,0.0324,0.013523,0.002678,0.000431,0.008345
11044000,0.0324,0.013523,0.002678,0.000431,0.008227
11045000,0.0324,0.013523,0.002678,0.000431,0.008227
11046000,0.0324,0.013523,0.002678,0.000431,0.008815
11047000,0.0324,0.013523,0.002678,0.000431,0.008462
11048000,0.0324,0.013523,0.002678,0.000431,0.009520
11049000,0.0324,0.013523,0.002678,0.000431,0.009050
11050000,0.0324,0.013523,0.002678,0.000431,0.007992
11051000,0.0324,0.013523,0.002678,0.000431,0.009637
11052000,0.0324,0.013523,0.002678,0.000431,0.004936
11053000,0.0324,0.013523,0.002678,0.000431,0.005524
11054000,0.0324,0.013523,0.002678,0.000431,0.005406
11055000,0.0324,0.013523,0.002678,0.000431,0.004936
11056000,0.0324,0.013523,0.002678,0.000431,0.005054
11057000,0.0324,0.013523,0.002678,0.000431,0.005641
11058000,0.0324,0.013523,0.002678,0.000431,0.005289
11059000,0.0324,0.013523,0.002678,0.000431,0.004936
11060000,0.0324,0.013523,0.002678,0.000431,0.005289
11061000,0.0324,0.013523,0.002678,0.000431,0.005171
11062000,0.0324,0.013523,0.002678,0.000431,0.005406
11063000,0.0324,0.013523,0.002678,0.000431,0.005171
11064000,0.0324,0.013523,0.002678,0.000431,0.005054
11065000,0.0324,0.013523,0.002678,0.000431,0.005524
11066000,0.0324,0.013523,0.002678,0.000431,0.004936
11067000,0.0324,0.013523,0.002678,0.000431,0.005289
11068000,0.0324,0.013523,0.002678,0.000431,0.005054
11069000,0.0324,0.013523,0.002678,0.000431,0.005289
11070000,0.0324,0.013523,0.002678,0.000431,0.005406
11071000,0.0324,0.013523,0.002678,0.000431,0.004701
11072000,0.0324,0.013523,0.002678,0.000431,0.005524
11073000,0.0324,0.013523,0.002678,0.000431,0.005406
11074000,0.0324,0.013523,0.002678,0.000431,0.004936
11075000,0.0324,0.013523,0.002678,0.000431,0.004936
11076000,0.0324,0.013523,0.002678,0.000431,0.005524
11077000,0.0324,0.013523,0.002678,0.000431,0.006934
11078000,0.0324,0.013523,0.002678,0.000431,0.003996
11079000,0.0324,0.013523,0.002678,0.000431,0.007052
11080000,0.0324,0.013523,0.002678,0.000431,0.003643
11081000,0.0324,0.013523,0.002678,0.000431,0.004231
11082000,0.0324,0.013523,0.002678,0.000431,0.003643
11083000,0.0324,0.013523,0.002678,0.000431,0.002586
11084000,0.0324,0.013523,0.002678,0.000431,0.002703
11085000,0.0324,0.013523,0.002678,0.000431,0.002703
11086000,0.0324,0.013523,0.002678,0.000431,0.002468
11087000,0.0324,0.013523,0.002678,0.000431,0.004231
11088000,0.0324,0.013523,0.002678,0.000431,0.001880
11089000,0.0324,0.013523,0.002678,0.000431,0.001645
11090000,0.0324,0.013523,0.002678,0.000431,0.001763
11091000,0.0324,0.013523,0.002678,0.000431,0.001763
11092000,0.0324,0.013523,0.002678,0.000431,0.001880
11093000,0.0324,0.013523,0.002678,0.000431,0.001763
11094000,0.0324,0.013523,0.002678,0.000431,0.001528
11095000,0.0324,0.013523,0.002678,0.000431,0.001880
11096000,0.0324,0.013523,0.002678,0.000431,0.001880
11097000,0.0324,0.013523,0.002678,0.000431,0.001763
11098000,0.0324,0.013523,0.002678,0.000431,0.001528
11099000,0.0324,0.013523,0.002678,0.000431,0.001880
11100000,0.0324,0.013523,0.002678,0.000431,0.001763
11101000,0.0324,0.013523,0.002678,0.000431,0.001763
11102000,0.0324,0.013523,0.002678,0.000431,0.001645
11103000,0.0324,0.013523,0.002678,0.000431,0.001880
11104000,0.0324,0.013523,0.002678,0.000431,0.001763
11105000,0.0324,0.013523,0.002678,0.000431,0.001645
11106000,0.0324,0.013523,0.002678,0.000431,0.001763
11107000,0.0324,0.013523,0.002678,0.000431,0.001880
11108000,0.0324,0.013523,0.002678,0.000431,0.001645
11109000,0.0324,0.013523,0.002678,0.000431,0.001763
11110000,0.0324,0.013523,0.002678,0.000431,0.001763
11111000,0.0324,0.013523,0.002678,0.000431,0.001880
11112000,0.0324,0.013523,0.002678,0.000431,0.001528
11113000,0.0324,0.013523,0.002678,0.000431,0.001763
11114000,0.0324,0.013523,0.002678,0.000431,0.001880
11115000,0.0324,0.013523,0.002678,0.000431,0.001880
11116000,0.0324,0.013523,0.002678,0.000431,0.003173
11117000,0.0324,0.013523,0.002678,0.000431,0.000940
11118000,0.0324,0.013523,0.002678,0.000431,0.000940
11119000,0.0324,0.013523,0.002678,0.000431,0.000823
11120000,0.0324,0.013523,0.002678,0.000431,0.000940
11121000,0.0324,0.013523,0.002678,0.000431,0.000823
11122000,0.0324,0.013523,0.002678,0.000431,0.000940
11123000,0.0324,0.013523,0.002678,0.000431,0.000823
11124000,0.0324,0.013523,0.002678,0.000431,0.000823
11125000,0.0324,0.013523,0.002678,0.000431,0.000940
11126000,0.0324,0.013523,0.002678,0.000431,0.000823
11127000,0.0324,0.013523,0.002678,0.000431,0.000823
11128000,0.0324,0.013523,0.002678,0.000431,0.000940
11129000,0.0324,0.013523,0.002678,0.000431,0.000940
11130000,0.0324,0.013523,0.002678,0.000431,0.000940
11131000,0.0324,0.013523,0.002678,0.000431,0.099546
11132000,0.0324,0.013523,0.002678,0.000431,0.620314
11133000,0.0324,0.013523,0.002678,0.000431,0.522060
11134000,0.0324,0.013523,0.002678,0.000431,0.134452
11135000,0.0324,0.013523,0.002678,0.000431,0.133042
11136000,0.0324,0.013523,0.002678,0.000431,0.582352
11137000,0.0324,0.013523,0.002678,0.000431,0.274546
11138000,0.0324,0.013523,0.002678,0.000431,0.277719
11139000,0.0324,0.013523,0.002678,0.000431,0.242813
11140000,0.0324,0.013523,0.002678,0.000431,0.152552
11141000,0.0324,0.013523,0.002678,0.000431,0.151259
11142000,0.0324,0.013523,0.002678,0.000431,0.184519
11143000,0.0324,0.013523,0.002678,0.000431,0.441788
11144000,0.0324,0.013523,0.002678,0.000431,0.099194
11145000,0.0324,0.013523,0.002678,0.000431,0.075923
11146000,0.0324,0.013523,0.002678,0.000431,0.061350
11147000,0.0324,0.013523,0.002678,0.000431,0.049127
11148000,0.0324,0.013523,0.002678,0.000431,0.031380
11149000,0.0324,0.013523,0.002678,0.000431,0.020097
11150000,0.0324,0.013523,0.002678,0.000431,0.022683
11151000,0.0324,0.013523,0.002678,0.000431,0.020097
11152000,0.0324,0.013523,0.002678,0.000431,0.019157
11153000,0.0324,0.013523,0.002678,0.000431,0.014338
11154000,0.0324,0.013523,0.002678,0.000431,0.015984
11155000,0.0324,0.013523,0.002678,0.000431,0.009402
11156000,0.0324,0.013523,0.002678,0.000431,0.011753
11157000,0.0324,0.013523,0.002678,0.000431,0.007287
11158000,0.0324,0.013523,0.002678,0.000431,0.009755
11159000,0.0324,0.013523,0.002678,0.000431,0.006817
11160000,0.0324,0.013523,0.002678,0.000431,0.008580
11161000,0.0324,0.013523,0.002678,0.000431,0.007639
11162000,0.0324,0.013523,0.002678,0.000431,0.004819
11163000,0.0324,0.013523,0.002678,0.000431,0.005289
11164000,0.0324,0.013523,0.002678,0.000431,0.005171
11165000,0.0324,0.013523,0.002678,0.000431,0.006464
11166000,0.0324,0.013523,0.002678,0.000431,0.003526
11167000,0.0324,0.013523,0.002678,0.000431,0.003761
11168000,0.0324,0.013523,0.002678,0.000431,0.003526
11169000,0.0324,0.013523,0.002678,0.000431,0.003291
11170000,0.0324,0.013523,0.002678,0.000431,0.003996
11171000,0.0324,0.013523,0.002678,0.000431,0.002468
11172000,0.0324,0.013523,0.002678,0.000431,0.002703
11173000,0.0324,0.013523,0.002678,0.000431,0.002586
11174000,0.0324,0.013523,0.002678,0.000431,0.002586
11175000,0.0324,0.013523,0.002678,0.000431,0.002468
11176000,0.0324,0.013523,0.002678,0.000431,0.002468
11177000,0.0324,0.013523,0.002678,0.000431,0.002703
11178000,0.0324,0.013523,0.002678,0.000431,0.002468
11179000,0.0324,0.013523,0.002678,0.000431,0.002703
11180000,0.0324,0.013523,0.002678,0.000431,0.002468
11181000,0.0324,0.013523,0.002678,0.000431,0.002586
11182000,0.0324,0.013523,0.002678,0.000431,0.002586
11183000,0.0324,0.013523,0.002678,0.000431,0.002586
11184000,0.0324,0.013523,0.002678,0.000431,0.002586
11185000,0.0324,0.013523,0.002678,0.000431,0.002586
11186000,0.0324,0.013523,0.002678,0.000431,0.003878
11187000,0.0324,0.013523,0.002678,0.000431,0.001763
11188000,0.0324,0.013523,0.002678,0.000431,0.001645
11189000,0.0324,0.013523,0.002678,0.000431,0.001645
11190000,0.0324,0.013523,0.002678,0.000431,0.003291
11191000,0.0324,0.013523,0.002678,0.000431,0.000705
11192000,0.0324,0.013523,0.002678,0.000431,0.000940
11193000,0.0324,0.013523,0.002678,0.000431,0.000823
11194000,0.0324,0.013523,0.002678,0.000431,0.000823
11195000,0.0324,0.013523,0.002678,0.000431,0.000823
11196000,0.0324,0.013523,0.002678,0.000431,0.000823
11197000,0.0324,0.013523,0.002678,0.000431,0.000823
11198000,0.0324,0.013523,0.002678,0.000431,0.000823
11199000,0.0324,0.013523,0.002678,0.000431,0.000940
11200000,0.0324,0.013523,0.002678,0.000431,0.000705
11201000,0.0324,0.013523,0.002678,0.000431,0.000940
11202000,0.0324,0.013523,0.002678,0.000431,0.000823
11203000,0.0324,0.013523,0.002678,0.000431,0.000823
11204000,0.0324,0.013523,0.002678,0.000431,0.000705
11205000,0.0324,0.013523,0.002678,0.000431,0.000940
11206000,0.0324,0.013523,0.002678,0.000431,0.000940
11207000,0.0324,0.013523,0.002678,0.000431,0.000705
11208000,0.0324,0.013523,0.002678,0.000431,0.000940
11209000,0.0324,0.013523,0.002678,0.000431,0.000705
11210000,0.0324,0.013523,0.002678,0.000431,0.000940
11211000,0.0324,0.013523,0.002678,0.000431,0.000823
11212000,0.0324,0.013523,0.002678,0.000431,0.000823
11213000,0.0324,0.013523,0.002678,0.000431,0.000940
11214000,0.0324,0.013523,0.002678,0.000431,0.000705
11215000,0.0324,0.013523,0.002678,0.000431,0.000940
11216000,0.0324,0.013523,0.002678,0.000431,0.000940
11217000,0.0324,0.013523,0.002678,0.000431,0.000940
11218000,0.0324,0.013523,0.002678,0.000431,0.000705
11219000,0.0324,0.013523,0.002678,0.000431,0.000940
11220000,0.0324,0.013523,0.002678,0.000431,0.000940
11221000,0.0324,0.013523,0.002678,0.000431,0.000823
11222000,0.0324,0.013523,0.002678,0.000431,0.000823
11223000,0.0324,0.013523,0.002678,0.000431,0.000940
11224000,0.0324,0.013523,0.002678,0.000431,0.000940
11225000,0.0324,0.013523,0.002678,0.000431,0.000940
11226000,0.0324,0.013523,0.002678,0.000431,0.000823
11227000,0.0324,0.013523,0.002678,0.000431,0.000823
11228000,0.0324,0.013523,0.002678,0.000431,0.000940
11229000,0.0324,0.013523,0.002678,0.000431,0.000940
11230000,0.0324,0.013523,0.002678,0.000431,0.000823
11231000,0.0324,0.013523,0.002678,0.000431,0.013868
11232000,0.0324,0.013523,0.002678,0.000431,0.572715
11233000,0.0324,0.013523,0.002678,0.000431,0.590932
11234000,0.0324,0.013523,0.002678,0.000431,0.133512
11235000,0.0324,0.013523,0.002678,0.000431,0.133982
11236000,0.0324,0.013523,0.002678,0.000431,0.497849
11237000,0.0324,0.013523,0.002678,0.000431,0.269140
11238000,0.0324,0.013523,0.002678,0.000431,0.252098
11239000,0.0324,0.013523,0.002678,0.000431,0.373975
11240000,0.0324,0.013523,0.002678,0.000431,0.144090
11241000,0.0324,0.013523,0.002678,0.000431,0.154667
11242000,0.0324,0.013523,0.002678,0.000431,0.098959
11243000,0.0324,0.013523,0.002678,0.000431,0.467645
11244000,0.0324,0.013523,0.002678,0.000431,0.138566
11245000,0.0324,0.013523,0.002678,0.000431,0.051477
11246000,0.0324,0.013523,0.002678,0.000431,0.042663
11247000,0.0324,0.013523,0.002678,0.000431,0.035258
11248000,0.0324,0.013523,0.002678,0.000431,0.031850
11249000,0.0324,0.013523,0.002678,0.000431,0.013751
11250000,0.0324,0.013523,0.002678,0.000431,0.015279
11251000,0.0324,0.013523,0.002678,0.000431,0.012928
11252000,0.0324,0.013523,0.002678,0.000431,0.009285
11253000,0.0324,0.013523,0.002678,0.000431,0.008109
11254000,0.0324,0.013523,0.002678,0.000431,0.005641
11255000,0.0324,0.013523,0.002678,0.000431,0.005876
11256000,0.0324,0.013523,0.002678,0.000431,0.005759
11257000,0.0324,0.013523,0.002678,0.000431,0.004701
11258000,0.0324,0.013523,0.002678,0.000431,0.004466
11259000,0.0324,0.013523,0.002678,0.000431,0.004113
11260000,0.0324,0.013523,0.002678,0.000431,0.004349
11261000,0.0324,0.013523,0.002678,0.000431,0.004231
11262000,0.0324,0.013523,0.002678,0.000431,0.006817
11263000,0.0324,0.013523,0.002678,0.000431,0.003408
11264000,0.0324,0.013523,0.002678,0.000431,0.003291
11265000,0.0324,0.013523,0.002678,0.000431,0.003408
11266000,0.0324,0.013523,0.002678,0.000431,0.003408
11267000,0.0324,0.013523,0.002678,0.000431,0.003291
11268000,0.0324,0.013523,0.002678,0.000431,0.003291
11269000,0.0324,0.013523,0.002678,0.000431,0.003526
11270000,0.0324,0.013523,0.002678,0.000431,0.003291
11271000,0.0324,0.013523,0.002678,0.000431,0.003291
11272000,0.0324,0.013523,0.002678,0.000431,0.005171
11273000,0.0324,0.013523,0.002678,0.000431,0.002586
11274000,0.0324,0.013523,0.002678,0.000431,0.002233
11275000,0.0324,0.013523,0.002678,0.000431,0.002586
11276000,0.0324,0.013523,0.002678,0.000431,0.002703
11277000,0.0324,0.013523,0.002678,0.000431,0.002116
11278000,0.0324,0.013523,0.002678,0.000431,0.002586
11279000,0.0324,0.013523,0.002678,0.000431,0.002586
11280000,0.0324,0.013523,0.002678,0.000431,0.002586
11281000,0.0324,0.013523,0.002678,0.000431,0.002351
11282000,0.0324,0.013523,0.002678,0.000431,0.002351
11283000,0.0324,0.013523,0.002678,0.000431,0.002821
11284000,0.0324,0.013523,0.002678,0.000431,0.002468
11285000,0.0324,0.013523,0.002678,0.000431,0.002233
11286000,0.0324,0.013523,0.002678,0.000431,0.002703
11287000,0.0324,0.013523,0.002678,0.000431,0.002586
11288000,0.0324,0.013523,0.002678,0.000431,0.004466
11289000,0.0324,0.013523,0.002678,0.000431,0.001410
11290000,0.0324,0.013523,0.002678,0.000431,0.001880
11291000,0.0324,0.013523,0.002678,0.000431,0.001645
11292000,0.0324,0.013523,0.002678,0.000431,0.001645
11293000,0.0324,0.013523,0.002678,0.000431,0.001645
11294000,0.0324,0.013523,0.002678,0.000431,0.001645
11295000,0.0324,0.013523,0.002678,0.000431,0.001645
11296000,0.0324,0.013523,0.002678,0.000431,0.001645
11297000,0.0324,0.013523,0.002678,0.000431,0.001645
11298000,0.0324,0.013523,0.002678,0.000431,0.001645
11299000,0.0324,0.013523,0.002678,0.000431,0.001645
11300000,0.0324,0.013523,0.002678,0.000431,0.001645
11301000,0.0324,0.013523,0.002678,0.000431,0.001645
11302000,0.0324,0.013523,0.002678,0.000431,0.001645
11303000,0.0324,0.013523,0.002678,0.000431,0.001528
11304000,0.0324,0.013523,0.002678,0.000431,0.001763
11305000,0.0324,0.013523,0.002678,0.000431,0.001880
11306000,0.0324,0.013523,0.002678,0.000431,0.001410
11307000,0.0324,0.013523,0.002678,0.000431,0.001645
11308000,0.0324,0.013523,0.002678,0.000431,0.001645
11309000,0.0324,0.013523,0.002678,0.000431,0.001645
11310000,0.0324,0.013523,0.002678,0.000431,0.001645
11311000,0.0324,0.013523,0.002678,0.000431,0.001645
11312000,0.0324,0.013523,0.002678,0.000431,0.001880
11313000,0.0324,0.013523,0.002678,0.000431,0.001410
11314000,0.0324,0.013523,0.002678,0.000431,0.001645
11315000,0.0324,0.013523,0.002678,0.000431,0.001763
11316000,0.0324,0.013523,0.002678,0.000431,0.001763
11317000,0.0324,0.013523,0.002678,0.000431,0.001410
11318000,0.0324,0.013523,0.002678,0.000431,0.001645
11319000,0.0324,0.013523,0.002678,0.000431,0.001880
11320000,0.0324,0.013523,0.002678,0.000431,0.001645
11321000,0.0324,0.013523,0.002678,0.000431,0.001410
11322000,0.0324,0.013523,0.002678,0.000431,0.001880
11323000,0.0324,0.013523,0.002678,0.000431,0.001645
11324000,0.0324,0.013523,0.002678,0.000431,0.001645
11325000,0.0324,0.013523,0.002678,0.000431,0.001410
11326000,0.0324,0.013523,0.002678,0.000431,0.001880
11327000,0.0324,0.013523,0.002678,0.000431,0.001645
11328000,0.0324,0.013523,0.002678,0.000431,0.001645
11329000,0.0324,0.013523,0.002678,0.000431,0.001645
11330000,0.0324,0.013523,0.002678,0.000431,0.001645
11331000,0.0324,0.013523,0.002678,0.000431,0.001645
11332000,0.0324,0.013523,0.002678,0.000431,0.001528
11333000,0.0324,0.013523,0.002678,0.000431,0.001763
11334000,0.0324,0.013523,0.002678,0.000431,0.001645
11335000,0.0324,0.013523,0.002678,0.000431,0.001645
11336000,0.0324,0.013523,0.002678,0.000431,0.001645
11337000,0.0324,0.013523,0.002678,0.000431,0.001645
11338000,0.0324,0.013523,0.002678,0.000431,0.001645
11339000,0.0324,0.013523,0.002678,0.000431,0.001645
11340000,0.0324,0.013523,0.002678,0.000431,0.001645
11341000,0.0324,0.013523,0.002678,0.000431,0.001645
11342000,0.0324,0.013523,0.002678,0.000431,0.001645
11343000,0.0324,0.013523,0.002678,0.000431,0.001645
11344000,0.0324,0.013523,0.002678,0.000431,0.001763
11345000,0.0324,0.013523,0.002678,0.000431,0.001528
11346000,0.0324,0.013523,0.002678,0.000431,0.001645
11347000,0.0324,0.013523,0.002678,0.000431,0.001645
11348000,0.0324,0.013523,0.002678,0.000431,0.001880
11349000,0.0324,0.013523,0.002678,0.000431,0.001410
11350000,0.0324,0.013523,0.002678,0.000431,0.001645
11351000,0.0324,0.013523,0.002678,0.000431,0.001880
11352000,0.0324,0.013523,0.002678,0.000431,0.001645
11353000,0.0324,0.013523,0.002678,0.000431,0.001410
11354000,0.0324,0.013523,0.002678,0.000431,0.001645
11355000,0.0324,0.013523,0.002678,0.000431,0.001880
11356000,0.0324,0.013523,0.002678,0.000431,0.001645
11357000,0.0324,0.013523,0.002678,0.000431,0.001410
11358000,0.0324,0.013523,0.002678,0.000431,0.001880
11359000,0.0324,0.013523,0.002678,0.000431,0.001645
11360000,0.0324,0.013523,0.002678,0.000431,0.001528
11361000,0.0324,0.013523,0.002678,0.000431,0.001645
11362000,0.0324,0.013523,0.002678,0.000431,0.001763
11363000,0.0324,0.013523,0.002678,0.000431,0.001645
11364000,0.0324,0.013523,0.002678,0.000431,0.001410
11365000,0.0324,0.013523,0.002678,0.000431,0.001880
11366000,0.0324,0.013523,0.002678,0.000431,0.001645
11367000,0.0324,0.013523,0.002678,0.000431,0.001645
11368000,0.0324,0.013523,0.002678,0.000431,0.001645
11369000,0.0324,0.013523,0.002678,0.000431,0.001645
11370000,0.0324,0.013523,0.002678,0.000431,0.001645
11371000,0.0324,0.013523,0.002678,0.000431,0.001645
11372000,0.0324,0.013523,0.002678,0.000431,0.001645
11373000,0.0324,0.013523,0.002678,0.000431,0.001763
11374000,0.0324,0.013523,0.002678,0.000431,0.001528
11375000,0.0324,0.013523,0.002678,0.000431,0.001645
11376000,0.0324,0.013523,0.002678,0.000431,0.001645
11377000,0.0324,0.013523,0.002678,0.000431,0.001645
11378000,0.0324,0.013523,0.002678,0.000431,0.001528
11379000,0.0324,0.013523,0.002678,0.000431,0.001763
11380000,0.0324,0.013523,0.002678,0.000431,0.001880
11381000,0.0324,0.013523,0.002678,0.000431,0.001410
11382000,0.0324,0.013523,0.002678,0.000431,0.001645
11383000,0.0324,0.013523,0.002678,0.000431,0.001645
11384000,0.0324,0.013523,0.002678,0.000431,0.001880
11385000,0.0324,0.013523,0.002678,0.000431,0.001410
11386000,0.0324,0.013523,0.002678,0.000431,0.001645
11387000,0.0324,0.013523,0.002678,0.000431,0.001880
11388000,0.0324,0.013523,0.002678,0.000431,0.001645
11389000,0.0324,0.013523,0.002678,0.000431,0.001410
11390000,0.0324,0.013523,0.002678,0.000431,0.001763
11391000,0.0324,0.013523,0.002678,0.000431,0.001763
11392000,0.0324,0.013523,0.002678,0.000431,0.001410
11393000,0.0324,0.013523,0.002678,0.000431,0.001645
11394000,0.0324,0.013523,0.002678,0.000431,0.001880
11395000,0.0324,0.013523,0.002678,0.000431,0.001645
11396000,0.0324,0.013523,0.002678,0.000431,0.001410
11397000,0.0324,0.013523,0.002678,0.000431,0.001880
11398000,0.0324,0.013523,0.002678,0.000431,0.001645
11399000,0.0324,0.013523,0.002678,0.000431,0.001645
11400000,0.0324,0.013523,0.002678,0.000431,0.001410
11401000,0.0324,0.013523,0.002678,0.000431,0.001880
11402000,0.0324,0.013523,0.002678,0.000431,0.001645
11403000,0.0324,0.013523,0.002678,0.000431,0.001645
11404000,0.0324,0.013523,0.002678,0.000431,0.001645
11405000,0.0324,0.013523,0.002678,0.000431,0.001645
11406000,0.0324,0.013523,0.002678,0.000431,0.001645
11407000,0.0324,0.013523,0.002678,0.000431,0.001528
11408000,0.0324,0.013523,0.002678,0.000431,0.001763
11409000,0.0324,0.013523,0.002678,0.000431,0.001645
11410000,0.0324,0.013523,0.002678,0.000431,0.001645
11411000,0.0324,0.013523,0.002678,0.000431,0.001645
11412000,0.0324,0.013523,0.002678,0.000431,0.001645
11413000,0.0324,0.013523,0.002678,0.000431,0.001645
11414000,0.0324,0.013523,0.002678,0.000431,0.001645
11415000,0.0324,0.013523,0.002678,0.000431,0.001645
11416000,0.0324,0.013523,0.002678,0.000431,0.001880
11417000,0.0324,0.013523,0.002678,0.000431,0.001410
11418000,0.0324,0.013523,0.002678,0.000431,0.001645
11419000,0.0324,0.013523,0.002678,0.000431,0.001763
11420000,0.0324,0.013523,0.002678,0.000431,0.001763
11421000,0.0324,0.013523,0.002678,0.000431,0.001410
11422000,0.0324,0.013523,0.002678,0.000431,0.001645
11423000,0.0324,0.013523,0.002678,0.000431,0.001880
11424000,0.0324,0.013523,0.002678,0.000431,0.001410
11425000,0.0324,0.013523,0.002678,0.000431,0.001645
11426000,0.0324,0.013523,0.002678,0.000431,0.001880
11427000,0.0324,0.013523,0.002678,0.000431,0.001645
11428000,0.0324,0.013523,0.002678,0.000431,0.001410
11429000,0.0324,0.013523,0.002678,0.000431,0.001645
11430000,0.0324,0.013523,0.002678,0.000431,0.001880
11431000,0.0324,0.013523,0.002678,0.000431,0.001645
11432000,0.0324,0.013523,0.002678,0.000431,0.001410
11433000,0.0324,0.013523,0.002678,0.000431,0.001880
11434000,0.0324,0.013523,0.002678,0.000431,0.001645
11435000,0.0324,0.013523,0.002678,0.000431,0.001645
11436000,0.0324,0.013523,0.002678,0.000431,0.001528
11437000,0.0324,0.013523,0.002678,0.000431,0.001763
11438000,0.0324,0.013523,0.002678,0.000431,0.001645
11439000,0.0324,0.013523,0.002678,0.000431,0.001645
11440000,0.0324,0.013523,0.002678,0.000431,0.001645
11441000,0.0324,0.013523,0.002678,0.000431,0.001645
11442000,0.0324,0.013523,0.002678,0.000431,0.001645
11443000,0.0324,0.013523,0.002678,0.000431,0.001645
11444000,0.0324,0.013523,0.002678,0.000431,0.001645
11445000,0.0324,0.013523,0.002678,0.000431,0.001645
11446000,0.0324,0.013523,0.002678,0.000431,0.001645
11447000,0.0324,0.013523,0.002678,0.000431,0.001645
11448000,0.0324,0.013523,0.002678,0.000431,0.001763
11449000,0.0324,0.013523,0.002678,0.000431,0.001528
11450000,0.0324,0.013523,0.002678,0.000431,0.001645
11451000,0.0324,0.013523,0.002678,0.000431,0.001645
11452000,0.0324,0.013523,0.002678,0.000431,0.001763
11453000,0.0324,0.013523,0.002678,0.000431,0.001410
11454000,0.0324,0.013523,0.002678,0.000431,0.001763
11455000,0.0324,0.013523,0.002678,0.000431,0.001880
11456000,0.0324,0.013523,0.002678,0.000431,0.001410
11457000,0.0324,0.013523,0.002678,0.000431,0.001645
11458000,0.0324,0.013523,0.002678,0.000431,0.001645
11459000,0.0324,0.013523,0.002678,0.000431,0.001880
11460000,0.0324,0.013523,0.002678,0.000431,0.001410
11461000,0.0324,0.013523,0.002678,0.000431,0.001645
11462000,0.0324,0.013523,0.002678,0.000431,0.001880
11463000,0.0324,0.013523,0.002678,0.000431,0.001645
11464000,0.0324,0.013523,0.002678,0.000431,0.001410
11465000,0.0324,0.013523,0.002678,0.000431,0.001763
11466000,0.0324,0.013523,0.002678,0.000431,0.001763
11467000,0.0324,0.013523,0.002678,0.000431,0.001645
11468000,0.0324,0.013523,0.002678,0.000431,0.001410
11469000,0.0324,0.013523,0.002678,0.000431,0.001880
11470000,0.0324,0.013523,0.002678,0.000431,0.001645
11471000,0.0324,0.013523,0.002678,0.000431,0.001645
11472000,0.0324,0.013523,0.002678,0.000431,0.001645
11473000,0.0324,0.013523,0.002678,0.000431,0.001645
11474000,0.0324,0.013523,0.002678,0.000431,0.001645
11475000,0.0324,0.013523,0.002678,0.000431,0.001410
11476000,0.0324,0.013523,0.002678,0.000431,0.001880
11477000,0.0324,0.013523,0.002678,0.000431,0.001645
11478000,0.0324,0.013523,0.002678,0.000431,0.001645
11479000,0.0324,0.013523,0.002678,0.000431,0.001645
11480000,0.0324,0.013523,0.002678,0.000431,0.001645
11481000,0.0324,0.013523,0.002678,0.000431,0.001645
11482000,0.0324,0.013523,0.002678,0.000431,0.001528
11483000,0.0324,0.013523,0.002678,0.000431,0.001763
11484000,0.0324,0.013523,0.002678,0.000431,0.001645
11485000,0.0324,0.013523,0.002678,0.000431,0.001645
11486000,0.0324,0.013523,0.002678,0.000431,0.001645
11487000,0.0324,0.013523,0.002678,0.000431,0.001645
11488000,0.0324,0.013523,0.002678,0.000431,0.001645
11489000,0.0324,0.013523,0.002678,0.000431,0.001645
11490000,0.0324,0.013523,0.002678,0.000431,0.001645
11491000,0.0324,0.013523,0.002678,0.000431,0.001880
11492000,0.0324,0.013523,0.002678,0.000431,0.001410
11493000,0.0324,0.013523,0.002678,0.000431,0.001645
11494000,0.0324,0.013523,0.002678,0.000431,0.001763
11495000,0.0324,0.013523,0.002678,0.000431,0.001763
11496000,0.0324,0.013523,0.002678,0.000431,0.001410
11497000,0.0324,0.013523,0.002678,0.000431,0.001645
11498000,0.0324,0.013523,0.002678,0.000431,0.001880
11499000,0.0324,0.013523,0.002678,0.000431,0.001645
11500000,0.0324,0.013523,0.002678,0.000431,0.001410
11501000,0.0324,0.013523,0.002678,0.000431,0.001880
11502000,0.0324,0.013523,0.002678,0.000431,0.001645
11503000,0.0324,0.013523,0.002678,0.000431,0.001645
11504000,0.0324,0.013523,0.002678,0.000431,0.001410
11505000,0.0324,0.013523,0.002678,0.000431,0.001880
11506000,0.0324,0.013523,0.002678,0.000431,0.001645
11507000,0.0324,0.013523,0.002678,0.000431,0.001410
11508000,0.0324,0.013523,0.002678,0.000431,0.001880
11509000,0.0324,0.013523,0.002678,0.000431,0.001645
11510000,0.0324,0.013523,0.002678,0.000431,0.001645
11511000,0.0324,0.013523,0.002678,0.000431,0.001528
11512000,0.0324,0.013523,0.002678,0.000431,0.001763
11513000,0.0324,0.013523,0.002678,0.000431,0.001645
11514000,0.0324,0.013523,0.002678,0.000431,0.001645
11515000,0.0324,0.013523,0.002678,0.000431,0.000823
11516000,0.0324,0.013523,0.002678,0.000431,0.000940
11517000,0.0324,0.013523,0.002678,0.000431,0.014691
11518000,0.0324,0.013523,0.002678,0.000431,0.541452
11519000,0.0324,0.013523,0.002678,0.000431,0.595280
11520000,0.0324,0.013523,0.002678,0.000431,0.131867
11521000,0.0324,0.013523,0.002678,0.000431,0.133982
11522000,0.0324,0.013523,0.002678,0.000431,0.507369
11523000,0.0324,0.013523,0.002678,0.000431,0.263616
11524000,0.0324,0.013523,0.002678,0.000431,0.249747
11525000,0.0324,0.013523,0.002678,0.000431,0.332017
11526000,0.0324,0.013523,0.002678,0.000431,0.142444
11527000,0.0324,0.013523,0.002678,0.000431,0.157488
11528000,0.0324,0.013523,0.002678,0.000431,0.113532
11529000,0.0324,0.013523,0.002678,0.000431,0.326023
11530000,0.0324,0.013523,0.002678,0.000431,0.297346
11531000,0.0324,0.013523,0.002678,0.000431,0.040900
11532000,0.0324,0.013523,0.002678,0.000431,0.033260
11533000,0.0324,0.013523,0.002678,0.000431,0.026679
11534000,0.0324,0.013523,0.002678,0.000431,0.018805
11535000,0.0324,0.013523,0.002678,0.000431,0.014691
11536000,0.0324,0.013523,0.002678,0.000431,0.010342
11537000,0.0324,0.013523,0.002678,0.000431,0.008462
11538000,0.0324,0.013523,0.002678,0.000431,0.005876
11539000,0.0324,0.013523,0.002678,0.000431,0.004819
11540000,0.0324,0.013523,0.002678,0.000431,0.002586
11541000,0.0324,0.013523,0.002678,0.000431,0.003526
11542000,0.0324,0.013523,0.002678,0.000431,0.002821
11543000,0.0324,0.013523,0.002678,0.000431,0.003291
11544000,0.0324,0.013523,0.002678,0.000431,0.003291
11545000,0.0324,0.013523,0.002678,0.000431,0.003056
11546000,0.0324,0.013523,0.002678,0.000431,0.002586
11547000,0.0324,0.013523,0.002678,0.000431,0.003526
11548000,0.0324,0.013523,0.002678,0.000431,0.002938
11549000,0.0324,0.013523,0.002678,0.000431,0.003291
11550000,0.0324,0.013523,0.002678,0.000431,0.002703
11551000,0.0324,0.013523,0.002678,0.000431,0.002233
11552000,0.0324,0.013523,0.002678,0.000431,0.001645
11553000,0.0324,0.013523,0.002678,0.000431,0.001763
11554000,0.0324,0.013523,0.002678,0.000431,0.001763
11555000,0.0324,0.013523,0.002678,0.000431,0.001528
11556000,0.0324,0.013523,0.002678,0.000431,0.001880
11557000,0.0324,0.013523,0.002678,0.000431,0.001763
11558000,0.0324,0.013523,0.002678,0.000431,0.001645
11559000,0.0324,0.013523,0.002678,0.000431,0.001645
11560000,0.0324,0.013523,0.002678,0.000431,0.001763
11561000,0.0324,0.013523,0.002678,0.000431,0.003526
11562000,0.0324,0.013523,0.002678,0.000431,0.000823
11563000,0.0324,0.013523,0.002678,0.000431,0.000940
11564000,0.0324,0.013523,0.002678,0.000431,0.000823
11565000,0.0324,0.013523,0.002678,0.000431,0.000823
11566000,0.0324,0.013523,0.002678,0.000431,0.000705
11567000,0.0324,0.013523,0.002678,0.000431,0.000940
11568000,0.0324,0.013523,0.002678,0.000431,0.000940
11569000,0.0324,0.013523,0.002678,0.000431,0.000705
11570000,0.0324,0.013523,0.002678,0.000431,0.000940
11571000,0.0324,0.013523,0.002678,0.000431,0.000705
11572000,0.0324,0.013523,0.002678,0.000431,0.000940
11573000,0.0324,0.013523,0.002678,0.000431,0.000823
11574000,0.0324,0.013523,0.002678,0.000431,0.000823
11575000,0.0324,0.013523,0.002678,0.000431,0.000940
11576000,0.0324,0.013523,0.002678,0.000431,0.000705
11577000,0.0324,0.013523,0.002678,0.000431,0.000940
11578000,0.0324,0.013523,0.002678,0.000431,0.000823
11579000,0.0324,0.013523,0.002678,0.000431,0.000823
11580000,0.0324,0.013523,0.002678,0.000431,0.000823
11581000,0.0324,0.013523,0.002678,0.000431,0.000823
11582000,0.0324,0.013523,0.002678,0.000431,0.000823
11583000,0.0324,0.013523,0.002678,0.000431,0.000823
11584000,0.0324,0.013523,0.002678,0.000431,0.000940
11585000,0.0324,0.013523,0.002678,0.000431,0.000705
11586000,0.0324,0.013523,0.002678,0.000431,0.000823
11587000,0.0324,0.013523,0.002678,0.000431,0.000940
11588000,0.0324,0.013523,0.002678,0.000431,0.000823
11589000,0.0324,0.013523,0.002678,0.000431,0.000823
11590000,0.0324,0.013523,0.002678,0.000431,0.000823
11591000,0.0324,0.013523,0.002678,0.000431,0.000823
11592000,0.0324,0.013523,0.002678,0.000431,0.000823
11593000,0.0324,0.013523,0.002678,0.000431,0.000940
11594000,0.0324,0.013523,0.002678,0.000431,0.000823
11595000,0.0324,0.013523,0.002678,0.000431,0.000823
11596000,0.0324,0.013523,0.002678,0.000431,0.000705
11597000,0.0324,0.013523,0.002678,0.000431,0.000940
11598000,0.0324,0.013523,0.002678,0.000431,0.000940
11599000,0.0324,0.013523,0.002678,0.000431,0.000705
11600000,0.0324,0.013523,0.002678,0.000431,0.000940
11601000,0.0324,0.013523,0.002678,0.000431,0.000705
11602000,0.0324,0.013523,0.002678,0.000431,0.000940
11603000,0.0324,0.013523,0.002678,0.000431,0.000823
11604000,0.0324,0.013523,0.002678,0.000431,0.000823
11605000,0.0324,0.013523,0.002678,0.000431,0.000940
11606000,0.0324,0.013523,0.002678,0.000431,0.000705
11607000,0.0324,0.013523,0.002678,0.000431,0.000940
11608000,0.0324,0.013523,0.002678,0.000431,0.000705
11609000,0.0324,0.013523,0.002678,0.000431,0.000940
11610000,0.0324,0.013523,0.002678,0.000431,0.000823
11611000,0.0324,0.013523,0.002678,0.000431,0.000823
11612000,0.0324,0.013523,0.002678,0.000431,0.000823
11613000,0.0324,0.013523,0.002678,0.000431,0.014103
11614000,0.0324,0.013523,0.002678,0.000431,0.518182
11615000,0.0324,0.013523,0.002678,0.000431,0.593752
11616000,0.0324,0.013523,0.002678,0.000431,0.133630
11617000,0.0324,0.013523,0.002678,0.000431,0.132102
11618000,0.0324,0.013523,0.002678,0.000431,0.463884
11619000,0.0324,0.013523,0.002678,0.000431,0.330959
11620000,0.0324,0.013523,0.002678,0.000431,0.257739
11621000,0.0324,0.013523,0.002678,0.000431,0.342007
11622000,0.0324,0.013523,0.002678,0.000431,0.146088
11623000,0.0324,0.013523,0.002678,0.000431,0.151259
11624000,0.0324,0.013523,0.002678,0.000431,0.104365
11625000,0.0324,0.013523,0.002678,0.000431,0.334603
11626000,0.0324,0.013523,0.002678,0.000431,0.288884
11627000,0.0324,0.013523,0.002678,0.000431,0.045954
11628000,0.0324,0.013523,0.002678,0.000431,0.041605
11629000,0.0324,0.013523,0.002678,0.000431,0.040430
11630000,0.0324,0.013523,0.002678,0.000431,0.026091
11631000,0.0324,0.013523,0.002678,0.000431,0.019510
11632000,0.0324,0.013523,0.002678,0.000431,0.022213
11633000,0.0324,0.013523,0.002678,0.000431,0.017394
11634000,0.0324,0.013523,0.002678,0.000431,0.016924
11635000,0.0324,0.013523,0.002678,0.000431,0.012340
11636000,0.0324,0.013523,0.002678,0.000431,0.014221
11637000,0.0324,0.013523,0.002678,0.000431,0.011988
11638000,0.0324,0.013523,0.002678,0.000431,0.009872
11639000,0.0324,0.013523,0.002678,0.000431,0.009520
11640000,0.0324,0.013523,0.002678,0.000431,0.006464
11641000,0.0324,0.013523,0.002678,0.000431,0.007287
11642000,0.0324,0.013523,0.002678,0.000431,0.006699
11643000,0.0324,0.013523,0.002678,0.000431,0.007052
11644000,0.0324,0.013523,0.002678,0.000431,0.006582
11645000,0.0324,0.013523,0.002678,0.000431,0.007287
11646000,0.0324,0.013523,0.002678,0.000431,0.009402
11647000,0.0324,0.013523,0.002678,0.000431,0.005641
11648000,0.0324,0.013523,0.002678,0.000431,0.006464
11649000,0.0324,0.013523,0.002678,0.000431,0.006111
11650000,0.0324,0.013523,0.002678,0.000431,0.006111
11651000,0.0324,0.013523,0.002678,0.000431,0.005994
11652000,0.0324,0.013523,0.002678,0.000431,0.006229
11653000,0.0324,0.013523,0.002678,0.000431,0.006347
11654000,0.0324,0.013523,0.002678,0.000431,0.007404
11655000,0.0324,0.013523,0.002678,0.000431,0.006817
11656000,0.0324,0.013523,0.002678,0.000431,0.005171
11657000,0.0324,0.013523,0.002678,0.000431,0.005641
11658000,0.0324,0.013523,0.002678,0.000431,0.004936
11659000,0.0324,0.013523,0.002678,0.000431,0.005289
11660000,0.0324,0.013523,0.002678,0.000431,0.005524
11661000,0.0324,0.013523,0.002678,0.000431,0.005054
11662000,0.0324,0.013523,0.002678,0.000431,0.005524
11663000,0.0324,0.013523,0.002678,0.000431,0.004936
11664000,0.0324,0.013523,0.002678,0.000431,0.005641
11665000,0.0324,0.013523,0.002678,0.000431,0.005171
11666000,0.0324,0.013523,0.002678,0.000431,0.006934
11667000,0.0324,0.013523,0.002678,0.000431,0.004701
11668000,0.0324,0.013523,0.002678,0.000431,0.004113
11669000,0.0324,0.013523,0.002678,0.000431,0.004584
11670000,0.0324,0.013523,0.002678,0.000431,0.004349
11671000,0.0324,0.013523,0.002678,0.000431,0.004466
11672000,0.0324,0.013523,0.002678,0.000431,0.004231
11673000,0.0324,0.013523,0.002678,0.000431,0.004584
11674000,0.0324,0.013523,0.002678,0.000431,0.004584
11675000,0.0324,0.013523,0.002678,0.000431,0.004113
11676000,0.0324,0.013523,0.002678,0.000431,0.004819
11677000,0.0324,0.013523,0.002678,0.000431,0.004466
11678000,0.0324,0.013523,0.002678,0.000431,0.004231
11679000,0.0324,0.013523,0.002678,0.000431,0.004701
11680000,0.0324,0.013523,0.002678,0.000431,0.004584
11681000,0.0324,0.013523,0.002678,0.000431,0.004231
11682000,0.0324,0.013523,0.002678,0.000431,0.004701
11683000,0.0324,0.013523,0.002678,0.000431,0.004701
11684000,0.0324,0.013523,0.002678,0.000431,0.004466
11685000,0.0324,0.013523,0.002678,0.000431,0.004466
11686000,0.0324,0.013523,0.002678,0.000431,0.004819
11687000,0.0324,0.013523,0.002678,0.000431,0.007757
11688000,0.0324,0.013523,0.002678,0.000431,0.003761
11689000,0.0324,0.013523,0.002678,0.000431,0.002116
11690000,0.0324,0.013523,0.002678,0.000431,0.002938
11691000,0.0324,0.013523,0.002678,0.000431,0.071105
11692000,0.0324,0.013523,0.002678,0.000431,0.500082
11693000,0.0324,0.013523,0.002678,0.000431,0.575065
11694000,0.0324,0.013523,0.002678,0.000431,0.132572
11695000,0.0324,0.013523,0.002678,0.000431,0.134452
11696000,0.0324,0.013523,0.002678,0.000431,0.599981
11697000,0.0324,0.013523,0.002678,0.000431,0.227770
11698000,0.0324,0.013523,0.002678,0.000431,0.345768
11699000,0.0324,0.013523,0.002678,0.000431,0.285946
11700000,0.0324,0.013523,0.002678,0.000431,0.141034
11701000,0.0324,0.013523,0.002678,0.000431,0.146205
11702000,0.0324,0.013523,0.002678,0.000431,0.148086
11703000,0.0324,0.013523,0.002678,0.000431,0.467292
11704000,0.0324,0.013523,0.002678,0.000431,0.101427
11705000,0.0324,0.013523,0.002678,0.000431,0.062407
11706000,0.0324,0.013523,0.002678,0.000431,0.056649
11707000,0.0324,0.013523,0.002678,0.000431,0.046541
11708000,0.0324,0.013523,0.002678,0.000431,0.031733
11709000,0.0324,0.013523,0.002678,0.000431,0.024211
11710000,0.0324,0.013523,0.002678,0.000431,0.024681
11711000,0.0324,0.013523,0.002678,0.000431,0.014809
11712000,0.0324,0.013523,0.002678,0.000431,0.016219
11713000,0.0324,0.013523,0.002678,0.000431,0.011635
11714000,0.0324,0.013523,0.002678,0.000431,0.012223
11715000,0.0324,0.013523,0.002678,0.000431,0.007169
11716000,0.0324,0.013523,0.002678,0.000431,0.006347
11717000,0.0324,0.013523,0.002678,0.000431,0.007169
11718000,0.0324,0.013523,0.002678,0.000431,0.005171
11719000,0.0324,0.013523,0.002678,0.000431,0.005289
11720000,0.0324,0.013523,0.002678,0.000431,0.007052
11721000,0.0324,0.013523,0.002678,0.000431,0.005759
11722000,0.0324,0.013523,0.002678,0.000431,0.003408
11723000,0.0324,0.013523,0.002678,0.000431,0.003408
11724000,0.0324,0.013523,0.002678,0.000431,0.006699
11725000,0.0324,0.013523,0.002678,0.000431,0.005289
11726000,0.0324,0.013523,0.002678,0.000431,0.001763
11727000,0.0324,0.013523,0.002678,0.000431,0.001763
11728000,0.0324,0.013523,0.002678,0.000431,0.001763
11729000,0.0324,0.013523,0.002678,0.000431,0.001645
11730000,0.0324,0.013523,0.002678,0.000431,0.001645
11731000,0.0324,0.013523,0.002678,0.000431,0.001645
11732000,0.0324,0.013523,0.002678,0.000431,0.001763
11733000,0.0324,0.013523,0.002678,0.000431,0.001880
11734000,0.0324,0.013523,0.002678,0.000431,0.001528
11735000,0.0324,0.013523,0.002678,0.000431,0.001880
11736000,0.0324,0.013523,0.002678,0.000431,0.004113
11737000,0.0324,0.013523,0.002678,0.000431,0.000940
11738000,0.0324,0.013523,0.002678,0.000431,0.000940
11739000,0.0324,0.013523,0.002678,0.000431,0.000705
11740000,0.0324,0.013523,0.002678,0.000431,0.000940
11741000,0.0324,0.013523,0.002678,0.000431,0.000705
11742000,0.0324,0.013523,0.002678,0.000431,0.000940
11743000,0.0324,0.013523,0.002678,0.000431,0.000823
11744000,0.0324,0.013523,0.002678,0.000431,0.000823
11745000,0.0324,0.013523,0.002678,0.000431,0.000823
11746000,0.0324,0.013523,0.002678,0.000431,0.000823
11747000,0.0324,0.013523,0.002678,0.000431,0.000940
11748000,0.0324,0.013523,0.002678,0.000431,0.000705
11749000,0.0324,0.013523,0.002678,0.000431,0.000940
11750000,0.0324,0.013523,0.002678,0.000431,0.000705
11751000,0.0324,0.013523,0.002678,0.000431,0.000823
11752000,0.0324,0.013523,0.002678,0.000431,0.000940
11753000,0.0324,0.013523,0.002678,0.000431,0.000823
11754000,0.0324,0.013523,0.002678,0.000431,0.000823
11755000,0.0324,0.013523,0.002678,0.000431,0.000823
11756000,0.0324,0.013523,0.002678,0.000431,0.000823
11757000,0.0324,0.013523,0.002678,0.000431,0.000823
11758000,0.0324,0.013523,0.002678,0.000431,0.000940
11759000,0.0324,0.013523,0.002678,0.000431,0.000823
11760000,0.0324,0.013523,0.002678,0.000431,0.000823
11761000,0.0324,0.013523,0.002678,0.000431,0.000705
11762000,0.0324,0.013523,0.002678,0.000431,0.000940
11763000,0.0324,0.013523,0.002678,0.000431,0.000940
11764000,0.0324,0.013523,0.002678,0.000431,0.000705
11765000,0.0324,0.013523,0.002678,0.000431,0.000940
11766000,0.0324,0.013523,0.002678,0.000431,0.000705
11767000,0.0324,0.013523,0.002678,0.000431,0.000940
11768000,0.0324,0.013523,0.002678,0.000431,0.000823
11769000,0.0324,0.013523,0.002678,0.000431,0.000823
11770000,0.0324,0.013523,0.002678,0.000431,0.000823
11771000,0.0324,0.013523,0.002678,0.000431,0.000823
11772000,0.0324,0.013523,0.002678,0.000431,0.000940
11773000,0.0324,0.013523,0.002678,0.000431,0.000823
11774000,0.0324,0.013523,0.002678,0.000431,0.000823
11775000,0.0324,0.013523,0.002678,0.000431,0.000823
11776000,0.0324,0.013523,0.002678,0.000431,0.000823
11777000,0.0324,0.013523,0.002678,0.000431,0.000823
11778000,0.0324,0.013523,0.002678,0.000431,0.000823
11779000,0.0324,0.013523,0.002678,0.000431,0.000940
11780000,0.0324,0.013523,0.002678,0.000431,0.000705
11781000,0.0324,0.013523,0.002678,0.000431,0.000940
11782000,0.0324,0.013523,0.002678,0.000431,0.000823
11783000,0.0324,0.013523,0.002678,0.000431,0.000823
11784000,0.0324,0.013523,0.002678,0.000431,0.000705
11785000,0.0324,0.013523,0.002678,0.000431,0.000940
11786000,0.0324,0.013523,0.002678,0.000431,0.000940
11787000,0.0324,0.013523,0.002678,0.000431,0.000705
11788000,0.0324,0.013523,0.002678,0.000431,0.000940
11789000,0.0324,0.013523,0.002678,0.000431,0.000705
11790000,0.0324,0.013523,0.002678,0.000431,0.000940
11791000,0.0324,0.013523,0.002678,0.000431,0.000823
11792000,0.0324,0.013523,0.002678,0.000431,0.000823
11793000,0.0324,0.013523,0.002678,0.000431,0.000940
11794000,0.0324,0.013523,0.002678,0.000431,0.000705
11795000,0.0324,0.013523,0.002678,0.000431,0.000940
11796000,0.0324,0.013523,0.002678,0.000431,0.000823
11797000,0.0324,0.013523,0.002678,0.000431,0.000823
11798000,0.0324,0.013523,0.002678,0.000431,0.000823
11799000,0.0324,0.013523,0.002678,0.000431,0.000823
11800000,0.0324,0.013523,0.002678,0.000431,0.000823
11801000,0.0324,0.013523,0.002678,0.000431,0.000823
11802000,0.0324,0.013523,0.002678,0.000431,0.000940
11803000,0.0324,0.013523,0.002678,0.000431,0.000705
11804000,0.0324,0.013523,0.002678,0.000431,0.000823
11805000,0.0324,0.013523,0.002678,0.000431,0.000940
11806000,0.0324,0.013523,0.002678,0.000431,0.000823
11807000,0.0324,0.013523,0.002678,0.000431,0.000823
11808000,0.0324,0.013523,0.002678,0.000431,0.000823
11809000,0.0324,0.013523,0.002678,0.000431,0.000940
11810000,0.0324,0.013523,0.002678,0.000431,0.000940
11811000,0.0324,0.013523,0.002678,0.000431,0.000705
11812000,0.0324,0.013523,0.002678,0.000431,0.000940
11813000,0.0324,0.013523,0.002678,0.000431,0.000940
11814000,0.0324,0.013523,0.002678,0.000431,0.000940
11815000,0.0324,0.013523,0.002678,0.000431,0.000705
11816000,0.0324,0.013523,0.002678,0.000431,0.000940
11817000,0.0324,0.013523,0.002678,0.000431,0.000940
11818000,0.0324,0.013523,0.002678,0.000431,0.000705
11819000,0.0324,0.013523,0.002678,0.000431,0.000940
11820000,0.0324,0.013523,0.002678,0.000431,0.000705
11821000,0.0324,0.013523,0.002678,0.000431,0.000940
11822000,0.0324,0.013523,0.002678,0.000431,0.000823
11823000,0.0324,0.013523,0.002678,0.000431,0.000823
11824000,0.0324,0.013523,0.002678,0.000431,0.000940
11825000,0.0324,0.013523,0.002678,0.000431,0.000705
11826000,0.0324,0.013523,0.002678,0.000431,0.000940
11827000,0.0324,0.013523,0.002678,0.000431,0.000823
11828000,0.0324,0.013523,0.002678,0.000431,0.000823
11829000,0.0324,0.013523,0.002678,0.000431,0.000823
11830000,0.0324,0.013523,0.002678,0.000431,0.000823
11831000,0.0324,0.013523,0.002678,0.000431,0.000823
11832000,0.0324,0.013523,0.002678,0.000431,0.000823
11833000,0.0324,0.013523,0.002678,0.000431,0.000940
11834000,0.0324,0.013523,0.002678,0.000431,0.000705
11835000,0.0324,0.013523,0.002678,0.000431,0.000940
11836000,0.0324,0.013523,0.002678,0.000431,0.000823
11837000,0.0324,0.013523,0.002678,0.000431,0.000823
11838000,0.0324,0.013523,0.002678,0.000431,0.000705
11839000,0.0324,0.013523,0.002678,0.000431,0.000940
11840000,0.0324,0.013523,0.002678,0.000431,0.000940
11841000,0.0324,0.013523,0.002678,0.000431,0.000705
11842000,0.0324,0.013523,0.002678,0.000431,0.000940
11843000,0.0324,0.013523,0.002678,0.000431,0.000705
11844000,0.0324,0.013523,0.002678,0.000431,0.000940
11845000,0.0324,0.013523,0.002678,0.000431,0.000823
11846000,0.0324,0.013523,0.002678,0.000431,0.000823
11847000,0.0324,0.013523,0.002678,0.000431,0.000940
11848000,0.0324,0.013523,0.002678,0.000431,0.000705
11849000,0.0324,0.013523,0.002678,0.000431,0.000940
11850000,0.0324,0.013523,0.002678,0.000431,0.000823
11851000,0.0324,0.013523,0.002678,0.000431,0.000823
11852000,0.0324,0.013523,0.002678,0.000431,0.000823
11853000,0.0324,0.013523,0.002678,0.000431,0.000823
11854000,0.0324,0.013523,0.002678,0.000431,0.000940
11855000,0.0324,0.013523,0.002678,0.000431,0.000705
11856000,0.0324,0.013523,0.002678,0.000431,0.000940
11857000,0.0324,0.013523,0.002678,0.000431,0.000823
11858000,0.0324,0.013523,0.002678,0.000431,0.000823
11859000,0.0324,0.013523,0.002678,0.000431,0.000823
11860000,0.0324,0.013523,0.002678,0.000431,0.000823
11861000,0.0324,0.013523,0.002678,0.000431,0.000823
11862000,0.0324,0.013523,0.002678,0.000431,0.000823
11863000,0.0324,0.013523,0.002678,0.000431,0.000823
11864000,0.0324,0.013523,0.002678,0.000431,0.000823
11865000,0.0324,0.013523,0.002678,0.000431,0.000940
11866000,0.0324,0.013523,0.002678,0.000431,0.000823
11867000,0.0324,0.013523,0.002678,0.000431,0.000823
11868000,0.0324,0.013523,0.002678,0.000431,0.000705
11869000,0.0324,0.013523,0.002678,0.000431,0.000940
11870000,0.0324,0.013523,0.002678,0.000431,0.000940
11871000,0.0324,0.013523,0.002678,0.000431,0.000705
11872000,0.0324,0.013523,0.002678,0.000431,0.000940
11873000,0.0324,0.013523,0.002678,0.000431,0.000823
11874000,0.0324,0.013523,0.002678,0.000431,0.000940
11875000,0.0324,0.013523,0.002678,0.000431,0.000823
11876000,0.0324,0.013523,0.002678,0.000431,0.000940
11877000,0.0324,0.013523,0.002678,0.000431,0.000823
11878000,0.0324,0.013523,0.002678,0.000431,0.000823
11879000,0.0324,0.013523,0.002678,0.000431,0.000940
11880000,0.0324,0.013523,0.002678,0.000431,0.000940
11881000,0.0324,0.013523,0.002678,0.000431,0.000823
11882000,0.0324,0.013523,0.002678,0.000431,0.000823
11883000,0.0324,0.013523,0.002678,0.000431,0.000940
11884000,0.0324,0.013523,0.002678,0.000431,0.000940
11885000,0.0324,0.013523,0.002678,0.000431,0.000705
11886000,0.0324,0.013523,0.002678,0.000431,0.000940
11887000,0.0324,0.013523,0.002678,0.000431,0.000940
11888000,0.0324,0.013523,0.002678,0.000431,0.000940
11889000,0.0324,0.013523,0.002678,0.000431,0.000705
11890000,0.0324,0.013523,0.002678,0.000431,0.000940
11891000,0.0324,0.013523,0.002678,0.000431,0.000940
11892000,0.0324,0.013523,0.002678,0.000431,0.000823
11893000,0.0324,0.013523,0.002678,0.000431,0.000823
11894000,0.0324,0.013523,0.002678,0.000431,0.000823
11895000,0.0324,0.013523,0.002678,0.000431,0.000823
11896000,0.0324,0.013523,0.002678,0.000431,0.000823
11897000,0.0324,0.013523,0.002678,0.000431,0.000823
11898000,0.0324,0.013523,0.002678,0.000431,0.000940
11899000,0.0324,0.013523,0.002678,0.000431,0.000823
11900000,0.0324,0.013523,0.002678,0.000431,0.000823
11901000,0.0324,0.013523,0.002678,0.000431,0.000823
11902000,0.0324,0.013523,0.002678,0.000431,0.000823
11903000,0.0324,0.013523,0.002678,0.000431,0.000940
11904000,0.0324,0.013523,0.002678,0.000431,0.000823
11905000,0.0324,0.013523,0.002678,0.000431,0.000823
11906000,0.0324,0.013523,0.002678,0.000431,0.000940
11907000,0.0324,0.013523,0.002678,0.000431,0.000940
11908000,0.0324,0.013523,0.002678,0.000431,0.000940
11909000,0.0324,0.013523,0.002678,0.000431,0.000705
11910000,0.0324,0.013523,0.002678,0.000431,0.000940
11911000,0.0324,0.013523,0.002678,0.000431,0.000940
11912000,0.0324,0.013523,0.002678,0.000431,0.000705
11913000,0.0324,0.013523,0.002678,0.000431,0.000940
11914000,0.0324,0.013523,0.002678,0.000431,0.000823
11915000,0.0324,0.013523,0.002678,0.000431,0.000823
11916000,0.0324,0.013523,0.002678,0.000431,0.000823
11917000,0.0324,0.013523,0.002678,0.000431,0.000823
11918000,0.0324,0.013523,0.002678,0.000431,0.000940
11919000,0.0324,0.013523,0.002678,0.000431,0.000705
11920000,0.0324,0.013523,0.002678,0.000431,0.002351
11921000,0.0324,0.013523,0.002678,0.000431,0.482101
11922000,0.0324,0.013523,0.002678,0.000431,0.674612
11923000,0.0324,0.013523,0.002678,0.000431,0.133512
11924000,0.0324,0.013523,0.002678,0.000431,0.132572
11925000,0.0324,0.013523,0.002678,0.000431,0.251040
11926000,0.0324,0.013523,0.002678,0.000431,0.483746
11927000,0.0324,0.013523,0.002678,0.000431,0.244341
11928000,0.0324,0.013523,0.002678,0.000431,0.287944
11929000,0.0324,0.013523,0.002678,0.000431,0.201326
11930000,0.0324,0.013523,0.002678,0.000431,0.143619
11931000,0.0324,0.013523,0.002678,0.000431,0.171356
11932000,0.0324,0.013523,0.002678,0.000431,0.147968
11933000,0.0324,0.013523,0.002678,0.000431,0.454246
11934000,0.0324,0.013523,0.002678,0.000431,0.065933
11935000,0.0324,0.013523,0.002678,0.000431,0.053005
11936000,0.0324,0.013523,0.002678,0.000431,0.041135
11937000,0.0324,0.013523,0.002678,0.000431,0.037844
11938000,0.0324,0.013523,0.002678,0.000431,0.026209
11939000,0.0324,0.013523,0.002678,0.000431,0.024328
11940000,0.0324,0.013523,0.002678,0.000431,0.021038
11941000,0.0324,0.013523,0.002678,0.000431,0.012928
11942000,0.0324,0.013523,0.002678,0.000431,0.014926
11943000,0.0324,0.013523,0.002678,0.000431,0.008932
11944000,0.0324,0.013523,0.002678,0.000431,0.015279
11945000,0.0324,0.013523,0.002678,0.000431,0.009050
11946000,0.0324,0.013523,0.002678,0.000431,0.006699
11947000,0.0324,0.013523,0.002678,0.000431,0.006582
11948000,0.0324,0.013523,0.002678,0.000431,0.006464
11949000,0.0324,0.013523,0.002678,0.000431,0.006582
11950000,0.0324,0.013523,0.002678,0.000431,0.006699
11951000,0.0324,0.013523,0.002678,0.000431,0.006582
11952000,0.0324,0.013523,0.002678,0.000431,0.006817
11953000,0.0324,0.013523,0.002678,0.000431,0.008580
11954000,0.0324,0.013523,0.002678,0.000431,0.005289
11955000,0.0324,0.013523,0.002678,0.000431,0.009167
11956000,0.0324,0.013523,0.002678,0.000431,0.004349
11957000,0.0324,0.013523,0.002678,0.000431,0.003996
11958000,0.0324,0.013523,0.002678,0.000431,0.004231
11959000,0.0324,0.013523,0.002678,0.000431,0.003526
11960000,0.0324,0.013523,0.002678,0.000431,0.004349
11961000,0.0324,0.013523,0.002678,0.000431,0.004466
11962000,0.0324,0.013523,0.002678,0.000431,0.003878
11963000,0.0324,0.013523,0.002678,0.000431,0.003996
11964000,0.0324,0.013523,0.002678,0.000431,0.003878
11965000,0.0324,0.013523,0.002678,0.000431,0.006347
11966000,0.0324,0.013523,0.002678,0.000431,0.003408
11967000,0.0324,0.013523,0.002678,0.000431,0.003056
11968000,0.0324,0.013523,0.002678,0.000431,0.002821
11969000,0.0324,0.013523,0.002678,0.000431,0.003526
11970000,0.0324,0.013523,0.002678,0.000431,0.003291
11971000,0.0324,0.013523,0.002678,0.000431,0.003173
11972000,0.0324,0.013523,0.002678,0.000431,0.003173
11973000,0.0324,0.013523,0.002678,0.000431,0.003056
11974000,0.0324,0.013523,0.002678,0.000431,0.003173
11975000,0.0324,0.013523,0.002678,0.000431,0.003291
11976000,0.0324,0.013523,0.002678,0.000431,0.003173
11977000,0.0324,0.013523,0.002678,0.000431,0.003408
11978000,0.0324,0.013523,0.002678,0.000431,0.003173
11979000,0.0324,0.013523,0.002678,0.000431,0.002821
11980000,0.0324,0.013523,0.002678,0.000431,0.003291
11981000,0.0324,0.013523,0.002678,0.000431,0.003526
11982000,0.0324,0.013523,0.002678,0.000431,0.002938
11983000,0.0324,0.013523,0.002678,0.000431,0.003291
11984000,0.0324,0.013523,0.002678,0.000431,0.004819
11985000,0.0324,0.013523,0.002678,0.000431,0.002703
11986000,0.0324,0.013523,0.002678,0.000431,0.002586
11987000,0.0324,0.013523,0.002678,0.000431,0.002351
11988000,0.0324,0.013523,0.002678,0.000431,0.001998
11989000,0.0324,0.013523,0.002678,0.000431,0.002233
11990000,0.0324,0.013523,0.002678,0.000431,0.002586
11991000,0.0324,0.013523,0.002678,0.000431,0.002351
11992000,0.0324,0.013523,0.002678,0.000431,0.002351
11993000,0.0324,0.013523,0.002678,0.000431,0.001998
11994000,0.0324,0.013523,0.002678,0.000431,0.002468
11995000,0.0324,0.013523,0.002678,0.000431,0.002351
11996000,0.0324,0.013523,0.002678,0.000431,0.002351
11997000,0.0324,0.013523,0.002678,0.000431,0.002351
11998000,0.0324,0.013523,0.002678,0.000431,0.002468
11999000,0.0324,0.013523,0.002678,0.000431,0.001998
