Cycle,Area(mm^2),PeakDynamic(W),SubthresholdLeakage(W),GateLeakage(W),RunTimeDynamic(W)
41000000,0.0324,0.013523,0.002678,0.000431,0.001880
41001000,0.0324,0.013523,0.002678,0.000431,0.001645
41002000,0.0324,0.013523,0.002678,0.000431,0.001645
41003000,0.0324,0.013523,0.002678,0.000431,0.001763
41004000,0.0324,0.013523,0.002678,0.000431,0.001528
41005000,0.0324,0.013523,0.002678,0.000431,0.001880
41006000,0.0324,0.013523,0.002678,0.000431,0.001528
41007000,0.0324,0.013523,0.002678,0.000431,0.001763
41008000,0.0324,0.013523,0.002678,0.000431,0.001645
41009000,0.0324,0.013523,0.002678,0.000431,0.001645
41010000,0.0324,0.013523,0.002678,0.000431,0.001645
41011000,0.0324,0.013523,0.002678,0.000431,0.001645
41012000,0.0324,0.013523,0.002678,0.000431,0.001763
41013000,0.0324,0.013523,0.002678,0.000431,0.001528
41014000,0.0324,0.013523,0.002678,0.000431,0.001645
41015000,0.0324,0.013523,0.002678,0.000431,0.001763
41016000,0.0324,0.013523,0.002678,0.000431,0.001763
41017000,0.0324,0.013523,0.002678,0.000431,0.001645
41018000,0.0324,0.013523,0.002678,0.000431,0.001645
41019000,0.0324,0.013523,0.002678,0.000431,0.001410
41020000,0.0324,0.013523,0.002678,0.000431,0.001880
41021000,0.0324,0.013523,0.002678,0.000431,0.001880
41022000,0.0324,0.013523,0.002678,0.000431,0.001410
41023000,0.0324,0.013523,0.002678,0.000431,0.001880
41024000,0.0324,0.013523,0.002678,0.000431,0.001410
41025000,0.0324,0.013523,0.002678,0.000431,0.001880
41026000,0.0324,0.013523,0.002678,0.000431,0.001763
41027000,0.0324,0.013523,0.002678,0.000431,0.001528
41028000,0.0324,0.013523,0.002678,0.000431,0.001880
41029000,0.0324,0.013523,0.002678,0.000431,0.001410
41030000,0.0324,0.013523,0.002678,0.000431,0.001880
41031000,0.0324,0.013523,0.002678,0.000431,0.001645
41032000,0.0324,0.013523,0.002678,0.000431,0.001645
41033000,0.0324,0.013523,0.002678,0.000431,0.001645
41034000,0.0324,0.013523,0.002678,0.000431,0.001645
41035000,0.0324,0.013523,0.002678,0.000431,0.001763
41036000,0.0324,0.013523,0.002678,0.000431,0.001528
41037000,0.0324,0.013523,0.002678,0.000431,0.001880
41038000,0.0324,0.013523,0.002678,0.000431,0.001528
41039000,0.0324,0.013523,0.002678,0.000431,0.001763
41040000,0.0324,0.013523,0.002678,0.000431,0.002586
41041000,0.0324,0.013523,0.002678,0.000431,0.002233
41042000,0.0324,0.013523,0.002678,0.000431,0.000705
41043000,0.0324,0.013523,0.002678,0.000431,0.000940
41044000,0.0324,0.013523,0.002678,0.000431,0.000940
41045000,0.0324,0.013523,0.002678,0.000431,0.000823
41046000,0.0324,0.013523,0.002678,0.000431,0.000823
41047000,0.0324,0.013523,0.002678,0.000431,0.001058
41048000,0.0324,0.013523,0.002678,0.000431,0.000823
41049000,0.0324,0.013523,0.002678,0.000431,0.000940
41050000,0.0324,0.013523,0.002678,0.000431,0.000940
41051000,0.0324,0.013523,0.002678,0.000431,0.000823
41052000,0.0324,0.013523,0.002678,0.000431,0.000823
41053000,0.0324,0.013523,0.002678,0.000431,0.000940
41054000,0.0324,0.013523,0.002678,0.000431,0.000823
41055000,0.0324,0.013523,0.002678,0.000431,0.000940
41056000,0.0324,0.013523,0.002678,0.000431,0.000823
41057000,0.0324,0.013523,0.002678,0.000431,0.000940
41058000,0.0324,0.013523,0.002678,0.000431,0.000823
41059000,0.0324,0.013523,0.002678,0.000431,0.000823
41060000,0.0324,0.013523,0.002678,0.000431,0.000940
41061000,0.0324,0.013523,0.002678,0.000431,0.000940
41062000,0.0324,0.013523,0.002678,0.000431,0.000823
41063000,0.0324,0.013523,0.002678,0.000431,0.000823
41064000,0.0324,0.013523,0.002678,0.000431,0.000940
41065000,0.0324,0.013523,0.002678,0.000431,0.000940
41066000,0.0324,0.013523,0.002678,0.000431,0.000705
41067000,0.0324,0.013523,0.002678,0.000431,0.000940
41068000,0.0324,0.013523,0.002678,0.000431,0.000940
41069000,0.0324,0.013523,0.002678,0.000431,0.000823
41070000,0.0324,0.013523,0.002678,0.000431,0.000940
41071000,0.0324,0.013523,0.002678,0.000431,0.000823
41072000,0.0324,0.013523,0.002678,0.000431,0.000940
41073000,0.0324,0.013523,0.002678,0.000431,0.000823
41074000,0.0324,0.013523,0.002678,0.000431,0.000823
41075000,0.0324,0.013523,0.002678,0.000431,0.000940
41076000,0.0324,0.013523,0.002678,0.000431,0.000823
41077000,0.0324,0.013523,0.002678,0.000431,0.000940
41078000,0.0324,0.013523,0.002678,0.000431,0.000823
41079000,0.0324,0.013523,0.002678,0.000431,0.000940
41080000,0.0324,0.013523,0.002678,0.000431,0.000940
41081000,0.0324,0.013523,0.002678,0.000431,0.000705
41082000,0.0324,0.013523,0.002678,0.000431,0.000940
41083000,0.0324,0.013523,0.002678,0.000431,0.000940
41084000,0.0324,0.013523,0.002678,0.000431,0.000940
41085000,0.0324,0.013523,0.002678,0.000431,0.000705
41086000,0.0324,0.013523,0.002678,0.000431,0.000940
41087000,0.0324,0.013523,0.002678,0.000431,0.000940
41088000,0.0324,0.013523,0.002678,0.000431,0.000823
41089000,0.0324,0.013523,0.002678,0.000431,0.000823
41090000,0.0324,0.013523,0.002678,0.000431,0.000940
41091000,0.0324,0.013523,0.002678,0.000431,0.000940
41092000,0.0324,0.013523,0.002678,0.000431,0.000823
41093000,0.0324,0.013523,0.002678,0.000431,0.000823
41094000,0.0324,0.013523,0.002678,0.000431,0.000940
41095000,0.0324,0.013523,0.002678,0.000431,0.000823
41096000,0.0324,0.013523,0.002678,0.000431,0.000940
41097000,0.0324,0.013523,0.002678,0.000431,0.000823
41098000,0.0324,0.013523,0.002678,0.000431,0.000940
41099000,0.0324,0.013523,0.002678,0.000431,0.000823
41100000,0.0324,0.013523,0.002678,0.000431,0.000823
41101000,0.0324,0.013523,0.002678,0.000431,0.000940
41102000,0.0324,0.013523,0.002678,0.000431,0.000940
41103000,0.0324,0.013523,0.002678,0.000431,0.000823
41104000,0.0324,0.013523,0.002678,0.000431,0.000823
41105000,0.0324,0.013523,0.002678,0.000431,0.000940
41106000,0.0324,0.013523,0.002678,0.000431,0.000940
41107000,0.0324,0.013523,0.002678,0.000431,0.000823
41108000,0.0324,0.013523,0.002678,0.000431,0.000823
41109000,0.0324,0.013523,0.002678,0.000431,0.000940
41110000,0.0324,0.013523,0.002678,0.000431,0.000823
41111000,0.0324,0.013523,0.002678,0.000431,0.000940
41112000,0.0324,0.013523,0.002678,0.000431,0.000823
41113000,0.0324,0.013523,0.002678,0.000431,0.000940
41114000,0.0324,0.013523,0.002678,0.000431,0.000823
41115000,0.0324,0.013523,0.002678,0.000431,0.000823
41116000,0.0324,0.013523,0.002678,0.000431,0.000940
41117000,0.0324,0.013523,0.002678,0.000431,0.000940
41118000,0.0324,0.013523,0.002678,0.000431,0.000823
41119000,0.0324,0.013523,0.002678,0.000431,0.000823
41120000,0.0324,0.013523,0.002678,0.000431,0.000940
41121000,0.0324,0.013523,0.002678,0.000431,0.000940
41122000,0.0324,0.013523,0.002678,0.000431,0.000705
41123000,0.0324,0.013523,0.002678,0.000431,0.000940
41124000,0.0324,0.013523,0.002678,0.000431,0.000940
41125000,0.0324,0.013523,0.002678,0.000431,0.000940
41126000,0.0324,0.013523,0.002678,0.000431,0.000705
41127000,0.0324,0.013523,0.002678,0.000431,0.000940
41128000,0.0324,0.013523,0.002678,0.000431,0.000940
41129000,0.0324,0.013523,0.002678,0.000431,0.002586
41130000,0.0324,0.013523,0.002678,0.000431,0.452836
41131000,0.0324,0.013523,0.002678,0.000431,0.694709
41132000,0.0324,0.013523,0.002678,0.000431,0.131984
41133000,0.0324,0.013523,0.002678,0.000431,0.134100
41134000,0.0324,0.013523,0.002678,0.000431,0.302753
41135000,0.0324,0.013523,0.002678,0.000431,0.534283
41136000,0.0324,0.013523,0.002678,0.000431,0.271020
41137000,0.0324,0.013523,0.002678,0.000431,0.304398
41138000,0.0324,0.013523,0.002678,0.000431,0.148556
41139000,0.0324,0.013523,0.002678,0.000431,0.142444
41140000,0.0324,0.013523,0.002678,0.000431,0.107773
41141000,0.0324,0.013523,0.002678,0.000431,0.385727
41142000,0.0324,0.013523,0.002678,0.000431,0.211433
41143000,0.0324,0.013523,0.002678,0.000431,0.058529
41144000,0.0324,0.013523,0.002678,0.000431,0.043015
41145000,0.0324,0.013523,0.002678,0.000431,0.033496
41146000,0.0324,0.013523,0.002678,0.000431,0.032320
41147000,0.0324,0.013523,0.002678,0.000431,0.024211
41148000,0.0324,0.013523,0.002678,0.000431,0.024093
41149000,0.0324,0.013523,0.002678,0.000431,0.021390
41150000,0.0324,0.013523,0.002678,0.000431,0.012223
41151000,0.0324,0.013523,0.002678,0.000431,0.012340
41152000,0.0324,0.013523,0.002678,0.000431,0.012693
41153000,0.0324,0.013523,0.002678,0.000431,0.012458
41154000,0.0324,0.013523,0.002678,0.000431,0.011870
41155000,0.0324,0.013523,0.002678,0.000431,0.011518
41156000,0.0324,0.013523,0.002678,0.000431,0.012693
41157000,0.0324,0.013523,0.002678,0.000431,0.011988
41158000,0.0324,0.013523,0.002678,0.000431,0.011518
41159000,0.0324,0.013523,0.002678,0.000431,0.008815
41160000,0.0324,0.013523,0.002678,0.000431,0.008932
41161000,0.0324,0.013523,0.002678,0.000431,0.009637
41162000,0.0324,0.013523,0.002678,0.000431,0.008345
41163000,0.0324,0.013523,0.002678,0.000431,0.009285
41164000,0.0324,0.013523,0.002678,0.000431,0.009285
41165000,0.0324,0.013523,0.002678,0.000431,0.008697
41166000,0.0324,0.013523,0.002678,0.000431,0.009167
41167000,0.0324,0.013523,0.002678,0.000431,0.008932
41168000,0.0324,0.013523,0.002678,0.000431,0.009402
41169000,0.0324,0.013523,0.002678,0.000431,0.009050
41170000,0.0324,0.013523,0.002678,0.000431,0.009050
41171000,0.0324,0.013523,0.002678,0.000431,0.008580
41172000,0.0324,0.013523,0.002678,0.000431,0.009402
41173000,0.0324,0.013523,0.002678,0.000431,0.008932
41174000,0.0324,0.013523,0.002678,0.000431,0.008932
41175000,0.0324,0.013523,0.002678,0.000431,0.009167
41176000,0.0324,0.013523,0.002678,0.000431,0.009167
41177000,0.0324,0.013523,0.002678,0.000431,0.009167
41178000,0.0324,0.013523,0.002678,0.000431,0.009050
41179000,0.0324,0.013523,0.002678,0.000431,0.009050
41180000,0.0324,0.013523,0.002678,0.000431,0.008932
41181000,0.0324,0.013523,0.002678,0.000431,0.009285
41182000,0.0324,0.013523,0.002678,0.000431,0.008815
41183000,0.0324,0.013523,0.002678,0.000431,0.009402
41184000,0.0324,0.013523,0.002678,0.000431,0.010342
41185000,0.0324,0.013523,0.002678,0.000431,0.008227
41186000,0.0324,0.013523,0.002678,0.000431,0.008227
41187000,0.0324,0.013523,0.002678,0.000431,0.008345
41188000,0.0324,0.013523,0.002678,0.000431,0.007874
41189000,0.0324,0.013523,0.002678,0.000431,0.008580
41190000,0.0324,0.013523,0.002678,0.000431,0.007757
41191000,0.0324,0.013523,0.002678,0.000431,0.008462
41192000,0.0324,0.013523,0.002678,0.000431,0.008580
41193000,0.0324,0.013523,0.002678,0.000431,0.007522
41194000,0.0324,0.013523,0.002678,0.000431,0.008580
41195000,0.0324,0.013523,0.002678,0.000431,0.008462
41196000,0.0324,0.013523,0.002678,0.000431,0.008227
41197000,0.0324,0.013523,0.002678,0.000431,0.007757
41198000,0.0324,0.013523,0.002678,0.000431,0.008345
41199000,0.0324,0.013523,0.002678,0.000431,0.008109
41200000,0.0324,0.013523,0.002678,0.000431,0.008109
41201000,0.0324,0.013523,0.002678,0.000431,0.008697
41202000,0.0324,0.013523,0.002678,0.000431,0.007757
41203000,0.0324,0.013523,0.002678,0.000431,0.008697
41204000,0.0324,0.013523,0.002678,0.000431,0.007522
41205000,0.0324,0.013523,0.002678,0.000431,0.010225
41206000,0.0324,0.013523,0.002678,0.000431,0.007404
41207000,0.0324,0.013523,0.002678,0.000431,0.007992
41208000,0.0324,0.013523,0.002678,0.000431,0.006817
41209000,0.0324,0.013523,0.002678,0.000431,0.006111
41210000,0.0324,0.013523,0.002678,0.000431,0.006699
41211000,0.0324,0.013523,0.002678,0.000431,0.006817
41212000,0.0324,0.013523,0.002678,0.000431,0.005994
41213000,0.0324,0.013523,0.002678,0.000431,0.006934
41214000,0.0324,0.013523,0.002678,0.000431,0.006111
41215000,0.0324,0.013523,0.002678,0.000431,0.006582
41216000,0.0324,0.013523,0.002678,0.000431,0.007052
41217000,0.0324,0.013523,0.002678,0.000431,0.005759
41218000,0.0324,0.013523,0.002678,0.000431,0.007052
41219000,0.0324,0.013523,0.002678,0.000431,0.006464
41220000,0.0324,0.013523,0.002678,0.000431,0.006229
41221000,0.0324,0.013523,0.002678,0.000431,0.006817
41222000,0.0324,0.013523,0.002678,0.000431,0.006582
41223000,0.0324,0.013523,0.002678,0.000431,0.006347
41224000,0.0324,0.013523,0.002678,0.000431,0.006464
41225000,0.0324,0.013523,0.002678,0.000431,0.006582
41226000,0.0324,0.013523,0.002678,0.000431,0.006111
41227000,0.0324,0.013523,0.002678,0.000431,0.006934
41228000,0.0324,0.013523,0.002678,0.000431,0.006111
41229000,0.0324,0.013523,0.002678,0.000431,0.007052
41230000,0.0324,0.013523,0.002678,0.000431,0.006347
41231000,0.0324,0.013523,0.002678,0.000431,0.008227
41232000,0.0324,0.013523,0.002678,0.000431,0.004936
41233000,0.0324,0.013523,0.002678,0.000431,0.005289
41234000,0.0324,0.013523,0.002678,0.000431,0.006934
41235000,0.0324,0.013523,0.002678,0.000431,0.003761
41236000,0.0324,0.013523,0.002678,0.000431,0.004349
41237000,0.0324,0.013523,0.002678,0.000431,0.006229
41238000,0.0324,0.013523,0.002678,0.000431,0.003526
41239000,0.0324,0.013523,0.002678,0.000431,0.002351
41240000,0.0324,0.013523,0.002678,0.000431,0.002586
41241000,0.0324,0.013523,0.002678,0.000431,0.002703
41242000,0.0324,0.013523,0.002678,0.000431,0.002468
41243000,0.0324,0.013523,0.002678,0.000431,0.002586
41244000,0.0324,0.013523,0.002678,0.000431,0.002468
41245000,0.0324,0.013523,0.002678,0.000431,0.002703
41246000,0.0324,0.013523,0.002678,0.000431,0.002468
41247000,0.0324,0.013523,0.002678,0.000431,0.002351
41248000,0.0324,0.013523,0.002678,0.000431,0.002703
41249000,0.0324,0.013523,0.002678,0.000431,0.002586
41250000,0.0324,0.013523,0.002678,0.000431,0.002468
41251000,0.0324,0.013523,0.002678,0.000431,0.002468
41252000,0.0324,0.013523,0.002678,0.000431,0.002703
41253000,0.0324,0.013523,0.002678,0.000431,0.002468
41254000,0.0324,0.013523,0.002678,0.000431,0.002703
41255000,0.0324,0.013523,0.002678,0.000431,0.002233
41256000,0.0324,0.013523,0.002678,0.000431,0.002821
41257000,0.0324,0.013523,0.002678,0.000431,0.002468
41258000,0.0324,0.013523,0.002678,0.000431,0.002468
41259000,0.0324,0.013523,0.002678,0.000431,0.002821
41260000,0.0324,0.013523,0.002678,0.000431,0.002351
41261000,0.0324,0.013523,0.002678,0.000431,0.002703
41262000,0.0324,0.013523,0.002678,0.000431,0.002351
41263000,0.0324,0.013523,0.002678,0.000431,0.004819
41264000,0.0324,0.013523,0.002678,0.000431,0.001880
41265000,0.0324,0.013523,0.002678,0.000431,0.001645
41266000,0.0324,0.013523,0.002678,0.000431,0.001645
41267000,0.0324,0.013523,0.002678,0.000431,0.001763
41268000,0.0324,0.013523,0.002678,0.000431,0.001763
41269000,0.0324,0.013523,0.002678,0.000431,0.001645
41270000,0.0324,0.013523,0.002678,0.000431,0.001763
41271000,0.0324,0.013523,0.002678,0.000431,0.001763
41272000,0.0324,0.013523,0.002678,0.000431,0.001645
41273000,0.0324,0.013523,0.002678,0.000431,0.001645
41274000,0.0324,0.013523,0.002678,0.000431,0.001763
41275000,0.0324,0.013523,0.002678,0.000431,0.001763
41276000,0.0324,0.013523,0.002678,0.000431,0.001645
41277000,0.0324,0.013523,0.002678,0.000431,0.001763
41278000,0.0324,0.013523,0.002678,0.000431,0.001763
41279000,0.0324,0.013523,0.002678,0.000431,0.001763
41280000,0.0324,0.013523,0.002678,0.000431,0.001410
41281000,0.0324,0.013523,0.002678,0.000431,0.001880
41282000,0.0324,0.013523,0.002678,0.000431,0.001880
41283000,0.0324,0.013523,0.002678,0.000431,0.001645
41284000,0.0324,0.013523,0.002678,0.000431,0.001645
41285000,0.0324,0.013523,0.002678,0.000431,0.001645
41286000,0.0324,0.013523,0.002678,0.000431,0.001880
41287000,0.0324,0.013523,0.002678,0.000431,0.001645
41288000,0.0324,0.013523,0.002678,0.000431,0.001763
41289000,0.0324,0.013523,0.002678,0.000431,0.001645
41290000,0.0324,0.013523,0.002678,0.000431,0.001763
41291000,0.0324,0.013523,0.002678,0.000431,0.001763
41292000,0.0324,0.013523,0.002678,0.000431,0.001528
41293000,0.0324,0.013523,0.002678,0.000431,0.001880
41294000,0.0324,0.013523,0.002678,0.000431,0.001645
41295000,0.0324,0.013523,0.002678,0.000431,0.001645
41296000,0.0324,0.013523,0.002678,0.000431,0.001763
41297000,0.0324,0.013523,0.002678,0.000431,0.001763
41298000,0.0324,0.013523,0.002678,0.000431,0.001763
41299000,0.0324,0.013523,0.002678,0.000431,0.001528
41300000,0.0324,0.013523,0.002678,0.000431,0.001763
41301000,0.0324,0.013523,0.002678,0.000431,0.001763
41302000,0.0324,0.013523,0.002678,0.000431,0.001880
41303000,0.0324,0.013523,0.002678,0.000431,0.001528
41304000,0.0324,0.013523,0.002678,0.000431,0.001763
41305000,0.0324,0.013523,0.002678,0.000431,0.001645
41306000,0.0324,0.013523,0.002678,0.000431,0.001763
41307000,0.0324,0.013523,0.002678,0.000431,0.001763
41308000,0.0324,0.013523,0.002678,0.000431,0.001645
41309000,0.0324,0.013523,0.002678,0.000431,0.001763
41310000,0.0324,0.013523,0.002678,0.000431,0.001645
41311000,0.0324,0.013523,0.002678,0.000431,0.001763
41312000,0.0324,0.013523,0.002678,0.000431,0.001763
41313000,0.0324,0.013523,0.002678,0.000431,0.001645
41314000,0.0324,0.013523,0.002678,0.000431,0.001645
41315000,0.0324,0.013523,0.002678,0.000431,0.001763
41316000,0.0324,0.013523,0.002678,0.000431,0.001880
41317000,0.0324,0.013523,0.002678,0.000431,0.001528
41318000,0.0324,0.013523,0.002678,0.000431,0.001763
41319000,0.0324,0.013523,0.002678,0.000431,0.001645
41320000,0.0324,0.013523,0.002678,0.000431,0.001880
41321000,0.0324,0.013523,0.002678,0.000431,0.001645
41322000,0.0324,0.013523,0.002678,0.000431,0.001645
41323000,0.0324,0.013523,0.002678,0.000431,0.001763
41324000,0.0324,0.013523,0.002678,0.000431,0.001763
41325000,0.0324,0.013523,0.002678,0.000431,0.001763
41326000,0.0324,0.013523,0.002678,0.000431,0.001528
41327000,0.0324,0.013523,0.002678,0.000431,0.001880
41328000,0.0324,0.013523,0.002678,0.000431,0.001645
41329000,0.0324,0.013523,0.002678,0.000431,0.001763
41330000,0.0324,0.013523,0.002678,0.000431,0.001528
41331000,0.0324,0.013523,0.002678,0.000431,0.001880
41332000,0.0324,0.013523,0.002678,0.000431,0.001763
41333000,0.0324,0.013523,0.002678,0.000431,0.001528
41334000,0.0324,0.013523,0.002678,0.000431,0.001880
41335000,0.0324,0.013523,0.002678,0.000431,0.001645
41336000,0.0324,0.013523,0.002678,0.000431,0.001763
41337000,0.0324,0.013523,0.002678,0.000431,0.001645
41338000,0.0324,0.013523,0.002678,0.000431,0.001763
41339000,0.0324,0.013523,0.002678,0.000431,0.001880
41340000,0.0324,0.013523,0.002678,0.000431,0.002468
41341000,0.0324,0.013523,0.002678,0.000431,0.002116
41342000,0.0324,0.013523,0.002678,0.000431,0.000823
41343000,0.0324,0.013523,0.002678,0.000431,0.000823
41344000,0.0324,0.013523,0.002678,0.000431,0.000823
41345000,0.0324,0.013523,0.002678,0.000431,0.000823
41346000,0.0324,0.013523,0.002678,0.000431,0.000940
41347000,0.0324,0.013523,0.002678,0.000431,0.000705
41348000,0.0324,0.013523,0.002678,0.000431,0.000940
41349000,0.0324,0.013523,0.002678,0.000431,0.000823
41350000,0.0324,0.013523,0.002678,0.000431,0.000823
41351000,0.0324,0.013523,0.002678,0.000431,0.000823
41352000,0.0324,0.013523,0.002678,0.000431,0.000823
41353000,0.0324,0.013523,0.002678,0.000431,0.000940
41354000,0.0324,0.013523,0.002678,0.000431,0.000705
41355000,0.0324,0.013523,0.002678,0.000431,0.000823
41356000,0.0324,0.013523,0.002678,0.000431,0.000940
41357000,0.0324,0.013523,0.002678,0.000431,0.000823
41358000,0.0324,0.013523,0.002678,0.000431,0.000823
41359000,0.0324,0.013523,0.002678,0.000431,0.000823
41360000,0.0324,0.013523,0.002678,0.000431,0.000705
41361000,0.0324,0.013523,0.002678,0.000431,0.000940
41362000,0.0324,0.013523,0.002678,0.000431,0.000940
41363000,0.0324,0.013523,0.002678,0.000431,0.000705
41364000,0.0324,0.013523,0.002678,0.000431,0.000940
41365000,0.0324,0.013523,0.002678,0.000431,0.000705
41366000,0.0324,0.013523,0.002678,0.000431,0.000940
41367000,0.0324,0.013523,0.002678,0.000431,0.000940
41368000,0.0324,0.013523,0.002678,0.000431,0.000705
41369000,0.0324,0.013523,0.002678,0.000431,0.000940
41370000,0.0324,0.013523,0.002678,0.000431,0.000705
41371000,0.0324,0.013523,0.002678,0.000431,0.000940
41372000,0.0324,0.013523,0.002678,0.000431,0.000823
41373000,0.0324,0.013523,0.002678,0.000431,0.000823
41374000,0.0324,0.013523,0.002678,0.000431,0.000940
41375000,0.0324,0.013523,0.002678,0.000431,0.000705
41376000,0.0324,0.013523,0.002678,0.000431,0.000940
41377000,0.0324,0.013523,0.002678,0.000431,0.000823
41378000,0.0324,0.013523,0.002678,0.000431,0.000823
41379000,0.0324,0.013523,0.002678,0.000431,0.000823
41380000,0.0324,0.013523,0.002678,0.000431,0.000823
41381000,0.0324,0.013523,0.002678,0.000431,0.000940
41382000,0.0324,0.013523,0.002678,0.000431,0.000705
41383000,0.0324,0.013523,0.002678,0.000431,0.000940
41384000,0.0324,0.013523,0.002678,0.000431,0.000823
41385000,0.0324,0.013523,0.002678,0.000431,0.000823
41386000,0.0324,0.013523,0.002678,0.000431,0.000823
41387000,0.0324,0.013523,0.002678,0.000431,0.000823
41388000,0.0324,0.013523,0.002678,0.000431,0.000823
41389000,0.0324,0.013523,0.002678,0.000431,0.000823
41390000,0.0324,0.013523,0.002678,0.000431,0.000940
41391000,0.0324,0.013523,0.002678,0.000431,0.000705
41392000,0.0324,0.013523,0.002678,0.000431,0.000940
41393000,0.0324,0.013523,0.002678,0.000431,0.000705
41394000,0.0324,0.013523,0.002678,0.000431,0.000940
41395000,0.0324,0.013523,0.002678,0.000431,0.000940
41396000,0.0324,0.013523,0.002678,0.000431,0.000705
41397000,0.0324,0.013523,0.002678,0.000431,0.000940
41398000,0.0324,0.013523,0.002678,0.000431,0.000705
41399000,0.0324,0.013523,0.002678,0.000431,0.000940
41400000,0.0324,0.013523,0.002678,0.000431,0.000823
41401000,0.0324,0.013523,0.002678,0.000431,0.000823
41402000,0.0324,0.013523,0.002678,0.000431,0.000940
41403000,0.0324,0.013523,0.002678,0.000431,0.000705
41404000,0.0324,0.013523,0.002678,0.000431,0.000940
41405000,0.0324,0.013523,0.002678,0.000431,0.000823
41406000,0.0324,0.013523,0.002678,0.000431,0.000823
41407000,0.0324,0.013523,0.002678,0.000431,0.000823
41408000,0.0324,0.013523,0.002678,0.000431,0.000823
41409000,0.0324,0.013523,0.002678,0.000431,0.000823
41410000,0.0324,0.013523,0.002678,0.000431,0.000823
41411000,0.0324,0.013523,0.002678,0.000431,0.000940
41412000,0.0324,0.013523,0.002678,0.000431,0.000705
41413000,0.0324,0.013523,0.002678,0.000431,0.000823
41414000,0.0324,0.013523,0.002678,0.000431,0.000940
41415000,0.0324,0.013523,0.002678,0.000431,0.000823
41416000,0.0324,0.013523,0.002678,0.000431,0.000823
41417000,0.0324,0.013523,0.002678,0.000431,0.000823
41418000,0.0324,0.013523,0.002678,0.000431,0.000823
41419000,0.0324,0.013523,0.002678,0.000431,0.000823
41420000,0.0324,0.013523,0.002678,0.000431,0.000940
41421000,0.0324,0.013523,0.002678,0.000431,0.000823
41422000,0.0324,0.013523,0.002678,0.000431,0.000823
41423000,0.0324,0.013523,0.002678,0.000431,0.000705
41424000,0.0324,0.013523,0.002678,0.000431,0.000940
41425000,0.0324,0.013523,0.002678,0.000431,0.000940
41426000,0.0324,0.013523,0.002678,0.000431,0.000705
41427000,0.0324,0.013523,0.002678,0.000431,0.000940
41428000,0.0324,0.013523,0.002678,0.000431,0.000705
41429000,0.0324,0.013523,0.002678,0.000431,0.000940
41430000,0.0324,0.013523,0.002678,0.000431,0.000940
41431000,0.0324,0.013523,0.002678,0.000431,0.000705
41432000,0.0324,0.013523,0.002678,0.000431,0.000940
41433000,0.0324,0.013523,0.002678,0.000431,0.000705
41434000,0.0324,0.013523,0.002678,0.000431,0.000940
41435000,0.0324,0.013523,0.002678,0.000431,0.000823
41436000,0.0324,0.013523,0.002678,0.000431,0.000823
41437000,0.0324,0.013523,0.002678,0.000431,0.000823
41438000,0.0324,0.013523,0.002678,0.000431,0.000823
41439000,0.0324,0.013523,0.002678,0.000431,0.000940
41440000,0.0324,0.013523,0.002678,0.000431,0.000823
41441000,0.0324,0.013523,0.002678,0.000431,0.000823
41442000,0.0324,0.013523,0.002678,0.000431,0.000823
41443000,0.0324,0.013523,0.002678,0.000431,0.000823
41444000,0.0324,0.013523,0.002678,0.000431,0.000823
41445000,0.0324,0.013523,0.002678,0.000431,0.000823
41446000,0.0324,0.013523,0.002678,0.000431,0.000940
41447000,0.0324,0.013523,0.002678,0.000431,0.000705
41448000,0.0324,0.013523,0.002678,0.000431,0.000940
41449000,0.0324,0.013523,0.002678,0.000431,0.000823
41450000,0.0324,0.013523,0.002678,0.000431,0.000823
41451000,0.0324,0.013523,0.002678,0.000431,0.000705
41452000,0.0324,0.013523,0.002678,0.000431,0.000940
41453000,0.0324,0.013523,0.002678,0.000431,0.000940
41454000,0.0324,0.013523,0.002678,0.000431,0.000705
41455000,0.0324,0.013523,0.002678,0.000431,0.000940
41456000,0.0324,0.013523,0.002678,0.000431,0.000705
41457000,0.0324,0.013523,0.002678,0.000431,0.000940
41458000,0.0324,0.013523,0.002678,0.000431,0.000823
41459000,0.0324,0.013523,0.002678,0.000431,0.000823
41460000,0.0324,0.013523,0.002678,0.000431,0.000940
41461000,0.0324,0.013523,0.002678,0.000431,0.000705
41462000,0.0324,0.013523,0.002678,0.000431,0.000940
41463000,0.0324,0.013523,0.002678,0.000431,0.000823
41464000,0.0324,0.013523,0.002678,0.000431,0.000823
41465000,0.0324,0.013523,0.002678,0.000431,0.000823
41466000,0.0324,0.013523,0.002678,0.000431,0.000823
41467000,0.0324,0.013523,0.002678,0.000431,0.000940
41468000,0.0324,0.013523,0.002678,0.000431,0.000705
41469000,0.0324,0.013523,0.002678,0.000431,0.000940
41470000,0.0324,0.013523,0.002678,0.000431,0.000823
41471000,0.0324,0.013523,0.002678,0.000431,0.000705
41472000,0.0324,0.013523,0.002678,0.000431,0.000940
41473000,0.0324,0.013523,0.002678,0.000431,0.000823
41474000,0.0324,0.013523,0.002678,0.000431,0.000823
41475000,0.0324,0.013523,0.002678,0.000431,0.000823
41476000,0.0324,0.013523,0.002678,0.000431,0.000823
41477000,0.0324,0.013523,0.002678,0.000431,0.000823
41478000,0.0324,0.013523,0.002678,0.000431,0.000940
41479000,0.0324,0.013523,0.002678,0.000431,0.000705
41480000,0.0324,0.013523,0.002678,0.000431,0.000940
41481000,0.0324,0.013523,0.002678,0.000431,0.000705
41482000,0.0324,0.013523,0.002678,0.000431,0.000940
41483000,0.0324,0.013523,0.002678,0.000431,0.000940
41484000,0.0324,0.013523,0.002678,0.000431,0.000705
41485000,0.0324,0.013523,0.002678,0.000431,0.000940
41486000,0.0324,0.013523,0.002678,0.000431,0.000705
41487000,0.0324,0.013523,0.002678,0.000431,0.000940
41488000,0.0324,0.013523,0.002678,0.000431,0.000823
41489000,0.0324,0.013523,0.002678,0.000431,0.000823
41490000,0.0324,0.013523,0.002678,0.000431,0.000823
41491000,0.0324,0.013523,0.002678,0.000431,0.000823
41492000,0.0324,0.013523,0.002678,0.000431,0.000940
41493000,0.0324,0.013523,0.002678,0.000431,0.000705
41494000,0.0324,0.013523,0.002678,0.000431,0.000940
41495000,0.0324,0.013523,0.002678,0.000431,0.000823
41496000,0.0324,0.013523,0.002678,0.000431,0.000823
41497000,0.0324,0.013523,0.002678,0.000431,0.000823
41498000,0.0324,0.013523,0.002678,0.000431,0.000823
41499000,0.0324,0.013523,0.002678,0.000431,0.000823
41500000,0.0324,0.013523,0.002678,0.000431,0.000823
41501000,0.0324,0.013523,0.002678,0.000431,0.000940
41502000,0.0324,0.013523,0.002678,0.000431,0.000705
41503000,0.0324,0.013523,0.002678,0.000431,0.000940
41504000,0.0324,0.013523,0.002678,0.000431,0.000705
41505000,0.0324,0.013523,0.002678,0.000431,0.000940
41506000,0.0324,0.013523,0.002678,0.000431,0.000823
41507000,0.0324,0.013523,0.002678,0.000431,0.000823
41508000,0.0324,0.013523,0.002678,0.000431,0.000940
41509000,0.0324,0.013523,0.002678,0.000431,0.000705
41510000,0.0324,0.013523,0.002678,0.000431,0.000940
41511000,0.0324,0.013523,0.002678,0.000431,0.000823
41512000,0.0324,0.013523,0.002678,0.000431,0.000823
41513000,0.0324,0.013523,0.002678,0.000431,0.000823
41514000,0.0324,0.013523,0.002678,0.000431,0.000823
41515000,0.0324,0.013523,0.002678,0.000431,0.000823
41516000,0.0324,0.013523,0.002678,0.000431,0.000823
41517000,0.0324,0.013523,0.002678,0.000431,0.000940
41518000,0.0324,0.013523,0.002678,0.000431,0.000705
41519000,0.0324,0.013523,0.002678,0.000431,0.000823
41520000,0.0324,0.013523,0.002678,0.000431,0.000940
41521000,0.0324,0.013523,0.002678,0.000431,0.000823
41522000,0.0324,0.013523,0.002678,0.000431,0.000823
41523000,0.0324,0.013523,0.002678,0.000431,0.000823
41524000,0.0324,0.013523,0.002678,0.000431,0.000705
41525000,0.0324,0.013523,0.002678,0.000431,0.000940
41526000,0.0324,0.013523,0.002678,0.000431,0.000940
41527000,0.0324,0.013523,0.002678,0.000431,0.000705
41528000,0.0324,0.013523,0.002678,0.000431,0.000940
41529000,0.0324,0.013523,0.002678,0.000431,0.000705
41530000,0.0324,0.013523,0.002678,0.000431,0.000940
41531000,0.0324,0.013523,0.002678,0.000431,0.000823
41532000,0.0324,0.013523,0.002678,0.000431,0.000823
41533000,0.0324,0.013523,0.002678,0.000431,0.000940
41534000,0.0324,0.013523,0.002678,0.000431,0.000705
41535000,0.0324,0.013523,0.002678,0.000431,0.000940
41536000,0.0324,0.013523,0.002678,0.000431,0.000823
41537000,0.0324,0.013523,0.002678,0.000431,0.000823
41538000,0.0324,0.013523,0.002678,0.000431,0.000823
41539000,0.0324,0.013523,0.002678,0.000431,0.000823
41540000,0.0324,0.013523,0.002678,0.000431,0.000940
41541000,0.0324,0.013523,0.002678,0.000431,0.000705
41542000,0.0324,0.013523,0.002678,0.000431,0.068989
41543000,0.0324,0.013523,0.002678,0.000431,0.462356
41544000,0.0324,0.013523,0.002678,0.000431,0.609149
41545000,0.0324,0.013523,0.002678,0.000431,0.131161
41546000,0.0324,0.013523,0.002678,0.000431,0.133982
41547000,0.0324,0.013523,0.002678,0.000431,0.522530
41548000,0.0324,0.013523,0.002678,0.000431,0.245869
41549000,0.0324,0.013523,0.002678,0.000431,0.236702
41550000,0.0324,0.013523,0.002678,0.000431,0.304163
41551000,0.0324,0.013523,0.002678,0.000431,0.169476
41552000,0.0324,0.013523,0.002678,0.000431,0.143854
41553000,0.0324,0.013523,0.002678,0.000431,0.164069
41554000,0.0324,0.013523,0.002678,0.000431,0.136098
41555000,0.0324,0.013523,0.002678,0.000431,0.468115
41556000,0.0324,0.013523,0.002678,0.000431,0.113415
41557000,0.0324,0.013523,0.002678,0.000431,0.075923
41558000,0.0324,0.013523,0.002678,0.000431,0.064405
41559000,0.0324,0.013523,0.002678,0.000431,0.057001
41560000,0.0324,0.013523,0.002678,0.000431,0.041723
41561000,0.0324,0.013523,0.002678,0.000431,0.042193
41562000,0.0324,0.013523,0.002678,0.000431,0.038314
41563000,0.0324,0.013523,0.002678,0.000431,0.031968
41564000,0.0324,0.013523,0.002678,0.000431,0.034083
41565000,0.0324,0.013523,0.002678,0.000431,0.026914
41566000,0.0324,0.013523,0.002678,0.000431,0.023976
41567000,0.0324,0.013523,0.002678,0.000431,0.019275
41568000,0.0324,0.013523,0.002678,0.000431,0.019627
41569000,0.0324,0.013523,0.002678,0.000431,0.018217
41570000,0.0324,0.013523,0.002678,0.000431,0.019862
41571000,0.0324,0.013523,0.002678,0.000431,0.019157
41572000,0.0324,0.013523,0.002678,0.000431,0.020097
41573000,0.0324,0.013523,0.002678,0.000431,0.023623
41574000,0.0324,0.013523,0.002678,0.000431,0.017159
41575000,0.0324,0.013523,0.002678,0.000431,0.015866
41576000,0.0324,0.013523,0.002678,0.000431,0.015396
41577000,0.0324,0.013523,0.002678,0.000431,0.016689
41578000,0.0324,0.013523,0.002678,0.000431,0.014456
41579000,0.0324,0.013523,0.002678,0.000431,0.013633
41580000,0.0324,0.013523,0.002678,0.000431,0.016689
41581000,0.0324,0.013523,0.002678,0.000431,0.012811
41582000,0.0324,0.013523,0.002678,0.000431,0.011635
41583000,0.0324,0.013523,0.002678,0.000431,0.011988
41584000,0.0324,0.013523,0.002678,0.000431,0.012576
41585000,0.0324,0.013523,0.002678,0.000431,0.012693
41586000,0.0324,0.013523,0.002678,0.000431,0.011635
41587000,0.0324,0.013523,0.002678,0.000431,0.008345
41588000,0.0324,0.013523,0.002678,0.000431,0.010460
41589000,0.0324,0.013523,0.002678,0.000431,0.009755
41590000,0.0324,0.013523,0.002678,0.000431,0.006699
41591000,0.0324,0.013523,0.002678,0.000431,0.007992
41592000,0.0324,0.013523,0.002678,0.000431,0.005876
41593000,0.0324,0.013523,0.002678,0.000431,0.008932
41594000,0.0324,0.013523,0.002678,0.000431,0.004819
41595000,0.0324,0.013523,0.002678,0.000431,0.006934
41596000,0.0324,0.013523,0.002678,0.000431,0.003291
41597000,0.0324,0.013523,0.002678,0.000431,0.003408
41598000,0.0324,0.013523,0.002678,0.000431,0.003291
41599000,0.0324,0.013523,0.002678,0.000431,0.003408
41600000,0.0324,0.013523,0.002678,0.000431,0.003408
41601000,0.0324,0.013523,0.002678,0.000431,0.006464
41602000,0.0324,0.013523,0.002678,0.000431,0.002703
41603000,0.0324,0.013523,0.002678,0.000431,0.002351
41604000,0.0324,0.013523,0.002678,0.000431,0.002586
41605000,0.0324,0.013523,0.002678,0.000431,0.002468
41606000,0.0324,0.013523,0.002678,0.000431,0.002586
41607000,0.0324,0.013523,0.002678,0.000431,0.002351
41608000,0.0324,0.013523,0.002678,0.000431,0.002586
41609000,0.0324,0.013523,0.002678,0.000431,0.002586
41610000,0.0324,0.013523,0.002678,0.000431,0.002351
41611000,0.0324,0.013523,0.002678,0.000431,0.002468
41612000,0.0324,0.013523,0.002678,0.000431,0.002468
41613000,0.0324,0.013523,0.002678,0.000431,0.002586
41614000,0.0324,0.013523,0.002678,0.000431,0.002586
41615000,0.0324,0.013523,0.002678,0.000431,0.002586
41616000,0.0324,0.013523,0.002678,0.000431,0.002351
41617000,0.0324,0.013523,0.002678,0.000431,0.002468
41618000,0.0324,0.013523,0.002678,0.000431,0.003643
41619000,0.0324,0.013523,0.002678,0.000431,0.001645
41620000,0.0324,0.013523,0.002678,0.000431,0.001880
41621000,0.0324,0.013523,0.002678,0.000431,0.001528
41622000,0.0324,0.013523,0.002678,0.000431,0.001763
41623000,0.0324,0.013523,0.002678,0.000431,0.001528
41624000,0.0324,0.013523,0.002678,0.000431,0.001763
41625000,0.0324,0.013523,0.002678,0.000431,0.001763
41626000,0.0324,0.013523,0.002678,0.000431,0.001528
41627000,0.0324,0.013523,0.002678,0.000431,0.001763
41628000,0.0324,0.013523,0.002678,0.000431,0.001528
41629000,0.0324,0.013523,0.002678,0.000431,0.001880
41630000,0.0324,0.013523,0.002678,0.000431,0.001528
41631000,0.0324,0.013523,0.002678,0.000431,0.001645
41632000,0.0324,0.013523,0.002678,0.000431,0.001763
41633000,0.0324,0.013523,0.002678,0.000431,0.001645
41634000,0.0324,0.013523,0.002678,0.000431,0.001763
41635000,0.0324,0.013523,0.002678,0.000431,0.001528
41636000,0.0324,0.013523,0.002678,0.000431,0.001645
41637000,0.0324,0.013523,0.002678,0.000431,0.001763
41638000,0.0324,0.013523,0.002678,0.000431,0.001763
41639000,0.0324,0.013523,0.002678,0.000431,0.001528
41640000,0.0324,0.013523,0.002678,0.000431,0.001763
41641000,0.0324,0.013523,0.002678,0.000431,0.001528
41642000,0.0324,0.013523,0.002678,0.000431,0.001763
41643000,0.0324,0.013523,0.002678,0.000431,0.001880
41644000,0.0324,0.013523,0.002678,0.000431,0.001410
41645000,0.0324,0.013523,0.002678,0.000431,0.001880
41646000,0.0324,0.013523,0.002678,0.000431,0.001410
41647000,0.0324,0.013523,0.002678,0.000431,0.001880
41648000,0.0324,0.013523,0.002678,0.000431,0.001645
41649000,0.0324,0.013523,0.002678,0.000431,0.001645
41650000,0.0324,0.013523,0.002678,0.000431,0.001763
41651000,0.0324,0.013523,0.002678,0.000431,0.001528
41652000,0.0324,0.013523,0.002678,0.000431,0.001880
41653000,0.0324,0.013523,0.002678,0.000431,0.001528
41654000,0.0324,0.013523,0.002678,0.000431,0.001763
41655000,0.0324,0.013523,0.002678,0.000431,0.001645
41656000,0.0324,0.013523,0.002678,0.000431,0.001645
41657000,0.0324,0.013523,0.002678,0.000431,0.001763
41658000,0.0324,0.013523,0.002678,0.000431,0.001528
41659000,0.0324,0.013523,0.002678,0.000431,0.001763
41660000,0.0324,0.013523,0.002678,0.000431,0.001645
41661000,0.0324,0.013523,0.002678,0.000431,0.001645
41662000,0.0324,0.013523,0.002678,0.000431,0.001645
41663000,0.0324,0.013523,0.002678,0.000431,0.001763
41664000,0.0324,0.013523,0.002678,0.000431,0.001528
41665000,0.0324,0.013523,0.002678,0.000431,0.001763
41666000,0.0324,0.013523,0.002678,0.000431,0.001645
41667000,0.0324,0.013523,0.002678,0.000431,0.001645
41668000,0.0324,0.013523,0.002678,0.000431,0.001880
41669000,0.0324,0.013523,0.002678,0.000431,0.001410
41670000,0.0324,0.013523,0.002678,0.000431,0.001880
41671000,0.0324,0.013523,0.002678,0.000431,0.001528
41672000,0.0324,0.013523,0.002678,0.000431,0.001763
41673000,0.0324,0.013523,0.002678,0.000431,0.001645
41674000,0.0324,0.013523,0.002678,0.000431,0.001645
41675000,0.0324,0.013523,0.002678,0.000431,0.001880
41676000,0.0324,0.013523,0.002678,0.000431,0.001410
41677000,0.0324,0.013523,0.002678,0.000431,0.001880
41678000,0.0324,0.013523,0.002678,0.000431,0.001645
41679000,0.0324,0.013523,0.002678,0.000431,0.002468
41680000,0.0324,0.013523,0.002678,0.000431,0.001998
41681000,0.0324,0.013523,0.002678,0.000431,0.000823
41682000,0.0324,0.013523,0.002678,0.000431,0.000940
41683000,0.0324,0.013523,0.002678,0.000431,0.000705
41684000,0.0324,0.013523,0.002678,0.000431,0.000940
41685000,0.0324,0.013523,0.002678,0.000431,0.000705
41686000,0.0324,0.013523,0.002678,0.000431,0.000940
41687000,0.0324,0.013523,0.002678,0.000431,0.000823
41688000,0.0324,0.013523,0.002678,0.000431,0.000823
41689000,0.0324,0.013523,0.002678,0.000431,0.000705
41690000,0.0324,0.013523,0.002678,0.000431,0.000940
41691000,0.0324,0.013523,0.002678,0.000431,0.000940
41692000,0.0324,0.013523,0.002678,0.000431,0.000705
41693000,0.0324,0.013523,0.002678,0.000431,0.000940
41694000,0.0324,0.013523,0.002678,0.000431,0.000705
41695000,0.0324,0.013523,0.002678,0.000431,0.000940
41696000,0.0324,0.013523,0.002678,0.000431,0.000823
41697000,0.0324,0.013523,0.002678,0.000431,0.000823
41698000,0.0324,0.013523,0.002678,0.000431,0.000940
41699000,0.0324,0.013523,0.002678,0.000431,0.000705
41700000,0.0324,0.013523,0.002678,0.000431,0.000940
41701000,0.0324,0.013523,0.002678,0.000431,0.000823
41702000,0.0324,0.013523,0.002678,0.000431,0.000823
41703000,0.0324,0.013523,0.002678,0.000431,0.000823
41704000,0.0324,0.013523,0.002678,0.000431,0.000823
41705000,0.0324,0.013523,0.002678,0.000431,0.000823
41706000,0.0324,0.013523,0.002678,0.000431,0.000823
41707000,0.0324,0.013523,0.002678,0.000431,0.000940
41708000,0.0324,0.013523,0.002678,0.000431,0.000705
41709000,0.0324,0.013523,0.002678,0.000431,0.000823
41710000,0.0324,0.013523,0.002678,0.000431,0.000940
41711000,0.0324,0.013523,0.002678,0.000431,0.000823
41712000,0.0324,0.013523,0.002678,0.000431,0.000823
41713000,0.0324,0.013523,0.002678,0.000431,0.000823
41714000,0.0324,0.013523,0.002678,0.000431,0.000705
41715000,0.0324,0.013523,0.002678,0.000431,0.000940
41716000,0.0324,0.013523,0.002678,0.000431,0.000940
41717000,0.0324,0.013523,0.002678,0.000431,0.000823
41718000,0.0324,0.013523,0.002678,0.000431,0.000823
41719000,0.0324,0.013523,0.002678,0.000431,0.000705
41720000,0.0324,0.013523,0.002678,0.000431,0.000940
41721000,0.0324,0.013523,0.002678,0.000431,0.000940
41722000,0.0324,0.013523,0.002678,0.000431,0.000705
41723000,0.0324,0.013523,0.002678,0.000431,0.000940
41724000,0.0324,0.013523,0.002678,0.000431,0.000705
41725000,0.0324,0.013523,0.002678,0.000431,0.000940
41726000,0.0324,0.013523,0.002678,0.000431,0.000823
41727000,0.0324,0.013523,0.002678,0.000431,0.000823
41728000,0.0324,0.013523,0.002678,0.000431,0.000823
41729000,0.0324,0.013523,0.002678,0.000431,0.000823
41730000,0.0324,0.013523,0.002678,0.000431,0.000940
41731000,0.0324,0.013523,0.002678,0.000431,0.000823
41732000,0.0324,0.013523,0.002678,0.000431,0.000823
41733000,0.0324,0.013523,0.002678,0.000431,0.000823
41734000,0.0324,0.013523,0.002678,0.000431,0.000823
41735000,0.0324,0.013523,0.002678,0.000431,0.000823
41736000,0.0324,0.013523,0.002678,0.000431,0.000823
41737000,0.0324,0.013523,0.002678,0.000431,0.000940
41738000,0.0324,0.013523,0.002678,0.000431,0.000705
41739000,0.0324,0.013523,0.002678,0.000431,0.000940
41740000,0.0324,0.013523,0.002678,0.000431,0.000823
41741000,0.0324,0.013523,0.002678,0.000431,0.000823
41742000,0.0324,0.013523,0.002678,0.000431,0.000705
41743000,0.0324,0.013523,0.002678,0.000431,0.000940
41744000,0.0324,0.013523,0.002678,0.000431,0.000940
41745000,0.0324,0.013523,0.002678,0.000431,0.000705
41746000,0.0324,0.013523,0.002678,0.000431,0.000940
41747000,0.0324,0.013523,0.002678,0.000431,0.000705
41748000,0.0324,0.013523,0.002678,0.000431,0.000940
41749000,0.0324,0.013523,0.002678,0.000431,0.000823
41750000,0.0324,0.013523,0.002678,0.000431,0.000823
41751000,0.0324,0.013523,0.002678,0.000431,0.000940
41752000,0.0324,0.013523,0.002678,0.000431,0.000705
41753000,0.0324,0.013523,0.002678,0.000431,0.000940
41754000,0.0324,0.013523,0.002678,0.000431,0.000705
41755000,0.0324,0.013523,0.002678,0.000431,0.000940
41756000,0.0324,0.013523,0.002678,0.000431,0.000823
41757000,0.0324,0.013523,0.002678,0.000431,0.000823
41758000,0.0324,0.013523,0.002678,0.000431,0.000823
41759000,0.0324,0.013523,0.002678,0.000431,0.000823
41760000,0.0324,0.013523,0.002678,0.000431,0.000940
41761000,0.0324,0.013523,0.002678,0.000431,0.000705
41762000,0.0324,0.013523,0.002678,0.000431,0.000823
41763000,0.0324,0.013523,0.002678,0.000431,0.000823
41764000,0.0324,0.013523,0.002678,0.000431,0.000940
41765000,0.0324,0.013523,0.002678,0.000431,0.000823
41766000,0.0324,0.013523,0.002678,0.000431,0.000823
41767000,0.0324,0.013523,0.002678,0.000431,0.000705
41768000,0.0324,0.013523,0.002678,0.000431,0.000940
41769000,0.0324,0.013523,0.002678,0.000431,0.000940
41770000,0.0324,0.013523,0.002678,0.000431,0.000705
41771000,0.0324,0.013523,0.002678,0.000431,0.000940
41772000,0.0324,0.013523,0.002678,0.000431,0.000705
41773000,0.0324,0.013523,0.002678,0.000431,0.000940
41774000,0.0324,0.013523,0.002678,0.000431,0.000823
41775000,0.0324,0.013523,0.002678,0.000431,0.000823
41776000,0.0324,0.013523,0.002678,0.000431,0.000940
41777000,0.0324,0.013523,0.002678,0.000431,0.000705
41778000,0.0324,0.013523,0.002678,0.000431,0.000940
41779000,0.0324,0.013523,0.002678,0.000431,0.000823
41780000,0.0324,0.013523,0.002678,0.000431,0.000823
41781000,0.0324,0.013523,0.002678,0.000431,0.000823
41782000,0.0324,0.013523,0.002678,0.000431,0.000823
41783000,0.0324,0.013523,0.002678,0.000431,0.000940
41784000,0.0324,0.013523,0.002678,0.000431,0.000705
41785000,0.0324,0.013523,0.002678,0.000431,0.000940
41786000,0.0324,0.013523,0.002678,0.000431,0.000705
41787000,0.0324,0.013523,0.002678,0.000431,0.000940
41788000,0.0324,0.013523,0.002678,0.000431,0.000823
41789000,0.0324,0.013523,0.002678,0.000431,0.000823
41790000,0.0324,0.013523,0.002678,0.000431,0.000705
41791000,0.0324,0.013523,0.002678,0.000431,0.000940
41792000,0.0324,0.013523,0.002678,0.000431,0.000940
41793000,0.0324,0.013523,0.002678,0.000431,0.000705
41794000,0.0324,0.013523,0.002678,0.000431,0.000940
41795000,0.0324,0.013523,0.002678,0.000431,0.000705
41796000,0.0324,0.013523,0.002678,0.000431,0.000940
41797000,0.0324,0.013523,0.002678,0.000431,0.000823
41798000,0.0324,0.013523,0.002678,0.000431,0.000823
41799000,0.0324,0.013523,0.002678,0.000431,0.000940
41800000,0.0324,0.013523,0.002678,0.000431,0.000705
41801000,0.0324,0.013523,0.002678,0.000431,0.000940
41802000,0.0324,0.013523,0.002678,0.000431,0.000823
41803000,0.0324,0.013523,0.002678,0.000431,0.000823
41804000,0.0324,0.013523,0.002678,0.000431,0.000823
41805000,0.0324,0.013523,0.002678,0.000431,0.000823
41806000,0.0324,0.013523,0.002678,0.000431,0.000940
41807000,0.0324,0.013523,0.002678,0.000431,0.000705
41808000,0.0324,0.013523,0.002678,0.000431,0.000940
41809000,0.0324,0.013523,0.002678,0.000431,0.000823
41810000,0.0324,0.013523,0.002678,0.000431,0.000823
41811000,0.0324,0.013523,0.002678,0.000431,0.000823
41812000,0.0324,0.013523,0.002678,0.000431,0.000823
41813000,0.0324,0.013523,0.002678,0.000431,0.000940
41814000,0.0324,0.013523,0.002678,0.000431,0.000705
41815000,0.0324,0.013523,0.002678,0.000431,0.000823
41816000,0.0324,0.013523,0.002678,0.000431,0.000940
41817000,0.0324,0.013523,0.002678,0.000431,0.000823
41818000,0.0324,0.013523,0.002678,0.000431,0.000823
41819000,0.0324,0.013523,0.002678,0.000431,0.000823
41820000,0.0324,0.013523,0.002678,0.000431,0.000705
41821000,0.0324,0.013523,0.002678,0.000431,0.000940
41822000,0.0324,0.013523,0.002678,0.000431,0.000940
41823000,0.0324,0.013523,0.002678,0.000431,0.000705
41824000,0.0324,0.013523,0.002678,0.000431,0.000940
41825000,0.0324,0.013523,0.002678,0.000431,0.000705
41826000,0.0324,0.013523,0.002678,0.000431,0.000940
41827000,0.0324,0.013523,0.002678,0.000431,0.000940
41828000,0.0324,0.013523,0.002678,0.000431,0.000705
41829000,0.0324,0.013523,0.002678,0.000431,0.000940
41830000,0.0324,0.013523,0.002678,0.000431,0.000705
41831000,0.0324,0.013523,0.002678,0.000431,0.000940
41832000,0.0324,0.013523,0.002678,0.000431,0.000823
41833000,0.0324,0.013523,0.002678,0.000431,0.000823
41834000,0.0324,0.013523,0.002678,0.000431,0.000940
41835000,0.0324,0.013523,0.002678,0.000431,0.000705
41836000,0.0324,0.013523,0.002678,0.000431,0.000940
41837000,0.0324,0.013523,0.002678,0.000431,0.000823
41838000,0.0324,0.013523,0.002678,0.000431,0.000823
41839000,0.0324,0.013523,0.002678,0.000431,0.000823
41840000,0.0324,0.013523,0.002678,0.000431,0.000823
41841000,0.0324,0.013523,0.002678,0.000431,0.000940
41842000,0.0324,0.013523,0.002678,0.000431,0.000705
41843000,0.0324,0.013523,0.002678,0.000431,0.000940
41844000,0.0324,0.013523,0.002678,0.000431,0.000823
41845000,0.0324,0.013523,0.002678,0.000431,0.000823
41846000,0.0324,0.013523,0.002678,0.000431,0.000823
41847000,0.0324,0.013523,0.002678,0.000431,0.001763
41848000,0.0324,0.013523,0.002678,0.000431,0.419341
41849000,0.0324,0.013523,0.002678,0.000431,0.725501
41850000,0.0324,0.013523,0.002678,0.000431,0.144560
41851000,0.0324,0.013523,0.002678,0.000431,0.133512
41852000,0.0324,0.013523,0.002678,0.000431,0.209788
41853000,0.0324,0.013523,0.002678,0.000431,0.555908
41854000,0.0324,0.013523,0.002678,0.000431,0.279129
41855000,0.0324,0.013523,0.002678,0.000431,0.310274
41856000,0.0324,0.013523,0.002678,0.000431,0.178173
41857000,0.0324,0.013523,0.002678,0.000431,0.154197
41858000,0.0324,0.013523,0.002678,0.000431,0.116588
41859000,0.0324,0.013523,0.002678,0.000431,0.294526
41860000,0.0324,0.013523,0.002678,0.000431,0.301930
41861000,0.0324,0.013523,0.002678,0.000431,0.057706
41862000,0.0324,0.013523,0.002678,0.000431,0.047951
41863000,0.0324,0.013523,0.002678,0.000431,0.032438
41864000,0.0324,0.013523,0.002678,0.000431,0.033848
41865000,0.0324,0.013523,0.002678,0.000431,0.022918
41866000,0.0324,0.013523,0.002678,0.000431,0.021743
41867000,0.0324,0.013523,0.002678,0.000431,0.021155
41868000,0.0324,0.013523,0.002678,0.000431,0.020215
41869000,0.0324,0.013523,0.002678,0.000431,0.022095
41870000,0.0324,0.013523,0.002678,0.000431,0.016336
41871000,0.0324,0.013523,0.002678,0.000431,0.017747
41872000,0.0324,0.013523,0.002678,0.000431,0.018334
41873000,0.0324,0.013523,0.002678,0.000431,0.012811
41874000,0.0324,0.013523,0.002678,0.000431,0.016689
41875000,0.0324,0.013523,0.002678,0.000431,0.011283
41876000,0.0324,0.013523,0.002678,0.000431,0.014103
41877000,0.0324,0.013523,0.002678,0.000431,0.011283
41878000,0.0324,0.013523,0.002678,0.000431,0.010342
41879000,0.0324,0.013523,0.002678,0.000431,0.013986
41880000,0.0324,0.013523,0.002678,0.000431,0.009990
41881000,0.0324,0.013523,0.002678,0.000431,0.011283
41882000,0.0324,0.013523,0.002678,0.000431,0.009402
41883000,0.0324,0.013523,0.002678,0.000431,0.010578
41884000,0.0324,0.013523,0.002678,0.000431,0.008462
41885000,0.0324,0.013523,0.002678,0.000431,0.008345
41886000,0.0324,0.013523,0.002678,0.000431,0.009050
41887000,0.0324,0.013523,0.002678,0.000431,0.007639
41888000,0.0324,0.013523,0.002678,0.000431,0.009402
41889000,0.0324,0.013523,0.002678,0.000431,0.006582
41890000,0.0324,0.013523,0.002678,0.000431,0.006699
41891000,0.0324,0.013523,0.002678,0.000431,0.007169
41892000,0.0324,0.013523,0.002678,0.000431,0.006582
41893000,0.0324,0.013523,0.002678,0.000431,0.006817
41894000,0.0324,0.013523,0.002678,0.000431,0.006699
41895000,0.0324,0.013523,0.002678,0.000431,0.006817
41896000,0.0324,0.013523,0.002678,0.000431,0.006699
41897000,0.0324,0.013523,0.002678,0.000431,0.011870
41898000,0.0324,0.013523,0.002678,0.000431,0.004466
41899000,0.0324,0.013523,0.002678,0.000431,0.004349
41900000,0.0324,0.013523,0.002678,0.000431,0.004231
41901000,0.0324,0.013523,0.002678,0.000431,0.004231
41902000,0.0324,0.013523,0.002678,0.000431,0.004466
41903000,0.0324,0.013523,0.002678,0.000431,0.004231
41904000,0.0324,0.013523,0.002678,0.000431,0.006229
41905000,0.0324,0.013523,0.002678,0.000431,0.003643
41906000,0.0324,0.013523,0.002678,0.000431,0.003173
41907000,0.0324,0.013523,0.002678,0.000431,0.003643
41908000,0.0324,0.013523,0.002678,0.000431,0.003643
41909000,0.0324,0.013523,0.002678,0.000431,0.003761
41910000,0.0324,0.013523,0.002678,0.000431,0.005289
41911000,0.0324,0.013523,0.002678,0.000431,0.002468
41912000,0.0324,0.013523,0.002678,0.000431,0.002821
41913000,0.0324,0.013523,0.002678,0.000431,0.002233
41914000,0.0324,0.013523,0.002678,0.000431,0.002703
41915000,0.0324,0.013523,0.002678,0.000431,0.002586
41916000,0.0324,0.013523,0.002678,0.000431,0.002468
41917000,0.0324,0.013523,0.002678,0.000431,0.002586
41918000,0.0324,0.013523,0.002678,0.000431,0.002468
41919000,0.0324,0.013523,0.002678,0.000431,0.002703
41920000,0.0324,0.013523,0.002678,0.000431,0.002351
41921000,0.0324,0.013523,0.002678,0.000431,0.002703
41922000,0.0324,0.013523,0.002678,0.000431,0.002468
41923000,0.0324,0.013523,0.002678,0.000431,0.002703
41924000,0.0324,0.013523,0.002678,0.000431,0.002586
41925000,0.0324,0.013523,0.002678,0.000431,0.002351
41926000,0.0324,0.013523,0.002678,0.000431,0.002703
41927000,0.0324,0.013523,0.002678,0.000431,0.002468
41928000,0.0324,0.013523,0.002678,0.000431,0.002586
41929000,0.0324,0.013523,0.002678,0.000431,0.002468
41930000,0.0324,0.013523,0.002678,0.000431,0.002703
41931000,0.0324,0.013523,0.002678,0.000431,0.002468
41932000,0.0324,0.013523,0.002678,0.000431,0.002586
41933000,0.0324,0.013523,0.002678,0.000431,0.002703
41934000,0.0324,0.013523,0.002678,0.000431,0.002468
41935000,0.0324,0.013523,0.002678,0.000431,0.004231
41936000,0.0324,0.013523,0.002678,0.000431,0.001763
41937000,0.0324,0.013523,0.002678,0.000431,0.001763
41938000,0.0324,0.013523,0.002678,0.000431,0.001645
41939000,0.0324,0.013523,0.002678,0.000431,0.001763
41940000,0.0324,0.013523,0.002678,0.000431,0.001763
41941000,0.0324,0.013523,0.002678,0.000431,0.001763
41942000,0.0324,0.013523,0.002678,0.000431,0.001763
41943000,0.0324,0.013523,0.002678,0.000431,0.001528
41944000,0.0324,0.013523,0.002678,0.000431,0.001763
41945000,0.0324,0.013523,0.002678,0.000431,0.001763
41946000,0.0324,0.013523,0.002678,0.000431,0.001763
41947000,0.0324,0.013523,0.002678,0.000431,0.001528
41948000,0.0324,0.013523,0.002678,0.000431,0.001763
41949000,0.0324,0.013523,0.002678,0.000431,0.001880
41950000,0.0324,0.013523,0.002678,0.000431,0.001645
41951000,0.0324,0.013523,0.002678,0.000431,0.001645
41952000,0.0324,0.013523,0.002678,0.000431,0.001645
41953000,0.0324,0.013523,0.002678,0.000431,0.001880
41954000,0.0324,0.013523,0.002678,0.000431,0.001763
41955000,0.0324,0.013523,0.002678,0.000431,0.001528
41956000,0.0324,0.013523,0.002678,0.000431,0.001880
41957000,0.0324,0.013523,0.002678,0.000431,0.001528
41958000,0.0324,0.013523,0.002678,0.000431,0.001880
41959000,0.0324,0.013523,0.002678,0.000431,0.003408
41960000,0.0324,0.013523,0.002678,0.000431,0.001058
41961000,0.0324,0.013523,0.002678,0.000431,0.000823
41962000,0.0324,0.013523,0.002678,0.000431,0.000823
41963000,0.0324,0.013523,0.002678,0.000431,0.000940
41964000,0.0324,0.013523,0.002678,0.000431,0.000940
41965000,0.0324,0.013523,0.002678,0.000431,0.000823
41966000,0.0324,0.013523,0.002678,0.000431,0.000823
41967000,0.0324,0.013523,0.002678,0.000431,0.000940
41968000,0.0324,0.013523,0.002678,0.000431,0.000940
41969000,0.0324,0.013523,0.002678,0.000431,0.000823
41970000,0.0324,0.013523,0.002678,0.000431,0.000823
41971000,0.0324,0.013523,0.002678,0.000431,0.000940
41972000,0.0324,0.013523,0.002678,0.000431,0.000940
41973000,0.0324,0.013523,0.002678,0.000431,0.000823
41974000,0.0324,0.013523,0.002678,0.000431,0.000823
41975000,0.0324,0.013523,0.002678,0.000431,0.000940
41976000,0.0324,0.013523,0.002678,0.000431,0.000940
41977000,0.0324,0.013523,0.002678,0.000431,0.000823
41978000,0.0324,0.013523,0.002678,0.000431,0.000823
41979000,0.0324,0.013523,0.002678,0.000431,0.000940
41980000,0.0324,0.013523,0.002678,0.000431,0.000823
41981000,0.0324,0.013523,0.002678,0.000431,0.000940
41982000,0.0324,0.013523,0.002678,0.000431,0.000823
41983000,0.0324,0.013523,0.002678,0.000431,0.000940
41984000,0.0324,0.013523,0.002678,0.000431,0.000823
41985000,0.0324,0.013523,0.002678,0.000431,0.000823
41986000,0.0324,0.013523,0.002678,0.000431,0.000940
41987000,0.0324,0.013523,0.002678,0.000431,0.000940
41988000,0.0324,0.013523,0.002678,0.000431,0.000823
41989000,0.0324,0.013523,0.002678,0.000431,0.000823
41990000,0.0324,0.013523,0.002678,0.000431,0.000940
41991000,0.0324,0.013523,0.002678,0.000431,0.000940
41992000,0.0324,0.013523,0.002678,0.000431,0.000823
41993000,0.0324,0.013523,0.002678,0.000431,0.000823
41994000,0.0324,0.013523,0.002678,0.000431,0.000940
41995000,0.0324,0.013523,0.002678,0.000431,0.000940
41996000,0.0324,0.013523,0.002678,0.000431,0.000823
41997000,0.0324,0.013523,0.002678,0.000431,0.000823
41998000,0.0324,0.013523,0.002678,0.000431,0.000940
41999000,0.0324,0.013523,0.002678,0.000431,0.000823
