Cycle,Area(mm^2),PeakDynamic(W),SubthresholdLeakage(W),GateLeakage(W),RunTimeDynamic(W)
52000000,0.0324,0.013523,0.002678,0.000431,0.003291
52001000,0.0324,0.013523,0.002678,0.000431,0.003056
52002000,0.0324,0.013523,0.002678,0.000431,0.003056
52003000,0.0324,0.013523,0.002678,0.000431,0.003291
52004000,0.0324,0.013523,0.002678,0.000431,0.003056
52005000,0.0324,0.013523,0.002678,0.000431,0.003291
52006000,0.0324,0.013523,0.002678,0.000431,0.003056
52007000,0.0324,0.013523,0.002678,0.000431,0.003056
52008000,0.0324,0.013523,0.002678,0.000431,0.003291
52009000,0.0324,0.013523,0.002678,0.000431,0.002821
52010000,0.0324,0.013523,0.002678,0.000431,0.003761
52011000,0.0324,0.013523,0.002678,0.000431,0.002468
52012000,0.0324,0.013523,0.002678,0.000431,0.003643
52013000,0.0324,0.013523,0.002678,0.000431,0.003056
52014000,0.0324,0.013523,0.002678,0.000431,0.003056
52015000,0.0324,0.013523,0.002678,0.000431,0.003526
52016000,0.0324,0.013523,0.002678,0.000431,0.002703
52017000,0.0324,0.013523,0.002678,0.000431,0.003643
52018000,0.0324,0.013523,0.002678,0.000431,0.003056
52019000,0.0324,0.013523,0.002678,0.000431,0.003056
52020000,0.0324,0.013523,0.002678,0.000431,0.003291
52021000,0.0324,0.013523,0.002678,0.000431,0.002938
52022000,0.0324,0.013523,0.002678,0.000431,0.003173
52023000,0.0324,0.013523,0.002678,0.000431,0.003291
52024000,0.0324,0.013523,0.002678,0.000431,0.002821
52025000,0.0324,0.013523,0.002678,0.000431,0.003291
52026000,0.0324,0.013523,0.002678,0.000431,0.003291
52027000,0.0324,0.013523,0.002678,0.000431,0.002821
52028000,0.0324,0.013523,0.002678,0.000431,0.003761
52029000,0.0324,0.013523,0.002678,0.000431,0.002703
52030000,0.0324,0.013523,0.002678,0.000431,0.003408
52031000,0.0324,0.013523,0.002678,0.000431,0.002703
52032000,0.0324,0.013523,0.002678,0.000431,0.003408
52033000,0.0324,0.013523,0.002678,0.000431,0.003526
52034000,0.0324,0.013523,0.002678,0.000431,0.002586
52035000,0.0324,0.013523,0.002678,0.000431,0.004349
52036000,0.0324,0.013523,0.002678,0.000431,0.002351
52037000,0.0324,0.013523,0.002678,0.000431,0.001763
52038000,0.0324,0.013523,0.002678,0.000431,0.001645
52039000,0.0324,0.013523,0.002678,0.000431,0.001410
52040000,0.0324,0.013523,0.002678,0.000431,0.001645
52041000,0.0324,0.013523,0.002678,0.000431,0.001528
52042000,0.0324,0.013523,0.002678,0.000431,0.001763
52043000,0.0324,0.013523,0.002678,0.000431,0.001410
52044000,0.0324,0.013523,0.002678,0.000431,0.001645
52045000,0.0324,0.013523,0.002678,0.000431,0.001645
52046000,0.0324,0.013523,0.002678,0.000431,0.001528
52047000,0.0324,0.013523,0.002678,0.000431,0.001528
52048000,0.0324,0.013523,0.002678,0.000431,0.001645
52049000,0.0324,0.013523,0.002678,0.000431,0.001410
52050000,0.0324,0.013523,0.002678,0.000431,0.001645
52051000,0.0324,0.013523,0.002678,0.000431,0.001645
52052000,0.0324,0.013523,0.002678,0.000431,0.001410
52053000,0.0324,0.013523,0.002678,0.000431,0.001880
52054000,0.0324,0.013523,0.002678,0.000431,0.001410
52055000,0.0324,0.013523,0.002678,0.000431,0.001645
52056000,0.0324,0.013523,0.002678,0.000431,0.001410
52057000,0.0324,0.013523,0.002678,0.000431,0.001645
52058000,0.0324,0.013523,0.002678,0.000431,0.001880
52059000,0.0324,0.013523,0.002678,0.000431,0.001175
52060000,0.0324,0.013523,0.002678,0.000431,0.001880
52061000,0.0324,0.013523,0.002678,0.000431,0.001410
52062000,0.0324,0.013523,0.002678,0.000431,0.001645
52063000,0.0324,0.013523,0.002678,0.000431,0.001645
52064000,0.0324,0.013523,0.002678,0.000431,0.001410
52065000,0.0324,0.013523,0.002678,0.000431,0.001645
52066000,0.0324,0.013523,0.002678,0.000431,0.075101
52067000,0.0324,0.013523,0.002678,0.000431,0.495616
52068000,0.0324,0.013523,0.002678,0.000431,0.558494
52069000,0.0324,0.013523,0.002678,0.000431,0.133512
52070000,0.0324,0.013523,0.002678,0.000431,0.132102
52071000,0.0324,0.013523,0.002678,0.000431,0.570834
52072000,0.0324,0.013523,0.002678,0.000431,0.233411
52073000,0.0324,0.013523,0.002678,0.000431,0.278424
52074000,0.0324,0.013523,0.002678,0.000431,0.306631
52075000,0.0324,0.013523,0.002678,0.000431,0.138213
52076000,0.0324,0.013523,0.002678,0.000431,0.151494
52077000,0.0324,0.013523,0.002678,0.000431,0.101779
52078000,0.0324,0.013523,0.002678,0.000431,0.379028
52079000,0.0324,0.013523,0.002678,0.000431,0.471523
52080000,0.0324,0.013523,0.002678,0.000431,0.227770
52081000,0.0324,0.013523,0.002678,0.000431,0.216839
52082000,0.0324,0.013523,0.002678,0.000431,0.169828
52083000,0.0324,0.013523,0.002678,0.000431,0.139388
52084000,0.0324,0.013523,0.002678,0.000431,0.120819
52085000,0.0324,0.013523,0.002678,0.000431,0.119291
52086000,0.0324,0.013523,0.002678,0.000431,0.099899
52087000,0.0324,0.013523,0.002678,0.000431,0.103307
52088000,0.0324,0.013523,0.002678,0.000431,0.075806
52089000,0.0324,0.013523,0.002678,0.000431,0.077921
52090000,0.0324,0.013523,0.002678,0.000431,0.068989
52091000,0.0324,0.013523,0.002678,0.000431,0.061702
52092000,0.0324,0.013523,0.002678,0.000431,0.061115
52093000,0.0324,0.013523,0.002678,0.000431,0.053593
52094000,0.0324,0.013523,0.002678,0.000431,0.058882
52095000,0.0324,0.013523,0.002678,0.000431,0.040665
52096000,0.0324,0.013523,0.002678,0.000431,0.035023
52097000,0.0324,0.013523,0.002678,0.000431,0.028089
52098000,0.0324,0.013523,0.002678,0.000431,0.028912
52099000,0.0324,0.013523,0.002678,0.000431,0.025034
52100000,0.0324,0.013523,0.002678,0.000431,0.026444
52101000,0.0324,0.013523,0.002678,0.000431,0.024093
52102000,0.0324,0.013523,0.002678,0.000431,0.021038
52103000,0.0324,0.013523,0.002678,0.000431,0.020097
52104000,0.0324,0.013523,0.002678,0.000431,0.019040
52105000,0.0324,0.013523,0.002678,0.000431,0.022095
52106000,0.0324,0.013523,0.002678,0.000431,0.018805
52107000,0.0324,0.013523,0.002678,0.000431,0.016571
52108000,0.0324,0.013523,0.002678,0.000431,0.017982
52109000,0.0324,0.013523,0.002678,0.000431,0.017394
52110000,0.0324,0.013523,0.002678,0.000431,0.017982
52111000,0.0324,0.013523,0.002678,0.000431,0.014691
52112000,0.0324,0.013523,0.002678,0.000431,0.014573
52113000,0.0324,0.013523,0.002678,0.000431,0.014103
52114000,0.0324,0.013523,0.002678,0.000431,0.013633
52115000,0.0324,0.013523,0.002678,0.000431,0.014809
52116000,0.0324,0.013523,0.002678,0.000431,0.014103
52117000,0.0324,0.013523,0.002678,0.000431,0.014691
52118000,0.0324,0.013523,0.002678,0.000431,0.013986
52119000,0.0324,0.013523,0.002678,0.000431,0.013516
52120000,0.0324,0.013523,0.002678,0.000431,0.017159
52121000,0.0324,0.013523,0.002678,0.000431,0.013868
52122000,0.0324,0.013523,0.002678,0.000431,0.020332
52123000,0.0324,0.013523,0.002678,0.000431,0.010342
52124000,0.0324,0.013523,0.002678,0.000431,0.008697
52125000,0.0324,0.013523,0.002678,0.000431,0.010342
52126000,0.0324,0.013523,0.002678,0.000431,0.009167
52127000,0.0324,0.013523,0.002678,0.000431,0.009167
52128000,0.0324,0.013523,0.002678,0.000431,0.010460
52129000,0.0324,0.013523,0.002678,0.000431,0.008697
52130000,0.0324,0.013523,0.002678,0.000431,0.013751
52131000,0.0324,0.013523,0.002678,0.000431,0.009050
52132000,0.0324,0.013523,0.002678,0.000431,0.007639
52133000,0.0324,0.013523,0.002678,0.000431,0.009520
52134000,0.0324,0.013523,0.002678,0.000431,0.007874
52135000,0.0324,0.013523,0.002678,0.000431,0.008109
52136000,0.0324,0.013523,0.002678,0.000431,0.010225
52137000,0.0324,0.013523,0.002678,0.000431,0.010578
52138000,0.0324,0.013523,0.002678,0.000431,0.006817
52139000,0.0324,0.013523,0.002678,0.000431,0.005524
52140000,0.0324,0.013523,0.002678,0.000431,0.006934
52141000,0.0324,0.013523,0.002678,0.000431,0.008932
52142000,0.0324,0.013523,0.002678,0.000431,0.004701
52143000,0.0324,0.013523,0.002678,0.000431,0.005171
52144000,0.0324,0.013523,0.002678,0.000431,0.004231
52145000,0.0324,0.013523,0.002678,0.000431,0.004936
52146000,0.0324,0.013523,0.002678,0.000431,0.004584
52147000,0.0324,0.013523,0.002678,0.000431,0.004584
52148000,0.0324,0.013523,0.002678,0.000431,0.005171
52149000,0.0324,0.013523,0.002678,0.000431,0.004466
52150000,0.0324,0.013523,0.002678,0.000431,0.004466
52151000,0.0324,0.013523,0.002678,0.000431,0.005054
52152000,0.0324,0.013523,0.002678,0.000431,0.006229
52153000,0.0324,0.013523,0.002678,0.000431,0.004466
52154000,0.0324,0.013523,0.002678,0.000431,0.003643
52155000,0.0324,0.013523,0.002678,0.000431,0.003761
52156000,0.0324,0.013523,0.002678,0.000431,0.004113
52157000,0.0324,0.013523,0.002678,0.000431,0.003408
52158000,0.0324,0.013523,0.002678,0.000431,0.004466
52159000,0.0324,0.013523,0.002678,0.000431,0.003526
52160000,0.0324,0.013523,0.002678,0.000431,0.003878
52161000,0.0324,0.013523,0.002678,0.000431,0.004113
52162000,0.0324,0.013523,0.002678,0.000431,0.003408
52163000,0.0324,0.013523,0.002678,0.000431,0.004349
52164000,0.0324,0.013523,0.002678,0.000431,0.003408
52165000,0.0324,0.013523,0.002678,0.000431,0.003878
52166000,0.0324,0.013523,0.002678,0.000431,0.004231
52167000,0.0324,0.013523,0.002678,0.000431,0.003643
52168000,0.0324,0.013523,0.002678,0.000431,0.004113
52169000,0.0324,0.013523,0.002678,0.000431,0.004819
52170000,0.0324,0.013523,0.002678,0.000431,0.004349
52171000,0.0324,0.013523,0.002678,0.000431,0.003761
52172000,0.0324,0.013523,0.002678,0.000431,0.005994
52173000,0.0324,0.013523,0.002678,0.000431,0.000823
52174000,0.0324,0.013523,0.002678,0.000431,0.000940
52175000,0.0324,0.013523,0.002678,0.000431,0.000940
52176000,0.0324,0.013523,0.002678,0.000431,0.000823
52177000,0.0324,0.013523,0.002678,0.000431,0.000823
52178000,0.0324,0.013523,0.002678,0.000431,0.000940
52179000,0.0324,0.013523,0.002678,0.000431,0.000940
52180000,0.0324,0.013523,0.002678,0.000431,0.000823
52181000,0.0324,0.013523,0.002678,0.000431,0.000823
52182000,0.0324,0.013523,0.002678,0.000431,0.014338
52183000,0.0324,0.013523,0.002678,0.000431,0.771455
52184000,0.0324,0.013523,0.002678,0.000431,0.585290
52185000,0.0324,0.013523,0.002678,0.000431,0.181464
52186000,0.0324,0.013523,0.002678,0.000431,0.151024
52187000,0.0324,0.013523,0.002678,0.000431,0.585996
52188000,0.0324,0.013523,0.002678,0.000431,0.248337
52189000,0.0324,0.013523,0.002678,0.000431,0.332370
52190000,0.0324,0.013523,0.002678,0.000431,0.149143
52191000,0.0324,0.013523,0.002678,0.000431,0.172884
52192000,0.0324,0.013523,0.002678,0.000431,0.151494
52193000,0.0324,0.013523,0.002678,0.000431,0.512658
52194000,0.0324,0.013523,0.002678,0.000431,0.226477
52195000,0.0324,0.013523,0.002678,0.000431,0.176292
52196000,0.0324,0.013523,0.002678,0.000431,0.141504
52197000,0.0324,0.013523,0.002678,0.000431,0.117293
52198000,0.0324,0.013523,0.002678,0.000431,0.092847
52199000,0.0324,0.013523,0.002678,0.000431,0.087323
52200000,0.0324,0.013523,0.002678,0.000431,0.078861
52201000,0.0324,0.013523,0.002678,0.000431,0.072632
52202000,0.0324,0.013523,0.002678,0.000431,0.065698
52203000,0.0324,0.013523,0.002678,0.000431,0.054298
52204000,0.0324,0.013523,0.002678,0.000431,0.050655
52205000,0.0324,0.013523,0.002678,0.000431,0.046776
52206000,0.0324,0.013523,0.002678,0.000431,0.044661
52207000,0.0324,0.013523,0.002678,0.000431,0.042075
52208000,0.0324,0.013523,0.002678,0.000431,0.028089
52209000,0.0324,0.013523,0.002678,0.000431,0.029382
52210000,0.0324,0.013523,0.002678,0.000431,0.027619
52211000,0.0324,0.013523,0.002678,0.000431,0.031380
52212000,0.0324,0.013523,0.002678,0.000431,0.024681
52213000,0.0324,0.013523,0.002678,0.000431,0.025974
52214000,0.0324,0.013523,0.002678,0.000431,0.023976
52215000,0.0324,0.013523,0.002678,0.000431,0.023388
52216000,0.0324,0.013523,0.002678,0.000431,0.024798
52217000,0.0324,0.013523,0.002678,0.000431,0.020567
52218000,0.0324,0.013523,0.002678,0.000431,0.022213
52219000,0.0324,0.013523,0.002678,0.000431,0.022800
52220000,0.0324,0.013523,0.002678,0.000431,0.017747
52221000,0.0324,0.013523,0.002678,0.000431,0.017159
52222000,0.0324,0.013523,0.002678,0.000431,0.016689
52223000,0.0324,0.013523,0.002678,0.000431,0.012458
52224000,0.0324,0.013523,0.002678,0.000431,0.013398
52225000,0.0324,0.013523,0.002678,0.000431,0.012811
52226000,0.0324,0.013523,0.002678,0.000431,0.017159
52227000,0.0324,0.013523,0.002678,0.000431,0.014573
52228000,0.0324,0.013523,0.002678,0.000431,0.011283
52229000,0.0324,0.013523,0.002678,0.000431,0.014221
52230000,0.0324,0.013523,0.002678,0.000431,0.012340
52231000,0.0324,0.013523,0.002678,0.000431,0.009872
52232000,0.0324,0.013523,0.002678,0.000431,0.013751
52233000,0.0324,0.013523,0.002678,0.000431,0.009520
52234000,0.0324,0.013523,0.002678,0.000431,0.004584
52235000,0.0324,0.013523,0.002678,0.000431,0.004936
52236000,0.0324,0.013523,0.002678,0.000431,0.004701
52237000,0.0324,0.013523,0.002678,0.000431,0.004584
52238000,0.0324,0.013523,0.002678,0.000431,0.004584
52239000,0.0324,0.013523,0.002678,0.000431,0.004466
52240000,0.0324,0.013523,0.002678,0.000431,0.005289
52241000,0.0324,0.013523,0.002678,0.000431,0.004466
52242000,0.0324,0.013523,0.002678,0.000431,0.004701
52243000,0.0324,0.013523,0.002678,0.000431,0.004466
52244000,0.0324,0.013523,0.002678,0.000431,0.004466
52245000,0.0324,0.013523,0.002678,0.000431,0.005406
52246000,0.0324,0.013523,0.002678,0.000431,0.007052
52247000,0.0324,0.013523,0.002678,0.000431,0.004349
52248000,0.0324,0.013523,0.002678,0.000431,0.003408
52249000,0.0324,0.013523,0.002678,0.000431,0.003643
52250000,0.0324,0.013523,0.002678,0.000431,0.004466
52251000,0.0324,0.013523,0.002678,0.000431,0.003056
52252000,0.0324,0.013523,0.002678,0.000431,0.004231
52253000,0.0324,0.013523,0.002678,0.000431,0.003643
52254000,0.0324,0.013523,0.002678,0.000431,0.003878
52255000,0.0324,0.013523,0.002678,0.000431,0.003996
52256000,0.0324,0.013523,0.002678,0.000431,0.003291
52257000,0.0324,0.013523,0.002678,0.000431,0.004113
52258000,0.0324,0.013523,0.002678,0.000431,0.003878
52259000,0.0324,0.013523,0.002678,0.000431,0.003761
52260000,0.0324,0.013523,0.002678,0.000431,0.003761
52261000,0.0324,0.013523,0.002678,0.000431,0.003761
52262000,0.0324,0.013523,0.002678,0.000431,0.004113
52263000,0.0324,0.013523,0.002678,0.000431,0.003643
52264000,0.0324,0.013523,0.002678,0.000431,0.003408
52265000,0.0324,0.013523,0.002678,0.000431,0.006817
52266000,0.0324,0.013523,0.002678,0.000431,0.005759
52267000,0.0324,0.013523,0.002678,0.000431,0.001998
52268000,0.0324,0.013523,0.002678,0.000431,0.002233
52269000,0.0324,0.013523,0.002678,0.000431,0.001645
52270000,0.0324,0.013523,0.002678,0.000431,0.002351
52271000,0.0324,0.013523,0.002678,0.000431,0.001528
52272000,0.0324,0.013523,0.002678,0.000431,0.002116
52273000,0.0324,0.013523,0.002678,0.000431,0.001998
52274000,0.0324,0.013523,0.002678,0.000431,0.001763
52275000,0.0324,0.013523,0.002678,0.000431,0.002468
52276000,0.0324,0.013523,0.002678,0.000431,0.001410
52277000,0.0324,0.013523,0.002678,0.000431,0.002233
52278000,0.0324,0.013523,0.002678,0.000431,0.001880
52279000,0.0324,0.013523,0.002678,0.000431,0.001880
52280000,0.0324,0.013523,0.002678,0.000431,0.002233
52281000,0.0324,0.013523,0.002678,0.000431,0.001645
52282000,0.0324,0.013523,0.002678,0.000431,0.001763
52283000,0.0324,0.013523,0.002678,0.000431,0.002233
52284000,0.0324,0.013523,0.002678,0.000431,0.001880
52285000,0.0324,0.013523,0.002678,0.000431,0.001998
52286000,0.0324,0.013523,0.002678,0.000431,0.001880
52287000,0.0324,0.013523,0.002678,0.000431,0.002233
52288000,0.0324,0.013523,0.002678,0.000431,0.002116
52289000,0.0324,0.013523,0.002678,0.000431,0.002233
52290000,0.0324,0.013523,0.002678,0.000431,0.002116
52291000,0.0324,0.013523,0.002678,0.000431,0.005289
52292000,0.0324,0.013523,0.002678,0.000431,0.001058
52293000,0.0324,0.013523,0.002678,0.000431,0.000940
52294000,0.0324,0.013523,0.002678,0.000431,0.000705
52295000,0.0324,0.013523,0.002678,0.000431,0.000940
52296000,0.0324,0.013523,0.002678,0.000431,0.000705
52297000,0.0324,0.013523,0.002678,0.000431,0.000940
52298000,0.0324,0.013523,0.002678,0.000431,0.000940
52299000,0.0324,0.013523,0.002678,0.000431,0.000705
52300000,0.0324,0.013523,0.002678,0.000431,0.000940
52301000,0.0324,0.013523,0.002678,0.000431,0.000705
52302000,0.0324,0.013523,0.002678,0.000431,0.000940
52303000,0.0324,0.013523,0.002678,0.000431,0.000823
52304000,0.0324,0.013523,0.002678,0.000431,0.000823
52305000,0.0324,0.013523,0.002678,0.000431,0.000940
52306000,0.0324,0.013523,0.002678,0.000431,0.000705
52307000,0.0324,0.013523,0.002678,0.000431,0.000940
52308000,0.0324,0.013523,0.002678,0.000431,0.000823
52309000,0.0324,0.013523,0.002678,0.000431,0.000823
52310000,0.0324,0.013523,0.002678,0.000431,0.000823
52311000,0.0324,0.013523,0.002678,0.000431,0.000823
52312000,0.0324,0.013523,0.002678,0.000431,0.000823
52313000,0.0324,0.013523,0.002678,0.000431,0.000823
52314000,0.0324,0.013523,0.002678,0.000431,0.000823
52315000,0.0324,0.013523,0.002678,0.000431,0.000823
52316000,0.0324,0.013523,0.002678,0.000431,0.000940
52317000,0.0324,0.013523,0.002678,0.000431,0.000823
52318000,0.0324,0.013523,0.002678,0.000431,0.000823
52319000,0.0324,0.013523,0.002678,0.000431,0.000705
52320000,0.0324,0.013523,0.002678,0.000431,0.000940
52321000,0.0324,0.013523,0.002678,0.000431,0.000940
52322000,0.0324,0.013523,0.002678,0.000431,0.000705
52323000,0.0324,0.013523,0.002678,0.000431,0.000940
52324000,0.0324,0.013523,0.002678,0.000431,0.000705
52325000,0.0324,0.013523,0.002678,0.000431,0.000940
52326000,0.0324,0.013523,0.002678,0.000431,0.000823
52327000,0.0324,0.013523,0.002678,0.000431,0.000823
52328000,0.0324,0.013523,0.002678,0.000431,0.000823
52329000,0.0324,0.013523,0.002678,0.000431,0.000823
52330000,0.0324,0.013523,0.002678,0.000431,0.000940
52331000,0.0324,0.013523,0.002678,0.000431,0.129634
52332000,0.0324,0.013523,0.002678,0.000431,0.725737
52333000,0.0324,0.013523,0.002678,0.000431,0.511483
52334000,0.0324,0.013523,0.002678,0.000431,0.142327
52335000,0.0324,0.013523,0.002678,0.000431,0.245516
52336000,0.0324,0.013523,0.002678,0.000431,0.609619
52337000,0.0324,0.013523,0.002678,0.000431,0.282185
52338000,0.0324,0.013523,0.002678,0.000431,0.296641
52339000,0.0324,0.013523,0.002678,0.000431,0.140446
52340000,0.0324,0.013523,0.002678,0.000431,0.112945
52341000,0.0324,0.013523,0.002678,0.000431,0.367276
52342000,0.0324,0.013523,0.002678,0.000431,0.277367
52343000,0.0324,0.013523,0.002678,0.000431,0.101779
52344000,0.0324,0.013523,0.002678,0.000431,0.080037
52345000,0.0324,0.013523,0.002678,0.000431,0.064876
52346000,0.0324,0.013523,0.002678,0.000431,0.051477
52347000,0.0324,0.013523,0.002678,0.000431,0.044896
52348000,0.0324,0.013523,0.002678,0.000431,0.034083
52349000,0.0324,0.013523,0.002678,0.000431,0.030675
52350000,0.0324,0.013523,0.002678,0.000431,0.027502
52351000,0.0324,0.013523,0.002678,0.000431,0.017394
52352000,0.0324,0.013523,0.002678,0.000431,0.023623
52353000,0.0324,0.013523,0.002678,0.000431,0.013516
52354000,0.0324,0.013523,0.002678,0.000431,0.011518
52355000,0.0324,0.013523,0.002678,0.000431,0.010813
52356000,0.0324,0.013523,0.002678,0.000431,0.011165
52357000,0.0324,0.013523,0.002678,0.000431,0.010460
52358000,0.0324,0.013523,0.002678,0.000431,0.007522
52359000,0.0324,0.013523,0.002678,0.000431,0.007639
52360000,0.0324,0.013523,0.002678,0.000431,0.010342
52361000,0.0324,0.013523,0.002678,0.000431,0.005641
52362000,0.0324,0.013523,0.002678,0.000431,0.005641
52363000,0.0324,0.013523,0.002678,0.000431,0.005994
52364000,0.0324,0.013523,0.002678,0.000431,0.007522
52365000,0.0324,0.013523,0.002678,0.000431,0.006229
52366000,0.0324,0.013523,0.002678,0.000431,0.004113
52367000,0.0324,0.013523,0.002678,0.000431,0.004231
52368000,0.0324,0.013523,0.002678,0.000431,0.003996
52369000,0.0324,0.013523,0.002678,0.000431,0.004231
52370000,0.0324,0.013523,0.002678,0.000431,0.003291
52371000,0.0324,0.013523,0.002678,0.000431,0.003643
52372000,0.0324,0.013523,0.002678,0.000431,0.003291
52373000,0.0324,0.013523,0.002678,0.000431,0.003526
52374000,0.0324,0.013523,0.002678,0.000431,0.003408
52375000,0.0324,0.013523,0.002678,0.000431,0.003878
52376000,0.0324,0.013523,0.002678,0.000431,0.003526
52377000,0.0324,0.013523,0.002678,0.000431,0.002703
52378000,0.0324,0.013523,0.002678,0.000431,0.002468
52379000,0.0324,0.013523,0.002678,0.000431,0.002468
52380000,0.0324,0.013523,0.002678,0.000431,0.002468
52381000,0.0324,0.013523,0.002678,0.000431,0.002703
52382000,0.0324,0.013523,0.002678,0.000431,0.002703
52383000,0.0324,0.013523,0.002678,0.000431,0.002468
52384000,0.0324,0.013523,0.002678,0.000431,0.002468
52385000,0.0324,0.013523,0.002678,0.000431,0.002468
52386000,0.0324,0.013523,0.002678,0.000431,0.002586
52387000,0.0324,0.013523,0.002678,0.000431,0.002703
52388000,0.0324,0.013523,0.002678,0.000431,0.002468
52389000,0.0324,0.013523,0.002678,0.000431,0.002586
52390000,0.0324,0.013523,0.002678,0.000431,0.002468
52391000,0.0324,0.013523,0.002678,0.000431,0.002468
52392000,0.0324,0.013523,0.002678,0.000431,0.003643
52393000,0.0324,0.013523,0.002678,0.000431,0.003173
52394000,0.0324,0.013523,0.002678,0.000431,0.003291
52395000,0.0324,0.013523,0.002678,0.000431,0.000823
52396000,0.0324,0.013523,0.002678,0.000431,0.000940
52397000,0.0324,0.013523,0.002678,0.000431,0.000940
52398000,0.0324,0.013523,0.002678,0.000431,0.000705
52399000,0.0324,0.013523,0.002678,0.000431,0.000940
52400000,0.0324,0.013523,0.002678,0.000431,0.000940
52401000,0.0324,0.013523,0.002678,0.000431,0.000940
52402000,0.0324,0.013523,0.002678,0.000431,0.000705
52403000,0.0324,0.013523,0.002678,0.000431,0.000940
52404000,0.0324,0.013523,0.002678,0.000431,0.000940
52405000,0.0324,0.013523,0.002678,0.000431,0.000823
52406000,0.0324,0.013523,0.002678,0.000431,0.000823
52407000,0.0324,0.013523,0.002678,0.000431,0.000940
52408000,0.0324,0.013523,0.002678,0.000431,0.000940
52409000,0.0324,0.013523,0.002678,0.000431,0.000823
52410000,0.0324,0.013523,0.002678,0.000431,0.000823
52411000,0.0324,0.013523,0.002678,0.000431,0.000940
52412000,0.0324,0.013523,0.002678,0.000431,0.000823
52413000,0.0324,0.013523,0.002678,0.000431,0.000823
52414000,0.0324,0.013523,0.002678,0.000431,0.000940
52415000,0.0324,0.013523,0.002678,0.000431,0.218955
52416000,0.0324,0.013523,0.002678,0.000431,0.541805
52417000,0.0324,0.013523,0.002678,0.000431,0.479750
52418000,0.0324,0.013523,0.002678,0.000431,0.133042
52419000,0.0324,0.013523,0.002678,0.000431,0.143619
52420000,0.0324,0.013523,0.002678,0.000431,0.580824
52421000,0.0324,0.013523,0.002678,0.000431,0.235056
52422000,0.0324,0.013523,0.002678,0.000431,0.334015
52423000,0.0324,0.013523,0.002678,0.000431,0.215899
52424000,0.0324,0.013523,0.002678,0.000431,0.147850
52425000,0.0324,0.013523,0.002678,0.000431,0.115295
52426000,0.0324,0.013523,0.002678,0.000431,0.346120
52427000,0.0324,0.013523,0.002678,0.000431,0.258327
52428000,0.0324,0.013523,0.002678,0.000431,0.058647
52429000,0.0324,0.013523,0.002678,0.000431,0.046659
52430000,0.0324,0.013523,0.002678,0.000431,0.045131
52431000,0.0324,0.013523,0.002678,0.000431,0.045131
52432000,0.0324,0.013523,0.002678,0.000431,0.036081
52433000,0.0324,0.013523,0.002678,0.000431,0.042310
52434000,0.0324,0.013523,0.002678,0.000431,0.030910
52435000,0.0324,0.013523,0.002678,0.000431,0.031498
52436000,0.0324,0.013523,0.002678,0.000431,0.026091
52437000,0.0324,0.013523,0.002678,0.000431,0.021978
52438000,0.0324,0.013523,0.002678,0.000431,0.023858
52439000,0.0324,0.013523,0.002678,0.000431,0.021273
52440000,0.0324,0.013523,0.002678,0.000431,0.019510
52441000,0.0324,0.013523,0.002678,0.000431,0.013516
52442000,0.0324,0.013523,0.002678,0.000431,0.014103
52443000,0.0324,0.013523,0.002678,0.000431,0.014926
52444000,0.0324,0.013523,0.002678,0.000431,0.012105
52445000,0.0324,0.013523,0.002678,0.000431,0.013046
52446000,0.0324,0.013523,0.002678,0.000431,0.013281
52447000,0.0324,0.013523,0.002678,0.000431,0.011870
52448000,0.0324,0.013523,0.002678,0.000431,0.013046
52449000,0.0324,0.013523,0.002678,0.000431,0.009990
52450000,0.0324,0.013523,0.002678,0.000431,0.011165
52451000,0.0324,0.013523,0.002678,0.000431,0.009755
52452000,0.0324,0.013523,0.002678,0.000431,0.010695
52453000,0.0324,0.013523,0.002678,0.000431,0.009990
52454000,0.0324,0.013523,0.002678,0.000431,0.010342
52455000,0.0324,0.013523,0.002678,0.000431,0.010225
52456000,0.0324,0.013523,0.002678,0.000431,0.010225
52457000,0.0324,0.013523,0.002678,0.000431,0.012340
52458000,0.0324,0.013523,0.002678,0.000431,0.009285
52459000,0.0324,0.013523,0.002678,0.000431,0.009520
52460000,0.0324,0.013523,0.002678,0.000431,0.009872
52461000,0.0324,0.013523,0.002678,0.000431,0.009402
52462000,0.0324,0.013523,0.002678,0.000431,0.008697
52463000,0.0324,0.013523,0.002678,0.000431,0.006347
52464000,0.0324,0.013523,0.002678,0.000431,0.006817
52465000,0.0324,0.013523,0.002678,0.000431,0.005994
52466000,0.0324,0.013523,0.002678,0.000431,0.004936
52467000,0.0324,0.013523,0.002678,0.000431,0.005406
52468000,0.0324,0.013523,0.002678,0.000431,0.004819
52469000,0.0324,0.013523,0.002678,0.000431,0.005171
52470000,0.0324,0.013523,0.002678,0.000431,0.005054
52471000,0.0324,0.013523,0.002678,0.000431,0.006817
52472000,0.0324,0.013523,0.002678,0.000431,0.004349
52473000,0.0324,0.013523,0.002678,0.000431,0.004231
52474000,0.0324,0.013523,0.002678,0.000431,0.004231
52475000,0.0324,0.013523,0.002678,0.000431,0.004231
52476000,0.0324,0.013523,0.002678,0.000431,0.004113
52477000,0.0324,0.013523,0.002678,0.000431,0.004349
52478000,0.0324,0.013523,0.002678,0.000431,0.003878
52479000,0.0324,0.013523,0.002678,0.000431,0.004466
52480000,0.0324,0.013523,0.002678,0.000431,0.004349
52481000,0.0324,0.013523,0.002678,0.000431,0.003996
52482000,0.0324,0.013523,0.002678,0.000431,0.004231
52483000,0.0324,0.013523,0.002678,0.000431,0.004113
52484000,0.0324,0.013523,0.002678,0.000431,0.004349
52485000,0.0324,0.013523,0.002678,0.000431,0.004231
52486000,0.0324,0.013523,0.002678,0.000431,0.004113
52487000,0.0324,0.013523,0.002678,0.000431,0.004231
52488000,0.0324,0.013523,0.002678,0.000431,0.004466
52489000,0.0324,0.013523,0.002678,0.000431,0.004113
52490000,0.0324,0.013523,0.002678,0.000431,0.004349
52491000,0.0324,0.013523,0.002678,0.000431,0.003996
52492000,0.0324,0.013523,0.002678,0.000431,0.005759
52493000,0.0324,0.013523,0.002678,0.000431,0.003526
52494000,0.0324,0.013523,0.002678,0.000431,0.003408
52495000,0.0324,0.013523,0.002678,0.000431,0.003291
52496000,0.0324,0.013523,0.002678,0.000431,0.003408
52497000,0.0324,0.013523,0.002678,0.000431,0.003408
52498000,0.0324,0.013523,0.002678,0.000431,0.004936
52499000,0.0324,0.013523,0.002678,0.000431,0.002586
52500000,0.0324,0.013523,0.002678,0.000431,0.002586
52501000,0.0324,0.013523,0.002678,0.000431,0.002586
52502000,0.0324,0.013523,0.002678,0.000431,0.002468
52503000,0.0324,0.013523,0.002678,0.000431,0.002351
52504000,0.0324,0.013523,0.002678,0.000431,0.002703
52505000,0.0324,0.013523,0.002678,0.000431,0.002468
52506000,0.0324,0.013523,0.002678,0.000431,0.003878
52507000,0.0324,0.013523,0.002678,0.000431,0.001763
52508000,0.0324,0.013523,0.002678,0.000431,0.001528
52509000,0.0324,0.013523,0.002678,0.000431,0.001880
52510000,0.0324,0.013523,0.002678,0.000431,0.001645
52511000,0.0324,0.013523,0.002678,0.000431,0.001645
52512000,0.0324,0.013523,0.002678,0.000431,0.001880
52513000,0.0324,0.013523,0.002678,0.000431,0.001410
52514000,0.0324,0.013523,0.002678,0.000431,0.001880
52515000,0.0324,0.013523,0.002678,0.000431,0.001645
52516000,0.0324,0.013523,0.002678,0.000431,0.001645
52517000,0.0324,0.013523,0.002678,0.000431,0.001763
52518000,0.0324,0.013523,0.002678,0.000431,0.002586
52519000,0.0324,0.013523,0.002678,0.000431,0.000705
52520000,0.0324,0.013523,0.002678,0.000431,0.000940
52521000,0.0324,0.013523,0.002678,0.000431,0.000940
52522000,0.0324,0.013523,0.002678,0.000431,0.000823
52523000,0.0324,0.013523,0.002678,0.000431,0.000823
52524000,0.0324,0.013523,0.002678,0.000431,0.000940
52525000,0.0324,0.013523,0.002678,0.000431,0.000940
52526000,0.0324,0.013523,0.002678,0.000431,0.000823
52527000,0.0324,0.013523,0.002678,0.000431,0.000823
52528000,0.0324,0.013523,0.002678,0.000431,0.000940
52529000,0.0324,0.013523,0.002678,0.000431,0.000823
52530000,0.0324,0.013523,0.002678,0.000431,0.000940
52531000,0.0324,0.013523,0.002678,0.000431,0.000823
52532000,0.0324,0.013523,0.002678,0.000431,0.197447
52533000,0.0324,0.013523,0.002678,0.000431,0.490210
52534000,0.0324,0.013523,0.002678,0.000431,0.484451
52535000,0.0324,0.013523,0.002678,0.000431,0.133512
52536000,0.0324,0.013523,0.002678,0.000431,0.133159
52537000,0.0324,0.013523,0.002678,0.000431,0.570717
52538000,0.0324,0.013523,0.002678,0.000431,0.247397
52539000,0.0324,0.013523,0.002678,0.000431,0.267142
52540000,0.0324,0.013523,0.002678,0.000431,0.272195
52541000,0.0324,0.013523,0.002678,0.000431,0.145147
52542000,0.0324,0.013523,0.002678,0.000431,0.148908
52543000,0.0324,0.013523,0.002678,0.000431,0.109184
52544000,0.0324,0.013523,0.002678,0.000431,0.393249
52545000,0.0324,0.013523,0.002678,0.000431,0.202031
52546000,0.0324,0.013523,0.002678,0.000431,0.047129
52547000,0.0324,0.013523,0.002678,0.000431,0.039725
52548000,0.0324,0.013523,0.002678,0.000431,0.031733
52549000,0.0324,0.013523,0.002678,0.000431,0.029147
52550000,0.0324,0.013523,0.002678,0.000431,0.020450
52551000,0.0324,0.013523,0.002678,0.000431,0.014691
52552000,0.0324,0.013523,0.002678,0.000431,0.019627
52553000,0.0324,0.013523,0.002678,0.000431,0.014809
52554000,0.0324,0.013523,0.002678,0.000431,0.014809
52555000,0.0324,0.013523,0.002678,0.000431,0.011400
52556000,0.0324,0.013523,0.002678,0.000431,0.014573
52557000,0.0324,0.013523,0.002678,0.000431,0.012928
52558000,0.0324,0.013523,0.002678,0.000431,0.010460
52559000,0.0324,0.013523,0.002678,0.000431,0.009285
52560000,0.0324,0.013523,0.002678,0.000431,0.008227
52561000,0.0324,0.013523,0.002678,0.000431,0.011165
52562000,0.0324,0.013523,0.002678,0.000431,0.008697
52563000,0.0324,0.013523,0.002678,0.000431,0.006582
52564000,0.0324,0.013523,0.002678,0.000431,0.006582
52565000,0.0324,0.013523,0.002678,0.000431,0.005876
52566000,0.0324,0.013523,0.002678,0.000431,0.009520
52567000,0.0324,0.013523,0.002678,0.000431,0.005054
52568000,0.0324,0.013523,0.002678,0.000431,0.005641
52569000,0.0324,0.013523,0.002678,0.000431,0.005876
52570000,0.0324,0.013523,0.002678,0.000431,0.005171
52571000,0.0324,0.013523,0.002678,0.000431,0.005759
52572000,0.0324,0.013523,0.002678,0.000431,0.005524
52573000,0.0324,0.013523,0.002678,0.000431,0.007757
52574000,0.0324,0.013523,0.002678,0.000431,0.004584
52575000,0.0324,0.013523,0.002678,0.000431,0.003996
52576000,0.0324,0.013523,0.002678,0.000431,0.006229
52577000,0.0324,0.013523,0.002678,0.000431,0.005641
52578000,0.0324,0.013523,0.002678,0.000431,0.002351
52579000,0.0324,0.013523,0.002678,0.000431,0.002703
52580000,0.0324,0.013523,0.002678,0.000431,0.002586
52581000,0.0324,0.013523,0.002678,0.000431,0.002351
52582000,0.0324,0.013523,0.002678,0.000431,0.002703
52583000,0.0324,0.013523,0.002678,0.000431,0.002351
52584000,0.0324,0.013523,0.002678,0.000431,0.002586
52585000,0.0324,0.013523,0.002678,0.000431,0.002351
52586000,0.0324,0.013523,0.002678,0.000431,0.003761
52587000,0.0324,0.013523,0.002678,0.000431,0.002351
52588000,0.0324,0.013523,0.002678,0.000431,0.001763
52589000,0.0324,0.013523,0.002678,0.000431,0.000940
52590000,0.0324,0.013523,0.002678,0.000431,0.000705
52591000,0.0324,0.013523,0.002678,0.000431,0.000940
52592000,0.0324,0.013523,0.002678,0.000431,0.000823
52593000,0.0324,0.013523,0.002678,0.000431,0.000823
52594000,0.0324,0.013523,0.002678,0.000431,0.000940
52595000,0.0324,0.013523,0.002678,0.000431,0.000705
52596000,0.0324,0.013523,0.002678,0.000431,0.000940
52597000,0.0324,0.013523,0.002678,0.000431,0.000705
52598000,0.0324,0.013523,0.002678,0.000431,0.000940
52599000,0.0324,0.013523,0.002678,0.000431,0.000823
52600000,0.0324,0.013523,0.002678,0.000431,0.000823
52601000,0.0324,0.013523,0.002678,0.000431,0.000823
52602000,0.0324,0.013523,0.002678,0.000431,0.000823
52603000,0.0324,0.013523,0.002678,0.000431,0.000940
52604000,0.0324,0.013523,0.002678,0.000431,0.000705
52605000,0.0324,0.013523,0.002678,0.000431,0.000823
52606000,0.0324,0.013523,0.002678,0.000431,0.000823
52607000,0.0324,0.013523,0.002678,0.000431,0.000940
52608000,0.0324,0.013523,0.002678,0.000431,0.000823
52609000,0.0324,0.013523,0.002678,0.000431,0.000823
52610000,0.0324,0.013523,0.002678,0.000431,0.000705
52611000,0.0324,0.013523,0.002678,0.000431,0.000940
52612000,0.0324,0.013523,0.002678,0.000431,0.000940
52613000,0.0324,0.013523,0.002678,0.000431,0.000705
52614000,0.0324,0.013523,0.002678,0.000431,0.000940
52615000,0.0324,0.013523,0.002678,0.000431,0.000705
52616000,0.0324,0.013523,0.002678,0.000431,0.000940
52617000,0.0324,0.013523,0.002678,0.000431,0.000823
52618000,0.0324,0.013523,0.002678,0.000431,0.000823
52619000,0.0324,0.013523,0.002678,0.000431,0.000940
52620000,0.0324,0.013523,0.002678,0.000431,0.000705
52621000,0.0324,0.013523,0.002678,0.000431,0.000940
52622000,0.0324,0.013523,0.002678,0.000431,0.000823
52623000,0.0324,0.013523,0.002678,0.000431,0.000823
52624000,0.0324,0.013523,0.002678,0.000431,0.000823
52625000,0.0324,0.013523,0.002678,0.000431,0.000823
52626000,0.0324,0.013523,0.002678,0.000431,0.000940
52627000,0.0324,0.013523,0.002678,0.000431,0.000705
52628000,0.0324,0.013523,0.002678,0.000431,0.000940
52629000,0.0324,0.013523,0.002678,0.000431,0.000823
52630000,0.0324,0.013523,0.002678,0.000431,0.000823
52631000,0.0324,0.013523,0.002678,0.000431,0.000823
52632000,0.0324,0.013523,0.002678,0.000431,0.000823
52633000,0.0324,0.013523,0.002678,0.000431,0.000823
52634000,0.0324,0.013523,0.002678,0.000431,0.000823
52635000,0.0324,0.013523,0.002678,0.000431,0.000940
52636000,0.0324,0.013523,0.002678,0.000431,0.000705
52637000,0.0324,0.013523,0.002678,0.000431,0.000940
52638000,0.0324,0.013523,0.002678,0.000431,0.000705
52639000,0.0324,0.013523,0.002678,0.000431,0.000940
52640000,0.0324,0.013523,0.002678,0.000431,0.000940
52641000,0.0324,0.013523,0.002678,0.000431,0.000705
52642000,0.0324,0.013523,0.002678,0.000431,0.000940
52643000,0.0324,0.013523,0.002678,0.000431,0.000705
52644000,0.0324,0.013523,0.002678,0.000431,0.023271
52645000,0.0324,0.013523,0.002678,0.000431,0.501493
52646000,0.0324,0.013523,0.002678,0.000431,0.593987
52647000,0.0324,0.013523,0.002678,0.000431,0.131397
52648000,0.0324,0.013523,0.002678,0.000431,0.132337
52649000,0.0324,0.013523,0.002678,0.000431,0.574008
52650000,0.0324,0.013523,0.002678,0.000431,0.275251
52651000,0.0324,0.013523,0.002678,0.000431,0.245046
52652000,0.0324,0.013523,0.002678,0.000431,0.312978
52653000,0.0324,0.013523,0.002678,0.000431,0.143502
52654000,0.0324,0.013523,0.002678,0.000431,0.154902
52655000,0.0324,0.013523,0.002678,0.000431,0.104718
52656000,0.0324,0.013523,0.002678,0.000431,0.417343
52657000,0.0324,0.013523,0.002678,0.000431,0.170651
52658000,0.0324,0.013523,0.002678,0.000431,0.055826
52659000,0.0324,0.013523,0.002678,0.000431,0.045131
52660000,0.0324,0.013523,0.002678,0.000431,0.040077
52661000,0.0324,0.013523,0.002678,0.000431,0.028912
52662000,0.0324,0.013523,0.002678,0.000431,0.027031
52663000,0.0324,0.013523,0.002678,0.000431,0.015044
52664000,0.0324,0.013523,0.002678,0.000431,0.012340
52665000,0.0324,0.013523,0.002678,0.000431,0.013281
52666000,0.0324,0.013523,0.002678,0.000431,0.007757
52667000,0.0324,0.013523,0.002678,0.000431,0.008109
52668000,0.0324,0.013523,0.002678,0.000431,0.008697
52669000,0.0324,0.013523,0.002678,0.000431,0.006582
52670000,0.0324,0.013523,0.002678,0.000431,0.007992
52671000,0.0324,0.013523,0.002678,0.000431,0.005524
52672000,0.0324,0.013523,0.002678,0.000431,0.006111
52673000,0.0324,0.013523,0.002678,0.000431,0.005054
52674000,0.0324,0.013523,0.002678,0.000431,0.006111
52675000,0.0324,0.013523,0.002678,0.000431,0.005759
52676000,0.0324,0.013523,0.002678,0.000431,0.005289
52677000,0.0324,0.013523,0.002678,0.000431,0.005994
52678000,0.0324,0.013523,0.002678,0.000431,0.005054
52679000,0.0324,0.013523,0.002678,0.000431,0.007287
52680000,0.0324,0.013523,0.002678,0.000431,0.004701
52681000,0.0324,0.013523,0.002678,0.000431,0.006582
52682000,0.0324,0.013523,0.002678,0.000431,0.003643
52683000,0.0324,0.013523,0.002678,0.000431,0.002351
52684000,0.0324,0.013523,0.002678,0.000431,0.002351
52685000,0.0324,0.013523,0.002678,0.000431,0.002821
52686000,0.0324,0.013523,0.002678,0.000431,0.001880
52687000,0.0324,0.013523,0.002678,0.000431,0.003643
52688000,0.0324,0.013523,0.002678,0.000431,0.002586
52689000,0.0324,0.013523,0.002678,0.000431,0.001645
52690000,0.0324,0.013523,0.002678,0.000431,0.001645
52691000,0.0324,0.013523,0.002678,0.000431,0.001645
52692000,0.0324,0.013523,0.002678,0.000431,0.014103
52693000,0.0324,0.013523,0.002678,0.000431,0.506194
52694000,0.0324,0.013523,0.002678,0.000431,0.595398
52695000,0.0324,0.013523,0.002678,0.000431,0.132572
52696000,0.0324,0.013523,0.002678,0.000431,0.132572
52697000,0.0324,0.013523,0.002678,0.000431,0.422396
52698000,0.0324,0.013523,0.002678,0.000431,0.345415
52699000,0.0324,0.013523,0.002678,0.000431,0.234939
52700000,0.0324,0.013523,0.002678,0.000431,0.355640
52701000,0.0324,0.013523,0.002678,0.000431,0.173707
52702000,0.0324,0.013523,0.002678,0.000431,0.138801
52703000,0.0324,0.013523,0.002678,0.000431,0.126460
52704000,0.0324,0.013523,0.002678,0.000431,0.309452
52705000,0.0324,0.013523,0.002678,0.000431,0.252686
52706000,0.0324,0.013523,0.002678,0.000431,0.013986
52707000,0.0324,0.013523,0.002678,0.000431,0.011988
52708000,0.0324,0.013523,0.002678,0.000431,0.010695
52709000,0.0324,0.013523,0.002678,0.000431,0.011518
52710000,0.0324,0.013523,0.002678,0.000431,0.007874
52711000,0.0324,0.013523,0.002678,0.000431,0.009050
52712000,0.0324,0.013523,0.002678,0.000431,0.007874
52713000,0.0324,0.013523,0.002678,0.000431,0.007287
52714000,0.0324,0.013523,0.002678,0.000431,0.007522
52715000,0.0324,0.013523,0.002678,0.000431,0.009285
52716000,0.0324,0.013523,0.002678,0.000431,0.005876
52717000,0.0324,0.013523,0.002678,0.000431,0.005876
52718000,0.0324,0.013523,0.002678,0.000431,0.005876
52719000,0.0324,0.013523,0.002678,0.000431,0.005876
52720000,0.0324,0.013523,0.002678,0.000431,0.007287
52721000,0.0324,0.013523,0.002678,0.000431,0.005054
52722000,0.0324,0.013523,0.002678,0.000431,0.004936
52723000,0.0324,0.013523,0.002678,0.000431,0.005054
52724000,0.0324,0.013523,0.002678,0.000431,0.005054
52725000,0.0324,0.013523,0.002678,0.000431,0.004701
52726000,0.0324,0.013523,0.002678,0.000431,0.004936
52727000,0.0324,0.013523,0.002678,0.000431,0.006464
52728000,0.0324,0.013523,0.002678,0.000431,0.003996
52729000,0.0324,0.013523,0.002678,0.000431,0.003996
52730000,0.0324,0.013523,0.002678,0.000431,0.004231
52731000,0.0324,0.013523,0.002678,0.000431,0.003996
52732000,0.0324,0.013523,0.002678,0.000431,0.004349
52733000,0.0324,0.013523,0.002678,0.000431,0.003996
52734000,0.0324,0.013523,0.002678,0.000431,0.003878
52735000,0.0324,0.013523,0.002678,0.000431,0.004231
52736000,0.0324,0.013523,0.002678,0.000431,0.004113
52737000,0.0324,0.013523,0.002678,0.000431,0.003996
52738000,0.0324,0.013523,0.002678,0.000431,0.004113
52739000,0.0324,0.013523,0.002678,0.000431,0.004231
52740000,0.0324,0.013523,0.002678,0.000431,0.003996
52741000,0.0324,0.013523,0.002678,0.000431,0.004113
52742000,0.0324,0.013523,0.002678,0.000431,0.004113
52743000,0.0324,0.013523,0.002678,0.000431,0.003996
52744000,0.0324,0.013523,0.002678,0.000431,0.004113
52745000,0.0324,0.013523,0.002678,0.000431,0.004231
52746000,0.0324,0.013523,0.002678,0.000431,0.003996
52747000,0.0324,0.013523,0.002678,0.000431,0.003996
52748000,0.0324,0.013523,0.002678,0.000431,0.003996
52749000,0.0324,0.013523,0.002678,0.000431,0.004113
52750000,0.0324,0.013523,0.002678,0.000431,0.004349
52751000,0.0324,0.013523,0.002678,0.000431,0.003761
52752000,0.0324,0.013523,0.002678,0.000431,0.004349
52753000,0.0324,0.013523,0.002678,0.000431,0.003996
52754000,0.0324,0.013523,0.002678,0.000431,0.003996
52755000,0.0324,0.013523,0.002678,0.000431,0.004349
52756000,0.0324,0.013523,0.002678,0.000431,0.003878
52757000,0.0324,0.013523,0.002678,0.000431,0.004113
52758000,0.0324,0.013523,0.002678,0.000431,0.004113
52759000,0.0324,0.013523,0.002678,0.000431,0.004231
52760000,0.0324,0.013523,0.002678,0.000431,0.003878
52761000,0.0324,0.013523,0.002678,0.000431,0.004231
52762000,0.0324,0.013523,0.002678,0.000431,0.004113
52763000,0.0324,0.013523,0.002678,0.000431,0.003996
52764000,0.0324,0.013523,0.002678,0.000431,0.004231
52765000,0.0324,0.013523,0.002678,0.000431,0.003996
52766000,0.0324,0.013523,0.002678,0.000431,0.003996
52767000,0.0324,0.013523,0.002678,0.000431,0.003996
52768000,0.0324,0.013523,0.002678,0.000431,0.004231
52769000,0.0324,0.013523,0.002678,0.000431,0.004584
52770000,0.0324,0.013523,0.002678,0.000431,0.002351
52771000,0.0324,0.013523,0.002678,0.000431,0.002703
52772000,0.0324,0.013523,0.002678,0.000431,0.002116
52773000,0.0324,0.013523,0.002678,0.000431,0.002821
52774000,0.0324,0.013523,0.002678,0.000431,0.002586
52775000,0.0324,0.013523,0.002678,0.000431,0.002351
52776000,0.0324,0.013523,0.002678,0.000431,0.002703
52777000,0.0324,0.013523,0.002678,0.000431,0.002233
52778000,0.0324,0.013523,0.002678,0.000431,0.002703
52779000,0.0324,0.013523,0.002678,0.000431,0.002586
52780000,0.0324,0.013523,0.002678,0.000431,0.002703
52781000,0.0324,0.013523,0.002678,0.000431,0.002586
52782000,0.0324,0.013523,0.002678,0.000431,0.003996
52783000,0.0324,0.013523,0.002678,0.000431,0.001998
52784000,0.0324,0.013523,0.002678,0.000431,0.001763
52785000,0.0324,0.013523,0.002678,0.000431,0.001645
52786000,0.0324,0.013523,0.002678,0.000431,0.001645
52787000,0.0324,0.013523,0.002678,0.000431,0.001763
52788000,0.0324,0.013523,0.002678,0.000431,0.002703
52789000,0.0324,0.013523,0.002678,0.000431,0.002233
52790000,0.0324,0.013523,0.002678,0.000431,0.232706
52791000,0.0324,0.013523,0.002678,0.000431,0.584703
52792000,0.0324,0.013523,0.002678,0.000431,0.291470
52793000,0.0324,0.013523,0.002678,0.000431,0.130691
52794000,0.0324,0.013523,0.002678,0.000431,0.134922
52795000,0.0324,0.013523,0.002678,0.000431,0.560374
52796000,0.0324,0.013523,0.002678,0.000431,0.244694
52797000,0.0324,0.013523,0.002678,0.000431,0.229297
52798000,0.0324,0.013523,0.002678,0.000431,0.305103
52799000,0.0324,0.013523,0.002678,0.000431,0.139271
52800000,0.0324,0.013523,0.002678,0.000431,0.135863
52801000,0.0324,0.013523,0.002678,0.000431,0.155607
52802000,0.0324,0.013523,0.002678,0.000431,0.197917
52803000,0.0324,0.013523,0.002678,0.000431,0.387725
52804000,0.0324,0.013523,0.002678,0.000431,0.035611
52805000,0.0324,0.013523,0.002678,0.000431,0.030675
52806000,0.0324,0.013523,0.002678,0.000431,0.021743
52807000,0.0324,0.013523,0.002678,0.000431,0.026914
52808000,0.0324,0.013523,0.002678,0.000431,0.022330
52809000,0.0324,0.013523,0.002678,0.000431,0.015396
52810000,0.0324,0.013523,0.002678,0.000431,0.014573
52811000,0.0324,0.013523,0.002678,0.000431,0.014221
52812000,0.0324,0.013523,0.002678,0.000431,0.014103
52813000,0.0324,0.013523,0.002678,0.000431,0.014691
52814000,0.0324,0.013523,0.002678,0.000431,0.013281
52815000,0.0324,0.013523,0.002678,0.000431,0.012811
52816000,0.0324,0.013523,0.002678,0.000431,0.014103
52817000,0.0324,0.013523,0.002678,0.000431,0.015044
52818000,0.0324,0.013523,0.002678,0.000431,0.011165
52819000,0.0324,0.013523,0.002678,0.000431,0.012223
52820000,0.0324,0.013523,0.002678,0.000431,0.010813
52821000,0.0324,0.013523,0.002678,0.000431,0.012693
52822000,0.0324,0.013523,0.002678,0.000431,0.011165
52823000,0.0324,0.013523,0.002678,0.000431,0.010578
52824000,0.0324,0.013523,0.002678,0.000431,0.009990
52825000,0.0324,0.013523,0.002678,0.000431,0.010813
52826000,0.0324,0.013523,0.002678,0.000431,0.008109
52827000,0.0324,0.013523,0.002678,0.000431,0.008345
52828000,0.0324,0.013523,0.002678,0.000431,0.008227
52829000,0.0324,0.013523,0.002678,0.000431,0.009520
52830000,0.0324,0.013523,0.002678,0.000431,0.007639
52831000,0.0324,0.013523,0.002678,0.000431,0.007404
52832000,0.0324,0.013523,0.002678,0.000431,0.007404
52833000,0.0324,0.013523,0.002678,0.000431,0.007639
52834000,0.0324,0.013523,0.002678,0.000431,0.007169
52835000,0.0324,0.013523,0.002678,0.000431,0.007404
52836000,0.0324,0.013523,0.002678,0.000431,0.009402
52837000,0.0324,0.013523,0.002678,0.000431,0.006347
52838000,0.0324,0.013523,0.002678,0.000431,0.006347
52839000,0.0324,0.013523,0.002678,0.000431,0.006699
52840000,0.0324,0.013523,0.002678,0.000431,0.006582
52841000,0.0324,0.013523,0.002678,0.000431,0.006699
52842000,0.0324,0.013523,0.002678,0.000431,0.006347
52843000,0.0324,0.013523,0.002678,0.000431,0.006934
52844000,0.0324,0.013523,0.002678,0.000431,0.005876
52845000,0.0324,0.013523,0.002678,0.000431,0.007052
52846000,0.0324,0.013523,0.002678,0.000431,0.006934
52847000,0.0324,0.013523,0.002678,0.000431,0.005994
52848000,0.0324,0.013523,0.002678,0.000431,0.006817
52849000,0.0324,0.013523,0.002678,0.000431,0.006464
52850000,0.0324,0.013523,0.002678,0.000431,0.008227
52851000,0.0324,0.013523,0.002678,0.000431,0.006464
52852000,0.0324,0.013523,0.002678,0.000431,0.005994
52853000,0.0324,0.013523,0.002678,0.000431,0.005054
52854000,0.0324,0.013523,0.002678,0.000431,0.004819
52855000,0.0324,0.013523,0.002678,0.000431,0.005171
52856000,0.0324,0.013523,0.002678,0.000431,0.004584
52857000,0.0324,0.013523,0.002678,0.000431,0.004701
52858000,0.0324,0.013523,0.002678,0.000431,0.004819
52859000,0.0324,0.013523,0.002678,0.000431,0.006582
52860000,0.0324,0.013523,0.002678,0.000431,0.003643
52861000,0.0324,0.013523,0.002678,0.000431,0.004349
52862000,0.0324,0.013523,0.002678,0.000431,0.003643
52863000,0.0324,0.013523,0.002678,0.000431,0.004349
52864000,0.0324,0.013523,0.002678,0.000431,0.003761
52865000,0.0324,0.013523,0.002678,0.000431,0.003761
52866000,0.0324,0.013523,0.002678,0.000431,0.005876
52867000,0.0324,0.013523,0.002678,0.000431,0.002938
52868000,0.0324,0.013523,0.002678,0.000431,0.002938
52869000,0.0324,0.013523,0.002678,0.000431,0.003408
52870000,0.0324,0.013523,0.002678,0.000431,0.003056
52871000,0.0324,0.013523,0.002678,0.000431,0.003291
52872000,0.0324,0.013523,0.002678,0.000431,0.002938
52873000,0.0324,0.013523,0.002678,0.000431,0.003173
52874000,0.0324,0.013523,0.002678,0.000431,0.003056
52875000,0.0324,0.013523,0.002678,0.000431,0.003056
52876000,0.0324,0.013523,0.002678,0.000431,0.003761
52877000,0.0324,0.013523,0.002678,0.000431,0.002586
52878000,0.0324,0.013523,0.002678,0.000431,0.003173
52879000,0.0324,0.013523,0.002678,0.000431,0.003291
52880000,0.0324,0.013523,0.002678,0.000431,0.003878
52881000,0.0324,0.013523,0.002678,0.000431,0.003056
52882000,0.0324,0.013523,0.002678,0.000431,0.002938
52883000,0.0324,0.013523,0.002678,0.000431,0.003408
52884000,0.0324,0.013523,0.002678,0.000431,0.002938
52885000,0.0324,0.013523,0.002678,0.000431,0.003408
52886000,0.0324,0.013523,0.002678,0.000431,0.003056
52887000,0.0324,0.013523,0.002678,0.000431,0.003056
52888000,0.0324,0.013523,0.002678,0.000431,0.003173
52889000,0.0324,0.013523,0.002678,0.000431,0.002821
52890000,0.0324,0.013523,0.002678,0.000431,0.002703
52891000,0.0324,0.013523,0.002678,0.000431,0.002468
52892000,0.0324,0.013523,0.002678,0.000431,0.002233
52893000,0.0324,0.013523,0.002678,0.000431,0.002703
52894000,0.0324,0.013523,0.002678,0.000431,0.002586
52895000,0.0324,0.013523,0.002678,0.000431,0.002233
52896000,0.0324,0.013523,0.002678,0.000431,0.002938
52897000,0.0324,0.013523,0.002678,0.000431,0.001880
52898000,0.0324,0.013523,0.002678,0.000431,0.003056
52899000,0.0324,0.013523,0.002678,0.000431,0.002468
52900000,0.0324,0.013523,0.002678,0.000431,0.002351
52901000,0.0324,0.013523,0.002678,0.000431,0.002703
52902000,0.0324,0.013523,0.002678,0.000431,0.002116
52903000,0.0324,0.013523,0.002678,0.000431,0.003056
52904000,0.0324,0.013523,0.002678,0.000431,0.002233
52905000,0.0324,0.013523,0.002678,0.000431,0.002586
52906000,0.0324,0.013523,0.002678,0.000431,0.002586
52907000,0.0324,0.013523,0.002678,0.000431,0.002233
52908000,0.0324,0.013523,0.002678,0.000431,0.002821
52909000,0.0324,0.013523,0.002678,0.000431,0.002351
52910000,0.0324,0.013523,0.002678,0.000431,0.002351
52911000,0.0324,0.013523,0.002678,0.000431,0.002703
52912000,0.0324,0.013523,0.002678,0.000431,0.002468
52913000,0.0324,0.013523,0.002678,0.000431,0.002468
52914000,0.0324,0.013523,0.002678,0.000431,0.002703
52915000,0.0324,0.013523,0.002678,0.000431,0.002351
52916000,0.0324,0.013523,0.002678,0.000431,0.002586
52917000,0.0324,0.013523,0.002678,0.000431,0.002116
52918000,0.0324,0.013523,0.002678,0.000431,0.002938
52919000,0.0324,0.013523,0.002678,0.000431,0.002586
52920000,0.0324,0.013523,0.002678,0.000431,0.002351
52921000,0.0324,0.013523,0.002678,0.000431,0.002468
52922000,0.0324,0.013523,0.002678,0.000431,0.002351
52923000,0.0324,0.013523,0.002678,0.000431,0.002821
52924000,0.0324,0.013523,0.002678,0.000431,0.002351
52925000,0.0324,0.013523,0.002678,0.000431,0.002351
52926000,0.0324,0.013523,0.002678,0.000431,0.002821
52927000,0.0324,0.013523,0.002678,0.000431,0.002116
52928000,0.0324,0.013523,0.002678,0.000431,0.003056
52929000,0.0324,0.013523,0.002678,0.000431,0.002116
52930000,0.0324,0.013523,0.002678,0.000431,0.002586
52931000,0.0324,0.013523,0.002678,0.000431,0.002468
52932000,0.0324,0.013523,0.002678,0.000431,0.002468
52933000,0.0324,0.013523,0.002678,0.000431,0.002821
52934000,0.0324,0.013523,0.002678,0.000431,0.002233
52935000,0.0324,0.013523,0.002678,0.000431,0.002703
52936000,0.0324,0.013523,0.002678,0.000431,0.002351
52937000,0.0324,0.013523,0.002678,0.000431,0.002703
52938000,0.0324,0.013523,0.002678,0.000431,0.002468
52939000,0.0324,0.013523,0.002678,0.000431,0.002351
52940000,0.0324,0.013523,0.002678,0.000431,0.002586
52941000,0.0324,0.013523,0.002678,0.000431,0.002468
52942000,0.0324,0.013523,0.002678,0.000431,0.002703
52943000,0.0324,0.013523,0.002678,0.000431,0.002468
52944000,0.0324,0.013523,0.002678,0.000431,0.002233
52945000,0.0324,0.013523,0.002678,0.000431,0.002703
52946000,0.0324,0.013523,0.002678,0.000431,0.002351
52947000,0.0324,0.013523,0.002678,0.000431,0.002586
52948000,0.0324,0.013523,0.002678,0.000431,0.002703
52949000,0.0324,0.013523,0.002678,0.000431,0.002116
52950000,0.0324,0.013523,0.002678,0.000431,0.002821
52951000,0.0324,0.013523,0.002678,0.000431,0.002586
52952000,0.0324,0.013523,0.002678,0.000431,0.002703
52953000,0.0324,0.013523,0.002678,0.000431,0.002233
52954000,0.0324,0.013523,0.002678,0.000431,0.002586
52955000,0.0324,0.013523,0.002678,0.000431,0.002351
52956000,0.0324,0.013523,0.002678,0.000431,0.002586
52957000,0.0324,0.013523,0.002678,0.000431,0.002586
52958000,0.0324,0.013523,0.002678,0.000431,0.002351
52959000,0.0324,0.013523,0.002678,0.000431,0.002468
52960000,0.0324,0.013523,0.002678,0.000431,0.002586
52961000,0.0324,0.013523,0.002678,0.000431,0.002468
52962000,0.0324,0.013523,0.002678,0.000431,0.002703
52963000,0.0324,0.013523,0.002678,0.000431,0.002233
52964000,0.0324,0.013523,0.002678,0.000431,0.002703
52965000,0.0324,0.013523,0.002678,0.000431,0.002586
52966000,0.0324,0.013523,0.002678,0.000431,0.002351
52967000,0.0324,0.013523,0.002678,0.000431,0.002703
52968000,0.0324,0.013523,0.002678,0.000431,0.002233
52969000,0.0324,0.013523,0.002678,0.000431,0.002703
52970000,0.0324,0.013523,0.002678,0.000431,0.002468
52971000,0.0324,0.013523,0.002678,0.000431,0.002586
52972000,0.0324,0.013523,0.002678,0.000431,0.002468
52973000,0.0324,0.013523,0.002678,0.000431,0.002468
52974000,0.0324,0.013523,0.002678,0.000431,0.002468
52975000,0.0324,0.013523,0.002678,0.000431,0.002586
52976000,0.0324,0.013523,0.002678,0.000431,0.002351
52977000,0.0324,0.013523,0.002678,0.000431,0.002821
52978000,0.0324,0.013523,0.002678,0.000431,0.001998
52979000,0.0324,0.013523,0.002678,0.000431,0.002938
52980000,0.0324,0.013523,0.002678,0.000431,0.002586
52981000,0.0324,0.013523,0.002678,0.000431,0.002116
52982000,0.0324,0.013523,0.002678,0.000431,0.002938
52983000,0.0324,0.013523,0.002678,0.000431,0.002116
52984000,0.0324,0.013523,0.002678,0.000431,0.002938
52985000,0.0324,0.013523,0.002678,0.000431,0.002351
52986000,0.0324,0.013523,0.002678,0.000431,0.002351
52987000,0.0324,0.013523,0.002678,0.000431,0.002586
52988000,0.0324,0.013523,0.002678,0.000431,0.002468
52989000,0.0324,0.013523,0.002678,0.000431,0.002586
52990000,0.0324,0.013523,0.002678,0.000431,0.002468
52991000,0.0324,0.013523,0.002678,0.000431,0.002468
52992000,0.0324,0.013523,0.002678,0.000431,0.002468
52993000,0.0324,0.013523,0.002678,0.000431,0.002586
52994000,0.0324,0.013523,0.002678,0.000431,0.002586
52995000,0.0324,0.013523,0.002678,0.000431,0.002586
52996000,0.0324,0.013523,0.002678,0.000431,0.002116
52997000,0.0324,0.013523,0.002678,0.000431,0.002821
52998000,0.0324,0.013523,0.002678,0.000431,0.002233
52999000,0.0324,0.013523,0.002678,0.000431,0.002586
