Cycle,Area(mm^2),PeakDynamic(W),SubthresholdLeakage(W),GateLeakage(W),RunTimeDynamic(W)
24000000,0.0324,0.013523,0.002678,0.000431,0.020920
24001000,0.0324,0.013523,0.002678,0.000431,0.020567
24002000,0.0324,0.013523,0.002678,0.000431,0.022565
24003000,0.0324,0.013523,0.002678,0.000431,0.017159
24004000,0.0324,0.013523,0.002678,0.000431,0.018334
24005000,0.0324,0.013523,0.002678,0.000431,0.016219
24006000,0.0324,0.013523,0.002678,0.000431,0.011400
24007000,0.0324,0.013523,0.002678,0.000431,0.011870
24008000,0.0324,0.013523,0.002678,0.000431,0.011165
24009000,0.0324,0.013523,0.002678,0.000431,0.011283
24010000,0.0324,0.013523,0.002678,0.000431,0.009755
24011000,0.0324,0.013523,0.002678,0.000431,0.009402
24012000,0.0324,0.013523,0.002678,0.000431,0.010813
24013000,0.0324,0.013523,0.002678,0.000431,0.013751
24014000,0.0324,0.013523,0.002678,0.000431,0.007404
24015000,0.0324,0.013523,0.002678,0.000431,0.005289
24016000,0.0324,0.013523,0.002678,0.000431,0.005171
24017000,0.0324,0.013523,0.002678,0.000431,0.005406
24018000,0.0324,0.013523,0.002678,0.000431,0.004584
24019000,0.0324,0.013523,0.002678,0.000431,0.005171
24020000,0.0324,0.013523,0.002678,0.000431,0.004584
24021000,0.0324,0.013523,0.002678,0.000431,0.005171
24022000,0.0324,0.013523,0.002678,0.000431,0.005171
24023000,0.0324,0.013523,0.002678,0.000431,0.004936
24024000,0.0324,0.013523,0.002678,0.000431,0.005054
24025000,0.0324,0.013523,0.002678,0.000431,0.004819
24026000,0.0324,0.013523,0.002678,0.000431,0.004936
24027000,0.0324,0.013523,0.002678,0.000431,0.005054
24028000,0.0324,0.013523,0.002678,0.000431,0.006229
24029000,0.0324,0.013523,0.002678,0.000431,0.004113
24030000,0.0324,0.013523,0.002678,0.000431,0.003996
24031000,0.0324,0.013523,0.002678,0.000431,0.004231
24032000,0.0324,0.013523,0.002678,0.000431,0.004466
24033000,0.0324,0.013523,0.002678,0.000431,0.003996
24034000,0.0324,0.013523,0.002678,0.000431,0.004113
24035000,0.0324,0.013523,0.002678,0.000431,0.004349
24036000,0.0324,0.013523,0.002678,0.000431,0.004231
24037000,0.0324,0.013523,0.002678,0.000431,0.003878
24038000,0.0324,0.013523,0.002678,0.000431,0.006464
24039000,0.0324,0.013523,0.002678,0.000431,0.003643
24040000,0.0324,0.013523,0.002678,0.000431,0.003291
24041000,0.0324,0.013523,0.002678,0.000431,0.003056
24042000,0.0324,0.013523,0.002678,0.000431,0.003526
24043000,0.0324,0.013523,0.002678,0.000431,0.003291
24044000,0.0324,0.013523,0.002678,0.000431,0.003173
24045000,0.0324,0.013523,0.002678,0.000431,0.003291
24046000,0.0324,0.013523,0.002678,0.000431,0.003408
24047000,0.0324,0.013523,0.002678,0.000431,0.003291
24048000,0.0324,0.013523,0.002678,0.000431,0.003056
24049000,0.0324,0.013523,0.002678,0.000431,0.003291
24050000,0.0324,0.013523,0.002678,0.000431,0.003173
24051000,0.0324,0.013523,0.002678,0.000431,0.003996
24052000,0.0324,0.013523,0.002678,0.000431,0.002703
24053000,0.0324,0.013523,0.002678,0.000431,0.001645
24054000,0.0324,0.013523,0.002678,0.000431,0.001645
24055000,0.0324,0.013523,0.002678,0.000431,0.001645
24056000,0.0324,0.013523,0.002678,0.000431,0.001763
24057000,0.0324,0.013523,0.002678,0.000431,0.001528
24058000,0.0324,0.013523,0.002678,0.000431,0.001645
24059000,0.0324,0.013523,0.002678,0.000431,0.001645
24060000,0.0324,0.013523,0.002678,0.000431,0.001880
24061000,0.0324,0.013523,0.002678,0.000431,0.001410
24062000,0.0324,0.013523,0.002678,0.000431,0.001645
24063000,0.0324,0.013523,0.002678,0.000431,0.001880
24064000,0.0324,0.013523,0.002678,0.000431,0.001645
24065000,0.0324,0.013523,0.002678,0.000431,0.001410
24066000,0.0324,0.013523,0.002678,0.000431,0.001645
24067000,0.0324,0.013523,0.002678,0.000431,0.001880
24068000,0.0324,0.013523,0.002678,0.000431,0.001645
24069000,0.0324,0.013523,0.002678,0.000431,0.001410
24070000,0.0324,0.013523,0.002678,0.000431,0.001880
24071000,0.0324,0.013523,0.002678,0.000431,0.001645
24072000,0.0324,0.013523,0.002678,0.000431,0.001645
24073000,0.0324,0.013523,0.002678,0.000431,0.001528
24074000,0.0324,0.013523,0.002678,0.000431,0.001763
24075000,0.0324,0.013523,0.002678,0.000431,0.001645
24076000,0.0324,0.013523,0.002678,0.000431,0.001410
24077000,0.0324,0.013523,0.002678,0.000431,0.001880
24078000,0.0324,0.013523,0.002678,0.000431,0.001645
24079000,0.0324,0.013523,0.002678,0.000431,0.001645
24080000,0.0324,0.013523,0.002678,0.000431,0.001645
24081000,0.0324,0.013523,0.002678,0.000431,0.001645
24082000,0.0324,0.013523,0.002678,0.000431,0.001645
24083000,0.0324,0.013523,0.002678,0.000431,0.001645
24084000,0.0324,0.013523,0.002678,0.000431,0.001645
24085000,0.0324,0.013523,0.002678,0.000431,0.001763
24086000,0.0324,0.013523,0.002678,0.000431,0.001528
24087000,0.0324,0.013523,0.002678,0.000431,0.001645
24088000,0.0324,0.013523,0.002678,0.000431,0.001645
24089000,0.0324,0.013523,0.002678,0.000431,0.001645
24090000,0.0324,0.013523,0.002678,0.000431,0.001528
24091000,0.0324,0.013523,0.002678,0.000431,0.001763
24092000,0.0324,0.013523,0.002678,0.000431,0.001880
24093000,0.0324,0.013523,0.002678,0.000431,0.001410
24094000,0.0324,0.013523,0.002678,0.000431,0.001645
24095000,0.0324,0.013523,0.002678,0.000431,0.001645
24096000,0.0324,0.013523,0.002678,0.000431,0.001880
24097000,0.0324,0.013523,0.002678,0.000431,0.001410
24098000,0.0324,0.013523,0.002678,0.000431,0.001645
24099000,0.0324,0.013523,0.002678,0.000431,0.001880
24100000,0.0324,0.013523,0.002678,0.000431,0.001645
24101000,0.0324,0.013523,0.002678,0.000431,0.001293
24102000,0.0324,0.013523,0.002678,0.000431,0.001763
24103000,0.0324,0.013523,0.002678,0.000431,0.001528
24104000,0.0324,0.013523,0.002678,0.000431,0.001763
24105000,0.0324,0.013523,0.002678,0.000431,0.001645
24106000,0.0324,0.013523,0.002678,0.000431,0.001645
24107000,0.0324,0.013523,0.002678,0.000431,0.001645
24108000,0.0324,0.013523,0.002678,0.000431,0.001645
24109000,0.0324,0.013523,0.002678,0.000431,0.001645
24110000,0.0324,0.013523,0.002678,0.000431,0.001645
24111000,0.0324,0.013523,0.002678,0.000431,0.001645
24112000,0.0324,0.013523,0.002678,0.000431,0.001645
24113000,0.0324,0.013523,0.002678,0.000431,0.001645
24114000,0.0324,0.013523,0.002678,0.000431,0.001645
24115000,0.0324,0.013523,0.002678,0.000431,0.001763
24116000,0.0324,0.013523,0.002678,0.000431,0.001528
24117000,0.0324,0.013523,0.002678,0.000431,0.001645
24118000,0.0324,0.013523,0.002678,0.000431,0.001645
24119000,0.0324,0.013523,0.002678,0.000431,0.001880
24120000,0.0324,0.013523,0.002678,0.000431,0.001293
24121000,0.0324,0.013523,0.002678,0.000431,0.001763
24122000,0.0324,0.013523,0.002678,0.000431,0.001880
24123000,0.0324,0.013523,0.002678,0.000431,0.001410
24124000,0.0324,0.013523,0.002678,0.000431,0.001645
24125000,0.0324,0.013523,0.002678,0.000431,0.001645
24126000,0.0324,0.013523,0.002678,0.000431,0.001880
24127000,0.0324,0.013523,0.002678,0.000431,0.001410
24128000,0.0324,0.013523,0.002678,0.000431,0.001645
24129000,0.0324,0.013523,0.002678,0.000431,0.001880
24130000,0.0324,0.013523,0.002678,0.000431,0.001645
24131000,0.0324,0.013523,0.002678,0.000431,0.001410
24132000,0.0324,0.013523,0.002678,0.000431,0.001763
24133000,0.0324,0.013523,0.002678,0.000431,0.001763
24134000,0.0324,0.013523,0.002678,0.000431,0.001645
24135000,0.0324,0.013523,0.002678,0.000431,0.001410
24136000,0.0324,0.013523,0.002678,0.000431,0.001880
24137000,0.0324,0.013523,0.002678,0.000431,0.001645
24138000,0.0324,0.013523,0.002678,0.000431,0.001645
24139000,0.0324,0.013523,0.002678,0.000431,0.001645
24140000,0.0324,0.013523,0.002678,0.000431,0.001645
24141000,0.0324,0.013523,0.002678,0.000431,0.001645
24142000,0.0324,0.013523,0.002678,0.000431,0.001410
24143000,0.0324,0.013523,0.002678,0.000431,0.001880
24144000,0.0324,0.013523,0.002678,0.000431,0.001645
24145000,0.0324,0.013523,0.002678,0.000431,0.001645
24146000,0.0324,0.013523,0.002678,0.000431,0.001645
24147000,0.0324,0.013523,0.002678,0.000431,0.001645
24148000,0.0324,0.013523,0.002678,0.000431,0.001645
24149000,0.0324,0.013523,0.002678,0.000431,0.001528
24150000,0.0324,0.013523,0.002678,0.000431,0.001763
24151000,0.0324,0.013523,0.002678,0.000431,0.001880
24152000,0.0324,0.013523,0.002678,0.000431,0.001410
24153000,0.0324,0.013523,0.002678,0.000431,0.001645
24154000,0.0324,0.013523,0.002678,0.000431,0.001645
24155000,0.0324,0.013523,0.002678,0.000431,0.001645
24156000,0.0324,0.013523,0.002678,0.000431,0.001645
24157000,0.0324,0.013523,0.002678,0.000431,0.001645
24158000,0.0324,0.013523,0.002678,0.000431,0.001880
24159000,0.0324,0.013523,0.002678,0.000431,0.001410
24160000,0.0324,0.013523,0.002678,0.000431,0.001645
24161000,0.0324,0.013523,0.002678,0.000431,0.001763
24162000,0.0324,0.013523,0.002678,0.000431,0.001763
24163000,0.0324,0.013523,0.002678,0.000431,0.001410
24164000,0.0324,0.013523,0.002678,0.000431,0.001645
24165000,0.0324,0.013523,0.002678,0.000431,0.001880
24166000,0.0324,0.013523,0.002678,0.000431,0.001645
24167000,0.0324,0.013523,0.002678,0.000431,0.001410
24168000,0.0324,0.013523,0.002678,0.000431,0.001880
24169000,0.0324,0.013523,0.002678,0.000431,0.001645
24170000,0.0324,0.013523,0.002678,0.000431,0.001645
24171000,0.0324,0.013523,0.002678,0.000431,0.001410
24172000,0.0324,0.013523,0.002678,0.000431,0.001880
24173000,0.0324,0.013523,0.002678,0.000431,0.001645
24174000,0.0324,0.013523,0.002678,0.000431,0.001410
24175000,0.0324,0.013523,0.002678,0.000431,0.001880
24176000,0.0324,0.013523,0.002678,0.000431,0.001645
24177000,0.0324,0.013523,0.002678,0.000431,0.001645
24178000,0.0324,0.013523,0.002678,0.000431,0.001528
24179000,0.0324,0.013523,0.002678,0.000431,0.001763
24180000,0.0324,0.013523,0.002678,0.000431,0.001645
24181000,0.0324,0.013523,0.002678,0.000431,0.001645
24182000,0.0324,0.013523,0.002678,0.000431,0.001645
24183000,0.0324,0.013523,0.002678,0.000431,0.001645
24184000,0.0324,0.013523,0.002678,0.000431,0.001645
24185000,0.0324,0.013523,0.002678,0.000431,0.001645
24186000,0.0324,0.013523,0.002678,0.000431,0.001645
24187000,0.0324,0.013523,0.002678,0.000431,0.001645
24188000,0.0324,0.013523,0.002678,0.000431,0.001645
24189000,0.0324,0.013523,0.002678,0.000431,0.001645
24190000,0.0324,0.013523,0.002678,0.000431,0.001763
24191000,0.0324,0.013523,0.002678,0.000431,0.001528
24192000,0.0324,0.013523,0.002678,0.000431,0.001645
24193000,0.0324,0.013523,0.002678,0.000431,0.001645
24194000,0.0324,0.013523,0.002678,0.000431,0.001880
24195000,0.0324,0.013523,0.002678,0.000431,0.001293
24196000,0.0324,0.013523,0.002678,0.000431,0.001763
24197000,0.0324,0.013523,0.002678,0.000431,0.001880
24198000,0.0324,0.013523,0.002678,0.000431,0.001645
24199000,0.0324,0.013523,0.002678,0.000431,0.001410
24200000,0.0324,0.013523,0.002678,0.000431,0.001645
24201000,0.0324,0.013523,0.002678,0.000431,0.001880
24202000,0.0324,0.013523,0.002678,0.000431,0.001645
24203000,0.0324,0.013523,0.002678,0.000431,0.001410
24204000,0.0324,0.013523,0.002678,0.000431,0.001880
24205000,0.0324,0.013523,0.002678,0.000431,0.001645
24206000,0.0324,0.013523,0.002678,0.000431,0.001410
24207000,0.0324,0.013523,0.002678,0.000431,0.001763
24208000,0.0324,0.013523,0.002678,0.000431,0.001763
24209000,0.0324,0.013523,0.002678,0.000431,0.001645
24210000,0.0324,0.013523,0.002678,0.000431,0.001410
24211000,0.0324,0.013523,0.002678,0.000431,0.001880
24212000,0.0324,0.013523,0.002678,0.000431,0.001645
24213000,0.0324,0.013523,0.002678,0.000431,0.001645
24214000,0.0324,0.013523,0.002678,0.000431,0.001645
24215000,0.0324,0.013523,0.002678,0.000431,0.001645
24216000,0.0324,0.013523,0.002678,0.000431,0.001645
24217000,0.0324,0.013523,0.002678,0.000431,0.001645
24218000,0.0324,0.013523,0.002678,0.000431,0.001645
24219000,0.0324,0.013523,0.002678,0.000431,0.001763
24220000,0.0324,0.013523,0.002678,0.000431,0.001528
24221000,0.0324,0.013523,0.002678,0.000431,0.001645
24222000,0.0324,0.013523,0.002678,0.000431,0.001645
24223000,0.0324,0.013523,0.002678,0.000431,0.001645
24224000,0.0324,0.013523,0.002678,0.000431,0.001528
24225000,0.0324,0.013523,0.002678,0.000431,0.001763
24226000,0.0324,0.013523,0.002678,0.000431,0.001880
24227000,0.0324,0.013523,0.002678,0.000431,0.001410
24228000,0.0324,0.013523,0.002678,0.000431,0.001645
24229000,0.0324,0.013523,0.002678,0.000431,0.001645
24230000,0.0324,0.013523,0.002678,0.000431,0.001880
24231000,0.0324,0.013523,0.002678,0.000431,0.001410
24232000,0.0324,0.013523,0.002678,0.000431,0.001645
24233000,0.0324,0.013523,0.002678,0.000431,0.001880
24234000,0.0324,0.013523,0.002678,0.000431,0.001410
24235000,0.0324,0.013523,0.002678,0.000431,0.001645
24236000,0.0324,0.013523,0.002678,0.000431,0.001763
24237000,0.0324,0.013523,0.002678,0.000431,0.001763
24238000,0.0324,0.013523,0.002678,0.000431,0.001410
24239000,0.0324,0.013523,0.002678,0.000431,0.001645
24240000,0.0324,0.013523,0.002678,0.000431,0.001880
24241000,0.0324,0.013523,0.002678,0.000431,0.001645
24242000,0.0324,0.013523,0.002678,0.000431,0.001410
24243000,0.0324,0.013523,0.002678,0.000431,0.001880
24244000,0.0324,0.013523,0.002678,0.000431,0.001645
24245000,0.0324,0.013523,0.002678,0.000431,0.001645
24246000,0.0324,0.013523,0.002678,0.000431,0.001410
24247000,0.0324,0.013523,0.002678,0.000431,0.001880
24248000,0.0324,0.013523,0.002678,0.000431,0.001645
24249000,0.0324,0.013523,0.002678,0.000431,0.001645
24250000,0.0324,0.013523,0.002678,0.000431,0.001645
24251000,0.0324,0.013523,0.002678,0.000431,0.001645
24252000,0.0324,0.013523,0.002678,0.000431,0.001645
24253000,0.0324,0.013523,0.002678,0.000431,0.001528
24254000,0.0324,0.013523,0.002678,0.000431,0.001763
24255000,0.0324,0.013523,0.002678,0.000431,0.001645
24256000,0.0324,0.013523,0.002678,0.000431,0.001645
24257000,0.0324,0.013523,0.002678,0.000431,0.001645
24258000,0.0324,0.013523,0.002678,0.000431,0.001645
24259000,0.0324,0.013523,0.002678,0.000431,0.001645
24260000,0.0324,0.013523,0.002678,0.000431,0.001645
24261000,0.0324,0.013523,0.002678,0.000431,0.001645
24262000,0.0324,0.013523,0.002678,0.000431,0.001645
24263000,0.0324,0.013523,0.002678,0.000431,0.039254
24264000,0.0324,0.013523,0.002678,0.000431,0.552382
24265000,0.0324,0.013523,0.002678,0.000431,0.583292
24266000,0.0324,0.013523,0.002678,0.000431,0.131161
24267000,0.0324,0.013523,0.002678,0.000431,0.135392
24268000,0.0324,0.013523,0.002678,0.000431,0.531462
24269000,0.0324,0.013523,0.002678,0.000431,0.239875
24270000,0.0324,0.013523,0.002678,0.000431,0.225654
24271000,0.0324,0.013523,0.002678,0.000431,0.341772
24272000,0.0324,0.013523,0.002678,0.000431,0.147263
24273000,0.0324,0.013523,0.002678,0.000431,0.149848
24274000,0.0324,0.013523,0.002678,0.000431,0.105775
24275000,0.0324,0.013523,0.002678,0.000431,0.443669
24276000,0.0324,0.013523,0.002678,0.000431,0.145030
24277000,0.0324,0.013523,0.002678,0.000431,0.052065
24278000,0.0324,0.013523,0.002678,0.000431,0.041370
24279000,0.0324,0.013523,0.002678,0.000431,0.029382
24280000,0.0324,0.013523,0.002678,0.000431,0.027737
24281000,0.0324,0.013523,0.002678,0.000431,0.021273
24282000,0.0324,0.013523,0.002678,0.000431,0.018099
24283000,0.0324,0.013523,0.002678,0.000431,0.016571
24284000,0.0324,0.013523,0.002678,0.000431,0.017982
24285000,0.0324,0.013523,0.002678,0.000431,0.013398
24286000,0.0324,0.013523,0.002678,0.000431,0.013163
24287000,0.0324,0.013523,0.002678,0.000431,0.011518
24288000,0.0324,0.013523,0.002678,0.000431,0.009637
24289000,0.0324,0.013523,0.002678,0.000431,0.008109
24290000,0.0324,0.013523,0.002678,0.000431,0.008580
24291000,0.0324,0.013523,0.002678,0.000431,0.009755
24292000,0.0324,0.013523,0.002678,0.000431,0.007052
24293000,0.0324,0.013523,0.002678,0.000431,0.007992
24294000,0.0324,0.013523,0.002678,0.000431,0.009755
24295000,0.0324,0.013523,0.002678,0.000431,0.006111
24296000,0.0324,0.013523,0.002678,0.000431,0.007169
24297000,0.0324,0.013523,0.002678,0.000431,0.006699
24298000,0.0324,0.013523,0.002678,0.000431,0.006464
24299000,0.0324,0.013523,0.002678,0.000431,0.006699
24300000,0.0324,0.013523,0.002678,0.000431,0.006582
24301000,0.0324,0.013523,0.002678,0.000431,0.007052
24302000,0.0324,0.013523,0.002678,0.000431,0.006464
24303000,0.0324,0.013523,0.002678,0.000431,0.006934
24304000,0.0324,0.013523,0.002678,0.000431,0.006934
24305000,0.0324,0.013523,0.002678,0.000431,0.006582
24306000,0.0324,0.013523,0.002678,0.000431,0.006699
24307000,0.0324,0.013523,0.002678,0.000431,0.006817
24308000,0.0324,0.013523,0.002678,0.000431,0.007522
24309000,0.0324,0.013523,0.002678,0.000431,0.006111
24310000,0.0324,0.013523,0.002678,0.000431,0.005641
24311000,0.0324,0.013523,0.002678,0.000431,0.005876
24312000,0.0324,0.013523,0.002678,0.000431,0.005876
24313000,0.0324,0.013523,0.002678,0.000431,0.007169
24314000,0.0324,0.013523,0.002678,0.000431,0.007052
24315000,0.0324,0.013523,0.002678,0.000431,0.004819
24316000,0.0324,0.013523,0.002678,0.000431,0.004584
24317000,0.0324,0.013523,0.002678,0.000431,0.003761
24318000,0.0324,0.013523,0.002678,0.000431,0.003056
24319000,0.0324,0.013523,0.002678,0.000431,0.003056
24320000,0.0324,0.013523,0.002678,0.000431,0.003761
24321000,0.0324,0.013523,0.002678,0.000431,0.004819
24322000,0.0324,0.013523,0.002678,0.000431,0.002586
24323000,0.0324,0.013523,0.002678,0.000431,0.002703
24324000,0.0324,0.013523,0.002678,0.000431,0.001998
24325000,0.0324,0.013523,0.002678,0.000431,0.002821
24326000,0.0324,0.013523,0.002678,0.000431,0.002233
24327000,0.0324,0.013523,0.002678,0.000431,0.002468
24328000,0.0324,0.013523,0.002678,0.000431,0.004584
24329000,0.0324,0.013523,0.002678,0.000431,0.001410
24330000,0.0324,0.013523,0.002678,0.000431,0.001645
24331000,0.0324,0.013523,0.002678,0.000431,0.001645
24332000,0.0324,0.013523,0.002678,0.000431,0.001410
24333000,0.0324,0.013523,0.002678,0.000431,0.001645
24334000,0.0324,0.013523,0.002678,0.000431,0.001645
24335000,0.0324,0.013523,0.002678,0.000431,0.001410
24336000,0.0324,0.013523,0.002678,0.000431,0.001880
24337000,0.0324,0.013523,0.002678,0.000431,0.001410
24338000,0.0324,0.013523,0.002678,0.000431,0.001645
24339000,0.0324,0.013523,0.002678,0.000431,0.001293
24340000,0.0324,0.013523,0.002678,0.000431,0.001763
24341000,0.0324,0.013523,0.002678,0.000431,0.001880
24342000,0.0324,0.013523,0.002678,0.000431,0.001175
24343000,0.0324,0.013523,0.002678,0.000431,0.001880
24344000,0.0324,0.013523,0.002678,0.000431,0.001293
24345000,0.0324,0.013523,0.002678,0.000431,0.001763
24346000,0.0324,0.013523,0.002678,0.000431,0.001645
24347000,0.0324,0.013523,0.002678,0.000431,0.001410
24348000,0.0324,0.013523,0.002678,0.000431,0.001645
24349000,0.0324,0.013523,0.002678,0.000431,0.001528
24350000,0.0324,0.013523,0.002678,0.000431,0.001763
24351000,0.0324,0.013523,0.002678,0.000431,0.001410
24352000,0.0324,0.013523,0.002678,0.000431,0.001645
24353000,0.0324,0.013523,0.002678,0.000431,0.001645
24354000,0.0324,0.013523,0.002678,0.000431,0.001528
24355000,0.0324,0.013523,0.002678,0.000431,0.001763
24356000,0.0324,0.013523,0.002678,0.000431,0.001410
24357000,0.0324,0.013523,0.002678,0.000431,0.000823
24358000,0.0324,0.013523,0.002678,0.000431,0.000940
24359000,0.0324,0.013523,0.002678,0.000431,0.000705
24360000,0.0324,0.013523,0.002678,0.000431,0.000940
24361000,0.0324,0.013523,0.002678,0.000431,0.000823
24362000,0.0324,0.013523,0.002678,0.000431,0.000823
24363000,0.0324,0.013523,0.002678,0.000431,0.000940
24364000,0.0324,0.013523,0.002678,0.000431,0.000823
24365000,0.0324,0.013523,0.002678,0.000431,0.000823
24366000,0.0324,0.013523,0.002678,0.000431,0.000940
24367000,0.0324,0.013523,0.002678,0.000431,0.000705
24368000,0.0324,0.013523,0.002678,0.000431,0.000940
24369000,0.0324,0.013523,0.002678,0.000431,0.003056
24370000,0.0324,0.013523,0.002678,0.000431,0.450015
24371000,0.0324,0.013523,0.002678,0.000431,0.642056
24372000,0.0324,0.013523,0.002678,0.000431,0.133042
24373000,0.0324,0.013523,0.002678,0.000431,0.133042
24374000,0.0324,0.013523,0.002678,0.000431,0.297346
24375000,0.0324,0.013523,0.002678,0.000431,0.524646
24376000,0.0324,0.013523,0.002678,0.000431,0.233293
24377000,0.0324,0.013523,0.002678,0.000431,0.319912
24378000,0.0324,0.013523,0.002678,0.000431,0.152904
24379000,0.0324,0.013523,0.002678,0.000431,0.139859
24380000,0.0324,0.013523,0.002678,0.000431,0.124227
24381000,0.0324,0.013523,0.002678,0.000431,0.304633
24382000,0.0324,0.013523,0.002678,0.000431,0.310509
24383000,0.0324,0.013523,0.002678,0.000431,0.062055
24384000,0.0324,0.013523,0.002678,0.000431,0.046659
24385000,0.0324,0.013523,0.002678,0.000431,0.043015
24386000,0.0324,0.013523,0.002678,0.000431,0.043015
24387000,0.0324,0.013523,0.002678,0.000431,0.030322
24388000,0.0324,0.013523,0.002678,0.000431,0.024916
24389000,0.0324,0.013523,0.002678,0.000431,0.017277
24390000,0.0324,0.013523,0.002678,0.000431,0.015631
24391000,0.0324,0.013523,0.002678,0.000431,0.016101
24392000,0.0324,0.013523,0.002678,0.000431,0.013633
24393000,0.0324,0.013523,0.002678,0.000431,0.014926
24394000,0.0324,0.013523,0.002678,0.000431,0.010460
24395000,0.0324,0.013523,0.002678,0.000431,0.009285
24396000,0.0324,0.013523,0.002678,0.000431,0.011048
24397000,0.0324,0.013523,0.002678,0.000431,0.009990
24398000,0.0324,0.013523,0.002678,0.000431,0.009872
24399000,0.0324,0.013523,0.002678,0.000431,0.007404
24400000,0.0324,0.013523,0.002678,0.000431,0.008345
24401000,0.0324,0.013523,0.002678,0.000431,0.006347
24402000,0.0324,0.013523,0.002678,0.000431,0.008227
24403000,0.0324,0.013523,0.002678,0.000431,0.006934
24404000,0.0324,0.013523,0.002678,0.000431,0.006229
24405000,0.0324,0.013523,0.002678,0.000431,0.003526
24406000,0.0324,0.013523,0.002678,0.000431,0.003173
24407000,0.0324,0.013523,0.002678,0.000431,0.003526
24408000,0.0324,0.013523,0.002678,0.000431,0.003526
24409000,0.0324,0.013523,0.002678,0.000431,0.003291
24410000,0.0324,0.013523,0.002678,0.000431,0.003526
24411000,0.0324,0.013523,0.002678,0.000431,0.003878
24412000,0.0324,0.013523,0.002678,0.000431,0.003878
24413000,0.0324,0.013523,0.002678,0.000431,0.006347
24414000,0.0324,0.013523,0.002678,0.000431,0.000705
24415000,0.0324,0.013523,0.002678,0.000431,0.000940
24416000,0.0324,0.013523,0.002678,0.000431,0.000705
24417000,0.0324,0.013523,0.002678,0.000431,0.000940
24418000,0.0324,0.013523,0.002678,0.000431,0.000823
24419000,0.0324,0.013523,0.002678,0.000431,0.000823
24420000,0.0324,0.013523,0.002678,0.000431,0.000823
24421000,0.0324,0.013523,0.002678,0.000431,0.000823
24422000,0.0324,0.013523,0.002678,0.000431,0.064993
24423000,0.0324,0.013523,0.002678,0.000431,0.495029
24424000,0.0324,0.013523,0.002678,0.000431,0.592342
24425000,0.0324,0.013523,0.002678,0.000431,0.131632
24426000,0.0324,0.013523,0.002678,0.000431,0.134452
24427000,0.0324,0.013523,0.002678,0.000431,0.577063
24428000,0.0324,0.013523,0.002678,0.000431,0.233528
24429000,0.0324,0.013523,0.002678,0.000431,0.340832
24430000,0.0324,0.013523,0.002678,0.000431,0.280540
24431000,0.0324,0.013523,0.002678,0.000431,0.136685
24432000,0.0324,0.013523,0.002678,0.000431,0.156665
24433000,0.0324,0.013523,0.002678,0.000431,0.157723
24434000,0.0324,0.013523,0.002678,0.000431,0.425922
24435000,0.0324,0.013523,0.002678,0.000431,0.047011
24436000,0.0324,0.013523,0.002678,0.000431,0.026914
24437000,0.0324,0.013523,0.002678,0.000431,0.018922
24438000,0.0324,0.013523,0.002678,0.000431,0.019627
24439000,0.0324,0.013523,0.002678,0.000431,0.011165
24440000,0.0324,0.013523,0.002678,0.000431,0.009402
24441000,0.0324,0.013523,0.002678,0.000431,0.008932
24442000,0.0324,0.013523,0.002678,0.000431,0.007639
24443000,0.0324,0.013523,0.002678,0.000431,0.008109
24444000,0.0324,0.013523,0.002678,0.000431,0.009167
24445000,0.0324,0.013523,0.002678,0.000431,0.006817
24446000,0.0324,0.013523,0.002678,0.000431,0.008227
24447000,0.0324,0.013523,0.002678,0.000431,0.009050
24448000,0.0324,0.013523,0.002678,0.000431,0.005289
24449000,0.0324,0.013523,0.002678,0.000431,0.004113
24450000,0.0324,0.013523,0.002678,0.000431,0.006582
24451000,0.0324,0.013523,0.002678,0.000431,0.003173
24452000,0.0324,0.013523,0.002678,0.000431,0.003408
24453000,0.0324,0.013523,0.002678,0.000431,0.002938
24454000,0.0324,0.013523,0.002678,0.000431,0.003761
24455000,0.0324,0.013523,0.002678,0.000431,0.003173
24456000,0.0324,0.013523,0.002678,0.000431,0.003173
24457000,0.0324,0.013523,0.002678,0.000431,0.003173
24458000,0.0324,0.013523,0.002678,0.000431,0.003408
24459000,0.0324,0.013523,0.002678,0.000431,0.003526
24460000,0.0324,0.013523,0.002678,0.000431,0.002821
24461000,0.0324,0.013523,0.002678,0.000431,0.003761
24462000,0.0324,0.013523,0.002678,0.000431,0.003056
24463000,0.0324,0.013523,0.002678,0.000431,0.003408
24464000,0.0324,0.013523,0.002678,0.000431,0.003291
24465000,0.0324,0.013523,0.002678,0.000431,0.003173
24466000,0.0324,0.013523,0.002678,0.000431,0.003526
24467000,0.0324,0.013523,0.002678,0.000431,0.003173
24468000,0.0324,0.013523,0.002678,0.000431,0.003408
24469000,0.0324,0.013523,0.002678,0.000431,0.003056
24470000,0.0324,0.013523,0.002678,0.000431,0.003526
24471000,0.0324,0.013523,0.002678,0.000431,0.002938
24472000,0.0324,0.013523,0.002678,0.000431,0.003761
24473000,0.0324,0.013523,0.002678,0.000431,0.003173
24474000,0.0324,0.013523,0.002678,0.000431,0.004819
24475000,0.0324,0.013523,0.002678,0.000431,0.001998
24476000,0.0324,0.013523,0.002678,0.000431,0.002703
24477000,0.0324,0.013523,0.002678,0.000431,0.002821
24478000,0.0324,0.013523,0.002678,0.000431,0.001998
24479000,0.0324,0.013523,0.002678,0.000431,0.002703
24480000,0.0324,0.013523,0.002678,0.000431,0.002233
24481000,0.0324,0.013523,0.002678,0.000431,0.002703
24482000,0.0324,0.013523,0.002678,0.000431,0.002468
24483000,0.0324,0.013523,0.002678,0.000431,0.002233
24484000,0.0324,0.013523,0.002678,0.000431,0.002586
24485000,0.0324,0.013523,0.002678,0.000431,0.002351
24486000,0.0324,0.013523,0.002678,0.000431,0.002468
24487000,0.0324,0.013523,0.002678,0.000431,0.002468
24488000,0.0324,0.013523,0.002678,0.000431,0.002586
24489000,0.0324,0.013523,0.002678,0.000431,0.002233
24490000,0.0324,0.013523,0.002678,0.000431,0.002468
24491000,0.0324,0.013523,0.002678,0.000431,0.002586
24492000,0.0324,0.013523,0.002678,0.000431,0.002586
24493000,0.0324,0.013523,0.002678,0.000431,0.002233
24494000,0.0324,0.013523,0.002678,0.000431,0.002468
24495000,0.0324,0.013523,0.002678,0.000431,0.002351
24496000,0.0324,0.013523,0.002678,0.000431,0.002586
24497000,0.0324,0.013523,0.002678,0.000431,0.002703
24498000,0.0324,0.013523,0.002678,0.000431,0.002468
24499000,0.0324,0.013523,0.002678,0.000431,0.002351
24500000,0.0324,0.013523,0.002678,0.000431,0.003526
24501000,0.0324,0.013523,0.002678,0.000431,0.000823
24502000,0.0324,0.013523,0.002678,0.000431,0.000823
24503000,0.0324,0.013523,0.002678,0.000431,0.000940
24504000,0.0324,0.013523,0.002678,0.000431,0.000823
24505000,0.0324,0.013523,0.002678,0.000431,0.000940
24506000,0.0324,0.013523,0.002678,0.000431,0.000823
24507000,0.0324,0.013523,0.002678,0.000431,0.000940
24508000,0.0324,0.013523,0.002678,0.000431,0.000823
24509000,0.0324,0.013523,0.002678,0.000431,0.000823
24510000,0.0324,0.013523,0.002678,0.000431,0.000940
24511000,0.0324,0.013523,0.002678,0.000431,0.000940
24512000,0.0324,0.013523,0.002678,0.000431,0.000823
24513000,0.0324,0.013523,0.002678,0.000431,0.000823
24514000,0.0324,0.013523,0.002678,0.000431,0.000940
24515000,0.0324,0.013523,0.002678,0.000431,0.000940
24516000,0.0324,0.013523,0.002678,0.000431,0.000705
24517000,0.0324,0.013523,0.002678,0.000431,0.000940
24518000,0.0324,0.013523,0.002678,0.000431,0.000940
24519000,0.0324,0.013523,0.002678,0.000431,0.000823
24520000,0.0324,0.013523,0.002678,0.000431,0.000823
24521000,0.0324,0.013523,0.002678,0.000431,0.000940
24522000,0.0324,0.013523,0.002678,0.000431,0.000940
24523000,0.0324,0.013523,0.002678,0.000431,0.000823
24524000,0.0324,0.013523,0.002678,0.000431,0.000823
24525000,0.0324,0.013523,0.002678,0.000431,0.000940
24526000,0.0324,0.013523,0.002678,0.000431,0.000823
24527000,0.0324,0.013523,0.002678,0.000431,0.000940
24528000,0.0324,0.013523,0.002678,0.000431,0.000823
24529000,0.0324,0.013523,0.002678,0.000431,0.000940
24530000,0.0324,0.013523,0.002678,0.000431,0.000940
24531000,0.0324,0.013523,0.002678,0.000431,0.000705
24532000,0.0324,0.013523,0.002678,0.000431,0.000940
24533000,0.0324,0.013523,0.002678,0.000431,0.000940
24534000,0.0324,0.013523,0.002678,0.000431,0.000940
24535000,0.0324,0.013523,0.002678,0.000431,0.000705
24536000,0.0324,0.013523,0.002678,0.000431,0.000940
24537000,0.0324,0.013523,0.002678,0.000431,0.000940
24538000,0.0324,0.013523,0.002678,0.000431,0.000823
24539000,0.0324,0.013523,0.002678,0.000431,0.000823
24540000,0.0324,0.013523,0.002678,0.000431,0.000940
24541000,0.0324,0.013523,0.002678,0.000431,0.000940
24542000,0.0324,0.013523,0.002678,0.000431,0.000823
24543000,0.0324,0.013523,0.002678,0.000431,0.000823
24544000,0.0324,0.013523,0.002678,0.000431,0.000940
24545000,0.0324,0.013523,0.002678,0.000431,0.000823
24546000,0.0324,0.013523,0.002678,0.000431,0.000940
24547000,0.0324,0.013523,0.002678,0.000431,0.000823
24548000,0.0324,0.013523,0.002678,0.000431,0.000940
24549000,0.0324,0.013523,0.002678,0.000431,0.000823
24550000,0.0324,0.013523,0.002678,0.000431,0.000823
24551000,0.0324,0.013523,0.002678,0.000431,0.000940
24552000,0.0324,0.013523,0.002678,0.000431,0.000940
24553000,0.0324,0.013523,0.002678,0.000431,0.000823
24554000,0.0324,0.013523,0.002678,0.000431,0.000823
24555000,0.0324,0.013523,0.002678,0.000431,0.000940
24556000,0.0324,0.013523,0.002678,0.000431,0.000940
24557000,0.0324,0.013523,0.002678,0.000431,0.000823
24558000,0.0324,0.013523,0.002678,0.000431,0.000823
24559000,0.0324,0.013523,0.002678,0.000431,0.000940
24560000,0.0324,0.013523,0.002678,0.000431,0.000823
24561000,0.0324,0.013523,0.002678,0.000431,0.000940
24562000,0.0324,0.013523,0.002678,0.000431,0.000823
24563000,0.0324,0.013523,0.002678,0.000431,0.000940
24564000,0.0324,0.013523,0.002678,0.000431,0.000823
24565000,0.0324,0.013523,0.002678,0.000431,0.000823
24566000,0.0324,0.013523,0.002678,0.000431,0.000940
24567000,0.0324,0.013523,0.002678,0.000431,0.000940
24568000,0.0324,0.013523,0.002678,0.000431,0.000823
24569000,0.0324,0.013523,0.002678,0.000431,0.000823
24570000,0.0324,0.013523,0.002678,0.000431,0.000940
24571000,0.0324,0.013523,0.002678,0.000431,0.000940
24572000,0.0324,0.013523,0.002678,0.000431,0.000705
24573000,0.0324,0.013523,0.002678,0.000431,0.000940
24574000,0.0324,0.013523,0.002678,0.000431,0.000940
24575000,0.0324,0.013523,0.002678,0.000431,0.000940
24576000,0.0324,0.013523,0.002678,0.000431,0.000705
24577000,0.0324,0.013523,0.002678,0.000431,0.000940
24578000,0.0324,0.013523,0.002678,0.000431,0.000940
24579000,0.0324,0.013523,0.002678,0.000431,0.000823
24580000,0.0324,0.013523,0.002678,0.000431,0.000823
24581000,0.0324,0.013523,0.002678,0.000431,0.000940
24582000,0.0324,0.013523,0.002678,0.000431,0.000940
24583000,0.0324,0.013523,0.002678,0.000431,0.000823
24584000,0.0324,0.013523,0.002678,0.000431,0.000823
24585000,0.0324,0.013523,0.002678,0.000431,0.000940
24586000,0.0324,0.013523,0.002678,0.000431,0.000823
24587000,0.0324,0.013523,0.002678,0.000431,0.000940
24588000,0.0324,0.013523,0.002678,0.000431,0.000823
24589000,0.0324,0.013523,0.002678,0.000431,0.000940
24590000,0.0324,0.013523,0.002678,0.000431,0.000940
24591000,0.0324,0.013523,0.002678,0.000431,0.000705
24592000,0.0324,0.013523,0.002678,0.000431,0.000940
24593000,0.0324,0.013523,0.002678,0.000431,0.000940
24594000,0.0324,0.013523,0.002678,0.000431,0.000940
24595000,0.0324,0.013523,0.002678,0.000431,0.000705
24596000,0.0324,0.013523,0.002678,0.000431,0.000940
24597000,0.0324,0.013523,0.002678,0.000431,0.000940
24598000,0.0324,0.013523,0.002678,0.000431,0.000823
24599000,0.0324,0.013523,0.002678,0.000431,0.000823
24600000,0.0324,0.013523,0.002678,0.000431,0.000940
24601000,0.0324,0.013523,0.002678,0.000431,0.000823
24602000,0.0324,0.013523,0.002678,0.000431,0.000940
24603000,0.0324,0.013523,0.002678,0.000431,0.000823
24604000,0.0324,0.013523,0.002678,0.000431,0.000940
24605000,0.0324,0.013523,0.002678,0.000431,0.000823
24606000,0.0324,0.013523,0.002678,0.000431,0.000823
24607000,0.0324,0.013523,0.002678,0.000431,0.000940
24608000,0.0324,0.013523,0.002678,0.000431,0.000940
24609000,0.0324,0.013523,0.002678,0.000431,0.000823
24610000,0.0324,0.013523,0.002678,0.000431,0.000823
24611000,0.0324,0.013523,0.002678,0.000431,0.000940
24612000,0.0324,0.013523,0.002678,0.000431,0.000940
24613000,0.0324,0.013523,0.002678,0.000431,0.000823
24614000,0.0324,0.013523,0.002678,0.000431,0.000823
24615000,0.0324,0.013523,0.002678,0.000431,0.000940
24616000,0.0324,0.013523,0.002678,0.000431,0.000940
24617000,0.0324,0.013523,0.002678,0.000431,0.000823
24618000,0.0324,0.013523,0.002678,0.000431,0.000823
24619000,0.0324,0.013523,0.002678,0.000431,0.000940
24620000,0.0324,0.013523,0.002678,0.000431,0.000823
24621000,0.0324,0.013523,0.002678,0.000431,0.000940
24622000,0.0324,0.013523,0.002678,0.000431,0.000823
24623000,0.0324,0.013523,0.002678,0.000431,0.000940
24624000,0.0324,0.013523,0.002678,0.000431,0.000823
24625000,0.0324,0.013523,0.002678,0.000431,0.000823
24626000,0.0324,0.013523,0.002678,0.000431,0.000940
24627000,0.0324,0.013523,0.002678,0.000431,0.000940
24628000,0.0324,0.013523,0.002678,0.000431,0.000823
24629000,0.0324,0.013523,0.002678,0.000431,0.000823
24630000,0.0324,0.013523,0.002678,0.000431,0.000940
24631000,0.0324,0.013523,0.002678,0.000431,0.000940
24632000,0.0324,0.013523,0.002678,0.000431,0.000705
24633000,0.0324,0.013523,0.002678,0.000431,0.000940
24634000,0.0324,0.013523,0.002678,0.000431,0.000940
24635000,0.0324,0.013523,0.002678,0.000431,0.000940
24636000,0.0324,0.013523,0.002678,0.000431,0.000705
24637000,0.0324,0.013523,0.002678,0.000431,0.000940
24638000,0.0324,0.013523,0.002678,0.000431,0.000940
24639000,0.0324,0.013523,0.002678,0.000431,0.000823
24640000,0.0324,0.013523,0.002678,0.000431,0.000940
24641000,0.0324,0.013523,0.002678,0.000431,0.000823
24642000,0.0324,0.013523,0.002678,0.000431,0.000940
24643000,0.0324,0.013523,0.002678,0.000431,0.000823
24644000,0.0324,0.013523,0.002678,0.000431,0.000823
24645000,0.0324,0.013523,0.002678,0.000431,0.000940
24646000,0.0324,0.013523,0.002678,0.000431,0.000823
24647000,0.0324,0.013523,0.002678,0.000431,0.000823
24648000,0.0324,0.013523,0.002678,0.000431,0.000940
24649000,0.0324,0.013523,0.002678,0.000431,0.000940
24650000,0.0324,0.013523,0.002678,0.000431,0.000940
24651000,0.0324,0.013523,0.002678,0.000431,0.000705
24652000,0.0324,0.013523,0.002678,0.000431,0.000940
24653000,0.0324,0.013523,0.002678,0.000431,0.000940
24654000,0.0324,0.013523,0.002678,0.000431,0.000823
24655000,0.0324,0.013523,0.002678,0.000431,0.000823
24656000,0.0324,0.013523,0.002678,0.000431,0.000940
24657000,0.0324,0.013523,0.002678,0.000431,0.000940
24658000,0.0324,0.013523,0.002678,0.000431,0.000823
24659000,0.0324,0.013523,0.002678,0.000431,0.000823
24660000,0.0324,0.013523,0.002678,0.000431,0.000940
24661000,0.0324,0.013523,0.002678,0.000431,0.000823
24662000,0.0324,0.013523,0.002678,0.000431,0.000940
24663000,0.0324,0.013523,0.002678,0.000431,0.000823
24664000,0.0324,0.013523,0.002678,0.000431,0.000940
24665000,0.0324,0.013523,0.002678,0.000431,0.000823
24666000,0.0324,0.013523,0.002678,0.000431,0.000823
24667000,0.0324,0.013523,0.002678,0.000431,0.000940
24668000,0.0324,0.013523,0.002678,0.000431,0.000940
24669000,0.0324,0.013523,0.002678,0.000431,0.000823
24670000,0.0324,0.013523,0.002678,0.000431,0.000823
24671000,0.0324,0.013523,0.002678,0.000431,0.000940
24672000,0.0324,0.013523,0.002678,0.000431,0.000940
24673000,0.0324,0.013523,0.002678,0.000431,0.000823
24674000,0.0324,0.013523,0.002678,0.000431,0.000823
24675000,0.0324,0.013523,0.002678,0.000431,0.000940
24676000,0.0324,0.013523,0.002678,0.000431,0.000940
24677000,0.0324,0.013523,0.002678,0.000431,0.000823
24678000,0.0324,0.013523,0.002678,0.000431,0.000823
24679000,0.0324,0.013523,0.002678,0.000431,0.000940
24680000,0.0324,0.013523,0.002678,0.000431,0.000823
24681000,0.0324,0.013523,0.002678,0.000431,0.000940
24682000,0.0324,0.013523,0.002678,0.000431,0.000823
24683000,0.0324,0.013523,0.002678,0.000431,0.000940
24684000,0.0324,0.013523,0.002678,0.000431,0.000823
24685000,0.0324,0.013523,0.002678,0.000431,0.000823
24686000,0.0324,0.013523,0.002678,0.000431,0.000940
24687000,0.0324,0.013523,0.002678,0.000431,0.000940
24688000,0.0324,0.013523,0.002678,0.000431,0.000705
24689000,0.0324,0.013523,0.002678,0.000431,0.000940
24690000,0.0324,0.013523,0.002678,0.000431,0.000940
24691000,0.0324,0.013523,0.002678,0.000431,0.000940
24692000,0.0324,0.013523,0.002678,0.000431,0.000705
24693000,0.0324,0.013523,0.002678,0.000431,0.000940
24694000,0.0324,0.013523,0.002678,0.000431,0.000940
24695000,0.0324,0.013523,0.002678,0.000431,0.000823
24696000,0.0324,0.013523,0.002678,0.000431,0.000823
24697000,0.0324,0.013523,0.002678,0.000431,0.000940
24698000,0.0324,0.013523,0.002678,0.000431,0.000940
24699000,0.0324,0.013523,0.002678,0.000431,0.000823
24700000,0.0324,0.013523,0.002678,0.000431,0.000823
24701000,0.0324,0.013523,0.002678,0.000431,0.000940
24702000,0.0324,0.013523,0.002678,0.000431,0.000823
24703000,0.0324,0.013523,0.002678,0.000431,0.000940
24704000,0.0324,0.013523,0.002678,0.000431,0.000823
24705000,0.0324,0.013523,0.002678,0.000431,0.000940
24706000,0.0324,0.013523,0.002678,0.000431,0.000823
24707000,0.0324,0.013523,0.002678,0.000431,0.000823
24708000,0.0324,0.013523,0.002678,0.000431,0.000940
24709000,0.0324,0.013523,0.002678,0.000431,0.000940
24710000,0.0324,0.013523,0.002678,0.000431,0.000940
24711000,0.0324,0.013523,0.002678,0.000431,0.000705
24712000,0.0324,0.013523,0.002678,0.000431,0.000940
24713000,0.0324,0.013523,0.002678,0.000431,0.000940
24714000,0.0324,0.013523,0.002678,0.000431,0.000823
24715000,0.0324,0.013523,0.002678,0.000431,0.000823
24716000,0.0324,0.013523,0.002678,0.000431,0.000940
24717000,0.0324,0.013523,0.002678,0.000431,0.000940
24718000,0.0324,0.013523,0.002678,0.000431,0.000823
24719000,0.0324,0.013523,0.002678,0.000431,0.000823
24720000,0.0324,0.013523,0.002678,0.000431,0.000940
24721000,0.0324,0.013523,0.002678,0.000431,0.000823
24722000,0.0324,0.013523,0.002678,0.000431,0.000940
24723000,0.0324,0.013523,0.002678,0.000431,0.013868
24724000,0.0324,0.013523,0.002678,0.000431,0.467762
24725000,0.0324,0.013523,0.002678,0.000431,0.595515
24726000,0.0324,0.013523,0.002678,0.000431,0.133512
24727000,0.0324,0.013523,0.002678,0.000431,0.132102
24728000,0.0324,0.013523,0.002678,0.000431,0.337188
24729000,0.0324,0.013523,0.002678,0.000431,0.421926
24730000,0.0324,0.013523,0.002678,0.000431,0.226594
24731000,0.0324,0.013523,0.002678,0.000431,0.299109
24732000,0.0324,0.013523,0.002678,0.000431,0.203911
24733000,0.0324,0.013523,0.002678,0.000431,0.147733
24734000,0.0324,0.013523,0.002678,0.000431,0.167948
24735000,0.0324,0.013523,0.002678,0.000431,0.112827
24736000,0.0324,0.013523,0.002678,0.000431,0.462708
24737000,0.0324,0.013523,0.002678,0.000431,0.074043
24738000,0.0324,0.013523,0.002678,0.000431,0.049832
24739000,0.0324,0.013523,0.002678,0.000431,0.041370
24740000,0.0324,0.013523,0.002678,0.000431,0.032320
24741000,0.0324,0.013523,0.002678,0.000431,0.029617
24742000,0.0324,0.013523,0.002678,0.000431,0.021038
24743000,0.0324,0.013523,0.002678,0.000431,0.018687
24744000,0.0324,0.013523,0.002678,0.000431,0.017042
24745000,0.0324,0.013523,0.002678,0.000431,0.013986
24746000,0.0324,0.013523,0.002678,0.000431,0.014221
24747000,0.0324,0.013523,0.002678,0.000431,0.015514
24748000,0.0324,0.013523,0.002678,0.000431,0.012928
24749000,0.0324,0.013523,0.002678,0.000431,0.011870
24750000,0.0324,0.013523,0.002678,0.000431,0.012223
24751000,0.0324,0.013523,0.002678,0.000431,0.011635
24752000,0.0324,0.013523,0.002678,0.000431,0.011635
24753000,0.0324,0.013523,0.002678,0.000431,0.011400
24754000,0.0324,0.013523,0.002678,0.000431,0.011400
24755000,0.0324,0.013523,0.002678,0.000431,0.013046
24756000,0.0324,0.013523,0.002678,0.000431,0.011635
24757000,0.0324,0.013523,0.002678,0.000431,0.010107
24758000,0.0324,0.013523,0.002678,0.000431,0.010578
24759000,0.0324,0.013523,0.002678,0.000431,0.009050
24760000,0.0324,0.013523,0.002678,0.000431,0.007757
24761000,0.0324,0.013523,0.002678,0.000431,0.008697
24762000,0.0324,0.013523,0.002678,0.000431,0.005171
24763000,0.0324,0.013523,0.002678,0.000431,0.006934
24764000,0.0324,0.013523,0.002678,0.000431,0.004231
24765000,0.0324,0.013523,0.002678,0.000431,0.004349
24766000,0.0324,0.013523,0.002678,0.000431,0.004231
24767000,0.0324,0.013523,0.002678,0.000431,0.004231
24768000,0.0324,0.013523,0.002678,0.000431,0.004349
24769000,0.0324,0.013523,0.002678,0.000431,0.003996
24770000,0.0324,0.013523,0.002678,0.000431,0.004349
24771000,0.0324,0.013523,0.002678,0.000431,0.004113
24772000,0.0324,0.013523,0.002678,0.000431,0.004231
24773000,0.0324,0.013523,0.002678,0.000431,0.004349
24774000,0.0324,0.013523,0.002678,0.000431,0.004113
24775000,0.0324,0.013523,0.002678,0.000431,0.004231
24776000,0.0324,0.013523,0.002678,0.000431,0.004231
24777000,0.0324,0.013523,0.002678,0.000431,0.005406
24778000,0.0324,0.013523,0.002678,0.000431,0.004584
24779000,0.0324,0.013523,0.002678,0.000431,0.003408
24780000,0.0324,0.013523,0.002678,0.000431,0.003291
24781000,0.0324,0.013523,0.002678,0.000431,0.003643
24782000,0.0324,0.013523,0.002678,0.000431,0.003291
24783000,0.0324,0.013523,0.002678,0.000431,0.003408
24784000,0.0324,0.013523,0.002678,0.000431,0.005171
24785000,0.0324,0.013523,0.002678,0.000431,0.002351
24786000,0.0324,0.013523,0.002678,0.000431,0.002703
24787000,0.0324,0.013523,0.002678,0.000431,0.002586
24788000,0.0324,0.013523,0.002678,0.000431,0.002468
24789000,0.0324,0.013523,0.002678,0.000431,0.002703
24790000,0.0324,0.013523,0.002678,0.000431,0.002351
24791000,0.0324,0.013523,0.002678,0.000431,0.002821
24792000,0.0324,0.013523,0.002678,0.000431,0.002233
24793000,0.0324,0.013523,0.002678,0.000431,0.002703
24794000,0.0324,0.013523,0.002678,0.000431,0.002586
24795000,0.0324,0.013523,0.002678,0.000431,0.002468
24796000,0.0324,0.013523,0.002678,0.000431,0.002586
24797000,0.0324,0.013523,0.002678,0.000431,0.002468
24798000,0.0324,0.013523,0.002678,0.000431,0.002821
24799000,0.0324,0.013523,0.002678,0.000431,0.004349
24800000,0.0324,0.013523,0.002678,0.000431,0.001763
24801000,0.0324,0.013523,0.002678,0.000431,0.001645
24802000,0.0324,0.013523,0.002678,0.000431,0.001763
24803000,0.0324,0.013523,0.002678,0.000431,0.001763
24804000,0.0324,0.013523,0.002678,0.000431,0.001645
24805000,0.0324,0.013523,0.002678,0.000431,0.001763
24806000,0.0324,0.013523,0.002678,0.000431,0.001645
24807000,0.0324,0.013523,0.002678,0.000431,0.001645
24808000,0.0324,0.013523,0.002678,0.000431,0.001763
24809000,0.0324,0.013523,0.002678,0.000431,0.001763
24810000,0.0324,0.013523,0.002678,0.000431,0.001763
24811000,0.0324,0.013523,0.002678,0.000431,0.001645
24812000,0.0324,0.013523,0.002678,0.000431,0.001528
24813000,0.0324,0.013523,0.002678,0.000431,0.001880
24814000,0.0324,0.013523,0.002678,0.000431,0.001880
24815000,0.0324,0.013523,0.002678,0.000431,0.001528
24816000,0.0324,0.013523,0.002678,0.000431,0.001763
24817000,0.0324,0.013523,0.002678,0.000431,0.001645
24818000,0.0324,0.013523,0.002678,0.000431,0.001880
24819000,0.0324,0.013523,0.002678,0.000431,0.001528
24820000,0.0324,0.013523,0.002678,0.000431,0.001763
24821000,0.0324,0.013523,0.002678,0.000431,0.001880
24822000,0.0324,0.013523,0.002678,0.000431,0.001645
24823000,0.0324,0.013523,0.002678,0.000431,0.001645
24824000,0.0324,0.013523,0.002678,0.000431,0.003408
24825000,0.0324,0.013523,0.002678,0.000431,0.000940
24826000,0.0324,0.013523,0.002678,0.000431,0.000823
24827000,0.0324,0.013523,0.002678,0.000431,0.000940
24828000,0.0324,0.013523,0.002678,0.000431,0.000823
24829000,0.0324,0.013523,0.002678,0.000431,0.000940
24830000,0.0324,0.013523,0.002678,0.000431,0.000823
24831000,0.0324,0.013523,0.002678,0.000431,0.000823
24832000,0.0324,0.013523,0.002678,0.000431,0.000940
24833000,0.0324,0.013523,0.002678,0.000431,0.000940
24834000,0.0324,0.013523,0.002678,0.000431,0.000705
24835000,0.0324,0.013523,0.002678,0.000431,0.000940
24836000,0.0324,0.013523,0.002678,0.000431,0.000940
24837000,0.0324,0.013523,0.002678,0.000431,0.000940
24838000,0.0324,0.013523,0.002678,0.000431,0.000705
24839000,0.0324,0.013523,0.002678,0.000431,0.000940
24840000,0.0324,0.013523,0.002678,0.000431,0.000940
24841000,0.0324,0.013523,0.002678,0.000431,0.000823
24842000,0.0324,0.013523,0.002678,0.000431,0.000823
24843000,0.0324,0.013523,0.002678,0.000431,0.000940
24844000,0.0324,0.013523,0.002678,0.000431,0.000940
24845000,0.0324,0.013523,0.002678,0.000431,0.000823
24846000,0.0324,0.013523,0.002678,0.000431,0.000823
24847000,0.0324,0.013523,0.002678,0.000431,0.000940
24848000,0.0324,0.013523,0.002678,0.000431,0.000823
24849000,0.0324,0.013523,0.002678,0.000431,0.000940
24850000,0.0324,0.013523,0.002678,0.000431,0.000823
24851000,0.0324,0.013523,0.002678,0.000431,0.000940
24852000,0.0324,0.013523,0.002678,0.000431,0.000823
24853000,0.0324,0.013523,0.002678,0.000431,0.000823
24854000,0.0324,0.013523,0.002678,0.000431,0.000940
24855000,0.0324,0.013523,0.002678,0.000431,0.000940
24856000,0.0324,0.013523,0.002678,0.000431,0.000823
24857000,0.0324,0.013523,0.002678,0.000431,0.000823
24858000,0.0324,0.013523,0.002678,0.000431,0.000940
24859000,0.0324,0.013523,0.002678,0.000431,0.000940
24860000,0.0324,0.013523,0.002678,0.000431,0.000823
24861000,0.0324,0.013523,0.002678,0.000431,0.000823
24862000,0.0324,0.013523,0.002678,0.000431,0.000940
24863000,0.0324,0.013523,0.002678,0.000431,0.000940
24864000,0.0324,0.013523,0.002678,0.000431,0.000823
24865000,0.0324,0.013523,0.002678,0.000431,0.001528
24866000,0.0324,0.013523,0.002678,0.000431,0.367041
24867000,0.0324,0.013523,0.002678,0.000431,0.689303
24868000,0.0324,0.013523,0.002678,0.000431,0.149026
24869000,0.0324,0.013523,0.002678,0.000431,0.133512
24870000,0.0324,0.013523,0.002678,0.000431,0.151846
24871000,0.0324,0.013523,0.002678,0.000431,0.594693
24872000,0.0324,0.013523,0.002678,0.000431,0.260560
24873000,0.0324,0.013523,0.002678,0.000431,0.294408
24874000,0.0324,0.013523,0.002678,0.000431,0.238465
24875000,0.0324,0.013523,0.002678,0.000431,0.137978
24876000,0.0324,0.013523,0.002678,0.000431,0.149143
24877000,0.0324,0.013523,0.002678,0.000431,0.197565
24878000,0.0324,0.013523,0.002678,0.000431,0.392074
24879000,0.0324,0.013523,0.002678,0.000431,0.046189
24880000,0.0324,0.013523,0.002678,0.000431,0.036434
24881000,0.0324,0.013523,0.002678,0.000431,0.033260
24882000,0.0324,0.013523,0.002678,0.000431,0.032438
24883000,0.0324,0.013523,0.002678,0.000431,0.018334
24884000,0.0324,0.013523,0.002678,0.000431,0.020567
24885000,0.0324,0.013523,0.002678,0.000431,0.012928
24886000,0.0324,0.013523,0.002678,0.000431,0.008109
24887000,0.0324,0.013523,0.002678,0.000431,0.009050
24888000,0.0324,0.013523,0.002678,0.000431,0.009167
24889000,0.0324,0.013523,0.002678,0.000431,0.009520
24890000,0.0324,0.013523,0.002678,0.000431,0.006817
24891000,0.0324,0.013523,0.002678,0.000431,0.006229
24892000,0.0324,0.013523,0.002678,0.000431,0.003643
24893000,0.0324,0.013523,0.002678,0.000431,0.003291
24894000,0.0324,0.013523,0.002678,0.000431,0.003526
24895000,0.0324,0.013523,0.002678,0.000431,0.003056
24896000,0.0324,0.013523,0.002678,0.000431,0.003761
24897000,0.0324,0.013523,0.002678,0.000431,0.003408
24898000,0.0324,0.013523,0.002678,0.000431,0.006111
24899000,0.0324,0.013523,0.002678,0.000431,0.002703
24900000,0.0324,0.013523,0.002678,0.000431,0.002233
24901000,0.0324,0.013523,0.002678,0.000431,0.002821
24902000,0.0324,0.013523,0.002678,0.000431,0.002351
24903000,0.0324,0.013523,0.002678,0.000431,0.002586
24904000,0.0324,0.013523,0.002678,0.000431,0.002468
24905000,0.0324,0.013523,0.002678,0.000431,0.002468
24906000,0.0324,0.013523,0.002678,0.000431,0.002586
24907000,0.0324,0.013523,0.002678,0.000431,0.002468
24908000,0.0324,0.013523,0.002678,0.000431,0.002703
24909000,0.0324,0.013523,0.002678,0.000431,0.002233
24910000,0.0324,0.013523,0.002678,0.000431,0.004113
24911000,0.0324,0.013523,0.002678,0.000431,0.001763
24912000,0.0324,0.013523,0.002678,0.000431,0.001645
24913000,0.0324,0.013523,0.002678,0.000431,0.001645
24914000,0.0324,0.013523,0.002678,0.000431,0.001645
24915000,0.0324,0.013523,0.002678,0.000431,0.001763
24916000,0.0324,0.013523,0.002678,0.000431,0.001645
24917000,0.0324,0.013523,0.002678,0.000431,0.001763
24918000,0.0324,0.013523,0.002678,0.000431,0.001528
24919000,0.0324,0.013523,0.002678,0.000431,0.001763
24920000,0.0324,0.013523,0.002678,0.000431,0.001528
24921000,0.0324,0.013523,0.002678,0.000431,0.001763
24922000,0.0324,0.013523,0.002678,0.000431,0.001880
24923000,0.0324,0.013523,0.002678,0.000431,0.001410
24924000,0.0324,0.013523,0.002678,0.000431,0.001880
24925000,0.0324,0.013523,0.002678,0.000431,0.001528
24926000,0.0324,0.013523,0.002678,0.000431,0.001763
24927000,0.0324,0.013523,0.002678,0.000431,0.001763
24928000,0.0324,0.013523,0.002678,0.000431,0.001528
24929000,0.0324,0.013523,0.002678,0.000431,0.001763
24930000,0.0324,0.013523,0.002678,0.000431,0.001528
24931000,0.0324,0.013523,0.002678,0.000431,0.001880
24932000,0.0324,0.013523,0.002678,0.000431,0.001528
24933000,0.0324,0.013523,0.002678,0.000431,0.001645
24934000,0.0324,0.013523,0.002678,0.000431,0.001763
24935000,0.0324,0.013523,0.002678,0.000431,0.001645
24936000,0.0324,0.013523,0.002678,0.000431,0.001763
24937000,0.0324,0.013523,0.002678,0.000431,0.001645
24938000,0.0324,0.013523,0.002678,0.000431,0.001528
24939000,0.0324,0.013523,0.002678,0.000431,0.001763
24940000,0.0324,0.013523,0.002678,0.000431,0.001763
24941000,0.0324,0.013523,0.002678,0.000431,0.001528
24942000,0.0324,0.013523,0.002678,0.000431,0.001763
24943000,0.0324,0.013523,0.002678,0.000431,0.001645
24944000,0.0324,0.013523,0.002678,0.000431,0.001645
24945000,0.0324,0.013523,0.002678,0.000431,0.001880
24946000,0.0324,0.013523,0.002678,0.000431,0.001528
24947000,0.0324,0.013523,0.002678,0.000431,0.001763
24948000,0.0324,0.013523,0.002678,0.000431,0.001410
24949000,0.0324,0.013523,0.002678,0.000431,0.001880
24950000,0.0324,0.013523,0.002678,0.000431,0.001763
24951000,0.0324,0.013523,0.002678,0.000431,0.001528
24952000,0.0324,0.013523,0.002678,0.000431,0.001763
24953000,0.0324,0.013523,0.002678,0.000431,0.001528
24954000,0.0324,0.013523,0.002678,0.000431,0.001880
24955000,0.0324,0.013523,0.002678,0.000431,0.001528
24956000,0.0324,0.013523,0.002678,0.000431,0.001763
24957000,0.0324,0.013523,0.002678,0.000431,0.001763
24958000,0.0324,0.013523,0.002678,0.000431,0.001528
24959000,0.0324,0.013523,0.002678,0.000431,0.001763
24960000,0.0324,0.013523,0.002678,0.000431,0.001645
24961000,0.0324,0.013523,0.002678,0.000431,0.001645
24962000,0.0324,0.013523,0.002678,0.000431,0.004701
24963000,0.0324,0.013523,0.002678,0.000431,0.000940
24964000,0.0324,0.013523,0.002678,0.000431,0.000705
24965000,0.0324,0.013523,0.002678,0.000431,0.000940
24966000,0.0324,0.013523,0.002678,0.000431,0.000705
24967000,0.0324,0.013523,0.002678,0.000431,0.000940
24968000,0.0324,0.013523,0.002678,0.000431,0.000940
24969000,0.0324,0.013523,0.002678,0.000431,0.000705
24970000,0.0324,0.013523,0.002678,0.000431,0.000940
24971000,0.0324,0.013523,0.002678,0.000431,0.000705
24972000,0.0324,0.013523,0.002678,0.000431,0.000940
24973000,0.0324,0.013523,0.002678,0.000431,0.000823
24974000,0.0324,0.013523,0.002678,0.000431,0.000823
24975000,0.0324,0.013523,0.002678,0.000431,0.000823
24976000,0.0324,0.013523,0.002678,0.000431,0.000823
24977000,0.0324,0.013523,0.002678,0.000431,0.000940
24978000,0.0324,0.013523,0.002678,0.000431,0.000705
24979000,0.0324,0.013523,0.002678,0.000431,0.000940
24980000,0.0324,0.013523,0.002678,0.000431,0.000823
24981000,0.0324,0.013523,0.002678,0.000431,0.000823
24982000,0.0324,0.013523,0.002678,0.000431,0.000823
24983000,0.0324,0.013523,0.002678,0.000431,0.000823
24984000,0.0324,0.013523,0.002678,0.000431,0.000940
24985000,0.0324,0.013523,0.002678,0.000431,0.000705
24986000,0.0324,0.013523,0.002678,0.000431,0.000823
24987000,0.0324,0.013523,0.002678,0.000431,0.000940
24988000,0.0324,0.013523,0.002678,0.000431,0.000823
24989000,0.0324,0.013523,0.002678,0.000431,0.000940
24990000,0.0324,0.013523,0.002678,0.000431,0.000705
24991000,0.0324,0.013523,0.002678,0.000431,0.000940
24992000,0.0324,0.013523,0.002678,0.000431,0.000823
24993000,0.0324,0.013523,0.002678,0.000431,0.000823
24994000,0.0324,0.013523,0.002678,0.000431,0.000823
24995000,0.0324,0.013523,0.002678,0.000431,0.000823
24996000,0.0324,0.013523,0.002678,0.000431,0.000940
24997000,0.0324,0.013523,0.002678,0.000431,0.000705
24998000,0.0324,0.013523,0.002678,0.000431,0.000940
24999000,0.0324,0.013523,0.002678,0.000431,0.000705
