Cycle,Area(mm^2),PeakDynamic(W),SubthresholdLeakage(W),GateLeakage(W),RunTimeDynamic(W)
64000000,0.0324,0.013523,0.002678,0.000431,0.001645
64001000,0.0324,0.013523,0.002678,0.000431,0.001410
64002000,0.0324,0.013523,0.002678,0.000431,0.001645
64003000,0.0324,0.013523,0.002678,0.000431,0.001645
64004000,0.0324,0.013523,0.002678,0.000431,0.001645
64005000,0.0324,0.013523,0.002678,0.000431,0.001410
64006000,0.0324,0.013523,0.002678,0.000431,0.001645
64007000,0.0324,0.013523,0.002678,0.000431,0.001410
64008000,0.0324,0.013523,0.002678,0.000431,0.001645
64009000,0.0324,0.013523,0.002678,0.000431,0.001880
64010000,0.0324,0.013523,0.002678,0.000431,0.001175
64011000,0.0324,0.013523,0.002678,0.000431,0.001880
64012000,0.0324,0.013523,0.002678,0.000431,0.001410
64013000,0.0324,0.013523,0.002678,0.000431,0.001645
64014000,0.0324,0.013523,0.002678,0.000431,0.001880
64015000,0.0324,0.013523,0.002678,0.000431,0.001175
64016000,0.0324,0.013523,0.002678,0.000431,0.001880
64017000,0.0324,0.013523,0.002678,0.000431,0.001410
64018000,0.0324,0.013523,0.002678,0.000431,0.001645
64019000,0.0324,0.013523,0.002678,0.000431,0.001645
64020000,0.0324,0.013523,0.002678,0.000431,0.001410
64021000,0.0324,0.013523,0.002678,0.000431,0.001645
64022000,0.0324,0.013523,0.002678,0.000431,0.001645
64023000,0.0324,0.013523,0.002678,0.000431,0.001645
64024000,0.0324,0.013523,0.002678,0.000431,0.001410
64025000,0.0324,0.013523,0.002678,0.000431,0.001645
64026000,0.0324,0.013523,0.002678,0.000431,0.001645
64027000,0.0324,0.013523,0.002678,0.000431,0.001645
64028000,0.0324,0.013523,0.002678,0.000431,0.001410
64029000,0.0324,0.013523,0.002678,0.000431,0.001645
64030000,0.0324,0.013523,0.002678,0.000431,0.001410
64031000,0.0324,0.013523,0.002678,0.000431,0.001645
64032000,0.0324,0.013523,0.002678,0.000431,0.001880
64033000,0.0324,0.013523,0.002678,0.000431,0.001175
64034000,0.0324,0.013523,0.002678,0.000431,0.001880
64035000,0.0324,0.013523,0.002678,0.000431,0.001293
64036000,0.0324,0.013523,0.002678,0.000431,0.001763
64037000,0.0324,0.013523,0.002678,0.000431,0.001880
64038000,0.0324,0.013523,0.002678,0.000431,0.001175
64039000,0.0324,0.013523,0.002678,0.000431,0.001880
64040000,0.0324,0.013523,0.002678,0.000431,0.001293
64041000,0.0324,0.013523,0.002678,0.000431,0.001763
64042000,0.0324,0.013523,0.002678,0.000431,0.001645
64043000,0.0324,0.013523,0.002678,0.000431,0.001410
64044000,0.0324,0.013523,0.002678,0.000431,0.001645
64045000,0.0324,0.013523,0.002678,0.000431,0.001528
64046000,0.0324,0.013523,0.002678,0.000431,0.001763
64047000,0.0324,0.013523,0.002678,0.000431,0.001410
64048000,0.0324,0.013523,0.002678,0.000431,0.003056
64049000,0.0324,0.013523,0.002678,0.000431,0.351644
64050000,0.0324,0.013523,0.002678,0.000431,0.654279
64051000,0.0324,0.013523,0.002678,0.000431,0.196390
64052000,0.0324,0.013523,0.002678,0.000431,0.133512
64053000,0.0324,0.013523,0.002678,0.000431,0.136568
64054000,0.0324,0.013523,0.002678,0.000431,0.599629
64055000,0.0324,0.013523,0.002678,0.000431,0.230943
64056000,0.0324,0.013523,0.002678,0.000431,0.314623
64057000,0.0324,0.013523,0.002678,0.000431,0.245164
64058000,0.0324,0.013523,0.002678,0.000431,0.148321
64059000,0.0324,0.013523,0.002678,0.000431,0.147968
64060000,0.0324,0.013523,0.002678,0.000431,0.187457
64061000,0.0324,0.013523,0.002678,0.000431,0.404414
64062000,0.0324,0.013523,0.002678,0.000431,0.056884
64063000,0.0324,0.013523,0.002678,0.000431,0.042310
64064000,0.0324,0.013523,0.002678,0.000431,0.031850
64065000,0.0324,0.013523,0.002678,0.000431,0.023623
64066000,0.0324,0.013523,0.002678,0.000431,0.024563
64067000,0.0324,0.013523,0.002678,0.000431,0.020920
64068000,0.0324,0.013523,0.002678,0.000431,0.017629
64069000,0.0324,0.013523,0.002678,0.000431,0.017394
64070000,0.0324,0.013523,0.002678,0.000431,0.011870
64071000,0.0324,0.013523,0.002678,0.000431,0.011400
64072000,0.0324,0.013523,0.002678,0.000431,0.010813
64073000,0.0324,0.013523,0.002678,0.000431,0.010342
64074000,0.0324,0.013523,0.002678,0.000431,0.011518
64075000,0.0324,0.013523,0.002678,0.000431,0.012340
64076000,0.0324,0.013523,0.002678,0.000431,0.011165
64077000,0.0324,0.013523,0.002678,0.000431,0.010107
64078000,0.0324,0.013523,0.002678,0.000431,0.008697
64079000,0.0324,0.013523,0.002678,0.000431,0.009167
64080000,0.0324,0.013523,0.002678,0.000431,0.009637
64081000,0.0324,0.013523,0.002678,0.000431,0.007757
64082000,0.0324,0.013523,0.002678,0.000431,0.007522
64083000,0.0324,0.013523,0.002678,0.000431,0.009520
64084000,0.0324,0.013523,0.002678,0.000431,0.008109
64085000,0.0324,0.013523,0.002678,0.000431,0.005524
64086000,0.0324,0.013523,0.002678,0.000431,0.006699
64087000,0.0324,0.013523,0.002678,0.000431,0.005641
64088000,0.0324,0.013523,0.002678,0.000431,0.004466
64089000,0.0324,0.013523,0.002678,0.000431,0.005054
64090000,0.0324,0.013523,0.002678,0.000431,0.004113
64091000,0.0324,0.013523,0.002678,0.000431,0.005171
64092000,0.0324,0.013523,0.002678,0.000431,0.002351
64093000,0.0324,0.013523,0.002678,0.000431,0.002703
64094000,0.0324,0.013523,0.002678,0.000431,0.002351
64095000,0.0324,0.013523,0.002678,0.000431,0.002586
64096000,0.0324,0.013523,0.002678,0.000431,0.002468
64097000,0.0324,0.013523,0.002678,0.000431,0.002586
64098000,0.0324,0.013523,0.002678,0.000431,0.002468
64099000,0.0324,0.013523,0.002678,0.000431,0.002468
64100000,0.0324,0.013523,0.002678,0.000431,0.002586
64101000,0.0324,0.013523,0.002678,0.000431,0.002351
64102000,0.0324,0.013523,0.002678,0.000431,0.004819
64103000,0.0324,0.013523,0.002678,0.000431,0.001880
64104000,0.0324,0.013523,0.002678,0.000431,0.001528
64105000,0.0324,0.013523,0.002678,0.000431,0.001645
64106000,0.0324,0.013523,0.002678,0.000431,0.001763
64107000,0.0324,0.013523,0.002678,0.000431,0.001528
64108000,0.0324,0.013523,0.002678,0.000431,0.001645
64109000,0.0324,0.013523,0.002678,0.000431,0.003408
64110000,0.0324,0.013523,0.002678,0.000431,0.000940
64111000,0.0324,0.013523,0.002678,0.000431,0.000705
64112000,0.0324,0.013523,0.002678,0.000431,0.000940
64113000,0.0324,0.013523,0.002678,0.000431,0.000705
64114000,0.0324,0.013523,0.002678,0.000431,0.000940
64115000,0.0324,0.013523,0.002678,0.000431,0.000823
64116000,0.0324,0.013523,0.002678,0.000431,0.000823
64117000,0.0324,0.013523,0.002678,0.000431,0.000940
64118000,0.0324,0.013523,0.002678,0.000431,0.000705
64119000,0.0324,0.013523,0.002678,0.000431,0.000940
64120000,0.0324,0.013523,0.002678,0.000431,0.000705
64121000,0.0324,0.013523,0.002678,0.000431,0.000940
64122000,0.0324,0.013523,0.002678,0.000431,0.000823
64123000,0.0324,0.013523,0.002678,0.000431,0.000823
64124000,0.0324,0.013523,0.002678,0.000431,0.000823
64125000,0.0324,0.013523,0.002678,0.000431,0.000823
64126000,0.0324,0.013523,0.002678,0.000431,0.000940
64127000,0.0324,0.013523,0.002678,0.000431,0.000705
64128000,0.0324,0.013523,0.002678,0.000431,0.000823
64129000,0.0324,0.013523,0.002678,0.000431,0.000940
64130000,0.0324,0.013523,0.002678,0.000431,0.000823
64131000,0.0324,0.013523,0.002678,0.000431,0.000823
64132000,0.0324,0.013523,0.002678,0.000431,0.000823
64133000,0.0324,0.013523,0.002678,0.000431,0.000705
64134000,0.0324,0.013523,0.002678,0.000431,0.000940
64135000,0.0324,0.013523,0.002678,0.000431,0.000940
64136000,0.0324,0.013523,0.002678,0.000431,0.000705
64137000,0.0324,0.013523,0.002678,0.000431,0.000940
64138000,0.0324,0.013523,0.002678,0.000431,0.000705
64139000,0.0324,0.013523,0.002678,0.000431,0.000940
64140000,0.0324,0.013523,0.002678,0.000431,0.000823
64141000,0.0324,0.013523,0.002678,0.000431,0.000823
64142000,0.0324,0.013523,0.002678,0.000431,0.000940
64143000,0.0324,0.013523,0.002678,0.000431,0.000705
64144000,0.0324,0.013523,0.002678,0.000431,0.000940
64145000,0.0324,0.013523,0.002678,0.000431,0.000823
64146000,0.0324,0.013523,0.002678,0.000431,0.000823
64147000,0.0324,0.013523,0.002678,0.000431,0.000823
64148000,0.0324,0.013523,0.002678,0.000431,0.000823
64149000,0.0324,0.013523,0.002678,0.000431,0.000823
64150000,0.0324,0.013523,0.002678,0.000431,0.000823
64151000,0.0324,0.013523,0.002678,0.000431,0.000940
64152000,0.0324,0.013523,0.002678,0.000431,0.000823
64153000,0.0324,0.013523,0.002678,0.000431,0.000823
64154000,0.0324,0.013523,0.002678,0.000431,0.000823
64155000,0.0324,0.013523,0.002678,0.000431,0.000823
64156000,0.0324,0.013523,0.002678,0.000431,0.000823
64157000,0.0324,0.013523,0.002678,0.000431,0.000823
64158000,0.0324,0.013523,0.002678,0.000431,0.000940
64159000,0.0324,0.013523,0.002678,0.000431,0.000705
64160000,0.0324,0.013523,0.002678,0.000431,0.000940
64161000,0.0324,0.013523,0.002678,0.000431,0.000705
64162000,0.0324,0.013523,0.002678,0.000431,0.000940
64163000,0.0324,0.013523,0.002678,0.000431,0.000823
64164000,0.0324,0.013523,0.002678,0.000431,0.000823
64165000,0.0324,0.013523,0.002678,0.000431,0.000940
64166000,0.0324,0.013523,0.002678,0.000431,0.000705
64167000,0.0324,0.013523,0.002678,0.000431,0.000940
64168000,0.0324,0.013523,0.002678,0.000431,0.000823
64169000,0.0324,0.013523,0.002678,0.000431,0.000823
64170000,0.0324,0.013523,0.002678,0.000431,0.000823
64171000,0.0324,0.013523,0.002678,0.000431,0.000823
64172000,0.0324,0.013523,0.002678,0.000431,0.000940
64173000,0.0324,0.013523,0.002678,0.000431,0.000705
64174000,0.0324,0.013523,0.002678,0.000431,0.000940
64175000,0.0324,0.013523,0.002678,0.000431,0.000823
64176000,0.0324,0.013523,0.002678,0.000431,0.000823
64177000,0.0324,0.013523,0.002678,0.000431,0.000823
64178000,0.0324,0.013523,0.002678,0.000431,0.000823
64179000,0.0324,0.013523,0.002678,0.000431,0.000823
64180000,0.0324,0.013523,0.002678,0.000431,0.000823
64181000,0.0324,0.013523,0.002678,0.000431,0.000823
64182000,0.0324,0.013523,0.002678,0.000431,0.000823
64183000,0.0324,0.013523,0.002678,0.000431,0.000940
64184000,0.0324,0.013523,0.002678,0.000431,0.000823
64185000,0.0324,0.013523,0.002678,0.000431,0.000823
64186000,0.0324,0.013523,0.002678,0.000431,0.000705
64187000,0.0324,0.013523,0.002678,0.000431,0.000940
64188000,0.0324,0.013523,0.002678,0.000431,0.000705
64189000,0.0324,0.013523,0.002678,0.000431,0.199798
64190000,0.0324,0.013523,0.002678,0.000431,0.565663
64191000,0.0324,0.013523,0.002678,0.000431,0.403827
64192000,0.0324,0.013523,0.002678,0.000431,0.132102
64193000,0.0324,0.013523,0.002678,0.000431,0.151259
64194000,0.0324,0.013523,0.002678,0.000431,0.614085
64195000,0.0324,0.013523,0.002678,0.000431,0.305691
64196000,0.0324,0.013523,0.002678,0.000431,0.275369
64197000,0.0324,0.013523,0.002678,0.000431,0.249512
64198000,0.0324,0.013523,0.002678,0.000431,0.140916
64199000,0.0324,0.013523,0.002678,0.000431,0.119174
64200000,0.0324,0.013523,0.002678,0.000431,0.265026
64201000,0.0324,0.013523,0.002678,0.000431,0.383024
64202000,0.0324,0.013523,0.002678,0.000431,0.116470
64203000,0.0324,0.013523,0.002678,0.000431,0.087794
64204000,0.0324,0.013523,0.002678,0.000431,0.071105
64205000,0.0324,0.013523,0.002678,0.000431,0.045483
64206000,0.0324,0.013523,0.002678,0.000431,0.053710
64207000,0.0324,0.013523,0.002678,0.000431,0.036786
64208000,0.0324,0.013523,0.002678,0.000431,0.034553
64209000,0.0324,0.013523,0.002678,0.000431,0.037491
64210000,0.0324,0.013523,0.002678,0.000431,0.030087
64211000,0.0324,0.013523,0.002678,0.000431,0.021743
64212000,0.0324,0.013523,0.002678,0.000431,0.016689
64213000,0.0324,0.013523,0.002678,0.000431,0.012105
64214000,0.0324,0.013523,0.002678,0.000431,0.011518
64215000,0.0324,0.013523,0.002678,0.000431,0.012576
64216000,0.0324,0.013523,0.002678,0.000431,0.012576
64217000,0.0324,0.013523,0.002678,0.000431,0.013986
64218000,0.0324,0.013523,0.002678,0.000431,0.011753
64219000,0.0324,0.013523,0.002678,0.000431,0.009285
64220000,0.0324,0.013523,0.002678,0.000431,0.007639
64221000,0.0324,0.013523,0.002678,0.000431,0.007404
64222000,0.0324,0.013523,0.002678,0.000431,0.004701
64223000,0.0324,0.013523,0.002678,0.000431,0.004819
64224000,0.0324,0.013523,0.002678,0.000431,0.005406
64225000,0.0324,0.013523,0.002678,0.000431,0.004584
64226000,0.0324,0.013523,0.002678,0.000431,0.004936
64227000,0.0324,0.013523,0.002678,0.000431,0.005054
64228000,0.0324,0.013523,0.002678,0.000431,0.004936
64229000,0.0324,0.013523,0.002678,0.000431,0.007169
64230000,0.0324,0.013523,0.002678,0.000431,0.003996
64231000,0.0324,0.013523,0.002678,0.000431,0.004466
64232000,0.0324,0.013523,0.002678,0.000431,0.003878
64233000,0.0324,0.013523,0.002678,0.000431,0.003173
64234000,0.0324,0.013523,0.002678,0.000431,0.003408
64235000,0.0324,0.013523,0.002678,0.000431,0.003408
64236000,0.0324,0.013523,0.002678,0.000431,0.003291
64237000,0.0324,0.013523,0.002678,0.000431,0.003408
64238000,0.0324,0.013523,0.002678,0.000431,0.003526
64239000,0.0324,0.013523,0.002678,0.000431,0.003408
64240000,0.0324,0.013523,0.002678,0.000431,0.003291
64241000,0.0324,0.013523,0.002678,0.000431,0.003408
64242000,0.0324,0.013523,0.002678,0.000431,0.003408
64243000,0.0324,0.013523,0.002678,0.000431,0.003408
64244000,0.0324,0.013523,0.002678,0.000431,0.003291
64245000,0.0324,0.013523,0.002678,0.000431,0.003173
64246000,0.0324,0.013523,0.002678,0.000431,0.003643
64247000,0.0324,0.013523,0.002678,0.000431,0.003526
64248000,0.0324,0.013523,0.002678,0.000431,0.003056
64249000,0.0324,0.013523,0.002678,0.000431,0.003643
64250000,0.0324,0.013523,0.002678,0.000431,0.003173
64251000,0.0324,0.013523,0.002678,0.000431,0.003643
64252000,0.0324,0.013523,0.002678,0.000431,0.003408
64253000,0.0324,0.013523,0.002678,0.000431,0.003291
64254000,0.0324,0.013523,0.002678,0.000431,0.003761
64255000,0.0324,0.013523,0.002678,0.000431,0.004231
64256000,0.0324,0.013523,0.002678,0.000431,0.002703
64257000,0.0324,0.013523,0.002678,0.000431,0.002586
64258000,0.0324,0.013523,0.002678,0.000431,0.002586
64259000,0.0324,0.013523,0.002678,0.000431,0.002586
64260000,0.0324,0.013523,0.002678,0.000431,0.002468
64261000,0.0324,0.013523,0.002678,0.000431,0.002703
64262000,0.0324,0.013523,0.002678,0.000431,0.002586
64263000,0.0324,0.013523,0.002678,0.000431,0.004466
64264000,0.0324,0.013523,0.002678,0.000431,0.001645
64265000,0.0324,0.013523,0.002678,0.000431,0.001763
64266000,0.0324,0.013523,0.002678,0.000431,0.001880
64267000,0.0324,0.013523,0.002678,0.000431,0.001528
64268000,0.0324,0.013523,0.002678,0.000431,0.001645
64269000,0.0324,0.013523,0.002678,0.000431,0.001880
64270000,0.0324,0.013523,0.002678,0.000431,0.001763
64271000,0.0324,0.013523,0.002678,0.000431,0.001645
64272000,0.0324,0.013523,0.002678,0.000431,0.001645
64273000,0.0324,0.013523,0.002678,0.000431,0.001645
64274000,0.0324,0.013523,0.002678,0.000431,0.001763
64275000,0.0324,0.013523,0.002678,0.000431,0.001880
64276000,0.0324,0.013523,0.002678,0.000431,0.001528
64277000,0.0324,0.013523,0.002678,0.000431,0.001880
64278000,0.0324,0.013523,0.002678,0.000431,0.001528
64279000,0.0324,0.013523,0.002678,0.000431,0.001763
64280000,0.0324,0.013523,0.002678,0.000431,0.001880
64281000,0.0324,0.013523,0.002678,0.000431,0.003643
64282000,0.0324,0.013523,0.002678,0.000431,0.000940
64283000,0.0324,0.013523,0.002678,0.000431,0.000705
64284000,0.0324,0.013523,0.002678,0.000431,0.000940
64285000,0.0324,0.013523,0.002678,0.000431,0.000823
64286000,0.0324,0.013523,0.002678,0.000431,0.000823
64287000,0.0324,0.013523,0.002678,0.000431,0.000823
64288000,0.0324,0.013523,0.002678,0.000431,0.000823
64289000,0.0324,0.013523,0.002678,0.000431,0.000823
64290000,0.0324,0.013523,0.002678,0.000431,0.000823
64291000,0.0324,0.013523,0.002678,0.000431,0.000940
64292000,0.0324,0.013523,0.002678,0.000431,0.000823
64293000,0.0324,0.013523,0.002678,0.000431,0.000823
64294000,0.0324,0.013523,0.002678,0.000431,0.000823
64295000,0.0324,0.013523,0.002678,0.000431,0.000823
64296000,0.0324,0.013523,0.002678,0.000431,0.000940
64297000,0.0324,0.013523,0.002678,0.000431,0.205792
64298000,0.0324,0.013523,0.002678,0.000431,0.527466
64299000,0.0324,0.013523,0.002678,0.000431,0.514773
64300000,0.0324,0.013523,0.002678,0.000431,0.133042
64301000,0.0324,0.013523,0.002678,0.000431,0.133512
64302000,0.0324,0.013523,0.002678,0.000431,0.575536
64303000,0.0324,0.013523,0.002678,0.000431,0.266907
64304000,0.0324,0.013523,0.002678,0.000431,0.241050
64305000,0.0324,0.013523,0.002678,0.000431,0.275251
64306000,0.0324,0.013523,0.002678,0.000431,0.139153
64307000,0.0324,0.013523,0.002678,0.000431,0.165480
64308000,0.0324,0.013523,0.002678,0.000431,0.105540
64309000,0.0324,0.013523,0.002678,0.000431,0.449780
64310000,0.0324,0.013523,0.002678,0.000431,0.124462
64311000,0.0324,0.013523,0.002678,0.000431,0.055826
64312000,0.0324,0.013523,0.002678,0.000431,0.045013
64313000,0.0324,0.013523,0.002678,0.000431,0.038549
64314000,0.0324,0.013523,0.002678,0.000431,0.037021
64315000,0.0324,0.013523,0.002678,0.000431,0.032320
64316000,0.0324,0.013523,0.002678,0.000431,0.028207
64317000,0.0324,0.013523,0.002678,0.000431,0.029852
64318000,0.0324,0.013523,0.002678,0.000431,0.028794
64319000,0.0324,0.013523,0.002678,0.000431,0.022683
64320000,0.0324,0.013523,0.002678,0.000431,0.025034
64321000,0.0324,0.013523,0.002678,0.000431,0.018334
64322000,0.0324,0.013523,0.002678,0.000431,0.014573
64323000,0.0324,0.013523,0.002678,0.000431,0.016689
64324000,0.0324,0.013523,0.002678,0.000431,0.015396
64325000,0.0324,0.013523,0.002678,0.000431,0.017629
64326000,0.0324,0.013523,0.002678,0.000431,0.013516
64327000,0.0324,0.013523,0.002678,0.000431,0.016924
64328000,0.0324,0.013523,0.002678,0.000431,0.013633
64329000,0.0324,0.013523,0.002678,0.000431,0.011518
64330000,0.0324,0.013523,0.002678,0.000431,0.012340
64331000,0.0324,0.013523,0.002678,0.000431,0.007992
64332000,0.0324,0.013523,0.002678,0.000431,0.009402
64333000,0.0324,0.013523,0.002678,0.000431,0.008580
64334000,0.0324,0.013523,0.002678,0.000431,0.007522
64335000,0.0324,0.013523,0.002678,0.000431,0.007992
64336000,0.0324,0.013523,0.002678,0.000431,0.007169
64337000,0.0324,0.013523,0.002678,0.000431,0.007992
64338000,0.0324,0.013523,0.002678,0.000431,0.009520
64339000,0.0324,0.013523,0.002678,0.000431,0.007052
64340000,0.0324,0.013523,0.002678,0.000431,0.010342
64341000,0.0324,0.013523,0.002678,0.000431,0.005759
64342000,0.0324,0.013523,0.002678,0.000431,0.008580
64343000,0.0324,0.013523,0.002678,0.000431,0.004819
64344000,0.0324,0.013523,0.002678,0.000431,0.005289
64345000,0.0324,0.013523,0.002678,0.000431,0.004936
64346000,0.0324,0.013523,0.002678,0.000431,0.005171
64347000,0.0324,0.013523,0.002678,0.000431,0.006699
64348000,0.0324,0.013523,0.002678,0.000431,0.008345
64349000,0.0324,0.013523,0.002678,0.000431,0.002821
64350000,0.0324,0.013523,0.002678,0.000431,0.002351
64351000,0.0324,0.013523,0.002678,0.000431,0.002703
64352000,0.0324,0.013523,0.002678,0.000431,0.002468
64353000,0.0324,0.013523,0.002678,0.000431,0.002468
64354000,0.0324,0.013523,0.002678,0.000431,0.002703
64355000,0.0324,0.013523,0.002678,0.000431,0.002586
64356000,0.0324,0.013523,0.002678,0.000431,0.002586
64357000,0.0324,0.013523,0.002678,0.000431,0.002351
64358000,0.0324,0.013523,0.002678,0.000431,0.002703
64359000,0.0324,0.013523,0.002678,0.000431,0.002586
64360000,0.0324,0.013523,0.002678,0.000431,0.002468
64361000,0.0324,0.013523,0.002678,0.000431,0.002468
64362000,0.0324,0.013523,0.002678,0.000431,0.002703
64363000,0.0324,0.013523,0.002678,0.000431,0.002468
64364000,0.0324,0.013523,0.002678,0.000431,0.002586
64365000,0.0324,0.013523,0.002678,0.000431,0.002586
64366000,0.0324,0.013523,0.002678,0.000431,0.002351
64367000,0.0324,0.013523,0.002678,0.000431,0.002703
64368000,0.0324,0.013523,0.002678,0.000431,0.002586
64369000,0.0324,0.013523,0.002678,0.000431,0.002468
64370000,0.0324,0.013523,0.002678,0.000431,0.002468
64371000,0.0324,0.013523,0.002678,0.000431,0.002468
64372000,0.0324,0.013523,0.002678,0.000431,0.002821
64373000,0.0324,0.013523,0.002678,0.000431,0.002468
64374000,0.0324,0.013523,0.002678,0.000431,0.002586
64375000,0.0324,0.013523,0.002678,0.000431,0.002468
64376000,0.0324,0.013523,0.002678,0.000431,0.002586
64377000,0.0324,0.013523,0.002678,0.000431,0.002703
64378000,0.0324,0.013523,0.002678,0.000431,0.002351
64379000,0.0324,0.013523,0.002678,0.000431,0.002703
64380000,0.0324,0.013523,0.002678,0.000431,0.002468
64381000,0.0324,0.013523,0.002678,0.000431,0.002703
64382000,0.0324,0.013523,0.002678,0.000431,0.002468
64383000,0.0324,0.013523,0.002678,0.000431,0.002468
64384000,0.0324,0.013523,0.002678,0.000431,0.002703
64385000,0.0324,0.013523,0.002678,0.000431,0.002468
64386000,0.0324,0.013523,0.002678,0.000431,0.002586
64387000,0.0324,0.013523,0.002678,0.000431,0.002468
64388000,0.0324,0.013523,0.002678,0.000431,0.002468
64389000,0.0324,0.013523,0.002678,0.000431,0.002468
64390000,0.0324,0.013523,0.002678,0.000431,0.002703
64391000,0.0324,0.013523,0.002678,0.000431,0.003878
64392000,0.0324,0.013523,0.002678,0.000431,0.003056
64393000,0.0324,0.013523,0.002678,0.000431,0.001058
64394000,0.0324,0.013523,0.002678,0.000431,0.000705
64395000,0.0324,0.013523,0.002678,0.000431,0.000940
64396000,0.0324,0.013523,0.002678,0.000431,0.000940
64397000,0.0324,0.013523,0.002678,0.000431,0.000705
64398000,0.0324,0.013523,0.002678,0.000431,0.000940
64399000,0.0324,0.013523,0.002678,0.000431,0.000705
64400000,0.0324,0.013523,0.002678,0.000431,0.000940
64401000,0.0324,0.013523,0.002678,0.000431,0.000823
64402000,0.0324,0.013523,0.002678,0.000431,0.000823
64403000,0.0324,0.013523,0.002678,0.000431,0.000823
64404000,0.0324,0.013523,0.002678,0.000431,0.000823
64405000,0.0324,0.013523,0.002678,0.000431,0.000940
64406000,0.0324,0.013523,0.002678,0.000431,0.000705
64407000,0.0324,0.013523,0.002678,0.000431,0.000940
64408000,0.0324,0.013523,0.002678,0.000431,0.000823
64409000,0.0324,0.013523,0.002678,0.000431,0.000823
64410000,0.0324,0.013523,0.002678,0.000431,0.000823
64411000,0.0324,0.013523,0.002678,0.000431,0.000823
64412000,0.0324,0.013523,0.002678,0.000431,0.000823
64413000,0.0324,0.013523,0.002678,0.000431,0.000823
64414000,0.0324,0.013523,0.002678,0.000431,0.000823
64415000,0.0324,0.013523,0.002678,0.000431,0.000823
64416000,0.0324,0.013523,0.002678,0.000431,0.000940
64417000,0.0324,0.013523,0.002678,0.000431,0.000823
64418000,0.0324,0.013523,0.002678,0.000431,0.000823
64419000,0.0324,0.013523,0.002678,0.000431,0.000705
64420000,0.0324,0.013523,0.002678,0.000431,0.000940
64421000,0.0324,0.013523,0.002678,0.000431,0.000940
64422000,0.0324,0.013523,0.002678,0.000431,0.000705
64423000,0.0324,0.013523,0.002678,0.000431,0.000940
64424000,0.0324,0.013523,0.002678,0.000431,0.000705
64425000,0.0324,0.013523,0.002678,0.000431,0.000940
64426000,0.0324,0.013523,0.002678,0.000431,0.000823
64427000,0.0324,0.013523,0.002678,0.000431,0.000823
64428000,0.0324,0.013523,0.002678,0.000431,0.000940
64429000,0.0324,0.013523,0.002678,0.000431,0.000705
64430000,0.0324,0.013523,0.002678,0.000431,0.000940
64431000,0.0324,0.013523,0.002678,0.000431,0.000823
64432000,0.0324,0.013523,0.002678,0.000431,0.000823
64433000,0.0324,0.013523,0.002678,0.000431,0.000823
64434000,0.0324,0.013523,0.002678,0.000431,0.000823
64435000,0.0324,0.013523,0.002678,0.000431,0.000823
64436000,0.0324,0.013523,0.002678,0.000431,0.000823
64437000,0.0324,0.013523,0.002678,0.000431,0.000940
64438000,0.0324,0.013523,0.002678,0.000431,0.000705
64439000,0.0324,0.013523,0.002678,0.000431,0.000940
64440000,0.0324,0.013523,0.002678,0.000431,0.000823
64441000,0.0324,0.013523,0.002678,0.000431,0.000823
64442000,0.0324,0.013523,0.002678,0.000431,0.000705
64443000,0.0324,0.013523,0.002678,0.000431,0.000940
64444000,0.0324,0.013523,0.002678,0.000431,0.000940
64445000,0.0324,0.013523,0.002678,0.000431,0.000705
64446000,0.0324,0.013523,0.002678,0.000431,0.000940
64447000,0.0324,0.013523,0.002678,0.000431,0.000705
64448000,0.0324,0.013523,0.002678,0.000431,0.000940
64449000,0.0324,0.013523,0.002678,0.000431,0.000823
64450000,0.0324,0.013523,0.002678,0.000431,0.000823
64451000,0.0324,0.013523,0.002678,0.000431,0.000940
64452000,0.0324,0.013523,0.002678,0.000431,0.000705
64453000,0.0324,0.013523,0.002678,0.000431,0.000940
64454000,0.0324,0.013523,0.002678,0.000431,0.000823
64455000,0.0324,0.013523,0.002678,0.000431,0.000823
64456000,0.0324,0.013523,0.002678,0.000431,0.000823
64457000,0.0324,0.013523,0.002678,0.000431,0.000823
64458000,0.0324,0.013523,0.002678,0.000431,0.000823
64459000,0.0324,0.013523,0.002678,0.000431,0.000823
64460000,0.0324,0.013523,0.002678,0.000431,0.000940
64461000,0.0324,0.013523,0.002678,0.000431,0.000705
64462000,0.0324,0.013523,0.002678,0.000431,0.000823
64463000,0.0324,0.013523,0.002678,0.000431,0.000940
64464000,0.0324,0.013523,0.002678,0.000431,0.000823
64465000,0.0324,0.013523,0.002678,0.000431,0.000823
64466000,0.0324,0.013523,0.002678,0.000431,0.000823
64467000,0.0324,0.013523,0.002678,0.000431,0.000705
64468000,0.0324,0.013523,0.002678,0.000431,0.000940
64469000,0.0324,0.013523,0.002678,0.000431,0.000940
64470000,0.0324,0.013523,0.002678,0.000431,0.000705
64471000,0.0324,0.013523,0.002678,0.000431,0.000940
64472000,0.0324,0.013523,0.002678,0.000431,0.000705
64473000,0.0324,0.013523,0.002678,0.000431,0.000940
64474000,0.0324,0.013523,0.002678,0.000431,0.000940
64475000,0.0324,0.013523,0.002678,0.000431,0.000705
64476000,0.0324,0.013523,0.002678,0.000431,0.000940
64477000,0.0324,0.013523,0.002678,0.000431,0.000705
64478000,0.0324,0.013523,0.002678,0.000431,0.000940
64479000,0.0324,0.013523,0.002678,0.000431,0.000823
64480000,0.0324,0.013523,0.002678,0.000431,0.000823
64481000,0.0324,0.013523,0.002678,0.000431,0.000823
64482000,0.0324,0.013523,0.002678,0.000431,0.000823
64483000,0.0324,0.013523,0.002678,0.000431,0.000940
64484000,0.0324,0.013523,0.002678,0.000431,0.000705
64485000,0.0324,0.013523,0.002678,0.000431,0.000940
64486000,0.0324,0.013523,0.002678,0.000431,0.000823
64487000,0.0324,0.013523,0.002678,0.000431,0.000823
64488000,0.0324,0.013523,0.002678,0.000431,0.000823
64489000,0.0324,0.013523,0.002678,0.000431,0.000823
64490000,0.0324,0.013523,0.002678,0.000431,0.000823
64491000,0.0324,0.013523,0.002678,0.000431,0.000823
64492000,0.0324,0.013523,0.002678,0.000431,0.000940
64493000,0.0324,0.013523,0.002678,0.000431,0.000823
64494000,0.0324,0.013523,0.002678,0.000431,0.000823
64495000,0.0324,0.013523,0.002678,0.000431,0.000705
64496000,0.0324,0.013523,0.002678,0.000431,0.000940
64497000,0.0324,0.013523,0.002678,0.000431,0.000940
64498000,0.0324,0.013523,0.002678,0.000431,0.000705
64499000,0.0324,0.013523,0.002678,0.000431,0.000940
64500000,0.0324,0.013523,0.002678,0.000431,0.000705
64501000,0.0324,0.013523,0.002678,0.000431,0.000940
64502000,0.0324,0.013523,0.002678,0.000431,0.000823
64503000,0.0324,0.013523,0.002678,0.000431,0.000823
64504000,0.0324,0.013523,0.002678,0.000431,0.000823
64505000,0.0324,0.013523,0.002678,0.000431,0.000823
64506000,0.0324,0.013523,0.002678,0.000431,0.000940
64507000,0.0324,0.013523,0.002678,0.000431,0.000823
64508000,0.0324,0.013523,0.002678,0.000431,0.000823
64509000,0.0324,0.013523,0.002678,0.000431,0.000823
64510000,0.0324,0.013523,0.002678,0.000431,0.000823
64511000,0.0324,0.013523,0.002678,0.000431,0.000823
64512000,0.0324,0.013523,0.002678,0.000431,0.000823
64513000,0.0324,0.013523,0.002678,0.000431,0.000940
64514000,0.0324,0.013523,0.002678,0.000431,0.000705
64515000,0.0324,0.013523,0.002678,0.000431,0.000823
64516000,0.0324,0.013523,0.002678,0.000431,0.000940
64517000,0.0324,0.013523,0.002678,0.000431,0.000823
64518000,0.0324,0.013523,0.002678,0.000431,0.000823
64519000,0.0324,0.013523,0.002678,0.000431,0.000823
64520000,0.0324,0.013523,0.002678,0.000431,0.000705
64521000,0.0324,0.013523,0.002678,0.000431,0.000940
64522000,0.0324,0.013523,0.002678,0.000431,0.000940
64523000,0.0324,0.013523,0.002678,0.000431,0.000705
64524000,0.0324,0.013523,0.002678,0.000431,0.000940
64525000,0.0324,0.013523,0.002678,0.000431,0.000705
64526000,0.0324,0.013523,0.002678,0.000431,0.000940
64527000,0.0324,0.013523,0.002678,0.000431,0.000940
64528000,0.0324,0.013523,0.002678,0.000431,0.000705
64529000,0.0324,0.013523,0.002678,0.000431,0.000940
64530000,0.0324,0.013523,0.002678,0.000431,0.000823
64531000,0.0324,0.013523,0.002678,0.000431,0.000823
64532000,0.0324,0.013523,0.002678,0.000431,0.000823
64533000,0.0324,0.013523,0.002678,0.000431,0.000823
64534000,0.0324,0.013523,0.002678,0.000431,0.000823
64535000,0.0324,0.013523,0.002678,0.000431,0.000823
64536000,0.0324,0.013523,0.002678,0.000431,0.000940
64537000,0.0324,0.013523,0.002678,0.000431,0.000823
64538000,0.0324,0.013523,0.002678,0.000431,0.000823
64539000,0.0324,0.013523,0.002678,0.000431,0.000823
64540000,0.0324,0.013523,0.002678,0.000431,0.000823
64541000,0.0324,0.013523,0.002678,0.000431,0.000823
64542000,0.0324,0.013523,0.002678,0.000431,0.000823
64543000,0.0324,0.013523,0.002678,0.000431,0.000940
64544000,0.0324,0.013523,0.002678,0.000431,0.000705
64545000,0.0324,0.013523,0.002678,0.000431,0.000940
64546000,0.0324,0.013523,0.002678,0.000431,0.000705
64547000,0.0324,0.013523,0.002678,0.000431,0.000940
64548000,0.0324,0.013523,0.002678,0.000431,0.000823
64549000,0.0324,0.013523,0.002678,0.000431,0.000823
64550000,0.0324,0.013523,0.002678,0.000431,0.000940
64551000,0.0324,0.013523,0.002678,0.000431,0.000705
64552000,0.0324,0.013523,0.002678,0.000431,0.000940
64553000,0.0324,0.013523,0.002678,0.000431,0.000823
64554000,0.0324,0.013523,0.002678,0.000431,0.000823
64555000,0.0324,0.013523,0.002678,0.000431,0.000823
64556000,0.0324,0.013523,0.002678,0.000431,0.000823
64557000,0.0324,0.013523,0.002678,0.000431,0.000940
64558000,0.0324,0.013523,0.002678,0.000431,0.000705
64559000,0.0324,0.013523,0.002678,0.000431,0.000940
64560000,0.0324,0.013523,0.002678,0.000431,0.000823
64561000,0.0324,0.013523,0.002678,0.000431,0.000823
64562000,0.0324,0.013523,0.002678,0.000431,0.000823
64563000,0.0324,0.013523,0.002678,0.000431,0.000823
64564000,0.0324,0.013523,0.002678,0.000431,0.000823
64565000,0.0324,0.013523,0.002678,0.000431,0.000823
64566000,0.0324,0.013523,0.002678,0.000431,0.000823
64567000,0.0324,0.013523,0.002678,0.000431,0.000823
64568000,0.0324,0.013523,0.002678,0.000431,0.000940
64569000,0.0324,0.013523,0.002678,0.000431,0.000823
64570000,0.0324,0.013523,0.002678,0.000431,0.000823
64571000,0.0324,0.013523,0.002678,0.000431,0.000705
64572000,0.0324,0.013523,0.002678,0.000431,0.000940
64573000,0.0324,0.013523,0.002678,0.000431,0.000940
64574000,0.0324,0.013523,0.002678,0.000431,0.000705
64575000,0.0324,0.013523,0.002678,0.000431,0.000940
64576000,0.0324,0.013523,0.002678,0.000431,0.000705
64577000,0.0324,0.013523,0.002678,0.000431,0.000940
64578000,0.0324,0.013523,0.002678,0.000431,0.000823
64579000,0.0324,0.013523,0.002678,0.000431,0.000823
64580000,0.0324,0.013523,0.002678,0.000431,0.000940
64581000,0.0324,0.013523,0.002678,0.000431,0.000705
64582000,0.0324,0.013523,0.002678,0.000431,0.000940
64583000,0.0324,0.013523,0.002678,0.000431,0.000823
64584000,0.0324,0.013523,0.002678,0.000431,0.000823
64585000,0.0324,0.013523,0.002678,0.000431,0.000823
64586000,0.0324,0.013523,0.002678,0.000431,0.000823
64587000,0.0324,0.013523,0.002678,0.000431,0.000823
64588000,0.0324,0.013523,0.002678,0.000431,0.000823
64589000,0.0324,0.013523,0.002678,0.000431,0.000940
64590000,0.0324,0.013523,0.002678,0.000431,0.000705
64591000,0.0324,0.013523,0.002678,0.000431,0.000940
64592000,0.0324,0.013523,0.002678,0.000431,0.000823
64593000,0.0324,0.013523,0.002678,0.000431,0.000823
64594000,0.0324,0.013523,0.002678,0.000431,0.000705
64595000,0.0324,0.013523,0.002678,0.000431,0.000940
64596000,0.0324,0.013523,0.002678,0.000431,0.000940
64597000,0.0324,0.013523,0.002678,0.000431,0.000705
64598000,0.0324,0.013523,0.002678,0.000431,0.000940
64599000,0.0324,0.013523,0.002678,0.000431,0.000705
64600000,0.0324,0.013523,0.002678,0.000431,0.000940
64601000,0.0324,0.013523,0.002678,0.000431,0.000823
64602000,0.0324,0.013523,0.002678,0.000431,0.000823
64603000,0.0324,0.013523,0.002678,0.000431,0.000940
64604000,0.0324,0.013523,0.002678,0.000431,0.000705
64605000,0.0324,0.013523,0.002678,0.000431,0.000940
64606000,0.0324,0.013523,0.002678,0.000431,0.000705
64607000,0.0324,0.013523,0.002678,0.000431,0.000940
64608000,0.0324,0.013523,0.002678,0.000431,0.000823
64609000,0.0324,0.013523,0.002678,0.000431,0.000823
64610000,0.0324,0.013523,0.002678,0.000431,0.000823
64611000,0.0324,0.013523,0.002678,0.000431,0.000823
64612000,0.0324,0.013523,0.002678,0.000431,0.000940
64613000,0.0324,0.013523,0.002678,0.000431,0.000705
64614000,0.0324,0.013523,0.002678,0.000431,0.000823
64615000,0.0324,0.013523,0.002678,0.000431,0.000823
64616000,0.0324,0.013523,0.002678,0.000431,0.000940
64617000,0.0324,0.013523,0.002678,0.000431,0.000823
64618000,0.0324,0.013523,0.002678,0.000431,0.000823
64619000,0.0324,0.013523,0.002678,0.000431,0.000705
64620000,0.0324,0.013523,0.002678,0.000431,0.000940
64621000,0.0324,0.013523,0.002678,0.000431,0.000940
64622000,0.0324,0.013523,0.002678,0.000431,0.000705
64623000,0.0324,0.013523,0.002678,0.000431,0.000940
64624000,0.0324,0.013523,0.002678,0.000431,0.172414
64625000,0.0324,0.013523,0.002678,0.000431,0.458477
64626000,0.0324,0.013523,0.002678,0.000431,0.529582
64627000,0.0324,0.013523,0.002678,0.000431,0.135863
64628000,0.0324,0.013523,0.002678,0.000431,0.130221
64629000,0.0324,0.013523,0.002678,0.000431,0.596926
64630000,0.0324,0.013523,0.002678,0.000431,0.264909
64631000,0.0324,0.013523,0.002678,0.000431,0.223304
64632000,0.0324,0.013523,0.002678,0.000431,0.267024
64633000,0.0324,0.013523,0.002678,0.000431,0.145030
64634000,0.0324,0.013523,0.002678,0.000431,0.146088
64635000,0.0324,0.013523,0.002678,0.000431,0.118586
64636000,0.0324,0.013523,0.002678,0.000431,0.326846
64637000,0.0324,0.013523,0.002678,0.000431,0.284771
64638000,0.0324,0.013523,0.002678,0.000431,0.056296
64639000,0.0324,0.013523,0.002678,0.000431,0.048069
64640000,0.0324,0.013523,0.002678,0.000431,0.043133
64641000,0.0324,0.013523,0.002678,0.000431,0.037727
64642000,0.0324,0.013523,0.002678,0.000431,0.038667
64643000,0.0324,0.013523,0.002678,0.000431,0.031262
64644000,0.0324,0.013523,0.002678,0.000431,0.029382
64645000,0.0324,0.013523,0.002678,0.000431,0.022330
64646000,0.0324,0.013523,0.002678,0.000431,0.017629
64647000,0.0324,0.013523,0.002678,0.000431,0.021038
64648000,0.0324,0.013523,0.002678,0.000431,0.016924
64649000,0.0324,0.013523,0.002678,0.000431,0.018452
64650000,0.0324,0.013523,0.002678,0.000431,0.017864
64651000,0.0324,0.013523,0.002678,0.000431,0.016571
64652000,0.0324,0.013523,0.002678,0.000431,0.015631
64653000,0.0324,0.013523,0.002678,0.000431,0.016454
64654000,0.0324,0.013523,0.002678,0.000431,0.013633
64655000,0.0324,0.013523,0.002678,0.000431,0.012693
64656000,0.0324,0.013523,0.002678,0.000431,0.011635
64657000,0.0324,0.013523,0.002678,0.000431,0.011870
64658000,0.0324,0.013523,0.002678,0.000431,0.012105
64659000,0.0324,0.013523,0.002678,0.000431,0.011518
64660000,0.0324,0.013523,0.002678,0.000431,0.010460
64661000,0.0324,0.013523,0.002678,0.000431,0.009990
64662000,0.0324,0.013523,0.002678,0.000431,0.009872
64663000,0.0324,0.013523,0.002678,0.000431,0.007522
64664000,0.0324,0.013523,0.002678,0.000431,0.007522
64665000,0.0324,0.013523,0.002678,0.000431,0.007404
64666000,0.0324,0.013523,0.002678,0.000431,0.007757
64667000,0.0324,0.013523,0.002678,0.000431,0.007757
64668000,0.0324,0.013523,0.002678,0.000431,0.008345
64669000,0.0324,0.013523,0.002678,0.000431,0.008109
64670000,0.0324,0.013523,0.002678,0.000431,0.006699
64671000,0.0324,0.013523,0.002678,0.000431,0.006111
64672000,0.0324,0.013523,0.002678,0.000431,0.007522
64673000,0.0324,0.013523,0.002678,0.000431,0.007169
64674000,0.0324,0.013523,0.002678,0.000431,0.004349
64675000,0.0324,0.013523,0.002678,0.000431,0.004231
64676000,0.0324,0.013523,0.002678,0.000431,0.003996
64677000,0.0324,0.013523,0.002678,0.000431,0.004349
64678000,0.0324,0.013523,0.002678,0.000431,0.004231
64679000,0.0324,0.013523,0.002678,0.000431,0.003996
64680000,0.0324,0.013523,0.002678,0.000431,0.003761
64681000,0.0324,0.013523,0.002678,0.000431,0.004113
64682000,0.0324,0.013523,0.002678,0.000431,0.003878
64683000,0.0324,0.013523,0.002678,0.000431,0.003996
64684000,0.0324,0.013523,0.002678,0.000431,0.004349
64685000,0.0324,0.013523,0.002678,0.000431,0.003761
64686000,0.0324,0.013523,0.002678,0.000431,0.003996
64687000,0.0324,0.013523,0.002678,0.000431,0.004113
64688000,0.0324,0.013523,0.002678,0.000431,0.003996
64689000,0.0324,0.013523,0.002678,0.000431,0.003878
64690000,0.0324,0.013523,0.002678,0.000431,0.004349
64691000,0.0324,0.013523,0.002678,0.000431,0.003643
64692000,0.0324,0.013523,0.002678,0.000431,0.004231
64693000,0.0324,0.013523,0.002678,0.000431,0.003761
64694000,0.0324,0.013523,0.002678,0.000431,0.003996
64695000,0.0324,0.013523,0.002678,0.000431,0.003996
64696000,0.0324,0.013523,0.002678,0.000431,0.004113
64697000,0.0324,0.013523,0.002678,0.000431,0.003761
64698000,0.0324,0.013523,0.002678,0.000431,0.004231
64699000,0.0324,0.013523,0.002678,0.000431,0.003996
64700000,0.0324,0.013523,0.002678,0.000431,0.004231
64701000,0.0324,0.013523,0.002678,0.000431,0.007169
64702000,0.0324,0.013523,0.002678,0.000431,0.003173
64703000,0.0324,0.013523,0.002678,0.000431,0.002703
64704000,0.0324,0.013523,0.002678,0.000431,0.003526
64705000,0.0324,0.013523,0.002678,0.000431,0.003996
64706000,0.0324,0.013523,0.002678,0.000431,0.003408
64707000,0.0324,0.013523,0.002678,0.000431,0.002468
64708000,0.0324,0.013523,0.002678,0.000431,0.002233
64709000,0.0324,0.013523,0.002678,0.000431,0.002116
64710000,0.0324,0.013523,0.002678,0.000431,0.002586
64711000,0.0324,0.013523,0.002678,0.000431,0.002233
64712000,0.0324,0.013523,0.002678,0.000431,0.002351
64713000,0.0324,0.013523,0.002678,0.000431,0.002233
64714000,0.0324,0.013523,0.002678,0.000431,0.001645
64715000,0.0324,0.013523,0.002678,0.000431,0.001645
64716000,0.0324,0.013523,0.002678,0.000431,0.001645
64717000,0.0324,0.013523,0.002678,0.000431,0.001763
64718000,0.0324,0.013523,0.002678,0.000431,0.001645
64719000,0.0324,0.013523,0.002678,0.000431,0.001645
64720000,0.0324,0.013523,0.002678,0.000431,0.001763
64721000,0.0324,0.013523,0.002678,0.000431,0.001528
64722000,0.0324,0.013523,0.002678,0.000431,0.001763
64723000,0.0324,0.013523,0.002678,0.000431,0.002586
64724000,0.0324,0.013523,0.002678,0.000431,0.001880
64725000,0.0324,0.013523,0.002678,0.000431,0.000823
64726000,0.0324,0.013523,0.002678,0.000431,0.000823
64727000,0.0324,0.013523,0.002678,0.000431,0.000940
64728000,0.0324,0.013523,0.002678,0.000431,0.000705
64729000,0.0324,0.013523,0.002678,0.000431,0.000940
64730000,0.0324,0.013523,0.002678,0.000431,0.000823
64731000,0.0324,0.013523,0.002678,0.000431,0.000823
64732000,0.0324,0.013523,0.002678,0.000431,0.000940
64733000,0.0324,0.013523,0.002678,0.000431,0.000823
64734000,0.0324,0.013523,0.002678,0.000431,0.000940
64735000,0.0324,0.013523,0.002678,0.000431,0.000823
64736000,0.0324,0.013523,0.002678,0.000431,0.000705
64737000,0.0324,0.013523,0.002678,0.000431,0.000940
64738000,0.0324,0.013523,0.002678,0.000431,0.000940
64739000,0.0324,0.013523,0.002678,0.000431,0.000705
64740000,0.0324,0.013523,0.002678,0.000431,0.000940
64741000,0.0324,0.013523,0.002678,0.000431,0.000705
64742000,0.0324,0.013523,0.002678,0.000431,0.000940
64743000,0.0324,0.013523,0.002678,0.000431,0.000823
64744000,0.0324,0.013523,0.002678,0.000431,0.000823
64745000,0.0324,0.013523,0.002678,0.000431,0.000823
64746000,0.0324,0.013523,0.002678,0.000431,0.000823
64747000,0.0324,0.013523,0.002678,0.000431,0.000940
64748000,0.0324,0.013523,0.002678,0.000431,0.000705
64749000,0.0324,0.013523,0.002678,0.000431,0.000940
64750000,0.0324,0.013523,0.002678,0.000431,0.000823
64751000,0.0324,0.013523,0.002678,0.000431,0.013868
64752000,0.0324,0.013523,0.002678,0.000431,0.513833
64753000,0.0324,0.013523,0.002678,0.000431,0.591637
64754000,0.0324,0.013523,0.002678,0.000431,0.135392
64755000,0.0324,0.013523,0.002678,0.000431,0.130221
64756000,0.0324,0.013523,0.002678,0.000431,0.394895
64757000,0.0324,0.013523,0.002678,0.000431,0.401829
64758000,0.0324,0.013523,0.002678,0.000431,0.247514
64759000,0.0324,0.013523,0.002678,0.000431,0.320382
64760000,0.0324,0.013523,0.002678,0.000431,0.154667
64761000,0.0324,0.013523,0.002678,0.000431,0.150554
64762000,0.0324,0.013523,0.002678,0.000431,0.123405
64763000,0.0324,0.013523,0.002678,0.000431,0.297229
64764000,0.0324,0.013523,0.002678,0.000431,0.297581
64765000,0.0324,0.013523,0.002678,0.000431,0.051242
64766000,0.0324,0.013523,0.002678,0.000431,0.046306
64767000,0.0324,0.013523,0.002678,0.000431,0.036434
64768000,0.0324,0.013523,0.002678,0.000431,0.027854
64769000,0.0324,0.013523,0.002678,0.000431,0.023153
64770000,0.0324,0.013523,0.002678,0.000431,0.024328
64771000,0.0324,0.013523,0.002678,0.000431,0.020685
64772000,0.0324,0.013523,0.002678,0.000431,0.019157
64773000,0.0324,0.013523,0.002678,0.000431,0.020920
64774000,0.0324,0.013523,0.002678,0.000431,0.020920
64775000,0.0324,0.013523,0.002678,0.000431,0.014338
64776000,0.0324,0.013523,0.002678,0.000431,0.014338
64777000,0.0324,0.013523,0.002678,0.000431,0.014103
64778000,0.0324,0.013523,0.002678,0.000431,0.014456
64779000,0.0324,0.013523,0.002678,0.000431,0.012576
64780000,0.0324,0.013523,0.002678,0.000431,0.012811
64781000,0.0324,0.013523,0.002678,0.000431,0.012693
64782000,0.0324,0.013523,0.002678,0.000431,0.012458
64783000,0.0324,0.013523,0.002678,0.000431,0.011048
64784000,0.0324,0.013523,0.002678,0.000431,0.010460
64785000,0.0324,0.013523,0.002678,0.000431,0.009637
64786000,0.0324,0.013523,0.002678,0.000431,0.008815
64787000,0.0324,0.013523,0.002678,0.000431,0.009520
64788000,0.0324,0.013523,0.002678,0.000431,0.009402
64789000,0.0324,0.013523,0.002678,0.000431,0.008932
64790000,0.0324,0.013523,0.002678,0.000431,0.009520
64791000,0.0324,0.013523,0.002678,0.000431,0.009285
64792000,0.0324,0.013523,0.002678,0.000431,0.009755
64793000,0.0324,0.013523,0.002678,0.000431,0.010225
64794000,0.0324,0.013523,0.002678,0.000431,0.008580
64795000,0.0324,0.013523,0.002678,0.000431,0.009520
64796000,0.0324,0.013523,0.002678,0.000431,0.008462
64797000,0.0324,0.013523,0.002678,0.000431,0.007757
64798000,0.0324,0.013523,0.002678,0.000431,0.009050
64799000,0.0324,0.013523,0.002678,0.000431,0.006934
64800000,0.0324,0.013523,0.002678,0.000431,0.006582
64801000,0.0324,0.013523,0.002678,0.000431,0.006934
64802000,0.0324,0.013523,0.002678,0.000431,0.007757
64803000,0.0324,0.013523,0.002678,0.000431,0.007052
64804000,0.0324,0.013523,0.002678,0.000431,0.005994
64805000,0.0324,0.013523,0.002678,0.000431,0.005994
64806000,0.0324,0.013523,0.002678,0.000431,0.005641
64807000,0.0324,0.013523,0.002678,0.000431,0.006111
64808000,0.0324,0.013523,0.002678,0.000431,0.005994
64809000,0.0324,0.013523,0.002678,0.000431,0.005759
64810000,0.0324,0.013523,0.002678,0.000431,0.006111
64811000,0.0324,0.013523,0.002678,0.000431,0.006347
64812000,0.0324,0.013523,0.002678,0.000431,0.005994
64813000,0.0324,0.013523,0.002678,0.000431,0.006582
64814000,0.0324,0.013523,0.002678,0.000431,0.005171
64815000,0.0324,0.013523,0.002678,0.000431,0.004466
64816000,0.0324,0.013523,0.002678,0.000431,0.003996
64817000,0.0324,0.013523,0.002678,0.000431,0.004701
64818000,0.0324,0.013523,0.002678,0.000431,0.004113
64819000,0.0324,0.013523,0.002678,0.000431,0.004113
64820000,0.0324,0.013523,0.002678,0.000431,0.004466
64821000,0.0324,0.013523,0.002678,0.000431,0.005054
64822000,0.0324,0.013523,0.002678,0.000431,0.004584
64823000,0.0324,0.013523,0.002678,0.000431,0.003291
64824000,0.0324,0.013523,0.002678,0.000431,0.003526
64825000,0.0324,0.013523,0.002678,0.000431,0.003408
64826000,0.0324,0.013523,0.002678,0.000431,0.003526
64827000,0.0324,0.013523,0.002678,0.000431,0.004936
64828000,0.0324,0.013523,0.002678,0.000431,0.002703
64829000,0.0324,0.013523,0.002678,0.000431,0.002703
64830000,0.0324,0.013523,0.002678,0.000431,0.002468
64831000,0.0324,0.013523,0.002678,0.000431,0.002351
64832000,0.0324,0.013523,0.002678,0.000431,0.002703
64833000,0.0324,0.013523,0.002678,0.000431,0.002703
64834000,0.0324,0.013523,0.002678,0.000431,0.002351
64835000,0.0324,0.013523,0.002678,0.000431,0.002586
64836000,0.0324,0.013523,0.002678,0.000431,0.002586
64837000,0.0324,0.013523,0.002678,0.000431,0.002468
64838000,0.0324,0.013523,0.002678,0.000431,0.002703
64839000,0.0324,0.013523,0.002678,0.000431,0.002468
64840000,0.0324,0.013523,0.002678,0.000431,0.002586
64841000,0.0324,0.013523,0.002678,0.000431,0.002351
64842000,0.0324,0.013523,0.002678,0.000431,0.002586
64843000,0.0324,0.013523,0.002678,0.000431,0.002821
64844000,0.0324,0.013523,0.002678,0.000431,0.002468
64845000,0.0324,0.013523,0.002678,0.000431,0.002586
64846000,0.0324,0.013523,0.002678,0.000431,0.002351
64847000,0.0324,0.013523,0.002678,0.000431,0.002586
64848000,0.0324,0.013523,0.002678,0.000431,0.002703
64849000,0.0324,0.013523,0.002678,0.000431,0.002586
64850000,0.0324,0.013523,0.002678,0.000431,0.002468
64851000,0.0324,0.013523,0.002678,0.000431,0.002586
64852000,0.0324,0.013523,0.002678,0.000431,0.002586
64853000,0.0324,0.013523,0.002678,0.000431,0.003643
64854000,0.0324,0.013523,0.002678,0.000431,0.001645
64855000,0.0324,0.013523,0.002678,0.000431,0.001763
64856000,0.0324,0.013523,0.002678,0.000431,0.001528
64857000,0.0324,0.013523,0.002678,0.000431,0.001763
64858000,0.0324,0.013523,0.002678,0.000431,0.001645
64859000,0.0324,0.013523,0.002678,0.000431,0.001763
64860000,0.0324,0.013523,0.002678,0.000431,0.001528
64861000,0.0324,0.013523,0.002678,0.000431,0.001763
64862000,0.0324,0.013523,0.002678,0.000431,0.001645
64863000,0.0324,0.013523,0.002678,0.000431,0.001645
64864000,0.0324,0.013523,0.002678,0.000431,0.001645
64865000,0.0324,0.013523,0.002678,0.000431,0.001763
64866000,0.0324,0.013523,0.002678,0.000431,0.001645
64867000,0.0324,0.013523,0.002678,0.000431,0.001645
64868000,0.0324,0.013523,0.002678,0.000431,0.001763
64869000,0.0324,0.013523,0.002678,0.000431,0.001528
64870000,0.0324,0.013523,0.002678,0.000431,0.001763
64871000,0.0324,0.013523,0.002678,0.000431,0.001645
64872000,0.0324,0.013523,0.002678,0.000431,0.001645
64873000,0.0324,0.013523,0.002678,0.000431,0.001763
64874000,0.0324,0.013523,0.002678,0.000431,0.001763
64875000,0.0324,0.013523,0.002678,0.000431,0.001763
64876000,0.0324,0.013523,0.002678,0.000431,0.003408
64877000,0.0324,0.013523,0.002678,0.000431,0.000823
64878000,0.0324,0.013523,0.002678,0.000431,0.000823
64879000,0.0324,0.013523,0.002678,0.000431,0.000823
64880000,0.0324,0.013523,0.002678,0.000431,0.000823
64881000,0.0324,0.013523,0.002678,0.000431,0.000823
64882000,0.0324,0.013523,0.002678,0.000431,0.000940
64883000,0.0324,0.013523,0.002678,0.000431,0.000705
64884000,0.0324,0.013523,0.002678,0.000431,0.000823
64885000,0.0324,0.013523,0.002678,0.000431,0.000940
64886000,0.0324,0.013523,0.002678,0.000431,0.000823
64887000,0.0324,0.013523,0.002678,0.000431,0.000823
64888000,0.0324,0.013523,0.002678,0.000431,0.000823
64889000,0.0324,0.013523,0.002678,0.000431,0.000823
64890000,0.0324,0.013523,0.002678,0.000431,0.000823
64891000,0.0324,0.013523,0.002678,0.000431,0.000940
64892000,0.0324,0.013523,0.002678,0.000431,0.000705
64893000,0.0324,0.013523,0.002678,0.000431,0.000940
64894000,0.0324,0.013523,0.002678,0.000431,0.000705
64895000,0.0324,0.013523,0.002678,0.000431,0.000940
64896000,0.0324,0.013523,0.002678,0.000431,0.000940
64897000,0.0324,0.013523,0.002678,0.000431,0.000705
64898000,0.0324,0.013523,0.002678,0.000431,0.000940
64899000,0.0324,0.013523,0.002678,0.000431,0.000705
64900000,0.0324,0.013523,0.002678,0.000431,0.000940
64901000,0.0324,0.013523,0.002678,0.000431,0.000823
64902000,0.0324,0.013523,0.002678,0.000431,0.000823
64903000,0.0324,0.013523,0.002678,0.000431,0.000823
64904000,0.0324,0.013523,0.002678,0.000431,0.000823
64905000,0.0324,0.013523,0.002678,0.000431,0.000940
64906000,0.0324,0.013523,0.002678,0.000431,0.000705
64907000,0.0324,0.013523,0.002678,0.000431,0.000940
64908000,0.0324,0.013523,0.002678,0.000431,0.000823
64909000,0.0324,0.013523,0.002678,0.000431,0.000823
64910000,0.0324,0.013523,0.002678,0.000431,0.000823
64911000,0.0324,0.013523,0.002678,0.000431,0.000823
64912000,0.0324,0.013523,0.002678,0.000431,0.000823
64913000,0.0324,0.013523,0.002678,0.000431,0.000823
64914000,0.0324,0.013523,0.002678,0.000431,0.000940
64915000,0.0324,0.013523,0.002678,0.000431,0.000705
64916000,0.0324,0.013523,0.002678,0.000431,0.000940
64917000,0.0324,0.013523,0.002678,0.000431,0.000705
64918000,0.0324,0.013523,0.002678,0.000431,0.000940
64919000,0.0324,0.013523,0.002678,0.000431,0.000823
64920000,0.0324,0.013523,0.002678,0.000431,0.000823
64921000,0.0324,0.013523,0.002678,0.000431,0.000940
64922000,0.0324,0.013523,0.002678,0.000431,0.000705
64923000,0.0324,0.013523,0.002678,0.000431,0.000940
64924000,0.0324,0.013523,0.002678,0.000431,0.000823
64925000,0.0324,0.013523,0.002678,0.000431,0.000823
64926000,0.0324,0.013523,0.002678,0.000431,0.000823
64927000,0.0324,0.013523,0.002678,0.000431,0.000823
64928000,0.0324,0.013523,0.002678,0.000431,0.000823
64929000,0.0324,0.013523,0.002678,0.000431,0.000823
64930000,0.0324,0.013523,0.002678,0.000431,0.000940
64931000,0.0324,0.013523,0.002678,0.000431,0.000705
64932000,0.0324,0.013523,0.002678,0.000431,0.000823
64933000,0.0324,0.013523,0.002678,0.000431,0.000940
64934000,0.0324,0.013523,0.002678,0.000431,0.000823
64935000,0.0324,0.013523,0.002678,0.000431,0.000823
64936000,0.0324,0.013523,0.002678,0.000431,0.000823
64937000,0.0324,0.013523,0.002678,0.000431,0.000705
64938000,0.0324,0.013523,0.002678,0.000431,0.000940
64939000,0.0324,0.013523,0.002678,0.000431,0.000940
64940000,0.0324,0.013523,0.002678,0.000431,0.000705
64941000,0.0324,0.013523,0.002678,0.000431,0.000940
64942000,0.0324,0.013523,0.002678,0.000431,0.000705
64943000,0.0324,0.013523,0.002678,0.000431,0.000940
64944000,0.0324,0.013523,0.002678,0.000431,0.000823
64945000,0.0324,0.013523,0.002678,0.000431,0.000823
64946000,0.0324,0.013523,0.002678,0.000431,0.000940
64947000,0.0324,0.013523,0.002678,0.000431,0.000705
64948000,0.0324,0.013523,0.002678,0.000431,0.000940
64949000,0.0324,0.013523,0.002678,0.000431,0.000823
64950000,0.0324,0.013523,0.002678,0.000431,0.000823
64951000,0.0324,0.013523,0.002678,0.000431,0.000823
64952000,0.0324,0.013523,0.002678,0.000431,0.000823
64953000,0.0324,0.013523,0.002678,0.000431,0.000823
64954000,0.0324,0.013523,0.002678,0.000431,0.000823
64955000,0.0324,0.013523,0.002678,0.000431,0.000940
64956000,0.0324,0.013523,0.002678,0.000431,0.000705
64957000,0.0324,0.013523,0.002678,0.000431,0.000940
64958000,0.0324,0.013523,0.002678,0.000431,0.000823
64959000,0.0324,0.013523,0.002678,0.000431,0.000823
64960000,0.0324,0.013523,0.002678,0.000431,0.000705
64961000,0.0324,0.013523,0.002678,0.000431,0.000940
64962000,0.0324,0.013523,0.002678,0.000431,0.195802
64963000,0.0324,0.013523,0.002678,0.000431,0.497967
64964000,0.0324,0.013523,0.002678,0.000431,0.469173
64965000,0.0324,0.013523,0.002678,0.000431,0.133512
64966000,0.0324,0.013523,0.002678,0.000431,0.132102
64967000,0.0324,0.013523,0.002678,0.000431,0.587641
64968000,0.0324,0.013523,0.002678,0.000431,0.285829
64969000,0.0324,0.013523,0.002678,0.000431,0.226947
64970000,0.0324,0.013523,0.002678,0.000431,0.277249
64971000,0.0324,0.013523,0.002678,0.000431,0.142327
64972000,0.0324,0.013523,0.002678,0.000431,0.155490
64973000,0.0324,0.013523,0.002678,0.000431,0.105070
64974000,0.0324,0.013523,0.002678,0.000431,0.414992
64975000,0.0324,0.013523,0.002678,0.000431,0.175940
64976000,0.0324,0.013523,0.002678,0.000431,0.050067
64977000,0.0324,0.013523,0.002678,0.000431,0.040077
64978000,0.0324,0.013523,0.002678,0.000431,0.038432
64979000,0.0324,0.013523,0.002678,0.000431,0.033848
64980000,0.0324,0.013523,0.002678,0.000431,0.027972
64981000,0.0324,0.013523,0.002678,0.000431,0.023623
64982000,0.0324,0.013523,0.002678,0.000431,0.025739
64983000,0.0324,0.013523,0.002678,0.000431,0.021155
64984000,0.0324,0.013523,0.002678,0.000431,0.020097
64985000,0.0324,0.013523,0.002678,0.000431,0.024093
64986000,0.0324,0.013523,0.002678,0.000431,0.017864
64987000,0.0324,0.013523,0.002678,0.000431,0.016689
64988000,0.0324,0.013523,0.002678,0.000431,0.015866
64989000,0.0324,0.013523,0.002678,0.000431,0.013163
64990000,0.0324,0.013523,0.002678,0.000431,0.012811
64991000,0.0324,0.013523,0.002678,0.000431,0.012811
64992000,0.0324,0.013523,0.002678,0.000431,0.007992
64993000,0.0324,0.013523,0.002678,0.000431,0.007404
64994000,0.0324,0.013523,0.002678,0.000431,0.007052
64995000,0.0324,0.013523,0.002678,0.000431,0.007992
64996000,0.0324,0.013523,0.002678,0.000431,0.007169
64997000,0.0324,0.013523,0.002678,0.000431,0.007874
64998000,0.0324,0.013523,0.002678,0.000431,0.006934
64999000,0.0324,0.013523,0.002678,0.000431,0.007757
