Cycle,Area(mm^2),PeakDynamic(W),SubthresholdLeakage(W),GateLeakage(W),RunTimeDynamic(W)
137000000,0.0324,0.013523,0.002678,0.000431,0.140446
137001000,0.0324,0.013523,0.002678,0.000431,0.156900
137002000,0.0324,0.013523,0.002678,0.000431,0.202854
137003000,0.0324,0.013523,0.002678,0.000431,0.514891
137004000,0.0324,0.013523,0.002678,0.000431,0.233176
137005000,0.0324,0.013523,0.002678,0.000431,0.205909
137006000,0.0324,0.013523,0.002678,0.000431,0.159603
137007000,0.0324,0.013523,0.002678,0.000431,0.118586
137008000,0.0324,0.013523,0.002678,0.000431,0.103425
137009000,0.0324,0.013523,0.002678,0.000431,0.093082
137010000,0.0324,0.013523,0.002678,0.000431,0.070987
137011000,0.0324,0.013523,0.002678,0.000431,0.063348
137012000,0.0324,0.013523,0.002678,0.000431,0.050772
137013000,0.0324,0.013523,0.002678,0.000431,0.039372
137014000,0.0324,0.013523,0.002678,0.000431,0.040077
137015000,0.0324,0.013523,0.002678,0.000431,0.027031
137016000,0.0324,0.013523,0.002678,0.000431,0.026796
137017000,0.0324,0.013523,0.002678,0.000431,0.022095
137018000,0.0324,0.013523,0.002678,0.000431,0.022448
137019000,0.0324,0.013523,0.002678,0.000431,0.021273
137020000,0.0324,0.013523,0.002678,0.000431,0.011165
137021000,0.0324,0.013523,0.002678,0.000431,0.014809
137022000,0.0324,0.013523,0.002678,0.000431,0.012693
137023000,0.0324,0.013523,0.002678,0.000431,0.010460
137024000,0.0324,0.013523,0.002678,0.000431,0.009990
137025000,0.0324,0.013523,0.002678,0.000431,0.011870
137026000,0.0324,0.013523,0.002678,0.000431,0.008697
137027000,0.0324,0.013523,0.002678,0.000431,0.009520
137028000,0.0324,0.013523,0.002678,0.000431,0.009402
137029000,0.0324,0.013523,0.002678,0.000431,0.009520
137030000,0.0324,0.013523,0.002678,0.000431,0.008697
137031000,0.0324,0.013523,0.002678,0.000431,0.007992
137032000,0.0324,0.013523,0.002678,0.000431,0.009872
137033000,0.0324,0.013523,0.002678,0.000431,0.008345
137034000,0.0324,0.013523,0.002678,0.000431,0.007404
137035000,0.0324,0.013523,0.002678,0.000431,0.007639
137036000,0.0324,0.013523,0.002678,0.000431,0.007287
137037000,0.0324,0.013523,0.002678,0.000431,0.007169
137038000,0.0324,0.013523,0.002678,0.000431,0.010578
137039000,0.0324,0.013523,0.002678,0.000431,0.008462
137040000,0.0324,0.013523,0.002678,0.000431,0.007992
137041000,0.0324,0.013523,0.002678,0.000431,0.004936
137042000,0.0324,0.013523,0.002678,0.000431,0.005524
137043000,0.0324,0.013523,0.002678,0.000431,0.005171
137044000,0.0324,0.013523,0.002678,0.000431,0.003996
137045000,0.0324,0.013523,0.002678,0.000431,0.004349
137046000,0.0324,0.013523,0.002678,0.000431,0.003878
137047000,0.0324,0.013523,0.002678,0.000431,0.003996
137048000,0.0324,0.013523,0.002678,0.000431,0.004231
137049000,0.0324,0.013523,0.002678,0.000431,0.003996
137050000,0.0324,0.013523,0.002678,0.000431,0.004113
137051000,0.0324,0.013523,0.002678,0.000431,0.003878
137052000,0.0324,0.013523,0.002678,0.000431,0.004466
137053000,0.0324,0.013523,0.002678,0.000431,0.003996
137054000,0.0324,0.013523,0.002678,0.000431,0.003761
137055000,0.0324,0.013523,0.002678,0.000431,0.004113
137056000,0.0324,0.013523,0.002678,0.000431,0.004349
137057000,0.0324,0.013523,0.002678,0.000431,0.003878
137058000,0.0324,0.013523,0.002678,0.000431,0.003878
137059000,0.0324,0.013523,0.002678,0.000431,0.004466
137060000,0.0324,0.013523,0.002678,0.000431,0.003761
137061000,0.0324,0.013523,0.002678,0.000431,0.004466
137062000,0.0324,0.013523,0.002678,0.000431,0.003761
137063000,0.0324,0.013523,0.002678,0.000431,0.004231
137064000,0.0324,0.013523,0.002678,0.000431,0.003761
137065000,0.0324,0.013523,0.002678,0.000431,0.005406
137066000,0.0324,0.013523,0.002678,0.000431,0.002468
137067000,0.0324,0.013523,0.002678,0.000431,0.002468
137068000,0.0324,0.013523,0.002678,0.000431,0.002468
137069000,0.0324,0.013523,0.002678,0.000431,0.002468
137070000,0.0324,0.013523,0.002678,0.000431,0.002586
137071000,0.0324,0.013523,0.002678,0.000431,0.002468
137072000,0.0324,0.013523,0.002678,0.000431,0.002468
137073000,0.0324,0.013523,0.002678,0.000431,0.002351
137074000,0.0324,0.013523,0.002678,0.000431,0.002703
137075000,0.0324,0.013523,0.002678,0.000431,0.002468
137076000,0.0324,0.013523,0.002678,0.000431,0.002351
137077000,0.0324,0.013523,0.002678,0.000431,0.002586
137078000,0.0324,0.013523,0.002678,0.000431,0.002586
137079000,0.0324,0.013523,0.002678,0.000431,0.002233
137080000,0.0324,0.013523,0.002678,0.000431,0.002586
137081000,0.0324,0.013523,0.002678,0.000431,0.002703
137082000,0.0324,0.013523,0.002678,0.000431,0.002233
137083000,0.0324,0.013523,0.002678,0.000431,0.002468
137084000,0.0324,0.013523,0.002678,0.000431,0.002586
137085000,0.0324,0.013523,0.002678,0.000431,0.002586
137086000,0.0324,0.013523,0.002678,0.000431,0.002351
137087000,0.0324,0.013523,0.002678,0.000431,0.002468
137088000,0.0324,0.013523,0.002678,0.000431,0.002703
137089000,0.0324,0.013523,0.002678,0.000431,0.002468
137090000,0.0324,0.013523,0.002678,0.000431,0.002233
137091000,0.0324,0.013523,0.002678,0.000431,0.002586
137092000,0.0324,0.013523,0.002678,0.000431,0.002586
137093000,0.0324,0.013523,0.002678,0.000431,0.004819
137094000,0.0324,0.013523,0.002678,0.000431,0.001410
137095000,0.0324,0.013523,0.002678,0.000431,0.001880
137096000,0.0324,0.013523,0.002678,0.000431,0.001645
137097000,0.0324,0.013523,0.002678,0.000431,0.001645
137098000,0.0324,0.013523,0.002678,0.000431,0.001645
137099000,0.0324,0.013523,0.002678,0.000431,0.001645
137100000,0.0324,0.013523,0.002678,0.000431,0.001645
137101000,0.0324,0.013523,0.002678,0.000431,0.001410
137102000,0.0324,0.013523,0.002678,0.000431,0.071222
137103000,0.0324,0.013523,0.002678,0.000431,0.773335
137104000,0.0324,0.013523,0.002678,0.000431,0.543333
137105000,0.0324,0.013523,0.002678,0.000431,0.135745
137106000,0.0324,0.013523,0.002678,0.000431,0.209553
137107000,0.0324,0.013523,0.002678,0.000431,0.532990
137108000,0.0324,0.013523,0.002678,0.000431,0.235997
137109000,0.0324,0.013523,0.002678,0.000431,0.325906
137110000,0.0324,0.013523,0.002678,0.000431,0.155372
137111000,0.0324,0.013523,0.002678,0.000431,0.162894
137112000,0.0324,0.013523,0.002678,0.000431,0.167948
137113000,0.0324,0.013523,0.002678,0.000431,0.546624
137114000,0.0324,0.013523,0.002678,0.000431,0.247397
137115000,0.0324,0.013523,0.002678,0.000431,0.203676
137116000,0.0324,0.013523,0.002678,0.000431,0.176057
137117000,0.0324,0.013523,0.002678,0.000431,0.137508
137118000,0.0324,0.013523,0.002678,0.000431,0.121172
137119000,0.0324,0.013523,0.002678,0.000431,0.102132
137120000,0.0324,0.013523,0.002678,0.000431,0.076628
137121000,0.0324,0.013523,0.002678,0.000431,0.073338
137122000,0.0324,0.013523,0.002678,0.000431,0.059352
137123000,0.0324,0.013523,0.002678,0.000431,0.053710
137124000,0.0324,0.013523,0.002678,0.000431,0.052535
137125000,0.0324,0.013523,0.002678,0.000431,0.037609
137126000,0.0324,0.013523,0.002678,0.000431,0.041840
137127000,0.0324,0.013523,0.002678,0.000431,0.034436
137128000,0.0324,0.013523,0.002678,0.000431,0.027384
137129000,0.0324,0.013523,0.002678,0.000431,0.025739
137130000,0.0324,0.013523,0.002678,0.000431,0.022683
137131000,0.0324,0.013523,0.002678,0.000431,0.027031
137132000,0.0324,0.013523,0.002678,0.000431,0.018452
137133000,0.0324,0.013523,0.002678,0.000431,0.016101
137134000,0.0324,0.013523,0.002678,0.000431,0.018805
137135000,0.0324,0.013523,0.002678,0.000431,0.017042
137136000,0.0324,0.013523,0.002678,0.000431,0.013751
137137000,0.0324,0.013523,0.002678,0.000431,0.011283
137138000,0.0324,0.013523,0.002678,0.000431,0.012928
137139000,0.0324,0.013523,0.002678,0.000431,0.011870
137140000,0.0324,0.013523,0.002678,0.000431,0.012223
137141000,0.0324,0.013523,0.002678,0.000431,0.016219
137142000,0.0324,0.013523,0.002678,0.000431,0.008697
137143000,0.0324,0.013523,0.002678,0.000431,0.010460
137144000,0.0324,0.013523,0.002678,0.000431,0.006464
137145000,0.0324,0.013523,0.002678,0.000431,0.007874
137146000,0.0324,0.013523,0.002678,0.000431,0.005171
137147000,0.0324,0.013523,0.002678,0.000431,0.006111
137148000,0.0324,0.013523,0.002678,0.000431,0.005406
137149000,0.0324,0.013523,0.002678,0.000431,0.006347
137150000,0.0324,0.013523,0.002678,0.000431,0.002938
137151000,0.0324,0.013523,0.002678,0.000431,0.004113
137152000,0.0324,0.013523,0.002678,0.000431,0.001645
137153000,0.0324,0.013523,0.002678,0.000431,0.001763
137154000,0.0324,0.013523,0.002678,0.000431,0.001528
137155000,0.0324,0.013523,0.002678,0.000431,0.001880
137156000,0.0324,0.013523,0.002678,0.000431,0.001528
137157000,0.0324,0.013523,0.002678,0.000431,0.001763
137158000,0.0324,0.013523,0.002678,0.000431,0.001645
137159000,0.0324,0.013523,0.002678,0.000431,0.001645
137160000,0.0324,0.013523,0.002678,0.000431,0.001528
137161000,0.0324,0.013523,0.002678,0.000431,0.001763
137162000,0.0324,0.013523,0.002678,0.000431,0.001880
137163000,0.0324,0.013523,0.002678,0.000431,0.001410
137164000,0.0324,0.013523,0.002678,0.000431,0.001880
137165000,0.0324,0.013523,0.002678,0.000431,0.001410
137166000,0.0324,0.013523,0.002678,0.000431,0.001880
137167000,0.0324,0.013523,0.002678,0.000431,0.001763
137168000,0.0324,0.013523,0.002678,0.000431,0.001528
137169000,0.0324,0.013523,0.002678,0.000431,0.001880
137170000,0.0324,0.013523,0.002678,0.000431,0.001410
137171000,0.0324,0.013523,0.002678,0.000431,0.001880
137172000,0.0324,0.013523,0.002678,0.000431,0.001645
137173000,0.0324,0.013523,0.002678,0.000431,0.001645
137174000,0.0324,0.013523,0.002678,0.000431,0.001645
137175000,0.0324,0.013523,0.002678,0.000431,0.001645
137176000,0.0324,0.013523,0.002678,0.000431,0.001763
137177000,0.0324,0.013523,0.002678,0.000431,0.001528
137178000,0.0324,0.013523,0.002678,0.000431,0.001880
137179000,0.0324,0.013523,0.002678,0.000431,0.001528
137180000,0.0324,0.013523,0.002678,0.000431,0.001645
137181000,0.0324,0.013523,0.002678,0.000431,0.001763
137182000,0.0324,0.013523,0.002678,0.000431,0.001645
137183000,0.0324,0.013523,0.002678,0.000431,0.001645
137184000,0.0324,0.013523,0.002678,0.000431,0.001645
137185000,0.0324,0.013523,0.002678,0.000431,0.001528
137186000,0.0324,0.013523,0.002678,0.000431,0.001880
137187000,0.0324,0.013523,0.002678,0.000431,0.001763
137188000,0.0324,0.013523,0.002678,0.000431,0.001645
137189000,0.0324,0.013523,0.002678,0.000431,0.001645
137190000,0.0324,0.013523,0.002678,0.000431,0.001410
137191000,0.0324,0.013523,0.002678,0.000431,0.001880
137192000,0.0324,0.013523,0.002678,0.000431,0.001645
137193000,0.0324,0.013523,0.002678,0.000431,0.001645
137194000,0.0324,0.013523,0.002678,0.000431,0.001645
137195000,0.0324,0.013523,0.002678,0.000431,0.001645
137196000,0.0324,0.013523,0.002678,0.000431,0.001880
137197000,0.0324,0.013523,0.002678,0.000431,0.001528
137198000,0.0324,0.013523,0.002678,0.000431,0.001528
137199000,0.0324,0.013523,0.002678,0.000431,0.001880
137200000,0.0324,0.013523,0.002678,0.000431,0.001528
137201000,0.0324,0.013523,0.002678,0.000431,0.001763
137202000,0.0324,0.013523,0.002678,0.000431,0.001645
137203000,0.0324,0.013523,0.002678,0.000431,0.001763
137204000,0.0324,0.013523,0.002678,0.000431,0.001645
137205000,0.0324,0.013523,0.002678,0.000431,0.003761
137206000,0.0324,0.013523,0.002678,0.000431,0.000940
137207000,0.0324,0.013523,0.002678,0.000431,0.000940
137208000,0.0324,0.013523,0.002678,0.000431,0.000705
137209000,0.0324,0.013523,0.002678,0.000431,0.000940
137210000,0.0324,0.013523,0.002678,0.000431,0.000705
137211000,0.0324,0.013523,0.002678,0.000431,0.000940
137212000,0.0324,0.013523,0.002678,0.000431,0.000823
137213000,0.0324,0.013523,0.002678,0.000431,0.000823
137214000,0.0324,0.013523,0.002678,0.000431,0.000940
137215000,0.0324,0.013523,0.002678,0.000431,0.000705
137216000,0.0324,0.013523,0.002678,0.000431,0.000940
137217000,0.0324,0.013523,0.002678,0.000431,0.000823
137218000,0.0324,0.013523,0.002678,0.000431,0.000823
137219000,0.0324,0.013523,0.002678,0.000431,0.000823
137220000,0.0324,0.013523,0.002678,0.000431,0.000823
137221000,0.0324,0.013523,0.002678,0.000431,0.000705
137222000,0.0324,0.013523,0.002678,0.000431,0.000940
137223000,0.0324,0.013523,0.002678,0.000431,0.000823
137224000,0.0324,0.013523,0.002678,0.000431,0.000823
137225000,0.0324,0.013523,0.002678,0.000431,0.000705
137226000,0.0324,0.013523,0.002678,0.000431,0.000940
137227000,0.0324,0.013523,0.002678,0.000431,0.000940
137228000,0.0324,0.013523,0.002678,0.000431,0.000705
137229000,0.0324,0.013523,0.002678,0.000431,0.000940
137230000,0.0324,0.013523,0.002678,0.000431,0.000705
137231000,0.0324,0.013523,0.002678,0.000431,0.000940
137232000,0.0324,0.013523,0.002678,0.000431,0.000823
137233000,0.0324,0.013523,0.002678,0.000431,0.000823
137234000,0.0324,0.013523,0.002678,0.000431,0.000940
137235000,0.0324,0.013523,0.002678,0.000431,0.000705
137236000,0.0324,0.013523,0.002678,0.000431,0.000940
137237000,0.0324,0.013523,0.002678,0.000431,0.000823
137238000,0.0324,0.013523,0.002678,0.000431,0.000823
137239000,0.0324,0.013523,0.002678,0.000431,0.000823
137240000,0.0324,0.013523,0.002678,0.000431,0.083092
137241000,0.0324,0.013523,0.002678,0.000431,0.804480
137242000,0.0324,0.013523,0.002678,0.000431,0.517477
137243000,0.0324,0.013523,0.002678,0.000431,0.135863
137244000,0.0324,0.013523,0.002678,0.000431,0.161601
137245000,0.0324,0.013523,0.002678,0.000431,0.596691
137246000,0.0324,0.013523,0.002678,0.000431,0.259737
137247000,0.0324,0.013523,0.002678,0.000431,0.295936
137248000,0.0324,0.013523,0.002678,0.000431,0.142679
137249000,0.0324,0.013523,0.002678,0.000431,0.176997
137250000,0.0324,0.013523,0.002678,0.000431,0.143149
137251000,0.0324,0.013523,0.002678,0.000431,0.567896
137252000,0.0324,0.013523,0.002678,0.000431,0.282890
137253000,0.0324,0.013523,0.002678,0.000431,0.220953
137254000,0.0324,0.013523,0.002678,0.000431,0.179230
137255000,0.0324,0.013523,0.002678,0.000431,0.153844
137256000,0.0324,0.013523,0.002678,0.000431,0.120349
137257000,0.0324,0.013523,0.002678,0.000431,0.094375
137258000,0.0324,0.013523,0.002678,0.000431,0.059469
137259000,0.0324,0.013523,0.002678,0.000431,0.055591
137260000,0.0324,0.013523,0.002678,0.000431,0.046189
137261000,0.0324,0.013523,0.002678,0.000431,0.038784
137262000,0.0324,0.013523,0.002678,0.000431,0.028794
137263000,0.0324,0.013523,0.002678,0.000431,0.031145
137264000,0.0324,0.013523,0.002678,0.000431,0.023623
137265000,0.0324,0.013523,0.002678,0.000431,0.025504
137266000,0.0324,0.013523,0.002678,0.000431,0.023271
137267000,0.0324,0.013523,0.002678,0.000431,0.018687
137268000,0.0324,0.013523,0.002678,0.000431,0.018452
137269000,0.0324,0.013523,0.002678,0.000431,0.013281
137270000,0.0324,0.013523,0.002678,0.000431,0.015866
137271000,0.0324,0.013523,0.002678,0.000431,0.008227
137272000,0.0324,0.013523,0.002678,0.000431,0.011753
137273000,0.0324,0.013523,0.002678,0.000431,0.003643
137274000,0.0324,0.013523,0.002678,0.000431,0.003408
137275000,0.0324,0.013523,0.002678,0.000431,0.003408
137276000,0.0324,0.013523,0.002678,0.000431,0.003173
137277000,0.0324,0.013523,0.002678,0.000431,0.003643
137278000,0.0324,0.013523,0.002678,0.000431,0.003408
137279000,0.0324,0.013523,0.002678,0.000431,0.003173
137280000,0.0324,0.013523,0.002678,0.000431,0.003526
137281000,0.0324,0.013523,0.002678,0.000431,0.003291
137282000,0.0324,0.013523,0.002678,0.000431,0.003526
137283000,0.0324,0.013523,0.002678,0.000431,0.003056
137284000,0.0324,0.013523,0.002678,0.000431,0.005994
137285000,0.0324,0.013523,0.002678,0.000431,0.002703
137286000,0.0324,0.013523,0.002678,0.000431,0.002468
137287000,0.0324,0.013523,0.002678,0.000431,0.002468
137288000,0.0324,0.013523,0.002678,0.000431,0.002468
137289000,0.0324,0.013523,0.002678,0.000431,0.002703
137290000,0.0324,0.013523,0.002678,0.000431,0.002586
137291000,0.0324,0.013523,0.002678,0.000431,0.002586
137292000,0.0324,0.013523,0.002678,0.000431,0.002351
137293000,0.0324,0.013523,0.002678,0.000431,0.002586
137294000,0.0324,0.013523,0.002678,0.000431,0.002703
137295000,0.0324,0.013523,0.002678,0.000431,0.002468
137296000,0.0324,0.013523,0.002678,0.000431,0.002586
137297000,0.0324,0.013523,0.002678,0.000431,0.002468
137298000,0.0324,0.013523,0.002678,0.000431,0.002468
137299000,0.0324,0.013523,0.002678,0.000431,0.002468
137300000,0.0324,0.013523,0.002678,0.000431,0.002821
137301000,0.0324,0.013523,0.002678,0.000431,0.002586
137302000,0.0324,0.013523,0.002678,0.000431,0.002468
137303000,0.0324,0.013523,0.002678,0.000431,0.002468
137304000,0.0324,0.013523,0.002678,0.000431,0.002586
137305000,0.0324,0.013523,0.002678,0.000431,0.002821
137306000,0.0324,0.013523,0.002678,0.000431,0.002468
137307000,0.0324,0.013523,0.002678,0.000431,0.003761
137308000,0.0324,0.013523,0.002678,0.000431,0.001763
137309000,0.0324,0.013523,0.002678,0.000431,0.001645
137310000,0.0324,0.013523,0.002678,0.000431,0.001880
137311000,0.0324,0.013523,0.002678,0.000431,0.001528
137312000,0.0324,0.013523,0.002678,0.000431,0.001880
137313000,0.0324,0.013523,0.002678,0.000431,0.001645
137314000,0.0324,0.013523,0.002678,0.000431,0.001645
137315000,0.0324,0.013523,0.002678,0.000431,0.001763
137316000,0.0324,0.013523,0.002678,0.000431,0.003408
137317000,0.0324,0.013523,0.002678,0.000431,0.000823
137318000,0.0324,0.013523,0.002678,0.000431,0.000823
137319000,0.0324,0.013523,0.002678,0.000431,0.000823
137320000,0.0324,0.013523,0.002678,0.000431,0.000940
137321000,0.0324,0.013523,0.002678,0.000431,0.000705
137322000,0.0324,0.013523,0.002678,0.000431,0.000940
137323000,0.0324,0.013523,0.002678,0.000431,0.000823
137324000,0.0324,0.013523,0.002678,0.000431,0.000823
137325000,0.0324,0.013523,0.002678,0.000431,0.000823
137326000,0.0324,0.013523,0.002678,0.000431,0.000823
137327000,0.0324,0.013523,0.002678,0.000431,0.000823
137328000,0.0324,0.013523,0.002678,0.000431,0.000823
137329000,0.0324,0.013523,0.002678,0.000431,0.000940
137330000,0.0324,0.013523,0.002678,0.000431,0.000705
137331000,0.0324,0.013523,0.002678,0.000431,0.000940
137332000,0.0324,0.013523,0.002678,0.000431,0.000705
137333000,0.0324,0.013523,0.002678,0.000431,0.000940
137334000,0.0324,0.013523,0.002678,0.000431,0.000823
137335000,0.0324,0.013523,0.002678,0.000431,0.000823
137336000,0.0324,0.013523,0.002678,0.000431,0.000940
137337000,0.0324,0.013523,0.002678,0.000431,0.000705
137338000,0.0324,0.013523,0.002678,0.000431,0.000940
137339000,0.0324,0.013523,0.002678,0.000431,0.000823
137340000,0.0324,0.013523,0.002678,0.000431,0.000823
137341000,0.0324,0.013523,0.002678,0.000431,0.000823
137342000,0.0324,0.013523,0.002678,0.000431,0.000823
137343000,0.0324,0.013523,0.002678,0.000431,0.000823
137344000,0.0324,0.013523,0.002678,0.000431,0.000823
137345000,0.0324,0.013523,0.002678,0.000431,0.000823
137346000,0.0324,0.013523,0.002678,0.000431,0.000823
137347000,0.0324,0.013523,0.002678,0.000431,0.000940
137348000,0.0324,0.013523,0.002678,0.000431,0.000823
137349000,0.0324,0.013523,0.002678,0.000431,0.000823
137350000,0.0324,0.013523,0.002678,0.000431,0.000705
137351000,0.0324,0.013523,0.002678,0.000431,0.000940
137352000,0.0324,0.013523,0.002678,0.000431,0.000940
137353000,0.0324,0.013523,0.002678,0.000431,0.000705
137354000,0.0324,0.013523,0.002678,0.000431,0.000940
137355000,0.0324,0.013523,0.002678,0.000431,0.000705
137356000,0.0324,0.013523,0.002678,0.000431,0.000940
137357000,0.0324,0.013523,0.002678,0.000431,0.000823
137358000,0.0324,0.013523,0.002678,0.000431,0.000823
137359000,0.0324,0.013523,0.002678,0.000431,0.000823
137360000,0.0324,0.013523,0.002678,0.000431,0.000823
137361000,0.0324,0.013523,0.002678,0.000431,0.000940
137362000,0.0324,0.013523,0.002678,0.000431,0.000823
137363000,0.0324,0.013523,0.002678,0.000431,0.000823
137364000,0.0324,0.013523,0.002678,0.000431,0.000823
137365000,0.0324,0.013523,0.002678,0.000431,0.000823
137366000,0.0324,0.013523,0.002678,0.000431,0.000823
137367000,0.0324,0.013523,0.002678,0.000431,0.000823
137368000,0.0324,0.013523,0.002678,0.000431,0.000940
137369000,0.0324,0.013523,0.002678,0.000431,0.000705
137370000,0.0324,0.013523,0.002678,0.000431,0.000940
137371000,0.0324,0.013523,0.002678,0.000431,0.000823
137372000,0.0324,0.013523,0.002678,0.000431,0.000823
137373000,0.0324,0.013523,0.002678,0.000431,0.000705
137374000,0.0324,0.013523,0.002678,0.000431,0.000940
137375000,0.0324,0.013523,0.002678,0.000431,0.000823
137376000,0.0324,0.013523,0.002678,0.000431,0.000823
137377000,0.0324,0.013523,0.002678,0.000431,0.001998
137378000,0.0324,0.013523,0.002678,0.000431,0.365278
137379000,0.0324,0.013523,0.002678,0.000431,0.857133
137380000,0.0324,0.013523,0.002678,0.000431,0.250570
137381000,0.0324,0.013523,0.002678,0.000431,0.135392
137382000,0.0324,0.013523,0.002678,0.000431,0.486332
137383000,0.0324,0.013523,0.002678,0.000431,0.251863
137384000,0.0324,0.013523,0.002678,0.000431,0.275133
137385000,0.0324,0.013523,0.002678,0.000431,0.248337
137386000,0.0324,0.013523,0.002678,0.000431,0.157370
137387000,0.0324,0.013523,0.002678,0.000431,0.140681
137388000,0.0324,0.013523,0.002678,0.000431,0.283243
137389000,0.0324,0.013523,0.002678,0.000431,0.521943
137390000,0.0324,0.013523,0.002678,0.000431,0.254919
137391000,0.0324,0.013523,0.002678,0.000431,0.202619
137392000,0.0324,0.013523,0.002678,0.000431,0.155020
137393000,0.0324,0.013523,0.002678,0.000431,0.144912
137394000,0.0324,0.013523,0.002678,0.000431,0.110124
137395000,0.0324,0.013523,0.002678,0.000431,0.086853
137396000,0.0324,0.013523,0.002678,0.000431,0.056061
137397000,0.0324,0.013523,0.002678,0.000431,0.044073
137398000,0.0324,0.013523,0.002678,0.000431,0.030440
137399000,0.0324,0.013523,0.002678,0.000431,0.028677
137400000,0.0324,0.013523,0.002678,0.000431,0.031615
137401000,0.0324,0.013523,0.002678,0.000431,0.025504
137402000,0.0324,0.013523,0.002678,0.000431,0.026679
137403000,0.0324,0.013523,0.002678,0.000431,0.025856
137404000,0.0324,0.013523,0.002678,0.000431,0.014573
137405000,0.0324,0.013523,0.002678,0.000431,0.012928
137406000,0.0324,0.013523,0.002678,0.000431,0.010813
137407000,0.0324,0.013523,0.002678,0.000431,0.013986
137408000,0.0324,0.013523,0.002678,0.000431,0.012458
137409000,0.0324,0.013523,0.002678,0.000431,0.008345
137410000,0.0324,0.013523,0.002678,0.000431,0.008109
137411000,0.0324,0.013523,0.002678,0.000431,0.008345
137412000,0.0324,0.013523,0.002678,0.000431,0.008227
137413000,0.0324,0.013523,0.002678,0.000431,0.008462
137414000,0.0324,0.013523,0.002678,0.000431,0.007639
137415000,0.0324,0.013523,0.002678,0.000431,0.008345
137416000,0.0324,0.013523,0.002678,0.000431,0.007287
137417000,0.0324,0.013523,0.002678,0.000431,0.007874
137418000,0.0324,0.013523,0.002678,0.000431,0.007992
137419000,0.0324,0.013523,0.002678,0.000431,0.008462
137420000,0.0324,0.013523,0.002678,0.000431,0.008580
137421000,0.0324,0.013523,0.002678,0.000431,0.005876
137422000,0.0324,0.013523,0.002678,0.000431,0.003761
137423000,0.0324,0.013523,0.002678,0.000431,0.003173
137424000,0.0324,0.013523,0.002678,0.000431,0.003526
137425000,0.0324,0.013523,0.002678,0.000431,0.003291
137426000,0.0324,0.013523,0.002678,0.000431,0.007522
137427000,0.0324,0.013523,0.002678,0.000431,0.003173
137428000,0.0324,0.013523,0.002678,0.000431,0.001880
137429000,0.0324,0.013523,0.002678,0.000431,0.001763
137430000,0.0324,0.013523,0.002678,0.000431,0.001528
137431000,0.0324,0.013523,0.002678,0.000431,0.001880
137432000,0.0324,0.013523,0.002678,0.000431,0.001293
137433000,0.0324,0.013523,0.002678,0.000431,0.001763
137434000,0.0324,0.013523,0.002678,0.000431,0.001645
137435000,0.0324,0.013523,0.002678,0.000431,0.001410
137436000,0.0324,0.013523,0.002678,0.000431,0.001880
137437000,0.0324,0.013523,0.002678,0.000431,0.001293
137438000,0.0324,0.013523,0.002678,0.000431,0.001763
137439000,0.0324,0.013523,0.002678,0.000431,0.001645
137440000,0.0324,0.013523,0.002678,0.000431,0.001410
137441000,0.0324,0.013523,0.002678,0.000431,0.001645
137442000,0.0324,0.013523,0.002678,0.000431,0.001528
137443000,0.0324,0.013523,0.002678,0.000431,0.001528
137444000,0.0324,0.013523,0.002678,0.000431,0.001645
137445000,0.0324,0.013523,0.002678,0.000431,0.001645
137446000,0.0324,0.013523,0.002678,0.000431,0.001645
137447000,0.0324,0.013523,0.002678,0.000431,0.001410
137448000,0.0324,0.013523,0.002678,0.000431,0.001645
137449000,0.0324,0.013523,0.002678,0.000431,0.001645
137450000,0.0324,0.013523,0.002678,0.000431,0.001410
137451000,0.0324,0.013523,0.002678,0.000431,0.001645
137452000,0.0324,0.013523,0.002678,0.000431,0.001410
137453000,0.0324,0.013523,0.002678,0.000431,0.001645
137454000,0.0324,0.013523,0.002678,0.000431,0.001880
137455000,0.0324,0.013523,0.002678,0.000431,0.001175
137456000,0.0324,0.013523,0.002678,0.000431,0.001880
137457000,0.0324,0.013523,0.002678,0.000431,0.001410
137458000,0.0324,0.013523,0.002678,0.000431,0.001645
137459000,0.0324,0.013523,0.002678,0.000431,0.001645
137460000,0.0324,0.013523,0.002678,0.000431,0.001410
137461000,0.0324,0.013523,0.002678,0.000431,0.001880
137462000,0.0324,0.013523,0.002678,0.000431,0.016101
137463000,0.0324,0.013523,0.002678,0.000431,0.765108
137464000,0.0324,0.013523,0.002678,0.000431,0.617376
137465000,0.0324,0.013523,0.002678,0.000431,0.135392
137466000,0.0324,0.013523,0.002678,0.000431,0.136803
137467000,0.0324,0.013523,0.002678,0.000431,0.517006
137468000,0.0324,0.013523,0.002678,0.000431,0.235526
137469000,0.0324,0.013523,0.002678,0.000431,0.315446
137470000,0.0324,0.013523,0.002678,0.000431,0.173824
137471000,0.0324,0.013523,0.002678,0.000431,0.169123
137472000,0.0324,0.013523,0.002678,0.000431,0.109771
137473000,0.0324,0.013523,0.002678,0.000431,0.487859
137474000,0.0324,0.013523,0.002678,0.000431,0.277602
137475000,0.0324,0.013523,0.002678,0.000431,0.176292
137476000,0.0324,0.013523,0.002678,0.000431,0.135980
137477000,0.0324,0.013523,0.002678,0.000431,0.116823
137478000,0.0324,0.013523,0.002678,0.000431,0.083210
137479000,0.0324,0.013523,0.002678,0.000431,0.067931
137480000,0.0324,0.013523,0.002678,0.000431,0.055591
137481000,0.0324,0.013523,0.002678,0.000431,0.059469
137482000,0.0324,0.013523,0.002678,0.000431,0.034906
137483000,0.0324,0.013523,0.002678,0.000431,0.033966
137484000,0.0324,0.013523,0.002678,0.000431,0.036786
137485000,0.0324,0.013523,0.002678,0.000431,0.025739
137486000,0.0324,0.013523,0.002678,0.000431,0.027972
137487000,0.0324,0.013523,0.002678,0.000431,0.022095
137488000,0.0324,0.013523,0.002678,0.000431,0.018805
137489000,0.0324,0.013523,0.002678,0.000431,0.018452
137490000,0.0324,0.013523,0.002678,0.000431,0.018099
137491000,0.0324,0.013523,0.002678,0.000431,0.021743
137492000,0.0324,0.013523,0.002678,0.000431,0.017277
137493000,0.0324,0.013523,0.002678,0.000431,0.017159
137494000,0.0324,0.013523,0.002678,0.000431,0.024328
137495000,0.0324,0.013523,0.002678,0.000431,0.016689
137496000,0.0324,0.013523,0.002678,0.000431,0.011400
137497000,0.0324,0.013523,0.002678,0.000431,0.011048
137498000,0.0324,0.013523,0.002678,0.000431,0.008697
137499000,0.0324,0.013523,0.002678,0.000431,0.008109
137500000,0.0324,0.013523,0.002678,0.000431,0.010813
137501000,0.0324,0.013523,0.002678,0.000431,0.013281
137502000,0.0324,0.013523,0.002678,0.000431,0.005054
137503000,0.0324,0.013523,0.002678,0.000431,0.004231
137504000,0.0324,0.013523,0.002678,0.000431,0.005054
137505000,0.0324,0.013523,0.002678,0.000431,0.004466
137506000,0.0324,0.013523,0.002678,0.000431,0.003173
137507000,0.0324,0.013523,0.002678,0.000431,0.003408
137508000,0.0324,0.013523,0.002678,0.000431,0.003173
137509000,0.0324,0.013523,0.002678,0.000431,0.003173
137510000,0.0324,0.013523,0.002678,0.000431,0.003291
137511000,0.0324,0.013523,0.002678,0.000431,0.003291
137512000,0.0324,0.013523,0.002678,0.000431,0.003291
137513000,0.0324,0.013523,0.002678,0.000431,0.003173
137514000,0.0324,0.013523,0.002678,0.000431,0.003173
137515000,0.0324,0.013523,0.002678,0.000431,0.003291
137516000,0.0324,0.013523,0.002678,0.000431,0.003526
137517000,0.0324,0.013523,0.002678,0.000431,0.002938
137518000,0.0324,0.013523,0.002678,0.000431,0.003291
137519000,0.0324,0.013523,0.002678,0.000431,0.003056
137520000,0.0324,0.013523,0.002678,0.000431,0.003291
137521000,0.0324,0.013523,0.002678,0.000431,0.003526
137522000,0.0324,0.013523,0.002678,0.000431,0.003173
137523000,0.0324,0.013523,0.002678,0.000431,0.003291
137524000,0.0324,0.013523,0.002678,0.000431,0.003056
137525000,0.0324,0.013523,0.002678,0.000431,0.003173
137526000,0.0324,0.013523,0.002678,0.000431,0.003761
137527000,0.0324,0.013523,0.002678,0.000431,0.003173
137528000,0.0324,0.013523,0.002678,0.000431,0.003056
137529000,0.0324,0.013523,0.002678,0.000431,0.007052
137530000,0.0324,0.013523,0.002678,0.000431,0.001528
137531000,0.0324,0.013523,0.002678,0.000431,0.001763
137532000,0.0324,0.013523,0.002678,0.000431,0.001645
137533000,0.0324,0.013523,0.002678,0.000431,0.001763
137534000,0.0324,0.013523,0.002678,0.000431,0.001528
137535000,0.0324,0.013523,0.002678,0.000431,0.001763
137536000,0.0324,0.013523,0.002678,0.000431,0.001763
137537000,0.0324,0.013523,0.002678,0.000431,0.004936
137538000,0.0324,0.013523,0.002678,0.000431,0.000705
137539000,0.0324,0.013523,0.002678,0.000431,0.000940
137540000,0.0324,0.013523,0.002678,0.000431,0.000940
137541000,0.0324,0.013523,0.002678,0.000431,0.000705
137542000,0.0324,0.013523,0.002678,0.000431,0.000940
137543000,0.0324,0.013523,0.002678,0.000431,0.000705
137544000,0.0324,0.013523,0.002678,0.000431,0.014103
137545000,0.0324,0.013523,0.002678,0.000431,0.716922
137546000,0.0324,0.013523,0.002678,0.000431,0.569071
137547000,0.0324,0.013523,0.002678,0.000431,0.135275
137548000,0.0324,0.013523,0.002678,0.000431,0.136450
137549000,0.0324,0.013523,0.002678,0.000431,0.516889
137550000,0.0324,0.013523,0.002678,0.000431,0.249277
137551000,0.0324,0.013523,0.002678,0.000431,0.337306
137552000,0.0324,0.013523,0.002678,0.000431,0.206027
137553000,0.0324,0.013523,0.002678,0.000431,0.161601
137554000,0.0324,0.013523,0.002678,0.000431,0.107068
137555000,0.0324,0.013523,0.002678,0.000431,0.470465
137556000,0.0324,0.013523,0.002678,0.000431,0.253273
137557000,0.0324,0.013523,0.002678,0.000431,0.156077
137558000,0.0324,0.013523,0.002678,0.000431,0.134805
137559000,0.0324,0.013523,0.002678,0.000431,0.116353
137560000,0.0324,0.013523,0.002678,0.000431,0.106716
137561000,0.0324,0.013523,0.002678,0.000431,0.095080
137562000,0.0324,0.013523,0.002678,0.000431,0.085796
137563000,0.0324,0.013523,0.002678,0.000431,0.065463
137564000,0.0324,0.013523,0.002678,0.000431,0.058059
137565000,0.0324,0.013523,0.002678,0.000431,0.056296
137566000,0.0324,0.013523,0.002678,0.000431,0.039372
137567000,0.0324,0.013523,0.002678,0.000431,0.042780
137568000,0.0324,0.013523,0.002678,0.000431,0.034553
137569000,0.0324,0.013523,0.002678,0.000431,0.031733
137570000,0.0324,0.013523,0.002678,0.000431,0.022330
137571000,0.0324,0.013523,0.002678,0.000431,0.027619
137572000,0.0324,0.013523,0.002678,0.000431,0.023506
137573000,0.0324,0.013523,0.002678,0.000431,0.022330
137574000,0.0324,0.013523,0.002678,0.000431,0.017042
137575000,0.0324,0.013523,0.002678,0.000431,0.017512
137576000,0.0324,0.013523,0.002678,0.000431,0.017629
137577000,0.0324,0.013523,0.002678,0.000431,0.016454
137578000,0.0324,0.013523,0.002678,0.000431,0.016336
137579000,0.0324,0.013523,0.002678,0.000431,0.011048
137580000,0.0324,0.013523,0.002678,0.000431,0.011048
137581000,0.0324,0.013523,0.002678,0.000431,0.010342
137582000,0.0324,0.013523,0.002678,0.000431,0.011048
137583000,0.0324,0.013523,0.002678,0.000431,0.012105
137584000,0.0324,0.013523,0.002678,0.000431,0.009990
137585000,0.0324,0.013523,0.002678,0.000431,0.010107
137586000,0.0324,0.013523,0.002678,0.000431,0.009637
137587000,0.0324,0.013523,0.002678,0.000431,0.010342
137588000,0.0324,0.013523,0.002678,0.000431,0.010460
137589000,0.0324,0.013523,0.002678,0.000431,0.009637
137590000,0.0324,0.013523,0.002678,0.000431,0.008580
137591000,0.0324,0.013523,0.002678,0.000431,0.009285
137592000,0.0324,0.013523,0.002678,0.000431,0.009285
137593000,0.0324,0.013523,0.002678,0.000431,0.008580
137594000,0.0324,0.013523,0.002678,0.000431,0.009872
137595000,0.0324,0.013523,0.002678,0.000431,0.010578
137596000,0.0324,0.013523,0.002678,0.000431,0.010107
137597000,0.0324,0.013523,0.002678,0.000431,0.006817
137598000,0.0324,0.013523,0.002678,0.000431,0.006229
137599000,0.0324,0.013523,0.002678,0.000431,0.005876
137600000,0.0324,0.013523,0.002678,0.000431,0.006699
137601000,0.0324,0.013523,0.002678,0.000431,0.005759
137602000,0.0324,0.013523,0.002678,0.000431,0.004819
137603000,0.0324,0.013523,0.002678,0.000431,0.005054
137604000,0.0324,0.013523,0.002678,0.000431,0.004466
137605000,0.0324,0.013523,0.002678,0.000431,0.004113
137606000,0.0324,0.013523,0.002678,0.000431,0.004231
137607000,0.0324,0.013523,0.002678,0.000431,0.004231
137608000,0.0324,0.013523,0.002678,0.000431,0.004349
137609000,0.0324,0.013523,0.002678,0.000431,0.005406
137610000,0.0324,0.013523,0.002678,0.000431,0.003526
137611000,0.0324,0.013523,0.002678,0.000431,0.003526
137612000,0.0324,0.013523,0.002678,0.000431,0.003173
137613000,0.0324,0.013523,0.002678,0.000431,0.003291
137614000,0.0324,0.013523,0.002678,0.000431,0.003878
137615000,0.0324,0.013523,0.002678,0.000431,0.004113
137616000,0.0324,0.013523,0.002678,0.000431,0.002821
137617000,0.0324,0.013523,0.002678,0.000431,0.001528
137618000,0.0324,0.013523,0.002678,0.000431,0.001763
137619000,0.0324,0.013523,0.002678,0.000431,0.001528
137620000,0.0324,0.013523,0.002678,0.000431,0.001880
137621000,0.0324,0.013523,0.002678,0.000431,0.001528
137622000,0.0324,0.013523,0.002678,0.000431,0.001763
137623000,0.0324,0.013523,0.002678,0.000431,0.001763
137624000,0.0324,0.013523,0.002678,0.000431,0.001410
137625000,0.0324,0.013523,0.002678,0.000431,0.001880
137626000,0.0324,0.013523,0.002678,0.000431,0.001528
137627000,0.0324,0.013523,0.002678,0.000431,0.003056
137628000,0.0324,0.013523,0.002678,0.000431,0.000823
137629000,0.0324,0.013523,0.002678,0.000431,0.000823
137630000,0.0324,0.013523,0.002678,0.000431,0.000823
137631000,0.0324,0.013523,0.002678,0.000431,0.000940
137632000,0.0324,0.013523,0.002678,0.000431,0.000823
137633000,0.0324,0.013523,0.002678,0.000431,0.000823
137634000,0.0324,0.013523,0.002678,0.000431,0.000705
137635000,0.0324,0.013523,0.002678,0.000431,0.000940
137636000,0.0324,0.013523,0.002678,0.000431,0.000940
137637000,0.0324,0.013523,0.002678,0.000431,0.000705
137638000,0.0324,0.013523,0.002678,0.000431,0.000940
137639000,0.0324,0.013523,0.002678,0.000431,0.000705
137640000,0.0324,0.013523,0.002678,0.000431,0.000940
137641000,0.0324,0.013523,0.002678,0.000431,0.000823
137642000,0.0324,0.013523,0.002678,0.000431,0.000823
137643000,0.0324,0.013523,0.002678,0.000431,0.000940
137644000,0.0324,0.013523,0.002678,0.000431,0.000705
137645000,0.0324,0.013523,0.002678,0.000431,0.000940
137646000,0.0324,0.013523,0.002678,0.000431,0.000823
137647000,0.0324,0.013523,0.002678,0.000431,0.000823
137648000,0.0324,0.013523,0.002678,0.000431,0.000940
137649000,0.0324,0.013523,0.002678,0.000431,0.000705
137650000,0.0324,0.013523,0.002678,0.000431,0.000940
137651000,0.0324,0.013523,0.002678,0.000431,0.000705
137652000,0.0324,0.013523,0.002678,0.000431,0.000823
137653000,0.0324,0.013523,0.002678,0.000431,0.000940
137654000,0.0324,0.013523,0.002678,0.000431,0.000823
137655000,0.0324,0.013523,0.002678,0.000431,0.000823
137656000,0.0324,0.013523,0.002678,0.000431,0.000823
137657000,0.0324,0.013523,0.002678,0.000431,0.000823
137658000,0.0324,0.013523,0.002678,0.000431,0.000823
137659000,0.0324,0.013523,0.002678,0.000431,0.000940
137660000,0.0324,0.013523,0.002678,0.000431,0.000823
137661000,0.0324,0.013523,0.002678,0.000431,0.000823
137662000,0.0324,0.013523,0.002678,0.000431,0.000705
137663000,0.0324,0.013523,0.002678,0.000431,0.000940
137664000,0.0324,0.013523,0.002678,0.000431,0.000940
137665000,0.0324,0.013523,0.002678,0.000431,0.000705
137666000,0.0324,0.013523,0.002678,0.000431,0.000940
137667000,0.0324,0.013523,0.002678,0.000431,0.000705
137668000,0.0324,0.013523,0.002678,0.000431,0.000940
137669000,0.0324,0.013523,0.002678,0.000431,0.000823
137670000,0.0324,0.013523,0.002678,0.000431,0.000823
137671000,0.0324,0.013523,0.002678,0.000431,0.000940
137672000,0.0324,0.013523,0.002678,0.000431,0.000705
137673000,0.0324,0.013523,0.002678,0.000431,0.000940
137674000,0.0324,0.013523,0.002678,0.000431,0.000705
137675000,0.0324,0.013523,0.002678,0.000431,0.000940
137676000,0.0324,0.013523,0.002678,0.000431,0.000823
137677000,0.0324,0.013523,0.002678,0.000431,0.000823
137678000,0.0324,0.013523,0.002678,0.000431,0.000823
137679000,0.0324,0.013523,0.002678,0.000431,0.000823
137680000,0.0324,0.013523,0.002678,0.000431,0.000823
137681000,0.0324,0.013523,0.002678,0.000431,0.000823
137682000,0.0324,0.013523,0.002678,0.000431,0.000940
137683000,0.0324,0.013523,0.002678,0.000431,0.000705
137684000,0.0324,0.013523,0.002678,0.000431,0.000940
137685000,0.0324,0.013523,0.002678,0.000431,0.000705
137686000,0.0324,0.013523,0.002678,0.000431,0.000940
137687000,0.0324,0.013523,0.002678,0.000431,0.000940
137688000,0.0324,0.013523,0.002678,0.000431,0.000705
137689000,0.0324,0.013523,0.002678,0.000431,0.000940
137690000,0.0324,0.013523,0.002678,0.000431,0.000705
137691000,0.0324,0.013523,0.002678,0.000431,0.000940
137692000,0.0324,0.013523,0.002678,0.000431,0.000823
137693000,0.0324,0.013523,0.002678,0.000431,0.000823
137694000,0.0324,0.013523,0.002678,0.000431,0.000823
137695000,0.0324,0.013523,0.002678,0.000431,0.000823
137696000,0.0324,0.013523,0.002678,0.000431,0.000940
137697000,0.0324,0.013523,0.002678,0.000431,0.000705
137698000,0.0324,0.013523,0.002678,0.000431,0.000940
137699000,0.0324,0.013523,0.002678,0.000431,0.000823
137700000,0.0324,0.013523,0.002678,0.000431,0.000823
137701000,0.0324,0.013523,0.002678,0.000431,0.000823
137702000,0.0324,0.013523,0.002678,0.000431,0.000823
137703000,0.0324,0.013523,0.002678,0.000431,0.000823
137704000,0.0324,0.013523,0.002678,0.000431,0.000823
137705000,0.0324,0.013523,0.002678,0.000431,0.000823
137706000,0.0324,0.013523,0.002678,0.000431,0.000940
137707000,0.0324,0.013523,0.002678,0.000431,0.000823
137708000,0.0324,0.013523,0.002678,0.000431,0.000823
137709000,0.0324,0.013523,0.002678,0.000431,0.000823
137710000,0.0324,0.013523,0.002678,0.000431,0.000705
137711000,0.0324,0.013523,0.002678,0.000431,0.000940
137712000,0.0324,0.013523,0.002678,0.000431,0.000940
137713000,0.0324,0.013523,0.002678,0.000431,0.000705
137714000,0.0324,0.013523,0.002678,0.000431,0.000940
137715000,0.0324,0.013523,0.002678,0.000431,0.000705
137716000,0.0324,0.013523,0.002678,0.000431,0.000940
137717000,0.0324,0.013523,0.002678,0.000431,0.000823
137718000,0.0324,0.013523,0.002678,0.000431,0.000823
137719000,0.0324,0.013523,0.002678,0.000431,0.000940
137720000,0.0324,0.013523,0.002678,0.000431,0.000705
137721000,0.0324,0.013523,0.002678,0.000431,0.000940
137722000,0.0324,0.013523,0.002678,0.000431,0.000823
137723000,0.0324,0.013523,0.002678,0.000431,0.000823
137724000,0.0324,0.013523,0.002678,0.000431,0.000823
137725000,0.0324,0.013523,0.002678,0.000431,0.000823
137726000,0.0324,0.013523,0.002678,0.000431,0.000823
137727000,0.0324,0.013523,0.002678,0.000431,0.000823
137728000,0.0324,0.013523,0.002678,0.000431,0.000940
137729000,0.0324,0.013523,0.002678,0.000431,0.000705
137730000,0.0324,0.013523,0.002678,0.000431,0.000940
137731000,0.0324,0.013523,0.002678,0.000431,0.000823
137732000,0.0324,0.013523,0.002678,0.000431,0.000823
137733000,0.0324,0.013523,0.002678,0.000431,0.000705
137734000,0.0324,0.013523,0.002678,0.000431,0.000940
137735000,0.0324,0.013523,0.002678,0.000431,0.233293
137736000,0.0324,0.013523,0.002678,0.000431,0.628188
137737000,0.0324,0.013523,0.002678,0.000431,0.456362
137738000,0.0324,0.013523,0.002678,0.000431,0.133512
137739000,0.0324,0.013523,0.002678,0.000431,0.168770
137740000,0.0324,0.013523,0.002678,0.000431,0.561432
137741000,0.0324,0.013523,0.002678,0.000431,0.277602
137742000,0.0324,0.013523,0.002678,0.000431,0.306161
137743000,0.0324,0.013523,0.002678,0.000431,0.165832
137744000,0.0324,0.013523,0.002678,0.000431,0.164892
137745000,0.0324,0.013523,0.002678,0.000431,0.115765
137746000,0.0324,0.013523,0.002678,0.000431,0.480573
137747000,0.0324,0.013523,0.002678,0.000431,0.289824
137748000,0.0324,0.013523,0.002678,0.000431,0.202384
137749000,0.0324,0.013523,0.002678,0.000431,0.176880
137750000,0.0324,0.013523,0.002678,0.000431,0.148203
137751000,0.0324,0.013523,0.002678,0.000431,0.122464
137752000,0.0324,0.013523,0.002678,0.000431,0.093552
137753000,0.0324,0.013523,0.002678,0.000431,0.081447
137754000,0.0324,0.013523,0.002678,0.000431,0.071575
137755000,0.0324,0.013523,0.002678,0.000431,0.049244
137756000,0.0324,0.013523,0.002678,0.000431,0.035494
137757000,0.0324,0.013523,0.002678,0.000431,0.033848
137758000,0.0324,0.013523,0.002678,0.000431,0.025386
137759000,0.0324,0.013523,0.002678,0.000431,0.025386
137760000,0.0324,0.013523,0.002678,0.000431,0.020097
137761000,0.0324,0.013523,0.002678,0.000431,0.020920
137762000,0.0324,0.013523,0.002678,0.000431,0.015396
137763000,0.0324,0.013523,0.002678,0.000431,0.013046
137764000,0.0324,0.013523,0.002678,0.000431,0.012340
137765000,0.0324,0.013523,0.002678,0.000431,0.015631
137766000,0.0324,0.013523,0.002678,0.000431,0.008697
137767000,0.0324,0.013523,0.002678,0.000431,0.007874
137768000,0.0324,0.013523,0.002678,0.000431,0.007052
137769000,0.0324,0.013523,0.002678,0.000431,0.007757
137770000,0.0324,0.013523,0.002678,0.000431,0.008932
137771000,0.0324,0.013523,0.002678,0.000431,0.005406
137772000,0.0324,0.013523,0.002678,0.000431,0.005054
137773000,0.0324,0.013523,0.002678,0.000431,0.004584
137774000,0.0324,0.013523,0.002678,0.000431,0.002586
137775000,0.0324,0.013523,0.002678,0.000431,0.002586
137776000,0.0324,0.013523,0.002678,0.000431,0.002468
137777000,0.0324,0.013523,0.002678,0.000431,0.002586
137778000,0.0324,0.013523,0.002678,0.000431,0.002586
137779000,0.0324,0.013523,0.002678,0.000431,0.002351
137780000,0.0324,0.013523,0.002678,0.000431,0.002703
137781000,0.0324,0.013523,0.002678,0.000431,0.002703
137782000,0.0324,0.013523,0.002678,0.000431,0.002468
137783000,0.0324,0.013523,0.002678,0.000431,0.002351
137784000,0.0324,0.013523,0.002678,0.000431,0.002703
137785000,0.0324,0.013523,0.002678,0.000431,0.006347
137786000,0.0324,0.013523,0.002678,0.000431,0.001763
137787000,0.0324,0.013523,0.002678,0.000431,0.001763
137788000,0.0324,0.013523,0.002678,0.000431,0.001645
137789000,0.0324,0.013523,0.002678,0.000431,0.001763
137790000,0.0324,0.013523,0.002678,0.000431,0.003761
137791000,0.0324,0.013523,0.002678,0.000431,0.001175
137792000,0.0324,0.013523,0.002678,0.000431,0.000823
137793000,0.0324,0.013523,0.002678,0.000431,0.000940
137794000,0.0324,0.013523,0.002678,0.000431,0.072397
137795000,0.0324,0.013523,0.002678,0.000431,0.769927
137796000,0.0324,0.013523,0.002678,0.000431,0.538044
137797000,0.0324,0.013523,0.002678,0.000431,0.136333
137798000,0.0324,0.013523,0.002678,0.000431,0.198270
137799000,0.0324,0.013523,0.002678,0.000431,0.554733
137800000,0.0324,0.013523,0.002678,0.000431,0.273606
137801000,0.0324,0.013523,0.002678,0.000431,0.279600
137802000,0.0324,0.013523,0.002678,0.000431,0.147380
137803000,0.0324,0.013523,0.002678,0.000431,0.127401
137804000,0.0324,0.013523,0.002678,0.000431,0.295701
137805000,0.0324,0.013523,0.002678,0.000431,0.416872
137806000,0.0324,0.013523,0.002678,0.000431,0.191218
137807000,0.0324,0.013523,0.002678,0.000431,0.166655
137808000,0.0324,0.013523,0.002678,0.000431,0.139623
137809000,0.0324,0.013523,0.002678,0.000431,0.105070
137810000,0.0324,0.013523,0.002678,0.000431,0.106363
137811000,0.0324,0.013523,0.002678,0.000431,0.072515
137812000,0.0324,0.013523,0.002678,0.000431,0.052888
137813000,0.0324,0.013523,0.002678,0.000431,0.050185
137814000,0.0324,0.013523,0.002678,0.000431,0.032438
137815000,0.0324,0.013523,0.002678,0.000431,0.033260
137816000,0.0324,0.013523,0.002678,0.000431,0.031145
137817000,0.0324,0.013523,0.002678,0.000431,0.019980
137818000,0.0324,0.013523,0.002678,0.000431,0.019745
137819000,0.0324,0.013523,0.002678,0.000431,0.014221
137820000,0.0324,0.013523,0.002678,0.000431,0.016924
137821000,0.0324,0.013523,0.002678,0.000431,0.009637
137822000,0.0324,0.013523,0.002678,0.000431,0.010107
137823000,0.0324,0.013523,0.002678,0.000431,0.011753
137824000,0.0324,0.013523,0.002678,0.000431,0.008815
137825000,0.0324,0.013523,0.002678,0.000431,0.012223
137826000,0.0324,0.013523,0.002678,0.000431,0.009637
137827000,0.0324,0.013523,0.002678,0.000431,0.005876
137828000,0.0324,0.013523,0.002678,0.000431,0.004936
137829000,0.0324,0.013523,0.002678,0.000431,0.004936
137830000,0.0324,0.013523,0.002678,0.000431,0.005876
137831000,0.0324,0.013523,0.002678,0.000431,0.003761
137832000,0.0324,0.013523,0.002678,0.000431,0.003408
137833000,0.0324,0.013523,0.002678,0.000431,0.003526
137834000,0.0324,0.013523,0.002678,0.000431,0.003526
137835000,0.0324,0.013523,0.002678,0.000431,0.004701
137836000,0.0324,0.013523,0.002678,0.000431,0.002821
137837000,0.0324,0.013523,0.002678,0.000431,0.002468
137838000,0.0324,0.013523,0.002678,0.000431,0.002468
137839000,0.0324,0.013523,0.002678,0.000431,0.003761
137840000,0.0324,0.013523,0.002678,0.000431,0.002938
137841000,0.0324,0.013523,0.002678,0.000431,0.001880
137842000,0.0324,0.013523,0.002678,0.000431,0.001645
137843000,0.0324,0.013523,0.002678,0.000431,0.001645
137844000,0.0324,0.013523,0.002678,0.000431,0.001645
137845000,0.0324,0.013523,0.002678,0.000431,0.001763
137846000,0.0324,0.013523,0.002678,0.000431,0.001880
137847000,0.0324,0.013523,0.002678,0.000431,0.001528
137848000,0.0324,0.013523,0.002678,0.000431,0.001880
137849000,0.0324,0.013523,0.002678,0.000431,0.001645
137850000,0.0324,0.013523,0.002678,0.000431,0.001880
137851000,0.0324,0.013523,0.002678,0.000431,0.001645
137852000,0.0324,0.013523,0.002678,0.000431,0.001645
137853000,0.0324,0.013523,0.002678,0.000431,0.001880
137854000,0.0324,0.013523,0.002678,0.000431,0.001645
137855000,0.0324,0.013523,0.002678,0.000431,0.001645
137856000,0.0324,0.013523,0.002678,0.000431,0.001645
137857000,0.0324,0.013523,0.002678,0.000431,0.001880
137858000,0.0324,0.013523,0.002678,0.000431,0.001645
137859000,0.0324,0.013523,0.002678,0.000431,0.001645
137860000,0.0324,0.013523,0.002678,0.000431,0.001763
137861000,0.0324,0.013523,0.002678,0.000431,0.001763
137862000,0.0324,0.013523,0.002678,0.000431,0.003408
137863000,0.0324,0.013523,0.002678,0.000431,0.000823
137864000,0.0324,0.013523,0.002678,0.000431,0.000823
137865000,0.0324,0.013523,0.002678,0.000431,0.000940
137866000,0.0324,0.013523,0.002678,0.000431,0.243989
137867000,0.0324,0.013523,0.002678,0.000431,0.643819
137868000,0.0324,0.013523,0.002678,0.000431,0.476694
137869000,0.0324,0.013523,0.002678,0.000431,0.134452
137870000,0.0324,0.013523,0.002678,0.000431,0.214019
137871000,0.0324,0.013523,0.002678,0.000431,0.513716
137872000,0.0324,0.013523,0.002678,0.000431,0.261853
137873000,0.0324,0.013523,0.002678,0.000431,0.364220
137874000,0.0324,0.013523,0.002678,0.000431,0.154315
137875000,0.0324,0.013523,0.002678,0.000431,0.174177
137876000,0.0324,0.013523,0.002678,0.000431,0.104247
137877000,0.0324,0.013523,0.002678,0.000431,0.509250
137878000,0.0324,0.013523,0.002678,0.000431,0.167478
137879000,0.0324,0.013523,0.002678,0.000431,0.134922
137880000,0.0324,0.013523,0.002678,0.000431,0.109889
137881000,0.0324,0.013523,0.002678,0.000431,0.090497
137882000,0.0324,0.013523,0.002678,0.000431,0.073690
137883000,0.0324,0.013523,0.002678,0.000431,0.068754
137884000,0.0324,0.013523,0.002678,0.000431,0.061702
137885000,0.0324,0.013523,0.002678,0.000431,0.048657
137886000,0.0324,0.013523,0.002678,0.000431,0.048069
137887000,0.0324,0.013523,0.002678,0.000431,0.046189
137888000,0.0324,0.013523,0.002678,0.000431,0.031850
137889000,0.0324,0.013523,0.002678,0.000431,0.031615
137890000,0.0324,0.013523,0.002678,0.000431,0.024563
137891000,0.0324,0.013523,0.002678,0.000431,0.024798
137892000,0.0324,0.013523,0.002678,0.000431,0.017394
137893000,0.0324,0.013523,0.002678,0.000431,0.017864
137894000,0.0324,0.013523,0.002678,0.000431,0.015984
137895000,0.0324,0.013523,0.002678,0.000431,0.013633
137896000,0.0324,0.013523,0.002678,0.000431,0.012576
137897000,0.0324,0.013523,0.002678,0.000431,0.008932
137898000,0.0324,0.013523,0.002678,0.000431,0.009285
137899000,0.0324,0.013523,0.002678,0.000431,0.008345
137900000,0.0324,0.013523,0.002678,0.000431,0.008580
137901000,0.0324,0.013523,0.002678,0.000431,0.007052
137902000,0.0324,0.013523,0.002678,0.000431,0.007992
137903000,0.0324,0.013523,0.002678,0.000431,0.005994
137904000,0.0324,0.013523,0.002678,0.000431,0.005876
137905000,0.0324,0.013523,0.002678,0.000431,0.007287
137906000,0.0324,0.013523,0.002678,0.000431,0.006111
137907000,0.0324,0.013523,0.002678,0.000431,0.004701
137908000,0.0324,0.013523,0.002678,0.000431,0.007522
137909000,0.0324,0.013523,0.002678,0.000431,0.005876
137910000,0.0324,0.013523,0.002678,0.000431,0.004819
137911000,0.0324,0.013523,0.002678,0.000431,0.003643
137912000,0.0324,0.013523,0.002678,0.000431,0.003056
137913000,0.0324,0.013523,0.002678,0.000431,0.003643
137914000,0.0324,0.013523,0.002678,0.000431,0.003291
137915000,0.0324,0.013523,0.002678,0.000431,0.003291
137916000,0.0324,0.013523,0.002678,0.000431,0.003643
137917000,0.0324,0.013523,0.002678,0.000431,0.003173
137918000,0.0324,0.013523,0.002678,0.000431,0.003408
137919000,0.0324,0.013523,0.002678,0.000431,0.003291
137920000,0.0324,0.013523,0.002678,0.000431,0.003408
137921000,0.0324,0.013523,0.002678,0.000431,0.003291
137922000,0.0324,0.013523,0.002678,0.000431,0.003408
137923000,0.0324,0.013523,0.002678,0.000431,0.002821
137924000,0.0324,0.013523,0.002678,0.000431,0.003408
137925000,0.0324,0.013523,0.002678,0.000431,0.003056
137926000,0.0324,0.013523,0.002678,0.000431,0.003408
137927000,0.0324,0.013523,0.002678,0.000431,0.003408
137928000,0.0324,0.013523,0.002678,0.000431,0.002938
137929000,0.0324,0.013523,0.002678,0.000431,0.003643
137930000,0.0324,0.013523,0.002678,0.000431,0.002938
137931000,0.0324,0.013523,0.002678,0.000431,0.003408
137932000,0.0324,0.013523,0.002678,0.000431,0.003173
137933000,0.0324,0.013523,0.002678,0.000431,0.003173
137934000,0.0324,0.013523,0.002678,0.000431,0.003643
137935000,0.0324,0.013523,0.002678,0.000431,0.002821
137936000,0.0324,0.013523,0.002678,0.000431,0.003643
137937000,0.0324,0.013523,0.002678,0.000431,0.002938
137938000,0.0324,0.013523,0.002678,0.000431,0.003408
137939000,0.0324,0.013523,0.002678,0.000431,0.003173
137940000,0.0324,0.013523,0.002678,0.000431,0.003173
137941000,0.0324,0.013523,0.002678,0.000431,0.003643
137942000,0.0324,0.013523,0.002678,0.000431,0.002938
137943000,0.0324,0.013523,0.002678,0.000431,0.003408
137944000,0.0324,0.013523,0.002678,0.000431,0.003173
137945000,0.0324,0.013523,0.002678,0.000431,0.003173
137946000,0.0324,0.013523,0.002678,0.000431,0.003408
137947000,0.0324,0.013523,0.002678,0.000431,0.003291
137948000,0.0324,0.013523,0.002678,0.000431,0.003173
137949000,0.0324,0.013523,0.002678,0.000431,0.003173
137950000,0.0324,0.013523,0.002678,0.000431,0.003291
137951000,0.0324,0.013523,0.002678,0.000431,0.007639
137952000,0.0324,0.013523,0.002678,0.000431,0.001763
137953000,0.0324,0.013523,0.002678,0.000431,0.001528
137954000,0.0324,0.013523,0.002678,0.000431,0.001763
137955000,0.0324,0.013523,0.002678,0.000431,0.001645
137956000,0.0324,0.013523,0.002678,0.000431,0.001645
137957000,0.0324,0.013523,0.002678,0.000431,0.001763
137958000,0.0324,0.013523,0.002678,0.000431,0.001645
137959000,0.0324,0.013523,0.002678,0.000431,0.001763
137960000,0.0324,0.013523,0.002678,0.000431,0.001528
137961000,0.0324,0.013523,0.002678,0.000431,0.001763
137962000,0.0324,0.013523,0.002678,0.000431,0.001645
137963000,0.0324,0.013523,0.002678,0.000431,0.001645
137964000,0.0324,0.013523,0.002678,0.000431,0.001763
137965000,0.0324,0.013523,0.002678,0.000431,0.001528
137966000,0.0324,0.013523,0.002678,0.000431,0.001763
137967000,0.0324,0.013523,0.002678,0.000431,0.001528
137968000,0.0324,0.013523,0.002678,0.000431,0.001880
137969000,0.0324,0.013523,0.002678,0.000431,0.001763
137970000,0.0324,0.013523,0.002678,0.000431,0.001645
137971000,0.0324,0.013523,0.002678,0.000431,0.003173
137972000,0.0324,0.013523,0.002678,0.000431,0.000823
137973000,0.0324,0.013523,0.002678,0.000431,0.000823
137974000,0.0324,0.013523,0.002678,0.000431,0.000823
137975000,0.0324,0.013523,0.002678,0.000431,0.000940
137976000,0.0324,0.013523,0.002678,0.000431,0.000705
137977000,0.0324,0.013523,0.002678,0.000431,0.000940
137978000,0.0324,0.013523,0.002678,0.000431,0.000940
137979000,0.0324,0.013523,0.002678,0.000431,0.000940
137980000,0.0324,0.013523,0.002678,0.000431,0.000940
137981000,0.0324,0.013523,0.002678,0.000431,0.000823
137982000,0.0324,0.013523,0.002678,0.000431,0.000823
137983000,0.0324,0.013523,0.002678,0.000431,0.000940
137984000,0.0324,0.013523,0.002678,0.000431,0.000823
137985000,0.0324,0.013523,0.002678,0.000431,0.000940
137986000,0.0324,0.013523,0.002678,0.000431,0.000823
137987000,0.0324,0.013523,0.002678,0.000431,0.000940
137988000,0.0324,0.013523,0.002678,0.000431,0.000823
137989000,0.0324,0.013523,0.002678,0.000431,0.000823
137990000,0.0324,0.013523,0.002678,0.000431,0.000940
137991000,0.0324,0.013523,0.002678,0.000431,0.000940
137992000,0.0324,0.013523,0.002678,0.000431,0.000823
137993000,0.0324,0.013523,0.002678,0.000431,0.089909
137994000,0.0324,0.013523,0.002678,0.000431,0.650283
137995000,0.0324,0.013523,0.002678,0.000431,0.523823
137996000,0.0324,0.013523,0.002678,0.000431,0.137978
137997000,0.0324,0.013523,0.002678,0.000431,0.151141
137998000,0.0324,0.013523,0.002678,0.000431,0.637003
137999000,0.0324,0.013523,0.002678,0.000431,0.285593
