Cycle,Area(mm^2),PeakDynamic(W),SubthresholdLeakage(W),GateLeakage(W),RunTimeDynamic(W)
71000000,0.0324,0.013523,0.002678,0.000431,0.326728
71001000,0.0324,0.013523,0.002678,0.000431,0.082857
71002000,0.0324,0.013523,0.002678,0.000431,0.080507
71003000,0.0324,0.013523,0.002678,0.000431,0.061585
71004000,0.0324,0.013523,0.002678,0.000431,0.048892
71005000,0.0324,0.013523,0.002678,0.000431,0.042193
71006000,0.0324,0.013523,0.002678,0.000431,0.036316
71007000,0.0324,0.013523,0.002678,0.000431,0.033260
71008000,0.0324,0.013523,0.002678,0.000431,0.023506
71009000,0.0324,0.013523,0.002678,0.000431,0.025621
71010000,0.0324,0.013523,0.002678,0.000431,0.025739
71011000,0.0324,0.013523,0.002678,0.000431,0.021273
71012000,0.0324,0.013523,0.002678,0.000431,0.016689
71013000,0.0324,0.013523,0.002678,0.000431,0.016689
71014000,0.0324,0.013523,0.002678,0.000431,0.012811
71015000,0.0324,0.013523,0.002678,0.000431,0.014573
71016000,0.0324,0.013523,0.002678,0.000431,0.009755
71017000,0.0324,0.013523,0.002678,0.000431,0.010107
71018000,0.0324,0.013523,0.002678,0.000431,0.010578
71019000,0.0324,0.013523,0.002678,0.000431,0.009990
71020000,0.0324,0.013523,0.002678,0.000431,0.009637
71021000,0.0324,0.013523,0.002678,0.000431,0.008345
71022000,0.0324,0.013523,0.002678,0.000431,0.010107
71023000,0.0324,0.013523,0.002678,0.000431,0.009167
71024000,0.0324,0.013523,0.002678,0.000431,0.006699
71025000,0.0324,0.013523,0.002678,0.000431,0.006699
71026000,0.0324,0.013523,0.002678,0.000431,0.007169
71027000,0.0324,0.013523,0.002678,0.000431,0.006347
71028000,0.0324,0.013523,0.002678,0.000431,0.006699
71029000,0.0324,0.013523,0.002678,0.000431,0.007052
71030000,0.0324,0.013523,0.002678,0.000431,0.006464
71031000,0.0324,0.013523,0.002678,0.000431,0.007052
71032000,0.0324,0.013523,0.002678,0.000431,0.006582
71033000,0.0324,0.013523,0.002678,0.000431,0.006699
71034000,0.0324,0.013523,0.002678,0.000431,0.006464
71035000,0.0324,0.013523,0.002678,0.000431,0.007169
71036000,0.0324,0.013523,0.002678,0.000431,0.006582
71037000,0.0324,0.013523,0.002678,0.000431,0.006934
71038000,0.0324,0.013523,0.002678,0.000431,0.006699
71039000,0.0324,0.013523,0.002678,0.000431,0.006464
71040000,0.0324,0.013523,0.002678,0.000431,0.007287
71041000,0.0324,0.013523,0.002678,0.000431,0.006582
71042000,0.0324,0.013523,0.002678,0.000431,0.006934
71043000,0.0324,0.013523,0.002678,0.000431,0.006699
71044000,0.0324,0.013523,0.002678,0.000431,0.007874
71045000,0.0324,0.013523,0.002678,0.000431,0.006229
71046000,0.0324,0.013523,0.002678,0.000431,0.008345
71047000,0.0324,0.013523,0.002678,0.000431,0.004819
71048000,0.0324,0.013523,0.002678,0.000431,0.005171
71049000,0.0324,0.013523,0.002678,0.000431,0.005289
71050000,0.0324,0.013523,0.002678,0.000431,0.004819
71051000,0.0324,0.013523,0.002678,0.000431,0.005289
71052000,0.0324,0.013523,0.002678,0.000431,0.004936
71053000,0.0324,0.013523,0.002678,0.000431,0.005054
71054000,0.0324,0.013523,0.002678,0.000431,0.004584
71055000,0.0324,0.013523,0.002678,0.000431,0.005759
71056000,0.0324,0.013523,0.002678,0.000431,0.005054
71057000,0.0324,0.013523,0.002678,0.000431,0.004819
71058000,0.0324,0.013523,0.002678,0.000431,0.006347
71059000,0.0324,0.013523,0.002678,0.000431,0.004701
71060000,0.0324,0.013523,0.002678,0.000431,0.004231
71061000,0.0324,0.013523,0.002678,0.000431,0.004936
71062000,0.0324,0.013523,0.002678,0.000431,0.003878
71063000,0.0324,0.013523,0.002678,0.000431,0.004349
71064000,0.0324,0.013523,0.002678,0.000431,0.005759
71065000,0.0324,0.013523,0.002678,0.000431,0.002938
71066000,0.0324,0.013523,0.002678,0.000431,0.003643
71067000,0.0324,0.013523,0.002678,0.000431,0.003526
71068000,0.0324,0.013523,0.002678,0.000431,0.003173
71069000,0.0324,0.013523,0.002678,0.000431,0.003173
71070000,0.0324,0.013523,0.002678,0.000431,0.003878
71071000,0.0324,0.013523,0.002678,0.000431,0.003173
71072000,0.0324,0.013523,0.002678,0.000431,0.003878
71073000,0.0324,0.013523,0.002678,0.000431,0.003056
71074000,0.0324,0.013523,0.002678,0.000431,0.003643
71075000,0.0324,0.013523,0.002678,0.000431,0.003526
71076000,0.0324,0.013523,0.002678,0.000431,0.003291
71077000,0.0324,0.013523,0.002678,0.000431,0.003526
71078000,0.0324,0.013523,0.002678,0.000431,0.003643
71079000,0.0324,0.013523,0.002678,0.000431,0.003173
71080000,0.0324,0.013523,0.002678,0.000431,0.003173
71081000,0.0324,0.013523,0.002678,0.000431,0.003996
71082000,0.0324,0.013523,0.002678,0.000431,0.003173
71083000,0.0324,0.013523,0.002678,0.000431,0.003173
71084000,0.0324,0.013523,0.002678,0.000431,0.003996
71085000,0.0324,0.013523,0.002678,0.000431,0.003056
71086000,0.0324,0.013523,0.002678,0.000431,0.003291
71087000,0.0324,0.013523,0.002678,0.000431,0.002938
71088000,0.0324,0.013523,0.002678,0.000431,0.002468
71089000,0.0324,0.013523,0.002678,0.000431,0.003173
71090000,0.0324,0.013523,0.002678,0.000431,0.002468
71091000,0.0324,0.013523,0.002678,0.000431,0.002703
71092000,0.0324,0.013523,0.002678,0.000431,0.003056
71093000,0.0324,0.013523,0.002678,0.000431,0.002703
71094000,0.0324,0.013523,0.002678,0.000431,0.003056
71095000,0.0324,0.013523,0.002678,0.000431,0.002468
71096000,0.0324,0.013523,0.002678,0.000431,0.002821
71097000,0.0324,0.013523,0.002678,0.000431,0.003056
71098000,0.0324,0.013523,0.002678,0.000431,0.002821
71099000,0.0324,0.013523,0.002678,0.000431,0.002821
71100000,0.0324,0.013523,0.002678,0.000431,0.002703
71101000,0.0324,0.013523,0.002678,0.000431,0.002703
71102000,0.0324,0.013523,0.002678,0.000431,0.003291
71103000,0.0324,0.013523,0.002678,0.000431,0.002468
71104000,0.0324,0.013523,0.002678,0.000431,0.003056
71105000,0.0324,0.013523,0.002678,0.000431,0.002351
71106000,0.0324,0.013523,0.002678,0.000431,0.002938
71107000,0.0324,0.013523,0.002678,0.000431,0.003291
71108000,0.0324,0.013523,0.002678,0.000431,0.002116
71109000,0.0324,0.013523,0.002678,0.000431,0.003408
71110000,0.0324,0.013523,0.002678,0.000431,0.002351
71111000,0.0324,0.013523,0.002678,0.000431,0.002938
71112000,0.0324,0.013523,0.002678,0.000431,0.003056
71113000,0.0324,0.013523,0.002678,0.000431,0.002351
71114000,0.0324,0.013523,0.002678,0.000431,0.005171
71115000,0.0324,0.013523,0.002678,0.000431,0.001998
71116000,0.0324,0.013523,0.002678,0.000431,0.001763
71117000,0.0324,0.013523,0.002678,0.000431,0.002233
71118000,0.0324,0.013523,0.002678,0.000431,0.001645
71119000,0.0324,0.013523,0.002678,0.000431,0.002233
71120000,0.0324,0.013523,0.002678,0.000431,0.001880
71121000,0.0324,0.013523,0.002678,0.000431,0.001763
71122000,0.0324,0.013523,0.002678,0.000431,0.002233
71123000,0.0324,0.013523,0.002678,0.000431,0.001763
71124000,0.0324,0.013523,0.002678,0.000431,0.001998
71125000,0.0324,0.013523,0.002678,0.000431,0.001998
71126000,0.0324,0.013523,0.002678,0.000431,0.001880
71127000,0.0324,0.013523,0.002678,0.000431,0.002233
71128000,0.0324,0.013523,0.002678,0.000431,0.001645
71129000,0.0324,0.013523,0.002678,0.000431,0.001998
71130000,0.0324,0.013523,0.002678,0.000431,0.002116
71131000,0.0324,0.013523,0.002678,0.000431,0.001645
71132000,0.0324,0.013523,0.002678,0.000431,0.002351
71133000,0.0324,0.013523,0.002678,0.000431,0.001528
71134000,0.0324,0.013523,0.002678,0.000431,0.002116
71135000,0.0324,0.013523,0.002678,0.000431,0.002821
71136000,0.0324,0.013523,0.002678,0.000431,0.001645
71137000,0.0324,0.013523,0.002678,0.000431,0.003291
71138000,0.0324,0.013523,0.002678,0.000431,0.000705
71139000,0.0324,0.013523,0.002678,0.000431,0.000940
71140000,0.0324,0.013523,0.002678,0.000431,0.000940
71141000,0.0324,0.013523,0.002678,0.000431,0.000705
71142000,0.0324,0.013523,0.002678,0.000431,0.000940
71143000,0.0324,0.013523,0.002678,0.000431,0.000705
71144000,0.0324,0.013523,0.002678,0.000431,0.000940
71145000,0.0324,0.013523,0.002678,0.000431,0.000940
71146000,0.0324,0.013523,0.002678,0.000431,0.000705
71147000,0.0324,0.013523,0.002678,0.000431,0.000940
71148000,0.0324,0.013523,0.002678,0.000431,0.000705
71149000,0.0324,0.013523,0.002678,0.000431,0.000940
71150000,0.0324,0.013523,0.002678,0.000431,0.000823
71151000,0.0324,0.013523,0.002678,0.000431,0.000823
71152000,0.0324,0.013523,0.002678,0.000431,0.000823
71153000,0.0324,0.013523,0.002678,0.000431,0.000823
71154000,0.0324,0.013523,0.002678,0.000431,0.000940
71155000,0.0324,0.013523,0.002678,0.000431,0.000705
71156000,0.0324,0.013523,0.002678,0.000431,0.000940
71157000,0.0324,0.013523,0.002678,0.000431,0.000823
71158000,0.0324,0.013523,0.002678,0.000431,0.001880
71159000,0.0324,0.013523,0.002678,0.000431,0.390781
71160000,0.0324,0.013523,0.002678,0.000431,0.697647
71161000,0.0324,0.013523,0.002678,0.000431,0.163012
71162000,0.0324,0.013523,0.002678,0.000431,0.133042
71163000,0.0324,0.013523,0.002678,0.000431,0.193451
71164000,0.0324,0.013523,0.002678,0.000431,0.615495
71165000,0.0324,0.013523,0.002678,0.000431,0.241755
71166000,0.0324,0.013523,0.002678,0.000431,0.303928
71167000,0.0324,0.013523,0.002678,0.000431,0.177232
71168000,0.0324,0.013523,0.002678,0.000431,0.152552
71169000,0.0324,0.013523,0.002678,0.000431,0.129281
71170000,0.0324,0.013523,0.002678,0.000431,0.244811
71171000,0.0324,0.013523,0.002678,0.000431,0.388783
71172000,0.0324,0.013523,0.002678,0.000431,0.107656
71173000,0.0324,0.013523,0.002678,0.000431,0.094728
71174000,0.0324,0.013523,0.002678,0.000431,0.072750
71175000,0.0324,0.013523,0.002678,0.000431,0.047364
71176000,0.0324,0.013523,0.002678,0.000431,0.038314
71177000,0.0324,0.013523,0.002678,0.000431,0.035611
71178000,0.0324,0.013523,0.002678,0.000431,0.028559
71179000,0.0324,0.013523,0.002678,0.000431,0.025739
71180000,0.0324,0.013523,0.002678,0.000431,0.033731
71181000,0.0324,0.013523,0.002678,0.000431,0.025151
71182000,0.0324,0.013523,0.002678,0.000431,0.020685
71183000,0.0324,0.013523,0.002678,0.000431,0.020097
71184000,0.0324,0.013523,0.002678,0.000431,0.022448
71185000,0.0324,0.013523,0.002678,0.000431,0.019862
71186000,0.0324,0.013523,0.002678,0.000431,0.017159
71187000,0.0324,0.013523,0.002678,0.000431,0.019275
71188000,0.0324,0.013523,0.002678,0.000431,0.021625
71189000,0.0324,0.013523,0.002678,0.000431,0.011165
71190000,0.0324,0.013523,0.002678,0.000431,0.013868
71191000,0.0324,0.013523,0.002678,0.000431,0.009755
71192000,0.0324,0.013523,0.002678,0.000431,0.011400
71193000,0.0324,0.013523,0.002678,0.000431,0.009637
71194000,0.0324,0.013523,0.002678,0.000431,0.009755
71195000,0.0324,0.013523,0.002678,0.000431,0.011048
71196000,0.0324,0.013523,0.002678,0.000431,0.010578
71197000,0.0324,0.013523,0.002678,0.000431,0.010225
71198000,0.0324,0.013523,0.002678,0.000431,0.010813
71199000,0.0324,0.013523,0.002678,0.000431,0.010813
71200000,0.0324,0.013523,0.002678,0.000431,0.010460
71201000,0.0324,0.013523,0.002678,0.000431,0.009872
71202000,0.0324,0.013523,0.002678,0.000431,0.009167
71203000,0.0324,0.013523,0.002678,0.000431,0.009167
71204000,0.0324,0.013523,0.002678,0.000431,0.009167
71205000,0.0324,0.013523,0.002678,0.000431,0.008580
71206000,0.0324,0.013523,0.002678,0.000431,0.011165
71207000,0.0324,0.013523,0.002678,0.000431,0.010225
71208000,0.0324,0.013523,0.002678,0.000431,0.007169
71209000,0.0324,0.013523,0.002678,0.000431,0.007169
71210000,0.0324,0.013523,0.002678,0.000431,0.005876
71211000,0.0324,0.013523,0.002678,0.000431,0.006229
71212000,0.0324,0.013523,0.002678,0.000431,0.006582
71213000,0.0324,0.013523,0.002678,0.000431,0.006347
71214000,0.0324,0.013523,0.002678,0.000431,0.006111
71215000,0.0324,0.013523,0.002678,0.000431,0.006582
71216000,0.0324,0.013523,0.002678,0.000431,0.006229
71217000,0.0324,0.013523,0.002678,0.000431,0.007404
71218000,0.0324,0.013523,0.002678,0.000431,0.004819
71219000,0.0324,0.013523,0.002678,0.000431,0.004349
71220000,0.0324,0.013523,0.002678,0.000431,0.004819
71221000,0.0324,0.013523,0.002678,0.000431,0.004819
71222000,0.0324,0.013523,0.002678,0.000431,0.004231
71223000,0.0324,0.013523,0.002678,0.000431,0.005406
71224000,0.0324,0.013523,0.002678,0.000431,0.002821
71225000,0.0324,0.013523,0.002678,0.000431,0.002938
71226000,0.0324,0.013523,0.002678,0.000431,0.003408
71227000,0.0324,0.013523,0.002678,0.000431,0.002821
71228000,0.0324,0.013523,0.002678,0.000431,0.002938
71229000,0.0324,0.013523,0.002678,0.000431,0.003291
71230000,0.0324,0.013523,0.002678,0.000431,0.002821
71231000,0.0324,0.013523,0.002678,0.000431,0.002938
71232000,0.0324,0.013523,0.002678,0.000431,0.003408
71233000,0.0324,0.013523,0.002678,0.000431,0.002821
71234000,0.0324,0.013523,0.002678,0.000431,0.002586
71235000,0.0324,0.013523,0.002678,0.000431,0.003173
71236000,0.0324,0.013523,0.002678,0.000431,0.002468
71237000,0.0324,0.013523,0.002678,0.000431,0.002468
71238000,0.0324,0.013523,0.002678,0.000431,0.001880
71239000,0.0324,0.013523,0.002678,0.000431,0.001645
71240000,0.0324,0.013523,0.002678,0.000431,0.001880
71241000,0.0324,0.013523,0.002678,0.000431,0.001410
71242000,0.0324,0.013523,0.002678,0.000431,0.001880
71243000,0.0324,0.013523,0.002678,0.000431,0.001763
71244000,0.0324,0.013523,0.002678,0.000431,0.001645
71245000,0.0324,0.013523,0.002678,0.000431,0.001880
71246000,0.0324,0.013523,0.002678,0.000431,0.001528
71247000,0.0324,0.013523,0.002678,0.000431,0.001880
71248000,0.0324,0.013523,0.002678,0.000431,0.001645
71249000,0.0324,0.013523,0.002678,0.000431,0.001645
71250000,0.0324,0.013523,0.002678,0.000431,0.001763
71251000,0.0324,0.013523,0.002678,0.000431,0.001645
71252000,0.0324,0.013523,0.002678,0.000431,0.001763
71253000,0.0324,0.013523,0.002678,0.000431,0.001645
71254000,0.0324,0.013523,0.002678,0.000431,0.001880
71255000,0.0324,0.013523,0.002678,0.000431,0.001645
71256000,0.0324,0.013523,0.002678,0.000431,0.001528
71257000,0.0324,0.013523,0.002678,0.000431,0.001880
71258000,0.0324,0.013523,0.002678,0.000431,0.001763
71259000,0.0324,0.013523,0.002678,0.000431,0.001763
71260000,0.0324,0.013523,0.002678,0.000431,0.001528
71261000,0.0324,0.013523,0.002678,0.000431,0.001645
71262000,0.0324,0.013523,0.002678,0.000431,0.001880
71263000,0.0324,0.013523,0.002678,0.000431,0.001763
71264000,0.0324,0.013523,0.002678,0.000431,0.001528
71265000,0.0324,0.013523,0.002678,0.000431,0.001880
71266000,0.0324,0.013523,0.002678,0.000431,0.001528
71267000,0.0324,0.013523,0.002678,0.000431,0.001880
71268000,0.0324,0.013523,0.002678,0.000431,0.001763
71269000,0.0324,0.013523,0.002678,0.000431,0.001645
71270000,0.0324,0.013523,0.002678,0.000431,0.001763
71271000,0.0324,0.013523,0.002678,0.000431,0.001528
71272000,0.0324,0.013523,0.002678,0.000431,0.001880
71273000,0.0324,0.013523,0.002678,0.000431,0.001763
71274000,0.0324,0.013523,0.002678,0.000431,0.001645
71275000,0.0324,0.013523,0.002678,0.000431,0.001645
71276000,0.0324,0.013523,0.002678,0.000431,0.001763
71277000,0.0324,0.013523,0.002678,0.000431,0.001880
71278000,0.0324,0.013523,0.002678,0.000431,0.001528
71279000,0.0324,0.013523,0.002678,0.000431,0.001763
71280000,0.0324,0.013523,0.002678,0.000431,0.001763
71281000,0.0324,0.013523,0.002678,0.000431,0.001763
71282000,0.0324,0.013523,0.002678,0.000431,0.001645
71283000,0.0324,0.013523,0.002678,0.000431,0.001645
71284000,0.0324,0.013523,0.002678,0.000431,0.001763
71285000,0.0324,0.013523,0.002678,0.000431,0.001645
71286000,0.0324,0.013523,0.002678,0.000431,0.001880
71287000,0.0324,0.013523,0.002678,0.000431,0.001645
71288000,0.0324,0.013523,0.002678,0.000431,0.001763
71289000,0.0324,0.013523,0.002678,0.000431,0.001528
71290000,0.0324,0.013523,0.002678,0.000431,0.001763
71291000,0.0324,0.013523,0.002678,0.000431,0.001880
71292000,0.0324,0.013523,0.002678,0.000431,0.001645
71293000,0.0324,0.013523,0.002678,0.000431,0.001763
71294000,0.0324,0.013523,0.002678,0.000431,0.001528
71295000,0.0324,0.013523,0.002678,0.000431,0.001880
71296000,0.0324,0.013523,0.002678,0.000431,0.001763
71297000,0.0324,0.013523,0.002678,0.000431,0.001528
71298000,0.0324,0.013523,0.002678,0.000431,0.001763
71299000,0.0324,0.013523,0.002678,0.000431,0.001763
71300000,0.0324,0.013523,0.002678,0.000431,0.001880
71301000,0.0324,0.013523,0.002678,0.000431,0.001410
71302000,0.0324,0.013523,0.002678,0.000431,0.003173
71303000,0.0324,0.013523,0.002678,0.000431,0.000940
71304000,0.0324,0.013523,0.002678,0.000431,0.000823
71305000,0.0324,0.013523,0.002678,0.000431,0.000940
71306000,0.0324,0.013523,0.002678,0.000431,0.000823
71307000,0.0324,0.013523,0.002678,0.000431,0.013633
71308000,0.0324,0.013523,0.002678,0.000431,0.556966
71309000,0.0324,0.013523,0.002678,0.000431,0.593752
71310000,0.0324,0.013523,0.002678,0.000431,0.143972
71311000,0.0324,0.013523,0.002678,0.000431,0.133042
71312000,0.0324,0.013523,0.002678,0.000431,0.465177
71313000,0.0324,0.013523,0.002678,0.000431,0.323673
71314000,0.0324,0.013523,0.002678,0.000431,0.309217
71315000,0.0324,0.013523,0.002678,0.000431,0.298522
71316000,0.0324,0.013523,0.002678,0.000431,0.144325
71317000,0.0324,0.013523,0.002678,0.000431,0.149731
71318000,0.0324,0.013523,0.002678,0.000431,0.106481
71319000,0.0324,0.013523,0.002678,0.000431,0.469995
71320000,0.0324,0.013523,0.002678,0.000431,0.177350
71321000,0.0324,0.013523,0.002678,0.000431,0.103895
71322000,0.0324,0.013523,0.002678,0.000431,0.093435
71323000,0.0324,0.013523,0.002678,0.000431,0.073573
71324000,0.0324,0.013523,0.002678,0.000431,0.067344
71325000,0.0324,0.013523,0.002678,0.000431,0.047129
71326000,0.0324,0.013523,0.002678,0.000431,0.050772
71327000,0.0324,0.013523,0.002678,0.000431,0.042545
71328000,0.0324,0.013523,0.002678,0.000431,0.035141
71329000,0.0324,0.013523,0.002678,0.000431,0.030322
71330000,0.0324,0.013523,0.002678,0.000431,0.025504
71331000,0.0324,0.013523,0.002678,0.000431,0.021390
71332000,0.0324,0.013523,0.002678,0.000431,0.019392
71333000,0.0324,0.013523,0.002678,0.000431,0.013986
71334000,0.0324,0.013523,0.002678,0.000431,0.013281
71335000,0.0324,0.013523,0.002678,0.000431,0.012576
71336000,0.0324,0.013523,0.002678,0.000431,0.012693
71337000,0.0324,0.013523,0.002678,0.000431,0.011635
71338000,0.0324,0.013523,0.002678,0.000431,0.013633
71339000,0.0324,0.013523,0.002678,0.000431,0.014691
71340000,0.0324,0.013523,0.002678,0.000431,0.009167
71341000,0.0324,0.013523,0.002678,0.000431,0.010107
71342000,0.0324,0.013523,0.002678,0.000431,0.007639
71343000,0.0324,0.013523,0.002678,0.000431,0.008932
71344000,0.0324,0.013523,0.002678,0.000431,0.006464
71345000,0.0324,0.013523,0.002678,0.000431,0.006934
71346000,0.0324,0.013523,0.002678,0.000431,0.007287
71347000,0.0324,0.013523,0.002678,0.000431,0.008345
71348000,0.0324,0.013523,0.002678,0.000431,0.005641
71349000,0.0324,0.013523,0.002678,0.000431,0.004936
71350000,0.0324,0.013523,0.002678,0.000431,0.005171
71351000,0.0324,0.013523,0.002678,0.000431,0.007169
71352000,0.0324,0.013523,0.002678,0.000431,0.004113
71353000,0.0324,0.013523,0.002678,0.000431,0.004466
71354000,0.0324,0.013523,0.002678,0.000431,0.004349
71355000,0.0324,0.013523,0.002678,0.000431,0.004113
71356000,0.0324,0.013523,0.002678,0.000431,0.004349
71357000,0.0324,0.013523,0.002678,0.000431,0.004701
71358000,0.0324,0.013523,0.002678,0.000431,0.005524
71359000,0.0324,0.013523,0.002678,0.000431,0.003526
71360000,0.0324,0.013523,0.002678,0.000431,0.003291
71361000,0.0324,0.013523,0.002678,0.000431,0.003643
71362000,0.0324,0.013523,0.002678,0.000431,0.003643
71363000,0.0324,0.013523,0.002678,0.000431,0.005289
71364000,0.0324,0.013523,0.002678,0.000431,0.002821
71365000,0.0324,0.013523,0.002678,0.000431,0.002468
71366000,0.0324,0.013523,0.002678,0.000431,0.002821
71367000,0.0324,0.013523,0.002678,0.000431,0.002703
71368000,0.0324,0.013523,0.002678,0.000431,0.002468
71369000,0.0324,0.013523,0.002678,0.000431,0.002703
71370000,0.0324,0.013523,0.002678,0.000431,0.002586
71371000,0.0324,0.013523,0.002678,0.000431,0.002938
71372000,0.0324,0.013523,0.002678,0.000431,0.002468
71373000,0.0324,0.013523,0.002678,0.000431,0.002468
71374000,0.0324,0.013523,0.002678,0.000431,0.002938
71375000,0.0324,0.013523,0.002678,0.000431,0.002468
71376000,0.0324,0.013523,0.002678,0.000431,0.002703
71377000,0.0324,0.013523,0.002678,0.000431,0.002586
71378000,0.0324,0.013523,0.002678,0.000431,0.002703
71379000,0.0324,0.013523,0.002678,0.000431,0.002821
71380000,0.0324,0.013523,0.002678,0.000431,0.002938
71381000,0.0324,0.013523,0.002678,0.000431,0.002821
71382000,0.0324,0.013523,0.002678,0.000431,0.002586
71383000,0.0324,0.013523,0.002678,0.000431,0.002703
71384000,0.0324,0.013523,0.002678,0.000431,0.002586
71385000,0.0324,0.013523,0.002678,0.000431,0.002586
71386000,0.0324,0.013523,0.002678,0.000431,0.002821
71387000,0.0324,0.013523,0.002678,0.000431,0.002586
71388000,0.0324,0.013523,0.002678,0.000431,0.002586
71389000,0.0324,0.013523,0.002678,0.000431,0.002703
71390000,0.0324,0.013523,0.002678,0.000431,0.002703
71391000,0.0324,0.013523,0.002678,0.000431,0.002586
71392000,0.0324,0.013523,0.002678,0.000431,0.002703
71393000,0.0324,0.013523,0.002678,0.000431,0.002703
71394000,0.0324,0.013523,0.002678,0.000431,0.002703
71395000,0.0324,0.013523,0.002678,0.000431,0.002586
71396000,0.0324,0.013523,0.002678,0.000431,0.002703
71397000,0.0324,0.013523,0.002678,0.000431,0.002703
71398000,0.0324,0.013523,0.002678,0.000431,0.002468
71399000,0.0324,0.013523,0.002678,0.000431,0.002703
71400000,0.0324,0.013523,0.002678,0.000431,0.002586
71401000,0.0324,0.013523,0.002678,0.000431,0.002821
71402000,0.0324,0.013523,0.002678,0.000431,0.002468
71403000,0.0324,0.013523,0.002678,0.000431,0.002703
71404000,0.0324,0.013523,0.002678,0.000431,0.002821
71405000,0.0324,0.013523,0.002678,0.000431,0.002586
71406000,0.0324,0.013523,0.002678,0.000431,0.002468
71407000,0.0324,0.013523,0.002678,0.000431,0.002703
71408000,0.0324,0.013523,0.002678,0.000431,0.002586
71409000,0.0324,0.013523,0.002678,0.000431,0.002821
71410000,0.0324,0.013523,0.002678,0.000431,0.002468
71411000,0.0324,0.013523,0.002678,0.000431,0.002703
71412000,0.0324,0.013523,0.002678,0.000431,0.002821
71413000,0.0324,0.013523,0.002678,0.000431,0.002351
71414000,0.0324,0.013523,0.002678,0.000431,0.003878
71415000,0.0324,0.013523,0.002678,0.000431,0.001998
71416000,0.0324,0.013523,0.002678,0.000431,0.001528
71417000,0.0324,0.013523,0.002678,0.000431,0.001880
71418000,0.0324,0.013523,0.002678,0.000431,0.001528
71419000,0.0324,0.013523,0.002678,0.000431,0.001880
71420000,0.0324,0.013523,0.002678,0.000431,0.001645
71421000,0.0324,0.013523,0.002678,0.000431,0.001645
71422000,0.0324,0.013523,0.002678,0.000431,0.001763
71423000,0.0324,0.013523,0.002678,0.000431,0.001763
71424000,0.0324,0.013523,0.002678,0.000431,0.001763
71425000,0.0324,0.013523,0.002678,0.000431,0.001528
71426000,0.0324,0.013523,0.002678,0.000431,0.001880
71427000,0.0324,0.013523,0.002678,0.000431,0.001763
71428000,0.0324,0.013523,0.002678,0.000431,0.001645
71429000,0.0324,0.013523,0.002678,0.000431,0.001645
71430000,0.0324,0.013523,0.002678,0.000431,0.001763
71431000,0.0324,0.013523,0.002678,0.000431,0.001763
71432000,0.0324,0.013523,0.002678,0.000431,0.001645
71433000,0.0324,0.013523,0.002678,0.000431,0.001645
71434000,0.0324,0.013523,0.002678,0.000431,0.001763
71435000,0.0324,0.013523,0.002678,0.000431,0.001763
71436000,0.0324,0.013523,0.002678,0.000431,0.001763
71437000,0.0324,0.013523,0.002678,0.000431,0.001645
71438000,0.0324,0.013523,0.002678,0.000431,0.001645
71439000,0.0324,0.013523,0.002678,0.000431,0.001763
71440000,0.0324,0.013523,0.002678,0.000431,0.001763
71441000,0.0324,0.013523,0.002678,0.000431,0.001645
71442000,0.0324,0.013523,0.002678,0.000431,0.001880
71443000,0.0324,0.013523,0.002678,0.000431,0.001528
71444000,0.0324,0.013523,0.002678,0.000431,0.001763
71445000,0.0324,0.013523,0.002678,0.000431,0.001763
71446000,0.0324,0.013523,0.002678,0.000431,0.001763
71447000,0.0324,0.013523,0.002678,0.000431,0.001645
71448000,0.0324,0.013523,0.002678,0.000431,0.001645
71449000,0.0324,0.013523,0.002678,0.000431,0.001880
71450000,0.0324,0.013523,0.002678,0.000431,0.001645
71451000,0.0324,0.013523,0.002678,0.000431,0.001645
71452000,0.0324,0.013523,0.002678,0.000431,0.001763
71453000,0.0324,0.013523,0.002678,0.000431,0.001763
71454000,0.0324,0.013523,0.002678,0.000431,0.001763
71455000,0.0324,0.013523,0.002678,0.000431,0.001528
71456000,0.0324,0.013523,0.002678,0.000431,0.001880
71457000,0.0324,0.013523,0.002678,0.000431,0.001528
71458000,0.0324,0.013523,0.002678,0.000431,0.001880
71459000,0.0324,0.013523,0.002678,0.000431,0.001645
71460000,0.0324,0.013523,0.002678,0.000431,0.001763
71461000,0.0324,0.013523,0.002678,0.000431,0.001645
71462000,0.0324,0.013523,0.002678,0.000431,0.001645
71463000,0.0324,0.013523,0.002678,0.000431,0.001880
71464000,0.0324,0.013523,0.002678,0.000431,0.001645
71465000,0.0324,0.013523,0.002678,0.000431,0.001880
71466000,0.0324,0.013523,0.002678,0.000431,0.001410
71467000,0.0324,0.013523,0.002678,0.000431,0.001880
71468000,0.0324,0.013523,0.002678,0.000431,0.001763
71469000,0.0324,0.013523,0.002678,0.000431,0.001645
71470000,0.0324,0.013523,0.002678,0.000431,0.001763
71471000,0.0324,0.013523,0.002678,0.000431,0.001645
71472000,0.0324,0.013523,0.002678,0.000431,0.001880
71473000,0.0324,0.013523,0.002678,0.000431,0.001645
71474000,0.0324,0.013523,0.002678,0.000431,0.001645
71475000,0.0324,0.013523,0.002678,0.000431,0.001763
71476000,0.0324,0.013523,0.002678,0.000431,0.001645
71477000,0.0324,0.013523,0.002678,0.000431,0.001763
71478000,0.0324,0.013523,0.002678,0.000431,0.001645
71479000,0.0324,0.013523,0.002678,0.000431,0.001880
71480000,0.0324,0.013523,0.002678,0.000431,0.001528
71481000,0.0324,0.013523,0.002678,0.000431,0.001645
71482000,0.0324,0.013523,0.002678,0.000431,0.001880
71483000,0.0324,0.013523,0.002678,0.000431,0.001763
71484000,0.0324,0.013523,0.002678,0.000431,0.001645
71485000,0.0324,0.013523,0.002678,0.000431,0.001645
71486000,0.0324,0.013523,0.002678,0.000431,0.001763
71487000,0.0324,0.013523,0.002678,0.000431,0.001763
71488000,0.0324,0.013523,0.002678,0.000431,0.001763
71489000,0.0324,0.013523,0.002678,0.000431,0.001645
71490000,0.0324,0.013523,0.002678,0.000431,0.001763
71491000,0.0324,0.013523,0.002678,0.000431,0.001528
71492000,0.0324,0.013523,0.002678,0.000431,0.001880
71493000,0.0324,0.013523,0.002678,0.000431,0.001763
71494000,0.0324,0.013523,0.002678,0.000431,0.001645
71495000,0.0324,0.013523,0.002678,0.000431,0.001763
71496000,0.0324,0.013523,0.002678,0.000431,0.003643
71497000,0.0324,0.013523,0.002678,0.000431,0.001058
71498000,0.0324,0.013523,0.002678,0.000431,0.000940
71499000,0.0324,0.013523,0.002678,0.000431,0.000823
71500000,0.0324,0.013523,0.002678,0.000431,0.000823
71501000,0.0324,0.013523,0.002678,0.000431,0.000940
71502000,0.0324,0.013523,0.002678,0.000431,0.000940
71503000,0.0324,0.013523,0.002678,0.000431,0.002821
71504000,0.0324,0.013523,0.002678,0.000431,0.451426
71505000,0.0324,0.013523,0.002678,0.000431,0.723386
71506000,0.0324,0.013523,0.002678,0.000431,0.143267
71507000,0.0324,0.013523,0.002678,0.000431,0.134452
71508000,0.0324,0.013523,0.002678,0.000431,0.309334
71509000,0.0324,0.013523,0.002678,0.000431,0.448958
71510000,0.0324,0.013523,0.002678,0.000431,0.281833
71511000,0.0324,0.013523,0.002678,0.000431,0.322145
71512000,0.0324,0.013523,0.002678,0.000431,0.145735
71513000,0.0324,0.013523,0.002678,0.000431,0.156077
71514000,0.0324,0.013523,0.002678,0.000431,0.112004
71515000,0.0324,0.013523,0.002678,0.000431,0.419928
71516000,0.0324,0.013523,0.002678,0.000431,0.183814
71517000,0.0324,0.013523,0.002678,0.000431,0.052418
71518000,0.0324,0.013523,0.002678,0.000431,0.044426
71519000,0.0324,0.013523,0.002678,0.000431,0.035258
71520000,0.0324,0.013523,0.002678,0.000431,0.030322
71521000,0.0324,0.013523,0.002678,0.000431,0.034318
71522000,0.0324,0.013523,0.002678,0.000431,0.027502
71523000,0.0324,0.013523,0.002678,0.000431,0.024798
71524000,0.0324,0.013523,0.002678,0.000431,0.020332
71525000,0.0324,0.013523,0.002678,0.000431,0.021273
71526000,0.0324,0.013523,0.002678,0.000431,0.016689
71527000,0.0324,0.013523,0.002678,0.000431,0.017629
71528000,0.0324,0.013523,0.002678,0.000431,0.015396
71529000,0.0324,0.013523,0.002678,0.000431,0.014221
71530000,0.0324,0.013523,0.002678,0.000431,0.014338
71531000,0.0324,0.013523,0.002678,0.000431,0.014456
71532000,0.0324,0.013523,0.002678,0.000431,0.013516
71533000,0.0324,0.013523,0.002678,0.000431,0.014338
71534000,0.0324,0.013523,0.002678,0.000431,0.013633
71535000,0.0324,0.013523,0.002678,0.000431,0.014691
71536000,0.0324,0.013523,0.002678,0.000431,0.013281
71537000,0.0324,0.013523,0.002678,0.000431,0.013633
71538000,0.0324,0.013523,0.002678,0.000431,0.014221
71539000,0.0324,0.013523,0.002678,0.000431,0.013516
71540000,0.0324,0.013523,0.002678,0.000431,0.011518
71541000,0.0324,0.013523,0.002678,0.000431,0.010225
71542000,0.0324,0.013523,0.002678,0.000431,0.011870
71543000,0.0324,0.013523,0.002678,0.000431,0.012458
71544000,0.0324,0.013523,0.002678,0.000431,0.011048
71545000,0.0324,0.013523,0.002678,0.000431,0.009050
71546000,0.0324,0.013523,0.002678,0.000431,0.011518
71547000,0.0324,0.013523,0.002678,0.000431,0.008227
71548000,0.0324,0.013523,0.002678,0.000431,0.008227
71549000,0.0324,0.013523,0.002678,0.000431,0.008227
71550000,0.0324,0.013523,0.002678,0.000431,0.008227
71551000,0.0324,0.013523,0.002678,0.000431,0.009520
71552000,0.0324,0.013523,0.002678,0.000431,0.009167
71553000,0.0324,0.013523,0.002678,0.000431,0.006817
71554000,0.0324,0.013523,0.002678,0.000431,0.006464
71555000,0.0324,0.013523,0.002678,0.000431,0.006464
71556000,0.0324,0.013523,0.002678,0.000431,0.006464
71557000,0.0324,0.013523,0.002678,0.000431,0.006347
71558000,0.0324,0.013523,0.002678,0.000431,0.006934
71559000,0.0324,0.013523,0.002678,0.000431,0.007287
71560000,0.0324,0.013523,0.002678,0.000431,0.006934
71561000,0.0324,0.013523,0.002678,0.000431,0.005406
71562000,0.0324,0.013523,0.002678,0.000431,0.005759
71563000,0.0324,0.013523,0.002678,0.000431,0.006229
71564000,0.0324,0.013523,0.002678,0.000431,0.005289
71565000,0.0324,0.013523,0.002678,0.000431,0.005759
71566000,0.0324,0.013523,0.002678,0.000431,0.005289
71567000,0.0324,0.013523,0.002678,0.000431,0.007992
71568000,0.0324,0.013523,0.002678,0.000431,0.005054
71569000,0.0324,0.013523,0.002678,0.000431,0.004819
71570000,0.0324,0.013523,0.002678,0.000431,0.005054
71571000,0.0324,0.013523,0.002678,0.000431,0.005994
71572000,0.0324,0.013523,0.002678,0.000431,0.003526
71573000,0.0324,0.013523,0.002678,0.000431,0.003291
71574000,0.0324,0.013523,0.002678,0.000431,0.003291
71575000,0.0324,0.013523,0.002678,0.000431,0.003526
71576000,0.0324,0.013523,0.002678,0.000431,0.003291
71577000,0.0324,0.013523,0.002678,0.000431,0.003408
71578000,0.0324,0.013523,0.002678,0.000431,0.003173
71579000,0.0324,0.013523,0.002678,0.000431,0.003408
71580000,0.0324,0.013523,0.002678,0.000431,0.003291
71581000,0.0324,0.013523,0.002678,0.000431,0.003408
71582000,0.0324,0.013523,0.002678,0.000431,0.003173
71583000,0.0324,0.013523,0.002678,0.000431,0.003173
71584000,0.0324,0.013523,0.002678,0.000431,0.003408
71585000,0.0324,0.013523,0.002678,0.000431,0.002938
71586000,0.0324,0.013523,0.002678,0.000431,0.003643
71587000,0.0324,0.013523,0.002678,0.000431,0.003056
71588000,0.0324,0.013523,0.002678,0.000431,0.003173
71589000,0.0324,0.013523,0.002678,0.000431,0.003643
71590000,0.0324,0.013523,0.002678,0.000431,0.002938
71591000,0.0324,0.013523,0.002678,0.000431,0.003408
71592000,0.0324,0.013523,0.002678,0.000431,0.003056
71593000,0.0324,0.013523,0.002678,0.000431,0.003408
71594000,0.0324,0.013523,0.002678,0.000431,0.003291
71595000,0.0324,0.013523,0.002678,0.000431,0.003173
71596000,0.0324,0.013523,0.002678,0.000431,0.003173
71597000,0.0324,0.013523,0.002678,0.000431,0.003291
71598000,0.0324,0.013523,0.002678,0.000431,0.003056
71599000,0.0324,0.013523,0.002678,0.000431,0.003526
71600000,0.0324,0.013523,0.002678,0.000431,0.003056
71601000,0.0324,0.013523,0.002678,0.000431,0.003291
71602000,0.0324,0.013523,0.002678,0.000431,0.003526
71603000,0.0324,0.013523,0.002678,0.000431,0.002821
71604000,0.0324,0.013523,0.002678,0.000431,0.003761
71605000,0.0324,0.013523,0.002678,0.000431,0.002821
71606000,0.0324,0.013523,0.002678,0.000431,0.003526
71607000,0.0324,0.013523,0.002678,0.000431,0.003408
71608000,0.0324,0.013523,0.002678,0.000431,0.002938
71609000,0.0324,0.013523,0.002678,0.000431,0.003643
71610000,0.0324,0.013523,0.002678,0.000431,0.002821
71611000,0.0324,0.013523,0.002678,0.000431,0.003526
71612000,0.0324,0.013523,0.002678,0.000431,0.003291
71613000,0.0324,0.013523,0.002678,0.000431,0.003173
71614000,0.0324,0.013523,0.002678,0.000431,0.003173
71615000,0.0324,0.013523,0.002678,0.000431,0.003291
71616000,0.0324,0.013523,0.002678,0.000431,0.003291
71617000,0.0324,0.013523,0.002678,0.000431,0.003408
71618000,0.0324,0.013523,0.002678,0.000431,0.003173
71619000,0.0324,0.013523,0.002678,0.000431,0.003173
71620000,0.0324,0.013523,0.002678,0.000431,0.003408
71621000,0.0324,0.013523,0.002678,0.000431,0.003173
71622000,0.0324,0.013523,0.002678,0.000431,0.003643
71623000,0.0324,0.013523,0.002678,0.000431,0.002938
71624000,0.0324,0.013523,0.002678,0.000431,0.003526
71625000,0.0324,0.013523,0.002678,0.000431,0.003173
71626000,0.0324,0.013523,0.002678,0.000431,0.003291
71627000,0.0324,0.013523,0.002678,0.000431,0.003643
71628000,0.0324,0.013523,0.002678,0.000431,0.002821
71629000,0.0324,0.013523,0.002678,0.000431,0.003761
71630000,0.0324,0.013523,0.002678,0.000431,0.003056
71631000,0.0324,0.013523,0.002678,0.000431,0.003291
71632000,0.0324,0.013523,0.002678,0.000431,0.003408
71633000,0.0324,0.013523,0.002678,0.000431,0.003056
71634000,0.0324,0.013523,0.002678,0.000431,0.003408
71635000,0.0324,0.013523,0.002678,0.000431,0.004819
71636000,0.0324,0.013523,0.002678,0.000431,0.002586
71637000,0.0324,0.013523,0.002678,0.000431,0.002116
71638000,0.0324,0.013523,0.002678,0.000431,0.002586
71639000,0.0324,0.013523,0.002678,0.000431,0.002468
71640000,0.0324,0.013523,0.002678,0.000431,0.002468
71641000,0.0324,0.013523,0.002678,0.000431,0.002233
71642000,0.0324,0.013523,0.002678,0.000431,0.002468
71643000,0.0324,0.013523,0.002678,0.000431,0.002233
71644000,0.0324,0.013523,0.002678,0.000431,0.002468
71645000,0.0324,0.013523,0.002678,0.000431,0.002821
71646000,0.0324,0.013523,0.002678,0.000431,0.004113
71647000,0.0324,0.013523,0.002678,0.000431,0.001880
71648000,0.0324,0.013523,0.002678,0.000431,0.001293
71649000,0.0324,0.013523,0.002678,0.000431,0.001763
71650000,0.0324,0.013523,0.002678,0.000431,0.001645
71651000,0.0324,0.013523,0.002678,0.000431,0.001410
71652000,0.0324,0.013523,0.002678,0.000431,0.001645
71653000,0.0324,0.013523,0.002678,0.000431,0.001528
71654000,0.0324,0.013523,0.002678,0.000431,0.001763
71655000,0.0324,0.013523,0.002678,0.000431,0.001410
71656000,0.0324,0.013523,0.002678,0.000431,0.001645
71657000,0.0324,0.013523,0.002678,0.000431,0.001645
71658000,0.0324,0.013523,0.002678,0.000431,0.001528
71659000,0.0324,0.013523,0.002678,0.000431,0.001528
71660000,0.0324,0.013523,0.002678,0.000431,0.001645
71661000,0.0324,0.013523,0.002678,0.000431,0.001410
71662000,0.0324,0.013523,0.002678,0.000431,0.001645
71663000,0.0324,0.013523,0.002678,0.000431,0.001528
71664000,0.0324,0.013523,0.002678,0.000431,0.001528
71665000,0.0324,0.013523,0.002678,0.000431,0.001880
71666000,0.0324,0.013523,0.002678,0.000431,0.001175
71667000,0.0324,0.013523,0.002678,0.000431,0.001880
71668000,0.0324,0.013523,0.002678,0.000431,0.001528
71669000,0.0324,0.013523,0.002678,0.000431,0.001528
71670000,0.0324,0.013523,0.002678,0.000431,0.001645
71671000,0.0324,0.013523,0.002678,0.000431,0.001410
71672000,0.0324,0.013523,0.002678,0.000431,0.001880
71673000,0.0324,0.013523,0.002678,0.000431,0.001058
71674000,0.0324,0.013523,0.002678,0.000431,0.000940
71675000,0.0324,0.013523,0.002678,0.000431,0.000940
71676000,0.0324,0.013523,0.002678,0.000431,0.000705
71677000,0.0324,0.013523,0.002678,0.000431,0.000940
71678000,0.0324,0.013523,0.002678,0.000431,0.000823
71679000,0.0324,0.013523,0.002678,0.000431,0.000823
71680000,0.0324,0.013523,0.002678,0.000431,0.000940
71681000,0.0324,0.013523,0.002678,0.000431,0.000823
71682000,0.0324,0.013523,0.002678,0.000431,0.000823
71683000,0.0324,0.013523,0.002678,0.000431,0.000940
71684000,0.0324,0.013523,0.002678,0.000431,0.000705
71685000,0.0324,0.013523,0.002678,0.000431,0.000940
71686000,0.0324,0.013523,0.002678,0.000431,0.000823
71687000,0.0324,0.013523,0.002678,0.000431,0.002116
71688000,0.0324,0.013523,0.002678,0.000431,0.382202
71689000,0.0324,0.013523,0.002678,0.000431,0.711046
71690000,0.0324,0.013523,0.002678,0.000431,0.139859
71691000,0.0324,0.013523,0.002678,0.000431,0.133512
71692000,0.0324,0.013523,0.002678,0.000431,0.221071
71693000,0.0324,0.013523,0.002678,0.000431,0.597278
71694000,0.0324,0.013523,0.002678,0.000431,0.250100
71695000,0.0324,0.013523,0.002678,0.000431,0.327669
71696000,0.0324,0.013523,0.002678,0.000431,0.180171
71697000,0.0324,0.013523,0.002678,0.000431,0.151259
71698000,0.0324,0.013523,0.002678,0.000431,0.104483
71699000,0.0324,0.013523,0.002678,0.000431,0.347296
71700000,0.0324,0.013523,0.002678,0.000431,0.291000
71701000,0.0324,0.013523,0.002678,0.000431,0.088499
71702000,0.0324,0.013523,0.002678,0.000431,0.076628
71703000,0.0324,0.013523,0.002678,0.000431,0.057824
71704000,0.0324,0.013523,0.002678,0.000431,0.046776
71705000,0.0324,0.013523,0.002678,0.000431,0.048892
71706000,0.0324,0.013523,0.002678,0.000431,0.037374
71707000,0.0324,0.013523,0.002678,0.000431,0.031380
71708000,0.0324,0.013523,0.002678,0.000431,0.030322
71709000,0.0324,0.013523,0.002678,0.000431,0.024093
71710000,0.0324,0.013523,0.002678,0.000431,0.022330
71711000,0.0324,0.013523,0.002678,0.000431,0.018922
71712000,0.0324,0.013523,0.002678,0.000431,0.016336
71713000,0.0324,0.013523,0.002678,0.000431,0.015749
71714000,0.0324,0.013523,0.002678,0.000431,0.014103
71715000,0.0324,0.013523,0.002678,0.000431,0.016689
71716000,0.0324,0.013523,0.002678,0.000431,0.012105
71717000,0.0324,0.013523,0.002678,0.000431,0.014221
71718000,0.0324,0.013523,0.002678,0.000431,0.015866
71719000,0.0324,0.013523,0.002678,0.000431,0.010813
71720000,0.0324,0.013523,0.002678,0.000431,0.007874
71721000,0.0324,0.013523,0.002678,0.000431,0.006582
71722000,0.0324,0.013523,0.002678,0.000431,0.007169
71723000,0.0324,0.013523,0.002678,0.000431,0.006817
71724000,0.0324,0.013523,0.002678,0.000431,0.009167
71725000,0.0324,0.013523,0.002678,0.000431,0.005994
71726000,0.0324,0.013523,0.002678,0.000431,0.008697
71727000,0.0324,0.013523,0.002678,0.000431,0.004936
71728000,0.0324,0.013523,0.002678,0.000431,0.005289
71729000,0.0324,0.013523,0.002678,0.000431,0.004819
71730000,0.0324,0.013523,0.002678,0.000431,0.005289
71731000,0.0324,0.013523,0.002678,0.000431,0.006699
71732000,0.0324,0.013523,0.002678,0.000431,0.005524
71733000,0.0324,0.013523,0.002678,0.000431,0.003643
71734000,0.0324,0.013523,0.002678,0.000431,0.003408
71735000,0.0324,0.013523,0.002678,0.000431,0.003526
71736000,0.0324,0.013523,0.002678,0.000431,0.003643
71737000,0.0324,0.013523,0.002678,0.000431,0.003643
71738000,0.0324,0.013523,0.002678,0.000431,0.003173
71739000,0.0324,0.013523,0.002678,0.000431,0.003643
71740000,0.0324,0.013523,0.002678,0.000431,0.003408
71741000,0.0324,0.013523,0.002678,0.000431,0.003526
71742000,0.0324,0.013523,0.002678,0.000431,0.003643
71743000,0.0324,0.013523,0.002678,0.000431,0.005054
71744000,0.0324,0.013523,0.002678,0.000431,0.002821
71745000,0.0324,0.013523,0.002678,0.000431,0.002233
71746000,0.0324,0.013523,0.002678,0.000431,0.002586
71747000,0.0324,0.013523,0.002678,0.000431,0.002586
71748000,0.0324,0.013523,0.002678,0.000431,0.002586
71749000,0.0324,0.013523,0.002678,0.000431,0.002586
71750000,0.0324,0.013523,0.002678,0.000431,0.002351
71751000,0.0324,0.013523,0.002678,0.000431,0.002586
71752000,0.0324,0.013523,0.002678,0.000431,0.002586
71753000,0.0324,0.013523,0.002678,0.000431,0.002468
71754000,0.0324,0.013523,0.002678,0.000431,0.002821
71755000,0.0324,0.013523,0.002678,0.000431,0.002468
71756000,0.0324,0.013523,0.002678,0.000431,0.003056
71757000,0.0324,0.013523,0.002678,0.000431,0.002468
71758000,0.0324,0.013523,0.002678,0.000431,0.001645
71759000,0.0324,0.013523,0.002678,0.000431,0.001645
71760000,0.0324,0.013523,0.002678,0.000431,0.001645
71761000,0.0324,0.013523,0.002678,0.000431,0.001645
71762000,0.0324,0.013523,0.002678,0.000431,0.001645
71763000,0.0324,0.013523,0.002678,0.000431,0.001528
71764000,0.0324,0.013523,0.002678,0.000431,0.001763
71765000,0.0324,0.013523,0.002678,0.000431,0.001645
71766000,0.0324,0.013523,0.002678,0.000431,0.001645
71767000,0.0324,0.013523,0.002678,0.000431,0.001645
71768000,0.0324,0.013523,0.002678,0.000431,0.001645
71769000,0.0324,0.013523,0.002678,0.000431,0.001645
71770000,0.0324,0.013523,0.002678,0.000431,0.001645
71771000,0.0324,0.013523,0.002678,0.000431,0.001645
71772000,0.0324,0.013523,0.002678,0.000431,0.001645
71773000,0.0324,0.013523,0.002678,0.000431,0.001645
71774000,0.0324,0.013523,0.002678,0.000431,0.001645
71775000,0.0324,0.013523,0.002678,0.000431,0.001763
71776000,0.0324,0.013523,0.002678,0.000431,0.001528
71777000,0.0324,0.013523,0.002678,0.000431,0.001645
71778000,0.0324,0.013523,0.002678,0.000431,0.001645
71779000,0.0324,0.013523,0.002678,0.000431,0.001880
71780000,0.0324,0.013523,0.002678,0.000431,0.001410
71781000,0.0324,0.013523,0.002678,0.000431,0.001645
71782000,0.0324,0.013523,0.002678,0.000431,0.001880
71783000,0.0324,0.013523,0.002678,0.000431,0.001645
71784000,0.0324,0.013523,0.002678,0.000431,0.001410
71785000,0.0324,0.013523,0.002678,0.000431,0.014103
71786000,0.0324,0.013523,0.002678,0.000431,0.560374
71787000,0.0324,0.013523,0.002678,0.000431,0.588464
71788000,0.0324,0.013523,0.002678,0.000431,0.133865
71789000,0.0324,0.013523,0.002678,0.000431,0.133512
71790000,0.0324,0.013523,0.002678,0.000431,0.523706
71791000,0.0324,0.013523,0.002678,0.000431,0.272078
71792000,0.0324,0.013523,0.002678,0.000431,0.278777
71793000,0.0324,0.013523,0.002678,0.000431,0.341419
71794000,0.0324,0.013523,0.002678,0.000431,0.145970
71795000,0.0324,0.013523,0.002678,0.000431,0.172061
71796000,0.0324,0.013523,0.002678,0.000431,0.089556
71797000,0.0324,0.013523,0.002678,0.000431,0.477282
71798000,0.0324,0.013523,0.002678,0.000431,0.093317
71799000,0.0324,0.013523,0.002678,0.000431,0.046189
71800000,0.0324,0.013523,0.002678,0.000431,0.045366
71801000,0.0324,0.013523,0.002678,0.000431,0.039960
71802000,0.0324,0.013523,0.002678,0.000431,0.030675
71803000,0.0324,0.013523,0.002678,0.000431,0.032203
71804000,0.0324,0.013523,0.002678,0.000431,0.027384
71805000,0.0324,0.013523,0.002678,0.000431,0.026914
71806000,0.0324,0.013523,0.002678,0.000431,0.024916
71807000,0.0324,0.013523,0.002678,0.000431,0.018805
71808000,0.0324,0.013523,0.002678,0.000431,0.015514
71809000,0.0324,0.013523,0.002678,0.000431,0.014338
71810000,0.0324,0.013523,0.002678,0.000431,0.010930
71811000,0.0324,0.013523,0.002678,0.000431,0.010695
71812000,0.0324,0.013523,0.002678,0.000431,0.013751
71813000,0.0324,0.013523,0.002678,0.000431,0.010460
71814000,0.0324,0.013523,0.002678,0.000431,0.010460
71815000,0.0324,0.013523,0.002678,0.000431,0.009755
71816000,0.0324,0.013523,0.002678,0.000431,0.010342
71817000,0.0324,0.013523,0.002678,0.000431,0.010695
71818000,0.0324,0.013523,0.002678,0.000431,0.010342
71819000,0.0324,0.013523,0.002678,0.000431,0.012105
71820000,0.0324,0.013523,0.002678,0.000431,0.008580
71821000,0.0324,0.013523,0.002678,0.000431,0.007874
71822000,0.0324,0.013523,0.002678,0.000431,0.010225
71823000,0.0324,0.013523,0.002678,0.000431,0.007639
71824000,0.0324,0.013523,0.002678,0.000431,0.007052
71825000,0.0324,0.013523,0.002678,0.000431,0.007404
71826000,0.0324,0.013523,0.002678,0.000431,0.007052
71827000,0.0324,0.013523,0.002678,0.000431,0.008815
71828000,0.0324,0.013523,0.002678,0.000431,0.007874
71829000,0.0324,0.013523,0.002678,0.000431,0.006111
71830000,0.0324,0.013523,0.002678,0.000431,0.006817
71831000,0.0324,0.013523,0.002678,0.000431,0.005994
71832000,0.0324,0.013523,0.002678,0.000431,0.007169
71833000,0.0324,0.013523,0.002678,0.000431,0.006111
71834000,0.0324,0.013523,0.002678,0.000431,0.006582
71835000,0.0324,0.013523,0.002678,0.000431,0.006464
71836000,0.0324,0.013523,0.002678,0.000431,0.005994
71837000,0.0324,0.013523,0.002678,0.000431,0.005994
71838000,0.0324,0.013523,0.002678,0.000431,0.005641
71839000,0.0324,0.013523,0.002678,0.000431,0.005759
71840000,0.0324,0.013523,0.002678,0.000431,0.005524
71841000,0.0324,0.013523,0.002678,0.000431,0.005759
71842000,0.0324,0.013523,0.002678,0.000431,0.005759
71843000,0.0324,0.013523,0.002678,0.000431,0.005289
71844000,0.0324,0.013523,0.002678,0.000431,0.005994
71845000,0.0324,0.013523,0.002678,0.000431,0.008345
71846000,0.0324,0.013523,0.002678,0.000431,0.003291
71847000,0.0324,0.013523,0.002678,0.000431,0.003408
71848000,0.0324,0.013523,0.002678,0.000431,0.003643
71849000,0.0324,0.013523,0.002678,0.000431,0.003056
71850000,0.0324,0.013523,0.002678,0.000431,0.003526
71851000,0.0324,0.013523,0.002678,0.000431,0.003173
71852000,0.0324,0.013523,0.002678,0.000431,0.004701
71853000,0.0324,0.013523,0.002678,0.000431,0.002233
71854000,0.0324,0.013523,0.002678,0.000431,0.002703
71855000,0.0324,0.013523,0.002678,0.000431,0.004113
71856000,0.0324,0.013523,0.002678,0.000431,0.001410
71857000,0.0324,0.013523,0.002678,0.000431,0.001880
71858000,0.0324,0.013523,0.002678,0.000431,0.001410
71859000,0.0324,0.013523,0.002678,0.000431,0.001880
71860000,0.0324,0.013523,0.002678,0.000431,0.001763
71861000,0.0324,0.013523,0.002678,0.000431,0.001528
71862000,0.0324,0.013523,0.002678,0.000431,0.001880
71863000,0.0324,0.013523,0.002678,0.000431,0.001410
71864000,0.0324,0.013523,0.002678,0.000431,0.001880
71865000,0.0324,0.013523,0.002678,0.000431,0.001645
71866000,0.0324,0.013523,0.002678,0.000431,0.001645
71867000,0.0324,0.013523,0.002678,0.000431,0.001645
71868000,0.0324,0.013523,0.002678,0.000431,0.001645
71869000,0.0324,0.013523,0.002678,0.000431,0.001645
71870000,0.0324,0.013523,0.002678,0.000431,0.001645
71871000,0.0324,0.013523,0.002678,0.000431,0.001880
71872000,0.0324,0.013523,0.002678,0.000431,0.001528
71873000,0.0324,0.013523,0.002678,0.000431,0.001528
71874000,0.0324,0.013523,0.002678,0.000431,0.001880
71875000,0.0324,0.013523,0.002678,0.000431,0.001645
71876000,0.0324,0.013523,0.002678,0.000431,0.001645
71877000,0.0324,0.013523,0.002678,0.000431,0.001645
71878000,0.0324,0.013523,0.002678,0.000431,0.001528
71879000,0.0324,0.013523,0.002678,0.000431,0.001763
71880000,0.0324,0.013523,0.002678,0.000431,0.001880
71881000,0.0324,0.013523,0.002678,0.000431,0.001528
71882000,0.0324,0.013523,0.002678,0.000431,0.001763
71883000,0.0324,0.013523,0.002678,0.000431,0.001410
71884000,0.0324,0.013523,0.002678,0.000431,0.001880
71885000,0.0324,0.013523,0.002678,0.000431,0.001880
71886000,0.0324,0.013523,0.002678,0.000431,0.001410
71887000,0.0324,0.013523,0.002678,0.000431,0.001880
71888000,0.0324,0.013523,0.002678,0.000431,0.001410
71889000,0.0324,0.013523,0.002678,0.000431,0.001880
71890000,0.0324,0.013523,0.002678,0.000431,0.001645
71891000,0.0324,0.013523,0.002678,0.000431,0.001645
71892000,0.0324,0.013523,0.002678,0.000431,0.001763
71893000,0.0324,0.013523,0.002678,0.000431,0.001528
71894000,0.0324,0.013523,0.002678,0.000431,0.001880
71895000,0.0324,0.013523,0.002678,0.000431,0.001410
71896000,0.0324,0.013523,0.002678,0.000431,0.001880
71897000,0.0324,0.013523,0.002678,0.000431,0.001645
71898000,0.0324,0.013523,0.002678,0.000431,0.001645
71899000,0.0324,0.013523,0.002678,0.000431,0.001645
71900000,0.0324,0.013523,0.002678,0.000431,0.001645
71901000,0.0324,0.013523,0.002678,0.000431,0.001645
71902000,0.0324,0.013523,0.002678,0.000431,0.001645
71903000,0.0324,0.013523,0.002678,0.000431,0.001880
71904000,0.0324,0.013523,0.002678,0.000431,0.001528
71905000,0.0324,0.013523,0.002678,0.000431,0.001763
71906000,0.0324,0.013523,0.002678,0.000431,0.001410
71907000,0.0324,0.013523,0.002678,0.000431,0.001880
71908000,0.0324,0.013523,0.002678,0.000431,0.001880
71909000,0.0324,0.013523,0.002678,0.000431,0.001410
71910000,0.0324,0.013523,0.002678,0.000431,0.001880
71911000,0.0324,0.013523,0.002678,0.000431,0.001410
71912000,0.0324,0.013523,0.002678,0.000431,0.001880
71913000,0.0324,0.013523,0.002678,0.000431,0.001645
71914000,0.0324,0.013523,0.002678,0.000431,0.001645
71915000,0.0324,0.013523,0.002678,0.000431,0.001645
71916000,0.0324,0.013523,0.002678,0.000431,0.001645
71917000,0.0324,0.013523,0.002678,0.000431,0.001880
71918000,0.0324,0.013523,0.002678,0.000431,0.001528
71919000,0.0324,0.013523,0.002678,0.000431,0.001763
71920000,0.0324,0.013523,0.002678,0.000431,0.001645
71921000,0.0324,0.013523,0.002678,0.000431,0.001645
71922000,0.0324,0.013523,0.002678,0.000431,0.001645
71923000,0.0324,0.013523,0.002678,0.000431,0.001645
71924000,0.0324,0.013523,0.002678,0.000431,0.001763
71925000,0.0324,0.013523,0.002678,0.000431,0.001528
71926000,0.0324,0.013523,0.002678,0.000431,0.001645
71927000,0.0324,0.013523,0.002678,0.000431,0.001763
71928000,0.0324,0.013523,0.002678,0.000431,0.001763
71929000,0.0324,0.013523,0.002678,0.000431,0.001645
71930000,0.0324,0.013523,0.002678,0.000431,0.001645
71931000,0.0324,0.013523,0.002678,0.000431,0.001410
71932000,0.0324,0.013523,0.002678,0.000431,0.001880
71933000,0.0324,0.013523,0.002678,0.000431,0.001880
71934000,0.0324,0.013523,0.002678,0.000431,0.001410
71935000,0.0324,0.013523,0.002678,0.000431,0.001880
71936000,0.0324,0.013523,0.002678,0.000431,0.001410
71937000,0.0324,0.013523,0.002678,0.000431,0.001880
71938000,0.0324,0.013523,0.002678,0.000431,0.001763
71939000,0.0324,0.013523,0.002678,0.000431,0.001645
71940000,0.0324,0.013523,0.002678,0.000431,0.001998
71941000,0.0324,0.013523,0.002678,0.000431,0.001528
71942000,0.0324,0.013523,0.002678,0.000431,0.001763
71943000,0.0324,0.013523,0.002678,0.000431,0.002468
71944000,0.0324,0.013523,0.002678,0.000431,0.002116
71945000,0.0324,0.013523,0.002678,0.000431,0.000823
71946000,0.0324,0.013523,0.002678,0.000431,0.000823
71947000,0.0324,0.013523,0.002678,0.000431,0.000823
71948000,0.0324,0.013523,0.002678,0.000431,0.000823
71949000,0.0324,0.013523,0.002678,0.000431,0.000940
71950000,0.0324,0.013523,0.002678,0.000431,0.000940
71951000,0.0324,0.013523,0.002678,0.000431,0.000705
71952000,0.0324,0.013523,0.002678,0.000431,0.000940
71953000,0.0324,0.013523,0.002678,0.000431,0.000940
71954000,0.0324,0.013523,0.002678,0.000431,0.000940
71955000,0.0324,0.013523,0.002678,0.000431,0.000705
71956000,0.0324,0.013523,0.002678,0.000431,0.000940
71957000,0.0324,0.013523,0.002678,0.000431,0.000940
71958000,0.0324,0.013523,0.002678,0.000431,0.000823
71959000,0.0324,0.013523,0.002678,0.000431,0.000823
71960000,0.0324,0.013523,0.002678,0.000431,0.000823
71961000,0.0324,0.013523,0.002678,0.000431,0.000823
71962000,0.0324,0.013523,0.002678,0.000431,0.000823
71963000,0.0324,0.013523,0.002678,0.000431,0.000823
71964000,0.0324,0.013523,0.002678,0.000431,0.000940
71965000,0.0324,0.013523,0.002678,0.000431,0.000705
71966000,0.0324,0.013523,0.002678,0.000431,0.000823
71967000,0.0324,0.013523,0.002678,0.000431,0.000940
71968000,0.0324,0.013523,0.002678,0.000431,0.000823
71969000,0.0324,0.013523,0.002678,0.000431,0.000823
71970000,0.0324,0.013523,0.002678,0.000431,0.000823
71971000,0.0324,0.013523,0.002678,0.000431,0.000823
71972000,0.0324,0.013523,0.002678,0.000431,0.014221
71973000,0.0324,0.013523,0.002678,0.000431,0.501963
71974000,0.0324,0.013523,0.002678,0.000431,0.597983
71975000,0.0324,0.013523,0.002678,0.000431,0.133042
71976000,0.0324,0.013523,0.002678,0.000431,0.133042
71977000,0.0324,0.013523,0.002678,0.000431,0.459770
71978000,0.0324,0.013523,0.002678,0.000431,0.321322
71979000,0.0324,0.013523,0.002678,0.000431,0.228122
71980000,0.0324,0.013523,0.002678,0.000431,0.347531
71981000,0.0324,0.013523,0.002678,0.000431,0.157723
71982000,0.0324,0.013523,0.002678,0.000431,0.141974
71983000,0.0324,0.013523,0.002678,0.000431,0.141386
71984000,0.0324,0.013523,0.002678,0.000431,0.238582
71985000,0.0324,0.013523,0.002678,0.000431,0.362104
71986000,0.0324,0.013523,0.002678,0.000431,0.075218
71987000,0.0324,0.013523,0.002678,0.000431,0.059704
71988000,0.0324,0.013523,0.002678,0.000431,0.046894
71989000,0.0324,0.013523,0.002678,0.000431,0.049949
71990000,0.0324,0.013523,0.002678,0.000431,0.039372
71991000,0.0324,0.013523,0.002678,0.000431,0.029852
71992000,0.0324,0.013523,0.002678,0.000431,0.027854
71993000,0.0324,0.013523,0.002678,0.000431,0.023976
71994000,0.0324,0.013523,0.002678,0.000431,0.021625
71995000,0.0324,0.013523,0.002678,0.000431,0.017629
71996000,0.0324,0.013523,0.002678,0.000431,0.017982
71997000,0.0324,0.013523,0.002678,0.000431,0.019745
71998000,0.0324,0.013523,0.002678,0.000431,0.016807
71999000,0.0324,0.013523,0.002678,0.000431,0.014691
