Cycle,Area(mm^2),PeakDynamic(W),SubthresholdLeakage(W),GateLeakage(W),RunTimeDynamic(W)
106000000,0.0324,0.013523,0.002678,0.000431,0.002586
106001000,0.0324,0.013523,0.002678,0.000431,0.002468
106002000,0.0324,0.013523,0.002678,0.000431,0.002586
106003000,0.0324,0.013523,0.002678,0.000431,0.002703
106004000,0.0324,0.013523,0.002678,0.000431,0.002468
106005000,0.0324,0.013523,0.002678,0.000431,0.002586
106006000,0.0324,0.013523,0.002678,0.000431,0.002468
106007000,0.0324,0.013523,0.002678,0.000431,0.002468
106008000,0.0324,0.013523,0.002678,0.000431,0.002586
106009000,0.0324,0.013523,0.002678,0.000431,0.002351
106010000,0.0324,0.013523,0.002678,0.000431,0.002468
106011000,0.0324,0.013523,0.002678,0.000431,0.002703
106012000,0.0324,0.013523,0.002678,0.000431,0.002586
106013000,0.0324,0.013523,0.002678,0.000431,0.002351
106014000,0.0324,0.013523,0.002678,0.000431,0.002468
106015000,0.0324,0.013523,0.002678,0.000431,0.002586
106016000,0.0324,0.013523,0.002678,0.000431,0.002586
106017000,0.0324,0.013523,0.002678,0.000431,0.002586
106018000,0.0324,0.013523,0.002678,0.000431,0.002351
106019000,0.0324,0.013523,0.002678,0.000431,0.002703
106020000,0.0324,0.013523,0.002678,0.000431,0.003526
106021000,0.0324,0.013523,0.002678,0.000431,0.001645
106022000,0.0324,0.013523,0.002678,0.000431,0.001763
106023000,0.0324,0.013523,0.002678,0.000431,0.001763
106024000,0.0324,0.013523,0.002678,0.000431,0.001763
106025000,0.0324,0.013523,0.002678,0.000431,0.001763
106026000,0.0324,0.013523,0.002678,0.000431,0.001410
106027000,0.0324,0.013523,0.002678,0.000431,0.001880
106028000,0.0324,0.013523,0.002678,0.000431,0.001645
106029000,0.0324,0.013523,0.002678,0.000431,0.001645
106030000,0.0324,0.013523,0.002678,0.000431,0.001763
106031000,0.0324,0.013523,0.002678,0.000431,0.001528
106032000,0.0324,0.013523,0.002678,0.000431,0.001763
106033000,0.0324,0.013523,0.002678,0.000431,0.001645
106034000,0.0324,0.013523,0.002678,0.000431,0.001763
106035000,0.0324,0.013523,0.002678,0.000431,0.001645
106036000,0.0324,0.013523,0.002678,0.000431,0.001645
106037000,0.0324,0.013523,0.002678,0.000431,0.001880
106038000,0.0324,0.013523,0.002678,0.000431,0.001645
106039000,0.0324,0.013523,0.002678,0.000431,0.001645
106040000,0.0324,0.013523,0.002678,0.000431,0.001763
106041000,0.0324,0.013523,0.002678,0.000431,0.001645
106042000,0.0324,0.013523,0.002678,0.000431,0.001763
106043000,0.0324,0.013523,0.002678,0.000431,0.003878
106044000,0.0324,0.013523,0.002678,0.000431,0.287121
106045000,0.0324,0.013523,0.002678,0.000431,0.650166
106046000,0.0324,0.013523,0.002678,0.000431,0.318854
106047000,0.0324,0.013523,0.002678,0.000431,0.132102
106048000,0.0324,0.013523,0.002678,0.000431,0.143619
106049000,0.0324,0.013523,0.002678,0.000431,0.616553
106050000,0.0324,0.013523,0.002678,0.000431,0.260560
106051000,0.0324,0.013523,0.002678,0.000431,0.273723
106052000,0.0324,0.013523,0.002678,0.000431,0.235174
106053000,0.0324,0.013523,0.002678,0.000431,0.143737
106054000,0.0324,0.013523,0.002678,0.000431,0.155255
106055000,0.0324,0.013523,0.002678,0.000431,0.169946
106056000,0.0324,0.013523,0.002678,0.000431,0.434972
106057000,0.0324,0.013523,0.002678,0.000431,0.088381
106058000,0.0324,0.013523,0.002678,0.000431,0.066874
106059000,0.0324,0.013523,0.002678,0.000431,0.056061
106060000,0.0324,0.013523,0.002678,0.000431,0.056178
106061000,0.0324,0.013523,0.002678,0.000431,0.047951
106062000,0.0324,0.013523,0.002678,0.000431,0.041723
106063000,0.0324,0.013523,0.002678,0.000431,0.035494
106064000,0.0324,0.013523,0.002678,0.000431,0.037962
106065000,0.0324,0.013523,0.002678,0.000431,0.036904
106066000,0.0324,0.013523,0.002678,0.000431,0.032673
106067000,0.0324,0.013523,0.002678,0.000431,0.031027
106068000,0.0324,0.013523,0.002678,0.000431,0.029382
106069000,0.0324,0.013523,0.002678,0.000431,0.029970
106070000,0.0324,0.013523,0.002678,0.000431,0.029735
106071000,0.0324,0.013523,0.002678,0.000431,0.027384
106072000,0.0324,0.013523,0.002678,0.000431,0.024093
106073000,0.0324,0.013523,0.002678,0.000431,0.026091
106074000,0.0324,0.013523,0.002678,0.000431,0.027031
106075000,0.0324,0.013523,0.002678,0.000431,0.024328
106076000,0.0324,0.013523,0.002678,0.000431,0.020450
106077000,0.0324,0.013523,0.002678,0.000431,0.017864
106078000,0.0324,0.013523,0.002678,0.000431,0.015866
106079000,0.0324,0.013523,0.002678,0.000431,0.018099
106080000,0.0324,0.013523,0.002678,0.000431,0.017159
106081000,0.0324,0.013523,0.002678,0.000431,0.014691
106082000,0.0324,0.013523,0.002678,0.000431,0.013986
106083000,0.0324,0.013523,0.002678,0.000431,0.013751
106084000,0.0324,0.013523,0.002678,0.000431,0.013516
106085000,0.0324,0.013523,0.002678,0.000431,0.017982
106086000,0.0324,0.013523,0.002678,0.000431,0.012458
106087000,0.0324,0.013523,0.002678,0.000431,0.012223
106088000,0.0324,0.013523,0.002678,0.000431,0.013516
106089000,0.0324,0.013523,0.002678,0.000431,0.013163
106090000,0.0324,0.013523,0.002678,0.000431,0.010107
106091000,0.0324,0.013523,0.002678,0.000431,0.010813
106092000,0.0324,0.013523,0.002678,0.000431,0.009755
106093000,0.0324,0.013523,0.002678,0.000431,0.009637
106094000,0.0324,0.013523,0.002678,0.000431,0.009755
106095000,0.0324,0.013523,0.002678,0.000431,0.009285
106096000,0.0324,0.013523,0.002678,0.000431,0.014103
106097000,0.0324,0.013523,0.002678,0.000431,0.008580
106098000,0.0324,0.013523,0.002678,0.000431,0.008815
106099000,0.0324,0.013523,0.002678,0.000431,0.008815
106100000,0.0324,0.013523,0.002678,0.000431,0.008932
106101000,0.0324,0.013523,0.002678,0.000431,0.009872
106102000,0.0324,0.013523,0.002678,0.000431,0.007992
106103000,0.0324,0.013523,0.002678,0.000431,0.007992
106104000,0.0324,0.013523,0.002678,0.000431,0.007639
106105000,0.0324,0.013523,0.002678,0.000431,0.008227
106106000,0.0324,0.013523,0.002678,0.000431,0.007757
106107000,0.0324,0.013523,0.002678,0.000431,0.008345
106108000,0.0324,0.013523,0.002678,0.000431,0.007757
106109000,0.0324,0.013523,0.002678,0.000431,0.007874
106110000,0.0324,0.013523,0.002678,0.000431,0.007757
106111000,0.0324,0.013523,0.002678,0.000431,0.008580
106112000,0.0324,0.013523,0.002678,0.000431,0.007287
106113000,0.0324,0.013523,0.002678,0.000431,0.007169
106114000,0.0324,0.013523,0.002678,0.000431,0.007287
106115000,0.0324,0.013523,0.002678,0.000431,0.006699
106116000,0.0324,0.013523,0.002678,0.000431,0.007874
106117000,0.0324,0.013523,0.002678,0.000431,0.009872
106118000,0.0324,0.013523,0.002678,0.000431,0.005524
106119000,0.0324,0.013523,0.002678,0.000431,0.005641
106120000,0.0324,0.013523,0.002678,0.000431,0.005641
106121000,0.0324,0.013523,0.002678,0.000431,0.005406
106122000,0.0324,0.013523,0.002678,0.000431,0.004701
106123000,0.0324,0.013523,0.002678,0.000431,0.005289
106124000,0.0324,0.013523,0.002678,0.000431,0.005054
106125000,0.0324,0.013523,0.002678,0.000431,0.004701
106126000,0.0324,0.013523,0.002678,0.000431,0.005054
106127000,0.0324,0.013523,0.002678,0.000431,0.004701
106128000,0.0324,0.013523,0.002678,0.000431,0.005171
106129000,0.0324,0.013523,0.002678,0.000431,0.004819
106130000,0.0324,0.013523,0.002678,0.000431,0.005171
106131000,0.0324,0.013523,0.002678,0.000431,0.004819
106132000,0.0324,0.013523,0.002678,0.000431,0.005054
106133000,0.0324,0.013523,0.002678,0.000431,0.004936
106134000,0.0324,0.013523,0.002678,0.000431,0.005876
106135000,0.0324,0.013523,0.002678,0.000431,0.005171
106136000,0.0324,0.013523,0.002678,0.000431,0.004113
106137000,0.0324,0.013523,0.002678,0.000431,0.003996
106138000,0.0324,0.013523,0.002678,0.000431,0.003761
106139000,0.0324,0.013523,0.002678,0.000431,0.004113
106140000,0.0324,0.013523,0.002678,0.000431,0.004349
106141000,0.0324,0.013523,0.002678,0.000431,0.003996
106142000,0.0324,0.013523,0.002678,0.000431,0.003996
106143000,0.0324,0.013523,0.002678,0.000431,0.004231
106144000,0.0324,0.013523,0.002678,0.000431,0.003878
106145000,0.0324,0.013523,0.002678,0.000431,0.004349
106146000,0.0324,0.013523,0.002678,0.000431,0.003996
106147000,0.0324,0.013523,0.002678,0.000431,0.006347
106148000,0.0324,0.013523,0.002678,0.000431,0.003291
106149000,0.0324,0.013523,0.002678,0.000431,0.002821
106150000,0.0324,0.013523,0.002678,0.000431,0.003526
106151000,0.0324,0.013523,0.002678,0.000431,0.003291
106152000,0.0324,0.013523,0.002678,0.000431,0.003173
106153000,0.0324,0.013523,0.002678,0.000431,0.003408
106154000,0.0324,0.013523,0.002678,0.000431,0.003056
106155000,0.0324,0.013523,0.002678,0.000431,0.003291
106156000,0.0324,0.013523,0.002678,0.000431,0.003291
106157000,0.0324,0.013523,0.002678,0.000431,0.003173
106158000,0.0324,0.013523,0.002678,0.000431,0.003291
106159000,0.0324,0.013523,0.002678,0.000431,0.003173
106160000,0.0324,0.013523,0.002678,0.000431,0.003408
106161000,0.0324,0.013523,0.002678,0.000431,0.002938
106162000,0.0324,0.013523,0.002678,0.000431,0.003291
106163000,0.0324,0.013523,0.002678,0.000431,0.004349
106164000,0.0324,0.013523,0.002678,0.000431,0.003761
106165000,0.0324,0.013523,0.002678,0.000431,0.002116
106166000,0.0324,0.013523,0.002678,0.000431,0.002468
106167000,0.0324,0.013523,0.002678,0.000431,0.002468
106168000,0.0324,0.013523,0.002678,0.000431,0.002233
106169000,0.0324,0.013523,0.002678,0.000431,0.002468
106170000,0.0324,0.013523,0.002678,0.000431,0.002351
106171000,0.0324,0.013523,0.002678,0.000431,0.002586
106172000,0.0324,0.013523,0.002678,0.000431,0.002233
106173000,0.0324,0.013523,0.002678,0.000431,0.002468
106174000,0.0324,0.013523,0.002678,0.000431,0.002468
106175000,0.0324,0.013523,0.002678,0.000431,0.002233
106176000,0.0324,0.013523,0.002678,0.000431,0.002586
106177000,0.0324,0.013523,0.002678,0.000431,0.002116
106178000,0.0324,0.013523,0.002678,0.000431,0.002586
106179000,0.0324,0.013523,0.002678,0.000431,0.002351
106180000,0.0324,0.013523,0.002678,0.000431,0.003643
106181000,0.0324,0.013523,0.002678,0.000431,0.001880
106182000,0.0324,0.013523,0.002678,0.000431,0.001645
106183000,0.0324,0.013523,0.002678,0.000431,0.001058
106184000,0.0324,0.013523,0.002678,0.000431,0.001528
106185000,0.0324,0.013523,0.002678,0.000431,0.001528
106186000,0.0324,0.013523,0.002678,0.000431,0.001528
106187000,0.0324,0.013523,0.002678,0.000431,0.001645
106188000,0.0324,0.013523,0.002678,0.000431,0.001293
106189000,0.0324,0.013523,0.002678,0.000431,0.001763
106190000,0.0324,0.013523,0.002678,0.000431,0.001645
106191000,0.0324,0.013523,0.002678,0.000431,0.001175
106192000,0.0324,0.013523,0.002678,0.000431,0.001763
106193000,0.0324,0.013523,0.002678,0.000431,0.000705
106194000,0.0324,0.013523,0.002678,0.000431,0.000940
106195000,0.0324,0.013523,0.002678,0.000431,0.000823
106196000,0.0324,0.013523,0.002678,0.000431,0.000823
106197000,0.0324,0.013523,0.002678,0.000431,0.000823
106198000,0.0324,0.013523,0.002678,0.000431,0.000823
106199000,0.0324,0.013523,0.002678,0.000431,0.000940
106200000,0.0324,0.013523,0.002678,0.000431,0.000705
106201000,0.0324,0.013523,0.002678,0.000431,0.000940
106202000,0.0324,0.013523,0.002678,0.000431,0.000823
106203000,0.0324,0.013523,0.002678,0.000431,0.000823
106204000,0.0324,0.013523,0.002678,0.000431,0.000823
106205000,0.0324,0.013523,0.002678,0.000431,0.000823
106206000,0.0324,0.013523,0.002678,0.000431,0.000823
106207000,0.0324,0.013523,0.002678,0.000431,0.000823
106208000,0.0324,0.013523,0.002678,0.000431,0.000940
106209000,0.0324,0.013523,0.002678,0.000431,0.000823
106210000,0.0324,0.013523,0.002678,0.000431,0.000823
106211000,0.0324,0.013523,0.002678,0.000431,0.000705
106212000,0.0324,0.013523,0.002678,0.000431,0.000940
106213000,0.0324,0.013523,0.002678,0.000431,0.000940
106214000,0.0324,0.013523,0.002678,0.000431,0.000705
106215000,0.0324,0.013523,0.002678,0.000431,0.000940
106216000,0.0324,0.013523,0.002678,0.000431,0.000705
106217000,0.0324,0.013523,0.002678,0.000431,0.000940
106218000,0.0324,0.013523,0.002678,0.000431,0.000823
106219000,0.0324,0.013523,0.002678,0.000431,0.000823
106220000,0.0324,0.013523,0.002678,0.000431,0.000940
106221000,0.0324,0.013523,0.002678,0.000431,0.000705
106222000,0.0324,0.013523,0.002678,0.000431,0.000940
106223000,0.0324,0.013523,0.002678,0.000431,0.000705
106224000,0.0324,0.013523,0.002678,0.000431,0.000940
106225000,0.0324,0.013523,0.002678,0.000431,0.000823
106226000,0.0324,0.013523,0.002678,0.000431,0.000823
106227000,0.0324,0.013523,0.002678,0.000431,0.000823
106228000,0.0324,0.013523,0.002678,0.000431,0.000823
106229000,0.0324,0.013523,0.002678,0.000431,0.000940
106230000,0.0324,0.013523,0.002678,0.000431,0.000705
106231000,0.0324,0.013523,0.002678,0.000431,0.000823
106232000,0.0324,0.013523,0.002678,0.000431,0.000940
106233000,0.0324,0.013523,0.002678,0.000431,0.000823
106234000,0.0324,0.013523,0.002678,0.000431,0.002116
106235000,0.0324,0.013523,0.002678,0.000431,0.367393
106236000,0.0324,0.013523,0.002678,0.000431,0.696942
106237000,0.0324,0.013523,0.002678,0.000431,0.162659
106238000,0.0324,0.013523,0.002678,0.000431,0.131984
106239000,0.0324,0.013523,0.002678,0.000431,0.148908
106240000,0.0324,0.013523,0.002678,0.000431,0.637003
106241000,0.0324,0.013523,0.002678,0.000431,0.247867
106242000,0.0324,0.013523,0.002678,0.000431,0.228005
106243000,0.0324,0.013523,0.002678,0.000431,0.216722
106244000,0.0324,0.013523,0.002678,0.000431,0.139741
106245000,0.0324,0.013523,0.002678,0.000431,0.165362
106246000,0.0324,0.013523,0.002678,0.000431,0.102367
106247000,0.0324,0.013523,0.002678,0.000431,0.425922
106248000,0.0324,0.013523,0.002678,0.000431,0.133865
106249000,0.0324,0.013523,0.002678,0.000431,0.042193
106250000,0.0324,0.013523,0.002678,0.000431,0.035023
106251000,0.0324,0.013523,0.002678,0.000431,0.028324
106252000,0.0324,0.013523,0.002678,0.000431,0.031145
106253000,0.0324,0.013523,0.002678,0.000431,0.027854
106254000,0.0324,0.013523,0.002678,0.000431,0.018805
106255000,0.0324,0.013523,0.002678,0.000431,0.018452
106256000,0.0324,0.013523,0.002678,0.000431,0.015749
106257000,0.0324,0.013523,0.002678,0.000431,0.014809
106258000,0.0324,0.013523,0.002678,0.000431,0.015161
106259000,0.0324,0.013523,0.002678,0.000431,0.013868
106260000,0.0324,0.013523,0.002678,0.000431,0.015866
106261000,0.0324,0.013523,0.002678,0.000431,0.012693
106262000,0.0324,0.013523,0.002678,0.000431,0.010107
106263000,0.0324,0.013523,0.002678,0.000431,0.011283
106264000,0.0324,0.013523,0.002678,0.000431,0.010460
106265000,0.0324,0.013523,0.002678,0.000431,0.010578
106266000,0.0324,0.013523,0.002678,0.000431,0.010930
106267000,0.0324,0.013523,0.002678,0.000431,0.010342
106268000,0.0324,0.013523,0.002678,0.000431,0.011283
106269000,0.0324,0.013523,0.002678,0.000431,0.010225
106270000,0.0324,0.013523,0.002678,0.000431,0.012105
106271000,0.0324,0.013523,0.002678,0.000431,0.009520
106272000,0.0324,0.013523,0.002678,0.000431,0.010107
106273000,0.0324,0.013523,0.002678,0.000431,0.009755
106274000,0.0324,0.013523,0.002678,0.000431,0.011400
106275000,0.0324,0.013523,0.002678,0.000431,0.009990
106276000,0.0324,0.013523,0.002678,0.000431,0.009755
106277000,0.0324,0.013523,0.002678,0.000431,0.008580
106278000,0.0324,0.013523,0.002678,0.000431,0.009520
106279000,0.0324,0.013523,0.002678,0.000431,0.006699
106280000,0.0324,0.013523,0.002678,0.000431,0.007874
106281000,0.0324,0.013523,0.002678,0.000431,0.007052
106282000,0.0324,0.013523,0.002678,0.000431,0.009285
106283000,0.0324,0.013523,0.002678,0.000431,0.006229
106284000,0.0324,0.013523,0.002678,0.000431,0.006347
106285000,0.0324,0.013523,0.002678,0.000431,0.006229
106286000,0.0324,0.013523,0.002678,0.000431,0.006699
106287000,0.0324,0.013523,0.002678,0.000431,0.006347
106288000,0.0324,0.013523,0.002678,0.000431,0.006817
106289000,0.0324,0.013523,0.002678,0.000431,0.006464
106290000,0.0324,0.013523,0.002678,0.000431,0.006229
106291000,0.0324,0.013523,0.002678,0.000431,0.006464
106292000,0.0324,0.013523,0.002678,0.000431,0.008109
106293000,0.0324,0.013523,0.002678,0.000431,0.007052
106294000,0.0324,0.013523,0.002678,0.000431,0.005641
106295000,0.0324,0.013523,0.002678,0.000431,0.005524
106296000,0.0324,0.013523,0.002678,0.000431,0.005524
106297000,0.0324,0.013523,0.002678,0.000431,0.005876
106298000,0.0324,0.013523,0.002678,0.000431,0.005759
106299000,0.0324,0.013523,0.002678,0.000431,0.004936
106300000,0.0324,0.013523,0.002678,0.000431,0.006111
106301000,0.0324,0.013523,0.002678,0.000431,0.005171
106302000,0.0324,0.013523,0.002678,0.000431,0.006229
106303000,0.0324,0.013523,0.002678,0.000431,0.006817
106304000,0.0324,0.013523,0.002678,0.000431,0.004701
106305000,0.0324,0.013523,0.002678,0.000431,0.004936
106306000,0.0324,0.013523,0.002678,0.000431,0.004584
106307000,0.0324,0.013523,0.002678,0.000431,0.006111
106308000,0.0324,0.013523,0.002678,0.000431,0.005171
106309000,0.0324,0.013523,0.002678,0.000431,0.003996
106310000,0.0324,0.013523,0.002678,0.000431,0.003761
106311000,0.0324,0.013523,0.002678,0.000431,0.004113
106312000,0.0324,0.013523,0.002678,0.000431,0.003878
106313000,0.0324,0.013523,0.002678,0.000431,0.003761
106314000,0.0324,0.013523,0.002678,0.000431,0.005524
106315000,0.0324,0.013523,0.002678,0.000431,0.002938
106316000,0.0324,0.013523,0.002678,0.000431,0.003173
106317000,0.0324,0.013523,0.002678,0.000431,0.002938
106318000,0.0324,0.013523,0.002678,0.000431,0.003291
106319000,0.0324,0.013523,0.002678,0.000431,0.002938
106320000,0.0324,0.013523,0.002678,0.000431,0.003173
106321000,0.0324,0.013523,0.002678,0.000431,0.002586
106322000,0.0324,0.013523,0.002678,0.000431,0.003408
106323000,0.0324,0.013523,0.002678,0.000431,0.003291
106324000,0.0324,0.013523,0.002678,0.000431,0.002586
106325000,0.0324,0.013523,0.002678,0.000431,0.003761
106326000,0.0324,0.013523,0.002678,0.000431,0.002586
106327000,0.0324,0.013523,0.002678,0.000431,0.003291
106328000,0.0324,0.013523,0.002678,0.000431,0.003056
106329000,0.0324,0.013523,0.002678,0.000431,0.003056
106330000,0.0324,0.013523,0.002678,0.000431,0.003056
106331000,0.0324,0.013523,0.002678,0.000431,0.003291
106332000,0.0324,0.013523,0.002678,0.000431,0.002821
106333000,0.0324,0.013523,0.002678,0.000431,0.003291
106334000,0.0324,0.013523,0.002678,0.000431,0.002821
106335000,0.0324,0.013523,0.002678,0.000431,0.003056
106336000,0.0324,0.013523,0.002678,0.000431,0.003056
106337000,0.0324,0.013523,0.002678,0.000431,0.003056
106338000,0.0324,0.013523,0.002678,0.000431,0.002938
106339000,0.0324,0.013523,0.002678,0.000431,0.003408
106340000,0.0324,0.013523,0.002678,0.000431,0.003173
106341000,0.0324,0.013523,0.002678,0.000431,0.002938
106342000,0.0324,0.013523,0.002678,0.000431,0.003291
106343000,0.0324,0.013523,0.002678,0.000431,0.003291
106344000,0.0324,0.013523,0.002678,0.000431,0.002468
106345000,0.0324,0.013523,0.002678,0.000431,0.003643
106346000,0.0324,0.013523,0.002678,0.000431,0.003173
106347000,0.0324,0.013523,0.002678,0.000431,0.002703
106348000,0.0324,0.013523,0.002678,0.000431,0.003643
106349000,0.0324,0.013523,0.002678,0.000431,0.005641
106350000,0.0324,0.013523,0.002678,0.000431,0.001763
106351000,0.0324,0.013523,0.002678,0.000431,0.001645
106352000,0.0324,0.013523,0.002678,0.000431,0.001410
106353000,0.0324,0.013523,0.002678,0.000431,0.001645
106354000,0.0324,0.013523,0.002678,0.000431,0.001645
106355000,0.0324,0.013523,0.002678,0.000431,0.001175
106356000,0.0324,0.013523,0.002678,0.000431,0.001880
106357000,0.0324,0.013523,0.002678,0.000431,0.001410
106358000,0.0324,0.013523,0.002678,0.000431,0.001293
106359000,0.0324,0.013523,0.002678,0.000431,0.000940
106360000,0.0324,0.013523,0.002678,0.000431,0.000823
106361000,0.0324,0.013523,0.002678,0.000431,0.000823
106362000,0.0324,0.013523,0.002678,0.000431,0.000705
106363000,0.0324,0.013523,0.002678,0.000431,0.000940
106364000,0.0324,0.013523,0.002678,0.000431,0.000940
106365000,0.0324,0.013523,0.002678,0.000431,0.000705
106366000,0.0324,0.013523,0.002678,0.000431,0.000940
106367000,0.0324,0.013523,0.002678,0.000431,0.000705
106368000,0.0324,0.013523,0.002678,0.000431,0.000940
106369000,0.0324,0.013523,0.002678,0.000431,0.000823
106370000,0.0324,0.013523,0.002678,0.000431,0.000823
106371000,0.0324,0.013523,0.002678,0.000431,0.000940
106372000,0.0324,0.013523,0.002678,0.000431,0.000705
106373000,0.0324,0.013523,0.002678,0.000431,0.000940
106374000,0.0324,0.013523,0.002678,0.000431,0.000823
106375000,0.0324,0.013523,0.002678,0.000431,0.000823
106376000,0.0324,0.013523,0.002678,0.000431,0.000823
106377000,0.0324,0.013523,0.002678,0.000431,0.000823
106378000,0.0324,0.013523,0.002678,0.000431,0.000823
106379000,0.0324,0.013523,0.002678,0.000431,0.000823
106380000,0.0324,0.013523,0.002678,0.000431,0.000940
106381000,0.0324,0.013523,0.002678,0.000431,0.000705
106382000,0.0324,0.013523,0.002678,0.000431,0.000940
106383000,0.0324,0.013523,0.002678,0.000431,0.000823
106384000,0.0324,0.013523,0.002678,0.000431,0.000823
106385000,0.0324,0.013523,0.002678,0.000431,0.000705
106386000,0.0324,0.013523,0.002678,0.000431,0.000940
106387000,0.0324,0.013523,0.002678,0.000431,0.000940
106388000,0.0324,0.013523,0.002678,0.000431,0.000705
106389000,0.0324,0.013523,0.002678,0.000431,0.000940
106390000,0.0324,0.013523,0.002678,0.000431,0.000705
106391000,0.0324,0.013523,0.002678,0.000431,0.000940
106392000,0.0324,0.013523,0.002678,0.000431,0.000823
106393000,0.0324,0.013523,0.002678,0.000431,0.000823
106394000,0.0324,0.013523,0.002678,0.000431,0.000940
106395000,0.0324,0.013523,0.002678,0.000431,0.000705
106396000,0.0324,0.013523,0.002678,0.000431,0.000940
106397000,0.0324,0.013523,0.002678,0.000431,0.000823
106398000,0.0324,0.013523,0.002678,0.000431,0.000823
106399000,0.0324,0.013523,0.002678,0.000431,0.000823
106400000,0.0324,0.013523,0.002678,0.000431,0.000823
106401000,0.0324,0.013523,0.002678,0.000431,0.001645
106402000,0.0324,0.013523,0.002678,0.000431,0.347413
106403000,0.0324,0.013523,0.002678,0.000431,0.690125
106404000,0.0324,0.013523,0.002678,0.000431,0.142679
106405000,0.0324,0.013523,0.002678,0.000431,0.134452
106406000,0.0324,0.013523,0.002678,0.000431,0.139623
106407000,0.0324,0.013523,0.002678,0.000431,0.599276
106408000,0.0324,0.013523,0.002678,0.000431,0.226477
106409000,0.0324,0.013523,0.002678,0.000431,0.274193
106410000,0.0324,0.013523,0.002678,0.000431,0.246692
106411000,0.0324,0.013523,0.002678,0.000431,0.141974
106412000,0.0324,0.013523,0.002678,0.000431,0.137155
106413000,0.0324,0.013523,0.002678,0.000431,0.116000
106414000,0.0324,0.013523,0.002678,0.000431,0.384552
106415000,0.0324,0.013523,0.002678,0.000431,0.216722
106416000,0.0324,0.013523,0.002678,0.000431,0.061702
106417000,0.0324,0.013523,0.002678,0.000431,0.051007
106418000,0.0324,0.013523,0.002678,0.000431,0.047599
106419000,0.0324,0.013523,0.002678,0.000431,0.039137
106420000,0.0324,0.013523,0.002678,0.000431,0.034671
106421000,0.0324,0.013523,0.002678,0.000431,0.029500
106422000,0.0324,0.013523,0.002678,0.000431,0.027737
106423000,0.0324,0.013523,0.002678,0.000431,0.028207
106424000,0.0324,0.013523,0.002678,0.000431,0.027267
106425000,0.0324,0.013523,0.002678,0.000431,0.027149
106426000,0.0324,0.013523,0.002678,0.000431,0.025974
106427000,0.0324,0.013523,0.002678,0.000431,0.028324
106428000,0.0324,0.013523,0.002678,0.000431,0.028442
106429000,0.0324,0.013523,0.002678,0.000431,0.026326
106430000,0.0324,0.013523,0.002678,0.000431,0.025034
106431000,0.0324,0.013523,0.002678,0.000431,0.026914
106432000,0.0324,0.013523,0.002678,0.000431,0.025856
106433000,0.0324,0.013523,0.002678,0.000431,0.022213
106434000,0.0324,0.013523,0.002678,0.000431,0.023506
106435000,0.0324,0.013523,0.002678,0.000431,0.023623
106436000,0.0324,0.013523,0.002678,0.000431,0.023036
106437000,0.0324,0.013523,0.002678,0.000431,0.018334
106438000,0.0324,0.013523,0.002678,0.000431,0.017277
106439000,0.0324,0.013523,0.002678,0.000431,0.021038
106440000,0.0324,0.013523,0.002678,0.000431,0.017159
106441000,0.0324,0.013523,0.002678,0.000431,0.019157
106442000,0.0324,0.013523,0.002678,0.000431,0.016336
106443000,0.0324,0.013523,0.002678,0.000431,0.017277
106444000,0.0324,0.013523,0.002678,0.000431,0.015396
106445000,0.0324,0.013523,0.002678,0.000431,0.015514
106446000,0.0324,0.013523,0.002678,0.000431,0.015396
106447000,0.0324,0.013523,0.002678,0.000431,0.015514
106448000,0.0324,0.013523,0.002678,0.000431,0.015866
106449000,0.0324,0.013523,0.002678,0.000431,0.016807
106450000,0.0324,0.013523,0.002678,0.000431,0.014338
106451000,0.0324,0.013523,0.002678,0.000431,0.013986
106452000,0.0324,0.013523,0.002678,0.000431,0.015749
106453000,0.0324,0.013523,0.002678,0.000431,0.012340
106454000,0.0324,0.013523,0.002678,0.000431,0.013633
106455000,0.0324,0.013523,0.002678,0.000431,0.012340
106456000,0.0324,0.013523,0.002678,0.000431,0.013633
106457000,0.0324,0.013523,0.002678,0.000431,0.014103
106458000,0.0324,0.013523,0.002678,0.000431,0.013046
106459000,0.0324,0.013523,0.002678,0.000431,0.013633
106460000,0.0324,0.013523,0.002678,0.000431,0.011870
106461000,0.0324,0.013523,0.002678,0.000431,0.011753
106462000,0.0324,0.013523,0.002678,0.000431,0.011518
106463000,0.0324,0.013523,0.002678,0.000431,0.012105
106464000,0.0324,0.013523,0.002678,0.000431,0.010578
106465000,0.0324,0.013523,0.002678,0.000431,0.012340
106466000,0.0324,0.013523,0.002678,0.000431,0.008580
106467000,0.0324,0.013523,0.002678,0.000431,0.008345
106468000,0.0324,0.013523,0.002678,0.000431,0.009285
106469000,0.0324,0.013523,0.002678,0.000431,0.008109
106470000,0.0324,0.013523,0.002678,0.000431,0.007404
106471000,0.0324,0.013523,0.002678,0.000431,0.008109
106472000,0.0324,0.013523,0.002678,0.000431,0.007404
106473000,0.0324,0.013523,0.002678,0.000431,0.005524
106474000,0.0324,0.013523,0.002678,0.000431,0.006229
106475000,0.0324,0.013523,0.002678,0.000431,0.005759
106476000,0.0324,0.013523,0.002678,0.000431,0.006111
106477000,0.0324,0.013523,0.002678,0.000431,0.005876
106478000,0.0324,0.013523,0.002678,0.000431,0.005641
106479000,0.0324,0.013523,0.002678,0.000431,0.008109
106480000,0.0324,0.013523,0.002678,0.000431,0.005054
106481000,0.0324,0.013523,0.002678,0.000431,0.005289
106482000,0.0324,0.013523,0.002678,0.000431,0.004701
106483000,0.0324,0.013523,0.002678,0.000431,0.005406
106484000,0.0324,0.013523,0.002678,0.000431,0.005406
106485000,0.0324,0.013523,0.002678,0.000431,0.004936
106486000,0.0324,0.013523,0.002678,0.000431,0.005171
106487000,0.0324,0.013523,0.002678,0.000431,0.005876
106488000,0.0324,0.013523,0.002678,0.000431,0.004584
106489000,0.0324,0.013523,0.002678,0.000431,0.005641
106490000,0.0324,0.013523,0.002678,0.000431,0.003878
106491000,0.0324,0.013523,0.002678,0.000431,0.001880
106492000,0.0324,0.013523,0.002678,0.000431,0.001645
106493000,0.0324,0.013523,0.002678,0.000431,0.001763
106494000,0.0324,0.013523,0.002678,0.000431,0.001763
106495000,0.0324,0.013523,0.002678,0.000431,0.001880
106496000,0.0324,0.013523,0.002678,0.000431,0.001763
106497000,0.0324,0.013523,0.002678,0.000431,0.001880
106498000,0.0324,0.013523,0.002678,0.000431,0.001880
106499000,0.0324,0.013523,0.002678,0.000431,0.003761
106500000,0.0324,0.013523,0.002678,0.000431,0.000940
106501000,0.0324,0.013523,0.002678,0.000431,0.000940
106502000,0.0324,0.013523,0.002678,0.000431,0.000823
106503000,0.0324,0.013523,0.002678,0.000431,0.000823
106504000,0.0324,0.013523,0.002678,0.000431,0.000940
106505000,0.0324,0.013523,0.002678,0.000431,0.000823
106506000,0.0324,0.013523,0.002678,0.000431,0.000940
106507000,0.0324,0.013523,0.002678,0.000431,0.000823
106508000,0.0324,0.013523,0.002678,0.000431,0.000940
106509000,0.0324,0.013523,0.002678,0.000431,0.000823
106510000,0.0324,0.013523,0.002678,0.000431,0.000823
106511000,0.0324,0.013523,0.002678,0.000431,0.000940
106512000,0.0324,0.013523,0.002678,0.000431,0.000940
106513000,0.0324,0.013523,0.002678,0.000431,0.000823
106514000,0.0324,0.013523,0.002678,0.000431,0.000823
106515000,0.0324,0.013523,0.002678,0.000431,0.000940
106516000,0.0324,0.013523,0.002678,0.000431,0.000940
106517000,0.0324,0.013523,0.002678,0.000431,0.000705
106518000,0.0324,0.013523,0.002678,0.000431,0.000940
106519000,0.0324,0.013523,0.002678,0.000431,0.000940
106520000,0.0324,0.013523,0.002678,0.000431,0.000823
106521000,0.0324,0.013523,0.002678,0.000431,0.000823
106522000,0.0324,0.013523,0.002678,0.000431,0.000940
106523000,0.0324,0.013523,0.002678,0.000431,0.000940
106524000,0.0324,0.013523,0.002678,0.000431,0.000823
106525000,0.0324,0.013523,0.002678,0.000431,0.000823
106526000,0.0324,0.013523,0.002678,0.000431,0.000940
106527000,0.0324,0.013523,0.002678,0.000431,0.000823
106528000,0.0324,0.013523,0.002678,0.000431,0.000940
106529000,0.0324,0.013523,0.002678,0.000431,0.000823
106530000,0.0324,0.013523,0.002678,0.000431,0.000940
106531000,0.0324,0.013523,0.002678,0.000431,0.000940
106532000,0.0324,0.013523,0.002678,0.000431,0.000705
106533000,0.0324,0.013523,0.002678,0.000431,0.000940
106534000,0.0324,0.013523,0.002678,0.000431,0.000940
106535000,0.0324,0.013523,0.002678,0.000431,0.000940
106536000,0.0324,0.013523,0.002678,0.000431,0.000705
106537000,0.0324,0.013523,0.002678,0.000431,0.000940
106538000,0.0324,0.013523,0.002678,0.000431,0.000940
106539000,0.0324,0.013523,0.002678,0.000431,0.000823
106540000,0.0324,0.013523,0.002678,0.000431,0.000823
106541000,0.0324,0.013523,0.002678,0.000431,0.000940
106542000,0.0324,0.013523,0.002678,0.000431,0.000940
106543000,0.0324,0.013523,0.002678,0.000431,0.000823
106544000,0.0324,0.013523,0.002678,0.000431,0.000823
106545000,0.0324,0.013523,0.002678,0.000431,0.000940
106546000,0.0324,0.013523,0.002678,0.000431,0.000823
106547000,0.0324,0.013523,0.002678,0.000431,0.000940
106548000,0.0324,0.013523,0.002678,0.000431,0.000823
106549000,0.0324,0.013523,0.002678,0.000431,0.000940
106550000,0.0324,0.013523,0.002678,0.000431,0.000823
106551000,0.0324,0.013523,0.002678,0.000431,0.000823
106552000,0.0324,0.013523,0.002678,0.000431,0.000940
106553000,0.0324,0.013523,0.002678,0.000431,0.000940
106554000,0.0324,0.013523,0.002678,0.000431,0.000823
106555000,0.0324,0.013523,0.002678,0.000431,0.000823
106556000,0.0324,0.013523,0.002678,0.000431,0.000940
106557000,0.0324,0.013523,0.002678,0.000431,0.000940
106558000,0.0324,0.013523,0.002678,0.000431,0.000823
106559000,0.0324,0.013523,0.002678,0.000431,0.000823
106560000,0.0324,0.013523,0.002678,0.000431,0.000940
106561000,0.0324,0.013523,0.002678,0.000431,0.000823
106562000,0.0324,0.013523,0.002678,0.000431,0.000940
106563000,0.0324,0.013523,0.002678,0.000431,0.000823
106564000,0.0324,0.013523,0.002678,0.000431,0.000940
106565000,0.0324,0.013523,0.002678,0.000431,0.000823
106566000,0.0324,0.013523,0.002678,0.000431,0.000823
106567000,0.0324,0.013523,0.002678,0.000431,0.000940
106568000,0.0324,0.013523,0.002678,0.000431,0.000940
106569000,0.0324,0.013523,0.002678,0.000431,0.000823
106570000,0.0324,0.013523,0.002678,0.000431,0.000823
106571000,0.0324,0.013523,0.002678,0.000431,0.000940
106572000,0.0324,0.013523,0.002678,0.000431,0.000940
106573000,0.0324,0.013523,0.002678,0.000431,0.000705
106574000,0.0324,0.013523,0.002678,0.000431,0.000940
106575000,0.0324,0.013523,0.002678,0.000431,0.000940
106576000,0.0324,0.013523,0.002678,0.000431,0.000940
106577000,0.0324,0.013523,0.002678,0.000431,0.000705
106578000,0.0324,0.013523,0.002678,0.000431,0.000940
106579000,0.0324,0.013523,0.002678,0.000431,0.000940
106580000,0.0324,0.013523,0.002678,0.000431,0.000823
106581000,0.0324,0.013523,0.002678,0.000431,0.000823
106582000,0.0324,0.013523,0.002678,0.000431,0.000940
106583000,0.0324,0.013523,0.002678,0.000431,0.000940
106584000,0.0324,0.013523,0.002678,0.000431,0.000823
106585000,0.0324,0.013523,0.002678,0.000431,0.000823
106586000,0.0324,0.013523,0.002678,0.000431,0.000940
106587000,0.0324,0.013523,0.002678,0.000431,0.000823
106588000,0.0324,0.013523,0.002678,0.000431,0.000940
106589000,0.0324,0.013523,0.002678,0.000431,0.000823
106590000,0.0324,0.013523,0.002678,0.000431,0.000940
106591000,0.0324,0.013523,0.002678,0.000431,0.000940
106592000,0.0324,0.013523,0.002678,0.000431,0.000705
106593000,0.0324,0.013523,0.002678,0.000431,0.000940
106594000,0.0324,0.013523,0.002678,0.000431,0.000940
106595000,0.0324,0.013523,0.002678,0.000431,0.000940
106596000,0.0324,0.013523,0.002678,0.000431,0.000705
106597000,0.0324,0.013523,0.002678,0.000431,0.000940
106598000,0.0324,0.013523,0.002678,0.000431,0.000940
106599000,0.0324,0.013523,0.002678,0.000431,0.000823
106600000,0.0324,0.013523,0.002678,0.000431,0.000823
106601000,0.0324,0.013523,0.002678,0.000431,0.000940
106602000,0.0324,0.013523,0.002678,0.000431,0.000823
106603000,0.0324,0.013523,0.002678,0.000431,0.000940
106604000,0.0324,0.013523,0.002678,0.000431,0.000823
106605000,0.0324,0.013523,0.002678,0.000431,0.000940
106606000,0.0324,0.013523,0.002678,0.000431,0.000823
106607000,0.0324,0.013523,0.002678,0.000431,0.000823
106608000,0.0324,0.013523,0.002678,0.000431,0.000940
106609000,0.0324,0.013523,0.002678,0.000431,0.000940
106610000,0.0324,0.013523,0.002678,0.000431,0.000823
106611000,0.0324,0.013523,0.002678,0.000431,0.000823
106612000,0.0324,0.013523,0.002678,0.000431,0.000940
106613000,0.0324,0.013523,0.002678,0.000431,0.000940
106614000,0.0324,0.013523,0.002678,0.000431,0.000823
106615000,0.0324,0.013523,0.002678,0.000431,0.000823
106616000,0.0324,0.013523,0.002678,0.000431,0.000940
106617000,0.0324,0.013523,0.002678,0.000431,0.000940
106618000,0.0324,0.013523,0.002678,0.000431,0.000823
106619000,0.0324,0.013523,0.002678,0.000431,0.000823
106620000,0.0324,0.013523,0.002678,0.000431,0.000940
106621000,0.0324,0.013523,0.002678,0.000431,0.000823
106622000,0.0324,0.013523,0.002678,0.000431,0.000940
106623000,0.0324,0.013523,0.002678,0.000431,0.000823
106624000,0.0324,0.013523,0.002678,0.000431,0.000940
106625000,0.0324,0.013523,0.002678,0.000431,0.000823
106626000,0.0324,0.013523,0.002678,0.000431,0.000823
106627000,0.0324,0.013523,0.002678,0.000431,0.000940
106628000,0.0324,0.013523,0.002678,0.000431,0.000940
106629000,0.0324,0.013523,0.002678,0.000431,0.000823
106630000,0.0324,0.013523,0.002678,0.000431,0.000823
106631000,0.0324,0.013523,0.002678,0.000431,0.000940
106632000,0.0324,0.013523,0.002678,0.000431,0.000940
106633000,0.0324,0.013523,0.002678,0.000431,0.000705
106634000,0.0324,0.013523,0.002678,0.000431,0.000940
106635000,0.0324,0.013523,0.002678,0.000431,0.000940
106636000,0.0324,0.013523,0.002678,0.000431,0.000940
106637000,0.0324,0.013523,0.002678,0.000431,0.000705
106638000,0.0324,0.013523,0.002678,0.000431,0.000940
106639000,0.0324,0.013523,0.002678,0.000431,0.000940
106640000,0.0324,0.013523,0.002678,0.000431,0.000823
106641000,0.0324,0.013523,0.002678,0.000431,0.000940
106642000,0.0324,0.013523,0.002678,0.000431,0.000823
106643000,0.0324,0.013523,0.002678,0.000431,0.000940
106644000,0.0324,0.013523,0.002678,0.000431,0.000823
106645000,0.0324,0.013523,0.002678,0.000431,0.000823
106646000,0.0324,0.013523,0.002678,0.000431,0.000940
106647000,0.0324,0.013523,0.002678,0.000431,0.000823
106648000,0.0324,0.013523,0.002678,0.000431,0.000940
106649000,0.0324,0.013523,0.002678,0.000431,0.000823
106650000,0.0324,0.013523,0.002678,0.000431,0.000940
106651000,0.0324,0.013523,0.002678,0.000431,0.000940
106652000,0.0324,0.013523,0.002678,0.000431,0.000705
106653000,0.0324,0.013523,0.002678,0.000431,0.000940
106654000,0.0324,0.013523,0.002678,0.000431,0.000940
106655000,0.0324,0.013523,0.002678,0.000431,0.000940
106656000,0.0324,0.013523,0.002678,0.000431,0.000705
106657000,0.0324,0.013523,0.002678,0.000431,0.000940
106658000,0.0324,0.013523,0.002678,0.000431,0.000940
106659000,0.0324,0.013523,0.002678,0.000431,0.000823
106660000,0.0324,0.013523,0.002678,0.000431,0.000823
106661000,0.0324,0.013523,0.002678,0.000431,0.000940
106662000,0.0324,0.013523,0.002678,0.000431,0.000823
106663000,0.0324,0.013523,0.002678,0.000431,0.000940
106664000,0.0324,0.013523,0.002678,0.000431,0.000823
106665000,0.0324,0.013523,0.002678,0.000431,0.000940
106666000,0.0324,0.013523,0.002678,0.000431,0.001880
106667000,0.0324,0.013523,0.002678,0.000431,0.370449
106668000,0.0324,0.013523,0.002678,0.000431,0.691183
106669000,0.0324,0.013523,0.002678,0.000431,0.151376
106670000,0.0324,0.013523,0.002678,0.000431,0.139153
106671000,0.0324,0.013523,0.002678,0.000431,0.150671
106672000,0.0324,0.013523,0.002678,0.000431,0.601744
106673000,0.0324,0.013523,0.002678,0.000431,0.231531
106674000,0.0324,0.013523,0.002678,0.000431,0.267142
106675000,0.0324,0.013523,0.002678,0.000431,0.237407
106676000,0.0324,0.013523,0.002678,0.000431,0.139506
106677000,0.0324,0.013523,0.002678,0.000431,0.158310
106678000,0.0324,0.013523,0.002678,0.000431,0.100722
106679000,0.0324,0.013523,0.002678,0.000431,0.426745
106680000,0.0324,0.013523,0.002678,0.000431,0.158075
106681000,0.0324,0.013523,0.002678,0.000431,0.064523
106682000,0.0324,0.013523,0.002678,0.000431,0.061585
106683000,0.0324,0.013523,0.002678,0.000431,0.052300
106684000,0.0324,0.013523,0.002678,0.000431,0.050537
106685000,0.0324,0.013523,0.002678,0.000431,0.043133
106686000,0.0324,0.013523,0.002678,0.000431,0.042310
106687000,0.0324,0.013523,0.002678,0.000431,0.035023
106688000,0.0324,0.013523,0.002678,0.000431,0.032438
106689000,0.0324,0.013523,0.002678,0.000431,0.029500
106690000,0.0324,0.013523,0.002678,0.000431,0.025739
106691000,0.0324,0.013523,0.002678,0.000431,0.026914
106692000,0.0324,0.013523,0.002678,0.000431,0.018452
106693000,0.0324,0.013523,0.002678,0.000431,0.019862
106694000,0.0324,0.013523,0.002678,0.000431,0.019392
106695000,0.0324,0.013523,0.002678,0.000431,0.017747
106696000,0.0324,0.013523,0.002678,0.000431,0.017159
106697000,0.0324,0.013523,0.002678,0.000431,0.014103
106698000,0.0324,0.013523,0.002678,0.000431,0.017277
106699000,0.0324,0.013523,0.002678,0.000431,0.010695
106700000,0.0324,0.013523,0.002678,0.000431,0.009872
106701000,0.0324,0.013523,0.002678,0.000431,0.009990
106702000,0.0324,0.013523,0.002678,0.000431,0.010460
106703000,0.0324,0.013523,0.002678,0.000431,0.011870
106704000,0.0324,0.013523,0.002678,0.000431,0.007992
106705000,0.0324,0.013523,0.002678,0.000431,0.009285
106706000,0.0324,0.013523,0.002678,0.000431,0.010460
106707000,0.0324,0.013523,0.002678,0.000431,0.007757
106708000,0.0324,0.013523,0.002678,0.000431,0.008462
106709000,0.0324,0.013523,0.002678,0.000431,0.007992
106710000,0.0324,0.013523,0.002678,0.000431,0.007992
106711000,0.0324,0.013523,0.002678,0.000431,0.011165
106712000,0.0324,0.013523,0.002678,0.000431,0.008697
106713000,0.0324,0.013523,0.002678,0.000431,0.006934
106714000,0.0324,0.013523,0.002678,0.000431,0.006229
106715000,0.0324,0.013523,0.002678,0.000431,0.006347
106716000,0.0324,0.013523,0.002678,0.000431,0.006699
106717000,0.0324,0.013523,0.002678,0.000431,0.006229
106718000,0.0324,0.013523,0.002678,0.000431,0.006582
106719000,0.0324,0.013523,0.002678,0.000431,0.006229
106720000,0.0324,0.013523,0.002678,0.000431,0.006699
106721000,0.0324,0.013523,0.002678,0.000431,0.006699
106722000,0.0324,0.013523,0.002678,0.000431,0.006347
106723000,0.0324,0.013523,0.002678,0.000431,0.006347
106724000,0.0324,0.013523,0.002678,0.000431,0.008227
106725000,0.0324,0.013523,0.002678,0.000431,0.005759
106726000,0.0324,0.013523,0.002678,0.000431,0.005641
106727000,0.0324,0.013523,0.002678,0.000431,0.005759
106728000,0.0324,0.013523,0.002678,0.000431,0.005406
106729000,0.0324,0.013523,0.002678,0.000431,0.005524
106730000,0.0324,0.013523,0.002678,0.000431,0.005759
106731000,0.0324,0.013523,0.002678,0.000431,0.005524
106732000,0.0324,0.013523,0.002678,0.000431,0.007522
106733000,0.0324,0.013523,0.002678,0.000431,0.004584
106734000,0.0324,0.013523,0.002678,0.000431,0.005054
106735000,0.0324,0.013523,0.002678,0.000431,0.004701
106736000,0.0324,0.013523,0.002678,0.000431,0.005054
106737000,0.0324,0.013523,0.002678,0.000431,0.004349
106738000,0.0324,0.013523,0.002678,0.000431,0.005054
106739000,0.0324,0.013523,0.002678,0.000431,0.004701
106740000,0.0324,0.013523,0.002678,0.000431,0.004584
106741000,0.0324,0.013523,0.002678,0.000431,0.005406
106742000,0.0324,0.013523,0.002678,0.000431,0.004466
106743000,0.0324,0.013523,0.002678,0.000431,0.004936
106744000,0.0324,0.013523,0.002678,0.000431,0.004584
106745000,0.0324,0.013523,0.002678,0.000431,0.004466
106746000,0.0324,0.013523,0.002678,0.000431,0.004113
106747000,0.0324,0.013523,0.002678,0.000431,0.003878
106748000,0.0324,0.013523,0.002678,0.000431,0.003996
106749000,0.0324,0.013523,0.002678,0.000431,0.004466
106750000,0.0324,0.013523,0.002678,0.000431,0.004231
106751000,0.0324,0.013523,0.002678,0.000431,0.003761
106752000,0.0324,0.013523,0.002678,0.000431,0.004466
106753000,0.0324,0.013523,0.002678,0.000431,0.003761
106754000,0.0324,0.013523,0.002678,0.000431,0.004584
106755000,0.0324,0.013523,0.002678,0.000431,0.003878
106756000,0.0324,0.013523,0.002678,0.000431,0.004231
106757000,0.0324,0.013523,0.002678,0.000431,0.003996
106758000,0.0324,0.013523,0.002678,0.000431,0.004113
106759000,0.0324,0.013523,0.002678,0.000431,0.004466
106760000,0.0324,0.013523,0.002678,0.000431,0.003761
106761000,0.0324,0.013523,0.002678,0.000431,0.004466
106762000,0.0324,0.013523,0.002678,0.000431,0.003761
106763000,0.0324,0.013523,0.002678,0.000431,0.004349
106764000,0.0324,0.013523,0.002678,0.000431,0.004231
106765000,0.0324,0.013523,0.002678,0.000431,0.003878
106766000,0.0324,0.013523,0.002678,0.000431,0.004113
106767000,0.0324,0.013523,0.002678,0.000431,0.004113
106768000,0.0324,0.013523,0.002678,0.000431,0.004231
106769000,0.0324,0.013523,0.002678,0.000431,0.004113
106770000,0.0324,0.013523,0.002678,0.000431,0.004231
106771000,0.0324,0.013523,0.002678,0.000431,0.003878
106772000,0.0324,0.013523,0.002678,0.000431,0.004349
106773000,0.0324,0.013523,0.002678,0.000431,0.003996
106774000,0.0324,0.013523,0.002678,0.000431,0.004231
106775000,0.0324,0.013523,0.002678,0.000431,0.004231
106776000,0.0324,0.013523,0.002678,0.000431,0.003996
106777000,0.0324,0.013523,0.002678,0.000431,0.004113
106778000,0.0324,0.013523,0.002678,0.000431,0.003996
106779000,0.0324,0.013523,0.002678,0.000431,0.004584
106780000,0.0324,0.013523,0.002678,0.000431,0.003761
106781000,0.0324,0.013523,0.002678,0.000431,0.004349
106782000,0.0324,0.013523,0.002678,0.000431,0.003996
106783000,0.0324,0.013523,0.002678,0.000431,0.004113
106784000,0.0324,0.013523,0.002678,0.000431,0.004349
106785000,0.0324,0.013523,0.002678,0.000431,0.003761
106786000,0.0324,0.013523,0.002678,0.000431,0.005994
106787000,0.0324,0.013523,0.002678,0.000431,0.003526
106788000,0.0324,0.013523,0.002678,0.000431,0.003878
106789000,0.0324,0.013523,0.002678,0.000431,0.002821
106790000,0.0324,0.013523,0.002678,0.000431,0.001645
106791000,0.0324,0.013523,0.002678,0.000431,0.001880
106792000,0.0324,0.013523,0.002678,0.000431,0.001528
106793000,0.0324,0.013523,0.002678,0.000431,0.001763
106794000,0.0324,0.013523,0.002678,0.000431,0.001763
106795000,0.0324,0.013523,0.002678,0.000431,0.001645
106796000,0.0324,0.013523,0.002678,0.000431,0.001763
106797000,0.0324,0.013523,0.002678,0.000431,0.001645
106798000,0.0324,0.013523,0.002678,0.000431,0.001880
106799000,0.0324,0.013523,0.002678,0.000431,0.001528
106800000,0.0324,0.013523,0.002678,0.000431,0.001763
106801000,0.0324,0.013523,0.002678,0.000431,0.001645
106802000,0.0324,0.013523,0.002678,0.000431,0.001763
106803000,0.0324,0.013523,0.002678,0.000431,0.001880
106804000,0.0324,0.013523,0.002678,0.000431,0.001528
106805000,0.0324,0.013523,0.002678,0.000431,0.001880
106806000,0.0324,0.013523,0.002678,0.000431,0.001645
106807000,0.0324,0.013523,0.002678,0.000431,0.003173
106808000,0.0324,0.013523,0.002678,0.000431,0.015396
106809000,0.0324,0.013523,0.002678,0.000431,0.497027
106810000,0.0324,0.013523,0.002678,0.000431,0.598924
106811000,0.0324,0.013523,0.002678,0.000431,0.133277
106812000,0.0324,0.013523,0.002678,0.000431,0.131514
106813000,0.0324,0.013523,0.002678,0.000431,0.310980
106814000,0.0324,0.013523,0.002678,0.000431,0.447900
106815000,0.0324,0.013523,0.002678,0.000431,0.227300
106816000,0.0324,0.013523,0.002678,0.000431,0.292293
106817000,0.0324,0.013523,0.002678,0.000431,0.218132
106818000,0.0324,0.013523,0.002678,0.000431,0.136333
106819000,0.0324,0.013523,0.002678,0.000431,0.183814
106820000,0.0324,0.013523,0.002678,0.000431,0.083092
106821000,0.0324,0.013523,0.002678,0.000431,0.462591
106822000,0.0324,0.013523,0.002678,0.000431,0.093082
106823000,0.0324,0.013523,0.002678,0.000431,0.043485
106824000,0.0324,0.013523,0.002678,0.000431,0.041840
106825000,0.0324,0.013523,0.002678,0.000431,0.041840
106826000,0.0324,0.013523,0.002678,0.000431,0.037962
106827000,0.0324,0.013523,0.002678,0.000431,0.039254
106828000,0.0324,0.013523,0.002678,0.000431,0.029617
106829000,0.0324,0.013523,0.002678,0.000431,0.030675
106830000,0.0324,0.013523,0.002678,0.000431,0.029852
106831000,0.0324,0.013523,0.002678,0.000431,0.025034
106832000,0.0324,0.013523,0.002678,0.000431,0.023036
106833000,0.0324,0.013523,0.002678,0.000431,0.022448
106834000,0.0324,0.013523,0.002678,0.000431,0.020450
106835000,0.0324,0.013523,0.002678,0.000431,0.019510
106836000,0.0324,0.013523,0.002678,0.000431,0.023271
106837000,0.0324,0.013523,0.002678,0.000431,0.015279
106838000,0.0324,0.013523,0.002678,0.000431,0.015514
106839000,0.0324,0.013523,0.002678,0.000431,0.017394
106840000,0.0324,0.013523,0.002678,0.000431,0.013751
106841000,0.0324,0.013523,0.002678,0.000431,0.013751
106842000,0.0324,0.013523,0.002678,0.000431,0.013868
106843000,0.0324,0.013523,0.002678,0.000431,0.014809
106844000,0.0324,0.013523,0.002678,0.000431,0.014221
106845000,0.0324,0.013523,0.002678,0.000431,0.014221
106846000,0.0324,0.013523,0.002678,0.000431,0.012693
106847000,0.0324,0.013523,0.002678,0.000431,0.014338
106848000,0.0324,0.013523,0.002678,0.000431,0.015631
106849000,0.0324,0.013523,0.002678,0.000431,0.011753
106850000,0.0324,0.013523,0.002678,0.000431,0.010107
106851000,0.0324,0.013523,0.002678,0.000431,0.010578
106852000,0.0324,0.013523,0.002678,0.000431,0.007639
106853000,0.0324,0.013523,0.002678,0.000431,0.007052
106854000,0.0324,0.013523,0.002678,0.000431,0.006582
106855000,0.0324,0.013523,0.002678,0.000431,0.006817
106856000,0.0324,0.013523,0.002678,0.000431,0.006229
106857000,0.0324,0.013523,0.002678,0.000431,0.006817
106858000,0.0324,0.013523,0.002678,0.000431,0.006464
106859000,0.0324,0.013523,0.002678,0.000431,0.007757
106860000,0.0324,0.013523,0.002678,0.000431,0.006464
106861000,0.0324,0.013523,0.002678,0.000431,0.004349
106862000,0.0324,0.013523,0.002678,0.000431,0.003878
106863000,0.0324,0.013523,0.002678,0.000431,0.004349
106864000,0.0324,0.013523,0.002678,0.000431,0.004584
106865000,0.0324,0.013523,0.002678,0.000431,0.003408
106866000,0.0324,0.013523,0.002678,0.000431,0.004584
106867000,0.0324,0.013523,0.002678,0.000431,0.003878
106868000,0.0324,0.013523,0.002678,0.000431,0.007874
106869000,0.0324,0.013523,0.002678,0.000431,0.003291
106870000,0.0324,0.013523,0.002678,0.000431,0.003291
106871000,0.0324,0.013523,0.002678,0.000431,0.003643
106872000,0.0324,0.013523,0.002678,0.000431,0.002468
106873000,0.0324,0.013523,0.002678,0.000431,0.002703
106874000,0.0324,0.013523,0.002678,0.000431,0.002468
106875000,0.0324,0.013523,0.002678,0.000431,0.002703
106876000,0.0324,0.013523,0.002678,0.000431,0.002586
106877000,0.0324,0.013523,0.002678,0.000431,0.002586
106878000,0.0324,0.013523,0.002678,0.000431,0.002468
106879000,0.0324,0.013523,0.002678,0.000431,0.002586
106880000,0.0324,0.013523,0.002678,0.000431,0.002703
106881000,0.0324,0.013523,0.002678,0.000431,0.002703
106882000,0.0324,0.013523,0.002678,0.000431,0.004231
106883000,0.0324,0.013523,0.002678,0.000431,0.001880
106884000,0.0324,0.013523,0.002678,0.000431,0.001763
106885000,0.0324,0.013523,0.002678,0.000431,0.003408
106886000,0.0324,0.013523,0.002678,0.000431,0.000940
106887000,0.0324,0.013523,0.002678,0.000431,0.000823
106888000,0.0324,0.013523,0.002678,0.000431,0.000940
106889000,0.0324,0.013523,0.002678,0.000431,0.000705
106890000,0.0324,0.013523,0.002678,0.000431,0.000940
106891000,0.0324,0.013523,0.002678,0.000431,0.000940
106892000,0.0324,0.013523,0.002678,0.000431,0.000705
106893000,0.0324,0.013523,0.002678,0.000431,0.000940
106894000,0.0324,0.013523,0.002678,0.000431,0.000823
106895000,0.0324,0.013523,0.002678,0.000431,0.000940
106896000,0.0324,0.013523,0.002678,0.000431,0.000823
106897000,0.0324,0.013523,0.002678,0.000431,0.000940
106898000,0.0324,0.013523,0.002678,0.000431,0.000823
106899000,0.0324,0.013523,0.002678,0.000431,0.000823
106900000,0.0324,0.013523,0.002678,0.000431,0.000940
106901000,0.0324,0.013523,0.002678,0.000431,0.000940
106902000,0.0324,0.013523,0.002678,0.000431,0.000823
106903000,0.0324,0.013523,0.002678,0.000431,0.000823
106904000,0.0324,0.013523,0.002678,0.000431,0.000940
106905000,0.0324,0.013523,0.002678,0.000431,0.000940
106906000,0.0324,0.013523,0.002678,0.000431,0.000705
106907000,0.0324,0.013523,0.002678,0.000431,0.000940
106908000,0.0324,0.013523,0.002678,0.000431,0.000940
106909000,0.0324,0.013523,0.002678,0.000431,0.000940
106910000,0.0324,0.013523,0.002678,0.000431,0.000705
106911000,0.0324,0.013523,0.002678,0.000431,0.000940
106912000,0.0324,0.013523,0.002678,0.000431,0.000940
106913000,0.0324,0.013523,0.002678,0.000431,0.000823
106914000,0.0324,0.013523,0.002678,0.000431,0.000823
106915000,0.0324,0.013523,0.002678,0.000431,0.000823
106916000,0.0324,0.013523,0.002678,0.000431,0.000823
106917000,0.0324,0.013523,0.002678,0.000431,0.000940
106918000,0.0324,0.013523,0.002678,0.000431,0.000705
106919000,0.0324,0.013523,0.002678,0.000431,0.000940
106920000,0.0324,0.013523,0.002678,0.000431,0.000823
106921000,0.0324,0.013523,0.002678,0.000431,0.000823
106922000,0.0324,0.013523,0.002678,0.000431,0.000823
106923000,0.0324,0.013523,0.002678,0.000431,0.000823
106924000,0.0324,0.013523,0.002678,0.000431,0.000823
106925000,0.0324,0.013523,0.002678,0.000431,0.000823
106926000,0.0324,0.013523,0.002678,0.000431,0.000823
106927000,0.0324,0.013523,0.002678,0.000431,0.000823
106928000,0.0324,0.013523,0.002678,0.000431,0.000940
106929000,0.0324,0.013523,0.002678,0.000431,0.000823
106930000,0.0324,0.013523,0.002678,0.000431,0.000823
106931000,0.0324,0.013523,0.002678,0.000431,0.000705
106932000,0.0324,0.013523,0.002678,0.000431,0.000940
106933000,0.0324,0.013523,0.002678,0.000431,0.000940
106934000,0.0324,0.013523,0.002678,0.000431,0.000705
106935000,0.0324,0.013523,0.002678,0.000431,0.000940
106936000,0.0324,0.013523,0.002678,0.000431,0.000705
106937000,0.0324,0.013523,0.002678,0.000431,0.000940
106938000,0.0324,0.013523,0.002678,0.000431,0.000940
106939000,0.0324,0.013523,0.002678,0.000431,0.000705
106940000,0.0324,0.013523,0.002678,0.000431,0.000940
106941000,0.0324,0.013523,0.002678,0.000431,0.000705
106942000,0.0324,0.013523,0.002678,0.000431,0.000940
106943000,0.0324,0.013523,0.002678,0.000431,0.000823
106944000,0.0324,0.013523,0.002678,0.000431,0.000823
106945000,0.0324,0.013523,0.002678,0.000431,0.000823
106946000,0.0324,0.013523,0.002678,0.000431,0.000823
106947000,0.0324,0.013523,0.002678,0.000431,0.000940
106948000,0.0324,0.013523,0.002678,0.000431,0.000705
106949000,0.0324,0.013523,0.002678,0.000431,0.000940
106950000,0.0324,0.013523,0.002678,0.000431,0.000823
106951000,0.0324,0.013523,0.002678,0.000431,0.000823
106952000,0.0324,0.013523,0.002678,0.000431,0.000823
106953000,0.0324,0.013523,0.002678,0.000431,0.000940
106954000,0.0324,0.013523,0.002678,0.000431,0.000823
106955000,0.0324,0.013523,0.002678,0.000431,0.000940
106956000,0.0324,0.013523,0.002678,0.000431,0.000705
106957000,0.0324,0.013523,0.002678,0.000431,0.000940
106958000,0.0324,0.013523,0.002678,0.000431,0.000823
106959000,0.0324,0.013523,0.002678,0.000431,0.000823
106960000,0.0324,0.013523,0.002678,0.000431,0.000940
106961000,0.0324,0.013523,0.002678,0.000431,0.000705
106962000,0.0324,0.013523,0.002678,0.000431,0.000940
106963000,0.0324,0.013523,0.002678,0.000431,0.000823
106964000,0.0324,0.013523,0.002678,0.000431,0.000823
106965000,0.0324,0.013523,0.002678,0.000431,0.000823
106966000,0.0324,0.013523,0.002678,0.000431,0.000823
106967000,0.0324,0.013523,0.002678,0.000431,0.000940
106968000,0.0324,0.013523,0.002678,0.000431,0.000705
106969000,0.0324,0.013523,0.002678,0.000431,0.000940
106970000,0.0324,0.013523,0.002678,0.000431,0.000823
106971000,0.0324,0.013523,0.002678,0.000431,0.000823
106972000,0.0324,0.013523,0.002678,0.000431,0.000823
106973000,0.0324,0.013523,0.002678,0.000431,0.000823
106974000,0.0324,0.013523,0.002678,0.000431,0.000823
106975000,0.0324,0.013523,0.002678,0.000431,0.000823
106976000,0.0324,0.013523,0.002678,0.000431,0.000823
106977000,0.0324,0.013523,0.002678,0.000431,0.000823
106978000,0.0324,0.013523,0.002678,0.000431,0.000940
106979000,0.0324,0.013523,0.002678,0.000431,0.000823
106980000,0.0324,0.013523,0.002678,0.000431,0.000823
106981000,0.0324,0.013523,0.002678,0.000431,0.000705
106982000,0.0324,0.013523,0.002678,0.000431,0.000940
106983000,0.0324,0.013523,0.002678,0.000431,0.000940
106984000,0.0324,0.013523,0.002678,0.000431,0.000705
106985000,0.0324,0.013523,0.002678,0.000431,0.000940
106986000,0.0324,0.013523,0.002678,0.000431,0.000823
106987000,0.0324,0.013523,0.002678,0.000431,0.000940
106988000,0.0324,0.013523,0.002678,0.000431,0.000823
106989000,0.0324,0.013523,0.002678,0.000431,0.000940
106990000,0.0324,0.013523,0.002678,0.000431,0.000823
106991000,0.0324,0.013523,0.002678,0.000431,0.000823
106992000,0.0324,0.013523,0.002678,0.000431,0.000940
106993000,0.0324,0.013523,0.002678,0.000431,0.000940
106994000,0.0324,0.013523,0.002678,0.000431,0.000823
106995000,0.0324,0.013523,0.002678,0.000431,0.000823
106996000,0.0324,0.013523,0.002678,0.000431,0.000940
106997000,0.0324,0.013523,0.002678,0.000431,0.000940
106998000,0.0324,0.013523,0.002678,0.000431,0.000705
106999000,0.0324,0.013523,0.002678,0.000431,0.000940
