Cycle,Area(mm^2),PeakDynamic(W),SubthresholdLeakage(W),GateLeakage(W),RunTimeDynamic(W)
82000000,0.0324,0.013523,0.002678,0.000431,0.002116
82001000,0.0324,0.013523,0.002678,0.000431,0.002233
82002000,0.0324,0.013523,0.002678,0.000431,0.001998
82003000,0.0324,0.013523,0.002678,0.000431,0.002586
82004000,0.0324,0.013523,0.002678,0.000431,0.001645
82005000,0.0324,0.013523,0.002678,0.000431,0.002351
82006000,0.0324,0.013523,0.002678,0.000431,0.002116
82007000,0.0324,0.013523,0.002678,0.000431,0.002116
82008000,0.0324,0.013523,0.002678,0.000431,0.004113
82009000,0.0324,0.013523,0.002678,0.000431,0.000940
82010000,0.0324,0.013523,0.002678,0.000431,0.001645
82011000,0.0324,0.013523,0.002678,0.000431,0.000940
82012000,0.0324,0.013523,0.002678,0.000431,0.001410
82013000,0.0324,0.013523,0.002678,0.000431,0.001293
82014000,0.0324,0.013523,0.002678,0.000431,0.001175
82015000,0.0324,0.013523,0.002678,0.000431,0.001528
82016000,0.0324,0.013523,0.002678,0.000431,0.000823
82017000,0.0324,0.013523,0.002678,0.000431,0.071457
82018000,0.0324,0.013523,0.002678,0.000431,0.492443
82019000,0.0324,0.013523,0.002678,0.000431,0.603625
82020000,0.0324,0.013523,0.002678,0.000431,0.131632
82021000,0.0324,0.013523,0.002678,0.000431,0.134452
82022000,0.0324,0.013523,0.002678,0.000431,0.548739
82023000,0.0324,0.013523,0.002678,0.000431,0.234821
82024000,0.0324,0.013523,0.002678,0.000431,0.273958
82025000,0.0324,0.013523,0.002678,0.000431,0.292645
82026000,0.0324,0.013523,0.002678,0.000431,0.139623
82027000,0.0324,0.013523,0.002678,0.000431,0.143032
82028000,0.0324,0.013523,0.002678,0.000431,0.130221
82029000,0.0324,0.013523,0.002678,0.000431,0.270197
82030000,0.0324,0.013523,0.002678,0.000431,0.346473
82031000,0.0324,0.013523,0.002678,0.000431,0.090262
82032000,0.0324,0.013523,0.002678,0.000431,0.077804
82033000,0.0324,0.013523,0.002678,0.000431,0.067579
82034000,0.0324,0.013523,0.002678,0.000431,0.060762
82035000,0.0324,0.013523,0.002678,0.000431,0.056531
82036000,0.0324,0.013523,0.002678,0.000431,0.044778
82037000,0.0324,0.013523,0.002678,0.000431,0.045836
82038000,0.0324,0.013523,0.002678,0.000431,0.044426
82039000,0.0324,0.013523,0.002678,0.000431,0.038784
82040000,0.0324,0.013523,0.002678,0.000431,0.037021
82041000,0.0324,0.013523,0.002678,0.000431,0.032908
82042000,0.0324,0.013523,0.002678,0.000431,0.029617
82043000,0.0324,0.013523,0.002678,0.000431,0.030087
82044000,0.0324,0.013523,0.002678,0.000431,0.031733
82045000,0.0324,0.013523,0.002678,0.000431,0.027384
82046000,0.0324,0.013523,0.002678,0.000431,0.023976
82047000,0.0324,0.013523,0.002678,0.000431,0.024681
82048000,0.0324,0.013523,0.002678,0.000431,0.024446
82049000,0.0324,0.013523,0.002678,0.000431,0.024211
82050000,0.0324,0.013523,0.002678,0.000431,0.021978
82051000,0.0324,0.013523,0.002678,0.000431,0.018099
82052000,0.0324,0.013523,0.002678,0.000431,0.019862
82053000,0.0324,0.013523,0.002678,0.000431,0.019627
82054000,0.0324,0.013523,0.002678,0.000431,0.018452
82055000,0.0324,0.013523,0.002678,0.000431,0.021508
82056000,0.0324,0.013523,0.002678,0.000431,0.020450
82057000,0.0324,0.013523,0.002678,0.000431,0.017277
82058000,0.0324,0.013523,0.002678,0.000431,0.018217
82059000,0.0324,0.013523,0.002678,0.000431,0.017512
82060000,0.0324,0.013523,0.002678,0.000431,0.013868
82061000,0.0324,0.013523,0.002678,0.000431,0.015749
82062000,0.0324,0.013523,0.002678,0.000431,0.019392
82063000,0.0324,0.013523,0.002678,0.000431,0.013046
82064000,0.0324,0.013523,0.002678,0.000431,0.013163
82065000,0.0324,0.013523,0.002678,0.000431,0.012105
82066000,0.0324,0.013523,0.002678,0.000431,0.013281
82067000,0.0324,0.013523,0.002678,0.000431,0.011753
82068000,0.0324,0.013523,0.002678,0.000431,0.012693
82069000,0.0324,0.013523,0.002678,0.000431,0.010460
82070000,0.0324,0.013523,0.002678,0.000431,0.010578
82071000,0.0324,0.013523,0.002678,0.000431,0.010695
82072000,0.0324,0.013523,0.002678,0.000431,0.009990
82073000,0.0324,0.013523,0.002678,0.000431,0.010342
82074000,0.0324,0.013523,0.002678,0.000431,0.009167
82075000,0.0324,0.013523,0.002678,0.000431,0.009755
82076000,0.0324,0.013523,0.002678,0.000431,0.009755
82077000,0.0324,0.013523,0.002678,0.000431,0.009167
82078000,0.0324,0.013523,0.002678,0.000431,0.009167
82079000,0.0324,0.013523,0.002678,0.000431,0.009755
82080000,0.0324,0.013523,0.002678,0.000431,0.009402
82081000,0.0324,0.013523,0.002678,0.000431,0.009872
82082000,0.0324,0.013523,0.002678,0.000431,0.010578
82083000,0.0324,0.013523,0.002678,0.000431,0.010342
82084000,0.0324,0.013523,0.002678,0.000431,0.007874
82085000,0.0324,0.013523,0.002678,0.000431,0.007169
82086000,0.0324,0.013523,0.002678,0.000431,0.008227
82087000,0.0324,0.013523,0.002678,0.000431,0.009990
82088000,0.0324,0.013523,0.002678,0.000431,0.007639
82089000,0.0324,0.013523,0.002678,0.000431,0.005524
82090000,0.0324,0.013523,0.002678,0.000431,0.006464
82091000,0.0324,0.013523,0.002678,0.000431,0.005876
82092000,0.0324,0.013523,0.002678,0.000431,0.005759
82093000,0.0324,0.013523,0.002678,0.000431,0.006699
82094000,0.0324,0.013523,0.002678,0.000431,0.005524
82095000,0.0324,0.013523,0.002678,0.000431,0.006582
82096000,0.0324,0.013523,0.002678,0.000431,0.005524
82097000,0.0324,0.013523,0.002678,0.000431,0.005994
82098000,0.0324,0.013523,0.002678,0.000431,0.006464
82099000,0.0324,0.013523,0.002678,0.000431,0.005759
82100000,0.0324,0.013523,0.002678,0.000431,0.007169
82101000,0.0324,0.013523,0.002678,0.000431,0.006347
82102000,0.0324,0.013523,0.002678,0.000431,0.005171
82103000,0.0324,0.013523,0.002678,0.000431,0.005524
82104000,0.0324,0.013523,0.002678,0.000431,0.004466
82105000,0.0324,0.013523,0.002678,0.000431,0.006817
82106000,0.0324,0.013523,0.002678,0.000431,0.004231
82107000,0.0324,0.013523,0.002678,0.000431,0.004584
82108000,0.0324,0.013523,0.002678,0.000431,0.004113
82109000,0.0324,0.013523,0.002678,0.000431,0.004466
82110000,0.0324,0.013523,0.002678,0.000431,0.005759
82111000,0.0324,0.013523,0.002678,0.000431,0.003408
82112000,0.0324,0.013523,0.002678,0.000431,0.003878
82113000,0.0324,0.013523,0.002678,0.000431,0.003173
82114000,0.0324,0.013523,0.002678,0.000431,0.003408
82115000,0.0324,0.013523,0.002678,0.000431,0.003643
82116000,0.0324,0.013523,0.002678,0.000431,0.003291
82117000,0.0324,0.013523,0.002678,0.000431,0.003761
82118000,0.0324,0.013523,0.002678,0.000431,0.003291
82119000,0.0324,0.013523,0.002678,0.000431,0.003408
82120000,0.0324,0.013523,0.002678,0.000431,0.003643
82121000,0.0324,0.013523,0.002678,0.000431,0.003878
82122000,0.0324,0.013523,0.002678,0.000431,0.004701
82123000,0.0324,0.013523,0.002678,0.000431,0.002586
82124000,0.0324,0.013523,0.002678,0.000431,0.002233
82125000,0.0324,0.013523,0.002678,0.000431,0.002468
82126000,0.0324,0.013523,0.002678,0.000431,0.002468
82127000,0.0324,0.013523,0.002678,0.000431,0.002468
82128000,0.0324,0.013523,0.002678,0.000431,0.002233
82129000,0.0324,0.013523,0.002678,0.000431,0.002468
82130000,0.0324,0.013523,0.002678,0.000431,0.002233
82131000,0.0324,0.013523,0.002678,0.000431,0.002233
82132000,0.0324,0.013523,0.002678,0.000431,0.002351
82133000,0.0324,0.013523,0.002678,0.000431,0.002468
82134000,0.0324,0.013523,0.002678,0.000431,0.002468
82135000,0.0324,0.013523,0.002678,0.000431,0.002116
82136000,0.0324,0.013523,0.002678,0.000431,0.002821
82137000,0.0324,0.013523,0.002678,0.000431,0.002116
82138000,0.0324,0.013523,0.002678,0.000431,0.002821
82139000,0.0324,0.013523,0.002678,0.000431,0.002233
82140000,0.0324,0.013523,0.002678,0.000431,0.002703
82141000,0.0324,0.013523,0.002678,0.000431,0.002586
82142000,0.0324,0.013523,0.002678,0.000431,0.002233
82143000,0.0324,0.013523,0.002678,0.000431,0.002703
82144000,0.0324,0.013523,0.002678,0.000431,0.002233
82145000,0.0324,0.013523,0.002678,0.000431,0.002703
82146000,0.0324,0.013523,0.002678,0.000431,0.005171
82147000,0.0324,0.013523,0.002678,0.000431,0.001528
82148000,0.0324,0.013523,0.002678,0.000431,0.001645
82149000,0.0324,0.013523,0.002678,0.000431,0.001528
82150000,0.0324,0.013523,0.002678,0.000431,0.001528
82151000,0.0324,0.013523,0.002678,0.000431,0.001645
82152000,0.0324,0.013523,0.002678,0.000431,0.001410
82153000,0.0324,0.013523,0.002678,0.000431,0.001645
82154000,0.0324,0.013523,0.002678,0.000431,0.001645
82155000,0.0324,0.013523,0.002678,0.000431,0.001410
82156000,0.0324,0.013523,0.002678,0.000431,0.001880
82157000,0.0324,0.013523,0.002678,0.000431,0.001410
82158000,0.0324,0.013523,0.002678,0.000431,0.001645
82159000,0.0324,0.013523,0.002678,0.000431,0.001528
82160000,0.0324,0.013523,0.002678,0.000431,0.001528
82161000,0.0324,0.013523,0.002678,0.000431,0.001880
82162000,0.0324,0.013523,0.002678,0.000431,0.001175
82163000,0.0324,0.013523,0.002678,0.000431,0.001880
82164000,0.0324,0.013523,0.002678,0.000431,0.001293
82165000,0.0324,0.013523,0.002678,0.000431,0.001763
82166000,0.0324,0.013523,0.002678,0.000431,0.001645
82167000,0.0324,0.013523,0.002678,0.000431,0.001410
82168000,0.0324,0.013523,0.002678,0.000431,0.001645
82169000,0.0324,0.013523,0.002678,0.000431,0.001528
82170000,0.0324,0.013523,0.002678,0.000431,0.001528
82171000,0.0324,0.013523,0.002678,0.000431,0.001645
82172000,0.0324,0.013523,0.002678,0.000431,0.001410
82173000,0.0324,0.013523,0.002678,0.000431,0.001645
82174000,0.0324,0.013523,0.002678,0.000431,0.001645
82175000,0.0324,0.013523,0.002678,0.000431,0.001410
82176000,0.0324,0.013523,0.002678,0.000431,0.001880
82177000,0.0324,0.013523,0.002678,0.000431,0.001410
82178000,0.0324,0.013523,0.002678,0.000431,0.001645
82179000,0.0324,0.013523,0.002678,0.000431,0.001528
82180000,0.0324,0.013523,0.002678,0.000431,0.001528
82181000,0.0324,0.013523,0.002678,0.000431,0.001880
82182000,0.0324,0.013523,0.002678,0.000431,0.001175
82183000,0.0324,0.013523,0.002678,0.000431,0.001880
82184000,0.0324,0.013523,0.002678,0.000431,0.001410
82185000,0.0324,0.013523,0.002678,0.000431,0.001645
82186000,0.0324,0.013523,0.002678,0.000431,0.001645
82187000,0.0324,0.013523,0.002678,0.000431,0.001410
82188000,0.0324,0.013523,0.002678,0.000431,0.001645
82189000,0.0324,0.013523,0.002678,0.000431,0.001645
82190000,0.0324,0.013523,0.002678,0.000431,0.001645
82191000,0.0324,0.013523,0.002678,0.000431,0.001410
82192000,0.0324,0.013523,0.002678,0.000431,0.001645
82193000,0.0324,0.013523,0.002678,0.000431,0.001410
82194000,0.0324,0.013523,0.002678,0.000431,0.001880
82195000,0.0324,0.013523,0.002678,0.000431,0.001410
82196000,0.0324,0.013523,0.002678,0.000431,0.001645
82197000,0.0324,0.013523,0.002678,0.000431,0.001293
82198000,0.0324,0.013523,0.002678,0.000431,0.001763
82199000,0.0324,0.013523,0.002678,0.000431,0.001880
82200000,0.0324,0.013523,0.002678,0.000431,0.001175
82201000,0.0324,0.013523,0.002678,0.000431,0.001880
82202000,0.0324,0.013523,0.002678,0.000431,0.001293
82203000,0.0324,0.013523,0.002678,0.000431,0.001763
82204000,0.0324,0.013523,0.002678,0.000431,0.001645
82205000,0.0324,0.013523,0.002678,0.000431,0.001410
82206000,0.0324,0.013523,0.002678,0.000431,0.001645
82207000,0.0324,0.013523,0.002678,0.000431,0.001528
82208000,0.0324,0.013523,0.002678,0.000431,0.001528
82209000,0.0324,0.013523,0.002678,0.000431,0.001645
82210000,0.0324,0.013523,0.002678,0.000431,0.001645
82211000,0.0324,0.013523,0.002678,0.000431,0.001410
82212000,0.0324,0.013523,0.002678,0.000431,0.001645
82213000,0.0324,0.013523,0.002678,0.000431,0.001645
82214000,0.0324,0.013523,0.002678,0.000431,0.001645
82215000,0.0324,0.013523,0.002678,0.000431,0.001410
82216000,0.0324,0.013523,0.002678,0.000431,0.001645
82217000,0.0324,0.013523,0.002678,0.000431,0.001528
82218000,0.0324,0.013523,0.002678,0.000431,0.001528
82219000,0.0324,0.013523,0.002678,0.000431,0.001880
82220000,0.0324,0.013523,0.002678,0.000431,0.001175
82221000,0.0324,0.013523,0.002678,0.000431,0.001880
82222000,0.0324,0.013523,0.002678,0.000431,0.001528
82223000,0.0324,0.013523,0.002678,0.000431,0.001528
82224000,0.0324,0.013523,0.002678,0.000431,0.001645
82225000,0.0324,0.013523,0.002678,0.000431,0.001410
82226000,0.0324,0.013523,0.002678,0.000431,0.001645
82227000,0.0324,0.013523,0.002678,0.000431,0.001645
82228000,0.0324,0.013523,0.002678,0.000431,0.001645
82229000,0.0324,0.013523,0.002678,0.000431,0.001410
82230000,0.0324,0.013523,0.002678,0.000431,0.001645
82231000,0.0324,0.013523,0.002678,0.000431,0.001645
82232000,0.0324,0.013523,0.002678,0.000431,0.001645
82233000,0.0324,0.013523,0.002678,0.000431,0.001410
82234000,0.0324,0.013523,0.002678,0.000431,0.001645
82235000,0.0324,0.013523,0.002678,0.000431,0.001293
82236000,0.0324,0.013523,0.002678,0.000431,0.001763
82237000,0.0324,0.013523,0.002678,0.000431,0.001880
82238000,0.0324,0.013523,0.002678,0.000431,0.001175
82239000,0.0324,0.013523,0.002678,0.000431,0.001880
82240000,0.0324,0.013523,0.002678,0.000431,0.001293
82241000,0.0324,0.013523,0.002678,0.000431,0.001763
82242000,0.0324,0.013523,0.002678,0.000431,0.001645
82243000,0.0324,0.013523,0.002678,0.000431,0.001410
82244000,0.0324,0.013523,0.002678,0.000431,0.001645
82245000,0.0324,0.013523,0.002678,0.000431,0.001528
82246000,0.0324,0.013523,0.002678,0.000431,0.001763
82247000,0.0324,0.013523,0.002678,0.000431,0.001410
82248000,0.0324,0.013523,0.002678,0.000431,0.001645
82249000,0.0324,0.013523,0.002678,0.000431,0.001645
82250000,0.0324,0.013523,0.002678,0.000431,0.001528
82251000,0.0324,0.013523,0.002678,0.000431,0.001528
82252000,0.0324,0.013523,0.002678,0.000431,0.001645
82253000,0.0324,0.013523,0.002678,0.000431,0.001410
82254000,0.0324,0.013523,0.002678,0.000431,0.001645
82255000,0.0324,0.013523,0.002678,0.000431,0.001645
82256000,0.0324,0.013523,0.002678,0.000431,0.001410
82257000,0.0324,0.013523,0.002678,0.000431,0.001880
82258000,0.0324,0.013523,0.002678,0.000431,0.001175
82259000,0.0324,0.013523,0.002678,0.000431,0.001880
82260000,0.0324,0.013523,0.002678,0.000431,0.001528
82261000,0.0324,0.013523,0.002678,0.000431,0.001410
82262000,0.0324,0.013523,0.002678,0.000431,0.000940
82263000,0.0324,0.013523,0.002678,0.000431,0.000705
82264000,0.0324,0.013523,0.002678,0.000431,0.000940
82265000,0.0324,0.013523,0.002678,0.000431,0.000823
82266000,0.0324,0.013523,0.002678,0.000431,0.000823
82267000,0.0324,0.013523,0.002678,0.000431,0.000940
82268000,0.0324,0.013523,0.002678,0.000431,0.000823
82269000,0.0324,0.013523,0.002678,0.000431,0.000823
82270000,0.0324,0.013523,0.002678,0.000431,0.000940
82271000,0.0324,0.013523,0.002678,0.000431,0.000705
82272000,0.0324,0.013523,0.002678,0.000431,0.000940
82273000,0.0324,0.013523,0.002678,0.000431,0.000823
82274000,0.0324,0.013523,0.002678,0.000431,0.000823
82275000,0.0324,0.013523,0.002678,0.000431,0.000940
82276000,0.0324,0.013523,0.002678,0.000431,0.152317
82277000,0.0324,0.013523,0.002678,0.000431,0.504548
82278000,0.0324,0.013523,0.002678,0.000431,0.532638
82279000,0.0324,0.013523,0.002678,0.000431,0.134922
82280000,0.0324,0.013523,0.002678,0.000431,0.131632
82281000,0.0324,0.013523,0.002678,0.000431,0.569894
82282000,0.0324,0.013523,0.002678,0.000431,0.245046
82283000,0.0324,0.013523,0.002678,0.000431,0.278542
82284000,0.0324,0.013523,0.002678,0.000431,0.284183
82285000,0.0324,0.013523,0.002678,0.000431,0.139741
82286000,0.0324,0.013523,0.002678,0.000431,0.149261
82287000,0.0324,0.013523,0.002678,0.000431,0.114002
82288000,0.0324,0.013523,0.002678,0.000431,0.409703
82289000,0.0324,0.013523,0.002678,0.000431,0.168300
82290000,0.0324,0.013523,0.002678,0.000431,0.053945
82291000,0.0324,0.013523,0.002678,0.000431,0.047834
82292000,0.0324,0.013523,0.002678,0.000431,0.038432
82293000,0.0324,0.013523,0.002678,0.000431,0.037374
82294000,0.0324,0.013523,0.002678,0.000431,0.031498
82295000,0.0324,0.013523,0.002678,0.000431,0.027737
82296000,0.0324,0.013523,0.002678,0.000431,0.025386
82297000,0.0324,0.013523,0.002678,0.000431,0.023623
82298000,0.0324,0.013523,0.002678,0.000431,0.020802
82299000,0.0324,0.013523,0.002678,0.000431,0.024093
82300000,0.0324,0.013523,0.002678,0.000431,0.017394
82301000,0.0324,0.013523,0.002678,0.000431,0.010930
82302000,0.0324,0.013523,0.002678,0.000431,0.011165
82303000,0.0324,0.013523,0.002678,0.000431,0.011048
82304000,0.0324,0.013523,0.002678,0.000431,0.010225
82305000,0.0324,0.013523,0.002678,0.000431,0.010225
82306000,0.0324,0.013523,0.002678,0.000431,0.011283
82307000,0.0324,0.013523,0.002678,0.000431,0.010695
82308000,0.0324,0.013523,0.002678,0.000431,0.009520
82309000,0.0324,0.013523,0.002678,0.000431,0.008462
82310000,0.0324,0.013523,0.002678,0.000431,0.007757
82311000,0.0324,0.013523,0.002678,0.000431,0.007757
82312000,0.0324,0.013523,0.002678,0.000431,0.007639
82313000,0.0324,0.013523,0.002678,0.000431,0.007404
82314000,0.0324,0.013523,0.002678,0.000431,0.007757
82315000,0.0324,0.013523,0.002678,0.000431,0.007639
82316000,0.0324,0.013523,0.002678,0.000431,0.008697
82317000,0.0324,0.013523,0.002678,0.000431,0.009285
82318000,0.0324,0.013523,0.002678,0.000431,0.006229
82319000,0.0324,0.013523,0.002678,0.000431,0.005289
82320000,0.0324,0.013523,0.002678,0.000431,0.004936
82321000,0.0324,0.013523,0.002678,0.000431,0.005054
82322000,0.0324,0.013523,0.002678,0.000431,0.005171
82323000,0.0324,0.013523,0.002678,0.000431,0.005054
82324000,0.0324,0.013523,0.002678,0.000431,0.005171
82325000,0.0324,0.013523,0.002678,0.000431,0.006464
82326000,0.0324,0.013523,0.002678,0.000431,0.004466
82327000,0.0324,0.013523,0.002678,0.000431,0.006699
82328000,0.0324,0.013523,0.002678,0.000431,0.003526
82329000,0.0324,0.013523,0.002678,0.000431,0.003291
82330000,0.0324,0.013523,0.002678,0.000431,0.003408
82331000,0.0324,0.013523,0.002678,0.000431,0.003173
82332000,0.0324,0.013523,0.002678,0.000431,0.003408
82333000,0.0324,0.013523,0.002678,0.000431,0.003408
82334000,0.0324,0.013523,0.002678,0.000431,0.003291
82335000,0.0324,0.013523,0.002678,0.000431,0.003526
82336000,0.0324,0.013523,0.002678,0.000431,0.003173
82337000,0.0324,0.013523,0.002678,0.000431,0.003526
82338000,0.0324,0.013523,0.002678,0.000431,0.003056
82339000,0.0324,0.013523,0.002678,0.000431,0.003526
82340000,0.0324,0.013523,0.002678,0.000431,0.003408
82341000,0.0324,0.013523,0.002678,0.000431,0.003173
82342000,0.0324,0.013523,0.002678,0.000431,0.003643
82343000,0.0324,0.013523,0.002678,0.000431,0.002938
82344000,0.0324,0.013523,0.002678,0.000431,0.003761
82345000,0.0324,0.013523,0.002678,0.000431,0.003056
82346000,0.0324,0.013523,0.002678,0.000431,0.003526
82347000,0.0324,0.013523,0.002678,0.000431,0.003408
82348000,0.0324,0.013523,0.002678,0.000431,0.003173
82349000,0.0324,0.013523,0.002678,0.000431,0.003526
82350000,0.0324,0.013523,0.002678,0.000431,0.003173
82351000,0.0324,0.013523,0.002678,0.000431,0.003643
82352000,0.0324,0.013523,0.002678,0.000431,0.003291
82353000,0.0324,0.013523,0.002678,0.000431,0.003291
82354000,0.0324,0.013523,0.002678,0.000431,0.003291
82355000,0.0324,0.013523,0.002678,0.000431,0.003291
82356000,0.0324,0.013523,0.002678,0.000431,0.003526
82357000,0.0324,0.013523,0.002678,0.000431,0.003173
82358000,0.0324,0.013523,0.002678,0.000431,0.003408
82359000,0.0324,0.013523,0.002678,0.000431,0.003291
82360000,0.0324,0.013523,0.002678,0.000431,0.003291
82361000,0.0324,0.013523,0.002678,0.000431,0.003526
82362000,0.0324,0.013523,0.002678,0.000431,0.003408
82363000,0.0324,0.013523,0.002678,0.000431,0.003173
82364000,0.0324,0.013523,0.002678,0.000431,0.003643
82365000,0.0324,0.013523,0.002678,0.000431,0.003643
82366000,0.0324,0.013523,0.002678,0.000431,0.003173
82367000,0.0324,0.013523,0.002678,0.000431,0.004466
82368000,0.0324,0.013523,0.002678,0.000431,0.002351
82369000,0.0324,0.013523,0.002678,0.000431,0.002586
82370000,0.0324,0.013523,0.002678,0.000431,0.002586
82371000,0.0324,0.013523,0.002678,0.000431,0.002468
82372000,0.0324,0.013523,0.002678,0.000431,0.002703
82373000,0.0324,0.013523,0.002678,0.000431,0.002116
82374000,0.0324,0.013523,0.002678,0.000431,0.002821
82375000,0.0324,0.013523,0.002678,0.000431,0.002586
82376000,0.0324,0.013523,0.002678,0.000431,0.002351
82377000,0.0324,0.013523,0.002678,0.000431,0.002586
82378000,0.0324,0.013523,0.002678,0.000431,0.002351
82379000,0.0324,0.013523,0.002678,0.000431,0.002586
82380000,0.0324,0.013523,0.002678,0.000431,0.002468
82381000,0.0324,0.013523,0.002678,0.000431,0.002703
82382000,0.0324,0.013523,0.002678,0.000431,0.002351
82383000,0.0324,0.013523,0.002678,0.000431,0.002468
82384000,0.0324,0.013523,0.002678,0.000431,0.002703
82385000,0.0324,0.013523,0.002678,0.000431,0.002468
82386000,0.0324,0.013523,0.002678,0.000431,0.002586
82387000,0.0324,0.013523,0.002678,0.000431,0.002468
82388000,0.0324,0.013523,0.002678,0.000431,0.003408
82389000,0.0324,0.013523,0.002678,0.000431,0.002468
82390000,0.0324,0.013523,0.002678,0.000431,0.001763
82391000,0.0324,0.013523,0.002678,0.000431,0.001645
82392000,0.0324,0.013523,0.002678,0.000431,0.001645
82393000,0.0324,0.013523,0.002678,0.000431,0.001645
82394000,0.0324,0.013523,0.002678,0.000431,0.001763
82395000,0.0324,0.013523,0.002678,0.000431,0.001763
82396000,0.0324,0.013523,0.002678,0.000431,0.001528
82397000,0.0324,0.013523,0.002678,0.000431,0.001763
82398000,0.0324,0.013523,0.002678,0.000431,0.001645
82399000,0.0324,0.013523,0.002678,0.000431,0.001645
82400000,0.0324,0.013523,0.002678,0.000431,0.001763
82401000,0.0324,0.013523,0.002678,0.000431,0.001645
82402000,0.0324,0.013523,0.002678,0.000431,0.001763
82403000,0.0324,0.013523,0.002678,0.000431,0.001410
82404000,0.0324,0.013523,0.002678,0.000431,0.001880
82405000,0.0324,0.013523,0.002678,0.000431,0.001763
82406000,0.0324,0.013523,0.002678,0.000431,0.001528
82407000,0.0324,0.013523,0.002678,0.000431,0.001763
82408000,0.0324,0.013523,0.002678,0.000431,0.001645
82409000,0.0324,0.013523,0.002678,0.000431,0.001645
82410000,0.0324,0.013523,0.002678,0.000431,0.003643
82411000,0.0324,0.013523,0.002678,0.000431,0.000940
82412000,0.0324,0.013523,0.002678,0.000431,0.000823
82413000,0.0324,0.013523,0.002678,0.000431,0.000940
82414000,0.0324,0.013523,0.002678,0.000431,0.000823
82415000,0.0324,0.013523,0.002678,0.000431,0.000823
82416000,0.0324,0.013523,0.002678,0.000431,0.000705
82417000,0.0324,0.013523,0.002678,0.000431,0.000940
82418000,0.0324,0.013523,0.002678,0.000431,0.000940
82419000,0.0324,0.013523,0.002678,0.000431,0.000705
82420000,0.0324,0.013523,0.002678,0.000431,0.000940
82421000,0.0324,0.013523,0.002678,0.000431,0.000705
82422000,0.0324,0.013523,0.002678,0.000431,0.000940
82423000,0.0324,0.013523,0.002678,0.000431,0.000823
82424000,0.0324,0.013523,0.002678,0.000431,0.000940
82425000,0.0324,0.013523,0.002678,0.000431,0.000823
82426000,0.0324,0.013523,0.002678,0.000431,0.070869
82427000,0.0324,0.013523,0.002678,0.000431,0.460123
82428000,0.0324,0.013523,0.002678,0.000431,0.592695
82429000,0.0324,0.013523,0.002678,0.000431,0.131749
82430000,0.0324,0.013523,0.002678,0.000431,0.134217
82431000,0.0324,0.013523,0.002678,0.000431,0.559904
82432000,0.0324,0.013523,0.002678,0.000431,0.230238
82433000,0.0324,0.013523,0.002678,0.000431,0.272783
82434000,0.0324,0.013523,0.002678,0.000431,0.333545
82435000,0.0324,0.013523,0.002678,0.000431,0.140211
82436000,0.0324,0.013523,0.002678,0.000431,0.144912
82437000,0.0324,0.013523,0.002678,0.000431,0.116941
82438000,0.0324,0.013523,0.002678,0.000431,0.322850
82439000,0.0324,0.013523,0.002678,0.000431,0.295348
82440000,0.0324,0.013523,0.002678,0.000431,0.075218
82441000,0.0324,0.013523,0.002678,0.000431,0.066521
82442000,0.0324,0.013523,0.002678,0.000431,0.059352
82443000,0.0324,0.013523,0.002678,0.000431,0.042428
82444000,0.0324,0.013523,0.002678,0.000431,0.036551
82445000,0.0324,0.013523,0.002678,0.000431,0.036434
82446000,0.0324,0.013523,0.002678,0.000431,0.033848
82447000,0.0324,0.013523,0.002678,0.000431,0.024916
82448000,0.0324,0.013523,0.002678,0.000431,0.024211
82449000,0.0324,0.013523,0.002678,0.000431,0.020097
82450000,0.0324,0.013523,0.002678,0.000431,0.020802
82451000,0.0324,0.013523,0.002678,0.000431,0.013633
82452000,0.0324,0.013523,0.002678,0.000431,0.010695
82453000,0.0324,0.013523,0.002678,0.000431,0.008932
82454000,0.0324,0.013523,0.002678,0.000431,0.010695
82455000,0.0324,0.013523,0.002678,0.000431,0.008932
82456000,0.0324,0.013523,0.002678,0.000431,0.010578
82457000,0.0324,0.013523,0.002678,0.000431,0.005289
82458000,0.0324,0.013523,0.002678,0.000431,0.004584
82459000,0.0324,0.013523,0.002678,0.000431,0.005406
82460000,0.0324,0.013523,0.002678,0.000431,0.004701
82461000,0.0324,0.013523,0.002678,0.000431,0.004936
82462000,0.0324,0.013523,0.002678,0.000431,0.004701
82463000,0.0324,0.013523,0.002678,0.000431,0.004936
82464000,0.0324,0.013523,0.002678,0.000431,0.006111
82465000,0.0324,0.013523,0.002678,0.000431,0.004231
82466000,0.0324,0.013523,0.002678,0.000431,0.002468
82467000,0.0324,0.013523,0.002678,0.000431,0.002586
82468000,0.0324,0.013523,0.002678,0.000431,0.002586
82469000,0.0324,0.013523,0.002678,0.000431,0.002703
82470000,0.0324,0.013523,0.002678,0.000431,0.002233
82471000,0.0324,0.013523,0.002678,0.000431,0.002586
82472000,0.0324,0.013523,0.002678,0.000431,0.002821
82473000,0.0324,0.013523,0.002678,0.000431,0.002351
82474000,0.0324,0.013523,0.002678,0.000431,0.002703
82475000,0.0324,0.013523,0.002678,0.000431,0.002351
82476000,0.0324,0.013523,0.002678,0.000431,0.004113
82477000,0.0324,0.013523,0.002678,0.000431,0.001645
82478000,0.0324,0.013523,0.002678,0.000431,0.001645
82479000,0.0324,0.013523,0.002678,0.000431,0.001880
82480000,0.0324,0.013523,0.002678,0.000431,0.001645
82481000,0.0324,0.013523,0.002678,0.000431,0.001763
82482000,0.0324,0.013523,0.002678,0.000431,0.001528
82483000,0.0324,0.013523,0.002678,0.000431,0.001880
82484000,0.0324,0.013523,0.002678,0.000431,0.001763
82485000,0.0324,0.013523,0.002678,0.000431,0.001645
82486000,0.0324,0.013523,0.002678,0.000431,0.001528
82487000,0.0324,0.013523,0.002678,0.000431,0.001880
82488000,0.0324,0.013523,0.002678,0.000431,0.001763
82489000,0.0324,0.013523,0.002678,0.000431,0.001645
82490000,0.0324,0.013523,0.002678,0.000431,0.001763
82491000,0.0324,0.013523,0.002678,0.000431,0.001645
82492000,0.0324,0.013523,0.002678,0.000431,0.001645
82493000,0.0324,0.013523,0.002678,0.000431,0.001645
82494000,0.0324,0.013523,0.002678,0.000431,0.001880
82495000,0.0324,0.013523,0.002678,0.000431,0.001763
82496000,0.0324,0.013523,0.002678,0.000431,0.001645
82497000,0.0324,0.013523,0.002678,0.000431,0.001528
82498000,0.0324,0.013523,0.002678,0.000431,0.001880
82499000,0.0324,0.013523,0.002678,0.000431,0.001880
82500000,0.0324,0.013523,0.002678,0.000431,0.001410
82501000,0.0324,0.013523,0.002678,0.000431,0.001880
82502000,0.0324,0.013523,0.002678,0.000431,0.001645
82503000,0.0324,0.013523,0.002678,0.000431,0.001880
82504000,0.0324,0.013523,0.002678,0.000431,0.001528
82505000,0.0324,0.013523,0.002678,0.000431,0.001763
82506000,0.0324,0.013523,0.002678,0.000431,0.001880
82507000,0.0324,0.013523,0.002678,0.000431,0.001528
82508000,0.0324,0.013523,0.002678,0.000431,0.001763
82509000,0.0324,0.013523,0.002678,0.000431,0.001763
82510000,0.0324,0.013523,0.002678,0.000431,0.001763
82511000,0.0324,0.013523,0.002678,0.000431,0.001645
82512000,0.0324,0.013523,0.002678,0.000431,0.003173
82513000,0.0324,0.013523,0.002678,0.000431,0.000940
82514000,0.0324,0.013523,0.002678,0.000431,0.000823
82515000,0.0324,0.013523,0.002678,0.000431,0.000940
82516000,0.0324,0.013523,0.002678,0.000431,0.000823
82517000,0.0324,0.013523,0.002678,0.000431,0.000940
82518000,0.0324,0.013523,0.002678,0.000431,0.000823
82519000,0.0324,0.013523,0.002678,0.000431,0.000823
82520000,0.0324,0.013523,0.002678,0.000431,0.000940
82521000,0.0324,0.013523,0.002678,0.000431,0.000940
82522000,0.0324,0.013523,0.002678,0.000431,0.000940
82523000,0.0324,0.013523,0.002678,0.000431,0.000705
82524000,0.0324,0.013523,0.002678,0.000431,0.000940
82525000,0.0324,0.013523,0.002678,0.000431,0.000940
82526000,0.0324,0.013523,0.002678,0.000431,0.000823
82527000,0.0324,0.013523,0.002678,0.000431,0.000823
82528000,0.0324,0.013523,0.002678,0.000431,0.000940
82529000,0.0324,0.013523,0.002678,0.000431,0.000823
82530000,0.0324,0.013523,0.002678,0.000431,0.000940
82531000,0.0324,0.013523,0.002678,0.000431,0.000823
82532000,0.0324,0.013523,0.002678,0.000431,0.000940
82533000,0.0324,0.013523,0.002678,0.000431,0.000823
82534000,0.0324,0.013523,0.002678,0.000431,0.000823
82535000,0.0324,0.013523,0.002678,0.000431,0.000940
82536000,0.0324,0.013523,0.002678,0.000431,0.000940
82537000,0.0324,0.013523,0.002678,0.000431,0.000823
82538000,0.0324,0.013523,0.002678,0.000431,0.000823
82539000,0.0324,0.013523,0.002678,0.000431,0.000940
82540000,0.0324,0.013523,0.002678,0.000431,0.000940
82541000,0.0324,0.013523,0.002678,0.000431,0.000705
82542000,0.0324,0.013523,0.002678,0.000431,0.000940
82543000,0.0324,0.013523,0.002678,0.000431,0.000940
82544000,0.0324,0.013523,0.002678,0.000431,0.000940
82545000,0.0324,0.013523,0.002678,0.000431,0.000823
82546000,0.0324,0.013523,0.002678,0.000431,0.000823
82547000,0.0324,0.013523,0.002678,0.000431,0.000940
82548000,0.0324,0.013523,0.002678,0.000431,0.000823
82549000,0.0324,0.013523,0.002678,0.000431,0.000940
82550000,0.0324,0.013523,0.002678,0.000431,0.000823
82551000,0.0324,0.013523,0.002678,0.000431,0.000940
82552000,0.0324,0.013523,0.002678,0.000431,0.000823
82553000,0.0324,0.013523,0.002678,0.000431,0.000823
82554000,0.0324,0.013523,0.002678,0.000431,0.000940
82555000,0.0324,0.013523,0.002678,0.000431,0.000940
82556000,0.0324,0.013523,0.002678,0.000431,0.000823
82557000,0.0324,0.013523,0.002678,0.000431,0.000823
82558000,0.0324,0.013523,0.002678,0.000431,0.000940
82559000,0.0324,0.013523,0.002678,0.000431,0.000940
82560000,0.0324,0.013523,0.002678,0.000431,0.000705
82561000,0.0324,0.013523,0.002678,0.000431,0.000940
82562000,0.0324,0.013523,0.002678,0.000431,0.000940
82563000,0.0324,0.013523,0.002678,0.000431,0.000940
82564000,0.0324,0.013523,0.002678,0.000431,0.000705
82565000,0.0324,0.013523,0.002678,0.000431,0.000940
82566000,0.0324,0.013523,0.002678,0.000431,0.000940
82567000,0.0324,0.013523,0.002678,0.000431,0.000823
82568000,0.0324,0.013523,0.002678,0.000431,0.000823
82569000,0.0324,0.013523,0.002678,0.000431,0.000940
82570000,0.0324,0.013523,0.002678,0.000431,0.000940
82571000,0.0324,0.013523,0.002678,0.000431,0.000823
82572000,0.0324,0.013523,0.002678,0.000431,0.000823
82573000,0.0324,0.013523,0.002678,0.000431,0.000940
82574000,0.0324,0.013523,0.002678,0.000431,0.000823
82575000,0.0324,0.013523,0.002678,0.000431,0.000823
82576000,0.0324,0.013523,0.002678,0.000431,0.000940
82577000,0.0324,0.013523,0.002678,0.000431,0.000940
82578000,0.0324,0.013523,0.002678,0.000431,0.000823
82579000,0.0324,0.013523,0.002678,0.000431,0.000823
82580000,0.0324,0.013523,0.002678,0.000431,0.000940
82581000,0.0324,0.013523,0.002678,0.000431,0.000940
82582000,0.0324,0.013523,0.002678,0.000431,0.000823
82583000,0.0324,0.013523,0.002678,0.000431,0.000823
82584000,0.0324,0.013523,0.002678,0.000431,0.000940
82585000,0.0324,0.013523,0.002678,0.000431,0.000940
82586000,0.0324,0.013523,0.002678,0.000431,0.000823
82587000,0.0324,0.013523,0.002678,0.000431,0.216487
82588000,0.0324,0.013523,0.002678,0.000431,0.597043
82589000,0.0324,0.013523,0.002678,0.000431,0.395247
82590000,0.0324,0.013523,0.002678,0.000431,0.131632
82591000,0.0324,0.013523,0.002678,0.000431,0.133512
82592000,0.0324,0.013523,0.002678,0.000431,0.583292
82593000,0.0324,0.013523,0.002678,0.000431,0.236232
82594000,0.0324,0.013523,0.002678,0.000431,0.257857
82595000,0.0324,0.013523,0.002678,0.000431,0.308747
82596000,0.0324,0.013523,0.002678,0.000431,0.143737
82597000,0.0324,0.013523,0.002678,0.000431,0.157958
82598000,0.0324,0.013523,0.002678,0.000431,0.103777
82599000,0.0324,0.013523,0.002678,0.000431,0.443199
82600000,0.0324,0.013523,0.002678,0.000431,0.121054
82601000,0.0324,0.013523,0.002678,0.000431,0.046894
82602000,0.0324,0.013523,0.002678,0.000431,0.038314
82603000,0.0324,0.013523,0.002678,0.000431,0.034788
82604000,0.0324,0.013523,0.002678,0.000431,0.034318
82605000,0.0324,0.013523,0.002678,0.000431,0.031145
82606000,0.0324,0.013523,0.002678,0.000431,0.026561
82607000,0.0324,0.013523,0.002678,0.000431,0.023036
82608000,0.0324,0.013523,0.002678,0.000431,0.023976
82609000,0.0324,0.013523,0.002678,0.000431,0.019745
82610000,0.0324,0.013523,0.002678,0.000431,0.023036
82611000,0.0324,0.013523,0.002678,0.000431,0.016689
82612000,0.0324,0.013523,0.002678,0.000431,0.017982
82613000,0.0324,0.013523,0.002678,0.000431,0.012928
82614000,0.0324,0.013523,0.002678,0.000431,0.012105
82615000,0.0324,0.013523,0.002678,0.000431,0.012928
82616000,0.0324,0.013523,0.002678,0.000431,0.012811
82617000,0.0324,0.013523,0.002678,0.000431,0.011635
82618000,0.0324,0.013523,0.002678,0.000431,0.012458
82619000,0.0324,0.013523,0.002678,0.000431,0.012693
82620000,0.0324,0.013523,0.002678,0.000431,0.012811
82621000,0.0324,0.013523,0.002678,0.000431,0.011870
82622000,0.0324,0.013523,0.002678,0.000431,0.012811
82623000,0.0324,0.013523,0.002678,0.000431,0.013163
82624000,0.0324,0.013523,0.002678,0.000431,0.011518
82625000,0.0324,0.013523,0.002678,0.000431,0.010813
82626000,0.0324,0.013523,0.002678,0.000431,0.011283
82627000,0.0324,0.013523,0.002678,0.000431,0.010695
82628000,0.0324,0.013523,0.002678,0.000431,0.009050
82629000,0.0324,0.013523,0.002678,0.000431,0.008932
82630000,0.0324,0.013523,0.002678,0.000431,0.009402
82631000,0.0324,0.013523,0.002678,0.000431,0.009167
82632000,0.0324,0.013523,0.002678,0.000431,0.009050
82633000,0.0324,0.013523,0.002678,0.000431,0.009637
82634000,0.0324,0.013523,0.002678,0.000431,0.008697
82635000,0.0324,0.013523,0.002678,0.000431,0.009755
82636000,0.0324,0.013523,0.002678,0.000431,0.010460
82637000,0.0324,0.013523,0.002678,0.000431,0.008815
82638000,0.0324,0.013523,0.002678,0.000431,0.008462
82639000,0.0324,0.013523,0.002678,0.000431,0.007992
82640000,0.0324,0.013523,0.002678,0.000431,0.008697
82641000,0.0324,0.013523,0.002678,0.000431,0.007992
82642000,0.0324,0.013523,0.002678,0.000431,0.008345
82643000,0.0324,0.013523,0.002678,0.000431,0.009285
82644000,0.0324,0.013523,0.002678,0.000431,0.007522
82645000,0.0324,0.013523,0.002678,0.000431,0.009520
82646000,0.0324,0.013523,0.002678,0.000431,0.006699
82647000,0.0324,0.013523,0.002678,0.000431,0.006817
82648000,0.0324,0.013523,0.002678,0.000431,0.005054
82649000,0.0324,0.013523,0.002678,0.000431,0.005876
82650000,0.0324,0.013523,0.002678,0.000431,0.004231
82651000,0.0324,0.013523,0.002678,0.000431,0.003408
82652000,0.0324,0.013523,0.002678,0.000431,0.003291
82653000,0.0324,0.013523,0.002678,0.000431,0.003643
82654000,0.0324,0.013523,0.002678,0.000431,0.003291
82655000,0.0324,0.013523,0.002678,0.000431,0.003526
82656000,0.0324,0.013523,0.002678,0.000431,0.003173
82657000,0.0324,0.013523,0.002678,0.000431,0.003408
82658000,0.0324,0.013523,0.002678,0.000431,0.003408
82659000,0.0324,0.013523,0.002678,0.000431,0.005171
82660000,0.0324,0.013523,0.002678,0.000431,0.003173
82661000,0.0324,0.013523,0.002678,0.000431,0.002938
82662000,0.0324,0.013523,0.002678,0.000431,0.001645
82663000,0.0324,0.013523,0.002678,0.000431,0.001645
82664000,0.0324,0.013523,0.002678,0.000431,0.001763
82665000,0.0324,0.013523,0.002678,0.000431,0.001528
82666000,0.0324,0.013523,0.002678,0.000431,0.003526
82667000,0.0324,0.013523,0.002678,0.000431,0.000823
82668000,0.0324,0.013523,0.002678,0.000431,0.000823
82669000,0.0324,0.013523,0.002678,0.000431,0.000823
82670000,0.0324,0.013523,0.002678,0.000431,0.000823
82671000,0.0324,0.013523,0.002678,0.000431,0.000940
82672000,0.0324,0.013523,0.002678,0.000431,0.000705
82673000,0.0324,0.013523,0.002678,0.000431,0.000940
82674000,0.0324,0.013523,0.002678,0.000431,0.000823
82675000,0.0324,0.013523,0.002678,0.000431,0.000823
82676000,0.0324,0.013523,0.002678,0.000431,0.000823
82677000,0.0324,0.013523,0.002678,0.000431,0.000823
82678000,0.0324,0.013523,0.002678,0.000431,0.000823
82679000,0.0324,0.013523,0.002678,0.000431,0.000823
82680000,0.0324,0.013523,0.002678,0.000431,0.000823
82681000,0.0324,0.013523,0.002678,0.000431,0.000823
82682000,0.0324,0.013523,0.002678,0.000431,0.000940
82683000,0.0324,0.013523,0.002678,0.000431,0.000823
82684000,0.0324,0.013523,0.002678,0.000431,0.000823
82685000,0.0324,0.013523,0.002678,0.000431,0.000705
82686000,0.0324,0.013523,0.002678,0.000431,0.000940
82687000,0.0324,0.013523,0.002678,0.000431,0.000940
82688000,0.0324,0.013523,0.002678,0.000431,0.000705
82689000,0.0324,0.013523,0.002678,0.000431,0.000940
82690000,0.0324,0.013523,0.002678,0.000431,0.000705
82691000,0.0324,0.013523,0.002678,0.000431,0.000940
82692000,0.0324,0.013523,0.002678,0.000431,0.000823
82693000,0.0324,0.013523,0.002678,0.000431,0.000823
82694000,0.0324,0.013523,0.002678,0.000431,0.000940
82695000,0.0324,0.013523,0.002678,0.000431,0.000705
82696000,0.0324,0.013523,0.002678,0.000431,0.000940
82697000,0.0324,0.013523,0.002678,0.000431,0.000823
82698000,0.0324,0.013523,0.002678,0.000431,0.000823
82699000,0.0324,0.013523,0.002678,0.000431,0.000823
82700000,0.0324,0.013523,0.002678,0.000431,0.000823
82701000,0.0324,0.013523,0.002678,0.000431,0.000823
82702000,0.0324,0.013523,0.002678,0.000431,0.000823
82703000,0.0324,0.013523,0.002678,0.000431,0.000940
82704000,0.0324,0.013523,0.002678,0.000431,0.000705
82705000,0.0324,0.013523,0.002678,0.000431,0.000940
82706000,0.0324,0.013523,0.002678,0.000431,0.000823
82707000,0.0324,0.013523,0.002678,0.000431,0.000823
82708000,0.0324,0.013523,0.002678,0.000431,0.000705
82709000,0.0324,0.013523,0.002678,0.000431,0.000940
82710000,0.0324,0.013523,0.002678,0.000431,0.000940
82711000,0.0324,0.013523,0.002678,0.000431,0.000705
82712000,0.0324,0.013523,0.002678,0.000431,0.000940
82713000,0.0324,0.013523,0.002678,0.000431,0.000705
82714000,0.0324,0.013523,0.002678,0.000431,0.000940
82715000,0.0324,0.013523,0.002678,0.000431,0.000823
82716000,0.0324,0.013523,0.002678,0.000431,0.000823
82717000,0.0324,0.013523,0.002678,0.000431,0.000940
82718000,0.0324,0.013523,0.002678,0.000431,0.000705
82719000,0.0324,0.013523,0.002678,0.000431,0.000940
82720000,0.0324,0.013523,0.002678,0.000431,0.000823
82721000,0.0324,0.013523,0.002678,0.000431,0.000823
82722000,0.0324,0.013523,0.002678,0.000431,0.000823
82723000,0.0324,0.013523,0.002678,0.000431,0.000823
82724000,0.0324,0.013523,0.002678,0.000431,0.000823
82725000,0.0324,0.013523,0.002678,0.000431,0.000823
82726000,0.0324,0.013523,0.002678,0.000431,0.000940
82727000,0.0324,0.013523,0.002678,0.000431,0.000705
82728000,0.0324,0.013523,0.002678,0.000431,0.000823
82729000,0.0324,0.013523,0.002678,0.000431,0.000940
82730000,0.0324,0.013523,0.002678,0.000431,0.000823
82731000,0.0324,0.013523,0.002678,0.000431,0.000823
82732000,0.0324,0.013523,0.002678,0.000431,0.000823
82733000,0.0324,0.013523,0.002678,0.000431,0.000823
82734000,0.0324,0.013523,0.002678,0.000431,0.000823
82735000,0.0324,0.013523,0.002678,0.000431,0.000940
82736000,0.0324,0.013523,0.002678,0.000431,0.000823
82737000,0.0324,0.013523,0.002678,0.000431,0.000823
82738000,0.0324,0.013523,0.002678,0.000431,0.000705
82739000,0.0324,0.013523,0.002678,0.000431,0.000940
82740000,0.0324,0.013523,0.002678,0.000431,0.000940
82741000,0.0324,0.013523,0.002678,0.000431,0.000705
82742000,0.0324,0.013523,0.002678,0.000431,0.000940
82743000,0.0324,0.013523,0.002678,0.000431,0.000705
82744000,0.0324,0.013523,0.002678,0.000431,0.000940
82745000,0.0324,0.013523,0.002678,0.000431,0.000823
82746000,0.0324,0.013523,0.002678,0.000431,0.000823
82747000,0.0324,0.013523,0.002678,0.000431,0.000940
82748000,0.0324,0.013523,0.002678,0.000431,0.000705
82749000,0.0324,0.013523,0.002678,0.000431,0.000940
82750000,0.0324,0.013523,0.002678,0.000431,0.000823
82751000,0.0324,0.013523,0.002678,0.000431,0.000823
82752000,0.0324,0.013523,0.002678,0.000431,0.000823
82753000,0.0324,0.013523,0.002678,0.000431,0.000823
82754000,0.0324,0.013523,0.002678,0.000431,0.000823
82755000,0.0324,0.013523,0.002678,0.000431,0.000823
82756000,0.0324,0.013523,0.002678,0.000431,0.000940
82757000,0.0324,0.013523,0.002678,0.000431,0.000705
82758000,0.0324,0.013523,0.002678,0.000431,0.000940
82759000,0.0324,0.013523,0.002678,0.000431,0.000823
82760000,0.0324,0.013523,0.002678,0.000431,0.000823
82761000,0.0324,0.013523,0.002678,0.000431,0.000705
82762000,0.0324,0.013523,0.002678,0.000431,0.000940
82763000,0.0324,0.013523,0.002678,0.000431,0.000940
82764000,0.0324,0.013523,0.002678,0.000431,0.000705
82765000,0.0324,0.013523,0.002678,0.000431,0.000940
82766000,0.0324,0.013523,0.002678,0.000431,0.000705
82767000,0.0324,0.013523,0.002678,0.000431,0.000940
82768000,0.0324,0.013523,0.002678,0.000431,0.000823
82769000,0.0324,0.013523,0.002678,0.000431,0.000823
82770000,0.0324,0.013523,0.002678,0.000431,0.000940
82771000,0.0324,0.013523,0.002678,0.000431,0.000823
82772000,0.0324,0.013523,0.002678,0.000431,0.000823
82773000,0.0324,0.013523,0.002678,0.000431,0.000940
82774000,0.0324,0.013523,0.002678,0.000431,0.000940
82775000,0.0324,0.013523,0.002678,0.000431,0.000823
82776000,0.0324,0.013523,0.002678,0.000431,0.000823
82777000,0.0324,0.013523,0.002678,0.000431,0.196742
82778000,0.0324,0.013523,0.002678,0.000431,0.533931
82779000,0.0324,0.013523,0.002678,0.000431,0.431328
82780000,0.0324,0.013523,0.002678,0.000431,0.132807
82781000,0.0324,0.013523,0.002678,0.000431,0.132102
82782000,0.0324,0.013523,0.002678,0.000431,0.592225
82783000,0.0324,0.013523,0.002678,0.000431,0.243753
82784000,0.0324,0.013523,0.002678,0.000431,0.295701
82785000,0.0324,0.013523,0.002678,0.000431,0.258562
82786000,0.0324,0.013523,0.002678,0.000431,0.135628
82787000,0.0324,0.013523,0.002678,0.000431,0.164304
82788000,0.0324,0.013523,0.002678,0.000431,0.096608
82789000,0.0324,0.013523,0.002678,0.000431,0.440848
82790000,0.0324,0.013523,0.002678,0.000431,0.153257
82791000,0.0324,0.013523,0.002678,0.000431,0.072280
82792000,0.0324,0.013523,0.002678,0.000431,0.064170
82793000,0.0324,0.013523,0.002678,0.000431,0.045954
82794000,0.0324,0.013523,0.002678,0.000431,0.048422
82795000,0.0324,0.013523,0.002678,0.000431,0.038197
82796000,0.0324,0.013523,0.002678,0.000431,0.030792
82797000,0.0324,0.013523,0.002678,0.000431,0.031262
82798000,0.0324,0.013523,0.002678,0.000431,0.022918
82799000,0.0324,0.013523,0.002678,0.000431,0.026914
82800000,0.0324,0.013523,0.002678,0.000431,0.024093
82801000,0.0324,0.013523,0.002678,0.000431,0.018099
82802000,0.0324,0.013523,0.002678,0.000431,0.016924
82803000,0.0324,0.013523,0.002678,0.000431,0.018922
82804000,0.0324,0.013523,0.002678,0.000431,0.016336
82805000,0.0324,0.013523,0.002678,0.000431,0.019392
82806000,0.0324,0.013523,0.002678,0.000431,0.015044
82807000,0.0324,0.013523,0.002678,0.000431,0.011988
82808000,0.0324,0.013523,0.002678,0.000431,0.011283
82809000,0.0324,0.013523,0.002678,0.000431,0.009285
82810000,0.0324,0.013523,0.002678,0.000431,0.009520
82811000,0.0324,0.013523,0.002678,0.000431,0.010342
82812000,0.0324,0.013523,0.002678,0.000431,0.008345
82813000,0.0324,0.013523,0.002678,0.000431,0.010695
82814000,0.0324,0.013523,0.002678,0.000431,0.007404
82815000,0.0324,0.013523,0.002678,0.000431,0.007757
82816000,0.0324,0.013523,0.002678,0.000431,0.007522
82817000,0.0324,0.013523,0.002678,0.000431,0.007639
82818000,0.0324,0.013523,0.002678,0.000431,0.009755
82819000,0.0324,0.013523,0.002678,0.000431,0.006582
82820000,0.0324,0.013523,0.002678,0.000431,0.006699
82821000,0.0324,0.013523,0.002678,0.000431,0.006817
82822000,0.0324,0.013523,0.002678,0.000431,0.006582
82823000,0.0324,0.013523,0.002678,0.000431,0.008815
82824000,0.0324,0.013523,0.002678,0.000431,0.005289
82825000,0.0324,0.013523,0.002678,0.000431,0.006464
82826000,0.0324,0.013523,0.002678,0.000431,0.005289
82827000,0.0324,0.013523,0.002678,0.000431,0.004819
82828000,0.0324,0.013523,0.002678,0.000431,0.004936
82829000,0.0324,0.013523,0.002678,0.000431,0.004584
82830000,0.0324,0.013523,0.002678,0.000431,0.005289
82831000,0.0324,0.013523,0.002678,0.000431,0.006582
82832000,0.0324,0.013523,0.002678,0.000431,0.005406
82833000,0.0324,0.013523,0.002678,0.000431,0.003643
82834000,0.0324,0.013523,0.002678,0.000431,0.002938
82835000,0.0324,0.013523,0.002678,0.000431,0.004231
82836000,0.0324,0.013523,0.002678,0.000431,0.003408
82837000,0.0324,0.013523,0.002678,0.000431,0.002351
82838000,0.0324,0.013523,0.002678,0.000431,0.002468
82839000,0.0324,0.013523,0.002678,0.000431,0.005994
82840000,0.0324,0.013523,0.002678,0.000431,0.000940
82841000,0.0324,0.013523,0.002678,0.000431,0.000823
82842000,0.0324,0.013523,0.002678,0.000431,0.000823
82843000,0.0324,0.013523,0.002678,0.000431,0.000823
82844000,0.0324,0.013523,0.002678,0.000431,0.000823
82845000,0.0324,0.013523,0.002678,0.000431,0.000823
82846000,0.0324,0.013523,0.002678,0.000431,0.000823
82847000,0.0324,0.013523,0.002678,0.000431,0.000940
82848000,0.0324,0.013523,0.002678,0.000431,0.000705
82849000,0.0324,0.013523,0.002678,0.000431,0.000940
82850000,0.0324,0.013523,0.002678,0.000431,0.013281
82851000,0.0324,0.013523,0.002678,0.000431,0.485626
82852000,0.0324,0.013523,0.002678,0.000431,0.617846
82853000,0.0324,0.013523,0.002678,0.000431,0.134922
82854000,0.0324,0.013523,0.002678,0.000431,0.131632
82855000,0.0324,0.013523,0.002678,0.000431,0.233293
82856000,0.0324,0.013523,0.002678,0.000431,0.525939
82857000,0.0324,0.013523,0.002678,0.000431,0.261500
82858000,0.0324,0.013523,0.002678,0.000431,0.330724
82859000,0.0324,0.013523,0.002678,0.000431,0.196155
82860000,0.0324,0.013523,0.002678,0.000431,0.137273
82861000,0.0324,0.013523,0.002678,0.000431,0.135980
82862000,0.0324,0.013523,0.002678,0.000431,0.254331
82863000,0.0324,0.013523,0.002678,0.000431,0.368451
82864000,0.0324,0.013523,0.002678,0.000431,0.077216
82865000,0.0324,0.013523,0.002678,0.000431,0.062525
82866000,0.0324,0.013523,0.002678,0.000431,0.048187
82867000,0.0324,0.013523,0.002678,0.000431,0.034201
82868000,0.0324,0.013523,0.002678,0.000431,0.031850
82869000,0.0324,0.013523,0.002678,0.000431,0.032203
82870000,0.0324,0.013523,0.002678,0.000431,0.024093
82871000,0.0324,0.013523,0.002678,0.000431,0.020215
82872000,0.0324,0.013523,0.002678,0.000431,0.018687
82873000,0.0324,0.013523,0.002678,0.000431,0.013398
82874000,0.0324,0.013523,0.002678,0.000431,0.011988
82875000,0.0324,0.013523,0.002678,0.000431,0.010695
82876000,0.0324,0.013523,0.002678,0.000431,0.014103
82877000,0.0324,0.013523,0.002678,0.000431,0.009167
82878000,0.0324,0.013523,0.002678,0.000431,0.009872
82879000,0.0324,0.013523,0.002678,0.000431,0.010578
82880000,0.0324,0.013523,0.002678,0.000431,0.008580
82881000,0.0324,0.013523,0.002678,0.000431,0.010578
82882000,0.0324,0.013523,0.002678,0.000431,0.011635
82883000,0.0324,0.013523,0.002678,0.000431,0.006934
82884000,0.0324,0.013523,0.002678,0.000431,0.006699
82885000,0.0324,0.013523,0.002678,0.000431,0.008109
82886000,0.0324,0.013523,0.002678,0.000431,0.006111
82887000,0.0324,0.013523,0.002678,0.000431,0.005641
82888000,0.0324,0.013523,0.002678,0.000431,0.005876
82889000,0.0324,0.013523,0.002678,0.000431,0.006934
82890000,0.0324,0.013523,0.002678,0.000431,0.004819
82891000,0.0324,0.013523,0.002678,0.000431,0.005171
82892000,0.0324,0.013523,0.002678,0.000431,0.004936
82893000,0.0324,0.013523,0.002678,0.000431,0.005171
82894000,0.0324,0.013523,0.002678,0.000431,0.005171
82895000,0.0324,0.013523,0.002678,0.000431,0.005054
82896000,0.0324,0.013523,0.002678,0.000431,0.004936
82897000,0.0324,0.013523,0.002678,0.000431,0.004936
82898000,0.0324,0.013523,0.002678,0.000431,0.005524
82899000,0.0324,0.013523,0.002678,0.000431,0.004936
82900000,0.0324,0.013523,0.002678,0.000431,0.006229
82901000,0.0324,0.013523,0.002678,0.000431,0.004466
82902000,0.0324,0.013523,0.002678,0.000431,0.004113
82903000,0.0324,0.013523,0.002678,0.000431,0.004231
82904000,0.0324,0.013523,0.002678,0.000431,0.006229
82905000,0.0324,0.013523,0.002678,0.000431,0.003408
82906000,0.0324,0.013523,0.002678,0.000431,0.003291
82907000,0.0324,0.013523,0.002678,0.000431,0.003643
82908000,0.0324,0.013523,0.002678,0.000431,0.003056
82909000,0.0324,0.013523,0.002678,0.000431,0.003643
82910000,0.0324,0.013523,0.002678,0.000431,0.003056
82911000,0.0324,0.013523,0.002678,0.000431,0.003526
82912000,0.0324,0.013523,0.002678,0.000431,0.003408
82913000,0.0324,0.013523,0.002678,0.000431,0.003173
82914000,0.0324,0.013523,0.002678,0.000431,0.003408
82915000,0.0324,0.013523,0.002678,0.000431,0.003291
82916000,0.0324,0.013523,0.002678,0.000431,0.003643
82917000,0.0324,0.013523,0.002678,0.000431,0.003056
82918000,0.0324,0.013523,0.002678,0.000431,0.003526
82919000,0.0324,0.013523,0.002678,0.000431,0.003173
82920000,0.0324,0.013523,0.002678,0.000431,0.003408
82921000,0.0324,0.013523,0.002678,0.000431,0.003408
82922000,0.0324,0.013523,0.002678,0.000431,0.003173
82923000,0.0324,0.013523,0.002678,0.000431,0.003526
82924000,0.0324,0.013523,0.002678,0.000431,0.003291
82925000,0.0324,0.013523,0.002678,0.000431,0.003408
82926000,0.0324,0.013523,0.002678,0.000431,0.003173
82927000,0.0324,0.013523,0.002678,0.000431,0.003526
82928000,0.0324,0.013523,0.002678,0.000431,0.003291
82929000,0.0324,0.013523,0.002678,0.000431,0.003291
82930000,0.0324,0.013523,0.002678,0.000431,0.003408
82931000,0.0324,0.013523,0.002678,0.000431,0.003173
82932000,0.0324,0.013523,0.002678,0.000431,0.003761
82933000,0.0324,0.013523,0.002678,0.000431,0.002938
82934000,0.0324,0.013523,0.002678,0.000431,0.003526
82935000,0.0324,0.013523,0.002678,0.000431,0.003526
82936000,0.0324,0.013523,0.002678,0.000431,0.003173
82937000,0.0324,0.013523,0.002678,0.000431,0.003408
82938000,0.0324,0.013523,0.002678,0.000431,0.003291
82939000,0.0324,0.013523,0.002678,0.000431,0.003173
82940000,0.0324,0.013523,0.002678,0.000431,0.003526
82941000,0.0324,0.013523,0.002678,0.000431,0.003526
82942000,0.0324,0.013523,0.002678,0.000431,0.003056
82943000,0.0324,0.013523,0.002678,0.000431,0.003526
82944000,0.0324,0.013523,0.002678,0.000431,0.003056
82945000,0.0324,0.013523,0.002678,0.000431,0.003526
82946000,0.0324,0.013523,0.002678,0.000431,0.003761
82947000,0.0324,0.013523,0.002678,0.000431,0.002821
82948000,0.0324,0.013523,0.002678,0.000431,0.003761
82949000,0.0324,0.013523,0.002678,0.000431,0.002938
82950000,0.0324,0.013523,0.002678,0.000431,0.003643
82951000,0.0324,0.013523,0.002678,0.000431,0.003173
82952000,0.0324,0.013523,0.002678,0.000431,0.003408
82953000,0.0324,0.013523,0.002678,0.000431,0.003643
82954000,0.0324,0.013523,0.002678,0.000431,0.002938
82955000,0.0324,0.013523,0.002678,0.000431,0.003643
82956000,0.0324,0.013523,0.002678,0.000431,0.003173
82957000,0.0324,0.013523,0.002678,0.000431,0.003526
82958000,0.0324,0.013523,0.002678,0.000431,0.003291
82959000,0.0324,0.013523,0.002678,0.000431,0.004584
82960000,0.0324,0.013523,0.002678,0.000431,0.002703
82961000,0.0324,0.013523,0.002678,0.000431,0.002233
82962000,0.0324,0.013523,0.002678,0.000431,0.002586
82963000,0.0324,0.013523,0.002678,0.000431,0.002586
82964000,0.0324,0.013523,0.002678,0.000431,0.002586
82965000,0.0324,0.013523,0.002678,0.000431,0.002351
82966000,0.0324,0.013523,0.002678,0.000431,0.002586
82967000,0.0324,0.013523,0.002678,0.000431,0.002351
82968000,0.0324,0.013523,0.002678,0.000431,0.002586
82969000,0.0324,0.013523,0.002678,0.000431,0.002586
82970000,0.0324,0.013523,0.002678,0.000431,0.002351
82971000,0.0324,0.013523,0.002678,0.000431,0.002703
82972000,0.0324,0.013523,0.002678,0.000431,0.002468
82973000,0.0324,0.013523,0.002678,0.000431,0.002586
82974000,0.0324,0.013523,0.002678,0.000431,0.002351
82975000,0.0324,0.013523,0.002678,0.000431,0.002586
82976000,0.0324,0.013523,0.002678,0.000431,0.002586
82977000,0.0324,0.013523,0.002678,0.000431,0.002351
82978000,0.0324,0.013523,0.002678,0.000431,0.002703
82979000,0.0324,0.013523,0.002678,0.000431,0.002351
82980000,0.0324,0.013523,0.002678,0.000431,0.002703
82981000,0.0324,0.013523,0.002678,0.000431,0.002233
82982000,0.0324,0.013523,0.002678,0.000431,0.002586
82983000,0.0324,0.013523,0.002678,0.000431,0.002821
82984000,0.0324,0.013523,0.002678,0.000431,0.002233
82985000,0.0324,0.013523,0.002678,0.000431,0.004113
82986000,0.0324,0.013523,0.002678,0.000431,0.001645
82987000,0.0324,0.013523,0.002678,0.000431,0.001763
82988000,0.0324,0.013523,0.002678,0.000431,0.001645
82989000,0.0324,0.013523,0.002678,0.000431,0.001763
82990000,0.0324,0.013523,0.002678,0.000431,0.001528
82991000,0.0324,0.013523,0.002678,0.000431,0.001763
82992000,0.0324,0.013523,0.002678,0.000431,0.001645
82993000,0.0324,0.013523,0.002678,0.000431,0.001763
82994000,0.0324,0.013523,0.002678,0.000431,0.001763
82995000,0.0324,0.013523,0.002678,0.000431,0.001528
82996000,0.0324,0.013523,0.002678,0.000431,0.001763
82997000,0.0324,0.013523,0.002678,0.000431,0.001528
82998000,0.0324,0.013523,0.002678,0.000431,0.001763
82999000,0.0324,0.013523,0.002678,0.000431,0.001763
