Cycle,Area(mm^2),PeakDynamic(W),SubthresholdLeakage(W),GateLeakage(W),RunTimeDynamic(W)
146000000,0.0324,0.013523,0.002678,0.000431,0.010930
146001000,0.0324,0.013523,0.002678,0.000431,0.008462
146002000,0.0324,0.013523,0.002678,0.000431,0.010813
146003000,0.0324,0.013523,0.002678,0.000431,0.009990
146004000,0.0324,0.013523,0.002678,0.000431,0.007992
146005000,0.0324,0.013523,0.002678,0.000431,0.004936
146006000,0.0324,0.013523,0.002678,0.000431,0.005524
146007000,0.0324,0.013523,0.002678,0.000431,0.006347
146008000,0.0324,0.013523,0.002678,0.000431,0.004231
146009000,0.0324,0.013523,0.002678,0.000431,0.004349
146010000,0.0324,0.013523,0.002678,0.000431,0.004113
146011000,0.0324,0.013523,0.002678,0.000431,0.005994
146012000,0.0324,0.013523,0.002678,0.000431,0.003291
146013000,0.0324,0.013523,0.002678,0.000431,0.003291
146014000,0.0324,0.013523,0.002678,0.000431,0.003291
146015000,0.0324,0.013523,0.002678,0.000431,0.006699
146016000,0.0324,0.013523,0.002678,0.000431,0.002586
146017000,0.0324,0.013523,0.002678,0.000431,0.002703
146018000,0.0324,0.013523,0.002678,0.000431,0.002468
146019000,0.0324,0.013523,0.002678,0.000431,0.002468
146020000,0.0324,0.013523,0.002678,0.000431,0.002821
146021000,0.0324,0.013523,0.002678,0.000431,0.002351
146022000,0.0324,0.013523,0.002678,0.000431,0.002586
146023000,0.0324,0.013523,0.002678,0.000431,0.002586
146024000,0.0324,0.013523,0.002678,0.000431,0.002586
146025000,0.0324,0.013523,0.002678,0.000431,0.002703
146026000,0.0324,0.013523,0.002678,0.000431,0.003878
146027000,0.0324,0.013523,0.002678,0.000431,0.003526
146028000,0.0324,0.013523,0.002678,0.000431,0.001645
146029000,0.0324,0.013523,0.002678,0.000431,0.001763
146030000,0.0324,0.013523,0.002678,0.000431,0.001645
146031000,0.0324,0.013523,0.002678,0.000431,0.003408
146032000,0.0324,0.013523,0.002678,0.000431,0.002703
146033000,0.0324,0.013523,0.002678,0.000431,0.000823
146034000,0.0324,0.013523,0.002678,0.000431,0.000823
146035000,0.0324,0.013523,0.002678,0.000431,0.000823
146036000,0.0324,0.013523,0.002678,0.000431,0.000940
146037000,0.0324,0.013523,0.002678,0.000431,0.000705
146038000,0.0324,0.013523,0.002678,0.000431,0.000940
146039000,0.0324,0.013523,0.002678,0.000431,0.000940
146040000,0.0324,0.013523,0.002678,0.000431,0.000705
146041000,0.0324,0.013523,0.002678,0.000431,0.000940
146042000,0.0324,0.013523,0.002678,0.000431,0.000705
146043000,0.0324,0.013523,0.002678,0.000431,0.000940
146044000,0.0324,0.013523,0.002678,0.000431,0.000823
146045000,0.0324,0.013523,0.002678,0.000431,0.000823
146046000,0.0324,0.013523,0.002678,0.000431,0.000823
146047000,0.0324,0.013523,0.002678,0.000431,0.000823
146048000,0.0324,0.013523,0.002678,0.000431,0.000823
146049000,0.0324,0.013523,0.002678,0.000431,0.014103
146050000,0.0324,0.013523,0.002678,0.000431,0.758409
146051000,0.0324,0.013523,0.002678,0.000431,0.569542
146052000,0.0324,0.013523,0.002678,0.000431,0.137743
146053000,0.0324,0.013523,0.002678,0.000431,0.139036
146054000,0.0324,0.013523,0.002678,0.000431,0.553323
146055000,0.0324,0.013523,0.002678,0.000431,0.269375
146056000,0.0324,0.013523,0.002678,0.000431,0.358931
146057000,0.0324,0.013523,0.002678,0.000431,0.156077
146058000,0.0324,0.013523,0.002678,0.000431,0.180053
146059000,0.0324,0.013523,0.002678,0.000431,0.103542
146060000,0.0324,0.013523,0.002678,0.000431,0.543215
146061000,0.0324,0.013523,0.002678,0.000431,0.232706
146062000,0.0324,0.013523,0.002678,0.000431,0.181111
146063000,0.0324,0.013523,0.002678,0.000431,0.167713
146064000,0.0324,0.013523,0.002678,0.000431,0.130574
146065000,0.0324,0.013523,0.002678,0.000431,0.120466
146066000,0.0324,0.013523,0.002678,0.000431,0.099546
146067000,0.0324,0.013523,0.002678,0.000431,0.094375
146068000,0.0324,0.013523,0.002678,0.000431,0.067696
146069000,0.0324,0.013523,0.002678,0.000431,0.062878
146070000,0.0324,0.013523,0.002678,0.000431,0.043368
146071000,0.0324,0.013523,0.002678,0.000431,0.046541
146072000,0.0324,0.013523,0.002678,0.000431,0.038197
146073000,0.0324,0.013523,0.002678,0.000431,0.035729
146074000,0.0324,0.013523,0.002678,0.000431,0.028677
146075000,0.0324,0.013523,0.002678,0.000431,0.028089
146076000,0.0324,0.013523,0.002678,0.000431,0.033848
146077000,0.0324,0.013523,0.002678,0.000431,0.023388
146078000,0.0324,0.013523,0.002678,0.000431,0.025856
146079000,0.0324,0.013523,0.002678,0.000431,0.020920
146080000,0.0324,0.013523,0.002678,0.000431,0.019862
146081000,0.0324,0.013523,0.002678,0.000431,0.019157
146082000,0.0324,0.013523,0.002678,0.000431,0.015749
146083000,0.0324,0.013523,0.002678,0.000431,0.018687
146084000,0.0324,0.013523,0.002678,0.000431,0.017747
146085000,0.0324,0.013523,0.002678,0.000431,0.013046
146086000,0.0324,0.013523,0.002678,0.000431,0.013633
146087000,0.0324,0.013523,0.002678,0.000431,0.014221
146088000,0.0324,0.013523,0.002678,0.000431,0.014221
146089000,0.0324,0.013523,0.002678,0.000431,0.013046
146090000,0.0324,0.013523,0.002678,0.000431,0.011988
146091000,0.0324,0.013523,0.002678,0.000431,0.013868
146092000,0.0324,0.013523,0.002678,0.000431,0.012693
146093000,0.0324,0.013523,0.002678,0.000431,0.012105
146094000,0.0324,0.013523,0.002678,0.000431,0.013633
146095000,0.0324,0.013523,0.002678,0.000431,0.014809
146096000,0.0324,0.013523,0.002678,0.000431,0.012928
146097000,0.0324,0.013523,0.002678,0.000431,0.011518
146098000,0.0324,0.013523,0.002678,0.000431,0.011870
146099000,0.0324,0.013523,0.002678,0.000431,0.012340
146100000,0.0324,0.013523,0.002678,0.000431,0.011048
146101000,0.0324,0.013523,0.002678,0.000431,0.012576
146102000,0.0324,0.013523,0.002678,0.000431,0.011635
146103000,0.0324,0.013523,0.002678,0.000431,0.011988
146104000,0.0324,0.013523,0.002678,0.000431,0.009637
146105000,0.0324,0.013523,0.002678,0.000431,0.009520
146106000,0.0324,0.013523,0.002678,0.000431,0.010695
146107000,0.0324,0.013523,0.002678,0.000431,0.007757
146108000,0.0324,0.013523,0.002678,0.000431,0.006347
146109000,0.0324,0.013523,0.002678,0.000431,0.006934
146110000,0.0324,0.013523,0.002678,0.000431,0.008345
146111000,0.0324,0.013523,0.002678,0.000431,0.006817
146112000,0.0324,0.013523,0.002678,0.000431,0.004466
146113000,0.0324,0.013523,0.002678,0.000431,0.004231
146114000,0.0324,0.013523,0.002678,0.000431,0.004113
146115000,0.0324,0.013523,0.002678,0.000431,0.004349
146116000,0.0324,0.013523,0.002678,0.000431,0.003761
146117000,0.0324,0.013523,0.002678,0.000431,0.004584
146118000,0.0324,0.013523,0.002678,0.000431,0.004349
146119000,0.0324,0.013523,0.002678,0.000431,0.003996
146120000,0.0324,0.013523,0.002678,0.000431,0.004349
146121000,0.0324,0.013523,0.002678,0.000431,0.003878
146122000,0.0324,0.013523,0.002678,0.000431,0.004466
146123000,0.0324,0.013523,0.002678,0.000431,0.004349
146124000,0.0324,0.013523,0.002678,0.000431,0.004113
146125000,0.0324,0.013523,0.002678,0.000431,0.004113
146126000,0.0324,0.013523,0.002678,0.000431,0.004113
146127000,0.0324,0.013523,0.002678,0.000431,0.004349
146128000,0.0324,0.013523,0.002678,0.000431,0.005524
146129000,0.0324,0.013523,0.002678,0.000431,0.003291
146130000,0.0324,0.013523,0.002678,0.000431,0.003526
146131000,0.0324,0.013523,0.002678,0.000431,0.003056
146132000,0.0324,0.013523,0.002678,0.000431,0.003526
146133000,0.0324,0.013523,0.002678,0.000431,0.003291
146134000,0.0324,0.013523,0.002678,0.000431,0.003408
146135000,0.0324,0.013523,0.002678,0.000431,0.003291
146136000,0.0324,0.013523,0.002678,0.000431,0.003291
146137000,0.0324,0.013523,0.002678,0.000431,0.003408
146138000,0.0324,0.013523,0.002678,0.000431,0.004936
146139000,0.0324,0.013523,0.002678,0.000431,0.002703
146140000,0.0324,0.013523,0.002678,0.000431,0.002586
146141000,0.0324,0.013523,0.002678,0.000431,0.002233
146142000,0.0324,0.013523,0.002678,0.000431,0.002703
146143000,0.0324,0.013523,0.002678,0.000431,0.002468
146144000,0.0324,0.013523,0.002678,0.000431,0.002468
146145000,0.0324,0.013523,0.002678,0.000431,0.002586
146146000,0.0324,0.013523,0.002678,0.000431,0.002468
146147000,0.0324,0.013523,0.002678,0.000431,0.002586
146148000,0.0324,0.013523,0.002678,0.000431,0.002468
146149000,0.0324,0.013523,0.002678,0.000431,0.002468
146150000,0.0324,0.013523,0.002678,0.000431,0.002586
146151000,0.0324,0.013523,0.002678,0.000431,0.002586
146152000,0.0324,0.013523,0.002678,0.000431,0.002351
146153000,0.0324,0.013523,0.002678,0.000431,0.002703
146154000,0.0324,0.013523,0.002678,0.000431,0.002351
146155000,0.0324,0.013523,0.002678,0.000431,0.002586
146156000,0.0324,0.013523,0.002678,0.000431,0.002468
146157000,0.0324,0.013523,0.002678,0.000431,0.002586
146158000,0.0324,0.013523,0.002678,0.000431,0.002586
146159000,0.0324,0.013523,0.002678,0.000431,0.002351
146160000,0.0324,0.013523,0.002678,0.000431,0.002703
146161000,0.0324,0.013523,0.002678,0.000431,0.002468
146162000,0.0324,0.013523,0.002678,0.000431,0.002468
146163000,0.0324,0.013523,0.002678,0.000431,0.002468
146164000,0.0324,0.013523,0.002678,0.000431,0.002351
146165000,0.0324,0.013523,0.002678,0.000431,0.002586
146166000,0.0324,0.013523,0.002678,0.000431,0.002586
146167000,0.0324,0.013523,0.002678,0.000431,0.002468
146168000,0.0324,0.013523,0.002678,0.000431,0.002468
146169000,0.0324,0.013523,0.002678,0.000431,0.002468
146170000,0.0324,0.013523,0.002678,0.000431,0.002703
146171000,0.0324,0.013523,0.002678,0.000431,0.002586
146172000,0.0324,0.013523,0.002678,0.000431,0.002233
146173000,0.0324,0.013523,0.002678,0.000431,0.002703
146174000,0.0324,0.013523,0.002678,0.000431,0.002351
146175000,0.0324,0.013523,0.002678,0.000431,0.002586
146176000,0.0324,0.013523,0.002678,0.000431,0.002703
146177000,0.0324,0.013523,0.002678,0.000431,0.002233
146178000,0.0324,0.013523,0.002678,0.000431,0.002703
146179000,0.0324,0.013523,0.002678,0.000431,0.002351
146180000,0.0324,0.013523,0.002678,0.000431,0.002586
146181000,0.0324,0.013523,0.002678,0.000431,0.002703
146182000,0.0324,0.013523,0.002678,0.000431,0.002351
146183000,0.0324,0.013523,0.002678,0.000431,0.002586
146184000,0.0324,0.013523,0.002678,0.000431,0.002351
146185000,0.0324,0.013523,0.002678,0.000431,0.002703
146186000,0.0324,0.013523,0.002678,0.000431,0.002468
146187000,0.0324,0.013523,0.002678,0.000431,0.002468
146188000,0.0324,0.013523,0.002678,0.000431,0.002468
146189000,0.0324,0.013523,0.002678,0.000431,0.002351
146190000,0.0324,0.013523,0.002678,0.000431,0.002821
146191000,0.0324,0.013523,0.002678,0.000431,0.002351
146192000,0.0324,0.013523,0.002678,0.000431,0.002586
146193000,0.0324,0.013523,0.002678,0.000431,0.002586
146194000,0.0324,0.013523,0.002678,0.000431,0.002351
146195000,0.0324,0.013523,0.002678,0.000431,0.002468
146196000,0.0324,0.013523,0.002678,0.000431,0.002703
146197000,0.0324,0.013523,0.002678,0.000431,0.002468
146198000,0.0324,0.013523,0.002678,0.000431,0.002468
146199000,0.0324,0.013523,0.002678,0.000431,0.002586
146200000,0.0324,0.013523,0.002678,0.000431,0.002351
146201000,0.0324,0.013523,0.002678,0.000431,0.002703
146202000,0.0324,0.013523,0.002678,0.000431,0.002351
146203000,0.0324,0.013523,0.002678,0.000431,0.002586
146204000,0.0324,0.013523,0.002678,0.000431,0.002586
146205000,0.0324,0.013523,0.002678,0.000431,0.002351
146206000,0.0324,0.013523,0.002678,0.000431,0.002703
146207000,0.0324,0.013523,0.002678,0.000431,0.002468
146208000,0.0324,0.013523,0.002678,0.000431,0.004349
146209000,0.0324,0.013523,0.002678,0.000431,0.001645
146210000,0.0324,0.013523,0.002678,0.000431,0.001763
146211000,0.0324,0.013523,0.002678,0.000431,0.001528
146212000,0.0324,0.013523,0.002678,0.000431,0.001645
146213000,0.0324,0.013523,0.002678,0.000431,0.001880
146214000,0.0324,0.013523,0.002678,0.000431,0.001528
146215000,0.0324,0.013523,0.002678,0.000431,0.001763
146216000,0.0324,0.013523,0.002678,0.000431,0.001645
146217000,0.0324,0.013523,0.002678,0.000431,0.002468
146218000,0.0324,0.013523,0.002678,0.000431,0.001880
146219000,0.0324,0.013523,0.002678,0.000431,0.000823
146220000,0.0324,0.013523,0.002678,0.000431,0.000823
146221000,0.0324,0.013523,0.002678,0.000431,0.000823
146222000,0.0324,0.013523,0.002678,0.000431,0.000823
146223000,0.0324,0.013523,0.002678,0.000431,0.000940
146224000,0.0324,0.013523,0.002678,0.000431,0.000823
146225000,0.0324,0.013523,0.002678,0.000431,0.000823
146226000,0.0324,0.013523,0.002678,0.000431,0.000823
146227000,0.0324,0.013523,0.002678,0.000431,0.000705
146228000,0.0324,0.013523,0.002678,0.000431,0.000940
146229000,0.0324,0.013523,0.002678,0.000431,0.000940
146230000,0.0324,0.013523,0.002678,0.000431,0.000705
146231000,0.0324,0.013523,0.002678,0.000431,0.000940
146232000,0.0324,0.013523,0.002678,0.000431,0.000705
146233000,0.0324,0.013523,0.002678,0.000431,0.000940
146234000,0.0324,0.013523,0.002678,0.000431,0.000823
146235000,0.0324,0.013523,0.002678,0.000431,0.000823
146236000,0.0324,0.013523,0.002678,0.000431,0.000940
146237000,0.0324,0.013523,0.002678,0.000431,0.000705
146238000,0.0324,0.013523,0.002678,0.000431,0.000940
146239000,0.0324,0.013523,0.002678,0.000431,0.000823
146240000,0.0324,0.013523,0.002678,0.000431,0.000823
146241000,0.0324,0.013523,0.002678,0.000431,0.000823
146242000,0.0324,0.013523,0.002678,0.000431,0.000823
146243000,0.0324,0.013523,0.002678,0.000431,0.000940
146244000,0.0324,0.013523,0.002678,0.000431,0.000705
146245000,0.0324,0.013523,0.002678,0.000431,0.000940
146246000,0.0324,0.013523,0.002678,0.000431,0.000823
146247000,0.0324,0.013523,0.002678,0.000431,0.000823
146248000,0.0324,0.013523,0.002678,0.000431,0.000823
146249000,0.0324,0.013523,0.002678,0.000431,0.000823
146250000,0.0324,0.013523,0.002678,0.000431,0.000823
146251000,0.0324,0.013523,0.002678,0.000431,0.000823
146252000,0.0324,0.013523,0.002678,0.000431,0.000940
146253000,0.0324,0.013523,0.002678,0.000431,0.000705
146254000,0.0324,0.013523,0.002678,0.000431,0.000940
146255000,0.0324,0.013523,0.002678,0.000431,0.000705
146256000,0.0324,0.013523,0.002678,0.000431,0.000940
146257000,0.0324,0.013523,0.002678,0.000431,0.000823
146258000,0.0324,0.013523,0.002678,0.000431,0.000823
146259000,0.0324,0.013523,0.002678,0.000431,0.000940
146260000,0.0324,0.013523,0.002678,0.000431,0.000705
146261000,0.0324,0.013523,0.002678,0.000431,0.000940
146262000,0.0324,0.013523,0.002678,0.000431,0.000823
146263000,0.0324,0.013523,0.002678,0.000431,0.000823
146264000,0.0324,0.013523,0.002678,0.000431,0.000823
146265000,0.0324,0.013523,0.002678,0.000431,0.000823
146266000,0.0324,0.013523,0.002678,0.000431,0.000823
146267000,0.0324,0.013523,0.002678,0.000431,0.000823
146268000,0.0324,0.013523,0.002678,0.000431,0.000940
146269000,0.0324,0.013523,0.002678,0.000431,0.000705
146270000,0.0324,0.013523,0.002678,0.000431,0.000823
146271000,0.0324,0.013523,0.002678,0.000431,0.000940
146272000,0.0324,0.013523,0.002678,0.000431,0.000823
146273000,0.0324,0.013523,0.002678,0.000431,0.000823
146274000,0.0324,0.013523,0.002678,0.000431,0.000823
146275000,0.0324,0.013523,0.002678,0.000431,0.000823
146276000,0.0324,0.013523,0.002678,0.000431,0.000823
146277000,0.0324,0.013523,0.002678,0.000431,0.000940
146278000,0.0324,0.013523,0.002678,0.000431,0.000823
146279000,0.0324,0.013523,0.002678,0.000431,0.000823
146280000,0.0324,0.013523,0.002678,0.000431,0.000705
146281000,0.0324,0.013523,0.002678,0.000431,0.000940
146282000,0.0324,0.013523,0.002678,0.000431,0.000940
146283000,0.0324,0.013523,0.002678,0.000431,0.000705
146284000,0.0324,0.013523,0.002678,0.000431,0.000940
146285000,0.0324,0.013523,0.002678,0.000431,0.000705
146286000,0.0324,0.013523,0.002678,0.000431,0.000940
146287000,0.0324,0.013523,0.002678,0.000431,0.000823
146288000,0.0324,0.013523,0.002678,0.000431,0.000823
146289000,0.0324,0.013523,0.002678,0.000431,0.000940
146290000,0.0324,0.013523,0.002678,0.000431,0.000705
146291000,0.0324,0.013523,0.002678,0.000431,0.000940
146292000,0.0324,0.013523,0.002678,0.000431,0.000823
146293000,0.0324,0.013523,0.002678,0.000431,0.000823
146294000,0.0324,0.013523,0.002678,0.000431,0.000823
146295000,0.0324,0.013523,0.002678,0.000431,0.000823
146296000,0.0324,0.013523,0.002678,0.000431,0.000823
146297000,0.0324,0.013523,0.002678,0.000431,0.000823
146298000,0.0324,0.013523,0.002678,0.000431,0.000940
146299000,0.0324,0.013523,0.002678,0.000431,0.000705
146300000,0.0324,0.013523,0.002678,0.000431,0.000940
146301000,0.0324,0.013523,0.002678,0.000431,0.000823
146302000,0.0324,0.013523,0.002678,0.000431,0.001528
146303000,0.0324,0.013523,0.002678,0.000431,0.518064
146304000,0.0324,0.013523,0.002678,0.000431,0.759937
146305000,0.0324,0.013523,0.002678,0.000431,0.158546
146306000,0.0324,0.013523,0.002678,0.000431,0.133512
146307000,0.0324,0.013523,0.002678,0.000431,0.490210
146308000,0.0324,0.013523,0.002678,0.000431,0.261030
146309000,0.0324,0.013523,0.002678,0.000431,0.305221
146310000,0.0324,0.013523,0.002678,0.000431,0.275486
146311000,0.0324,0.013523,0.002678,0.000431,0.143972
146312000,0.0324,0.013523,0.002678,0.000431,0.150201
146313000,0.0324,0.013523,0.002678,0.000431,0.240228
146314000,0.0324,0.013523,0.002678,0.000431,0.490093
146315000,0.0324,0.013523,0.002678,0.000431,0.198740
146316000,0.0324,0.013523,0.002678,0.000431,0.160661
146317000,0.0324,0.013523,0.002678,0.000431,0.141857
146318000,0.0324,0.013523,0.002678,0.000431,0.127165
146319000,0.0324,0.013523,0.002678,0.000431,0.106481
146320000,0.0324,0.013523,0.002678,0.000431,0.075806
146321000,0.0324,0.013523,0.002678,0.000431,0.069812
146322000,0.0324,0.013523,0.002678,0.000431,0.064053
146323000,0.0324,0.013523,0.002678,0.000431,0.051947
146324000,0.0324,0.013523,0.002678,0.000431,0.040547
146325000,0.0324,0.013523,0.002678,0.000431,0.038784
146326000,0.0324,0.013523,0.002678,0.000431,0.033496
146327000,0.0324,0.013523,0.002678,0.000431,0.032555
146328000,0.0324,0.013523,0.002678,0.000431,0.021273
146329000,0.0324,0.013523,0.002678,0.000431,0.024916
146330000,0.0324,0.013523,0.002678,0.000431,0.018687
146331000,0.0324,0.013523,0.002678,0.000431,0.015749
146332000,0.0324,0.013523,0.002678,0.000431,0.016219
146333000,0.0324,0.013523,0.002678,0.000431,0.014809
146334000,0.0324,0.013523,0.002678,0.000431,0.012693
146335000,0.0324,0.013523,0.002678,0.000431,0.015749
146336000,0.0324,0.013523,0.002678,0.000431,0.011753
146337000,0.0324,0.013523,0.002678,0.000431,0.013046
146338000,0.0324,0.013523,0.002678,0.000431,0.010225
146339000,0.0324,0.013523,0.002678,0.000431,0.016101
146340000,0.0324,0.013523,0.002678,0.000431,0.006347
146341000,0.0324,0.013523,0.002678,0.000431,0.006582
146342000,0.0324,0.013523,0.002678,0.000431,0.008462
146343000,0.0324,0.013523,0.002678,0.000431,0.005994
146344000,0.0324,0.013523,0.002678,0.000431,0.005876
146345000,0.0324,0.013523,0.002678,0.000431,0.005406
146346000,0.0324,0.013523,0.002678,0.000431,0.008227
146347000,0.0324,0.013523,0.002678,0.000431,0.005054
146348000,0.0324,0.013523,0.002678,0.000431,0.004701
146349000,0.0324,0.013523,0.002678,0.000431,0.004936
146350000,0.0324,0.013523,0.002678,0.000431,0.005054
146351000,0.0324,0.013523,0.002678,0.000431,0.005289
146352000,0.0324,0.013523,0.002678,0.000431,0.004701
146353000,0.0324,0.013523,0.002678,0.000431,0.005171
146354000,0.0324,0.013523,0.002678,0.000431,0.007874
146355000,0.0324,0.013523,0.002678,0.000431,0.003291
146356000,0.0324,0.013523,0.002678,0.000431,0.003526
146357000,0.0324,0.013523,0.002678,0.000431,0.003173
146358000,0.0324,0.013523,0.002678,0.000431,0.003291
146359000,0.0324,0.013523,0.002678,0.000431,0.003291
146360000,0.0324,0.013523,0.002678,0.000431,0.003291
146361000,0.0324,0.013523,0.002678,0.000431,0.003291
146362000,0.0324,0.013523,0.002678,0.000431,0.003291
146363000,0.0324,0.013523,0.002678,0.000431,0.003408
146364000,0.0324,0.013523,0.002678,0.000431,0.003408
146365000,0.0324,0.013523,0.002678,0.000431,0.003173
146366000,0.0324,0.013523,0.002678,0.000431,0.003291
146367000,0.0324,0.013523,0.002678,0.000431,0.003173
146368000,0.0324,0.013523,0.002678,0.000431,0.003408
146369000,0.0324,0.013523,0.002678,0.000431,0.003526
146370000,0.0324,0.013523,0.002678,0.000431,0.003173
146371000,0.0324,0.013523,0.002678,0.000431,0.003408
146372000,0.0324,0.013523,0.002678,0.000431,0.003291
146373000,0.0324,0.013523,0.002678,0.000431,0.003408
146374000,0.0324,0.013523,0.002678,0.000431,0.003408
146375000,0.0324,0.013523,0.002678,0.000431,0.003056
146376000,0.0324,0.013523,0.002678,0.000431,0.003643
146377000,0.0324,0.013523,0.002678,0.000431,0.002938
146378000,0.0324,0.013523,0.002678,0.000431,0.003878
146379000,0.0324,0.013523,0.002678,0.000431,0.003056
146380000,0.0324,0.013523,0.002678,0.000431,0.003408
146381000,0.0324,0.013523,0.002678,0.000431,0.003408
146382000,0.0324,0.013523,0.002678,0.000431,0.003173
146383000,0.0324,0.013523,0.002678,0.000431,0.003291
146384000,0.0324,0.013523,0.002678,0.000431,0.003291
146385000,0.0324,0.013523,0.002678,0.000431,0.003291
146386000,0.0324,0.013523,0.002678,0.000431,0.003408
146387000,0.0324,0.013523,0.002678,0.000431,0.003056
146388000,0.0324,0.013523,0.002678,0.000431,0.003643
146389000,0.0324,0.013523,0.002678,0.000431,0.003056
146390000,0.0324,0.013523,0.002678,0.000431,0.003643
146391000,0.0324,0.013523,0.002678,0.000431,0.002938
146392000,0.0324,0.013523,0.002678,0.000431,0.003526
146393000,0.0324,0.013523,0.002678,0.000431,0.003173
146394000,0.0324,0.013523,0.002678,0.000431,0.003643
146395000,0.0324,0.013523,0.002678,0.000431,0.003291
146396000,0.0324,0.013523,0.002678,0.000431,0.003291
146397000,0.0324,0.013523,0.002678,0.000431,0.002821
146398000,0.0324,0.013523,0.002678,0.000431,0.003878
146399000,0.0324,0.013523,0.002678,0.000431,0.003291
146400000,0.0324,0.013523,0.002678,0.000431,0.003173
146401000,0.0324,0.013523,0.002678,0.000431,0.003643
146402000,0.0324,0.013523,0.002678,0.000431,0.002938
146403000,0.0324,0.013523,0.002678,0.000431,0.003526
146404000,0.0324,0.013523,0.002678,0.000431,0.003408
146405000,0.0324,0.013523,0.002678,0.000431,0.003173
146406000,0.0324,0.013523,0.002678,0.000431,0.003526
146407000,0.0324,0.013523,0.002678,0.000431,0.002938
146408000,0.0324,0.013523,0.002678,0.000431,0.003643
146409000,0.0324,0.013523,0.002678,0.000431,0.003173
146410000,0.0324,0.013523,0.002678,0.000431,0.003526
146411000,0.0324,0.013523,0.002678,0.000431,0.003408
146412000,0.0324,0.013523,0.002678,0.000431,0.003291
146413000,0.0324,0.013523,0.002678,0.000431,0.003408
146414000,0.0324,0.013523,0.002678,0.000431,0.002468
146415000,0.0324,0.013523,0.002678,0.000431,0.002938
146416000,0.0324,0.013523,0.002678,0.000431,0.002468
146417000,0.0324,0.013523,0.002678,0.000431,0.002468
146418000,0.0324,0.013523,0.002678,0.000431,0.004819
146419000,0.0324,0.013523,0.002678,0.000431,0.001763
146420000,0.0324,0.013523,0.002678,0.000431,0.001528
146421000,0.0324,0.013523,0.002678,0.000431,0.001880
146422000,0.0324,0.013523,0.002678,0.000431,0.002938
146423000,0.0324,0.013523,0.002678,0.000431,0.000940
146424000,0.0324,0.013523,0.002678,0.000431,0.000823
146425000,0.0324,0.013523,0.002678,0.000431,0.000823
146426000,0.0324,0.013523,0.002678,0.000431,0.000940
146427000,0.0324,0.013523,0.002678,0.000431,0.000705
146428000,0.0324,0.013523,0.002678,0.000431,0.000940
146429000,0.0324,0.013523,0.002678,0.000431,0.000823
146430000,0.0324,0.013523,0.002678,0.000431,0.000823
146431000,0.0324,0.013523,0.002678,0.000431,0.000823
146432000,0.0324,0.013523,0.002678,0.000431,0.000823
146433000,0.0324,0.013523,0.002678,0.000431,0.000823
146434000,0.0324,0.013523,0.002678,0.000431,0.000823
146435000,0.0324,0.013523,0.002678,0.000431,0.000940
146436000,0.0324,0.013523,0.002678,0.000431,0.000705
146437000,0.0324,0.013523,0.002678,0.000431,0.000940
146438000,0.0324,0.013523,0.002678,0.000431,0.000823
146439000,0.0324,0.013523,0.002678,0.000431,0.000823
146440000,0.0324,0.013523,0.002678,0.000431,0.000705
146441000,0.0324,0.013523,0.002678,0.000431,0.000940
146442000,0.0324,0.013523,0.002678,0.000431,0.000940
146443000,0.0324,0.013523,0.002678,0.000431,0.000705
146444000,0.0324,0.013523,0.002678,0.000431,0.000940
146445000,0.0324,0.013523,0.002678,0.000431,0.000705
146446000,0.0324,0.013523,0.002678,0.000431,0.000940
146447000,0.0324,0.013523,0.002678,0.000431,0.000823
146448000,0.0324,0.013523,0.002678,0.000431,0.000823
146449000,0.0324,0.013523,0.002678,0.000431,0.000940
146450000,0.0324,0.013523,0.002678,0.000431,0.000705
146451000,0.0324,0.013523,0.002678,0.000431,0.000940
146452000,0.0324,0.013523,0.002678,0.000431,0.000823
146453000,0.0324,0.013523,0.002678,0.000431,0.000823
146454000,0.0324,0.013523,0.002678,0.000431,0.000823
146455000,0.0324,0.013523,0.002678,0.000431,0.000823
146456000,0.0324,0.013523,0.002678,0.000431,0.000823
146457000,0.0324,0.013523,0.002678,0.000431,0.000823
146458000,0.0324,0.013523,0.002678,0.000431,0.000940
146459000,0.0324,0.013523,0.002678,0.000431,0.000705
146460000,0.0324,0.013523,0.002678,0.000431,0.000823
146461000,0.0324,0.013523,0.002678,0.000431,0.000940
146462000,0.0324,0.013523,0.002678,0.000431,0.000823
146463000,0.0324,0.013523,0.002678,0.000431,0.000823
146464000,0.0324,0.013523,0.002678,0.000431,0.000823
146465000,0.0324,0.013523,0.002678,0.000431,0.000705
146466000,0.0324,0.013523,0.002678,0.000431,0.000940
146467000,0.0324,0.013523,0.002678,0.000431,0.000823
146468000,0.0324,0.013523,0.002678,0.000431,0.015161
146469000,0.0324,0.013523,0.002678,0.000431,0.700115
146470000,0.0324,0.013523,0.002678,0.000431,0.617493
146471000,0.0324,0.013523,0.002678,0.000431,0.135863
146472000,0.0324,0.013523,0.002678,0.000431,0.134922
146473000,0.0324,0.013523,0.002678,0.000431,0.609384
146474000,0.0324,0.013523,0.002678,0.000431,0.247514
146475000,0.0324,0.013523,0.002678,0.000431,0.296171
146476000,0.0324,0.013523,0.002678,0.000431,0.207907
146477000,0.0324,0.013523,0.002678,0.000431,0.156900
146478000,0.0324,0.013523,0.002678,0.000431,0.119761
146479000,0.0324,0.013523,0.002678,0.000431,0.461298
146480000,0.0324,0.013523,0.002678,0.000431,0.298287
146481000,0.0324,0.013523,0.002678,0.000431,0.191101
146482000,0.0324,0.013523,0.002678,0.000431,0.163952
146483000,0.0324,0.013523,0.002678,0.000431,0.129516
146484000,0.0324,0.013523,0.002678,0.000431,0.112004
146485000,0.0324,0.013523,0.002678,0.000431,0.089439
146486000,0.0324,0.013523,0.002678,0.000431,0.077451
146487000,0.0324,0.013523,0.002678,0.000431,0.066403
146488000,0.0324,0.013523,0.002678,0.000431,0.049832
146489000,0.0324,0.013523,0.002678,0.000431,0.044073
146490000,0.0324,0.013523,0.002678,0.000431,0.035846
146491000,0.0324,0.013523,0.002678,0.000431,0.033260
146492000,0.0324,0.013523,0.002678,0.000431,0.026796
146493000,0.0324,0.013523,0.002678,0.000431,0.025974
146494000,0.0324,0.013523,0.002678,0.000431,0.022565
146495000,0.0324,0.013523,0.002678,0.000431,0.016689
146496000,0.0324,0.013523,0.002678,0.000431,0.019745
146497000,0.0324,0.013523,0.002678,0.000431,0.016807
146498000,0.0324,0.013523,0.002678,0.000431,0.013751
146499000,0.0324,0.013523,0.002678,0.000431,0.013398
146500000,0.0324,0.013523,0.002678,0.000431,0.015984
146501000,0.0324,0.013523,0.002678,0.000431,0.011518
146502000,0.0324,0.013523,0.002678,0.000431,0.012223
146503000,0.0324,0.013523,0.002678,0.000431,0.014691
146504000,0.0324,0.013523,0.002678,0.000431,0.011635
146505000,0.0324,0.013523,0.002678,0.000431,0.011048
146506000,0.0324,0.013523,0.002678,0.000431,0.008932
146507000,0.0324,0.013523,0.002678,0.000431,0.009285
146508000,0.0324,0.013523,0.002678,0.000431,0.008580
146509000,0.0324,0.013523,0.002678,0.000431,0.009050
146510000,0.0324,0.013523,0.002678,0.000431,0.009285
146511000,0.0324,0.013523,0.002678,0.000431,0.008462
146512000,0.0324,0.013523,0.002678,0.000431,0.009520
146513000,0.0324,0.013523,0.002678,0.000431,0.008697
146514000,0.0324,0.013523,0.002678,0.000431,0.008697
146515000,0.0324,0.013523,0.002678,0.000431,0.009637
146516000,0.0324,0.013523,0.002678,0.000431,0.007992
146517000,0.0324,0.013523,0.002678,0.000431,0.009637
146518000,0.0324,0.013523,0.002678,0.000431,0.008462
146519000,0.0324,0.013523,0.002678,0.000431,0.010107
146520000,0.0324,0.013523,0.002678,0.000431,0.008697
146521000,0.0324,0.013523,0.002678,0.000431,0.007874
146522000,0.0324,0.013523,0.002678,0.000431,0.008462
146523000,0.0324,0.013523,0.002678,0.000431,0.007757
146524000,0.0324,0.013523,0.002678,0.000431,0.008109
146525000,0.0324,0.013523,0.002678,0.000431,0.007992
146526000,0.0324,0.013523,0.002678,0.000431,0.008345
146527000,0.0324,0.013523,0.002678,0.000431,0.007757
146528000,0.0324,0.013523,0.002678,0.000431,0.008345
146529000,0.0324,0.013523,0.002678,0.000431,0.007757
146530000,0.0324,0.013523,0.002678,0.000431,0.008227
146531000,0.0324,0.013523,0.002678,0.000431,0.007992
146532000,0.0324,0.013523,0.002678,0.000431,0.008932
146533000,0.0324,0.013523,0.002678,0.000431,0.008815
146534000,0.0324,0.013523,0.002678,0.000431,0.005524
146535000,0.0324,0.013523,0.002678,0.000431,0.006464
146536000,0.0324,0.013523,0.002678,0.000431,0.005876
146537000,0.0324,0.013523,0.002678,0.000431,0.005524
146538000,0.0324,0.013523,0.002678,0.000431,0.005759
146539000,0.0324,0.013523,0.002678,0.000431,0.004936
146540000,0.0324,0.013523,0.002678,0.000431,0.005406
146541000,0.0324,0.013523,0.002678,0.000431,0.004936
146542000,0.0324,0.013523,0.002678,0.000431,0.008345
146543000,0.0324,0.013523,0.002678,0.000431,0.004349
146544000,0.0324,0.013523,0.002678,0.000431,0.003761
146545000,0.0324,0.013523,0.002678,0.000431,0.004113
146546000,0.0324,0.013523,0.002678,0.000431,0.003878
146547000,0.0324,0.013523,0.002678,0.000431,0.003996
146548000,0.0324,0.013523,0.002678,0.000431,0.004231
146549000,0.0324,0.013523,0.002678,0.000431,0.003996
146550000,0.0324,0.013523,0.002678,0.000431,0.003761
146551000,0.0324,0.013523,0.002678,0.000431,0.004231
146552000,0.0324,0.013523,0.002678,0.000431,0.004113
146553000,0.0324,0.013523,0.002678,0.000431,0.003761
146554000,0.0324,0.013523,0.002678,0.000431,0.004584
146555000,0.0324,0.013523,0.002678,0.000431,0.003526
146556000,0.0324,0.013523,0.002678,0.000431,0.004349
146557000,0.0324,0.013523,0.002678,0.000431,0.003761
146558000,0.0324,0.013523,0.002678,0.000431,0.003996
146559000,0.0324,0.013523,0.002678,0.000431,0.004584
146560000,0.0324,0.013523,0.002678,0.000431,0.003291
146561000,0.0324,0.013523,0.002678,0.000431,0.004584
146562000,0.0324,0.013523,0.002678,0.000431,0.003878
146563000,0.0324,0.013523,0.002678,0.000431,0.003878
146564000,0.0324,0.013523,0.002678,0.000431,0.004231
146565000,0.0324,0.013523,0.002678,0.000431,0.003643
146566000,0.0324,0.013523,0.002678,0.000431,0.004349
146567000,0.0324,0.013523,0.002678,0.000431,0.004113
146568000,0.0324,0.013523,0.002678,0.000431,0.003996
146569000,0.0324,0.013523,0.002678,0.000431,0.003996
146570000,0.0324,0.013523,0.002678,0.000431,0.003878
146571000,0.0324,0.013523,0.002678,0.000431,0.004113
146572000,0.0324,0.013523,0.002678,0.000431,0.004231
146573000,0.0324,0.013523,0.002678,0.000431,0.003643
146574000,0.0324,0.013523,0.002678,0.000431,0.004231
146575000,0.0324,0.013523,0.002678,0.000431,0.004113
146576000,0.0324,0.013523,0.002678,0.000431,0.003761
146577000,0.0324,0.013523,0.002678,0.000431,0.004466
146578000,0.0324,0.013523,0.002678,0.000431,0.003761
146579000,0.0324,0.013523,0.002678,0.000431,0.004113
146580000,0.0324,0.013523,0.002678,0.000431,0.003643
146581000,0.0324,0.013523,0.002678,0.000431,0.003761
146582000,0.0324,0.013523,0.002678,0.000431,0.003878
146583000,0.0324,0.013523,0.002678,0.000431,0.003526
146584000,0.0324,0.013523,0.002678,0.000431,0.002703
146585000,0.0324,0.013523,0.002678,0.000431,0.004231
146586000,0.0324,0.013523,0.002678,0.000431,0.001880
146587000,0.0324,0.013523,0.002678,0.000431,0.001645
146588000,0.0324,0.013523,0.002678,0.000431,0.005054
146589000,0.0324,0.013523,0.002678,0.000431,0.000940
146590000,0.0324,0.013523,0.002678,0.000431,0.000940
146591000,0.0324,0.013523,0.002678,0.000431,0.000823
146592000,0.0324,0.013523,0.002678,0.000431,0.000823
146593000,0.0324,0.013523,0.002678,0.000431,0.000940
146594000,0.0324,0.013523,0.002678,0.000431,0.000940
146595000,0.0324,0.013523,0.002678,0.000431,0.000823
146596000,0.0324,0.013523,0.002678,0.000431,0.000823
146597000,0.0324,0.013523,0.002678,0.000431,0.000940
146598000,0.0324,0.013523,0.002678,0.000431,0.000823
146599000,0.0324,0.013523,0.002678,0.000431,0.000940
146600000,0.0324,0.013523,0.002678,0.000431,0.000823
146601000,0.0324,0.013523,0.002678,0.000431,0.000940
146602000,0.0324,0.013523,0.002678,0.000431,0.000823
146603000,0.0324,0.013523,0.002678,0.000431,0.000823
146604000,0.0324,0.013523,0.002678,0.000431,0.000940
146605000,0.0324,0.013523,0.002678,0.000431,0.000940
146606000,0.0324,0.013523,0.002678,0.000431,0.000823
146607000,0.0324,0.013523,0.002678,0.000431,0.000823
146608000,0.0324,0.013523,0.002678,0.000431,0.000940
146609000,0.0324,0.013523,0.002678,0.000431,0.000940
146610000,0.0324,0.013523,0.002678,0.000431,0.000705
146611000,0.0324,0.013523,0.002678,0.000431,0.000940
146612000,0.0324,0.013523,0.002678,0.000431,0.003056
146613000,0.0324,0.013523,0.002678,0.000431,0.537809
146614000,0.0324,0.013523,0.002678,0.000431,0.735726
146615000,0.0324,0.013523,0.002678,0.000431,0.140211
146616000,0.0324,0.013523,0.002678,0.000431,0.134452
146617000,0.0324,0.013523,0.002678,0.000431,0.528642
146618000,0.0324,0.013523,0.002678,0.000431,0.236349
146619000,0.0324,0.013523,0.002678,0.000431,0.323203
146620000,0.0324,0.013523,0.002678,0.000431,0.250218
146621000,0.0324,0.013523,0.002678,0.000431,0.158310
146622000,0.0324,0.013523,0.002678,0.000431,0.111064
146623000,0.0324,0.013523,0.002678,0.000431,0.347766
146624000,0.0324,0.013523,0.002678,0.000431,0.376090
146625000,0.0324,0.013523,0.002678,0.000431,0.179113
146626000,0.0324,0.013523,0.002678,0.000431,0.153962
146627000,0.0324,0.013523,0.002678,0.000431,0.137508
146628000,0.0324,0.013523,0.002678,0.000431,0.110594
146629000,0.0324,0.013523,0.002678,0.000431,0.100369
146630000,0.0324,0.013523,0.002678,0.000431,0.075336
146631000,0.0324,0.013523,0.002678,0.000431,0.069929
146632000,0.0324,0.013523,0.002678,0.000431,0.064170
146633000,0.0324,0.013523,0.002678,0.000431,0.051595
146634000,0.0324,0.013523,0.002678,0.000431,0.055473
146635000,0.0324,0.013523,0.002678,0.000431,0.040195
146636000,0.0324,0.013523,0.002678,0.000431,0.037021
146637000,0.0324,0.013523,0.002678,0.000431,0.036551
146638000,0.0324,0.013523,0.002678,0.000431,0.042193
146639000,0.0324,0.013523,0.002678,0.000431,0.031380
146640000,0.0324,0.013523,0.002678,0.000431,0.031733
146641000,0.0324,0.013523,0.002678,0.000431,0.033143
146642000,0.0324,0.013523,0.002678,0.000431,0.031733
146643000,0.0324,0.013523,0.002678,0.000431,0.030205
146644000,0.0324,0.013523,0.002678,0.000431,0.025269
146645000,0.0324,0.013523,0.002678,0.000431,0.023153
146646000,0.0324,0.013523,0.002678,0.000431,0.024328
146647000,0.0324,0.013523,0.002678,0.000431,0.025974
146648000,0.0324,0.013523,0.002678,0.000431,0.022448
146649000,0.0324,0.013523,0.002678,0.000431,0.022330
146650000,0.0324,0.013523,0.002678,0.000431,0.020215
146651000,0.0324,0.013523,0.002678,0.000431,0.023036
146652000,0.0324,0.013523,0.002678,0.000431,0.018569
146653000,0.0324,0.013523,0.002678,0.000431,0.019275
146654000,0.0324,0.013523,0.002678,0.000431,0.015866
146655000,0.0324,0.013523,0.002678,0.000431,0.015396
146656000,0.0324,0.013523,0.002678,0.000431,0.014103
146657000,0.0324,0.013523,0.002678,0.000431,0.016219
146658000,0.0324,0.013523,0.002678,0.000431,0.014691
146659000,0.0324,0.013523,0.002678,0.000431,0.013986
146660000,0.0324,0.013523,0.002678,0.000431,0.013986
146661000,0.0324,0.013523,0.002678,0.000431,0.013633
146662000,0.0324,0.013523,0.002678,0.000431,0.015279
146663000,0.0324,0.013523,0.002678,0.000431,0.015396
146664000,0.0324,0.013523,0.002678,0.000431,0.011753
146665000,0.0324,0.013523,0.002678,0.000431,0.012693
146666000,0.0324,0.013523,0.002678,0.000431,0.011753
146667000,0.0324,0.013523,0.002678,0.000431,0.009990
146668000,0.0324,0.013523,0.002678,0.000431,0.011283
146669000,0.0324,0.013523,0.002678,0.000431,0.010695
146670000,0.0324,0.013523,0.002678,0.000431,0.009402
146671000,0.0324,0.013523,0.002678,0.000431,0.008815
146672000,0.0324,0.013523,0.002678,0.000431,0.008580
146673000,0.0324,0.013523,0.002678,0.000431,0.011400
146674000,0.0324,0.013523,0.002678,0.000431,0.006817
146675000,0.0324,0.013523,0.002678,0.000431,0.008580
146676000,0.0324,0.013523,0.002678,0.000431,0.007639
146677000,0.0324,0.013523,0.002678,0.000431,0.010695
146678000,0.0324,0.013523,0.002678,0.000431,0.008932
146679000,0.0324,0.013523,0.002678,0.000431,0.005994
146680000,0.0324,0.013523,0.002678,0.000431,0.005994
146681000,0.0324,0.013523,0.002678,0.000431,0.006347
146682000,0.0324,0.013523,0.002678,0.000431,0.005524
146683000,0.0324,0.013523,0.002678,0.000431,0.006464
146684000,0.0324,0.013523,0.002678,0.000431,0.005994
146685000,0.0324,0.013523,0.002678,0.000431,0.005641
146686000,0.0324,0.013523,0.002678,0.000431,0.006817
146687000,0.0324,0.013523,0.002678,0.000431,0.005054
146688000,0.0324,0.013523,0.002678,0.000431,0.007052
146689000,0.0324,0.013523,0.002678,0.000431,0.005759
146690000,0.0324,0.013523,0.002678,0.000431,0.004819
146691000,0.0324,0.013523,0.002678,0.000431,0.006229
146692000,0.0324,0.013523,0.002678,0.000431,0.006464
146693000,0.0324,0.013523,0.002678,0.000431,0.004936
146694000,0.0324,0.013523,0.002678,0.000431,0.006699
146695000,0.0324,0.013523,0.002678,0.000431,0.005054
146696000,0.0324,0.013523,0.002678,0.000431,0.006817
146697000,0.0324,0.013523,0.002678,0.000431,0.006111
146698000,0.0324,0.013523,0.002678,0.000431,0.005994
146699000,0.0324,0.013523,0.002678,0.000431,0.005524
146700000,0.0324,0.013523,0.002678,0.000431,0.006699
146701000,0.0324,0.013523,0.002678,0.000431,0.005876
146702000,0.0324,0.013523,0.002678,0.000431,0.005406
146703000,0.0324,0.013523,0.002678,0.000431,0.006229
146704000,0.0324,0.013523,0.002678,0.000431,0.005759
146705000,0.0324,0.013523,0.002678,0.000431,0.005876
146706000,0.0324,0.013523,0.002678,0.000431,0.006582
146707000,0.0324,0.013523,0.002678,0.000431,0.004936
146708000,0.0324,0.013523,0.002678,0.000431,0.006817
146709000,0.0324,0.013523,0.002678,0.000431,0.004936
146710000,0.0324,0.013523,0.002678,0.000431,0.006699
146711000,0.0324,0.013523,0.002678,0.000431,0.005994
146712000,0.0324,0.013523,0.002678,0.000431,0.005524
146713000,0.0324,0.013523,0.002678,0.000431,0.008580
146714000,0.0324,0.013523,0.002678,0.000431,0.003761
146715000,0.0324,0.013523,0.002678,0.000431,0.005054
146716000,0.0324,0.013523,0.002678,0.000431,0.002821
146717000,0.0324,0.013523,0.002678,0.000431,0.002468
146718000,0.0324,0.013523,0.002678,0.000431,0.004466
146719000,0.0324,0.013523,0.002678,0.000431,0.001645
146720000,0.0324,0.013523,0.002678,0.000431,0.001645
146721000,0.0324,0.013523,0.002678,0.000431,0.005171
146722000,0.0324,0.013523,0.002678,0.000431,0.000823
146723000,0.0324,0.013523,0.002678,0.000431,0.000940
146724000,0.0324,0.013523,0.002678,0.000431,0.000705
146725000,0.0324,0.013523,0.002678,0.000431,0.000940
146726000,0.0324,0.013523,0.002678,0.000431,0.000823
146727000,0.0324,0.013523,0.002678,0.000431,0.000823
146728000,0.0324,0.013523,0.002678,0.000431,0.000823
146729000,0.0324,0.013523,0.002678,0.000431,0.000823
146730000,0.0324,0.013523,0.002678,0.000431,0.000940
146731000,0.0324,0.013523,0.002678,0.000431,0.000823
146732000,0.0324,0.013523,0.002678,0.000431,0.000823
146733000,0.0324,0.013523,0.002678,0.000431,0.000823
146734000,0.0324,0.013523,0.002678,0.000431,0.000823
146735000,0.0324,0.013523,0.002678,0.000431,0.000823
146736000,0.0324,0.013523,0.002678,0.000431,0.000823
146737000,0.0324,0.013523,0.002678,0.000431,0.000940
146738000,0.0324,0.013523,0.002678,0.000431,0.000705
146739000,0.0324,0.013523,0.002678,0.000431,0.000940
146740000,0.0324,0.013523,0.002678,0.000431,0.000823
146741000,0.0324,0.013523,0.002678,0.000431,0.000823
146742000,0.0324,0.013523,0.002678,0.000431,0.000705
146743000,0.0324,0.013523,0.002678,0.000431,0.000940
146744000,0.0324,0.013523,0.002678,0.000431,0.000940
146745000,0.0324,0.013523,0.002678,0.000431,0.000705
146746000,0.0324,0.013523,0.002678,0.000431,0.000940
146747000,0.0324,0.013523,0.002678,0.000431,0.000705
146748000,0.0324,0.013523,0.002678,0.000431,0.000940
146749000,0.0324,0.013523,0.002678,0.000431,0.000823
146750000,0.0324,0.013523,0.002678,0.000431,0.000823
146751000,0.0324,0.013523,0.002678,0.000431,0.000940
146752000,0.0324,0.013523,0.002678,0.000431,0.000705
146753000,0.0324,0.013523,0.002678,0.000431,0.000940
146754000,0.0324,0.013523,0.002678,0.000431,0.000705
146755000,0.0324,0.013523,0.002678,0.000431,0.000940
146756000,0.0324,0.013523,0.002678,0.000431,0.000823
146757000,0.0324,0.013523,0.002678,0.000431,0.000823
146758000,0.0324,0.013523,0.002678,0.000431,0.000823
146759000,0.0324,0.013523,0.002678,0.000431,0.000823
146760000,0.0324,0.013523,0.002678,0.000431,0.000940
146761000,0.0324,0.013523,0.002678,0.000431,0.000705
146762000,0.0324,0.013523,0.002678,0.000431,0.000823
146763000,0.0324,0.013523,0.002678,0.000431,0.000823
146764000,0.0324,0.013523,0.002678,0.000431,0.000940
146765000,0.0324,0.013523,0.002678,0.000431,0.000823
146766000,0.0324,0.013523,0.002678,0.000431,0.000823
146767000,0.0324,0.013523,0.002678,0.000431,0.000705
146768000,0.0324,0.013523,0.002678,0.000431,0.000940
146769000,0.0324,0.013523,0.002678,0.000431,0.000940
146770000,0.0324,0.013523,0.002678,0.000431,0.000705
146771000,0.0324,0.013523,0.002678,0.000431,0.000940
146772000,0.0324,0.013523,0.002678,0.000431,0.000705
146773000,0.0324,0.013523,0.002678,0.000431,0.000940
146774000,0.0324,0.013523,0.002678,0.000431,0.000940
146775000,0.0324,0.013523,0.002678,0.000431,0.000705
146776000,0.0324,0.013523,0.002678,0.000431,0.000940
146777000,0.0324,0.013523,0.002678,0.000431,0.000705
146778000,0.0324,0.013523,0.002678,0.000431,0.000940
146779000,0.0324,0.013523,0.002678,0.000431,0.000823
146780000,0.0324,0.013523,0.002678,0.000431,0.000823
146781000,0.0324,0.013523,0.002678,0.000431,0.000940
146782000,0.0324,0.013523,0.002678,0.000431,0.000705
146783000,0.0324,0.013523,0.002678,0.000431,0.000940
146784000,0.0324,0.013523,0.002678,0.000431,0.000705
146785000,0.0324,0.013523,0.002678,0.000431,0.000940
146786000,0.0324,0.013523,0.002678,0.000431,0.000823
146787000,0.0324,0.013523,0.002678,0.000431,0.000823
146788000,0.0324,0.013523,0.002678,0.000431,0.000823
146789000,0.0324,0.013523,0.002678,0.000431,0.000823
146790000,0.0324,0.013523,0.002678,0.000431,0.000940
146791000,0.0324,0.013523,0.002678,0.000431,0.000705
146792000,0.0324,0.013523,0.002678,0.000431,0.000940
146793000,0.0324,0.013523,0.002678,0.000431,0.000705
146794000,0.0324,0.013523,0.002678,0.000431,0.000940
146795000,0.0324,0.013523,0.002678,0.000431,0.000705
146796000,0.0324,0.013523,0.002678,0.000431,0.000940
146797000,0.0324,0.013523,0.002678,0.000431,0.000940
146798000,0.0324,0.013523,0.002678,0.000431,0.000705
146799000,0.0324,0.013523,0.002678,0.000431,0.000940
146800000,0.0324,0.013523,0.002678,0.000431,0.000705
146801000,0.0324,0.013523,0.002678,0.000431,0.000823
146802000,0.0324,0.013523,0.002678,0.000431,0.000823
146803000,0.0324,0.013523,0.002678,0.000431,0.000940
146804000,0.0324,0.013523,0.002678,0.000431,0.000705
146805000,0.0324,0.013523,0.002678,0.000431,0.000940
146806000,0.0324,0.013523,0.002678,0.000431,0.000940
146807000,0.0324,0.013523,0.002678,0.000431,0.000705
146808000,0.0324,0.013523,0.002678,0.000431,0.000940
146809000,0.0324,0.013523,0.002678,0.000431,0.000705
146810000,0.0324,0.013523,0.002678,0.000431,0.000940
146811000,0.0324,0.013523,0.002678,0.000431,0.000823
146812000,0.0324,0.013523,0.002678,0.000431,0.000823
146813000,0.0324,0.013523,0.002678,0.000431,0.000705
146814000,0.0324,0.013523,0.002678,0.000431,0.000940
146815000,0.0324,0.013523,0.002678,0.000431,0.000940
146816000,0.0324,0.013523,0.002678,0.000431,0.000705
146817000,0.0324,0.013523,0.002678,0.000431,0.000940
146818000,0.0324,0.013523,0.002678,0.000431,0.000705
146819000,0.0324,0.013523,0.002678,0.000431,0.000940
146820000,0.0324,0.013523,0.002678,0.000431,0.000823
146821000,0.0324,0.013523,0.002678,0.000431,0.000823
146822000,0.0324,0.013523,0.002678,0.000431,0.000940
146823000,0.0324,0.013523,0.002678,0.000431,0.000705
146824000,0.0324,0.013523,0.002678,0.000431,0.000940
146825000,0.0324,0.013523,0.002678,0.000431,0.000823
146826000,0.0324,0.013523,0.002678,0.000431,0.000823
146827000,0.0324,0.013523,0.002678,0.000431,0.000823
146828000,0.0324,0.013523,0.002678,0.000431,0.000823
146829000,0.0324,0.013523,0.002678,0.000431,0.000823
146830000,0.0324,0.013523,0.002678,0.000431,0.000823
146831000,0.0324,0.013523,0.002678,0.000431,0.000940
146832000,0.0324,0.013523,0.002678,0.000431,0.000705
146833000,0.0324,0.013523,0.002678,0.000431,0.000823
146834000,0.0324,0.013523,0.002678,0.000431,0.000940
146835000,0.0324,0.013523,0.002678,0.000431,0.000823
146836000,0.0324,0.013523,0.002678,0.000431,0.000823
146837000,0.0324,0.013523,0.002678,0.000431,0.000823
146838000,0.0324,0.013523,0.002678,0.000431,0.000705
146839000,0.0324,0.013523,0.002678,0.000431,0.000940
146840000,0.0324,0.013523,0.002678,0.000431,0.000940
146841000,0.0324,0.013523,0.002678,0.000431,0.000705
146842000,0.0324,0.013523,0.002678,0.000431,0.000940
146843000,0.0324,0.013523,0.002678,0.000431,0.000705
146844000,0.0324,0.013523,0.002678,0.000431,0.000940
146845000,0.0324,0.013523,0.002678,0.000431,0.000940
146846000,0.0324,0.013523,0.002678,0.000431,0.000705
146847000,0.0324,0.013523,0.002678,0.000431,0.000940
146848000,0.0324,0.013523,0.002678,0.000431,0.000705
146849000,0.0324,0.013523,0.002678,0.000431,0.000940
146850000,0.0324,0.013523,0.002678,0.000431,0.000823
146851000,0.0324,0.013523,0.002678,0.000431,0.000823
146852000,0.0324,0.013523,0.002678,0.000431,0.000823
146853000,0.0324,0.013523,0.002678,0.000431,0.000823
146854000,0.0324,0.013523,0.002678,0.000431,0.000940
146855000,0.0324,0.013523,0.002678,0.000431,0.000705
146856000,0.0324,0.013523,0.002678,0.000431,0.000940
146857000,0.0324,0.013523,0.002678,0.000431,0.000823
146858000,0.0324,0.013523,0.002678,0.000431,0.000823
146859000,0.0324,0.013523,0.002678,0.000431,0.000823
146860000,0.0324,0.013523,0.002678,0.000431,0.000823
146861000,0.0324,0.013523,0.002678,0.000431,0.000705
146862000,0.0324,0.013523,0.002678,0.000431,0.000940
146863000,0.0324,0.013523,0.002678,0.000431,0.000940
146864000,0.0324,0.013523,0.002678,0.000431,0.000705
146865000,0.0324,0.013523,0.002678,0.000431,0.000940
146866000,0.0324,0.013523,0.002678,0.000431,0.000705
146867000,0.0324,0.013523,0.002678,0.000431,0.000940
146868000,0.0324,0.013523,0.002678,0.000431,0.000823
146869000,0.0324,0.013523,0.002678,0.000431,0.000823
146870000,0.0324,0.013523,0.002678,0.000431,0.000940
146871000,0.0324,0.013523,0.002678,0.000431,0.000705
146872000,0.0324,0.013523,0.002678,0.000431,0.000940
146873000,0.0324,0.013523,0.002678,0.000431,0.000705
146874000,0.0324,0.013523,0.002678,0.000431,0.000940
146875000,0.0324,0.013523,0.002678,0.000431,0.000823
146876000,0.0324,0.013523,0.002678,0.000431,0.000823
146877000,0.0324,0.013523,0.002678,0.000431,0.000823
146878000,0.0324,0.013523,0.002678,0.000431,0.000823
146879000,0.0324,0.013523,0.002678,0.000431,0.000940
146880000,0.0324,0.013523,0.002678,0.000431,0.000823
146881000,0.0324,0.013523,0.002678,0.000431,0.000940
146882000,0.0324,0.013523,0.002678,0.000431,0.000823
146883000,0.0324,0.013523,0.002678,0.000431,0.000940
146884000,0.0324,0.013523,0.002678,0.000431,0.000940
146885000,0.0324,0.013523,0.002678,0.000431,0.000940
146886000,0.0324,0.013523,0.002678,0.000431,0.015631
146887000,0.0324,0.013523,0.002678,0.000431,0.686952
146888000,0.0324,0.013523,0.002678,0.000431,0.586231
146889000,0.0324,0.013523,0.002678,0.000431,0.132572
146890000,0.0324,0.013523,0.002678,0.000431,0.135863
146891000,0.0324,0.013523,0.002678,0.000431,0.521237
146892000,0.0324,0.013523,0.002678,0.000431,0.236349
146893000,0.0324,0.013523,0.002678,0.000431,0.253508
146894000,0.0324,0.013523,0.002678,0.000431,0.286181
146895000,0.0324,0.013523,0.002678,0.000431,0.155255
146896000,0.0324,0.013523,0.002678,0.000431,0.167595
146897000,0.0324,0.013523,0.002678,0.000431,0.154315
146898000,0.0324,0.013523,0.002678,0.000431,0.526056
146899000,0.0324,0.013523,0.002678,0.000431,0.215547
146900000,0.0324,0.013523,0.002678,0.000431,0.181111
146901000,0.0324,0.013523,0.002678,0.000431,0.161719
146902000,0.0324,0.013523,0.002678,0.000431,0.134335
146903000,0.0324,0.013523,0.002678,0.000431,0.112710
146904000,0.0324,0.013523,0.002678,0.000431,0.090849
146905000,0.0324,0.013523,0.002678,0.000431,0.088616
146906000,0.0324,0.013523,0.002678,0.000431,0.083680
146907000,0.0324,0.013523,0.002678,0.000431,0.062878
146908000,0.0324,0.013523,0.002678,0.000431,0.062760
146909000,0.0324,0.013523,0.002678,0.000431,0.067814
146910000,0.0324,0.013523,0.002678,0.000431,0.036904
146911000,0.0324,0.013523,0.002678,0.000431,0.034553
146912000,0.0324,0.013523,0.002678,0.000431,0.029147
146913000,0.0324,0.013523,0.002678,0.000431,0.031145
146914000,0.0324,0.013523,0.002678,0.000431,0.026444
146915000,0.0324,0.013523,0.002678,0.000431,0.029147
146916000,0.0324,0.013523,0.002678,0.000431,0.029265
146917000,0.0324,0.013523,0.002678,0.000431,0.022095
146918000,0.0324,0.013523,0.002678,0.000431,0.024446
146919000,0.0324,0.013523,0.002678,0.000431,0.026326
146920000,0.0324,0.013523,0.002678,0.000431,0.022448
146921000,0.0324,0.013523,0.002678,0.000431,0.021508
146922000,0.0324,0.013523,0.002678,0.000431,0.021273
146923000,0.0324,0.013523,0.002678,0.000431,0.022448
146924000,0.0324,0.013523,0.002678,0.000431,0.021860
146925000,0.0324,0.013523,0.002678,0.000431,0.020450
146926000,0.0324,0.013523,0.002678,0.000431,0.020567
146927000,0.0324,0.013523,0.002678,0.000431,0.023153
146928000,0.0324,0.013523,0.002678,0.000431,0.019157
146929000,0.0324,0.013523,0.002678,0.000431,0.017864
146930000,0.0324,0.013523,0.002678,0.000431,0.017747
146931000,0.0324,0.013523,0.002678,0.000431,0.019745
146932000,0.0324,0.013523,0.002678,0.000431,0.017042
146933000,0.0324,0.013523,0.002678,0.000431,0.018687
146934000,0.0324,0.013523,0.002678,0.000431,0.020920
146935000,0.0324,0.013523,0.002678,0.000431,0.015866
146936000,0.0324,0.013523,0.002678,0.000431,0.012928
146937000,0.0324,0.013523,0.002678,0.000431,0.013633
146938000,0.0324,0.013523,0.002678,0.000431,0.015279
146939000,0.0324,0.013523,0.002678,0.000431,0.012458
146940000,0.0324,0.013523,0.002678,0.000431,0.012223
146941000,0.0324,0.013523,0.002678,0.000431,0.012223
146942000,0.0324,0.013523,0.002678,0.000431,0.012928
146943000,0.0324,0.013523,0.002678,0.000431,0.013868
146944000,0.0324,0.013523,0.002678,0.000431,0.012340
146945000,0.0324,0.013523,0.002678,0.000431,0.010342
146946000,0.0324,0.013523,0.002678,0.000431,0.010930
146947000,0.0324,0.013523,0.002678,0.000431,0.010107
146948000,0.0324,0.013523,0.002678,0.000431,0.007874
146949000,0.0324,0.013523,0.002678,0.000431,0.008932
146950000,0.0324,0.013523,0.002678,0.000431,0.007639
146951000,0.0324,0.013523,0.002678,0.000431,0.007639
146952000,0.0324,0.013523,0.002678,0.000431,0.007757
146953000,0.0324,0.013523,0.002678,0.000431,0.007169
146954000,0.0324,0.013523,0.002678,0.000431,0.007874
146955000,0.0324,0.013523,0.002678,0.000431,0.007052
146956000,0.0324,0.013523,0.002678,0.000431,0.007874
146957000,0.0324,0.013523,0.002678,0.000431,0.006229
146958000,0.0324,0.013523,0.002678,0.000431,0.008345
146959000,0.0324,0.013523,0.002678,0.000431,0.007522
146960000,0.0324,0.013523,0.002678,0.000431,0.006111
146961000,0.0324,0.013523,0.002678,0.000431,0.005406
146962000,0.0324,0.013523,0.002678,0.000431,0.005876
146963000,0.0324,0.013523,0.002678,0.000431,0.005524
146964000,0.0324,0.013523,0.002678,0.000431,0.005994
146965000,0.0324,0.013523,0.002678,0.000431,0.005994
146966000,0.0324,0.013523,0.002678,0.000431,0.005289
146967000,0.0324,0.013523,0.002678,0.000431,0.006229
146968000,0.0324,0.013523,0.002678,0.000431,0.004936
146969000,0.0324,0.013523,0.002678,0.000431,0.006111
146970000,0.0324,0.013523,0.002678,0.000431,0.006111
146971000,0.0324,0.013523,0.002678,0.000431,0.005171
146972000,0.0324,0.013523,0.002678,0.000431,0.005994
146973000,0.0324,0.013523,0.002678,0.000431,0.005524
146974000,0.0324,0.013523,0.002678,0.000431,0.005994
146975000,0.0324,0.013523,0.002678,0.000431,0.007169
146976000,0.0324,0.013523,0.002678,0.000431,0.006111
146977000,0.0324,0.013523,0.002678,0.000431,0.003996
146978000,0.0324,0.013523,0.002678,0.000431,0.004466
146979000,0.0324,0.013523,0.002678,0.000431,0.005759
146980000,0.0324,0.013523,0.002678,0.000431,0.005289
146981000,0.0324,0.013523,0.002678,0.000431,0.004231
146982000,0.0324,0.013523,0.002678,0.000431,0.003643
146983000,0.0324,0.013523,0.002678,0.000431,0.003996
146984000,0.0324,0.013523,0.002678,0.000431,0.004466
146985000,0.0324,0.013523,0.002678,0.000431,0.003291
146986000,0.0324,0.013523,0.002678,0.000431,0.004349
146987000,0.0324,0.013523,0.002678,0.000431,0.003878
146988000,0.0324,0.013523,0.002678,0.000431,0.004231
146989000,0.0324,0.013523,0.002678,0.000431,0.004231
146990000,0.0324,0.013523,0.002678,0.000431,0.009050
146991000,0.0324,0.013523,0.002678,0.000431,0.001880
146992000,0.0324,0.013523,0.002678,0.000431,0.001880
146993000,0.0324,0.013523,0.002678,0.000431,0.001410
146994000,0.0324,0.013523,0.002678,0.000431,0.001645
146995000,0.0324,0.013523,0.002678,0.000431,0.001880
146996000,0.0324,0.013523,0.002678,0.000431,0.001528
146997000,0.0324,0.013523,0.002678,0.000431,0.001528
146998000,0.0324,0.013523,0.002678,0.000431,0.001763
146999000,0.0324,0.013523,0.002678,0.000431,0.001763
