Cycle,Area(mm^2),PeakDynamic(W),SubthresholdLeakage(W),GateLeakage(W),RunTimeDynamic(W)
76000000,0.0324,0.013523,0.002678,0.000431,0.007522
76001000,0.0324,0.013523,0.002678,0.000431,0.007169
76002000,0.0324,0.013523,0.002678,0.000431,0.006582
76003000,0.0324,0.013523,0.002678,0.000431,0.007639
76004000,0.0324,0.013523,0.002678,0.000431,0.006934
76005000,0.0324,0.013523,0.002678,0.000431,0.007169
76006000,0.0324,0.013523,0.002678,0.000431,0.007169
76007000,0.0324,0.013523,0.002678,0.000431,0.006817
76008000,0.0324,0.013523,0.002678,0.000431,0.007757
76009000,0.0324,0.013523,0.002678,0.000431,0.006582
76010000,0.0324,0.013523,0.002678,0.000431,0.007287
76011000,0.0324,0.013523,0.002678,0.000431,0.007052
76012000,0.0324,0.013523,0.002678,0.000431,0.006934
76013000,0.0324,0.013523,0.002678,0.000431,0.007757
76014000,0.0324,0.013523,0.002678,0.000431,0.006582
76015000,0.0324,0.013523,0.002678,0.000431,0.007404
76016000,0.0324,0.013523,0.002678,0.000431,0.007287
76017000,0.0324,0.013523,0.002678,0.000431,0.006464
76018000,0.0324,0.013523,0.002678,0.000431,0.008345
76019000,0.0324,0.013523,0.002678,0.000431,0.005759
76020000,0.0324,0.013523,0.002678,0.000431,0.005876
76021000,0.0324,0.013523,0.002678,0.000431,0.005759
76022000,0.0324,0.013523,0.002678,0.000431,0.006347
76023000,0.0324,0.013523,0.002678,0.000431,0.005876
76024000,0.0324,0.013523,0.002678,0.000431,0.005759
76025000,0.0324,0.013523,0.002678,0.000431,0.006229
76026000,0.0324,0.013523,0.002678,0.000431,0.005759
76027000,0.0324,0.013523,0.002678,0.000431,0.005994
76028000,0.0324,0.013523,0.002678,0.000431,0.005759
76029000,0.0324,0.013523,0.002678,0.000431,0.005994
76030000,0.0324,0.013523,0.002678,0.000431,0.005994
76031000,0.0324,0.013523,0.002678,0.000431,0.005876
76032000,0.0324,0.013523,0.002678,0.000431,0.005759
76033000,0.0324,0.013523,0.002678,0.000431,0.005876
76034000,0.0324,0.013523,0.002678,0.000431,0.006347
76035000,0.0324,0.013523,0.002678,0.000431,0.005524
76036000,0.0324,0.013523,0.002678,0.000431,0.005994
76037000,0.0324,0.013523,0.002678,0.000431,0.006111
76038000,0.0324,0.013523,0.002678,0.000431,0.007287
76039000,0.0324,0.013523,0.002678,0.000431,0.004701
76040000,0.0324,0.013523,0.002678,0.000431,0.005054
76041000,0.0324,0.013523,0.002678,0.000431,0.005641
76042000,0.0324,0.013523,0.002678,0.000431,0.004819
76043000,0.0324,0.013523,0.002678,0.000431,0.006582
76044000,0.0324,0.013523,0.002678,0.000431,0.004231
76045000,0.0324,0.013523,0.002678,0.000431,0.004466
76046000,0.0324,0.013523,0.002678,0.000431,0.004231
76047000,0.0324,0.013523,0.002678,0.000431,0.003996
76048000,0.0324,0.013523,0.002678,0.000431,0.004349
76049000,0.0324,0.013523,0.002678,0.000431,0.004113
76050000,0.0324,0.013523,0.002678,0.000431,0.004349
76051000,0.0324,0.013523,0.002678,0.000431,0.003996
76052000,0.0324,0.013523,0.002678,0.000431,0.004349
76053000,0.0324,0.013523,0.002678,0.000431,0.004349
76054000,0.0324,0.013523,0.002678,0.000431,0.004113
76055000,0.0324,0.013523,0.002678,0.000431,0.003996
76056000,0.0324,0.013523,0.002678,0.000431,0.004466
76057000,0.0324,0.013523,0.002678,0.000431,0.004231
76058000,0.0324,0.013523,0.002678,0.000431,0.003996
76059000,0.0324,0.013523,0.002678,0.000431,0.004349
76060000,0.0324,0.013523,0.002678,0.000431,0.004113
76061000,0.0324,0.013523,0.002678,0.000431,0.007169
76062000,0.0324,0.013523,0.002678,0.000431,0.003056
76063000,0.0324,0.013523,0.002678,0.000431,0.003526
76064000,0.0324,0.013523,0.002678,0.000431,0.003408
76065000,0.0324,0.013523,0.002678,0.000431,0.003291
76066000,0.0324,0.013523,0.002678,0.000431,0.005994
76067000,0.0324,0.013523,0.002678,0.000431,0.002703
76068000,0.0324,0.013523,0.002678,0.000431,0.000940
76069000,0.0324,0.013523,0.002678,0.000431,0.000823
76070000,0.0324,0.013523,0.002678,0.000431,0.000823
76071000,0.0324,0.013523,0.002678,0.000431,0.000940
76072000,0.0324,0.013523,0.002678,0.000431,0.000940
76073000,0.0324,0.013523,0.002678,0.000431,0.000823
76074000,0.0324,0.013523,0.002678,0.000431,0.000823
76075000,0.0324,0.013523,0.002678,0.000431,0.000940
76076000,0.0324,0.013523,0.002678,0.000431,0.000940
76077000,0.0324,0.013523,0.002678,0.000431,0.000823
76078000,0.0324,0.013523,0.002678,0.000431,0.000823
76079000,0.0324,0.013523,0.002678,0.000431,0.000940
76080000,0.0324,0.013523,0.002678,0.000431,0.000823
76081000,0.0324,0.013523,0.002678,0.000431,0.000940
76082000,0.0324,0.013523,0.002678,0.000431,0.000823
76083000,0.0324,0.013523,0.002678,0.000431,0.000940
76084000,0.0324,0.013523,0.002678,0.000431,0.000823
76085000,0.0324,0.013523,0.002678,0.000431,0.000823
76086000,0.0324,0.013523,0.002678,0.000431,0.000940
76087000,0.0324,0.013523,0.002678,0.000431,0.000940
76088000,0.0324,0.013523,0.002678,0.000431,0.000823
76089000,0.0324,0.013523,0.002678,0.000431,0.000823
76090000,0.0324,0.013523,0.002678,0.000431,0.000940
76091000,0.0324,0.013523,0.002678,0.000431,0.000940
76092000,0.0324,0.013523,0.002678,0.000431,0.000705
76093000,0.0324,0.013523,0.002678,0.000431,0.000940
76094000,0.0324,0.013523,0.002678,0.000431,0.000940
76095000,0.0324,0.013523,0.002678,0.000431,0.000940
76096000,0.0324,0.013523,0.002678,0.000431,0.000705
76097000,0.0324,0.013523,0.002678,0.000431,0.000940
76098000,0.0324,0.013523,0.002678,0.000431,0.000940
76099000,0.0324,0.013523,0.002678,0.000431,0.000823
76100000,0.0324,0.013523,0.002678,0.000431,0.000823
76101000,0.0324,0.013523,0.002678,0.000431,0.000940
76102000,0.0324,0.013523,0.002678,0.000431,0.000940
76103000,0.0324,0.013523,0.002678,0.000431,0.000823
76104000,0.0324,0.013523,0.002678,0.000431,0.000823
76105000,0.0324,0.013523,0.002678,0.000431,0.000940
76106000,0.0324,0.013523,0.002678,0.000431,0.189573
76107000,0.0324,0.013523,0.002678,0.000431,0.431328
76108000,0.0324,0.013523,0.002678,0.000431,0.505489
76109000,0.0324,0.013523,0.002678,0.000431,0.133042
76110000,0.0324,0.013523,0.002678,0.000431,0.131632
76111000,0.0324,0.013523,0.002678,0.000431,0.560727
76112000,0.0324,0.013523,0.002678,0.000431,0.247867
76113000,0.0324,0.013523,0.002678,0.000431,0.262440
76114000,0.0324,0.013523,0.002678,0.000431,0.284418
76115000,0.0324,0.013523,0.002678,0.000431,0.138213
76116000,0.0324,0.013523,0.002678,0.000431,0.146558
76117000,0.0324,0.013523,0.002678,0.000431,0.136215
76118000,0.0324,0.013523,0.002678,0.000431,0.236702
76119000,0.0324,0.013523,0.002678,0.000431,0.346708
76120000,0.0324,0.013523,0.002678,0.000431,0.049009
76121000,0.0324,0.013523,0.002678,0.000431,0.043015
76122000,0.0324,0.013523,0.002678,0.000431,0.034083
76123000,0.0324,0.013523,0.002678,0.000431,0.026091
76124000,0.0324,0.013523,0.002678,0.000431,0.024681
76125000,0.0324,0.013523,0.002678,0.000431,0.023976
76126000,0.0324,0.013523,0.002678,0.000431,0.021743
76127000,0.0324,0.013523,0.002678,0.000431,0.022800
76128000,0.0324,0.013523,0.002678,0.000431,0.018334
76129000,0.0324,0.013523,0.002678,0.000431,0.019510
76130000,0.0324,0.013523,0.002678,0.000431,0.015279
76131000,0.0324,0.013523,0.002678,0.000431,0.014221
76132000,0.0324,0.013523,0.002678,0.000431,0.012105
76133000,0.0324,0.013523,0.002678,0.000431,0.013751
76134000,0.0324,0.013523,0.002678,0.000431,0.012811
76135000,0.0324,0.013523,0.002678,0.000431,0.011283
76136000,0.0324,0.013523,0.002678,0.000431,0.009167
76137000,0.0324,0.013523,0.002678,0.000431,0.010225
76138000,0.0324,0.013523,0.002678,0.000431,0.008580
76139000,0.0324,0.013523,0.002678,0.000431,0.007757
76140000,0.0324,0.013523,0.002678,0.000431,0.008345
76141000,0.0324,0.013523,0.002678,0.000431,0.007992
76142000,0.0324,0.013523,0.002678,0.000431,0.008462
76143000,0.0324,0.013523,0.002678,0.000431,0.010813
76144000,0.0324,0.013523,0.002678,0.000431,0.007639
76145000,0.0324,0.013523,0.002678,0.000431,0.007522
76146000,0.0324,0.013523,0.002678,0.000431,0.007169
76147000,0.0324,0.013523,0.002678,0.000431,0.006934
76148000,0.0324,0.013523,0.002678,0.000431,0.007639
76149000,0.0324,0.013523,0.002678,0.000431,0.007522
76150000,0.0324,0.013523,0.002678,0.000431,0.007287
76151000,0.0324,0.013523,0.002678,0.000431,0.007404
76152000,0.0324,0.013523,0.002678,0.000431,0.007052
76153000,0.0324,0.013523,0.002678,0.000431,0.007874
76154000,0.0324,0.013523,0.002678,0.000431,0.007052
76155000,0.0324,0.013523,0.002678,0.000431,0.007522
76156000,0.0324,0.013523,0.002678,0.000431,0.007287
76157000,0.0324,0.013523,0.002678,0.000431,0.007287
76158000,0.0324,0.013523,0.002678,0.000431,0.007404
76159000,0.0324,0.013523,0.002678,0.000431,0.007169
76160000,0.0324,0.013523,0.002678,0.000431,0.007287
76161000,0.0324,0.013523,0.002678,0.000431,0.007639
76162000,0.0324,0.013523,0.002678,0.000431,0.008109
76163000,0.0324,0.013523,0.002678,0.000431,0.007522
76164000,0.0324,0.013523,0.002678,0.000431,0.005876
76165000,0.0324,0.013523,0.002678,0.000431,0.005289
76166000,0.0324,0.013523,0.002678,0.000431,0.005876
76167000,0.0324,0.013523,0.002678,0.000431,0.005759
76168000,0.0324,0.013523,0.002678,0.000431,0.005641
76169000,0.0324,0.013523,0.002678,0.000431,0.005289
76170000,0.0324,0.013523,0.002678,0.000431,0.005994
76171000,0.0324,0.013523,0.002678,0.000431,0.005876
76172000,0.0324,0.013523,0.002678,0.000431,0.005641
76173000,0.0324,0.013523,0.002678,0.000431,0.005524
76174000,0.0324,0.013523,0.002678,0.000431,0.005641
76175000,0.0324,0.013523,0.002678,0.000431,0.005759
76176000,0.0324,0.013523,0.002678,0.000431,0.005641
76177000,0.0324,0.013523,0.002678,0.000431,0.005876
76178000,0.0324,0.013523,0.002678,0.000431,0.005171
76179000,0.0324,0.013523,0.002678,0.000431,0.005994
76180000,0.0324,0.013523,0.002678,0.000431,0.005759
76181000,0.0324,0.013523,0.002678,0.000431,0.005406
76182000,0.0324,0.013523,0.002678,0.000431,0.005759
76183000,0.0324,0.013523,0.002678,0.000431,0.005759
76184000,0.0324,0.013523,0.002678,0.000431,0.005641
76185000,0.0324,0.013523,0.002678,0.000431,0.005641
76186000,0.0324,0.013523,0.002678,0.000431,0.005524
76187000,0.0324,0.013523,0.002678,0.000431,0.005641
76188000,0.0324,0.013523,0.002678,0.000431,0.005641
76189000,0.0324,0.013523,0.002678,0.000431,0.005876
76190000,0.0324,0.013523,0.002678,0.000431,0.006347
76191000,0.0324,0.013523,0.002678,0.000431,0.004819
76192000,0.0324,0.013523,0.002678,0.000431,0.004701
76193000,0.0324,0.013523,0.002678,0.000431,0.005054
76194000,0.0324,0.013523,0.002678,0.000431,0.005054
76195000,0.0324,0.013523,0.002678,0.000431,0.005054
76196000,0.0324,0.013523,0.002678,0.000431,0.002821
76197000,0.0324,0.013523,0.002678,0.000431,0.001998
76198000,0.0324,0.013523,0.002678,0.000431,0.002703
76199000,0.0324,0.013523,0.002678,0.000431,0.002233
76200000,0.0324,0.013523,0.002678,0.000431,0.002351
76201000,0.0324,0.013523,0.002678,0.000431,0.002586
76202000,0.0324,0.013523,0.002678,0.000431,0.002351
76203000,0.0324,0.013523,0.002678,0.000431,0.002468
76204000,0.0324,0.013523,0.002678,0.000431,0.002468
76205000,0.0324,0.013523,0.002678,0.000431,0.002351
76206000,0.0324,0.013523,0.002678,0.000431,0.002351
76207000,0.0324,0.013523,0.002678,0.000431,0.002351
76208000,0.0324,0.013523,0.002678,0.000431,0.002586
76209000,0.0324,0.013523,0.002678,0.000431,0.002586
76210000,0.0324,0.013523,0.002678,0.000431,0.002116
76211000,0.0324,0.013523,0.002678,0.000431,0.002586
76212000,0.0324,0.013523,0.002678,0.000431,0.001998
76213000,0.0324,0.013523,0.002678,0.000431,0.002703
76214000,0.0324,0.013523,0.002678,0.000431,0.002703
76215000,0.0324,0.013523,0.002678,0.000431,0.002116
76216000,0.0324,0.013523,0.002678,0.000431,0.002703
76217000,0.0324,0.013523,0.002678,0.000431,0.003761
76218000,0.0324,0.013523,0.002678,0.000431,0.001763
76219000,0.0324,0.013523,0.002678,0.000431,0.001645
76220000,0.0324,0.013523,0.002678,0.000431,0.001410
76221000,0.0324,0.013523,0.002678,0.000431,0.001645
76222000,0.0324,0.013523,0.002678,0.000431,0.001528
76223000,0.0324,0.013523,0.002678,0.000431,0.001528
76224000,0.0324,0.013523,0.002678,0.000431,0.001645
76225000,0.0324,0.013523,0.002678,0.000431,0.001645
76226000,0.0324,0.013523,0.002678,0.000431,0.001410
76227000,0.0324,0.013523,0.002678,0.000431,0.001645
76228000,0.0324,0.013523,0.002678,0.000431,0.001645
76229000,0.0324,0.013523,0.002678,0.000431,0.001645
76230000,0.0324,0.013523,0.002678,0.000431,0.001410
76231000,0.0324,0.013523,0.002678,0.000431,0.001645
76232000,0.0324,0.013523,0.002678,0.000431,0.001410
76233000,0.0324,0.013523,0.002678,0.000431,0.001645
76234000,0.0324,0.013523,0.002678,0.000431,0.001880
76235000,0.0324,0.013523,0.002678,0.000431,0.001175
76236000,0.0324,0.013523,0.002678,0.000431,0.001880
76237000,0.0324,0.013523,0.002678,0.000431,0.001410
76238000,0.0324,0.013523,0.002678,0.000431,0.001645
76239000,0.0324,0.013523,0.002678,0.000431,0.001645
76240000,0.0324,0.013523,0.002678,0.000431,0.001410
76241000,0.0324,0.013523,0.002678,0.000431,0.001880
76242000,0.0324,0.013523,0.002678,0.000431,0.001410
76243000,0.0324,0.013523,0.002678,0.000431,0.001645
76244000,0.0324,0.013523,0.002678,0.000431,0.001410
76245000,0.0324,0.013523,0.002678,0.000431,0.001645
76246000,0.0324,0.013523,0.002678,0.000431,0.001645
76247000,0.0324,0.013523,0.002678,0.000431,0.001645
76248000,0.0324,0.013523,0.002678,0.000431,0.001410
76249000,0.0324,0.013523,0.002678,0.000431,0.014103
76250000,0.0324,0.013523,0.002678,0.000431,0.482453
76251000,0.0324,0.013523,0.002678,0.000431,0.594810
76252000,0.0324,0.013523,0.002678,0.000431,0.134922
76253000,0.0324,0.013523,0.002678,0.000431,0.130691
76254000,0.0324,0.013523,0.002678,0.000431,0.341302
76255000,0.0324,0.013523,0.002678,0.000431,0.440848
76256000,0.0324,0.013523,0.002678,0.000431,0.269962
76257000,0.0324,0.013523,0.002678,0.000431,0.297581
76258000,0.0324,0.013523,0.002678,0.000431,0.194157
76259000,0.0324,0.013523,0.002678,0.000431,0.137861
76260000,0.0324,0.013523,0.002678,0.000431,0.142679
76261000,0.0324,0.013523,0.002678,0.000431,0.230238
76262000,0.0324,0.013523,0.002678,0.000431,0.353642
76263000,0.0324,0.013523,0.002678,0.000431,0.036551
76264000,0.0324,0.013523,0.002678,0.000431,0.033143
76265000,0.0324,0.013523,0.002678,0.000431,0.027149
76266000,0.0324,0.013523,0.002678,0.000431,0.027619
76267000,0.0324,0.013523,0.002678,0.000431,0.024446
76268000,0.0324,0.013523,0.002678,0.000431,0.025386
76269000,0.0324,0.013523,0.002678,0.000431,0.027267
76270000,0.0324,0.013523,0.002678,0.000431,0.016924
76271000,0.0324,0.013523,0.002678,0.000431,0.017042
76272000,0.0324,0.013523,0.002678,0.000431,0.014926
76273000,0.0324,0.013523,0.002678,0.000431,0.018922
76274000,0.0324,0.013523,0.002678,0.000431,0.013516
76275000,0.0324,0.013523,0.002678,0.000431,0.011048
76276000,0.0324,0.013523,0.002678,0.000431,0.011165
76277000,0.0324,0.013523,0.002678,0.000431,0.013986
76278000,0.0324,0.013523,0.002678,0.000431,0.009402
76279000,0.0324,0.013523,0.002678,0.000431,0.008815
76280000,0.0324,0.013523,0.002678,0.000431,0.009285
76281000,0.0324,0.013523,0.002678,0.000431,0.009167
76282000,0.0324,0.013523,0.002678,0.000431,0.008697
76283000,0.0324,0.013523,0.002678,0.000431,0.010460
76284000,0.0324,0.013523,0.002678,0.000431,0.010342
76285000,0.0324,0.013523,0.002678,0.000431,0.007874
76286000,0.0324,0.013523,0.002678,0.000431,0.009402
76287000,0.0324,0.013523,0.002678,0.000431,0.006582
76288000,0.0324,0.013523,0.002678,0.000431,0.006817
76289000,0.0324,0.013523,0.002678,0.000431,0.006934
76290000,0.0324,0.013523,0.002678,0.000431,0.006347
76291000,0.0324,0.013523,0.002678,0.000431,0.007052
76292000,0.0324,0.013523,0.002678,0.000431,0.006464
76293000,0.0324,0.013523,0.002678,0.000431,0.007874
76294000,0.0324,0.013523,0.002678,0.000431,0.007522
76295000,0.0324,0.013523,0.002678,0.000431,0.004349
76296000,0.0324,0.013523,0.002678,0.000431,0.004584
76297000,0.0324,0.013523,0.002678,0.000431,0.004701
76298000,0.0324,0.013523,0.002678,0.000431,0.004584
76299000,0.0324,0.013523,0.002678,0.000431,0.003408
76300000,0.0324,0.013523,0.002678,0.000431,0.003291
76301000,0.0324,0.013523,0.002678,0.000431,0.003408
76302000,0.0324,0.013523,0.002678,0.000431,0.003291
76303000,0.0324,0.013523,0.002678,0.000431,0.003643
76304000,0.0324,0.013523,0.002678,0.000431,0.003056
76305000,0.0324,0.013523,0.002678,0.000431,0.003526
76306000,0.0324,0.013523,0.002678,0.000431,0.003408
76307000,0.0324,0.013523,0.002678,0.000431,0.003526
76308000,0.0324,0.013523,0.002678,0.000431,0.002586
76309000,0.0324,0.013523,0.002678,0.000431,0.002703
76310000,0.0324,0.013523,0.002678,0.000431,0.002351
76311000,0.0324,0.013523,0.002678,0.000431,0.002586
76312000,0.0324,0.013523,0.002678,0.000431,0.002821
76313000,0.0324,0.013523,0.002678,0.000431,0.002468
76314000,0.0324,0.013523,0.002678,0.000431,0.002468
76315000,0.0324,0.013523,0.002678,0.000431,0.002586
76316000,0.0324,0.013523,0.002678,0.000431,0.002586
76317000,0.0324,0.013523,0.002678,0.000431,0.002586
76318000,0.0324,0.013523,0.002678,0.000431,0.002586
76319000,0.0324,0.013523,0.002678,0.000431,0.002586
76320000,0.0324,0.013523,0.002678,0.000431,0.003643
76321000,0.0324,0.013523,0.002678,0.000431,0.001880
76322000,0.0324,0.013523,0.002678,0.000431,0.003173
76323000,0.0324,0.013523,0.002678,0.000431,0.000940
76324000,0.0324,0.013523,0.002678,0.000431,0.000940
76325000,0.0324,0.013523,0.002678,0.000431,0.000823
76326000,0.0324,0.013523,0.002678,0.000431,0.000940
76327000,0.0324,0.013523,0.002678,0.000431,0.000823
76328000,0.0324,0.013523,0.002678,0.000431,0.000940
76329000,0.0324,0.013523,0.002678,0.000431,0.000823
76330000,0.0324,0.013523,0.002678,0.000431,0.000823
76331000,0.0324,0.013523,0.002678,0.000431,0.000940
76332000,0.0324,0.013523,0.002678,0.000431,0.000940
76333000,0.0324,0.013523,0.002678,0.000431,0.000823
76334000,0.0324,0.013523,0.002678,0.000431,0.000823
76335000,0.0324,0.013523,0.002678,0.000431,0.000940
76336000,0.0324,0.013523,0.002678,0.000431,0.000940
76337000,0.0324,0.013523,0.002678,0.000431,0.000705
76338000,0.0324,0.013523,0.002678,0.000431,0.000940
76339000,0.0324,0.013523,0.002678,0.000431,0.000940
76340000,0.0324,0.013523,0.002678,0.000431,0.000940
76341000,0.0324,0.013523,0.002678,0.000431,0.000705
76342000,0.0324,0.013523,0.002678,0.000431,0.000940
76343000,0.0324,0.013523,0.002678,0.000431,0.000940
76344000,0.0324,0.013523,0.002678,0.000431,0.000823
76345000,0.0324,0.013523,0.002678,0.000431,0.000940
76346000,0.0324,0.013523,0.002678,0.000431,0.000823
76347000,0.0324,0.013523,0.002678,0.000431,0.000940
76348000,0.0324,0.013523,0.002678,0.000431,0.000823
76349000,0.0324,0.013523,0.002678,0.000431,0.000823
76350000,0.0324,0.013523,0.002678,0.000431,0.000940
76351000,0.0324,0.013523,0.002678,0.000431,0.000940
76352000,0.0324,0.013523,0.002678,0.000431,0.000823
76353000,0.0324,0.013523,0.002678,0.000431,0.000823
76354000,0.0324,0.013523,0.002678,0.000431,0.001645
76355000,0.0324,0.013523,0.002678,0.000431,0.310980
76356000,0.0324,0.013523,0.002678,0.000431,0.612087
76357000,0.0324,0.013523,0.002678,0.000431,0.226947
76358000,0.0324,0.013523,0.002678,0.000431,0.132102
76359000,0.0324,0.013523,0.002678,0.000431,0.133512
76360000,0.0324,0.013523,0.002678,0.000431,0.594693
76361000,0.0324,0.013523,0.002678,0.000431,0.221541
76362000,0.0324,0.013523,0.002678,0.000431,0.270080
76363000,0.0324,0.013523,0.002678,0.000431,0.284066
76364000,0.0324,0.013523,0.002678,0.000431,0.137743
76365000,0.0324,0.013523,0.002678,0.000431,0.137390
76366000,0.0324,0.013523,0.002678,0.000431,0.120466
76367000,0.0324,0.013523,0.002678,0.000431,0.326611
76368000,0.0324,0.013523,0.002678,0.000431,0.243636
76369000,0.0324,0.013523,0.002678,0.000431,0.025739
76370000,0.0324,0.013523,0.002678,0.000431,0.030205
76371000,0.0324,0.013523,0.002678,0.000431,0.019392
76372000,0.0324,0.013523,0.002678,0.000431,0.019510
76373000,0.0324,0.013523,0.002678,0.000431,0.021273
76374000,0.0324,0.013523,0.002678,0.000431,0.019392
76375000,0.0324,0.013523,0.002678,0.000431,0.014691
76376000,0.0324,0.013523,0.002678,0.000431,0.015749
76377000,0.0324,0.013523,0.002678,0.000431,0.014926
76378000,0.0324,0.013523,0.002678,0.000431,0.013516
76379000,0.0324,0.013523,0.002678,0.000431,0.011753
76380000,0.0324,0.013523,0.002678,0.000431,0.012693
76381000,0.0324,0.013523,0.002678,0.000431,0.011988
76382000,0.0324,0.013523,0.002678,0.000431,0.012340
76383000,0.0324,0.013523,0.002678,0.000431,0.012105
76384000,0.0324,0.013523,0.002678,0.000431,0.012811
76385000,0.0324,0.013523,0.002678,0.000431,0.012105
76386000,0.0324,0.013523,0.002678,0.000431,0.012340
76387000,0.0324,0.013523,0.002678,0.000431,0.012576
76388000,0.0324,0.013523,0.002678,0.000431,0.012458
76389000,0.0324,0.013523,0.002678,0.000431,0.011283
76390000,0.0324,0.013523,0.002678,0.000431,0.012458
76391000,0.0324,0.013523,0.002678,0.000431,0.011283
76392000,0.0324,0.013523,0.002678,0.000431,0.013751
76393000,0.0324,0.013523,0.002678,0.000431,0.010930
76394000,0.0324,0.013523,0.002678,0.000431,0.011518
76395000,0.0324,0.013523,0.002678,0.000431,0.009520
76396000,0.0324,0.013523,0.002678,0.000431,0.009872
76397000,0.0324,0.013523,0.002678,0.000431,0.009520
76398000,0.0324,0.013523,0.002678,0.000431,0.009637
76399000,0.0324,0.013523,0.002678,0.000431,0.010225
76400000,0.0324,0.013523,0.002678,0.000431,0.009402
76401000,0.0324,0.013523,0.002678,0.000431,0.009637
76402000,0.0324,0.013523,0.002678,0.000431,0.009872
76403000,0.0324,0.013523,0.002678,0.000431,0.009755
76404000,0.0324,0.013523,0.002678,0.000431,0.009402
76405000,0.0324,0.013523,0.002678,0.000431,0.008227
76406000,0.0324,0.013523,0.002678,0.000431,0.008697
76407000,0.0324,0.013523,0.002678,0.000431,0.007992
76408000,0.0324,0.013523,0.002678,0.000431,0.007169
76409000,0.0324,0.013523,0.002678,0.000431,0.006934
76410000,0.0324,0.013523,0.002678,0.000431,0.007522
76411000,0.0324,0.013523,0.002678,0.000431,0.007287
76412000,0.0324,0.013523,0.002678,0.000431,0.007169
76413000,0.0324,0.013523,0.002678,0.000431,0.008697
76414000,0.0324,0.013523,0.002678,0.000431,0.006582
76415000,0.0324,0.013523,0.002678,0.000431,0.008345
76416000,0.0324,0.013523,0.002678,0.000431,0.005524
76417000,0.0324,0.013523,0.002678,0.000431,0.005289
76418000,0.0324,0.013523,0.002678,0.000431,0.005406
76419000,0.0324,0.013523,0.002678,0.000431,0.006347
76420000,0.0324,0.013523,0.002678,0.000431,0.005171
76421000,0.0324,0.013523,0.002678,0.000431,0.005641
76422000,0.0324,0.013523,0.002678,0.000431,0.005641
76423000,0.0324,0.013523,0.002678,0.000431,0.005641
76424000,0.0324,0.013523,0.002678,0.000431,0.005876
76425000,0.0324,0.013523,0.002678,0.000431,0.005641
76426000,0.0324,0.013523,0.002678,0.000431,0.004349
76427000,0.0324,0.013523,0.002678,0.000431,0.005289
76428000,0.0324,0.013523,0.002678,0.000431,0.004701
76429000,0.0324,0.013523,0.002678,0.000431,0.006582
76430000,0.0324,0.013523,0.002678,0.000431,0.004113
76431000,0.0324,0.013523,0.002678,0.000431,0.003996
76432000,0.0324,0.013523,0.002678,0.000431,0.003878
76433000,0.0324,0.013523,0.002678,0.000431,0.004231
76434000,0.0324,0.013523,0.002678,0.000431,0.003878
76435000,0.0324,0.013523,0.002678,0.000431,0.004466
76436000,0.0324,0.013523,0.002678,0.000431,0.003996
76437000,0.0324,0.013523,0.002678,0.000431,0.005289
76438000,0.0324,0.013523,0.002678,0.000431,0.003291
76439000,0.0324,0.013523,0.002678,0.000431,0.003291
76440000,0.0324,0.013523,0.002678,0.000431,0.002703
76441000,0.0324,0.013523,0.002678,0.000431,0.003643
76442000,0.0324,0.013523,0.002678,0.000431,0.004349
76443000,0.0324,0.013523,0.002678,0.000431,0.003291
76444000,0.0324,0.013523,0.002678,0.000431,0.002468
76445000,0.0324,0.013523,0.002678,0.000431,0.002351
76446000,0.0324,0.013523,0.002678,0.000431,0.002468
76447000,0.0324,0.013523,0.002678,0.000431,0.002468
76448000,0.0324,0.013523,0.002678,0.000431,0.002116
76449000,0.0324,0.013523,0.002678,0.000431,0.002586
76450000,0.0324,0.013523,0.002678,0.000431,0.001880
76451000,0.0324,0.013523,0.002678,0.000431,0.001528
76452000,0.0324,0.013523,0.002678,0.000431,0.001763
76453000,0.0324,0.013523,0.002678,0.000431,0.001645
76454000,0.0324,0.013523,0.002678,0.000431,0.001763
76455000,0.0324,0.013523,0.002678,0.000431,0.001645
76456000,0.0324,0.013523,0.002678,0.000431,0.001763
76457000,0.0324,0.013523,0.002678,0.000431,0.002468
76458000,0.0324,0.013523,0.002678,0.000431,0.001880
76459000,0.0324,0.013523,0.002678,0.000431,0.000940
76460000,0.0324,0.013523,0.002678,0.000431,0.000705
76461000,0.0324,0.013523,0.002678,0.000431,0.000940
76462000,0.0324,0.013523,0.002678,0.000431,0.000823
76463000,0.0324,0.013523,0.002678,0.000431,0.000823
76464000,0.0324,0.013523,0.002678,0.000431,0.000823
76465000,0.0324,0.013523,0.002678,0.000431,0.000823
76466000,0.0324,0.013523,0.002678,0.000431,0.000823
76467000,0.0324,0.013523,0.002678,0.000431,0.000823
76468000,0.0324,0.013523,0.002678,0.000431,0.000823
76469000,0.0324,0.013523,0.002678,0.000431,0.000823
76470000,0.0324,0.013523,0.002678,0.000431,0.000940
76471000,0.0324,0.013523,0.002678,0.000431,0.000823
76472000,0.0324,0.013523,0.002678,0.000431,0.000823
76473000,0.0324,0.013523,0.002678,0.000431,0.000705
76474000,0.0324,0.013523,0.002678,0.000431,0.000940
76475000,0.0324,0.013523,0.002678,0.000431,0.000940
76476000,0.0324,0.013523,0.002678,0.000431,0.000705
76477000,0.0324,0.013523,0.002678,0.000431,0.000940
76478000,0.0324,0.013523,0.002678,0.000431,0.000705
76479000,0.0324,0.013523,0.002678,0.000431,0.000940
76480000,0.0324,0.013523,0.002678,0.000431,0.000823
76481000,0.0324,0.013523,0.002678,0.000431,0.000823
76482000,0.0324,0.013523,0.002678,0.000431,0.000940
76483000,0.0324,0.013523,0.002678,0.000431,0.000705
76484000,0.0324,0.013523,0.002678,0.000431,0.000940
76485000,0.0324,0.013523,0.002678,0.000431,0.000823
76486000,0.0324,0.013523,0.002678,0.000431,0.000823
76487000,0.0324,0.013523,0.002678,0.000431,0.000823
76488000,0.0324,0.013523,0.002678,0.000431,0.000823
76489000,0.0324,0.013523,0.002678,0.000431,0.000823
76490000,0.0324,0.013523,0.002678,0.000431,0.000823
76491000,0.0324,0.013523,0.002678,0.000431,0.000940
76492000,0.0324,0.013523,0.002678,0.000431,0.000705
76493000,0.0324,0.013523,0.002678,0.000431,0.000940
76494000,0.0324,0.013523,0.002678,0.000431,0.000823
76495000,0.0324,0.013523,0.002678,0.000431,0.000823
76496000,0.0324,0.013523,0.002678,0.000431,0.000705
76497000,0.0324,0.013523,0.002678,0.000431,0.000940
76498000,0.0324,0.013523,0.002678,0.000431,0.000940
76499000,0.0324,0.013523,0.002678,0.000431,0.000705
76500000,0.0324,0.013523,0.002678,0.000431,0.000940
76501000,0.0324,0.013523,0.002678,0.000431,0.000940
76502000,0.0324,0.013523,0.002678,0.000431,0.071575
76503000,0.0324,0.013523,0.002678,0.000431,0.441436
76504000,0.0324,0.013523,0.002678,0.000431,0.571657
76505000,0.0324,0.013523,0.002678,0.000431,0.131161
76506000,0.0324,0.013523,0.002678,0.000431,0.133982
76507000,0.0324,0.013523,0.002678,0.000431,0.550855
76508000,0.0324,0.013523,0.002678,0.000431,0.240110
76509000,0.0324,0.013523,0.002678,0.000431,0.288179
76510000,0.0324,0.013523,0.002678,0.000431,0.239170
76511000,0.0324,0.013523,0.002678,0.000431,0.169593
76512000,0.0324,0.013523,0.002678,0.000431,0.144442
76513000,0.0324,0.013523,0.002678,0.000431,0.172061
76514000,0.0324,0.013523,0.002678,0.000431,0.100016
76515000,0.0324,0.013523,0.002678,0.000431,0.443904
76516000,0.0324,0.013523,0.002678,0.000431,0.082975
76517000,0.0324,0.013523,0.002678,0.000431,0.052065
76518000,0.0324,0.013523,0.002678,0.000431,0.038549
76519000,0.0324,0.013523,0.002678,0.000431,0.031145
76520000,0.0324,0.013523,0.002678,0.000431,0.032203
76521000,0.0324,0.013523,0.002678,0.000431,0.033731
76522000,0.0324,0.013523,0.002678,0.000431,0.023388
76523000,0.0324,0.013523,0.002678,0.000431,0.028207
76524000,0.0324,0.013523,0.002678,0.000431,0.020450
76525000,0.0324,0.013523,0.002678,0.000431,0.021155
76526000,0.0324,0.013523,0.002678,0.000431,0.022095
76527000,0.0324,0.013523,0.002678,0.000431,0.021860
76528000,0.0324,0.013523,0.002678,0.000431,0.020097
76529000,0.0324,0.013523,0.002678,0.000431,0.017629
76530000,0.0324,0.013523,0.002678,0.000431,0.014691
76531000,0.0324,0.013523,0.002678,0.000431,0.013868
76532000,0.0324,0.013523,0.002678,0.000431,0.014573
76533000,0.0324,0.013523,0.002678,0.000431,0.014103
76534000,0.0324,0.013523,0.002678,0.000431,0.015749
76535000,0.0324,0.013523,0.002678,0.000431,0.013163
76536000,0.0324,0.013523,0.002678,0.000431,0.013868
76537000,0.0324,0.013523,0.002678,0.000431,0.011870
76538000,0.0324,0.013523,0.002678,0.000431,0.013163
76539000,0.0324,0.013523,0.002678,0.000431,0.012693
76540000,0.0324,0.013523,0.002678,0.000431,0.009637
76541000,0.0324,0.013523,0.002678,0.000431,0.009990
76542000,0.0324,0.013523,0.002678,0.000431,0.008697
76543000,0.0324,0.013523,0.002678,0.000431,0.007522
76544000,0.0324,0.013523,0.002678,0.000431,0.007757
76545000,0.0324,0.013523,0.002678,0.000431,0.007169
76546000,0.0324,0.013523,0.002678,0.000431,0.009285
76547000,0.0324,0.013523,0.002678,0.000431,0.006699
76548000,0.0324,0.013523,0.002678,0.000431,0.005171
76549000,0.0324,0.013523,0.002678,0.000431,0.005054
76550000,0.0324,0.013523,0.002678,0.000431,0.004819
76551000,0.0324,0.013523,0.002678,0.000431,0.005524
76552000,0.0324,0.013523,0.002678,0.000431,0.004819
76553000,0.0324,0.013523,0.002678,0.000431,0.005054
76554000,0.0324,0.013523,0.002678,0.000431,0.005171
76555000,0.0324,0.013523,0.002678,0.000431,0.006347
76556000,0.0324,0.013523,0.002678,0.000431,0.004349
76557000,0.0324,0.013523,0.002678,0.000431,0.004113
76558000,0.0324,0.013523,0.002678,0.000431,0.004113
76559000,0.0324,0.013523,0.002678,0.000431,0.004349
76560000,0.0324,0.013523,0.002678,0.000431,0.004231
76561000,0.0324,0.013523,0.002678,0.000431,0.004231
76562000,0.0324,0.013523,0.002678,0.000431,0.004231
76563000,0.0324,0.013523,0.002678,0.000431,0.004231
76564000,0.0324,0.013523,0.002678,0.000431,0.004231
76565000,0.0324,0.013523,0.002678,0.000431,0.003996
76566000,0.0324,0.013523,0.002678,0.000431,0.004349
76567000,0.0324,0.013523,0.002678,0.000431,0.004231
76568000,0.0324,0.013523,0.002678,0.000431,0.004231
76569000,0.0324,0.013523,0.002678,0.000431,0.004349
76570000,0.0324,0.013523,0.002678,0.000431,0.003996
76571000,0.0324,0.013523,0.002678,0.000431,0.004466
76572000,0.0324,0.013523,0.002678,0.000431,0.004113
76573000,0.0324,0.013523,0.002678,0.000431,0.004231
76574000,0.0324,0.013523,0.002678,0.000431,0.004466
76575000,0.0324,0.013523,0.002678,0.000431,0.003761
76576000,0.0324,0.013523,0.002678,0.000431,0.004701
76577000,0.0324,0.013523,0.002678,0.000431,0.003996
76578000,0.0324,0.013523,0.002678,0.000431,0.004231
76579000,0.0324,0.013523,0.002678,0.000431,0.004349
76580000,0.0324,0.013523,0.002678,0.000431,0.003996
76581000,0.0324,0.013523,0.002678,0.000431,0.004466
76582000,0.0324,0.013523,0.002678,0.000431,0.004231
76583000,0.0324,0.013523,0.002678,0.000431,0.004113
76584000,0.0324,0.013523,0.002678,0.000431,0.004231
76585000,0.0324,0.013523,0.002678,0.000431,0.004349
76586000,0.0324,0.013523,0.002678,0.000431,0.004231
76587000,0.0324,0.013523,0.002678,0.000431,0.006464
76588000,0.0324,0.013523,0.002678,0.000431,0.003643
76589000,0.0324,0.013523,0.002678,0.000431,0.004466
76590000,0.0324,0.013523,0.002678,0.000431,0.004349
76591000,0.0324,0.013523,0.002678,0.000431,0.001528
76592000,0.0324,0.013523,0.002678,0.000431,0.001763
76593000,0.0324,0.013523,0.002678,0.000431,0.001645
76594000,0.0324,0.013523,0.002678,0.000431,0.001645
76595000,0.0324,0.013523,0.002678,0.000431,0.001880
76596000,0.0324,0.013523,0.002678,0.000431,0.001410
76597000,0.0324,0.013523,0.002678,0.000431,0.001880
76598000,0.0324,0.013523,0.002678,0.000431,0.001528
76599000,0.0324,0.013523,0.002678,0.000431,0.001763
76600000,0.0324,0.013523,0.002678,0.000431,0.001645
76601000,0.0324,0.013523,0.002678,0.000431,0.001645
76602000,0.0324,0.013523,0.002678,0.000431,0.001880
76603000,0.0324,0.013523,0.002678,0.000431,0.001410
76604000,0.0324,0.013523,0.002678,0.000431,0.001880
76605000,0.0324,0.013523,0.002678,0.000431,0.001645
76606000,0.0324,0.013523,0.002678,0.000431,0.001763
76607000,0.0324,0.013523,0.002678,0.000431,0.001645
76608000,0.0324,0.013523,0.002678,0.000431,0.001763
76609000,0.0324,0.013523,0.002678,0.000431,0.001645
76610000,0.0324,0.013523,0.002678,0.000431,0.001763
76611000,0.0324,0.013523,0.002678,0.000431,0.001763
76612000,0.0324,0.013523,0.002678,0.000431,0.001645
76613000,0.0324,0.013523,0.002678,0.000431,0.001645
76614000,0.0324,0.013523,0.002678,0.000431,0.001645
76615000,0.0324,0.013523,0.002678,0.000431,0.001880
76616000,0.0324,0.013523,0.002678,0.000431,0.001763
76617000,0.0324,0.013523,0.002678,0.000431,0.001763
76618000,0.0324,0.013523,0.002678,0.000431,0.001410
76619000,0.0324,0.013523,0.002678,0.000431,0.001880
76620000,0.0324,0.013523,0.002678,0.000431,0.001880
76621000,0.0324,0.013523,0.002678,0.000431,0.001528
76622000,0.0324,0.013523,0.002678,0.000431,0.001763
76623000,0.0324,0.013523,0.002678,0.000431,0.001645
76624000,0.0324,0.013523,0.002678,0.000431,0.001763
76625000,0.0324,0.013523,0.002678,0.000431,0.001763
76626000,0.0324,0.013523,0.002678,0.000431,0.001645
76627000,0.0324,0.013523,0.002678,0.000431,0.001880
76628000,0.0324,0.013523,0.002678,0.000431,0.001528
76629000,0.0324,0.013523,0.002678,0.000431,0.001763
76630000,0.0324,0.013523,0.002678,0.000431,0.001645
76631000,0.0324,0.013523,0.002678,0.000431,0.001880
76632000,0.0324,0.013523,0.002678,0.000431,0.001528
76633000,0.0324,0.013523,0.002678,0.000431,0.001763
76634000,0.0324,0.013523,0.002678,0.000431,0.001763
76635000,0.0324,0.013523,0.002678,0.000431,0.001763
76636000,0.0324,0.013523,0.002678,0.000431,0.004584
76637000,0.0324,0.013523,0.002678,0.000431,0.000940
76638000,0.0324,0.013523,0.002678,0.000431,0.000940
76639000,0.0324,0.013523,0.002678,0.000431,0.000705
76640000,0.0324,0.013523,0.002678,0.000431,0.000940
76641000,0.0324,0.013523,0.002678,0.000431,0.000823
76642000,0.0324,0.013523,0.002678,0.000431,0.203676
76643000,0.0324,0.013523,0.002678,0.000431,0.583527
76644000,0.0324,0.013523,0.002678,0.000431,0.363985
76645000,0.0324,0.013523,0.002678,0.000431,0.131161
76646000,0.0324,0.013523,0.002678,0.000431,0.133277
76647000,0.0324,0.013523,0.002678,0.000431,0.591284
76648000,0.0324,0.013523,0.002678,0.000431,0.239640
76649000,0.0324,0.013523,0.002678,0.000431,0.301107
76650000,0.0324,0.013523,0.002678,0.000431,0.254801
76651000,0.0324,0.013523,0.002678,0.000431,0.137978
76652000,0.0324,0.013523,0.002678,0.000431,0.141739
76653000,0.0324,0.013523,0.002678,0.000431,0.111887
76654000,0.0324,0.013523,0.002678,0.000431,0.355170
76655000,0.0324,0.013523,0.002678,0.000431,0.233058
76656000,0.0324,0.013523,0.002678,0.000431,0.054180
76657000,0.0324,0.013523,0.002678,0.000431,0.044308
76658000,0.0324,0.013523,0.002678,0.000431,0.043956
76659000,0.0324,0.013523,0.002678,0.000431,0.028794
76660000,0.0324,0.013523,0.002678,0.000431,0.028207
76661000,0.0324,0.013523,0.002678,0.000431,0.024798
76662000,0.0324,0.013523,0.002678,0.000431,0.020097
76663000,0.0324,0.013523,0.002678,0.000431,0.023271
76664000,0.0324,0.013523,0.002678,0.000431,0.018922
76665000,0.0324,0.013523,0.002678,0.000431,0.019745
76666000,0.0324,0.013523,0.002678,0.000431,0.016571
76667000,0.0324,0.013523,0.002678,0.000431,0.015044
76668000,0.0324,0.013523,0.002678,0.000431,0.015279
76669000,0.0324,0.013523,0.002678,0.000431,0.014691
76670000,0.0324,0.013523,0.002678,0.000431,0.012693
76671000,0.0324,0.013523,0.002678,0.000431,0.013633
76672000,0.0324,0.013523,0.002678,0.000431,0.012928
76673000,0.0324,0.013523,0.002678,0.000431,0.012340
76674000,0.0324,0.013523,0.002678,0.000431,0.015631
76675000,0.0324,0.013523,0.002678,0.000431,0.012576
76676000,0.0324,0.013523,0.002678,0.000431,0.010342
76677000,0.0324,0.013523,0.002678,0.000431,0.011048
76678000,0.0324,0.013523,0.002678,0.000431,0.010107
76679000,0.0324,0.013523,0.002678,0.000431,0.010107
76680000,0.0324,0.013523,0.002678,0.000431,0.009872
76681000,0.0324,0.013523,0.002678,0.000431,0.008227
76682000,0.0324,0.013523,0.002678,0.000431,0.009402
76683000,0.0324,0.013523,0.002678,0.000431,0.010460
76684000,0.0324,0.013523,0.002678,0.000431,0.008345
76685000,0.0324,0.013523,0.002678,0.000431,0.009755
76686000,0.0324,0.013523,0.002678,0.000431,0.009637
76687000,0.0324,0.013523,0.002678,0.000431,0.008462
76688000,0.0324,0.013523,0.002678,0.000431,0.010225
76689000,0.0324,0.013523,0.002678,0.000431,0.008697
76690000,0.0324,0.013523,0.002678,0.000431,0.008345
76691000,0.0324,0.013523,0.002678,0.000431,0.009402
76692000,0.0324,0.013523,0.002678,0.000431,0.007874
76693000,0.0324,0.013523,0.002678,0.000431,0.009285
76694000,0.0324,0.013523,0.002678,0.000431,0.007639
76695000,0.0324,0.013523,0.002678,0.000431,0.006464
76696000,0.0324,0.013523,0.002678,0.000431,0.007522
76697000,0.0324,0.013523,0.002678,0.000431,0.007522
76698000,0.0324,0.013523,0.002678,0.000431,0.006582
76699000,0.0324,0.013523,0.002678,0.000431,0.007052
76700000,0.0324,0.013523,0.002678,0.000431,0.007287
76701000,0.0324,0.013523,0.002678,0.000431,0.007052
76702000,0.0324,0.013523,0.002678,0.000431,0.007874
76703000,0.0324,0.013523,0.002678,0.000431,0.007404
76704000,0.0324,0.013523,0.002678,0.000431,0.007052
76705000,0.0324,0.013523,0.002678,0.000431,0.005759
76706000,0.0324,0.013523,0.002678,0.000431,0.006699
76707000,0.0324,0.013523,0.002678,0.000431,0.006347
76708000,0.0324,0.013523,0.002678,0.000431,0.005876
76709000,0.0324,0.013523,0.002678,0.000431,0.006699
76710000,0.0324,0.013523,0.002678,0.000431,0.006699
76711000,0.0324,0.013523,0.002678,0.000431,0.005994
76712000,0.0324,0.013523,0.002678,0.000431,0.005171
76713000,0.0324,0.013523,0.002678,0.000431,0.004819
76714000,0.0324,0.013523,0.002678,0.000431,0.005171
76715000,0.0324,0.013523,0.002678,0.000431,0.005171
76716000,0.0324,0.013523,0.002678,0.000431,0.004584
76717000,0.0324,0.013523,0.002678,0.000431,0.003526
76718000,0.0324,0.013523,0.002678,0.000431,0.003526
76719000,0.0324,0.013523,0.002678,0.000431,0.003291
76720000,0.0324,0.013523,0.002678,0.000431,0.003526
76721000,0.0324,0.013523,0.002678,0.000431,0.003643
76722000,0.0324,0.013523,0.002678,0.000431,0.003526
76723000,0.0324,0.013523,0.002678,0.000431,0.003291
76724000,0.0324,0.013523,0.002678,0.000431,0.003526
76725000,0.0324,0.013523,0.002678,0.000431,0.003526
76726000,0.0324,0.013523,0.002678,0.000431,0.003526
76727000,0.0324,0.013523,0.002678,0.000431,0.003408
76728000,0.0324,0.013523,0.002678,0.000431,0.003408
76729000,0.0324,0.013523,0.002678,0.000431,0.005171
76730000,0.0324,0.013523,0.002678,0.000431,0.002703
76731000,0.0324,0.013523,0.002678,0.000431,0.002351
76732000,0.0324,0.013523,0.002678,0.000431,0.002821
76733000,0.0324,0.013523,0.002678,0.000431,0.002468
76734000,0.0324,0.013523,0.002678,0.000431,0.002703
76735000,0.0324,0.013523,0.002678,0.000431,0.003408
76736000,0.0324,0.013523,0.002678,0.000431,0.002821
76737000,0.0324,0.013523,0.002678,0.000431,0.001763
76738000,0.0324,0.013523,0.002678,0.000431,0.001763
76739000,0.0324,0.013523,0.002678,0.000431,0.001763
76740000,0.0324,0.013523,0.002678,0.000431,0.001763
76741000,0.0324,0.013523,0.002678,0.000431,0.001645
76742000,0.0324,0.013523,0.002678,0.000431,0.001880
76743000,0.0324,0.013523,0.002678,0.000431,0.001645
76744000,0.0324,0.013523,0.002678,0.000431,0.001880
76745000,0.0324,0.013523,0.002678,0.000431,0.001645
76746000,0.0324,0.013523,0.002678,0.000431,0.001880
76747000,0.0324,0.013523,0.002678,0.000431,0.001763
76748000,0.0324,0.013523,0.002678,0.000431,0.001645
76749000,0.0324,0.013523,0.002678,0.000431,0.001880
76750000,0.0324,0.013523,0.002678,0.000431,0.001645
76751000,0.0324,0.013523,0.002678,0.000431,0.001880
76752000,0.0324,0.013523,0.002678,0.000431,0.001645
76753000,0.0324,0.013523,0.002678,0.000431,0.001763
76754000,0.0324,0.013523,0.002678,0.000431,0.001763
76755000,0.0324,0.013523,0.002678,0.000431,0.001645
76756000,0.0324,0.013523,0.002678,0.000431,0.001880
76757000,0.0324,0.013523,0.002678,0.000431,0.001763
76758000,0.0324,0.013523,0.002678,0.000431,0.001645
76759000,0.0324,0.013523,0.002678,0.000431,0.001880
76760000,0.0324,0.013523,0.002678,0.000431,0.001645
76761000,0.0324,0.013523,0.002678,0.000431,0.001880
76762000,0.0324,0.013523,0.002678,0.000431,0.001645
76763000,0.0324,0.013523,0.002678,0.000431,0.001880
76764000,0.0324,0.013523,0.002678,0.000431,0.001645
76765000,0.0324,0.013523,0.002678,0.000431,0.001763
76766000,0.0324,0.013523,0.002678,0.000431,0.001763
76767000,0.0324,0.013523,0.002678,0.000431,0.001763
76768000,0.0324,0.013523,0.002678,0.000431,0.001763
76769000,0.0324,0.013523,0.002678,0.000431,0.001763
76770000,0.0324,0.013523,0.002678,0.000431,0.001645
76771000,0.0324,0.013523,0.002678,0.000431,0.001880
76772000,0.0324,0.013523,0.002678,0.000431,0.001645
76773000,0.0324,0.013523,0.002678,0.000431,0.001880
76774000,0.0324,0.013523,0.002678,0.000431,0.001645
76775000,0.0324,0.013523,0.002678,0.000431,0.001763
76776000,0.0324,0.013523,0.002678,0.000431,0.001763
76777000,0.0324,0.013523,0.002678,0.000431,0.001763
76778000,0.0324,0.013523,0.002678,0.000431,0.001763
76779000,0.0324,0.013523,0.002678,0.000431,0.001763
76780000,0.0324,0.013523,0.002678,0.000431,0.001763
76781000,0.0324,0.013523,0.002678,0.000431,0.001763
76782000,0.0324,0.013523,0.002678,0.000431,0.001763
76783000,0.0324,0.013523,0.002678,0.000431,0.001763
76784000,0.0324,0.013523,0.002678,0.000431,0.001763
76785000,0.0324,0.013523,0.002678,0.000431,0.001763
76786000,0.0324,0.013523,0.002678,0.000431,0.001763
76787000,0.0324,0.013523,0.002678,0.000431,0.001763
76788000,0.0324,0.013523,0.002678,0.000431,0.001763
76789000,0.0324,0.013523,0.002678,0.000431,0.001645
76790000,0.0324,0.013523,0.002678,0.000431,0.001880
76791000,0.0324,0.013523,0.002678,0.000431,0.001645
76792000,0.0324,0.013523,0.002678,0.000431,0.001880
76793000,0.0324,0.013523,0.002678,0.000431,0.001645
76794000,0.0324,0.013523,0.002678,0.000431,0.001763
76795000,0.0324,0.013523,0.002678,0.000431,0.001763
76796000,0.0324,0.013523,0.002678,0.000431,0.001763
76797000,0.0324,0.013523,0.002678,0.000431,0.003173
76798000,0.0324,0.013523,0.002678,0.000431,0.000940
76799000,0.0324,0.013523,0.002678,0.000431,0.000823
76800000,0.0324,0.013523,0.002678,0.000431,0.000823
76801000,0.0324,0.013523,0.002678,0.000431,0.071105
76802000,0.0324,0.013523,0.002678,0.000431,0.458242
76803000,0.0324,0.013523,0.002678,0.000431,0.584703
76804000,0.0324,0.013523,0.002678,0.000431,0.130691
76805000,0.0324,0.013523,0.002678,0.000431,0.135392
76806000,0.0324,0.013523,0.002678,0.000431,0.560257
76807000,0.0324,0.013523,0.002678,0.000431,0.275016
76808000,0.0324,0.013523,0.002678,0.000431,0.246692
76809000,0.0324,0.013523,0.002678,0.000431,0.308394
76810000,0.0324,0.013523,0.002678,0.000431,0.138331
76811000,0.0324,0.013523,0.002678,0.000431,0.142444
76812000,0.0324,0.013523,0.002678,0.000431,0.126578
76813000,0.0324,0.013523,0.002678,0.000431,0.281127
76814000,0.0324,0.013523,0.002678,0.000431,0.293703
76815000,0.0324,0.013523,0.002678,0.000431,0.029147
76816000,0.0324,0.013523,0.002678,0.000431,0.016219
76817000,0.0324,0.013523,0.002678,0.000431,0.014103
76818000,0.0324,0.013523,0.002678,0.000431,0.013163
76819000,0.0324,0.013523,0.002678,0.000431,0.011165
76820000,0.0324,0.013523,0.002678,0.000431,0.010578
76821000,0.0324,0.013523,0.002678,0.000431,0.010695
76822000,0.0324,0.013523,0.002678,0.000431,0.009990
76823000,0.0324,0.013523,0.002678,0.000431,0.010813
76824000,0.0324,0.013523,0.002678,0.000431,0.010342
76825000,0.0324,0.013523,0.002678,0.000431,0.005994
76826000,0.0324,0.013523,0.002678,0.000431,0.005524
76827000,0.0324,0.013523,0.002678,0.000431,0.005289
76828000,0.0324,0.013523,0.002678,0.000431,0.005524
76829000,0.0324,0.013523,0.002678,0.000431,0.005171
76830000,0.0324,0.013523,0.002678,0.000431,0.005289
76831000,0.0324,0.013523,0.002678,0.000431,0.005524
76832000,0.0324,0.013523,0.002678,0.000431,0.005876
76833000,0.0324,0.013523,0.002678,0.000431,0.005641
76834000,0.0324,0.013523,0.002678,0.000431,0.005759
76835000,0.0324,0.013523,0.002678,0.000431,0.005524
76836000,0.0324,0.013523,0.002678,0.000431,0.005524
76837000,0.0324,0.013523,0.002678,0.000431,0.005524
76838000,0.0324,0.013523,0.002678,0.000431,0.005759
76839000,0.0324,0.013523,0.002678,0.000431,0.005759
76840000,0.0324,0.013523,0.002678,0.000431,0.005406
76841000,0.0324,0.013523,0.002678,0.000431,0.006229
76842000,0.0324,0.013523,0.002678,0.000431,0.005406
76843000,0.0324,0.013523,0.002678,0.000431,0.007639
76844000,0.0324,0.013523,0.002678,0.000431,0.004466
76845000,0.0324,0.013523,0.002678,0.000431,0.003291
76846000,0.0324,0.013523,0.002678,0.000431,0.003173
76847000,0.0324,0.013523,0.002678,0.000431,0.003291
76848000,0.0324,0.013523,0.002678,0.000431,0.003526
76849000,0.0324,0.013523,0.002678,0.000431,0.003173
76850000,0.0324,0.013523,0.002678,0.000431,0.003173
76851000,0.0324,0.013523,0.002678,0.000431,0.003408
76852000,0.0324,0.013523,0.002678,0.000431,0.003408
76853000,0.0324,0.013523,0.002678,0.000431,0.003173
76854000,0.0324,0.013523,0.002678,0.000431,0.003291
76855000,0.0324,0.013523,0.002678,0.000431,0.003056
76856000,0.0324,0.013523,0.002678,0.000431,0.003526
76857000,0.0324,0.013523,0.002678,0.000431,0.003526
76858000,0.0324,0.013523,0.002678,0.000431,0.002938
76859000,0.0324,0.013523,0.002678,0.000431,0.003408
76860000,0.0324,0.013523,0.002678,0.000431,0.003173
76861000,0.0324,0.013523,0.002678,0.000431,0.003526
76862000,0.0324,0.013523,0.002678,0.000431,0.003173
76863000,0.0324,0.013523,0.002678,0.000431,0.003291
76864000,0.0324,0.013523,0.002678,0.000431,0.003408
76865000,0.0324,0.013523,0.002678,0.000431,0.003056
76866000,0.0324,0.013523,0.002678,0.000431,0.003526
76867000,0.0324,0.013523,0.002678,0.000431,0.003408
76868000,0.0324,0.013523,0.002678,0.000431,0.003173
76869000,0.0324,0.013523,0.002678,0.000431,0.003173
76870000,0.0324,0.013523,0.002678,0.000431,0.003408
76871000,0.0324,0.013523,0.002678,0.000431,0.003173
76872000,0.0324,0.013523,0.002678,0.000431,0.003408
76873000,0.0324,0.013523,0.002678,0.000431,0.003056
76874000,0.0324,0.013523,0.002678,0.000431,0.003408
76875000,0.0324,0.013523,0.002678,0.000431,0.003408
76876000,0.0324,0.013523,0.002678,0.000431,0.003056
76877000,0.0324,0.013523,0.002678,0.000431,0.005171
76878000,0.0324,0.013523,0.002678,0.000431,0.001763
76879000,0.0324,0.013523,0.002678,0.000431,0.003173
76880000,0.0324,0.013523,0.002678,0.000431,0.000823
76881000,0.0324,0.013523,0.002678,0.000431,0.000823
76882000,0.0324,0.013523,0.002678,0.000431,0.000823
76883000,0.0324,0.013523,0.002678,0.000431,0.000823
76884000,0.0324,0.013523,0.002678,0.000431,0.000940
76885000,0.0324,0.013523,0.002678,0.000431,0.000823
76886000,0.0324,0.013523,0.002678,0.000431,0.000823
76887000,0.0324,0.013523,0.002678,0.000431,0.000823
76888000,0.0324,0.013523,0.002678,0.000431,0.000823
76889000,0.0324,0.013523,0.002678,0.000431,0.000823
76890000,0.0324,0.013523,0.002678,0.000431,0.000823
76891000,0.0324,0.013523,0.002678,0.000431,0.000705
76892000,0.0324,0.013523,0.002678,0.000431,0.000940
76893000,0.0324,0.013523,0.002678,0.000431,0.000940
76894000,0.0324,0.013523,0.002678,0.000431,0.000705
76895000,0.0324,0.013523,0.002678,0.000431,0.000823
76896000,0.0324,0.013523,0.002678,0.000431,0.015161
76897000,0.0324,0.013523,0.002678,0.000431,0.432974
76898000,0.0324,0.013523,0.002678,0.000431,0.596808
76899000,0.0324,0.013523,0.002678,0.000431,0.134922
76900000,0.0324,0.013523,0.002678,0.000431,0.130691
76901000,0.0324,0.013523,0.002678,0.000431,0.243048
76902000,0.0324,0.013523,0.002678,0.000431,0.589991
76903000,0.0324,0.013523,0.002678,0.000431,0.286769
76904000,0.0324,0.013523,0.002678,0.000431,0.253391
76905000,0.0324,0.013523,0.002678,0.000431,0.181111
76906000,0.0324,0.013523,0.002678,0.000431,0.147028
76907000,0.0324,0.013523,0.002678,0.000431,0.144442
76908000,0.0324,0.013523,0.002678,0.000431,0.168065
76909000,0.0324,0.013523,0.002678,0.000431,0.418283
76910000,0.0324,0.013523,0.002678,0.000431,0.048539
76911000,0.0324,0.013523,0.002678,0.000431,0.035376
76912000,0.0324,0.013523,0.002678,0.000431,0.031380
76913000,0.0324,0.013523,0.002678,0.000431,0.027384
76914000,0.0324,0.013523,0.002678,0.000431,0.037139
76915000,0.0324,0.013523,0.002678,0.000431,0.023388
76916000,0.0324,0.013523,0.002678,0.000431,0.022565
76917000,0.0324,0.013523,0.002678,0.000431,0.025269
76918000,0.0324,0.013523,0.002678,0.000431,0.017629
76919000,0.0324,0.013523,0.002678,0.000431,0.017277
76920000,0.0324,0.013523,0.002678,0.000431,0.018569
76921000,0.0324,0.013523,0.002678,0.000431,0.017629
76922000,0.0324,0.013523,0.002678,0.000431,0.015749
76923000,0.0324,0.013523,0.002678,0.000431,0.016101
76924000,0.0324,0.013523,0.002678,0.000431,0.015279
76925000,0.0324,0.013523,0.002678,0.000431,0.016101
76926000,0.0324,0.013523,0.002678,0.000431,0.014926
76927000,0.0324,0.013523,0.002678,0.000431,0.015866
76928000,0.0324,0.013523,0.002678,0.000431,0.011635
76929000,0.0324,0.013523,0.002678,0.000431,0.015396
76930000,0.0324,0.013523,0.002678,0.000431,0.010695
76931000,0.0324,0.013523,0.002678,0.000431,0.011048
76932000,0.0324,0.013523,0.002678,0.000431,0.010578
76933000,0.0324,0.013523,0.002678,0.000431,0.010342
76934000,0.0324,0.013523,0.002678,0.000431,0.013986
76935000,0.0324,0.013523,0.002678,0.000431,0.010342
76936000,0.0324,0.013523,0.002678,0.000431,0.009755
76937000,0.0324,0.013523,0.002678,0.000431,0.009402
76938000,0.0324,0.013523,0.002678,0.000431,0.009402
76939000,0.0324,0.013523,0.002678,0.000431,0.009402
76940000,0.0324,0.013523,0.002678,0.000431,0.008815
76941000,0.0324,0.013523,0.002678,0.000431,0.013398
76942000,0.0324,0.013523,0.002678,0.000431,0.007169
76943000,0.0324,0.013523,0.002678,0.000431,0.007052
76944000,0.0324,0.013523,0.002678,0.000431,0.006582
76945000,0.0324,0.013523,0.002678,0.000431,0.006817
76946000,0.0324,0.013523,0.002678,0.000431,0.008227
76947000,0.0324,0.013523,0.002678,0.000431,0.005524
76948000,0.0324,0.013523,0.002678,0.000431,0.005171
76949000,0.0324,0.013523,0.002678,0.000431,0.004936
76950000,0.0324,0.013523,0.002678,0.000431,0.005289
76951000,0.0324,0.013523,0.002678,0.000431,0.005171
76952000,0.0324,0.013523,0.002678,0.000431,0.004584
76953000,0.0324,0.013523,0.002678,0.000431,0.005406
76954000,0.0324,0.013523,0.002678,0.000431,0.005171
76955000,0.0324,0.013523,0.002678,0.000431,0.004936
76956000,0.0324,0.013523,0.002678,0.000431,0.005054
76957000,0.0324,0.013523,0.002678,0.000431,0.004936
76958000,0.0324,0.013523,0.002678,0.000431,0.005289
76959000,0.0324,0.013523,0.002678,0.000431,0.005171
76960000,0.0324,0.013523,0.002678,0.000431,0.005054
76961000,0.0324,0.013523,0.002678,0.000431,0.004936
76962000,0.0324,0.013523,0.002678,0.000431,0.005054
76963000,0.0324,0.013523,0.002678,0.000431,0.005054
76964000,0.0324,0.013523,0.002678,0.000431,0.005054
76965000,0.0324,0.013523,0.002678,0.000431,0.005289
76966000,0.0324,0.013523,0.002678,0.000431,0.004819
76967000,0.0324,0.013523,0.002678,0.000431,0.005054
76968000,0.0324,0.013523,0.002678,0.000431,0.005406
76969000,0.0324,0.013523,0.002678,0.000431,0.004936
76970000,0.0324,0.013523,0.002678,0.000431,0.005171
76971000,0.0324,0.013523,0.002678,0.000431,0.004819
76972000,0.0324,0.013523,0.002678,0.000431,0.005289
76973000,0.0324,0.013523,0.002678,0.000431,0.005289
76974000,0.0324,0.013523,0.002678,0.000431,0.005054
76975000,0.0324,0.013523,0.002678,0.000431,0.004936
76976000,0.0324,0.013523,0.002678,0.000431,0.005289
76977000,0.0324,0.013523,0.002678,0.000431,0.005054
76978000,0.0324,0.013523,0.002678,0.000431,0.005054
76979000,0.0324,0.013523,0.002678,0.000431,0.005289
76980000,0.0324,0.013523,0.002678,0.000431,0.004936
76981000,0.0324,0.013523,0.002678,0.000431,0.005054
76982000,0.0324,0.013523,0.002678,0.000431,0.005171
76983000,0.0324,0.013523,0.002678,0.000431,0.004936
76984000,0.0324,0.013523,0.002678,0.000431,0.005171
76985000,0.0324,0.013523,0.002678,0.000431,0.004819
76986000,0.0324,0.013523,0.002678,0.000431,0.005524
76987000,0.0324,0.013523,0.002678,0.000431,0.004936
76988000,0.0324,0.013523,0.002678,0.000431,0.006699
76989000,0.0324,0.013523,0.002678,0.000431,0.004349
76990000,0.0324,0.013523,0.002678,0.000431,0.004113
76991000,0.0324,0.013523,0.002678,0.000431,0.005406
76992000,0.0324,0.013523,0.002678,0.000431,0.003643
76993000,0.0324,0.013523,0.002678,0.000431,0.003408
76994000,0.0324,0.013523,0.002678,0.000431,0.003291
76995000,0.0324,0.013523,0.002678,0.000431,0.003408
76996000,0.0324,0.013523,0.002678,0.000431,0.003643
76997000,0.0324,0.013523,0.002678,0.000431,0.003408
76998000,0.0324,0.013523,0.002678,0.000431,0.004466
76999000,0.0324,0.013523,0.002678,0.000431,0.002703
