Cycle,Area(mm^2),PeakDynamic(W),SubthresholdLeakage(W),GateLeakage(W),RunTimeDynamic(W)
15000000,0.0324,0.013523,0.002678,0.000431,0.000823
15001000,0.0324,0.013523,0.002678,0.000431,0.000823
15002000,0.0324,0.013523,0.002678,0.000431,0.000940
15003000,0.0324,0.013523,0.002678,0.000431,0.000705
15004000,0.0324,0.013523,0.002678,0.000431,0.000940
15005000,0.0324,0.013523,0.002678,0.000431,0.000823
15006000,0.0324,0.013523,0.002678,0.000431,0.000823
15007000,0.0324,0.013523,0.002678,0.000431,0.000823
15008000,0.0324,0.013523,0.002678,0.000431,0.000823
15009000,0.0324,0.013523,0.002678,0.000431,0.000940
15010000,0.0324,0.013523,0.002678,0.000431,0.000705
15011000,0.0324,0.013523,0.002678,0.000431,0.000940
15012000,0.0324,0.013523,0.002678,0.000431,0.000823
15013000,0.0324,0.013523,0.002678,0.000431,0.000823
15014000,0.0324,0.013523,0.002678,0.000431,0.000705
15015000,0.0324,0.013523,0.002678,0.000431,0.000940
15016000,0.0324,0.013523,0.002678,0.000431,0.000940
15017000,0.0324,0.013523,0.002678,0.000431,0.000705
15018000,0.0324,0.013523,0.002678,0.000431,0.000940
15019000,0.0324,0.013523,0.002678,0.000431,0.000705
15020000,0.0324,0.013523,0.002678,0.000431,0.000940
15021000,0.0324,0.013523,0.002678,0.000431,0.000823
15022000,0.0324,0.013523,0.002678,0.000431,0.000823
15023000,0.0324,0.013523,0.002678,0.000431,0.000940
15024000,0.0324,0.013523,0.002678,0.000431,0.000705
15025000,0.0324,0.013523,0.002678,0.000431,0.000940
15026000,0.0324,0.013523,0.002678,0.000431,0.000823
15027000,0.0324,0.013523,0.002678,0.000431,0.000823
15028000,0.0324,0.013523,0.002678,0.000431,0.000823
15029000,0.0324,0.013523,0.002678,0.000431,0.000823
15030000,0.0324,0.013523,0.002678,0.000431,0.000940
15031000,0.0324,0.013523,0.002678,0.000431,0.000705
15032000,0.0324,0.013523,0.002678,0.000431,0.000940
15033000,0.0324,0.013523,0.002678,0.000431,0.000823
15034000,0.0324,0.013523,0.002678,0.000431,0.000823
15035000,0.0324,0.013523,0.002678,0.000431,0.000823
15036000,0.0324,0.013523,0.002678,0.000431,0.000823
15037000,0.0324,0.013523,0.002678,0.000431,0.000940
15038000,0.0324,0.013523,0.002678,0.000431,0.000705
15039000,0.0324,0.013523,0.002678,0.000431,0.000823
15040000,0.0324,0.013523,0.002678,0.000431,0.000940
15041000,0.0324,0.013523,0.002678,0.000431,0.000823
15042000,0.0324,0.013523,0.002678,0.000431,0.000823
15043000,0.0324,0.013523,0.002678,0.000431,0.000823
15044000,0.0324,0.013523,0.002678,0.000431,0.000705
15045000,0.0324,0.013523,0.002678,0.000431,0.000940
15046000,0.0324,0.013523,0.002678,0.000431,0.000940
15047000,0.0324,0.013523,0.002678,0.000431,0.000705
15048000,0.0324,0.013523,0.002678,0.000431,0.000940
15049000,0.0324,0.013523,0.002678,0.000431,0.000705
15050000,0.0324,0.013523,0.002678,0.000431,0.000940
15051000,0.0324,0.013523,0.002678,0.000431,0.000940
15052000,0.0324,0.013523,0.002678,0.000431,0.000705
15053000,0.0324,0.013523,0.002678,0.000431,0.000940
15054000,0.0324,0.013523,0.002678,0.000431,0.000705
15055000,0.0324,0.013523,0.002678,0.000431,0.000940
15056000,0.0324,0.013523,0.002678,0.000431,0.000823
15057000,0.0324,0.013523,0.002678,0.000431,0.000823
15058000,0.0324,0.013523,0.002678,0.000431,0.000823
15059000,0.0324,0.013523,0.002678,0.000431,0.000823
15060000,0.0324,0.013523,0.002678,0.000431,0.000940
15061000,0.0324,0.013523,0.002678,0.000431,0.000705
15062000,0.0324,0.013523,0.002678,0.000431,0.000940
15063000,0.0324,0.013523,0.002678,0.000431,0.000823
15064000,0.0324,0.013523,0.002678,0.000431,0.000823
15065000,0.0324,0.013523,0.002678,0.000431,0.000823
15066000,0.0324,0.013523,0.002678,0.000431,0.000823
15067000,0.0324,0.013523,0.002678,0.000431,0.000823
15068000,0.0324,0.013523,0.002678,0.000431,0.000823
15069000,0.0324,0.013523,0.002678,0.000431,0.000940
15070000,0.0324,0.013523,0.002678,0.000431,0.000705
15071000,0.0324,0.013523,0.002678,0.000431,0.000940
15072000,0.0324,0.013523,0.002678,0.000431,0.000705
15073000,0.0324,0.013523,0.002678,0.000431,0.000940
15074000,0.0324,0.013523,0.002678,0.000431,0.000940
15075000,0.0324,0.013523,0.002678,0.000431,0.000705
15076000,0.0324,0.013523,0.002678,0.000431,0.000940
15077000,0.0324,0.013523,0.002678,0.000431,0.000705
15078000,0.0324,0.013523,0.002678,0.000431,0.000940
15079000,0.0324,0.013523,0.002678,0.000431,0.000823
15080000,0.0324,0.013523,0.002678,0.000431,0.000823
15081000,0.0324,0.013523,0.002678,0.000431,0.000823
15082000,0.0324,0.013523,0.002678,0.000431,0.000823
15083000,0.0324,0.013523,0.002678,0.000431,0.000940
15084000,0.0324,0.013523,0.002678,0.000431,0.000705
15085000,0.0324,0.013523,0.002678,0.000431,0.000940
15086000,0.0324,0.013523,0.002678,0.000431,0.000823
15087000,0.0324,0.013523,0.002678,0.000431,0.000823
15088000,0.0324,0.013523,0.002678,0.000431,0.000823
15089000,0.0324,0.013523,0.002678,0.000431,0.000823
15090000,0.0324,0.013523,0.002678,0.000431,0.000940
15091000,0.0324,0.013523,0.002678,0.000431,0.000705
15092000,0.0324,0.013523,0.002678,0.000431,0.000823
15093000,0.0324,0.013523,0.002678,0.000431,0.000940
15094000,0.0324,0.013523,0.002678,0.000431,0.000823
15095000,0.0324,0.013523,0.002678,0.000431,0.000823
15096000,0.0324,0.013523,0.002678,0.000431,0.000823
15097000,0.0324,0.013523,0.002678,0.000431,0.000705
15098000,0.0324,0.013523,0.002678,0.000431,0.000940
15099000,0.0324,0.013523,0.002678,0.000431,0.000940
15100000,0.0324,0.013523,0.002678,0.000431,0.000705
15101000,0.0324,0.013523,0.002678,0.000431,0.000940
15102000,0.0324,0.013523,0.002678,0.000431,0.000705
15103000,0.0324,0.013523,0.002678,0.000431,0.000940
15104000,0.0324,0.013523,0.002678,0.000431,0.000940
15105000,0.0324,0.013523,0.002678,0.000431,0.000705
15106000,0.0324,0.013523,0.002678,0.000431,0.000940
15107000,0.0324,0.013523,0.002678,0.000431,0.000705
15108000,0.0324,0.013523,0.002678,0.000431,0.000940
15109000,0.0324,0.013523,0.002678,0.000431,0.000823
15110000,0.0324,0.013523,0.002678,0.000431,0.000823
15111000,0.0324,0.013523,0.002678,0.000431,0.000823
15112000,0.0324,0.013523,0.002678,0.000431,0.000823
15113000,0.0324,0.013523,0.002678,0.000431,0.000940
15114000,0.0324,0.013523,0.002678,0.000431,0.000705
15115000,0.0324,0.013523,0.002678,0.000431,0.000940
15116000,0.0324,0.013523,0.002678,0.000431,0.000823
15117000,0.0324,0.013523,0.002678,0.000431,0.000823
15118000,0.0324,0.013523,0.002678,0.000431,0.000823
15119000,0.0324,0.013523,0.002678,0.000431,0.000823
15120000,0.0324,0.013523,0.002678,0.000431,0.000940
15121000,0.0324,0.013523,0.002678,0.000431,0.000705
15122000,0.0324,0.013523,0.002678,0.000431,0.000940
15123000,0.0324,0.013523,0.002678,0.000431,0.000823
15124000,0.0324,0.013523,0.002678,0.000431,0.000823
15125000,0.0324,0.013523,0.002678,0.000431,0.000705
15126000,0.0324,0.013523,0.002678,0.000431,0.000940
15127000,0.0324,0.013523,0.002678,0.000431,0.000940
15128000,0.0324,0.013523,0.002678,0.000431,0.000705
15129000,0.0324,0.013523,0.002678,0.000431,0.000940
15130000,0.0324,0.013523,0.002678,0.000431,0.000705
15131000,0.0324,0.013523,0.002678,0.000431,0.000940
15132000,0.0324,0.013523,0.002678,0.000431,0.000940
15133000,0.0324,0.013523,0.002678,0.000431,0.000705
15134000,0.0324,0.013523,0.002678,0.000431,0.000940
15135000,0.0324,0.013523,0.002678,0.000431,0.000705
15136000,0.0324,0.013523,0.002678,0.000431,0.000940
15137000,0.0324,0.013523,0.002678,0.000431,0.000823
15138000,0.0324,0.013523,0.002678,0.000431,0.000823
15139000,0.0324,0.013523,0.002678,0.000431,0.000823
15140000,0.0324,0.013523,0.002678,0.000431,0.000823
15141000,0.0324,0.013523,0.002678,0.000431,0.000940
15142000,0.0324,0.013523,0.002678,0.000431,0.000823
15143000,0.0324,0.013523,0.002678,0.000431,0.000823
15144000,0.0324,0.013523,0.002678,0.000431,0.000823
15145000,0.0324,0.013523,0.002678,0.000431,0.000823
15146000,0.0324,0.013523,0.002678,0.000431,0.000823
15147000,0.0324,0.013523,0.002678,0.000431,0.000823
15148000,0.0324,0.013523,0.002678,0.000431,0.000940
15149000,0.0324,0.013523,0.002678,0.000431,0.000705
15150000,0.0324,0.013523,0.002678,0.000431,0.000823
15151000,0.0324,0.013523,0.002678,0.000431,0.000940
15152000,0.0324,0.013523,0.002678,0.000431,0.000823
15153000,0.0324,0.013523,0.002678,0.000431,0.000823
15154000,0.0324,0.013523,0.002678,0.000431,0.000823
15155000,0.0324,0.013523,0.002678,0.000431,0.000823
15156000,0.0324,0.013523,0.002678,0.000431,0.000823
15157000,0.0324,0.013523,0.002678,0.000431,0.000940
15158000,0.0324,0.013523,0.002678,0.000431,0.000823
15159000,0.0324,0.013523,0.002678,0.000431,0.000823
15160000,0.0324,0.013523,0.002678,0.000431,0.000705
15161000,0.0324,0.013523,0.002678,0.000431,0.000940
15162000,0.0324,0.013523,0.002678,0.000431,0.000940
15163000,0.0324,0.013523,0.002678,0.000431,0.000705
15164000,0.0324,0.013523,0.002678,0.000431,0.000940
15165000,0.0324,0.013523,0.002678,0.000431,0.000705
15166000,0.0324,0.013523,0.002678,0.000431,0.000940
15167000,0.0324,0.013523,0.002678,0.000431,0.000940
15168000,0.0324,0.013523,0.002678,0.000431,0.000705
15169000,0.0324,0.013523,0.002678,0.000431,0.000940
15170000,0.0324,0.013523,0.002678,0.000431,0.000705
15171000,0.0324,0.013523,0.002678,0.000431,0.000940
15172000,0.0324,0.013523,0.002678,0.000431,0.000823
15173000,0.0324,0.013523,0.002678,0.000431,0.000823
15174000,0.0324,0.013523,0.002678,0.000431,0.000823
15175000,0.0324,0.013523,0.002678,0.000431,0.000823
15176000,0.0324,0.013523,0.002678,0.000431,0.000940
15177000,0.0324,0.013523,0.002678,0.000431,0.000705
15178000,0.0324,0.013523,0.002678,0.000431,0.000940
15179000,0.0324,0.013523,0.002678,0.000431,0.000823
15180000,0.0324,0.013523,0.002678,0.000431,0.000823
15181000,0.0324,0.013523,0.002678,0.000431,0.000823
15182000,0.0324,0.013523,0.002678,0.000431,0.000823
15183000,0.0324,0.013523,0.002678,0.000431,0.000940
15184000,0.0324,0.013523,0.002678,0.000431,0.000705
15185000,0.0324,0.013523,0.002678,0.000431,0.000940
15186000,0.0324,0.013523,0.002678,0.000431,0.000823
15187000,0.0324,0.013523,0.002678,0.000431,0.000823
15188000,0.0324,0.013523,0.002678,0.000431,0.000705
15189000,0.0324,0.013523,0.002678,0.000431,0.000940
15190000,0.0324,0.013523,0.002678,0.000431,0.000940
15191000,0.0324,0.013523,0.002678,0.000431,0.000705
15192000,0.0324,0.013523,0.002678,0.000431,0.000940
15193000,0.0324,0.013523,0.002678,0.000431,0.000705
15194000,0.0324,0.013523,0.002678,0.000431,0.000940
15195000,0.0324,0.013523,0.002678,0.000431,0.000823
15196000,0.0324,0.013523,0.002678,0.000431,0.000823
15197000,0.0324,0.013523,0.002678,0.000431,0.000940
15198000,0.0324,0.013523,0.002678,0.000431,0.000705
15199000,0.0324,0.013523,0.002678,0.000431,0.000940
15200000,0.0324,0.013523,0.002678,0.000431,0.000823
15201000,0.0324,0.013523,0.002678,0.000431,0.000823
15202000,0.0324,0.013523,0.002678,0.000431,0.000823
15203000,0.0324,0.013523,0.002678,0.000431,0.000823
15204000,0.0324,0.013523,0.002678,0.000431,0.000940
15205000,0.0324,0.013523,0.002678,0.000431,0.000705
15206000,0.0324,0.013523,0.002678,0.000431,0.000940
15207000,0.0324,0.013523,0.002678,0.000431,0.000823
15208000,0.0324,0.013523,0.002678,0.000431,0.000823
15209000,0.0324,0.013523,0.002678,0.000431,0.000823
15210000,0.0324,0.013523,0.002678,0.000431,0.000823
15211000,0.0324,0.013523,0.002678,0.000431,0.000940
15212000,0.0324,0.013523,0.002678,0.000431,0.000705
15213000,0.0324,0.013523,0.002678,0.000431,0.000823
15214000,0.0324,0.013523,0.002678,0.000431,0.000940
15215000,0.0324,0.013523,0.002678,0.000431,0.000823
15216000,0.0324,0.013523,0.002678,0.000431,0.000823
15217000,0.0324,0.013523,0.002678,0.000431,0.000823
15218000,0.0324,0.013523,0.002678,0.000431,0.000705
15219000,0.0324,0.013523,0.002678,0.000431,0.000940
15220000,0.0324,0.013523,0.002678,0.000431,0.000940
15221000,0.0324,0.013523,0.002678,0.000431,0.000705
15222000,0.0324,0.013523,0.002678,0.000431,0.000940
15223000,0.0324,0.013523,0.002678,0.000431,0.000940
15224000,0.0324,0.013523,0.002678,0.000431,0.000823
15225000,0.0324,0.013523,0.002678,0.000431,0.000823
15226000,0.0324,0.013523,0.002678,0.000431,0.000940
15227000,0.0324,0.013523,0.002678,0.000431,0.000823
15228000,0.0324,0.013523,0.002678,0.000431,0.000823
15229000,0.0324,0.013523,0.002678,0.000431,0.000940
15230000,0.0324,0.013523,0.002678,0.000431,0.000940
15231000,0.0324,0.013523,0.002678,0.000431,0.000940
15232000,0.0324,0.013523,0.002678,0.000431,0.000705
15233000,0.0324,0.013523,0.002678,0.000431,0.001058
15234000,0.0324,0.013523,0.002678,0.000431,0.000823
15235000,0.0324,0.013523,0.002678,0.000431,0.000940
15236000,0.0324,0.013523,0.002678,0.000431,0.000940
15237000,0.0324,0.013523,0.002678,0.000431,0.000823
15238000,0.0324,0.013523,0.002678,0.000431,0.000823
15239000,0.0324,0.013523,0.002678,0.000431,0.000940
15240000,0.0324,0.013523,0.002678,0.000431,0.000940
15241000,0.0324,0.013523,0.002678,0.000431,0.000940
15242000,0.0324,0.013523,0.002678,0.000431,0.233646
15243000,0.0324,0.013523,0.002678,0.000431,0.649108
15244000,0.0324,0.013523,0.002678,0.000431,0.321557
15245000,0.0324,0.013523,0.002678,0.000431,0.131984
15246000,0.0324,0.013523,0.002678,0.000431,0.134217
15247000,0.0324,0.013523,0.002678,0.000431,0.589169
15248000,0.0324,0.013523,0.002678,0.000431,0.219073
15249000,0.0324,0.013523,0.002678,0.000431,0.286299
15250000,0.0324,0.013523,0.002678,0.000431,0.289002
15251000,0.0324,0.013523,0.002678,0.000431,0.137038
15252000,0.0324,0.013523,0.002678,0.000431,0.179348
15253000,0.0324,0.013523,0.002678,0.000431,0.084268
15254000,0.0324,0.013523,0.002678,0.000431,0.496674
15255000,0.0324,0.013523,0.002678,0.000431,0.116353
15256000,0.0324,0.013523,0.002678,0.000431,0.065698
15257000,0.0324,0.013523,0.002678,0.000431,0.056884
15258000,0.0324,0.013523,0.002678,0.000431,0.046189
15259000,0.0324,0.013523,0.002678,0.000431,0.032085
15260000,0.0324,0.013523,0.002678,0.000431,0.038197
15261000,0.0324,0.013523,0.002678,0.000431,0.027972
15262000,0.0324,0.013523,0.002678,0.000431,0.027619
15263000,0.0324,0.013523,0.002678,0.000431,0.017394
15264000,0.0324,0.013523,0.002678,0.000431,0.013046
15265000,0.0324,0.013523,0.002678,0.000431,0.011635
15266000,0.0324,0.013523,0.002678,0.000431,0.009520
15267000,0.0324,0.013523,0.002678,0.000431,0.011283
15268000,0.0324,0.013523,0.002678,0.000431,0.008462
15269000,0.0324,0.013523,0.002678,0.000431,0.009637
15270000,0.0324,0.013523,0.002678,0.000431,0.009520
15271000,0.0324,0.013523,0.002678,0.000431,0.009402
15272000,0.0324,0.013523,0.002678,0.000431,0.006464
15273000,0.0324,0.013523,0.002678,0.000431,0.005171
15274000,0.0324,0.013523,0.002678,0.000431,0.004113
15275000,0.0324,0.013523,0.002678,0.000431,0.004466
15276000,0.0324,0.013523,0.002678,0.000431,0.004349
15277000,0.0324,0.013523,0.002678,0.000431,0.003526
15278000,0.0324,0.013523,0.002678,0.000431,0.003526
15279000,0.0324,0.013523,0.002678,0.000431,0.003643
15280000,0.0324,0.013523,0.002678,0.000431,0.003526
15281000,0.0324,0.013523,0.002678,0.000431,0.003408
15282000,0.0324,0.013523,0.002678,0.000431,0.003526
15283000,0.0324,0.013523,0.002678,0.000431,0.003526
15284000,0.0324,0.013523,0.002678,0.000431,0.003408
15285000,0.0324,0.013523,0.002678,0.000431,0.003643
15286000,0.0324,0.013523,0.002678,0.000431,0.003526
15287000,0.0324,0.013523,0.002678,0.000431,0.005876
15288000,0.0324,0.013523,0.002678,0.000431,0.002703
15289000,0.0324,0.013523,0.002678,0.000431,0.002703
15290000,0.0324,0.013523,0.002678,0.000431,0.004349
15291000,0.0324,0.013523,0.002678,0.000431,0.001880
15292000,0.0324,0.013523,0.002678,0.000431,0.001645
15293000,0.0324,0.013523,0.002678,0.000431,0.001763
15294000,0.0324,0.013523,0.002678,0.000431,0.001763
15295000,0.0324,0.013523,0.002678,0.000431,0.001763
15296000,0.0324,0.013523,0.002678,0.000431,0.001763
15297000,0.0324,0.013523,0.002678,0.000431,0.001645
15298000,0.0324,0.013523,0.002678,0.000431,0.001763
15299000,0.0324,0.013523,0.002678,0.000431,0.001880
15300000,0.0324,0.013523,0.002678,0.000431,0.001645
15301000,0.0324,0.013523,0.002678,0.000431,0.001880
15302000,0.0324,0.013523,0.002678,0.000431,0.001645
15303000,0.0324,0.013523,0.002678,0.000431,0.001880
15304000,0.0324,0.013523,0.002678,0.000431,0.001645
15305000,0.0324,0.013523,0.002678,0.000431,0.001763
15306000,0.0324,0.013523,0.002678,0.000431,0.001763
15307000,0.0324,0.013523,0.002678,0.000431,0.001763
15308000,0.0324,0.013523,0.002678,0.000431,0.001880
15309000,0.0324,0.013523,0.002678,0.000431,0.001645
15310000,0.0324,0.013523,0.002678,0.000431,0.001763
15311000,0.0324,0.013523,0.002678,0.000431,0.001763
15312000,0.0324,0.013523,0.002678,0.000431,0.001645
15313000,0.0324,0.013523,0.002678,0.000431,0.001880
15314000,0.0324,0.013523,0.002678,0.000431,0.001763
15315000,0.0324,0.013523,0.002678,0.000431,0.001645
15316000,0.0324,0.013523,0.002678,0.000431,0.001763
15317000,0.0324,0.013523,0.002678,0.000431,0.001763
15318000,0.0324,0.013523,0.002678,0.000431,0.001880
15319000,0.0324,0.013523,0.002678,0.000431,0.001645
15320000,0.0324,0.013523,0.002678,0.000431,0.001763
15321000,0.0324,0.013523,0.002678,0.000431,0.001763
15322000,0.0324,0.013523,0.002678,0.000431,0.001763
15323000,0.0324,0.013523,0.002678,0.000431,0.001763
15324000,0.0324,0.013523,0.002678,0.000431,0.001763
15325000,0.0324,0.013523,0.002678,0.000431,0.001763
15326000,0.0324,0.013523,0.002678,0.000431,0.001763
15327000,0.0324,0.013523,0.002678,0.000431,0.001763
15328000,0.0324,0.013523,0.002678,0.000431,0.001763
15329000,0.0324,0.013523,0.002678,0.000431,0.001645
15330000,0.0324,0.013523,0.002678,0.000431,0.001880
15331000,0.0324,0.013523,0.002678,0.000431,0.001645
15332000,0.0324,0.013523,0.002678,0.000431,0.001880
15333000,0.0324,0.013523,0.002678,0.000431,0.001645
15334000,0.0324,0.013523,0.002678,0.000431,0.001763
15335000,0.0324,0.013523,0.002678,0.000431,0.003056
15336000,0.0324,0.013523,0.002678,0.000431,0.000823
15337000,0.0324,0.013523,0.002678,0.000431,0.000940
15338000,0.0324,0.013523,0.002678,0.000431,0.000940
15339000,0.0324,0.013523,0.002678,0.000431,0.000705
15340000,0.0324,0.013523,0.002678,0.000431,0.000940
15341000,0.0324,0.013523,0.002678,0.000431,0.000940
15342000,0.0324,0.013523,0.002678,0.000431,0.000940
15343000,0.0324,0.013523,0.002678,0.000431,0.000705
15344000,0.0324,0.013523,0.002678,0.000431,0.000940
15345000,0.0324,0.013523,0.002678,0.000431,0.000940
15346000,0.0324,0.013523,0.002678,0.000431,0.000823
15347000,0.0324,0.013523,0.002678,0.000431,0.000823
15348000,0.0324,0.013523,0.002678,0.000431,0.000940
15349000,0.0324,0.013523,0.002678,0.000431,0.000940
15350000,0.0324,0.013523,0.002678,0.000431,0.000823
15351000,0.0324,0.013523,0.002678,0.000431,0.000823
15352000,0.0324,0.013523,0.002678,0.000431,0.000940
15353000,0.0324,0.013523,0.002678,0.000431,0.000823
15354000,0.0324,0.013523,0.002678,0.000431,0.000940
15355000,0.0324,0.013523,0.002678,0.000431,0.000823
15356000,0.0324,0.013523,0.002678,0.000431,0.000940
15357000,0.0324,0.013523,0.002678,0.000431,0.008697
15358000,0.0324,0.013523,0.002678,0.000431,0.512188
15359000,0.0324,0.013523,0.002678,0.000431,0.635475
15360000,0.0324,0.013523,0.002678,0.000431,0.134452
15361000,0.0324,0.013523,0.002678,0.000431,0.132102
15362000,0.0324,0.013523,0.002678,0.000431,0.332487
15363000,0.0324,0.013523,0.002678,0.000431,0.438028
15364000,0.0324,0.013523,0.002678,0.000431,0.259620
15365000,0.0324,0.013523,0.002678,0.000431,0.318501
15366000,0.0324,0.013523,0.002678,0.000431,0.156077
15367000,0.0324,0.013523,0.002678,0.000431,0.151141
15368000,0.0324,0.013523,0.002678,0.000431,0.119996
15369000,0.0324,0.013523,0.002678,0.000431,0.337071
15370000,0.0324,0.013523,0.002678,0.000431,0.286064
15371000,0.0324,0.013523,0.002678,0.000431,0.081330
15372000,0.0324,0.013523,0.002678,0.000431,0.057824
15373000,0.0324,0.013523,0.002678,0.000431,0.044661
15374000,0.0324,0.013523,0.002678,0.000431,0.038079
15375000,0.0324,0.013523,0.002678,0.000431,0.040077
15376000,0.0324,0.013523,0.002678,0.000431,0.027737
15377000,0.0324,0.013523,0.002678,0.000431,0.030675
15378000,0.0324,0.013523,0.002678,0.000431,0.020097
15379000,0.0324,0.013523,0.002678,0.000431,0.018569
15380000,0.0324,0.013523,0.002678,0.000431,0.018217
15381000,0.0324,0.013523,0.002678,0.000431,0.025621
15382000,0.0324,0.013523,0.002678,0.000431,0.014456
15383000,0.0324,0.013523,0.002678,0.000431,0.017277
15384000,0.0324,0.013523,0.002678,0.000431,0.014456
15385000,0.0324,0.013523,0.002678,0.000431,0.013046
15386000,0.0324,0.013523,0.002678,0.000431,0.013046
15387000,0.0324,0.013523,0.002678,0.000431,0.012693
15388000,0.0324,0.013523,0.002678,0.000431,0.014221
15389000,0.0324,0.013523,0.002678,0.000431,0.011753
15390000,0.0324,0.013523,0.002678,0.000431,0.014573
15391000,0.0324,0.013523,0.002678,0.000431,0.013751
15392000,0.0324,0.013523,0.002678,0.000431,0.012223
15393000,0.0324,0.013523,0.002678,0.000431,0.012458
15394000,0.0324,0.013523,0.002678,0.000431,0.012458
15395000,0.0324,0.013523,0.002678,0.000431,0.011870
15396000,0.0324,0.013523,0.002678,0.000431,0.012223
15397000,0.0324,0.013523,0.002678,0.000431,0.012223
15398000,0.0324,0.013523,0.002678,0.000431,0.012811
15399000,0.0324,0.013523,0.002678,0.000431,0.011870
15400000,0.0324,0.013523,0.002678,0.000431,0.012340
15401000,0.0324,0.013523,0.002678,0.000431,0.012576
15402000,0.0324,0.013523,0.002678,0.000431,0.012223
15403000,0.0324,0.013523,0.002678,0.000431,0.012458
15404000,0.0324,0.013523,0.002678,0.000431,0.012576
15405000,0.0324,0.013523,0.002678,0.000431,0.013281
15406000,0.0324,0.013523,0.002678,0.000431,0.011400
15407000,0.0324,0.013523,0.002678,0.000431,0.010460
15408000,0.0324,0.013523,0.002678,0.000431,0.009990
15409000,0.0324,0.013523,0.002678,0.000431,0.011400
15410000,0.0324,0.013523,0.002678,0.000431,0.009990
15411000,0.0324,0.013523,0.002678,0.000431,0.008345
15412000,0.0324,0.013523,0.002678,0.000431,0.009167
15413000,0.0324,0.013523,0.002678,0.000431,0.009167
15414000,0.0324,0.013523,0.002678,0.000431,0.009050
15415000,0.0324,0.013523,0.002678,0.000431,0.008462
15416000,0.0324,0.013523,0.002678,0.000431,0.009402
15417000,0.0324,0.013523,0.002678,0.000431,0.009050
15418000,0.0324,0.013523,0.002678,0.000431,0.009050
15419000,0.0324,0.013523,0.002678,0.000431,0.010460
15420000,0.0324,0.013523,0.002678,0.000431,0.007874
15421000,0.0324,0.013523,0.002678,0.000431,0.009520
15422000,0.0324,0.013523,0.002678,0.000431,0.007404
15423000,0.0324,0.013523,0.002678,0.000431,0.006934
15424000,0.0324,0.013523,0.002678,0.000431,0.007992
15425000,0.0324,0.013523,0.002678,0.000431,0.006582
15426000,0.0324,0.013523,0.002678,0.000431,0.007757
15427000,0.0324,0.013523,0.002678,0.000431,0.006934
15428000,0.0324,0.013523,0.002678,0.000431,0.007639
15429000,0.0324,0.013523,0.002678,0.000431,0.006934
15430000,0.0324,0.013523,0.002678,0.000431,0.007874
15431000,0.0324,0.013523,0.002678,0.000431,0.006934
15432000,0.0324,0.013523,0.002678,0.000431,0.006347
15433000,0.0324,0.013523,0.002678,0.000431,0.006111
15434000,0.0324,0.013523,0.002678,0.000431,0.005876
15435000,0.0324,0.013523,0.002678,0.000431,0.006111
15436000,0.0324,0.013523,0.002678,0.000431,0.006111
15437000,0.0324,0.013523,0.002678,0.000431,0.007757
15438000,0.0324,0.013523,0.002678,0.000431,0.007052
15439000,0.0324,0.013523,0.002678,0.000431,0.004113
15440000,0.0324,0.013523,0.002678,0.000431,0.004466
15441000,0.0324,0.013523,0.002678,0.000431,0.004113
15442000,0.0324,0.013523,0.002678,0.000431,0.004231
15443000,0.0324,0.013523,0.002678,0.000431,0.004701
15444000,0.0324,0.013523,0.002678,0.000431,0.003878
15445000,0.0324,0.013523,0.002678,0.000431,0.004466
15446000,0.0324,0.013523,0.002678,0.000431,0.004466
15447000,0.0324,0.013523,0.002678,0.000431,0.004349
15448000,0.0324,0.013523,0.002678,0.000431,0.004113
15449000,0.0324,0.013523,0.002678,0.000431,0.004231
15450000,0.0324,0.013523,0.002678,0.000431,0.004584
15451000,0.0324,0.013523,0.002678,0.000431,0.004113
15452000,0.0324,0.013523,0.002678,0.000431,0.004349
15453000,0.0324,0.013523,0.002678,0.000431,0.004113
15454000,0.0324,0.013523,0.002678,0.000431,0.004231
15455000,0.0324,0.013523,0.002678,0.000431,0.006347
15456000,0.0324,0.013523,0.002678,0.000431,0.003173
15457000,0.0324,0.013523,0.002678,0.000431,0.003761
15458000,0.0324,0.013523,0.002678,0.000431,0.003173
15459000,0.0324,0.013523,0.002678,0.000431,0.003526
15460000,0.0324,0.013523,0.002678,0.000431,0.003408
15461000,0.0324,0.013523,0.002678,0.000431,0.003408
15462000,0.0324,0.013523,0.002678,0.000431,0.003526
15463000,0.0324,0.013523,0.002678,0.000431,0.003526
15464000,0.0324,0.013523,0.002678,0.000431,0.003291
15465000,0.0324,0.013523,0.002678,0.000431,0.003643
15466000,0.0324,0.013523,0.002678,0.000431,0.003643
15467000,0.0324,0.013523,0.002678,0.000431,0.004349
15468000,0.0324,0.013523,0.002678,0.000431,0.002468
15469000,0.0324,0.013523,0.002678,0.000431,0.002821
15470000,0.0324,0.013523,0.002678,0.000431,0.002586
15471000,0.0324,0.013523,0.002678,0.000431,0.002468
15472000,0.0324,0.013523,0.002678,0.000431,0.002586
15473000,0.0324,0.013523,0.002678,0.000431,0.002586
15474000,0.0324,0.013523,0.002678,0.000431,0.002703
15475000,0.0324,0.013523,0.002678,0.000431,0.002586
15476000,0.0324,0.013523,0.002678,0.000431,0.002468
15477000,0.0324,0.013523,0.002678,0.000431,0.002703
15478000,0.0324,0.013523,0.002678,0.000431,0.002351
15479000,0.0324,0.013523,0.002678,0.000431,0.002703
15480000,0.0324,0.013523,0.002678,0.000431,0.002586
15481000,0.0324,0.013523,0.002678,0.000431,0.002586
15482000,0.0324,0.013523,0.002678,0.000431,0.002468
15483000,0.0324,0.013523,0.002678,0.000431,0.002468
15484000,0.0324,0.013523,0.002678,0.000431,0.002703
15485000,0.0324,0.013523,0.002678,0.000431,0.002586
15486000,0.0324,0.013523,0.002678,0.000431,0.002586
15487000,0.0324,0.013523,0.002678,0.000431,0.002468
15488000,0.0324,0.013523,0.002678,0.000431,0.002586
15489000,0.0324,0.013523,0.002678,0.000431,0.002586
15490000,0.0324,0.013523,0.002678,0.000431,0.002586
15491000,0.0324,0.013523,0.002678,0.000431,0.002351
15492000,0.0324,0.013523,0.002678,0.000431,0.002703
15493000,0.0324,0.013523,0.002678,0.000431,0.002586
15494000,0.0324,0.013523,0.002678,0.000431,0.002586
15495000,0.0324,0.013523,0.002678,0.000431,0.002468
15496000,0.0324,0.013523,0.002678,0.000431,0.002586
15497000,0.0324,0.013523,0.002678,0.000431,0.002468
15498000,0.0324,0.013523,0.002678,0.000431,0.002703
15499000,0.0324,0.013523,0.002678,0.000431,0.002468
15500000,0.0324,0.013523,0.002678,0.000431,0.002703
15501000,0.0324,0.013523,0.002678,0.000431,0.002468
15502000,0.0324,0.013523,0.002678,0.000431,0.002586
15503000,0.0324,0.013523,0.002678,0.000431,0.002703
15504000,0.0324,0.013523,0.002678,0.000431,0.002586
15505000,0.0324,0.013523,0.002678,0.000431,0.002468
15506000,0.0324,0.013523,0.002678,0.000431,0.003643
15507000,0.0324,0.013523,0.002678,0.000431,0.001763
15508000,0.0324,0.013523,0.002678,0.000431,0.001763
15509000,0.0324,0.013523,0.002678,0.000431,0.001645
15510000,0.0324,0.013523,0.002678,0.000431,0.001763
15511000,0.0324,0.013523,0.002678,0.000431,0.001645
15512000,0.0324,0.013523,0.002678,0.000431,0.001880
15513000,0.0324,0.013523,0.002678,0.000431,0.001645
15514000,0.0324,0.013523,0.002678,0.000431,0.001645
15515000,0.0324,0.013523,0.002678,0.000431,0.001763
15516000,0.0324,0.013523,0.002678,0.000431,0.001763
15517000,0.0324,0.013523,0.002678,0.000431,0.001645
15518000,0.0324,0.013523,0.002678,0.000431,0.001645
15519000,0.0324,0.013523,0.002678,0.000431,0.001880
15520000,0.0324,0.013523,0.002678,0.000431,0.001645
15521000,0.0324,0.013523,0.002678,0.000431,0.001645
15522000,0.0324,0.013523,0.002678,0.000431,0.001763
15523000,0.0324,0.013523,0.002678,0.000431,0.001763
15524000,0.0324,0.013523,0.002678,0.000431,0.001645
15525000,0.0324,0.013523,0.002678,0.000431,0.001763
15526000,0.0324,0.013523,0.002678,0.000431,0.001645
15527000,0.0324,0.013523,0.002678,0.000431,0.001763
15528000,0.0324,0.013523,0.002678,0.000431,0.001763
15529000,0.0324,0.013523,0.002678,0.000431,0.001645
15530000,0.0324,0.013523,0.002678,0.000431,0.001763
15531000,0.0324,0.013523,0.002678,0.000431,0.001645
15532000,0.0324,0.013523,0.002678,0.000431,0.001763
15533000,0.0324,0.013523,0.002678,0.000431,0.001763
15534000,0.0324,0.013523,0.002678,0.000431,0.001645
15535000,0.0324,0.013523,0.002678,0.000431,0.001880
15536000,0.0324,0.013523,0.002678,0.000431,0.001410
15537000,0.0324,0.013523,0.002678,0.000431,0.001880
15538000,0.0324,0.013523,0.002678,0.000431,0.001763
15539000,0.0324,0.013523,0.002678,0.000431,0.001763
15540000,0.0324,0.013523,0.002678,0.000431,0.001645
15541000,0.0324,0.013523,0.002678,0.000431,0.001645
15542000,0.0324,0.013523,0.002678,0.000431,0.001880
15543000,0.0324,0.013523,0.002678,0.000431,0.001645
15544000,0.0324,0.013523,0.002678,0.000431,0.001763
15545000,0.0324,0.013523,0.002678,0.000431,0.001645
15546000,0.0324,0.013523,0.002678,0.000431,0.001763
15547000,0.0324,0.013523,0.002678,0.000431,0.001645
15548000,0.0324,0.013523,0.002678,0.000431,0.003408
15549000,0.0324,0.013523,0.002678,0.000431,0.000940
15550000,0.0324,0.013523,0.002678,0.000431,0.000705
15551000,0.0324,0.013523,0.002678,0.000431,0.000940
15552000,0.0324,0.013523,0.002678,0.000431,0.000823
15553000,0.0324,0.013523,0.002678,0.000431,0.000823
15554000,0.0324,0.013523,0.002678,0.000431,0.000705
15555000,0.0324,0.013523,0.002678,0.000431,0.000940
15556000,0.0324,0.013523,0.002678,0.000431,0.000940
15557000,0.0324,0.013523,0.002678,0.000431,0.000705
15558000,0.0324,0.013523,0.002678,0.000431,0.000940
15559000,0.0324,0.013523,0.002678,0.000431,0.000705
15560000,0.0324,0.013523,0.002678,0.000431,0.000940
15561000,0.0324,0.013523,0.002678,0.000431,0.000823
15562000,0.0324,0.013523,0.002678,0.000431,0.000823
15563000,0.0324,0.013523,0.002678,0.000431,0.000940
15564000,0.0324,0.013523,0.002678,0.000431,0.000705
15565000,0.0324,0.013523,0.002678,0.000431,0.000940
15566000,0.0324,0.013523,0.002678,0.000431,0.000823
15567000,0.0324,0.013523,0.002678,0.000431,0.000823
15568000,0.0324,0.013523,0.002678,0.000431,0.000823
15569000,0.0324,0.013523,0.002678,0.000431,0.000823
15570000,0.0324,0.013523,0.002678,0.000431,0.000823
15571000,0.0324,0.013523,0.002678,0.000431,0.000823
15572000,0.0324,0.013523,0.002678,0.000431,0.000940
15573000,0.0324,0.013523,0.002678,0.000431,0.000705
15574000,0.0324,0.013523,0.002678,0.000431,0.000823
15575000,0.0324,0.013523,0.002678,0.000431,0.000940
15576000,0.0324,0.013523,0.002678,0.000431,0.000823
15577000,0.0324,0.013523,0.002678,0.000431,0.000823
15578000,0.0324,0.013523,0.002678,0.000431,0.000823
15579000,0.0324,0.013523,0.002678,0.000431,0.000705
15580000,0.0324,0.013523,0.002678,0.000431,0.000940
15581000,0.0324,0.013523,0.002678,0.000431,0.000940
15582000,0.0324,0.013523,0.002678,0.000431,0.000705
15583000,0.0324,0.013523,0.002678,0.000431,0.000940
15584000,0.0324,0.013523,0.002678,0.000431,0.000705
15585000,0.0324,0.013523,0.002678,0.000431,0.000940
15586000,0.0324,0.013523,0.002678,0.000431,0.000940
15587000,0.0324,0.013523,0.002678,0.000431,0.000705
15588000,0.0324,0.013523,0.002678,0.000431,0.000940
15589000,0.0324,0.013523,0.002678,0.000431,0.000705
15590000,0.0324,0.013523,0.002678,0.000431,0.000940
15591000,0.0324,0.013523,0.002678,0.000431,0.000823
15592000,0.0324,0.013523,0.002678,0.000431,0.000823
15593000,0.0324,0.013523,0.002678,0.000431,0.000823
15594000,0.0324,0.013523,0.002678,0.000431,0.000823
15595000,0.0324,0.013523,0.002678,0.000431,0.000940
15596000,0.0324,0.013523,0.002678,0.000431,0.000705
15597000,0.0324,0.013523,0.002678,0.000431,0.000940
15598000,0.0324,0.013523,0.002678,0.000431,0.000823
15599000,0.0324,0.013523,0.002678,0.000431,0.000823
15600000,0.0324,0.013523,0.002678,0.000431,0.000823
15601000,0.0324,0.013523,0.002678,0.000431,0.000823
15602000,0.0324,0.013523,0.002678,0.000431,0.000823
15603000,0.0324,0.013523,0.002678,0.000431,0.000823
15604000,0.0324,0.013523,0.002678,0.000431,0.000940
15605000,0.0324,0.013523,0.002678,0.000431,0.000823
15606000,0.0324,0.013523,0.002678,0.000431,0.000823
15607000,0.0324,0.013523,0.002678,0.000431,0.000940
15608000,0.0324,0.013523,0.002678,0.000431,0.000823
15609000,0.0324,0.013523,0.002678,0.000431,0.000823
15610000,0.0324,0.013523,0.002678,0.000431,0.000940
15611000,0.0324,0.013523,0.002678,0.000431,0.000823
15612000,0.0324,0.013523,0.002678,0.000431,0.000823
15613000,0.0324,0.013523,0.002678,0.000431,0.000940
15614000,0.0324,0.013523,0.002678,0.000431,0.000705
15615000,0.0324,0.013523,0.002678,0.000431,0.000940
15616000,0.0324,0.013523,0.002678,0.000431,0.000823
15617000,0.0324,0.013523,0.002678,0.000431,0.000823
15618000,0.0324,0.013523,0.002678,0.000431,0.000823
15619000,0.0324,0.013523,0.002678,0.000431,0.000823
15620000,0.0324,0.013523,0.002678,0.000431,0.000940
15621000,0.0324,0.013523,0.002678,0.000431,0.000705
15622000,0.0324,0.013523,0.002678,0.000431,0.000940
15623000,0.0324,0.013523,0.002678,0.000431,0.000823
15624000,0.0324,0.013523,0.002678,0.000431,0.000823
15625000,0.0324,0.013523,0.002678,0.000431,0.000823
15626000,0.0324,0.013523,0.002678,0.000431,0.000823
15627000,0.0324,0.013523,0.002678,0.000431,0.000940
15628000,0.0324,0.013523,0.002678,0.000431,0.000705
15629000,0.0324,0.013523,0.002678,0.000431,0.000823
15630000,0.0324,0.013523,0.002678,0.000431,0.000940
15631000,0.0324,0.013523,0.002678,0.000431,0.000823
15632000,0.0324,0.013523,0.002678,0.000431,0.000823
15633000,0.0324,0.013523,0.002678,0.000431,0.000823
15634000,0.0324,0.013523,0.002678,0.000431,0.000823
15635000,0.0324,0.013523,0.002678,0.000431,0.000823
15636000,0.0324,0.013523,0.002678,0.000431,0.000940
15637000,0.0324,0.013523,0.002678,0.000431,0.000823
15638000,0.0324,0.013523,0.002678,0.000431,0.000823
15639000,0.0324,0.013523,0.002678,0.000431,0.000705
15640000,0.0324,0.013523,0.002678,0.000431,0.000940
15641000,0.0324,0.013523,0.002678,0.000431,0.000940
15642000,0.0324,0.013523,0.002678,0.000431,0.000705
15643000,0.0324,0.013523,0.002678,0.000431,0.000940
15644000,0.0324,0.013523,0.002678,0.000431,0.000705
15645000,0.0324,0.013523,0.002678,0.000431,0.000940
15646000,0.0324,0.013523,0.002678,0.000431,0.000823
15647000,0.0324,0.013523,0.002678,0.000431,0.000823
15648000,0.0324,0.013523,0.002678,0.000431,0.000940
15649000,0.0324,0.013523,0.002678,0.000431,0.000705
15650000,0.0324,0.013523,0.002678,0.000431,0.000940
15651000,0.0324,0.013523,0.002678,0.000431,0.000823
15652000,0.0324,0.013523,0.002678,0.000431,0.000823
15653000,0.0324,0.013523,0.002678,0.000431,0.000823
15654000,0.0324,0.013523,0.002678,0.000431,0.000823
15655000,0.0324,0.013523,0.002678,0.000431,0.000940
15656000,0.0324,0.013523,0.002678,0.000431,0.000705
15657000,0.0324,0.013523,0.002678,0.000431,0.000940
15658000,0.0324,0.013523,0.002678,0.000431,0.000823
15659000,0.0324,0.013523,0.002678,0.000431,0.000823
15660000,0.0324,0.013523,0.002678,0.000431,0.000823
15661000,0.0324,0.013523,0.002678,0.000431,0.000823
15662000,0.0324,0.013523,0.002678,0.000431,0.000940
15663000,0.0324,0.013523,0.002678,0.000431,0.000705
15664000,0.0324,0.013523,0.002678,0.000431,0.000940
15665000,0.0324,0.013523,0.002678,0.000431,0.000823
15666000,0.0324,0.013523,0.002678,0.000431,0.216134
15667000,0.0324,0.013523,0.002678,0.000431,0.649108
15668000,0.0324,0.013523,0.002678,0.000431,0.355993
15669000,0.0324,0.013523,0.002678,0.000431,0.131632
15670000,0.0324,0.013523,0.002678,0.000431,0.133512
15671000,0.0324,0.013523,0.002678,0.000431,0.585408
15672000,0.0324,0.013523,0.002678,0.000431,0.236467
15673000,0.0324,0.013523,0.002678,0.000431,0.269610
15674000,0.0324,0.013523,0.002678,0.000431,0.284888
15675000,0.0324,0.013523,0.002678,0.000431,0.138331
15676000,0.0324,0.013523,0.002678,0.000431,0.154079
15677000,0.0324,0.013523,0.002678,0.000431,0.104247
15678000,0.0324,0.013523,0.002678,0.000431,0.433679
15679000,0.0324,0.013523,0.002678,0.000431,0.158310
15680000,0.0324,0.013523,0.002678,0.000431,0.042310
15681000,0.0324,0.013523,0.002678,0.000431,0.031850
15682000,0.0324,0.013523,0.002678,0.000431,0.027737
15683000,0.0324,0.013523,0.002678,0.000431,0.023976
15684000,0.0324,0.013523,0.002678,0.000431,0.017864
15685000,0.0324,0.013523,0.002678,0.000431,0.019627
15686000,0.0324,0.013523,0.002678,0.000431,0.019862
15687000,0.0324,0.013523,0.002678,0.000431,0.010695
15688000,0.0324,0.013523,0.002678,0.000431,0.012928
15689000,0.0324,0.013523,0.002678,0.000431,0.012928
15690000,0.0324,0.013523,0.002678,0.000431,0.010930
15691000,0.0324,0.013523,0.002678,0.000431,0.008462
15692000,0.0324,0.013523,0.002678,0.000431,0.009872
15693000,0.0324,0.013523,0.002678,0.000431,0.007757
15694000,0.0324,0.013523,0.002678,0.000431,0.007052
15695000,0.0324,0.013523,0.002678,0.000431,0.007522
15696000,0.0324,0.013523,0.002678,0.000431,0.007404
15697000,0.0324,0.013523,0.002678,0.000431,0.007874
15698000,0.0324,0.013523,0.002678,0.000431,0.006934
15699000,0.0324,0.013523,0.002678,0.000431,0.007522
15700000,0.0324,0.013523,0.002678,0.000431,0.007757
15701000,0.0324,0.013523,0.002678,0.000431,0.008932
15702000,0.0324,0.013523,0.002678,0.000431,0.006817
15703000,0.0324,0.013523,0.002678,0.000431,0.006699
15704000,0.0324,0.013523,0.002678,0.000431,0.006229
15705000,0.0324,0.013523,0.002678,0.000431,0.006582
15706000,0.0324,0.013523,0.002678,0.000431,0.006347
15707000,0.0324,0.013523,0.002678,0.000431,0.007169
15708000,0.0324,0.013523,0.002678,0.000431,0.006699
15709000,0.0324,0.013523,0.002678,0.000431,0.005641
15710000,0.0324,0.013523,0.002678,0.000431,0.005876
15711000,0.0324,0.013523,0.002678,0.000431,0.005759
15712000,0.0324,0.013523,0.002678,0.000431,0.006111
15713000,0.0324,0.013523,0.002678,0.000431,0.005994
15714000,0.0324,0.013523,0.002678,0.000431,0.006347
15715000,0.0324,0.013523,0.002678,0.000431,0.007522
15716000,0.0324,0.013523,0.002678,0.000431,0.005054
15717000,0.0324,0.013523,0.002678,0.000431,0.005171
15718000,0.0324,0.013523,0.002678,0.000431,0.004936
15719000,0.0324,0.013523,0.002678,0.000431,0.006464
15720000,0.0324,0.013523,0.002678,0.000431,0.004231
15721000,0.0324,0.013523,0.002678,0.000431,0.004349
15722000,0.0324,0.013523,0.002678,0.000431,0.003996
15723000,0.0324,0.013523,0.002678,0.000431,0.004231
15724000,0.0324,0.013523,0.002678,0.000431,0.004466
15725000,0.0324,0.013523,0.002678,0.000431,0.004113
15726000,0.0324,0.013523,0.002678,0.000431,0.004349
15727000,0.0324,0.013523,0.002678,0.000431,0.004113
15728000,0.0324,0.013523,0.002678,0.000431,0.005171
15729000,0.0324,0.013523,0.002678,0.000431,0.003408
15730000,0.0324,0.013523,0.002678,0.000431,0.003291
15731000,0.0324,0.013523,0.002678,0.000431,0.003408
15732000,0.0324,0.013523,0.002678,0.000431,0.003291
15733000,0.0324,0.013523,0.002678,0.000431,0.003526
15734000,0.0324,0.013523,0.002678,0.000431,0.003056
15735000,0.0324,0.013523,0.002678,0.000431,0.003526
15736000,0.0324,0.013523,0.002678,0.000431,0.003643
15737000,0.0324,0.013523,0.002678,0.000431,0.003056
15738000,0.0324,0.013523,0.002678,0.000431,0.003291
15739000,0.0324,0.013523,0.002678,0.000431,0.003408
15740000,0.0324,0.013523,0.002678,0.000431,0.003761
15741000,0.0324,0.013523,0.002678,0.000431,0.005054
15742000,0.0324,0.013523,0.002678,0.000431,0.003291
15743000,0.0324,0.013523,0.002678,0.000431,0.002586
15744000,0.0324,0.013523,0.002678,0.000431,0.002586
15745000,0.0324,0.013523,0.002678,0.000431,0.002351
15746000,0.0324,0.013523,0.002678,0.000431,0.002586
15747000,0.0324,0.013523,0.002678,0.000431,0.003643
15748000,0.0324,0.013523,0.002678,0.000431,0.001645
15749000,0.0324,0.013523,0.002678,0.000431,0.001645
15750000,0.0324,0.013523,0.002678,0.000431,0.001645
15751000,0.0324,0.013523,0.002678,0.000431,0.001763
15752000,0.0324,0.013523,0.002678,0.000431,0.001528
15753000,0.0324,0.013523,0.002678,0.000431,0.001645
15754000,0.0324,0.013523,0.002678,0.000431,0.001645
15755000,0.0324,0.013523,0.002678,0.000431,0.001880
15756000,0.0324,0.013523,0.002678,0.000431,0.001293
15757000,0.0324,0.013523,0.002678,0.000431,0.001763
15758000,0.0324,0.013523,0.002678,0.000431,0.001880
15759000,0.0324,0.013523,0.002678,0.000431,0.001645
15760000,0.0324,0.013523,0.002678,0.000431,0.001410
15761000,0.0324,0.013523,0.002678,0.000431,0.001645
15762000,0.0324,0.013523,0.002678,0.000431,0.001880
15763000,0.0324,0.013523,0.002678,0.000431,0.001645
15764000,0.0324,0.013523,0.002678,0.000431,0.001410
15765000,0.0324,0.013523,0.002678,0.000431,0.001880
15766000,0.0324,0.013523,0.002678,0.000431,0.001645
15767000,0.0324,0.013523,0.002678,0.000431,0.001410
15768000,0.0324,0.013523,0.002678,0.000431,0.001763
15769000,0.0324,0.013523,0.002678,0.000431,0.001763
15770000,0.0324,0.013523,0.002678,0.000431,0.001645
15771000,0.0324,0.013523,0.002678,0.000431,0.001410
15772000,0.0324,0.013523,0.002678,0.000431,0.001880
15773000,0.0324,0.013523,0.002678,0.000431,0.001645
15774000,0.0324,0.013523,0.002678,0.000431,0.001645
15775000,0.0324,0.013523,0.002678,0.000431,0.001645
15776000,0.0324,0.013523,0.002678,0.000431,0.001645
15777000,0.0324,0.013523,0.002678,0.000431,0.001645
15778000,0.0324,0.013523,0.002678,0.000431,0.001645
15779000,0.0324,0.013523,0.002678,0.000431,0.001645
15780000,0.0324,0.013523,0.002678,0.000431,0.001763
15781000,0.0324,0.013523,0.002678,0.000431,0.001528
15782000,0.0324,0.013523,0.002678,0.000431,0.001645
15783000,0.0324,0.013523,0.002678,0.000431,0.001645
15784000,0.0324,0.013523,0.002678,0.000431,0.001645
15785000,0.0324,0.013523,0.002678,0.000431,0.001528
15786000,0.0324,0.013523,0.002678,0.000431,0.001528
15787000,0.0324,0.013523,0.002678,0.000431,0.001645
15788000,0.0324,0.013523,0.002678,0.000431,0.001645
15789000,0.0324,0.013523,0.002678,0.000431,0.001880
15790000,0.0324,0.013523,0.002678,0.000431,0.001410
15791000,0.0324,0.013523,0.002678,0.000431,0.001645
15792000,0.0324,0.013523,0.002678,0.000431,0.001880
15793000,0.0324,0.013523,0.002678,0.000431,0.001645
15794000,0.0324,0.013523,0.002678,0.000431,0.001410
15795000,0.0324,0.013523,0.002678,0.000431,0.001645
15796000,0.0324,0.013523,0.002678,0.000431,0.001880
15797000,0.0324,0.013523,0.002678,0.000431,0.001645
15798000,0.0324,0.013523,0.002678,0.000431,0.001410
15799000,0.0324,0.013523,0.002678,0.000431,0.001880
15800000,0.0324,0.013523,0.002678,0.000431,0.001645
15801000,0.0324,0.013523,0.002678,0.000431,0.001645
15802000,0.0324,0.013523,0.002678,0.000431,0.001528
15803000,0.0324,0.013523,0.002678,0.000431,0.001645
15804000,0.0324,0.013523,0.002678,0.000431,0.001528
15805000,0.0324,0.013523,0.002678,0.000431,0.001645
15806000,0.0324,0.013523,0.002678,0.000431,0.001645
15807000,0.0324,0.013523,0.002678,0.000431,0.001645
15808000,0.0324,0.013523,0.002678,0.000431,0.001645
15809000,0.0324,0.013523,0.002678,0.000431,0.001645
15810000,0.0324,0.013523,0.002678,0.000431,0.001645
15811000,0.0324,0.013523,0.002678,0.000431,0.001645
15812000,0.0324,0.013523,0.002678,0.000431,0.001763
15813000,0.0324,0.013523,0.002678,0.000431,0.001528
15814000,0.0324,0.013523,0.002678,0.000431,0.001645
15815000,0.0324,0.013523,0.002678,0.000431,0.001645
15816000,0.0324,0.013523,0.002678,0.000431,0.001880
15817000,0.0324,0.013523,0.002678,0.000431,0.001293
15818000,0.0324,0.013523,0.002678,0.000431,0.001763
15819000,0.0324,0.013523,0.002678,0.000431,0.001880
15820000,0.0324,0.013523,0.002678,0.000431,0.001410
15821000,0.0324,0.013523,0.002678,0.000431,0.001645
15822000,0.0324,0.013523,0.002678,0.000431,0.001645
15823000,0.0324,0.013523,0.002678,0.000431,0.001880
15824000,0.0324,0.013523,0.002678,0.000431,0.001410
15825000,0.0324,0.013523,0.002678,0.000431,0.001645
15826000,0.0324,0.013523,0.002678,0.000431,0.001880
15827000,0.0324,0.013523,0.002678,0.000431,0.001645
15828000,0.0324,0.013523,0.002678,0.000431,0.001410
15829000,0.0324,0.013523,0.002678,0.000431,0.001763
15830000,0.0324,0.013523,0.002678,0.000431,0.001763
15831000,0.0324,0.013523,0.002678,0.000431,0.001645
15832000,0.0324,0.013523,0.002678,0.000431,0.072280
15833000,0.0324,0.013523,0.002678,0.000431,0.502315
15834000,0.0324,0.013523,0.002678,0.000431,0.563195
15835000,0.0324,0.013523,0.002678,0.000431,0.131984
15836000,0.0324,0.013523,0.002678,0.000431,0.133630
15837000,0.0324,0.013523,0.002678,0.000431,0.545096
15838000,0.0324,0.013523,0.002678,0.000431,0.230708
15839000,0.0324,0.013523,0.002678,0.000431,0.240463
15840000,0.0324,0.013523,0.002678,0.000431,0.298287
15841000,0.0324,0.013523,0.002678,0.000431,0.165010
15842000,0.0324,0.013523,0.002678,0.000431,0.143737
15843000,0.0324,0.013523,0.002678,0.000431,0.166537
15844000,0.0324,0.013523,0.002678,0.000431,0.130221
15845000,0.0324,0.013523,0.002678,0.000431,0.460475
15846000,0.0324,0.013523,0.002678,0.000431,0.068989
15847000,0.0324,0.013523,0.002678,0.000431,0.042780
15848000,0.0324,0.013523,0.002678,0.000431,0.029852
15849000,0.0324,0.013523,0.002678,0.000431,0.025974
15850000,0.0324,0.013523,0.002678,0.000431,0.024681
15851000,0.0324,0.013523,0.002678,0.000431,0.020097
15852000,0.0324,0.013523,0.002678,0.000431,0.014691
15853000,0.0324,0.013523,0.002678,0.000431,0.015044
15854000,0.0324,0.013523,0.002678,0.000431,0.008580
15855000,0.0324,0.013523,0.002678,0.000431,0.010342
15856000,0.0324,0.013523,0.002678,0.000431,0.008227
15857000,0.0324,0.013523,0.002678,0.000431,0.007639
15858000,0.0324,0.013523,0.002678,0.000431,0.008697
15859000,0.0324,0.013523,0.002678,0.000431,0.007639
15860000,0.0324,0.013523,0.002678,0.000431,0.006699
15861000,0.0324,0.013523,0.002678,0.000431,0.006699
15862000,0.0324,0.013523,0.002678,0.000431,0.009520
15863000,0.0324,0.013523,0.002678,0.000431,0.005641
15864000,0.0324,0.013523,0.002678,0.000431,0.008109
15865000,0.0324,0.013523,0.002678,0.000431,0.005171
15866000,0.0324,0.013523,0.002678,0.000431,0.004819
15867000,0.0324,0.013523,0.002678,0.000431,0.006817
15868000,0.0324,0.013523,0.002678,0.000431,0.004231
15869000,0.0324,0.013523,0.002678,0.000431,0.003761
15870000,0.0324,0.013523,0.002678,0.000431,0.004466
15871000,0.0324,0.013523,0.002678,0.000431,0.003996
15872000,0.0324,0.013523,0.002678,0.000431,0.004349
15873000,0.0324,0.013523,0.002678,0.000431,0.003878
15874000,0.0324,0.013523,0.002678,0.000431,0.004231
15875000,0.0324,0.013523,0.002678,0.000431,0.004231
15876000,0.0324,0.013523,0.002678,0.000431,0.003643
15877000,0.0324,0.013523,0.002678,0.000431,0.004701
15878000,0.0324,0.013523,0.002678,0.000431,0.003996
15879000,0.0324,0.013523,0.002678,0.000431,0.004113
15880000,0.0324,0.013523,0.002678,0.000431,0.004113
15881000,0.0324,0.013523,0.002678,0.000431,0.003996
15882000,0.0324,0.013523,0.002678,0.000431,0.004349
15883000,0.0324,0.013523,0.002678,0.000431,0.003996
15884000,0.0324,0.013523,0.002678,0.000431,0.004113
15885000,0.0324,0.013523,0.002678,0.000431,0.004231
15886000,0.0324,0.013523,0.002678,0.000431,0.004231
15887000,0.0324,0.013523,0.002678,0.000431,0.003996
15888000,0.0324,0.013523,0.002678,0.000431,0.004349
15889000,0.0324,0.013523,0.002678,0.000431,0.005876
15890000,0.0324,0.013523,0.002678,0.000431,0.003291
15891000,0.0324,0.013523,0.002678,0.000431,0.003056
15892000,0.0324,0.013523,0.002678,0.000431,0.003526
15893000,0.0324,0.013523,0.002678,0.000431,0.003526
15894000,0.0324,0.013523,0.002678,0.000431,0.002938
15895000,0.0324,0.013523,0.002678,0.000431,0.003526
15896000,0.0324,0.013523,0.002678,0.000431,0.003056
15897000,0.0324,0.013523,0.002678,0.000431,0.003526
15898000,0.0324,0.013523,0.002678,0.000431,0.003173
15899000,0.0324,0.013523,0.002678,0.000431,0.003056
15900000,0.0324,0.013523,0.002678,0.000431,0.003526
15901000,0.0324,0.013523,0.002678,0.000431,0.003408
15902000,0.0324,0.013523,0.002678,0.000431,0.002938
15903000,0.0324,0.013523,0.002678,0.000431,0.003526
15904000,0.0324,0.013523,0.002678,0.000431,0.003291
15905000,0.0324,0.013523,0.002678,0.000431,0.003643
15906000,0.0324,0.013523,0.002678,0.000431,0.003173
15907000,0.0324,0.013523,0.002678,0.000431,0.003291
15908000,0.0324,0.013523,0.002678,0.000431,0.003761
15909000,0.0324,0.013523,0.002678,0.000431,0.003173
15910000,0.0324,0.013523,0.002678,0.000431,0.002938
15911000,0.0324,0.013523,0.002678,0.000431,0.005054
15912000,0.0324,0.013523,0.002678,0.000431,0.001645
15913000,0.0324,0.013523,0.002678,0.000431,0.001763
15914000,0.0324,0.013523,0.002678,0.000431,0.001645
15915000,0.0324,0.013523,0.002678,0.000431,0.001880
15916000,0.0324,0.013523,0.002678,0.000431,0.001528
15917000,0.0324,0.013523,0.002678,0.000431,0.001763
15918000,0.0324,0.013523,0.002678,0.000431,0.001763
15919000,0.0324,0.013523,0.002678,0.000431,0.001763
15920000,0.0324,0.013523,0.002678,0.000431,0.001763
15921000,0.0324,0.013523,0.002678,0.000431,0.001528
15922000,0.0324,0.013523,0.002678,0.000431,0.001763
15923000,0.0324,0.013523,0.002678,0.000431,0.001763
15924000,0.0324,0.013523,0.002678,0.000431,0.001645
15925000,0.0324,0.013523,0.002678,0.000431,0.001645
15926000,0.0324,0.013523,0.002678,0.000431,0.001880
15927000,0.0324,0.013523,0.002678,0.000431,0.001763
15928000,0.0324,0.013523,0.002678,0.000431,0.002821
15929000,0.0324,0.013523,0.002678,0.000431,0.000705
15930000,0.0324,0.013523,0.002678,0.000431,0.000940
15931000,0.0324,0.013523,0.002678,0.000431,0.000940
15932000,0.0324,0.013523,0.002678,0.000431,0.000705
15933000,0.0324,0.013523,0.002678,0.000431,0.000940
15934000,0.0324,0.013523,0.002678,0.000431,0.000705
15935000,0.0324,0.013523,0.002678,0.000431,0.000940
15936000,0.0324,0.013523,0.002678,0.000431,0.000823
15937000,0.0324,0.013523,0.002678,0.000431,0.000823
15938000,0.0324,0.013523,0.002678,0.000431,0.000940
15939000,0.0324,0.013523,0.002678,0.000431,0.000705
15940000,0.0324,0.013523,0.002678,0.000431,0.000940
15941000,0.0324,0.013523,0.002678,0.000431,0.000823
15942000,0.0324,0.013523,0.002678,0.000431,0.000823
15943000,0.0324,0.013523,0.002678,0.000431,0.000823
15944000,0.0324,0.013523,0.002678,0.000431,0.000823
15945000,0.0324,0.013523,0.002678,0.000431,0.000940
15946000,0.0324,0.013523,0.002678,0.000431,0.000705
15947000,0.0324,0.013523,0.002678,0.000431,0.000940
15948000,0.0324,0.013523,0.002678,0.000431,0.000705
15949000,0.0324,0.013523,0.002678,0.000431,0.000940
15950000,0.0324,0.013523,0.002678,0.000431,0.000940
15951000,0.0324,0.013523,0.002678,0.000431,0.000823
15952000,0.0324,0.013523,0.002678,0.000431,0.000823
15953000,0.0324,0.013523,0.002678,0.000431,0.000940
15954000,0.0324,0.013523,0.002678,0.000431,0.000705
15955000,0.0324,0.013523,0.002678,0.000431,0.000940
15956000,0.0324,0.013523,0.002678,0.000431,0.000823
15957000,0.0324,0.013523,0.002678,0.000431,0.000823
15958000,0.0324,0.013523,0.002678,0.000431,0.000823
15959000,0.0324,0.013523,0.002678,0.000431,0.000823
15960000,0.0324,0.013523,0.002678,0.000431,0.000940
15961000,0.0324,0.013523,0.002678,0.000431,0.000705
15962000,0.0324,0.013523,0.002678,0.000431,0.000940
15963000,0.0324,0.013523,0.002678,0.000431,0.000705
15964000,0.0324,0.013523,0.002678,0.000431,0.000823
15965000,0.0324,0.013523,0.002678,0.000431,0.000940
15966000,0.0324,0.013523,0.002678,0.000431,0.000823
15967000,0.0324,0.013523,0.002678,0.000431,0.000823
15968000,0.0324,0.013523,0.002678,0.000431,0.000823
15969000,0.0324,0.013523,0.002678,0.000431,0.000823
15970000,0.0324,0.013523,0.002678,0.000431,0.000823
15971000,0.0324,0.013523,0.002678,0.000431,0.000940
15972000,0.0324,0.013523,0.002678,0.000431,0.000940
15973000,0.0324,0.013523,0.002678,0.000431,0.000823
15974000,0.0324,0.013523,0.002678,0.000431,0.017864
15975000,0.0324,0.013523,0.002678,0.000431,0.507957
15976000,0.0324,0.013523,0.002678,0.000431,0.600451
15977000,0.0324,0.013523,0.002678,0.000431,0.132219
15978000,0.0324,0.013523,0.002678,0.000431,0.132102
15979000,0.0324,0.013523,0.002678,0.000431,0.447077
15980000,0.0324,0.013523,0.002678,0.000431,0.333075
15981000,0.0324,0.013523,0.002678,0.000431,0.242813
15982000,0.0324,0.013523,0.002678,0.000431,0.349411
15983000,0.0324,0.013523,0.002678,0.000431,0.170181
15984000,0.0324,0.013523,0.002678,0.000431,0.144677
15985000,0.0324,0.013523,0.002678,0.000431,0.117998
15986000,0.0324,0.013523,0.002678,0.000431,0.310627
15987000,0.0324,0.013523,0.002678,0.000431,0.323673
15988000,0.0324,0.013523,0.002678,0.000431,0.065111
15989000,0.0324,0.013523,0.002678,0.000431,0.046659
15990000,0.0324,0.013523,0.002678,0.000431,0.040900
15991000,0.0324,0.013523,0.002678,0.000431,0.042193
15992000,0.0324,0.013523,0.002678,0.000431,0.027502
15993000,0.0324,0.013523,0.002678,0.000431,0.021038
15994000,0.0324,0.013523,0.002678,0.000431,0.015749
15995000,0.0324,0.013523,0.002678,0.000431,0.010460
15996000,0.0324,0.013523,0.002678,0.000431,0.007757
15997000,0.0324,0.013523,0.002678,0.000431,0.007522
15998000,0.0324,0.013523,0.002678,0.000431,0.007992
15999000,0.0324,0.013523,0.002678,0.000431,0.007522
