Cycle,Area(mm^2),PeakDynamic(W),SubthresholdLeakage(W),GateLeakage(W),RunTimeDynamic(W)
87000000,0.0324,0.013523,0.002678,0.000431,0.000705
87001000,0.0324,0.013523,0.002678,0.000431,0.000940
87002000,0.0324,0.013523,0.002678,0.000431,0.000705
87003000,0.0324,0.013523,0.002678,0.000431,0.000940
87004000,0.0324,0.013523,0.002678,0.000431,0.000823
87005000,0.0324,0.013523,0.002678,0.000431,0.000823
87006000,0.0324,0.013523,0.002678,0.000431,0.000705
87007000,0.0324,0.013523,0.002678,0.000431,0.000940
87008000,0.0324,0.013523,0.002678,0.000431,0.000940
87009000,0.0324,0.013523,0.002678,0.000431,0.000705
87010000,0.0324,0.013523,0.002678,0.000431,0.000940
87011000,0.0324,0.013523,0.002678,0.000431,0.000705
87012000,0.0324,0.013523,0.002678,0.000431,0.000940
87013000,0.0324,0.013523,0.002678,0.000431,0.000823
87014000,0.0324,0.013523,0.002678,0.000431,0.000823
87015000,0.0324,0.013523,0.002678,0.000431,0.000940
87016000,0.0324,0.013523,0.002678,0.000431,0.000705
87017000,0.0324,0.013523,0.002678,0.000431,0.000940
87018000,0.0324,0.013523,0.002678,0.000431,0.000823
87019000,0.0324,0.013523,0.002678,0.000431,0.000823
87020000,0.0324,0.013523,0.002678,0.000431,0.000823
87021000,0.0324,0.013523,0.002678,0.000431,0.000823
87022000,0.0324,0.013523,0.002678,0.000431,0.000940
87023000,0.0324,0.013523,0.002678,0.000431,0.000705
87024000,0.0324,0.013523,0.002678,0.000431,0.000940
87025000,0.0324,0.013523,0.002678,0.000431,0.000823
87026000,0.0324,0.013523,0.002678,0.000431,0.000823
87027000,0.0324,0.013523,0.002678,0.000431,0.000823
87028000,0.0324,0.013523,0.002678,0.000431,0.000823
87029000,0.0324,0.013523,0.002678,0.000431,0.000940
87030000,0.0324,0.013523,0.002678,0.000431,0.000705
87031000,0.0324,0.013523,0.002678,0.000431,0.000823
87032000,0.0324,0.013523,0.002678,0.000431,0.000823
87033000,0.0324,0.013523,0.002678,0.000431,0.000940
87034000,0.0324,0.013523,0.002678,0.000431,0.000823
87035000,0.0324,0.013523,0.002678,0.000431,0.000823
87036000,0.0324,0.013523,0.002678,0.000431,0.000705
87037000,0.0324,0.013523,0.002678,0.000431,0.000940
87038000,0.0324,0.013523,0.002678,0.000431,0.000940
87039000,0.0324,0.013523,0.002678,0.000431,0.000705
87040000,0.0324,0.013523,0.002678,0.000431,0.000940
87041000,0.0324,0.013523,0.002678,0.000431,0.000705
87042000,0.0324,0.013523,0.002678,0.000431,0.000940
87043000,0.0324,0.013523,0.002678,0.000431,0.000823
87044000,0.0324,0.013523,0.002678,0.000431,0.000823
87045000,0.0324,0.013523,0.002678,0.000431,0.000940
87046000,0.0324,0.013523,0.002678,0.000431,0.000705
87047000,0.0324,0.013523,0.002678,0.000431,0.000940
87048000,0.0324,0.013523,0.002678,0.000431,0.000823
87049000,0.0324,0.013523,0.002678,0.000431,0.000823
87050000,0.0324,0.013523,0.002678,0.000431,0.000823
87051000,0.0324,0.013523,0.002678,0.000431,0.000823
87052000,0.0324,0.013523,0.002678,0.000431,0.000940
87053000,0.0324,0.013523,0.002678,0.000431,0.000705
87054000,0.0324,0.013523,0.002678,0.000431,0.000940
87055000,0.0324,0.013523,0.002678,0.000431,0.000823
87056000,0.0324,0.013523,0.002678,0.000431,0.000823
87057000,0.0324,0.013523,0.002678,0.000431,0.000823
87058000,0.0324,0.013523,0.002678,0.000431,0.000823
87059000,0.0324,0.013523,0.002678,0.000431,0.000940
87060000,0.0324,0.013523,0.002678,0.000431,0.000705
87061000,0.0324,0.013523,0.002678,0.000431,0.000940
87062000,0.0324,0.013523,0.002678,0.000431,0.000705
87063000,0.0324,0.013523,0.002678,0.000431,0.000940
87064000,0.0324,0.013523,0.002678,0.000431,0.000705
87065000,0.0324,0.013523,0.002678,0.000431,0.000940
87066000,0.0324,0.013523,0.002678,0.000431,0.000940
87067000,0.0324,0.013523,0.002678,0.000431,0.000705
87068000,0.0324,0.013523,0.002678,0.000431,0.000940
87069000,0.0324,0.013523,0.002678,0.000431,0.000705
87070000,0.0324,0.013523,0.002678,0.000431,0.000940
87071000,0.0324,0.013523,0.002678,0.000431,0.000823
87072000,0.0324,0.013523,0.002678,0.000431,0.000823
87073000,0.0324,0.013523,0.002678,0.000431,0.000823
87074000,0.0324,0.013523,0.002678,0.000431,0.000823
87075000,0.0324,0.013523,0.002678,0.000431,0.000940
87076000,0.0324,0.013523,0.002678,0.000431,0.000705
87077000,0.0324,0.013523,0.002678,0.000431,0.000940
87078000,0.0324,0.013523,0.002678,0.000431,0.000823
87079000,0.0324,0.013523,0.002678,0.000431,0.000823
87080000,0.0324,0.013523,0.002678,0.000431,0.000823
87081000,0.0324,0.013523,0.002678,0.000431,0.000823
87082000,0.0324,0.013523,0.002678,0.000431,0.000823
87083000,0.0324,0.013523,0.002678,0.000431,0.000823
87084000,0.0324,0.013523,0.002678,0.000431,0.000823
87085000,0.0324,0.013523,0.002678,0.000431,0.000823
87086000,0.0324,0.013523,0.002678,0.000431,0.000940
87087000,0.0324,0.013523,0.002678,0.000431,0.000823
87088000,0.0324,0.013523,0.002678,0.000431,0.000823
87089000,0.0324,0.013523,0.002678,0.000431,0.000705
87090000,0.0324,0.013523,0.002678,0.000431,0.000940
87091000,0.0324,0.013523,0.002678,0.000431,0.000940
87092000,0.0324,0.013523,0.002678,0.000431,0.000705
87093000,0.0324,0.013523,0.002678,0.000431,0.000940
87094000,0.0324,0.013523,0.002678,0.000431,0.000705
87095000,0.0324,0.013523,0.002678,0.000431,0.000940
87096000,0.0324,0.013523,0.002678,0.000431,0.000823
87097000,0.0324,0.013523,0.002678,0.000431,0.000823
87098000,0.0324,0.013523,0.002678,0.000431,0.000940
87099000,0.0324,0.013523,0.002678,0.000431,0.000705
87100000,0.0324,0.013523,0.002678,0.000431,0.000940
87101000,0.0324,0.013523,0.002678,0.000431,0.000823
87102000,0.0324,0.013523,0.002678,0.000431,0.000823
87103000,0.0324,0.013523,0.002678,0.000431,0.000823
87104000,0.0324,0.013523,0.002678,0.000431,0.000823
87105000,0.0324,0.013523,0.002678,0.000431,0.000823
87106000,0.0324,0.013523,0.002678,0.000431,0.000823
87107000,0.0324,0.013523,0.002678,0.000431,0.000940
87108000,0.0324,0.013523,0.002678,0.000431,0.000823
87109000,0.0324,0.013523,0.002678,0.000431,0.000823
87110000,0.0324,0.013523,0.002678,0.000431,0.000823
87111000,0.0324,0.013523,0.002678,0.000431,0.000823
87112000,0.0324,0.013523,0.002678,0.000431,0.000823
87113000,0.0324,0.013523,0.002678,0.000431,0.000823
87114000,0.0324,0.013523,0.002678,0.000431,0.000940
87115000,0.0324,0.013523,0.002678,0.000431,0.000705
87116000,0.0324,0.013523,0.002678,0.000431,0.000940
87117000,0.0324,0.013523,0.002678,0.000431,0.000705
87118000,0.0324,0.013523,0.002678,0.000431,0.000940
87119000,0.0324,0.013523,0.002678,0.000431,0.000823
87120000,0.0324,0.013523,0.002678,0.000431,0.000823
87121000,0.0324,0.013523,0.002678,0.000431,0.000940
87122000,0.0324,0.013523,0.002678,0.000431,0.000705
87123000,0.0324,0.013523,0.002678,0.000431,0.000940
87124000,0.0324,0.013523,0.002678,0.000431,0.000823
87125000,0.0324,0.013523,0.002678,0.000431,0.000823
87126000,0.0324,0.013523,0.002678,0.000431,0.000823
87127000,0.0324,0.013523,0.002678,0.000431,0.000823
87128000,0.0324,0.013523,0.002678,0.000431,0.000940
87129000,0.0324,0.013523,0.002678,0.000431,0.000705
87130000,0.0324,0.013523,0.002678,0.000431,0.000940
87131000,0.0324,0.013523,0.002678,0.000431,0.000823
87132000,0.0324,0.013523,0.002678,0.000431,0.000705
87133000,0.0324,0.013523,0.002678,0.000431,0.000940
87134000,0.0324,0.013523,0.002678,0.000431,0.000823
87135000,0.0324,0.013523,0.002678,0.000431,0.000823
87136000,0.0324,0.013523,0.002678,0.000431,0.000823
87137000,0.0324,0.013523,0.002678,0.000431,0.000823
87138000,0.0324,0.013523,0.002678,0.000431,0.000823
87139000,0.0324,0.013523,0.002678,0.000431,0.000940
87140000,0.0324,0.013523,0.002678,0.000431,0.000823
87141000,0.0324,0.013523,0.002678,0.000431,0.000823
87142000,0.0324,0.013523,0.002678,0.000431,0.000705
87143000,0.0324,0.013523,0.002678,0.000431,0.000940
87144000,0.0324,0.013523,0.002678,0.000431,0.000940
87145000,0.0324,0.013523,0.002678,0.000431,0.000705
87146000,0.0324,0.013523,0.002678,0.000431,0.000940
87147000,0.0324,0.013523,0.002678,0.000431,0.000705
87148000,0.0324,0.013523,0.002678,0.000431,0.000940
87149000,0.0324,0.013523,0.002678,0.000431,0.000823
87150000,0.0324,0.013523,0.002678,0.000431,0.000823
87151000,0.0324,0.013523,0.002678,0.000431,0.000940
87152000,0.0324,0.013523,0.002678,0.000431,0.000705
87153000,0.0324,0.013523,0.002678,0.000431,0.000940
87154000,0.0324,0.013523,0.002678,0.000431,0.000705
87155000,0.0324,0.013523,0.002678,0.000431,0.000940
87156000,0.0324,0.013523,0.002678,0.000431,0.000823
87157000,0.0324,0.013523,0.002678,0.000431,0.000823
87158000,0.0324,0.013523,0.002678,0.000431,0.000823
87159000,0.0324,0.013523,0.002678,0.000431,0.000823
87160000,0.0324,0.013523,0.002678,0.000431,0.000940
87161000,0.0324,0.013523,0.002678,0.000431,0.000705
87162000,0.0324,0.013523,0.002678,0.000431,0.000940
87163000,0.0324,0.013523,0.002678,0.000431,0.000823
87164000,0.0324,0.013523,0.002678,0.000431,0.000823
87165000,0.0324,0.013523,0.002678,0.000431,0.000705
87166000,0.0324,0.013523,0.002678,0.000431,0.000940
87167000,0.0324,0.013523,0.002678,0.000431,0.000940
87168000,0.0324,0.013523,0.002678,0.000431,0.000705
87169000,0.0324,0.013523,0.002678,0.000431,0.000940
87170000,0.0324,0.013523,0.002678,0.000431,0.000705
87171000,0.0324,0.013523,0.002678,0.000431,0.000940
87172000,0.0324,0.013523,0.002678,0.000431,0.000823
87173000,0.0324,0.013523,0.002678,0.000431,0.000823
87174000,0.0324,0.013523,0.002678,0.000431,0.000940
87175000,0.0324,0.013523,0.002678,0.000431,0.000705
87176000,0.0324,0.013523,0.002678,0.000431,0.000940
87177000,0.0324,0.013523,0.002678,0.000431,0.000823
87178000,0.0324,0.013523,0.002678,0.000431,0.000823
87179000,0.0324,0.013523,0.002678,0.000431,0.000823
87180000,0.0324,0.013523,0.002678,0.000431,0.000823
87181000,0.0324,0.013523,0.002678,0.000431,0.000823
87182000,0.0324,0.013523,0.002678,0.000431,0.000823
87183000,0.0324,0.013523,0.002678,0.000431,0.000940
87184000,0.0324,0.013523,0.002678,0.000431,0.000705
87185000,0.0324,0.013523,0.002678,0.000431,0.195684
87186000,0.0324,0.013523,0.002678,0.000431,0.549562
87187000,0.0324,0.013523,0.002678,0.000431,0.418988
87188000,0.0324,0.013523,0.002678,0.000431,0.130926
87189000,0.0324,0.013523,0.002678,0.000431,0.132807
87190000,0.0324,0.013523,0.002678,0.000431,0.569777
87191000,0.0324,0.013523,0.002678,0.000431,0.267024
87192000,0.0324,0.013523,0.002678,0.000431,0.248102
87193000,0.0324,0.013523,0.002678,0.000431,0.290765
87194000,0.0324,0.013523,0.002678,0.000431,0.137390
87195000,0.0324,0.013523,0.002678,0.000431,0.147968
87196000,0.0324,0.013523,0.002678,0.000431,0.112827
87197000,0.0324,0.013523,0.002678,0.000431,0.304163
87198000,0.0324,0.013523,0.002678,0.000431,0.306043
87199000,0.0324,0.013523,0.002678,0.000431,0.085678
87200000,0.0324,0.013523,0.002678,0.000431,0.066403
87201000,0.0324,0.013523,0.002678,0.000431,0.052535
87202000,0.0324,0.013523,0.002678,0.000431,0.057119
87203000,0.0324,0.013523,0.002678,0.000431,0.050890
87204000,0.0324,0.013523,0.002678,0.000431,0.040312
87205000,0.0324,0.013523,0.002678,0.000431,0.037256
87206000,0.0324,0.013523,0.002678,0.000431,0.034318
87207000,0.0324,0.013523,0.002678,0.000431,0.033613
87208000,0.0324,0.013523,0.002678,0.000431,0.035141
87209000,0.0324,0.013523,0.002678,0.000431,0.026209
87210000,0.0324,0.013523,0.002678,0.000431,0.028089
87211000,0.0324,0.013523,0.002678,0.000431,0.026679
87212000,0.0324,0.013523,0.002678,0.000431,0.027502
87213000,0.0324,0.013523,0.002678,0.000431,0.024446
87214000,0.0324,0.013523,0.002678,0.000431,0.023741
87215000,0.0324,0.013523,0.002678,0.000431,0.025269
87216000,0.0324,0.013523,0.002678,0.000431,0.022918
87217000,0.0324,0.013523,0.002678,0.000431,0.019980
87218000,0.0324,0.013523,0.002678,0.000431,0.018805
87219000,0.0324,0.013523,0.002678,0.000431,0.019040
87220000,0.0324,0.013523,0.002678,0.000431,0.015514
87221000,0.0324,0.013523,0.002678,0.000431,0.016924
87222000,0.0324,0.013523,0.002678,0.000431,0.015866
87223000,0.0324,0.013523,0.002678,0.000431,0.013633
87224000,0.0324,0.013523,0.002678,0.000431,0.013163
87225000,0.0324,0.013523,0.002678,0.000431,0.012693
87226000,0.0324,0.013523,0.002678,0.000431,0.012928
87227000,0.0324,0.013523,0.002678,0.000431,0.012576
87228000,0.0324,0.013523,0.002678,0.000431,0.012223
87229000,0.0324,0.013523,0.002678,0.000431,0.010930
87230000,0.0324,0.013523,0.002678,0.000431,0.012576
87231000,0.0324,0.013523,0.002678,0.000431,0.011400
87232000,0.0324,0.013523,0.002678,0.000431,0.012458
87233000,0.0324,0.013523,0.002678,0.000431,0.011635
87234000,0.0324,0.013523,0.002678,0.000431,0.013163
87235000,0.0324,0.013523,0.002678,0.000431,0.011165
87236000,0.0324,0.013523,0.002678,0.000431,0.010695
87237000,0.0324,0.013523,0.002678,0.000431,0.011400
87238000,0.0324,0.013523,0.002678,0.000431,0.011048
87239000,0.0324,0.013523,0.002678,0.000431,0.010813
87240000,0.0324,0.013523,0.002678,0.000431,0.010930
87241000,0.0324,0.013523,0.002678,0.000431,0.012811
87242000,0.0324,0.013523,0.002678,0.000431,0.009990
87243000,0.0324,0.013523,0.002678,0.000431,0.010107
87244000,0.0324,0.013523,0.002678,0.000431,0.010225
87245000,0.0324,0.013523,0.002678,0.000431,0.010342
87246000,0.0324,0.013523,0.002678,0.000431,0.010225
87247000,0.0324,0.013523,0.002678,0.000431,0.009872
87248000,0.0324,0.013523,0.002678,0.000431,0.010578
87249000,0.0324,0.013523,0.002678,0.000431,0.009872
87250000,0.0324,0.013523,0.002678,0.000431,0.010225
87251000,0.0324,0.013523,0.002678,0.000431,0.010107
87252000,0.0324,0.013523,0.002678,0.000431,0.010342
87253000,0.0324,0.013523,0.002678,0.000431,0.010578
87254000,0.0324,0.013523,0.002678,0.000431,0.009167
87255000,0.0324,0.013523,0.002678,0.000431,0.010695
87256000,0.0324,0.013523,0.002678,0.000431,0.009990
87257000,0.0324,0.013523,0.002678,0.000431,0.009872
87258000,0.0324,0.013523,0.002678,0.000431,0.010695
87259000,0.0324,0.013523,0.002678,0.000431,0.011165
87260000,0.0324,0.013523,0.002678,0.000431,0.009755
87261000,0.0324,0.013523,0.002678,0.000431,0.010695
87262000,0.0324,0.013523,0.002678,0.000431,0.008109
87263000,0.0324,0.013523,0.002678,0.000431,0.008697
87264000,0.0324,0.013523,0.002678,0.000431,0.008815
87265000,0.0324,0.013523,0.002678,0.000431,0.008109
87266000,0.0324,0.013523,0.002678,0.000431,0.008462
87267000,0.0324,0.013523,0.002678,0.000431,0.008697
87268000,0.0324,0.013523,0.002678,0.000431,0.008580
87269000,0.0324,0.013523,0.002678,0.000431,0.009872
87270000,0.0324,0.013523,0.002678,0.000431,0.007639
87271000,0.0324,0.013523,0.002678,0.000431,0.007874
87272000,0.0324,0.013523,0.002678,0.000431,0.007169
87273000,0.0324,0.013523,0.002678,0.000431,0.007874
87274000,0.0324,0.013523,0.002678,0.000431,0.007404
87275000,0.0324,0.013523,0.002678,0.000431,0.007874
87276000,0.0324,0.013523,0.002678,0.000431,0.007522
87277000,0.0324,0.013523,0.002678,0.000431,0.007639
87278000,0.0324,0.013523,0.002678,0.000431,0.007639
87279000,0.0324,0.013523,0.002678,0.000431,0.007287
87280000,0.0324,0.013523,0.002678,0.000431,0.007639
87281000,0.0324,0.013523,0.002678,0.000431,0.007522
87282000,0.0324,0.013523,0.002678,0.000431,0.008697
87283000,0.0324,0.013523,0.002678,0.000431,0.007052
87284000,0.0324,0.013523,0.002678,0.000431,0.006582
87285000,0.0324,0.013523,0.002678,0.000431,0.006699
87286000,0.0324,0.013523,0.002678,0.000431,0.006699
87287000,0.0324,0.013523,0.002678,0.000431,0.006817
87288000,0.0324,0.013523,0.002678,0.000431,0.006582
87289000,0.0324,0.013523,0.002678,0.000431,0.006582
87290000,0.0324,0.013523,0.002678,0.000431,0.007052
87291000,0.0324,0.013523,0.002678,0.000431,0.006817
87292000,0.0324,0.013523,0.002678,0.000431,0.006347
87293000,0.0324,0.013523,0.002678,0.000431,0.007169
87294000,0.0324,0.013523,0.002678,0.000431,0.007169
87295000,0.0324,0.013523,0.002678,0.000431,0.006582
87296000,0.0324,0.013523,0.002678,0.000431,0.006699
87297000,0.0324,0.013523,0.002678,0.000431,0.006817
87298000,0.0324,0.013523,0.002678,0.000431,0.007052
87299000,0.0324,0.013523,0.002678,0.000431,0.006464
87300000,0.0324,0.013523,0.002678,0.000431,0.007052
87301000,0.0324,0.013523,0.002678,0.000431,0.006934
87302000,0.0324,0.013523,0.002678,0.000431,0.006817
87303000,0.0324,0.013523,0.002678,0.000431,0.006699
87304000,0.0324,0.013523,0.002678,0.000431,0.006582
87305000,0.0324,0.013523,0.002678,0.000431,0.007052
87306000,0.0324,0.013523,0.002678,0.000431,0.006582
87307000,0.0324,0.013523,0.002678,0.000431,0.006699
87308000,0.0324,0.013523,0.002678,0.000431,0.007169
87309000,0.0324,0.013523,0.002678,0.000431,0.007757
87310000,0.0324,0.013523,0.002678,0.000431,0.005994
87311000,0.0324,0.013523,0.002678,0.000431,0.005876
87312000,0.0324,0.013523,0.002678,0.000431,0.005876
87313000,0.0324,0.013523,0.002678,0.000431,0.006229
87314000,0.0324,0.013523,0.002678,0.000431,0.005876
87315000,0.0324,0.013523,0.002678,0.000431,0.005171
87316000,0.0324,0.013523,0.002678,0.000431,0.005171
87317000,0.0324,0.013523,0.002678,0.000431,0.005524
87318000,0.0324,0.013523,0.002678,0.000431,0.005054
87319000,0.0324,0.013523,0.002678,0.000431,0.005054
87320000,0.0324,0.013523,0.002678,0.000431,0.007052
87321000,0.0324,0.013523,0.002678,0.000431,0.004584
87322000,0.0324,0.013523,0.002678,0.000431,0.004584
87323000,0.0324,0.013523,0.002678,0.000431,0.003878
87324000,0.0324,0.013523,0.002678,0.000431,0.004584
87325000,0.0324,0.013523,0.002678,0.000431,0.004231
87326000,0.0324,0.013523,0.002678,0.000431,0.004349
87327000,0.0324,0.013523,0.002678,0.000431,0.004349
87328000,0.0324,0.013523,0.002678,0.000431,0.004231
87329000,0.0324,0.013523,0.002678,0.000431,0.004466
87330000,0.0324,0.013523,0.002678,0.000431,0.004113
87331000,0.0324,0.013523,0.002678,0.000431,0.004349
87332000,0.0324,0.013523,0.002678,0.000431,0.004466
87333000,0.0324,0.013523,0.002678,0.000431,0.004349
87334000,0.0324,0.013523,0.002678,0.000431,0.004231
87335000,0.0324,0.013523,0.002678,0.000431,0.004231
87336000,0.0324,0.013523,0.002678,0.000431,0.004466
87337000,0.0324,0.013523,0.002678,0.000431,0.004349
87338000,0.0324,0.013523,0.002678,0.000431,0.003996
87339000,0.0324,0.013523,0.002678,0.000431,0.004466
87340000,0.0324,0.013523,0.002678,0.000431,0.004584
87341000,0.0324,0.013523,0.002678,0.000431,0.004349
87342000,0.0324,0.013523,0.002678,0.000431,0.003996
87343000,0.0324,0.013523,0.002678,0.000431,0.004349
87344000,0.0324,0.013523,0.002678,0.000431,0.004466
87345000,0.0324,0.013523,0.002678,0.000431,0.005289
87346000,0.0324,0.013523,0.002678,0.000431,0.005524
87347000,0.0324,0.013523,0.002678,0.000431,0.002703
87348000,0.0324,0.013523,0.002678,0.000431,0.003878
87349000,0.0324,0.013523,0.002678,0.000431,0.001645
87350000,0.0324,0.013523,0.002678,0.000431,0.001763
87351000,0.0324,0.013523,0.002678,0.000431,0.001645
87352000,0.0324,0.013523,0.002678,0.000431,0.001645
87353000,0.0324,0.013523,0.002678,0.000431,0.001763
87354000,0.0324,0.013523,0.002678,0.000431,0.001763
87355000,0.0324,0.013523,0.002678,0.000431,0.001528
87356000,0.0324,0.013523,0.002678,0.000431,0.001880
87357000,0.0324,0.013523,0.002678,0.000431,0.001528
87358000,0.0324,0.013523,0.002678,0.000431,0.001763
87359000,0.0324,0.013523,0.002678,0.000431,0.001645
87360000,0.0324,0.013523,0.002678,0.000431,0.001645
87361000,0.0324,0.013523,0.002678,0.000431,0.001880
87362000,0.0324,0.013523,0.002678,0.000431,0.001528
87363000,0.0324,0.013523,0.002678,0.000431,0.001645
87364000,0.0324,0.013523,0.002678,0.000431,0.001763
87365000,0.0324,0.013523,0.002678,0.000431,0.001645
87366000,0.0324,0.013523,0.002678,0.000431,0.001763
87367000,0.0324,0.013523,0.002678,0.000431,0.001645
87368000,0.0324,0.013523,0.002678,0.000431,0.001528
87369000,0.0324,0.013523,0.002678,0.000431,0.001880
87370000,0.0324,0.013523,0.002678,0.000431,0.001763
87371000,0.0324,0.013523,0.002678,0.000431,0.001528
87372000,0.0324,0.013523,0.002678,0.000431,0.001880
87373000,0.0324,0.013523,0.002678,0.000431,0.001410
87374000,0.0324,0.013523,0.002678,0.000431,0.001880
87375000,0.0324,0.013523,0.002678,0.000431,0.001645
87376000,0.0324,0.013523,0.002678,0.000431,0.001645
87377000,0.0324,0.013523,0.002678,0.000431,0.001880
87378000,0.0324,0.013523,0.002678,0.000431,0.001528
87379000,0.0324,0.013523,0.002678,0.000431,0.001763
87380000,0.0324,0.013523,0.002678,0.000431,0.001763
87381000,0.0324,0.013523,0.002678,0.000431,0.001528
87382000,0.0324,0.013523,0.002678,0.000431,0.001763
87383000,0.0324,0.013523,0.002678,0.000431,0.001645
87384000,0.0324,0.013523,0.002678,0.000431,0.001645
87385000,0.0324,0.013523,0.002678,0.000431,0.001763
87386000,0.0324,0.013523,0.002678,0.000431,0.001763
87387000,0.0324,0.013523,0.002678,0.000431,0.001528
87388000,0.0324,0.013523,0.002678,0.000431,0.001880
87389000,0.0324,0.013523,0.002678,0.000431,0.001528
87390000,0.0324,0.013523,0.002678,0.000431,0.001763
87391000,0.0324,0.013523,0.002678,0.000431,0.001645
87392000,0.0324,0.013523,0.002678,0.000431,0.001645
87393000,0.0324,0.013523,0.002678,0.000431,0.001880
87394000,0.0324,0.013523,0.002678,0.000431,0.001528
87395000,0.0324,0.013523,0.002678,0.000431,0.001763
87396000,0.0324,0.013523,0.002678,0.000431,0.001645
87397000,0.0324,0.013523,0.002678,0.000431,0.001645
87398000,0.0324,0.013523,0.002678,0.000431,0.001763
87399000,0.0324,0.013523,0.002678,0.000431,0.001645
87400000,0.0324,0.013523,0.002678,0.000431,0.001763
87401000,0.0324,0.013523,0.002678,0.000431,0.001645
87402000,0.0324,0.013523,0.002678,0.000431,0.001763
87403000,0.0324,0.013523,0.002678,0.000431,0.001645
87404000,0.0324,0.013523,0.002678,0.000431,0.001645
87405000,0.0324,0.013523,0.002678,0.000431,0.001645
87406000,0.0324,0.013523,0.002678,0.000431,0.001763
87407000,0.0324,0.013523,0.002678,0.000431,0.001645
87408000,0.0324,0.013523,0.002678,0.000431,0.001645
87409000,0.0324,0.013523,0.002678,0.000431,0.001880
87410000,0.0324,0.013523,0.002678,0.000431,0.001528
87411000,0.0324,0.013523,0.002678,0.000431,0.001645
87412000,0.0324,0.013523,0.002678,0.000431,0.001763
87413000,0.0324,0.013523,0.002678,0.000431,0.001645
87414000,0.0324,0.013523,0.002678,0.000431,0.001763
87415000,0.0324,0.013523,0.002678,0.000431,0.001645
87416000,0.0324,0.013523,0.002678,0.000431,0.001528
87417000,0.0324,0.013523,0.002678,0.000431,0.001880
87418000,0.0324,0.013523,0.002678,0.000431,0.001645
87419000,0.0324,0.013523,0.002678,0.000431,0.001645
87420000,0.0324,0.013523,0.002678,0.000431,0.001763
87421000,0.0324,0.013523,0.002678,0.000431,0.001528
87422000,0.0324,0.013523,0.002678,0.000431,0.001880
87423000,0.0324,0.013523,0.002678,0.000431,0.001645
87424000,0.0324,0.013523,0.002678,0.000431,0.002821
87425000,0.0324,0.013523,0.002678,0.000431,0.000823
87426000,0.0324,0.013523,0.002678,0.000431,0.000940
87427000,0.0324,0.013523,0.002678,0.000431,0.000823
87428000,0.0324,0.013523,0.002678,0.000431,0.000823
87429000,0.0324,0.013523,0.002678,0.000431,0.000940
87430000,0.0324,0.013523,0.002678,0.000431,0.000823
87431000,0.0324,0.013523,0.002678,0.000431,0.000940
87432000,0.0324,0.013523,0.002678,0.000431,0.000823
87433000,0.0324,0.013523,0.002678,0.000431,0.000940
87434000,0.0324,0.013523,0.002678,0.000431,0.000940
87435000,0.0324,0.013523,0.002678,0.000431,0.000705
87436000,0.0324,0.013523,0.002678,0.000431,0.000940
87437000,0.0324,0.013523,0.002678,0.000431,0.000940
87438000,0.0324,0.013523,0.002678,0.000431,0.000940
87439000,0.0324,0.013523,0.002678,0.000431,0.000705
87440000,0.0324,0.013523,0.002678,0.000431,0.000940
87441000,0.0324,0.013523,0.002678,0.000431,0.000940
87442000,0.0324,0.013523,0.002678,0.000431,0.000823
87443000,0.0324,0.013523,0.002678,0.000431,0.000823
87444000,0.0324,0.013523,0.002678,0.000431,0.000940
87445000,0.0324,0.013523,0.002678,0.000431,0.000823
87446000,0.0324,0.013523,0.002678,0.000431,0.000940
87447000,0.0324,0.013523,0.002678,0.000431,0.000823
87448000,0.0324,0.013523,0.002678,0.000431,0.000940
87449000,0.0324,0.013523,0.002678,0.000431,0.000823
87450000,0.0324,0.013523,0.002678,0.000431,0.000823
87451000,0.0324,0.013523,0.002678,0.000431,0.000940
87452000,0.0324,0.013523,0.002678,0.000431,0.000940
87453000,0.0324,0.013523,0.002678,0.000431,0.000823
87454000,0.0324,0.013523,0.002678,0.000431,0.000823
87455000,0.0324,0.013523,0.002678,0.000431,0.000940
87456000,0.0324,0.013523,0.002678,0.000431,0.000940
87457000,0.0324,0.013523,0.002678,0.000431,0.000823
87458000,0.0324,0.013523,0.002678,0.000431,0.000823
87459000,0.0324,0.013523,0.002678,0.000431,0.000940
87460000,0.0324,0.013523,0.002678,0.000431,0.000940
87461000,0.0324,0.013523,0.002678,0.000431,0.000823
87462000,0.0324,0.013523,0.002678,0.000431,0.013281
87463000,0.0324,0.013523,0.002678,0.000431,0.515714
87464000,0.0324,0.013523,0.002678,0.000431,0.586466
87465000,0.0324,0.013523,0.002678,0.000431,0.139036
87466000,0.0324,0.013523,0.002678,0.000431,0.131632
87467000,0.0324,0.013523,0.002678,0.000431,0.325671
87468000,0.0324,0.013523,0.002678,0.000431,0.456127
87469000,0.0324,0.013523,0.002678,0.000431,0.270550
87470000,0.0324,0.013523,0.002678,0.000431,0.292058
87471000,0.0324,0.013523,0.002678,0.000431,0.175117
87472000,0.0324,0.013523,0.002678,0.000431,0.138096
87473000,0.0324,0.013523,0.002678,0.000431,0.150906
87474000,0.0324,0.013523,0.002678,0.000431,0.216839
87475000,0.0324,0.013523,0.002678,0.000431,0.386668
87476000,0.0324,0.013523,0.002678,0.000431,0.102132
87477000,0.0324,0.013523,0.002678,0.000431,0.064758
87478000,0.0324,0.013523,0.002678,0.000431,0.066286
87479000,0.0324,0.013523,0.002678,0.000431,0.063230
87480000,0.0324,0.013523,0.002678,0.000431,0.055943
87481000,0.0324,0.013523,0.002678,0.000431,0.051947
87482000,0.0324,0.013523,0.002678,0.000431,0.039137
87483000,0.0324,0.013523,0.002678,0.000431,0.031850
87484000,0.0324,0.013523,0.002678,0.000431,0.033613
87485000,0.0324,0.013523,0.002678,0.000431,0.028207
87486000,0.0324,0.013523,0.002678,0.000431,0.029265
87487000,0.0324,0.013523,0.002678,0.000431,0.023741
87488000,0.0324,0.013523,0.002678,0.000431,0.030087
87489000,0.0324,0.013523,0.002678,0.000431,0.023153
87490000,0.0324,0.013523,0.002678,0.000431,0.021155
87491000,0.0324,0.013523,0.002678,0.000431,0.019392
87492000,0.0324,0.013523,0.002678,0.000431,0.019627
87493000,0.0324,0.013523,0.002678,0.000431,0.018217
87494000,0.0324,0.013523,0.002678,0.000431,0.017159
87495000,0.0324,0.013523,0.002678,0.000431,0.017629
87496000,0.0324,0.013523,0.002678,0.000431,0.016924
87497000,0.0324,0.013523,0.002678,0.000431,0.018334
87498000,0.0324,0.013523,0.002678,0.000431,0.015749
87499000,0.0324,0.013523,0.002678,0.000431,0.016689
87500000,0.0324,0.013523,0.002678,0.000431,0.017042
87501000,0.0324,0.013523,0.002678,0.000431,0.015514
87502000,0.0324,0.013523,0.002678,0.000431,0.016219
87503000,0.0324,0.013523,0.002678,0.000431,0.016571
87504000,0.0324,0.013523,0.002678,0.000431,0.017747
87505000,0.0324,0.013523,0.002678,0.000431,0.014103
87506000,0.0324,0.013523,0.002678,0.000431,0.015866
87507000,0.0324,0.013523,0.002678,0.000431,0.013868
87508000,0.0324,0.013523,0.002678,0.000431,0.013046
87509000,0.0324,0.013523,0.002678,0.000431,0.012928
87510000,0.0324,0.013523,0.002678,0.000431,0.012693
87511000,0.0324,0.013523,0.002678,0.000431,0.013633
87512000,0.0324,0.013523,0.002678,0.000431,0.012340
87513000,0.0324,0.013523,0.002678,0.000431,0.010813
87514000,0.0324,0.013523,0.002678,0.000431,0.011635
87515000,0.0324,0.013523,0.002678,0.000431,0.011048
87516000,0.0324,0.013523,0.002678,0.000431,0.011283
87517000,0.0324,0.013523,0.002678,0.000431,0.011048
87518000,0.0324,0.013523,0.002678,0.000431,0.011400
87519000,0.0324,0.013523,0.002678,0.000431,0.011635
87520000,0.0324,0.013523,0.002678,0.000431,0.010695
87521000,0.0324,0.013523,0.002678,0.000431,0.011400
87522000,0.0324,0.013523,0.002678,0.000431,0.011165
87523000,0.0324,0.013523,0.002678,0.000431,0.011753
87524000,0.0324,0.013523,0.002678,0.000431,0.010813
87525000,0.0324,0.013523,0.002678,0.000431,0.011165
87526000,0.0324,0.013523,0.002678,0.000431,0.011635
87527000,0.0324,0.013523,0.002678,0.000431,0.011283
87528000,0.0324,0.013523,0.002678,0.000431,0.010930
87529000,0.0324,0.013523,0.002678,0.000431,0.011165
87530000,0.0324,0.013523,0.002678,0.000431,0.012576
87531000,0.0324,0.013523,0.002678,0.000431,0.010695
87532000,0.0324,0.013523,0.002678,0.000431,0.009990
87533000,0.0324,0.013523,0.002678,0.000431,0.010578
87534000,0.0324,0.013523,0.002678,0.000431,0.010578
87535000,0.0324,0.013523,0.002678,0.000431,0.009520
87536000,0.0324,0.013523,0.002678,0.000431,0.010813
87537000,0.0324,0.013523,0.002678,0.000431,0.010225
87538000,0.0324,0.013523,0.002678,0.000431,0.011635
87539000,0.0324,0.013523,0.002678,0.000431,0.008697
87540000,0.0324,0.013523,0.002678,0.000431,0.008227
87541000,0.0324,0.013523,0.002678,0.000431,0.008932
87542000,0.0324,0.013523,0.002678,0.000431,0.010107
87543000,0.0324,0.013523,0.002678,0.000431,0.008109
87544000,0.0324,0.013523,0.002678,0.000431,0.006699
87545000,0.0324,0.013523,0.002678,0.000431,0.007169
87546000,0.0324,0.013523,0.002678,0.000431,0.006699
87547000,0.0324,0.013523,0.002678,0.000431,0.008580
87548000,0.0324,0.013523,0.002678,0.000431,0.007169
87549000,0.0324,0.013523,0.002678,0.000431,0.004936
87550000,0.0324,0.013523,0.002678,0.000431,0.005171
87551000,0.0324,0.013523,0.002678,0.000431,0.005289
87552000,0.0324,0.013523,0.002678,0.000431,0.006347
87553000,0.0324,0.013523,0.002678,0.000431,0.004936
87554000,0.0324,0.013523,0.002678,0.000431,0.003291
87555000,0.0324,0.013523,0.002678,0.000431,0.003526
87556000,0.0324,0.013523,0.002678,0.000431,0.003291
87557000,0.0324,0.013523,0.002678,0.000431,0.003408
87558000,0.0324,0.013523,0.002678,0.000431,0.003408
87559000,0.0324,0.013523,0.002678,0.000431,0.003526
87560000,0.0324,0.013523,0.002678,0.000431,0.003291
87561000,0.0324,0.013523,0.002678,0.000431,0.005171
87562000,0.0324,0.013523,0.002678,0.000431,0.002586
87563000,0.0324,0.013523,0.002678,0.000431,0.002586
87564000,0.0324,0.013523,0.002678,0.000431,0.002351
87565000,0.0324,0.013523,0.002678,0.000431,0.002703
87566000,0.0324,0.013523,0.002678,0.000431,0.002233
87567000,0.0324,0.013523,0.002678,0.000431,0.002703
87568000,0.0324,0.013523,0.002678,0.000431,0.002586
87569000,0.0324,0.013523,0.002678,0.000431,0.002233
87570000,0.0324,0.013523,0.002678,0.000431,0.002821
87571000,0.0324,0.013523,0.002678,0.000431,0.002351
87572000,0.0324,0.013523,0.002678,0.000431,0.002586
87573000,0.0324,0.013523,0.002678,0.000431,0.002586
87574000,0.0324,0.013523,0.002678,0.000431,0.002351
87575000,0.0324,0.013523,0.002678,0.000431,0.002703
87576000,0.0324,0.013523,0.002678,0.000431,0.002351
87577000,0.0324,0.013523,0.002678,0.000431,0.002586
87578000,0.0324,0.013523,0.002678,0.000431,0.002586
87579000,0.0324,0.013523,0.002678,0.000431,0.002468
87580000,0.0324,0.013523,0.002678,0.000431,0.002468
87581000,0.0324,0.013523,0.002678,0.000431,0.002468
87582000,0.0324,0.013523,0.002678,0.000431,0.002468
87583000,0.0324,0.013523,0.002678,0.000431,0.002586
87584000,0.0324,0.013523,0.002678,0.000431,0.002586
87585000,0.0324,0.013523,0.002678,0.000431,0.002468
87586000,0.0324,0.013523,0.002678,0.000431,0.002233
87587000,0.0324,0.013523,0.002678,0.000431,0.002821
87588000,0.0324,0.013523,0.002678,0.000431,0.002586
87589000,0.0324,0.013523,0.002678,0.000431,0.002468
87590000,0.0324,0.013523,0.002678,0.000431,0.002468
87591000,0.0324,0.013523,0.002678,0.000431,0.002468
87592000,0.0324,0.013523,0.002678,0.000431,0.002468
87593000,0.0324,0.013523,0.002678,0.000431,0.002586
87594000,0.0324,0.013523,0.002678,0.000431,0.004231
87595000,0.0324,0.013523,0.002678,0.000431,0.001645
87596000,0.0324,0.013523,0.002678,0.000431,0.001645
87597000,0.0324,0.013523,0.002678,0.000431,0.001645
87598000,0.0324,0.013523,0.002678,0.000431,0.001763
87599000,0.0324,0.013523,0.002678,0.000431,0.001763
87600000,0.0324,0.013523,0.002678,0.000431,0.001528
87601000,0.0324,0.013523,0.002678,0.000431,0.001763
87602000,0.0324,0.013523,0.002678,0.000431,0.001645
87603000,0.0324,0.013523,0.002678,0.000431,0.001645
87604000,0.0324,0.013523,0.002678,0.000431,0.001763
87605000,0.0324,0.013523,0.002678,0.000431,0.001528
87606000,0.0324,0.013523,0.002678,0.000431,0.001763
87607000,0.0324,0.013523,0.002678,0.000431,0.001645
87608000,0.0324,0.013523,0.002678,0.000431,0.001763
87609000,0.0324,0.013523,0.002678,0.000431,0.001410
87610000,0.0324,0.013523,0.002678,0.000431,0.001880
87611000,0.0324,0.013523,0.002678,0.000431,0.001763
87612000,0.0324,0.013523,0.002678,0.000431,0.001410
87613000,0.0324,0.013523,0.002678,0.000431,0.001880
87614000,0.0324,0.013523,0.002678,0.000431,0.001528
87615000,0.0324,0.013523,0.002678,0.000431,0.001763
87616000,0.0324,0.013523,0.002678,0.000431,0.001645
87617000,0.0324,0.013523,0.002678,0.000431,0.001645
87618000,0.0324,0.013523,0.002678,0.000431,0.001763
87619000,0.0324,0.013523,0.002678,0.000431,0.001645
87620000,0.0324,0.013523,0.002678,0.000431,0.001763
87621000,0.0324,0.013523,0.002678,0.000431,0.001645
87622000,0.0324,0.013523,0.002678,0.000431,0.001528
87623000,0.0324,0.013523,0.002678,0.000431,0.001763
87624000,0.0324,0.013523,0.002678,0.000431,0.001763
87625000,0.0324,0.013523,0.002678,0.000431,0.001528
87626000,0.0324,0.013523,0.002678,0.000431,0.001763
87627000,0.0324,0.013523,0.002678,0.000431,0.001645
87628000,0.0324,0.013523,0.002678,0.000431,0.001645
87629000,0.0324,0.013523,0.002678,0.000431,0.001528
87630000,0.0324,0.013523,0.002678,0.000431,0.001880
87631000,0.0324,0.013523,0.002678,0.000431,0.001528
87632000,0.0324,0.013523,0.002678,0.000431,0.001763
87633000,0.0324,0.013523,0.002678,0.000431,0.001645
87634000,0.0324,0.013523,0.002678,0.000431,0.001645
87635000,0.0324,0.013523,0.002678,0.000431,0.001763
87636000,0.0324,0.013523,0.002678,0.000431,0.001645
87637000,0.0324,0.013523,0.002678,0.000431,0.001763
87638000,0.0324,0.013523,0.002678,0.000431,0.001645
87639000,0.0324,0.013523,0.002678,0.000431,0.001528
87640000,0.0324,0.013523,0.002678,0.000431,0.001763
87641000,0.0324,0.013523,0.002678,0.000431,0.001763
87642000,0.0324,0.013523,0.002678,0.000431,0.001645
87643000,0.0324,0.013523,0.002678,0.000431,0.001645
87644000,0.0324,0.013523,0.002678,0.000431,0.001645
87645000,0.0324,0.013523,0.002678,0.000431,0.001645
87646000,0.0324,0.013523,0.002678,0.000431,0.001763
87647000,0.0324,0.013523,0.002678,0.000431,0.001645
87648000,0.0324,0.013523,0.002678,0.000431,0.001645
87649000,0.0324,0.013523,0.002678,0.000431,0.001528
87650000,0.0324,0.013523,0.002678,0.000431,0.001880
87651000,0.0324,0.013523,0.002678,0.000431,0.001763
87652000,0.0324,0.013523,0.002678,0.000431,0.001528
87653000,0.0324,0.013523,0.002678,0.000431,0.001763
87654000,0.0324,0.013523,0.002678,0.000431,0.001528
87655000,0.0324,0.013523,0.002678,0.000431,0.001880
87656000,0.0324,0.013523,0.002678,0.000431,0.003291
87657000,0.0324,0.013523,0.002678,0.000431,0.000823
87658000,0.0324,0.013523,0.002678,0.000431,0.000705
87659000,0.0324,0.013523,0.002678,0.000431,0.000940
87660000,0.0324,0.013523,0.002678,0.000431,0.000940
87661000,0.0324,0.013523,0.002678,0.000431,0.000705
87662000,0.0324,0.013523,0.002678,0.000431,0.000940
87663000,0.0324,0.013523,0.002678,0.000431,0.000705
87664000,0.0324,0.013523,0.002678,0.000431,0.000940
87665000,0.0324,0.013523,0.002678,0.000431,0.000823
87666000,0.0324,0.013523,0.002678,0.000431,0.000823
87667000,0.0324,0.013523,0.002678,0.000431,0.000823
87668000,0.0324,0.013523,0.002678,0.000431,0.000823
87669000,0.0324,0.013523,0.002678,0.000431,0.000823
87670000,0.0324,0.013523,0.002678,0.000431,0.000823
87671000,0.0324,0.013523,0.002678,0.000431,0.000940
87672000,0.0324,0.013523,0.002678,0.000431,0.000705
87673000,0.0324,0.013523,0.002678,0.000431,0.014338
87674000,0.0324,0.013523,0.002678,0.000431,0.528054
87675000,0.0324,0.013523,0.002678,0.000431,0.597748
87676000,0.0324,0.013523,0.002678,0.000431,0.134922
87677000,0.0324,0.013523,0.002678,0.000431,0.132102
87678000,0.0324,0.013523,0.002678,0.000431,0.325083
87679000,0.0324,0.013523,0.002678,0.000431,0.424864
87680000,0.0324,0.013523,0.002678,0.000431,0.230120
87681000,0.0324,0.013523,0.002678,0.000431,0.287239
87682000,0.0324,0.013523,0.002678,0.000431,0.206615
87683000,0.0324,0.013523,0.002678,0.000431,0.142092
87684000,0.0324,0.013523,0.002678,0.000431,0.176645
87685000,0.0324,0.013523,0.002678,0.000431,0.101544
87686000,0.0324,0.013523,0.002678,0.000431,0.472933
87687000,0.0324,0.013523,0.002678,0.000431,0.077334
87688000,0.0324,0.013523,0.002678,0.000431,0.049714
87689000,0.0324,0.013523,0.002678,0.000431,0.039725
87690000,0.0324,0.013523,0.002678,0.000431,0.034553
87691000,0.0324,0.013523,0.002678,0.000431,0.034083
87692000,0.0324,0.013523,0.002678,0.000431,0.030205
87693000,0.0324,0.013523,0.002678,0.000431,0.027149
87694000,0.0324,0.013523,0.002678,0.000431,0.022918
87695000,0.0324,0.013523,0.002678,0.000431,0.018334
87696000,0.0324,0.013523,0.002678,0.000431,0.019510
87697000,0.0324,0.013523,0.002678,0.000431,0.015866
87698000,0.0324,0.013523,0.002678,0.000431,0.015044
87699000,0.0324,0.013523,0.002678,0.000431,0.016219
87700000,0.0324,0.013523,0.002678,0.000431,0.015866
87701000,0.0324,0.013523,0.002678,0.000431,0.013868
87702000,0.0324,0.013523,0.002678,0.000431,0.012576
87703000,0.0324,0.013523,0.002678,0.000431,0.015161
87704000,0.0324,0.013523,0.002678,0.000431,0.013516
87705000,0.0324,0.013523,0.002678,0.000431,0.010813
87706000,0.0324,0.013523,0.002678,0.000431,0.009520
87707000,0.0324,0.013523,0.002678,0.000431,0.011988
87708000,0.0324,0.013523,0.002678,0.000431,0.009050
87709000,0.0324,0.013523,0.002678,0.000431,0.009520
87710000,0.0324,0.013523,0.002678,0.000431,0.008697
87711000,0.0324,0.013523,0.002678,0.000431,0.008932
87712000,0.0324,0.013523,0.002678,0.000431,0.009167
87713000,0.0324,0.013523,0.002678,0.000431,0.010107
87714000,0.0324,0.013523,0.002678,0.000431,0.007757
87715000,0.0324,0.013523,0.002678,0.000431,0.007639
87716000,0.0324,0.013523,0.002678,0.000431,0.007287
87717000,0.0324,0.013523,0.002678,0.000431,0.007874
87718000,0.0324,0.013523,0.002678,0.000431,0.009520
87719000,0.0324,0.013523,0.002678,0.000431,0.006934
87720000,0.0324,0.013523,0.002678,0.000431,0.008345
87721000,0.0324,0.013523,0.002678,0.000431,0.005994
87722000,0.0324,0.013523,0.002678,0.000431,0.005641
87723000,0.0324,0.013523,0.002678,0.000431,0.004231
87724000,0.0324,0.013523,0.002678,0.000431,0.004349
87725000,0.0324,0.013523,0.002678,0.000431,0.003996
87726000,0.0324,0.013523,0.002678,0.000431,0.004349
87727000,0.0324,0.013523,0.002678,0.000431,0.004466
87728000,0.0324,0.013523,0.002678,0.000431,0.004113
87729000,0.0324,0.013523,0.002678,0.000431,0.004349
87730000,0.0324,0.013523,0.002678,0.000431,0.003996
87731000,0.0324,0.013523,0.002678,0.000431,0.004584
87732000,0.0324,0.013523,0.002678,0.000431,0.004231
87733000,0.0324,0.013523,0.002678,0.000431,0.003996
87734000,0.0324,0.013523,0.002678,0.000431,0.004584
87735000,0.0324,0.013523,0.002678,0.000431,0.004113
87736000,0.0324,0.013523,0.002678,0.000431,0.004349
87737000,0.0324,0.013523,0.002678,0.000431,0.004113
87738000,0.0324,0.013523,0.002678,0.000431,0.004349
87739000,0.0324,0.013523,0.002678,0.000431,0.004349
87740000,0.0324,0.013523,0.002678,0.000431,0.004231
87741000,0.0324,0.013523,0.002678,0.000431,0.003996
87742000,0.0324,0.013523,0.002678,0.000431,0.004584
87743000,0.0324,0.013523,0.002678,0.000431,0.004349
87744000,0.0324,0.013523,0.002678,0.000431,0.005289
87745000,0.0324,0.013523,0.002678,0.000431,0.003643
87746000,0.0324,0.013523,0.002678,0.000431,0.003173
87747000,0.0324,0.013523,0.002678,0.000431,0.003408
87748000,0.0324,0.013523,0.002678,0.000431,0.003291
87749000,0.0324,0.013523,0.002678,0.000431,0.003526
87750000,0.0324,0.013523,0.002678,0.000431,0.003408
87751000,0.0324,0.013523,0.002678,0.000431,0.003173
87752000,0.0324,0.013523,0.002678,0.000431,0.003643
87753000,0.0324,0.013523,0.002678,0.000431,0.003408
87754000,0.0324,0.013523,0.002678,0.000431,0.003408
87755000,0.0324,0.013523,0.002678,0.000431,0.003173
87756000,0.0324,0.013523,0.002678,0.000431,0.003526
87757000,0.0324,0.013523,0.002678,0.000431,0.003526
87758000,0.0324,0.013523,0.002678,0.000431,0.003173
87759000,0.0324,0.013523,0.002678,0.000431,0.003526
87760000,0.0324,0.013523,0.002678,0.000431,0.003173
87761000,0.0324,0.013523,0.002678,0.000431,0.003761
87762000,0.0324,0.013523,0.002678,0.000431,0.003173
87763000,0.0324,0.013523,0.002678,0.000431,0.003408
87764000,0.0324,0.013523,0.002678,0.000431,0.006229
87765000,0.0324,0.013523,0.002678,0.000431,0.002821
87766000,0.0324,0.013523,0.002678,0.000431,0.002351
87767000,0.0324,0.013523,0.002678,0.000431,0.002586
87768000,0.0324,0.013523,0.002678,0.000431,0.002821
87769000,0.0324,0.013523,0.002678,0.000431,0.002351
87770000,0.0324,0.013523,0.002678,0.000431,0.002586
87771000,0.0324,0.013523,0.002678,0.000431,0.002468
87772000,0.0324,0.013523,0.002678,0.000431,0.002703
87773000,0.0324,0.013523,0.002678,0.000431,0.004584
87774000,0.0324,0.013523,0.002678,0.000431,0.001645
87775000,0.0324,0.013523,0.002678,0.000431,0.001880
87776000,0.0324,0.013523,0.002678,0.000431,0.001528
87777000,0.0324,0.013523,0.002678,0.000431,0.001880
87778000,0.0324,0.013523,0.002678,0.000431,0.001645
87779000,0.0324,0.013523,0.002678,0.000431,0.001763
87780000,0.0324,0.013523,0.002678,0.000431,0.001763
87781000,0.0324,0.013523,0.002678,0.000431,0.001763
87782000,0.0324,0.013523,0.002678,0.000431,0.001880
87783000,0.0324,0.013523,0.002678,0.000431,0.001645
87784000,0.0324,0.013523,0.002678,0.000431,0.001763
87785000,0.0324,0.013523,0.002678,0.000431,0.001763
87786000,0.0324,0.013523,0.002678,0.000431,0.001763
87787000,0.0324,0.013523,0.002678,0.000431,0.001645
87788000,0.0324,0.013523,0.002678,0.000431,0.001763
87789000,0.0324,0.013523,0.002678,0.000431,0.001528
87790000,0.0324,0.013523,0.002678,0.000431,0.001880
87791000,0.0324,0.013523,0.002678,0.000431,0.001763
87792000,0.0324,0.013523,0.002678,0.000431,0.001645
87793000,0.0324,0.013523,0.002678,0.000431,0.001763
87794000,0.0324,0.013523,0.002678,0.000431,0.001528
87795000,0.0324,0.013523,0.002678,0.000431,0.001880
87796000,0.0324,0.013523,0.002678,0.000431,0.001763
87797000,0.0324,0.013523,0.002678,0.000431,0.001645
87798000,0.0324,0.013523,0.002678,0.000431,0.001763
87799000,0.0324,0.013523,0.002678,0.000431,0.001645
87800000,0.0324,0.013523,0.002678,0.000431,0.001880
87801000,0.0324,0.013523,0.002678,0.000431,0.001645
87802000,0.0324,0.013523,0.002678,0.000431,0.001763
87803000,0.0324,0.013523,0.002678,0.000431,0.001763
87804000,0.0324,0.013523,0.002678,0.000431,0.003526
87805000,0.0324,0.013523,0.002678,0.000431,0.000940
87806000,0.0324,0.013523,0.002678,0.000431,0.000823
87807000,0.0324,0.013523,0.002678,0.000431,0.000940
87808000,0.0324,0.013523,0.002678,0.000431,0.000940
87809000,0.0324,0.013523,0.002678,0.000431,0.000823
87810000,0.0324,0.013523,0.002678,0.000431,0.000823
87811000,0.0324,0.013523,0.002678,0.000431,0.000940
87812000,0.0324,0.013523,0.002678,0.000431,0.000823
87813000,0.0324,0.013523,0.002678,0.000431,0.000940
87814000,0.0324,0.013523,0.002678,0.000431,0.000823
87815000,0.0324,0.013523,0.002678,0.000431,0.000940
87816000,0.0324,0.013523,0.002678,0.000431,0.000823
87817000,0.0324,0.013523,0.002678,0.000431,0.000823
87818000,0.0324,0.013523,0.002678,0.000431,0.000940
87819000,0.0324,0.013523,0.002678,0.000431,0.000940
87820000,0.0324,0.013523,0.002678,0.000431,0.000823
87821000,0.0324,0.013523,0.002678,0.000431,0.000823
87822000,0.0324,0.013523,0.002678,0.000431,0.000940
87823000,0.0324,0.013523,0.002678,0.000431,0.000940
87824000,0.0324,0.013523,0.002678,0.000431,0.000823
87825000,0.0324,0.013523,0.002678,0.000431,0.000940
87826000,0.0324,0.013523,0.002678,0.000431,0.000823
87827000,0.0324,0.013523,0.002678,0.000431,0.000940
87828000,0.0324,0.013523,0.002678,0.000431,0.000940
87829000,0.0324,0.013523,0.002678,0.000431,0.000705
87830000,0.0324,0.013523,0.002678,0.000431,0.000940
87831000,0.0324,0.013523,0.002678,0.000431,0.000940
87832000,0.0324,0.013523,0.002678,0.000431,0.000940
87833000,0.0324,0.013523,0.002678,0.000431,0.000705
87834000,0.0324,0.013523,0.002678,0.000431,0.000940
87835000,0.0324,0.013523,0.002678,0.000431,0.000940
87836000,0.0324,0.013523,0.002678,0.000431,0.000823
87837000,0.0324,0.013523,0.002678,0.000431,0.000823
87838000,0.0324,0.013523,0.002678,0.000431,0.000940
87839000,0.0324,0.013523,0.002678,0.000431,0.000823
87840000,0.0324,0.013523,0.002678,0.000431,0.000940
87841000,0.0324,0.013523,0.002678,0.000431,0.000823
87842000,0.0324,0.013523,0.002678,0.000431,0.000940
87843000,0.0324,0.013523,0.002678,0.000431,0.000823
87844000,0.0324,0.013523,0.002678,0.000431,0.000823
87845000,0.0324,0.013523,0.002678,0.000431,0.000940
87846000,0.0324,0.013523,0.002678,0.000431,0.000940
87847000,0.0324,0.013523,0.002678,0.000431,0.000823
87848000,0.0324,0.013523,0.002678,0.000431,0.000823
87849000,0.0324,0.013523,0.002678,0.000431,0.000940
87850000,0.0324,0.013523,0.002678,0.000431,0.000940
87851000,0.0324,0.013523,0.002678,0.000431,0.000823
87852000,0.0324,0.013523,0.002678,0.000431,0.000823
87853000,0.0324,0.013523,0.002678,0.000431,0.000940
87854000,0.0324,0.013523,0.002678,0.000431,0.000940
87855000,0.0324,0.013523,0.002678,0.000431,0.000823
87856000,0.0324,0.013523,0.002678,0.000431,0.000823
87857000,0.0324,0.013523,0.002678,0.000431,0.000940
87858000,0.0324,0.013523,0.002678,0.000431,0.000823
87859000,0.0324,0.013523,0.002678,0.000431,0.000940
87860000,0.0324,0.013523,0.002678,0.000431,0.000823
87861000,0.0324,0.013523,0.002678,0.000431,0.000940
87862000,0.0324,0.013523,0.002678,0.000431,0.000823
87863000,0.0324,0.013523,0.002678,0.000431,0.000823
87864000,0.0324,0.013523,0.002678,0.000431,0.000940
87865000,0.0324,0.013523,0.002678,0.000431,0.000940
87866000,0.0324,0.013523,0.002678,0.000431,0.000823
87867000,0.0324,0.013523,0.002678,0.000431,0.000823
87868000,0.0324,0.013523,0.002678,0.000431,0.000940
87869000,0.0324,0.013523,0.002678,0.000431,0.000940
87870000,0.0324,0.013523,0.002678,0.000431,0.000705
87871000,0.0324,0.013523,0.002678,0.000431,0.000940
87872000,0.0324,0.013523,0.002678,0.000431,0.000940
87873000,0.0324,0.013523,0.002678,0.000431,0.000940
87874000,0.0324,0.013523,0.002678,0.000431,0.000705
87875000,0.0324,0.013523,0.002678,0.000431,0.000940
87876000,0.0324,0.013523,0.002678,0.000431,0.000823
87877000,0.0324,0.013523,0.002678,0.000431,0.000823
87878000,0.0324,0.013523,0.002678,0.000431,0.000940
87879000,0.0324,0.013523,0.002678,0.000431,0.000823
87880000,0.0324,0.013523,0.002678,0.000431,0.000823
87881000,0.0324,0.013523,0.002678,0.000431,0.000940
87882000,0.0324,0.013523,0.002678,0.000431,0.000705
87883000,0.0324,0.013523,0.002678,0.000431,0.000940
87884000,0.0324,0.013523,0.002678,0.000431,0.000823
87885000,0.0324,0.013523,0.002678,0.000431,0.000823
87886000,0.0324,0.013523,0.002678,0.000431,0.000940
87887000,0.0324,0.013523,0.002678,0.000431,0.000823
87888000,0.0324,0.013523,0.002678,0.000431,0.000823
87889000,0.0324,0.013523,0.002678,0.000431,0.000940
87890000,0.0324,0.013523,0.002678,0.000431,0.000705
87891000,0.0324,0.013523,0.002678,0.000431,0.000940
87892000,0.0324,0.013523,0.002678,0.000431,0.000823
87893000,0.0324,0.013523,0.002678,0.000431,0.000823
87894000,0.0324,0.013523,0.002678,0.000431,0.000940
87895000,0.0324,0.013523,0.002678,0.000431,0.000823
87896000,0.0324,0.013523,0.002678,0.000431,0.000823
87897000,0.0324,0.013523,0.002678,0.000431,0.000940
87898000,0.0324,0.013523,0.002678,0.000431,0.000705
87899000,0.0324,0.013523,0.002678,0.000431,0.000940
87900000,0.0324,0.013523,0.002678,0.000431,0.000823
87901000,0.0324,0.013523,0.002678,0.000431,0.000823
87902000,0.0324,0.013523,0.002678,0.000431,0.000940
87903000,0.0324,0.013523,0.002678,0.000431,0.000823
87904000,0.0324,0.013523,0.002678,0.000431,0.013868
87905000,0.0324,0.013523,0.002678,0.000431,0.502668
87906000,0.0324,0.013523,0.002678,0.000431,0.597631
87907000,0.0324,0.013523,0.002678,0.000431,0.134922
87908000,0.0324,0.013523,0.002678,0.000431,0.131161
87909000,0.0324,0.013523,0.002678,0.000431,0.339186
87910000,0.0324,0.013523,0.002678,0.000431,0.465529
87911000,0.0324,0.013523,0.002678,0.000431,0.276191
87912000,0.0324,0.013523,0.002678,0.000431,0.303693
87913000,0.0324,0.013523,0.002678,0.000431,0.178995
87914000,0.0324,0.013523,0.002678,0.000431,0.136450
87915000,0.0324,0.013523,0.002678,0.000431,0.130339
87916000,0.0324,0.013523,0.002678,0.000431,0.272783
87917000,0.0324,0.013523,0.002678,0.000431,0.371624
87918000,0.0324,0.013523,0.002678,0.000431,0.107538
87919000,0.0324,0.013523,0.002678,0.000431,0.088499
87920000,0.0324,0.013523,0.002678,0.000431,0.083680
87921000,0.0324,0.013523,0.002678,0.000431,0.061585
87922000,0.0324,0.013523,0.002678,0.000431,0.054180
87923000,0.0324,0.013523,0.002678,0.000431,0.051007
87924000,0.0324,0.013523,0.002678,0.000431,0.040900
87925000,0.0324,0.013523,0.002678,0.000431,0.037727
87926000,0.0324,0.013523,0.002678,0.000431,0.027972
87927000,0.0324,0.013523,0.002678,0.000431,0.028794
87928000,0.0324,0.013523,0.002678,0.000431,0.032438
87929000,0.0324,0.013523,0.002678,0.000431,0.032673
87930000,0.0324,0.013523,0.002678,0.000431,0.014338
87931000,0.0324,0.013523,0.002678,0.000431,0.015749
87932000,0.0324,0.013523,0.002678,0.000431,0.014103
87933000,0.0324,0.013523,0.002678,0.000431,0.010107
87934000,0.0324,0.013523,0.002678,0.000431,0.010107
87935000,0.0324,0.013523,0.002678,0.000431,0.010695
87936000,0.0324,0.013523,0.002678,0.000431,0.015749
87937000,0.0324,0.013523,0.002678,0.000431,0.007169
87938000,0.0324,0.013523,0.002678,0.000431,0.008345
87939000,0.0324,0.013523,0.002678,0.000431,0.007874
87940000,0.0324,0.013523,0.002678,0.000431,0.007992
87941000,0.0324,0.013523,0.002678,0.000431,0.010460
87942000,0.0324,0.013523,0.002678,0.000431,0.006229
87943000,0.0324,0.013523,0.002678,0.000431,0.005876
87944000,0.0324,0.013523,0.002678,0.000431,0.006229
87945000,0.0324,0.013523,0.002678,0.000431,0.006111
87946000,0.0324,0.013523,0.002678,0.000431,0.004819
87947000,0.0324,0.013523,0.002678,0.000431,0.006229
87948000,0.0324,0.013523,0.002678,0.000431,0.005406
87949000,0.0324,0.013523,0.002678,0.000431,0.005641
87950000,0.0324,0.013523,0.002678,0.000431,0.005524
87951000,0.0324,0.013523,0.002678,0.000431,0.005994
87952000,0.0324,0.013523,0.002678,0.000431,0.005289
87953000,0.0324,0.013523,0.002678,0.000431,0.005876
87954000,0.0324,0.013523,0.002678,0.000431,0.004584
87955000,0.0324,0.013523,0.002678,0.000431,0.005406
87956000,0.0324,0.013523,0.002678,0.000431,0.004701
87957000,0.0324,0.013523,0.002678,0.000431,0.004936
87958000,0.0324,0.013523,0.002678,0.000431,0.005054
87959000,0.0324,0.013523,0.002678,0.000431,0.009167
87960000,0.0324,0.013523,0.002678,0.000431,0.005759
87961000,0.0324,0.013523,0.002678,0.000431,0.002586
87962000,0.0324,0.013523,0.002678,0.000431,0.002351
87963000,0.0324,0.013523,0.002678,0.000431,0.002351
87964000,0.0324,0.013523,0.002678,0.000431,0.002351
87965000,0.0324,0.013523,0.002678,0.000431,0.002351
87966000,0.0324,0.013523,0.002678,0.000431,0.001763
87967000,0.0324,0.013523,0.002678,0.000431,0.001763
87968000,0.0324,0.013523,0.002678,0.000431,0.001763
87969000,0.0324,0.013523,0.002678,0.000431,0.001645
87970000,0.0324,0.013523,0.002678,0.000431,0.001880
87971000,0.0324,0.013523,0.002678,0.000431,0.001763
87972000,0.0324,0.013523,0.002678,0.000431,0.001763
87973000,0.0324,0.013523,0.002678,0.000431,0.001645
87974000,0.0324,0.013523,0.002678,0.000431,0.001880
87975000,0.0324,0.013523,0.002678,0.000431,0.001645
87976000,0.0324,0.013523,0.002678,0.000431,0.001763
87977000,0.0324,0.013523,0.002678,0.000431,0.001645
87978000,0.0324,0.013523,0.002678,0.000431,0.001763
87979000,0.0324,0.013523,0.002678,0.000431,0.001645
87980000,0.0324,0.013523,0.002678,0.000431,0.001645
87981000,0.0324,0.013523,0.002678,0.000431,0.001880
87982000,0.0324,0.013523,0.002678,0.000431,0.001763
87983000,0.0324,0.013523,0.002678,0.000431,0.001763
87984000,0.0324,0.013523,0.002678,0.000431,0.001410
87985000,0.0324,0.013523,0.002678,0.000431,0.001880
87986000,0.0324,0.013523,0.002678,0.000431,0.001880
87987000,0.0324,0.013523,0.002678,0.000431,0.001528
87988000,0.0324,0.013523,0.002678,0.000431,0.001763
87989000,0.0324,0.013523,0.002678,0.000431,0.003408
87990000,0.0324,0.013523,0.002678,0.000431,0.000940
87991000,0.0324,0.013523,0.002678,0.000431,0.000940
87992000,0.0324,0.013523,0.002678,0.000431,0.000705
87993000,0.0324,0.013523,0.002678,0.000431,0.000940
87994000,0.0324,0.013523,0.002678,0.000431,0.000940
87995000,0.0324,0.013523,0.002678,0.000431,0.000823
87996000,0.0324,0.013523,0.002678,0.000431,0.000823
87997000,0.0324,0.013523,0.002678,0.000431,0.001998
87998000,0.0324,0.013523,0.002678,0.000431,0.407705
87999000,0.0324,0.013523,0.002678,0.000431,0.677315
