Cycle,Area(mm^2),PeakDynamic(W),SubthresholdLeakage(W),GateLeakage(W),RunTimeDynamic(W)
17000000,0.0324,0.013523,0.002678,0.000431,0.000940
17001000,0.0324,0.013523,0.002678,0.000431,0.000823
17002000,0.0324,0.013523,0.002678,0.000431,0.000823
17003000,0.0324,0.013523,0.002678,0.000431,0.000940
17004000,0.0324,0.013523,0.002678,0.000431,0.000940
17005000,0.0324,0.013523,0.002678,0.000431,0.000823
17006000,0.0324,0.013523,0.002678,0.000431,0.000823
17007000,0.0324,0.013523,0.002678,0.000431,0.000940
17008000,0.0324,0.013523,0.002678,0.000431,0.000823
17009000,0.0324,0.013523,0.002678,0.000431,0.000940
17010000,0.0324,0.013523,0.002678,0.000431,0.000823
17011000,0.0324,0.013523,0.002678,0.000431,0.000940
17012000,0.0324,0.013523,0.002678,0.000431,0.000823
17013000,0.0324,0.013523,0.002678,0.000431,0.001645
17014000,0.0324,0.013523,0.002678,0.000431,0.353995
17015000,0.0324,0.013523,0.002678,0.000431,0.683896
17016000,0.0324,0.013523,0.002678,0.000431,0.138331
17017000,0.0324,0.013523,0.002678,0.000431,0.133982
17018000,0.0324,0.013523,0.002678,0.000431,0.131632
17019000,0.0324,0.013523,0.002678,0.000431,0.587288
17020000,0.0324,0.013523,0.002678,0.000431,0.250688
17021000,0.0324,0.013523,0.002678,0.000431,0.248807
17022000,0.0324,0.013523,0.002678,0.000431,0.265144
17023000,0.0324,0.013523,0.002678,0.000431,0.144560
17024000,0.0324,0.013523,0.002678,0.000431,0.156312
17025000,0.0324,0.013523,0.002678,0.000431,0.107773
17026000,0.0324,0.013523,0.002678,0.000431,0.438028
17027000,0.0324,0.013523,0.002678,0.000431,0.118703
17028000,0.0324,0.013523,0.002678,0.000431,0.038432
17029000,0.0324,0.013523,0.002678,0.000431,0.030792
17030000,0.0324,0.013523,0.002678,0.000431,0.023153
17031000,0.0324,0.013523,0.002678,0.000431,0.023506
17032000,0.0324,0.013523,0.002678,0.000431,0.022565
17033000,0.0324,0.013523,0.002678,0.000431,0.019392
17034000,0.0324,0.013523,0.002678,0.000431,0.018687
17035000,0.0324,0.013523,0.002678,0.000431,0.016689
17036000,0.0324,0.013523,0.002678,0.000431,0.015631
17037000,0.0324,0.013523,0.002678,0.000431,0.016101
17038000,0.0324,0.013523,0.002678,0.000431,0.014573
17039000,0.0324,0.013523,0.002678,0.000431,0.012458
17040000,0.0324,0.013523,0.002678,0.000431,0.011283
17041000,0.0324,0.013523,0.002678,0.000431,0.009402
17042000,0.0324,0.013523,0.002678,0.000431,0.008932
17043000,0.0324,0.013523,0.002678,0.000431,0.009050
17044000,0.0324,0.013523,0.002678,0.000431,0.010813
17045000,0.0324,0.013523,0.002678,0.000431,0.007287
17046000,0.0324,0.013523,0.002678,0.000431,0.007639
17047000,0.0324,0.013523,0.002678,0.000431,0.009050
17048000,0.0324,0.013523,0.002678,0.000431,0.006464
17049000,0.0324,0.013523,0.002678,0.000431,0.006699
17050000,0.0324,0.013523,0.002678,0.000431,0.006582
17051000,0.0324,0.013523,0.002678,0.000431,0.006582
17052000,0.0324,0.013523,0.002678,0.000431,0.008580
17053000,0.0324,0.013523,0.002678,0.000431,0.007522
17054000,0.0324,0.013523,0.002678,0.000431,0.004584
17055000,0.0324,0.013523,0.002678,0.000431,0.004349
17056000,0.0324,0.013523,0.002678,0.000431,0.004349
17057000,0.0324,0.013523,0.002678,0.000431,0.004349
17058000,0.0324,0.013523,0.002678,0.000431,0.004231
17059000,0.0324,0.013523,0.002678,0.000431,0.004113
17060000,0.0324,0.013523,0.002678,0.000431,0.004349
17061000,0.0324,0.013523,0.002678,0.000431,0.004113
17062000,0.0324,0.013523,0.002678,0.000431,0.004349
17063000,0.0324,0.013523,0.002678,0.000431,0.004231
17064000,0.0324,0.013523,0.002678,0.000431,0.004231
17065000,0.0324,0.013523,0.002678,0.000431,0.004231
17066000,0.0324,0.013523,0.002678,0.000431,0.006229
17067000,0.0324,0.013523,0.002678,0.000431,0.003408
17068000,0.0324,0.013523,0.002678,0.000431,0.003526
17069000,0.0324,0.013523,0.002678,0.000431,0.003173
17070000,0.0324,0.013523,0.002678,0.000431,0.003291
17071000,0.0324,0.013523,0.002678,0.000431,0.003761
17072000,0.0324,0.013523,0.002678,0.000431,0.003291
17073000,0.0324,0.013523,0.002678,0.000431,0.003408
17074000,0.0324,0.013523,0.002678,0.000431,0.003408
17075000,0.0324,0.013523,0.002678,0.000431,0.003291
17076000,0.0324,0.013523,0.002678,0.000431,0.003761
17077000,0.0324,0.013523,0.002678,0.000431,0.003173
17078000,0.0324,0.013523,0.002678,0.000431,0.003526
17079000,0.0324,0.013523,0.002678,0.000431,0.003291
17080000,0.0324,0.013523,0.002678,0.000431,0.003291
17081000,0.0324,0.013523,0.002678,0.000431,0.003643
17082000,0.0324,0.013523,0.002678,0.000431,0.003526
17083000,0.0324,0.013523,0.002678,0.000431,0.003408
17084000,0.0324,0.013523,0.002678,0.000431,0.003291
17085000,0.0324,0.013523,0.002678,0.000431,0.003173
17086000,0.0324,0.013523,0.002678,0.000431,0.003761
17087000,0.0324,0.013523,0.002678,0.000431,0.003408
17088000,0.0324,0.013523,0.002678,0.000431,0.004936
17089000,0.0324,0.013523,0.002678,0.000431,0.002586
17090000,0.0324,0.013523,0.002678,0.000431,0.002468
17091000,0.0324,0.013523,0.002678,0.000431,0.002703
17092000,0.0324,0.013523,0.002678,0.000431,0.002703
17093000,0.0324,0.013523,0.002678,0.000431,0.002351
17094000,0.0324,0.013523,0.002678,0.000431,0.003173
17095000,0.0324,0.013523,0.002678,0.000431,0.003173
17096000,0.0324,0.013523,0.002678,0.000431,0.001528
17097000,0.0324,0.013523,0.002678,0.000431,0.000940
17098000,0.0324,0.013523,0.002678,0.000431,0.000940
17099000,0.0324,0.013523,0.002678,0.000431,0.000705
17100000,0.0324,0.013523,0.002678,0.000431,0.000940
17101000,0.0324,0.013523,0.002678,0.000431,0.000940
17102000,0.0324,0.013523,0.002678,0.000431,0.000823
17103000,0.0324,0.013523,0.002678,0.000431,0.000823
17104000,0.0324,0.013523,0.002678,0.000431,0.000940
17105000,0.0324,0.013523,0.002678,0.000431,0.000940
17106000,0.0324,0.013523,0.002678,0.000431,0.000823
17107000,0.0324,0.013523,0.002678,0.000431,0.000823
17108000,0.0324,0.013523,0.002678,0.000431,0.000940
17109000,0.0324,0.013523,0.002678,0.000431,0.000823
17110000,0.0324,0.013523,0.002678,0.000431,0.000940
17111000,0.0324,0.013523,0.002678,0.000431,0.000823
17112000,0.0324,0.013523,0.002678,0.000431,0.000940
17113000,0.0324,0.013523,0.002678,0.000431,0.000823
17114000,0.0324,0.013523,0.002678,0.000431,0.002116
17115000,0.0324,0.013523,0.002678,0.000431,0.351879
17116000,0.0324,0.013523,0.002678,0.000431,0.686482
17117000,0.0324,0.013523,0.002678,0.000431,0.138331
17118000,0.0324,0.013523,0.002678,0.000431,0.133982
17119000,0.0324,0.013523,0.002678,0.000431,0.151964
17120000,0.0324,0.013523,0.002678,0.000431,0.642174
17121000,0.0324,0.013523,0.002678,0.000431,0.250335
17122000,0.0324,0.013523,0.002678,0.000431,0.246927
17123000,0.0324,0.013523,0.002678,0.000431,0.234586
17124000,0.0324,0.013523,0.002678,0.000431,0.143972
17125000,0.0324,0.013523,0.002678,0.000431,0.166890
17126000,0.0324,0.013523,0.002678,0.000431,0.107773
17127000,0.0324,0.013523,0.002678,0.000431,0.451778
17128000,0.0324,0.013523,0.002678,0.000431,0.046541
17129000,0.0324,0.013523,0.002678,0.000431,0.026796
17130000,0.0324,0.013523,0.002678,0.000431,0.019275
17131000,0.0324,0.013523,0.002678,0.000431,0.017394
17132000,0.0324,0.013523,0.002678,0.000431,0.012928
17133000,0.0324,0.013523,0.002678,0.000431,0.009990
17134000,0.0324,0.013523,0.002678,0.000431,0.011753
17135000,0.0324,0.013523,0.002678,0.000431,0.008932
17136000,0.0324,0.013523,0.002678,0.000431,0.009520
17137000,0.0324,0.013523,0.002678,0.000431,0.008697
17138000,0.0324,0.013523,0.002678,0.000431,0.009520
17139000,0.0324,0.013523,0.002678,0.000431,0.009520
17140000,0.0324,0.013523,0.002678,0.000431,0.008580
17141000,0.0324,0.013523,0.002678,0.000431,0.009637
17142000,0.0324,0.013523,0.002678,0.000431,0.008815
17143000,0.0324,0.013523,0.002678,0.000431,0.009050
17144000,0.0324,0.013523,0.002678,0.000431,0.009637
17145000,0.0324,0.013523,0.002678,0.000431,0.009872
17146000,0.0324,0.013523,0.002678,0.000431,0.008345
17147000,0.0324,0.013523,0.002678,0.000431,0.008345
17148000,0.0324,0.013523,0.002678,0.000431,0.008697
17149000,0.0324,0.013523,0.002678,0.000431,0.010930
17150000,0.0324,0.013523,0.002678,0.000431,0.005994
17151000,0.0324,0.013523,0.002678,0.000431,0.005876
17152000,0.0324,0.013523,0.002678,0.000431,0.005641
17153000,0.0324,0.013523,0.002678,0.000431,0.006111
17154000,0.0324,0.013523,0.002678,0.000431,0.007052
17155000,0.0324,0.013523,0.002678,0.000431,0.005289
17156000,0.0324,0.013523,0.002678,0.000431,0.005054
17157000,0.0324,0.013523,0.002678,0.000431,0.004701
17158000,0.0324,0.013523,0.002678,0.000431,0.005171
17159000,0.0324,0.013523,0.002678,0.000431,0.005171
17160000,0.0324,0.013523,0.002678,0.000431,0.004584
17161000,0.0324,0.013523,0.002678,0.000431,0.005289
17162000,0.0324,0.013523,0.002678,0.000431,0.004819
17163000,0.0324,0.013523,0.002678,0.000431,0.004819
17164000,0.0324,0.013523,0.002678,0.000431,0.005171
17165000,0.0324,0.013523,0.002678,0.000431,0.004819
17166000,0.0324,0.013523,0.002678,0.000431,0.006817
17167000,0.0324,0.013523,0.002678,0.000431,0.004349
17168000,0.0324,0.013523,0.002678,0.000431,0.003761
17169000,0.0324,0.013523,0.002678,0.000431,0.004349
17170000,0.0324,0.013523,0.002678,0.000431,0.004231
17171000,0.0324,0.013523,0.002678,0.000431,0.003878
17172000,0.0324,0.013523,0.002678,0.000431,0.003996
17173000,0.0324,0.013523,0.002678,0.000431,0.004113
17174000,0.0324,0.013523,0.002678,0.000431,0.004231
17175000,0.0324,0.013523,0.002678,0.000431,0.004113
17176000,0.0324,0.013523,0.002678,0.000431,0.003761
17177000,0.0324,0.013523,0.002678,0.000431,0.004231
17178000,0.0324,0.013523,0.002678,0.000431,0.004466
17179000,0.0324,0.013523,0.002678,0.000431,0.003996
17180000,0.0324,0.013523,0.002678,0.000431,0.003878
17181000,0.0324,0.013523,0.002678,0.000431,0.004466
17182000,0.0324,0.013523,0.002678,0.000431,0.003996
17183000,0.0324,0.013523,0.002678,0.000431,0.005406
17184000,0.0324,0.013523,0.002678,0.000431,0.003173
17185000,0.0324,0.013523,0.002678,0.000431,0.003173
17186000,0.0324,0.013523,0.002678,0.000431,0.003291
17187000,0.0324,0.013523,0.002678,0.000431,0.004584
17188000,0.0324,0.013523,0.002678,0.000431,0.002233
17189000,0.0324,0.013523,0.002678,0.000431,0.002468
17190000,0.0324,0.013523,0.002678,0.000431,0.002586
17191000,0.0324,0.013523,0.002678,0.000431,0.002351
17192000,0.0324,0.013523,0.002678,0.000431,0.002468
17193000,0.0324,0.013523,0.002678,0.000431,0.002116
17194000,0.0324,0.013523,0.002678,0.000431,0.001645
17195000,0.0324,0.013523,0.002678,0.000431,0.002938
17196000,0.0324,0.013523,0.002678,0.000431,0.000705
17197000,0.0324,0.013523,0.002678,0.000431,0.000940
17198000,0.0324,0.013523,0.002678,0.000431,0.000823
17199000,0.0324,0.013523,0.002678,0.000431,0.000823
17200000,0.0324,0.013523,0.002678,0.000431,0.000823
17201000,0.0324,0.013523,0.002678,0.000431,0.000823
17202000,0.0324,0.013523,0.002678,0.000431,0.000940
17203000,0.0324,0.013523,0.002678,0.000431,0.000705
17204000,0.0324,0.013523,0.002678,0.000431,0.000940
17205000,0.0324,0.013523,0.002678,0.000431,0.000705
17206000,0.0324,0.013523,0.002678,0.000431,0.000940
17207000,0.0324,0.013523,0.002678,0.000431,0.000823
17208000,0.0324,0.013523,0.002678,0.000431,0.000823
17209000,0.0324,0.013523,0.002678,0.000431,0.000940
17210000,0.0324,0.013523,0.002678,0.000431,0.000705
17211000,0.0324,0.013523,0.002678,0.000431,0.000940
17212000,0.0324,0.013523,0.002678,0.000431,0.000823
17213000,0.0324,0.013523,0.002678,0.000431,0.000823
17214000,0.0324,0.013523,0.002678,0.000431,0.000823
17215000,0.0324,0.013523,0.002678,0.000431,0.000823
17216000,0.0324,0.013523,0.002678,0.000431,0.000940
17217000,0.0324,0.013523,0.002678,0.000431,0.000705
17218000,0.0324,0.013523,0.002678,0.000431,0.000940
17219000,0.0324,0.013523,0.002678,0.000431,0.000823
17220000,0.0324,0.013523,0.002678,0.000431,0.000823
17221000,0.0324,0.013523,0.002678,0.000431,0.000823
17222000,0.0324,0.013523,0.002678,0.000431,0.000823
17223000,0.0324,0.013523,0.002678,0.000431,0.000940
17224000,0.0324,0.013523,0.002678,0.000431,0.000705
17225000,0.0324,0.013523,0.002678,0.000431,0.000823
17226000,0.0324,0.013523,0.002678,0.000431,0.000823
17227000,0.0324,0.013523,0.002678,0.000431,0.000940
17228000,0.0324,0.013523,0.002678,0.000431,0.000823
17229000,0.0324,0.013523,0.002678,0.000431,0.000823
17230000,0.0324,0.013523,0.002678,0.000431,0.000705
17231000,0.0324,0.013523,0.002678,0.000431,0.000940
17232000,0.0324,0.013523,0.002678,0.000431,0.000940
17233000,0.0324,0.013523,0.002678,0.000431,0.000705
17234000,0.0324,0.013523,0.002678,0.000431,0.000940
17235000,0.0324,0.013523,0.002678,0.000431,0.000705
17236000,0.0324,0.013523,0.002678,0.000431,0.000940
17237000,0.0324,0.013523,0.002678,0.000431,0.000823
17238000,0.0324,0.013523,0.002678,0.000431,0.000823
17239000,0.0324,0.013523,0.002678,0.000431,0.000940
17240000,0.0324,0.013523,0.002678,0.000431,0.000940
17241000,0.0324,0.013523,0.002678,0.000431,0.000705
17242000,0.0324,0.013523,0.002678,0.000431,0.000940
17243000,0.0324,0.013523,0.002678,0.000431,0.000705
17244000,0.0324,0.013523,0.002678,0.000431,0.000940
17245000,0.0324,0.013523,0.002678,0.000431,0.000940
17246000,0.0324,0.013523,0.002678,0.000431,0.000705
17247000,0.0324,0.013523,0.002678,0.000431,0.000940
17248000,0.0324,0.013523,0.002678,0.000431,0.000705
17249000,0.0324,0.013523,0.002678,0.000431,0.000940
17250000,0.0324,0.013523,0.002678,0.000431,0.000823
17251000,0.0324,0.013523,0.002678,0.000431,0.000823
17252000,0.0324,0.013523,0.002678,0.000431,0.000823
17253000,0.0324,0.013523,0.002678,0.000431,0.000823
17254000,0.0324,0.013523,0.002678,0.000431,0.000940
17255000,0.0324,0.013523,0.002678,0.000431,0.000705
17256000,0.0324,0.013523,0.002678,0.000431,0.000940
17257000,0.0324,0.013523,0.002678,0.000431,0.000823
17258000,0.0324,0.013523,0.002678,0.000431,0.000823
17259000,0.0324,0.013523,0.002678,0.000431,0.000823
17260000,0.0324,0.013523,0.002678,0.000431,0.000823
17261000,0.0324,0.013523,0.002678,0.000431,0.000823
17262000,0.0324,0.013523,0.002678,0.000431,0.000823
17263000,0.0324,0.013523,0.002678,0.000431,0.000940
17264000,0.0324,0.013523,0.002678,0.000431,0.000705
17265000,0.0324,0.013523,0.002678,0.000431,0.000940
17266000,0.0324,0.013523,0.002678,0.000431,0.000705
17267000,0.0324,0.013523,0.002678,0.000431,0.000940
17268000,0.0324,0.013523,0.002678,0.000431,0.000940
17269000,0.0324,0.013523,0.002678,0.000431,0.000705
17270000,0.0324,0.013523,0.002678,0.000431,0.000940
17271000,0.0324,0.013523,0.002678,0.000431,0.000705
17272000,0.0324,0.013523,0.002678,0.000431,0.000940
17273000,0.0324,0.013523,0.002678,0.000431,0.000823
17274000,0.0324,0.013523,0.002678,0.000431,0.000823
17275000,0.0324,0.013523,0.002678,0.000431,0.000940
17276000,0.0324,0.013523,0.002678,0.000431,0.000705
17277000,0.0324,0.013523,0.002678,0.000431,0.000940
17278000,0.0324,0.013523,0.002678,0.000431,0.000823
17279000,0.0324,0.013523,0.002678,0.000431,0.000823
17280000,0.0324,0.013523,0.002678,0.000431,0.000823
17281000,0.0324,0.013523,0.002678,0.000431,0.000823
17282000,0.0324,0.013523,0.002678,0.000431,0.000940
17283000,0.0324,0.013523,0.002678,0.000431,0.001763
17284000,0.0324,0.013523,0.002678,0.000431,0.281362
17285000,0.0324,0.013523,0.002678,0.000431,0.606093
17286000,0.0324,0.013523,0.002678,0.000431,0.250923
17287000,0.0324,0.013523,0.002678,0.000431,0.131632
17288000,0.0324,0.013523,0.002678,0.000431,0.133512
17289000,0.0324,0.013523,0.002678,0.000431,0.599864
17290000,0.0324,0.013523,0.002678,0.000431,0.212373
17291000,0.0324,0.013523,0.002678,0.000431,0.287709
17292000,0.0324,0.013523,0.002678,0.000431,0.266084
17293000,0.0324,0.013523,0.002678,0.000431,0.135392
17294000,0.0324,0.013523,0.002678,0.000431,0.143502
17295000,0.0324,0.013523,0.002678,0.000431,0.114355
17296000,0.0324,0.013523,0.002678,0.000431,0.395482
17297000,0.0324,0.013523,0.002678,0.000431,0.182169
17298000,0.0324,0.013523,0.002678,0.000431,0.035376
17299000,0.0324,0.013523,0.002678,0.000431,0.027502
17300000,0.0324,0.013523,0.002678,0.000431,0.018099
17301000,0.0324,0.013523,0.002678,0.000431,0.015161
17302000,0.0324,0.013523,0.002678,0.000431,0.011753
17303000,0.0324,0.013523,0.002678,0.000431,0.009637
17304000,0.0324,0.013523,0.002678,0.000431,0.007757
17305000,0.0324,0.013523,0.002678,0.000431,0.008109
17306000,0.0324,0.013523,0.002678,0.000431,0.007287
17307000,0.0324,0.013523,0.002678,0.000431,0.009402
17308000,0.0324,0.013523,0.002678,0.000431,0.008109
17309000,0.0324,0.013523,0.002678,0.000431,0.005641
17310000,0.0324,0.013523,0.002678,0.000431,0.009050
17311000,0.0324,0.013523,0.002678,0.000431,0.004701
17312000,0.0324,0.013523,0.002678,0.000431,0.003643
17313000,0.0324,0.013523,0.002678,0.000431,0.003643
17314000,0.0324,0.013523,0.002678,0.000431,0.003408
17315000,0.0324,0.013523,0.002678,0.000431,0.003408
17316000,0.0324,0.013523,0.002678,0.000431,0.003408
17317000,0.0324,0.013523,0.002678,0.000431,0.003643
17318000,0.0324,0.013523,0.002678,0.000431,0.003408
17319000,0.0324,0.013523,0.002678,0.000431,0.003526
17320000,0.0324,0.013523,0.002678,0.000431,0.004936
17321000,0.0324,0.013523,0.002678,0.000431,0.002821
17322000,0.0324,0.013523,0.002678,0.000431,0.002586
17323000,0.0324,0.013523,0.002678,0.000431,0.002821
17324000,0.0324,0.013523,0.002678,0.000431,0.002586
17325000,0.0324,0.013523,0.002678,0.000431,0.002821
17326000,0.0324,0.013523,0.002678,0.000431,0.002468
17327000,0.0324,0.013523,0.002678,0.000431,0.002586
17328000,0.0324,0.013523,0.002678,0.000431,0.003761
17329000,0.0324,0.013523,0.002678,0.000431,0.001763
17330000,0.0324,0.013523,0.002678,0.000431,0.001763
17331000,0.0324,0.013523,0.002678,0.000431,0.001763
17332000,0.0324,0.013523,0.002678,0.000431,0.001763
17333000,0.0324,0.013523,0.002678,0.000431,0.001763
17334000,0.0324,0.013523,0.002678,0.000431,0.001763
17335000,0.0324,0.013523,0.002678,0.000431,0.001763
17336000,0.0324,0.013523,0.002678,0.000431,0.001645
17337000,0.0324,0.013523,0.002678,0.000431,0.001763
17338000,0.0324,0.013523,0.002678,0.000431,0.001880
17339000,0.0324,0.013523,0.002678,0.000431,0.001763
17340000,0.0324,0.013523,0.002678,0.000431,0.001645
17341000,0.0324,0.013523,0.002678,0.000431,0.001763
17342000,0.0324,0.013523,0.002678,0.000431,0.001763
17343000,0.0324,0.013523,0.002678,0.000431,0.001763
17344000,0.0324,0.013523,0.002678,0.000431,0.002821
17345000,0.0324,0.013523,0.002678,0.000431,0.000940
17346000,0.0324,0.013523,0.002678,0.000431,0.000823
17347000,0.0324,0.013523,0.002678,0.000431,0.000940
17348000,0.0324,0.013523,0.002678,0.000431,0.013633
17349000,0.0324,0.013523,0.002678,0.000431,0.482923
17350000,0.0324,0.013523,0.002678,0.000431,0.582587
17351000,0.0324,0.013523,0.002678,0.000431,0.133512
17352000,0.0324,0.013523,0.002678,0.000431,0.132807
17353000,0.0324,0.013523,0.002678,0.000431,0.405355
17354000,0.0324,0.013523,0.002678,0.000431,0.347531
17355000,0.0324,0.013523,0.002678,0.000431,0.231295
17356000,0.0324,0.013523,0.002678,0.000431,0.287121
17357000,0.0324,0.013523,0.002678,0.000431,0.186400
17358000,0.0324,0.013523,0.002678,0.000431,0.138213
17359000,0.0324,0.013523,0.002678,0.000431,0.185342
17360000,0.0324,0.013523,0.002678,0.000431,0.094963
17361000,0.0324,0.013523,0.002678,0.000431,0.474696
17362000,0.0324,0.013523,0.002678,0.000431,0.060997
17363000,0.0324,0.013523,0.002678,0.000431,0.038667
17364000,0.0324,0.013523,0.002678,0.000431,0.028912
17365000,0.0324,0.013523,0.002678,0.000431,0.026914
17366000,0.0324,0.013523,0.002678,0.000431,0.022683
17367000,0.0324,0.013523,0.002678,0.000431,0.013398
17368000,0.0324,0.013523,0.002678,0.000431,0.012928
17369000,0.0324,0.013523,0.002678,0.000431,0.013633
17370000,0.0324,0.013523,0.002678,0.000431,0.013046
17371000,0.0324,0.013523,0.002678,0.000431,0.012811
17372000,0.0324,0.013523,0.002678,0.000431,0.013398
17373000,0.0324,0.013523,0.002678,0.000431,0.014809
17374000,0.0324,0.013523,0.002678,0.000431,0.012811
17375000,0.0324,0.013523,0.002678,0.000431,0.011518
17376000,0.0324,0.013523,0.002678,0.000431,0.011635
17377000,0.0324,0.013523,0.002678,0.000431,0.011048
17378000,0.0324,0.013523,0.002678,0.000431,0.010107
17379000,0.0324,0.013523,0.002678,0.000431,0.009402
17380000,0.0324,0.013523,0.002678,0.000431,0.010225
17381000,0.0324,0.013523,0.002678,0.000431,0.010225
17382000,0.0324,0.013523,0.002678,0.000431,0.008227
17383000,0.0324,0.013523,0.002678,0.000431,0.008109
17384000,0.0324,0.013523,0.002678,0.000431,0.007404
17385000,0.0324,0.013523,0.002678,0.000431,0.009285
17386000,0.0324,0.013523,0.002678,0.000431,0.007992
17387000,0.0324,0.013523,0.002678,0.000431,0.008697
17388000,0.0324,0.013523,0.002678,0.000431,0.006229
17389000,0.0324,0.013523,0.002678,0.000431,0.006699
17390000,0.0324,0.013523,0.002678,0.000431,0.006699
17391000,0.0324,0.013523,0.002678,0.000431,0.006229
17392000,0.0324,0.013523,0.002678,0.000431,0.007874
17393000,0.0324,0.013523,0.002678,0.000431,0.005171
17394000,0.0324,0.013523,0.002678,0.000431,0.005054
17395000,0.0324,0.013523,0.002678,0.000431,0.004819
17396000,0.0324,0.013523,0.002678,0.000431,0.007992
17397000,0.0324,0.013523,0.002678,0.000431,0.004584
17398000,0.0324,0.013523,0.002678,0.000431,0.004466
17399000,0.0324,0.013523,0.002678,0.000431,0.004349
17400000,0.0324,0.013523,0.002678,0.000431,0.004231
17401000,0.0324,0.013523,0.002678,0.000431,0.006347
17402000,0.0324,0.013523,0.002678,0.000431,0.438850
17403000,0.0324,0.013523,0.002678,0.000431,0.626425
17404000,0.0324,0.013523,0.002678,0.000431,0.133512
17405000,0.0324,0.013523,0.002678,0.000431,0.131632
17406000,0.0324,0.013523,0.002678,0.000431,0.179701
17407000,0.0324,0.013523,0.002678,0.000431,0.568836
17408000,0.0324,0.013523,0.002678,0.000431,0.278424
17409000,0.0324,0.013523,0.002678,0.000431,0.237054
17410000,0.0324,0.013523,0.002678,0.000431,0.204499
17411000,0.0324,0.013523,0.002678,0.000431,0.137743
17412000,0.0324,0.013523,0.002678,0.000431,0.164304
17413000,0.0324,0.013523,0.002678,0.000431,0.108831
17414000,0.0324,0.013523,0.002678,0.000431,0.450368
17415000,0.0324,0.013523,0.002678,0.000431,0.093905
17416000,0.0324,0.013523,0.002678,0.000431,0.040665
17417000,0.0324,0.013523,0.002678,0.000431,0.025739
17418000,0.0324,0.013523,0.002678,0.000431,0.022918
17419000,0.0324,0.013523,0.002678,0.000431,0.016689
17420000,0.0324,0.013523,0.002678,0.000431,0.018687
17421000,0.0324,0.013523,0.002678,0.000431,0.014573
17422000,0.0324,0.013523,0.002678,0.000431,0.009050
17423000,0.0324,0.013523,0.002678,0.000431,0.012105
17424000,0.0324,0.013523,0.002678,0.000431,0.010342
17425000,0.0324,0.013523,0.002678,0.000431,0.012105
17426000,0.0324,0.013523,0.002678,0.000431,0.005289
17427000,0.0324,0.013523,0.002678,0.000431,0.005171
17428000,0.0324,0.013523,0.002678,0.000431,0.005289
17429000,0.0324,0.013523,0.002678,0.000431,0.005054
17430000,0.0324,0.013523,0.002678,0.000431,0.005289
17431000,0.0324,0.013523,0.002678,0.000431,0.006934
17432000,0.0324,0.013523,0.002678,0.000431,0.004466
17433000,0.0324,0.013523,0.002678,0.000431,0.004113
17434000,0.0324,0.013523,0.002678,0.000431,0.004231
17435000,0.0324,0.013523,0.002678,0.000431,0.004466
17436000,0.0324,0.013523,0.002678,0.000431,0.004466
17437000,0.0324,0.013523,0.002678,0.000431,0.004113
17438000,0.0324,0.013523,0.002678,0.000431,0.004701
17439000,0.0324,0.013523,0.002678,0.000431,0.004113
17440000,0.0324,0.013523,0.002678,0.000431,0.005171
17441000,0.0324,0.013523,0.002678,0.000431,0.004584
17442000,0.0324,0.013523,0.002678,0.000431,0.003408
17443000,0.0324,0.013523,0.002678,0.000431,0.003408
17444000,0.0324,0.013523,0.002678,0.000431,0.003761
17445000,0.0324,0.013523,0.002678,0.000431,0.003526
17446000,0.0324,0.013523,0.002678,0.000431,0.003408
17447000,0.0324,0.013523,0.002678,0.000431,0.003526
17448000,0.0324,0.013523,0.002678,0.000431,0.004701
17449000,0.0324,0.013523,0.002678,0.000431,0.004466
17450000,0.0324,0.013523,0.002678,0.000431,0.001763
17451000,0.0324,0.013523,0.002678,0.000431,0.001880
17452000,0.0324,0.013523,0.002678,0.000431,0.001645
17453000,0.0324,0.013523,0.002678,0.000431,0.001763
17454000,0.0324,0.013523,0.002678,0.000431,0.001763
17455000,0.0324,0.013523,0.002678,0.000431,0.001763
17456000,0.0324,0.013523,0.002678,0.000431,0.001645
17457000,0.0324,0.013523,0.002678,0.000431,0.001880
17458000,0.0324,0.013523,0.002678,0.000431,0.001645
17459000,0.0324,0.013523,0.002678,0.000431,0.001880
17460000,0.0324,0.013523,0.002678,0.000431,0.001645
17461000,0.0324,0.013523,0.002678,0.000431,0.001763
17462000,0.0324,0.013523,0.002678,0.000431,0.001763
17463000,0.0324,0.013523,0.002678,0.000431,0.001763
17464000,0.0324,0.013523,0.002678,0.000431,0.001763
17465000,0.0324,0.013523,0.002678,0.000431,0.001763
17466000,0.0324,0.013523,0.002678,0.000431,0.001763
17467000,0.0324,0.013523,0.002678,0.000431,0.001763
17468000,0.0324,0.013523,0.002678,0.000431,0.001763
17469000,0.0324,0.013523,0.002678,0.000431,0.001763
17470000,0.0324,0.013523,0.002678,0.000431,0.001763
17471000,0.0324,0.013523,0.002678,0.000431,0.001645
17472000,0.0324,0.013523,0.002678,0.000431,0.001880
17473000,0.0324,0.013523,0.002678,0.000431,0.001763
17474000,0.0324,0.013523,0.002678,0.000431,0.001763
17475000,0.0324,0.013523,0.002678,0.000431,0.001645
17476000,0.0324,0.013523,0.002678,0.000431,0.001763
17477000,0.0324,0.013523,0.002678,0.000431,0.001763
17478000,0.0324,0.013523,0.002678,0.000431,0.003173
17479000,0.0324,0.013523,0.002678,0.000431,0.000823
17480000,0.0324,0.013523,0.002678,0.000431,0.000940
17481000,0.0324,0.013523,0.002678,0.000431,0.000823
17482000,0.0324,0.013523,0.002678,0.000431,0.000823
17483000,0.0324,0.013523,0.002678,0.000431,0.000940
17484000,0.0324,0.013523,0.002678,0.000431,0.000940
17485000,0.0324,0.013523,0.002678,0.000431,0.000940
17486000,0.0324,0.013523,0.002678,0.000431,0.000823
17487000,0.0324,0.013523,0.002678,0.000431,0.000823
17488000,0.0324,0.013523,0.002678,0.000431,0.000940
17489000,0.0324,0.013523,0.002678,0.000431,0.000940
17490000,0.0324,0.013523,0.002678,0.000431,0.000823
17491000,0.0324,0.013523,0.002678,0.000431,0.000823
17492000,0.0324,0.013523,0.002678,0.000431,0.000940
17493000,0.0324,0.013523,0.002678,0.000431,0.000823
17494000,0.0324,0.013523,0.002678,0.000431,0.000940
17495000,0.0324,0.013523,0.002678,0.000431,0.000823
17496000,0.0324,0.013523,0.002678,0.000431,0.000940
17497000,0.0324,0.013523,0.002678,0.000431,0.000823
17498000,0.0324,0.013523,0.002678,0.000431,0.000823
17499000,0.0324,0.013523,0.002678,0.000431,0.000940
17500000,0.0324,0.013523,0.002678,0.000431,0.000940
17501000,0.0324,0.013523,0.002678,0.000431,0.000940
17502000,0.0324,0.013523,0.002678,0.000431,0.000705
17503000,0.0324,0.013523,0.002678,0.000431,0.000940
17504000,0.0324,0.013523,0.002678,0.000431,0.000940
17505000,0.0324,0.013523,0.002678,0.000431,0.000823
17506000,0.0324,0.013523,0.002678,0.000431,0.000823
17507000,0.0324,0.013523,0.002678,0.000431,0.000940
17508000,0.0324,0.013523,0.002678,0.000431,0.000823
17509000,0.0324,0.013523,0.002678,0.000431,0.000940
17510000,0.0324,0.013523,0.002678,0.000431,0.000823
17511000,0.0324,0.013523,0.002678,0.000431,0.000940
17512000,0.0324,0.013523,0.002678,0.000431,0.000823
17513000,0.0324,0.013523,0.002678,0.000431,0.076863
17514000,0.0324,0.013523,0.002678,0.000431,0.495264
17515000,0.0324,0.013523,0.002678,0.000431,0.543215
17516000,0.0324,0.013523,0.002678,0.000431,0.134452
17517000,0.0324,0.013523,0.002678,0.000431,0.131161
17518000,0.0324,0.013523,0.002678,0.000431,0.583410
17519000,0.0324,0.013523,0.002678,0.000431,0.261148
17520000,0.0324,0.013523,0.002678,0.000431,0.239287
17521000,0.0324,0.013523,0.002678,0.000431,0.310392
17522000,0.0324,0.013523,0.002678,0.000431,0.142679
17523000,0.0324,0.013523,0.002678,0.000431,0.143384
17524000,0.0324,0.013523,0.002678,0.000431,0.108243
17525000,0.0324,0.013523,0.002678,0.000431,0.386668
17526000,0.0324,0.013523,0.002678,0.000431,0.211198
17527000,0.0324,0.013523,0.002678,0.000431,0.058764
17528000,0.0324,0.013523,0.002678,0.000431,0.044778
17529000,0.0324,0.013523,0.002678,0.000431,0.033260
17530000,0.0324,0.013523,0.002678,0.000431,0.024446
17531000,0.0324,0.013523,0.002678,0.000431,0.019157
17532000,0.0324,0.013523,0.002678,0.000431,0.014809
17533000,0.0324,0.013523,0.002678,0.000431,0.014103
17534000,0.0324,0.013523,0.002678,0.000431,0.010813
17535000,0.0324,0.013523,0.002678,0.000431,0.011518
17536000,0.0324,0.013523,0.002678,0.000431,0.005054
17537000,0.0324,0.013523,0.002678,0.000431,0.004466
17538000,0.0324,0.013523,0.002678,0.000431,0.004936
17539000,0.0324,0.013523,0.002678,0.000431,0.003996
17540000,0.0324,0.013523,0.002678,0.000431,0.004584
17541000,0.0324,0.013523,0.002678,0.000431,0.004584
17542000,0.0324,0.013523,0.002678,0.000431,0.004701
17543000,0.0324,0.013523,0.002678,0.000431,0.004466
17544000,0.0324,0.013523,0.002678,0.000431,0.005759
17545000,0.0324,0.013523,0.002678,0.000431,0.003996
17546000,0.0324,0.013523,0.002678,0.000431,0.003761
17547000,0.0324,0.013523,0.002678,0.000431,0.003408
17548000,0.0324,0.013523,0.002678,0.000431,0.004231
17549000,0.0324,0.013523,0.002678,0.000431,0.003761
17550000,0.0324,0.013523,0.002678,0.000431,0.003056
17551000,0.0324,0.013523,0.002678,0.000431,0.002468
17552000,0.0324,0.013523,0.002678,0.000431,0.002586
17553000,0.0324,0.013523,0.002678,0.000431,0.002938
17554000,0.0324,0.013523,0.002678,0.000431,0.002586
17555000,0.0324,0.013523,0.002678,0.000431,0.002938
17556000,0.0324,0.013523,0.002678,0.000431,0.002468
17557000,0.0324,0.013523,0.002678,0.000431,0.003056
17558000,0.0324,0.013523,0.002678,0.000431,0.002468
17559000,0.0324,0.013523,0.002678,0.000431,0.002586
17560000,0.0324,0.013523,0.002678,0.000431,0.002938
17561000,0.0324,0.013523,0.002678,0.000431,0.004466
17562000,0.0324,0.013523,0.002678,0.000431,0.001880
17563000,0.0324,0.013523,0.002678,0.000431,0.001763
17564000,0.0324,0.013523,0.002678,0.000431,0.001998
17565000,0.0324,0.013523,0.002678,0.000431,0.001998
17566000,0.0324,0.013523,0.002678,0.000431,0.001528
17567000,0.0324,0.013523,0.002678,0.000431,0.001998
17568000,0.0324,0.013523,0.002678,0.000431,0.001880
17569000,0.0324,0.013523,0.002678,0.000431,0.001998
17570000,0.0324,0.013523,0.002678,0.000431,0.001645
17571000,0.0324,0.013523,0.002678,0.000431,0.001763
17572000,0.0324,0.013523,0.002678,0.000431,0.002116
17573000,0.0324,0.013523,0.002678,0.000431,0.001645
17574000,0.0324,0.013523,0.002678,0.000431,0.001998
17575000,0.0324,0.013523,0.002678,0.000431,0.001763
17576000,0.0324,0.013523,0.002678,0.000431,0.001763
17577000,0.0324,0.013523,0.002678,0.000431,0.001998
17578000,0.0324,0.013523,0.002678,0.000431,0.001645
17579000,0.0324,0.013523,0.002678,0.000431,0.002116
17580000,0.0324,0.013523,0.002678,0.000431,0.003761
17581000,0.0324,0.013523,0.002678,0.000431,0.000940
17582000,0.0324,0.013523,0.002678,0.000431,0.001058
17583000,0.0324,0.013523,0.002678,0.000431,0.000940
17584000,0.0324,0.013523,0.002678,0.000431,0.001058
17585000,0.0324,0.013523,0.002678,0.000431,0.000823
17586000,0.0324,0.013523,0.002678,0.000431,0.001175
17587000,0.0324,0.013523,0.002678,0.000431,0.000940
17588000,0.0324,0.013523,0.002678,0.000431,0.000705
17589000,0.0324,0.013523,0.002678,0.000431,0.001175
17590000,0.0324,0.013523,0.002678,0.000431,0.000940
17591000,0.0324,0.013523,0.002678,0.000431,0.001175
17592000,0.0324,0.013523,0.002678,0.000431,0.000823
17593000,0.0324,0.013523,0.002678,0.000431,0.000940
17594000,0.0324,0.013523,0.002678,0.000431,0.001058
17595000,0.0324,0.013523,0.002678,0.000431,0.000823
17596000,0.0324,0.013523,0.002678,0.000431,0.001175
17597000,0.0324,0.013523,0.002678,0.000431,0.000823
17598000,0.0324,0.013523,0.002678,0.000431,0.001175
17599000,0.0324,0.013523,0.002678,0.000431,0.000823
17600000,0.0324,0.013523,0.002678,0.000431,0.001645
17601000,0.0324,0.013523,0.002678,0.000431,0.369509
17602000,0.0324,0.013523,0.002678,0.000431,0.698117
17603000,0.0324,0.013523,0.002678,0.000431,0.139036
17604000,0.0324,0.013523,0.002678,0.000431,0.133982
17605000,0.0324,0.013523,0.002678,0.000431,0.170886
17606000,0.0324,0.013523,0.002678,0.000431,0.583175
17607000,0.0324,0.013523,0.002678,0.000431,0.282185
17608000,0.0324,0.013523,0.002678,0.000431,0.300520
17609000,0.0324,0.013523,0.002678,0.000431,0.209200
17610000,0.0324,0.013523,0.002678,0.000431,0.143267
17611000,0.0324,0.013523,0.002678,0.000431,0.129281
17612000,0.0324,0.013523,0.002678,0.000431,0.246104
17613000,0.0324,0.013523,0.002678,0.000431,0.354465
17614000,0.0324,0.013523,0.002678,0.000431,0.051477
17615000,0.0324,0.013523,0.002678,0.000431,0.039254
17616000,0.0324,0.013523,0.002678,0.000431,0.025269
17617000,0.0324,0.013523,0.002678,0.000431,0.021508
17618000,0.0324,0.013523,0.002678,0.000431,0.020097
17619000,0.0324,0.013523,0.002678,0.000431,0.014338
17620000,0.0324,0.013523,0.002678,0.000431,0.016689
17621000,0.0324,0.013523,0.002678,0.000431,0.011518
17622000,0.0324,0.013523,0.002678,0.000431,0.004466
17623000,0.0324,0.013523,0.002678,0.000431,0.004349
17624000,0.0324,0.013523,0.002678,0.000431,0.004349
17625000,0.0324,0.013523,0.002678,0.000431,0.004584
17626000,0.0324,0.013523,0.002678,0.000431,0.005641
17627000,0.0324,0.013523,0.002678,0.000431,0.003643
17628000,0.0324,0.013523,0.002678,0.000431,0.004819
17629000,0.0324,0.013523,0.002678,0.000431,0.002703
17630000,0.0324,0.013523,0.002678,0.000431,0.002468
17631000,0.0324,0.013523,0.002678,0.000431,0.002703
17632000,0.0324,0.013523,0.002678,0.000431,0.002703
17633000,0.0324,0.013523,0.002678,0.000431,0.002703
17634000,0.0324,0.013523,0.002678,0.000431,0.002468
17635000,0.0324,0.013523,0.002678,0.000431,0.002703
17636000,0.0324,0.013523,0.002678,0.000431,0.002586
17637000,0.0324,0.013523,0.002678,0.000431,0.002586
17638000,0.0324,0.013523,0.002678,0.000431,0.002703
17639000,0.0324,0.013523,0.002678,0.000431,0.002703
17640000,0.0324,0.013523,0.002678,0.000431,0.002586
17641000,0.0324,0.013523,0.002678,0.000431,0.002703
17642000,0.0324,0.013523,0.002678,0.000431,0.002703
17643000,0.0324,0.013523,0.002678,0.000431,0.002468
17644000,0.0324,0.013523,0.002678,0.000431,0.003408
17645000,0.0324,0.013523,0.002678,0.000431,0.002821
17646000,0.0324,0.013523,0.002678,0.000431,0.001763
17647000,0.0324,0.013523,0.002678,0.000431,0.001763
17648000,0.0324,0.013523,0.002678,0.000431,0.001645
17649000,0.0324,0.013523,0.002678,0.000431,0.001763
17650000,0.0324,0.013523,0.002678,0.000431,0.001763
17651000,0.0324,0.013523,0.002678,0.000431,0.001880
17652000,0.0324,0.013523,0.002678,0.000431,0.001763
17653000,0.0324,0.013523,0.002678,0.000431,0.001645
17654000,0.0324,0.013523,0.002678,0.000431,0.001880
17655000,0.0324,0.013523,0.002678,0.000431,0.001645
17656000,0.0324,0.013523,0.002678,0.000431,0.001763
17657000,0.0324,0.013523,0.002678,0.000431,0.001763
17658000,0.0324,0.013523,0.002678,0.000431,0.001880
17659000,0.0324,0.013523,0.002678,0.000431,0.001645
17660000,0.0324,0.013523,0.002678,0.000431,0.001763
17661000,0.0324,0.013523,0.002678,0.000431,0.001763
17662000,0.0324,0.013523,0.002678,0.000431,0.001763
17663000,0.0324,0.013523,0.002678,0.000431,0.001645
17664000,0.0324,0.013523,0.002678,0.000431,0.001880
17665000,0.0324,0.013523,0.002678,0.000431,0.001645
17666000,0.0324,0.013523,0.002678,0.000431,0.003173
17667000,0.0324,0.013523,0.002678,0.000431,0.000823
17668000,0.0324,0.013523,0.002678,0.000431,0.000940
17669000,0.0324,0.013523,0.002678,0.000431,0.000823
17670000,0.0324,0.013523,0.002678,0.000431,0.000823
17671000,0.0324,0.013523,0.002678,0.000431,0.000940
17672000,0.0324,0.013523,0.002678,0.000431,0.000940
17673000,0.0324,0.013523,0.002678,0.000431,0.000823
17674000,0.0324,0.013523,0.002678,0.000431,0.000823
17675000,0.0324,0.013523,0.002678,0.000431,0.000940
17676000,0.0324,0.013523,0.002678,0.000431,0.000940
17677000,0.0324,0.013523,0.002678,0.000431,0.000705
17678000,0.0324,0.013523,0.002678,0.000431,0.000940
17679000,0.0324,0.013523,0.002678,0.000431,0.000940
17680000,0.0324,0.013523,0.002678,0.000431,0.000940
17681000,0.0324,0.013523,0.002678,0.000431,0.000823
17682000,0.0324,0.013523,0.002678,0.000431,0.000823
17683000,0.0324,0.013523,0.002678,0.000431,0.000940
17684000,0.0324,0.013523,0.002678,0.000431,0.000823
17685000,0.0324,0.013523,0.002678,0.000431,0.000940
17686000,0.0324,0.013523,0.002678,0.000431,0.000823
17687000,0.0324,0.013523,0.002678,0.000431,0.000940
17688000,0.0324,0.013523,0.002678,0.000431,0.000823
17689000,0.0324,0.013523,0.002678,0.000431,0.000823
17690000,0.0324,0.013523,0.002678,0.000431,0.000940
17691000,0.0324,0.013523,0.002678,0.000431,0.000940
17692000,0.0324,0.013523,0.002678,0.000431,0.000823
17693000,0.0324,0.013523,0.002678,0.000431,0.000823
17694000,0.0324,0.013523,0.002678,0.000431,0.000940
17695000,0.0324,0.013523,0.002678,0.000431,0.000940
17696000,0.0324,0.013523,0.002678,0.000431,0.000705
17697000,0.0324,0.013523,0.002678,0.000431,0.000940
17698000,0.0324,0.013523,0.002678,0.000431,0.000940
17699000,0.0324,0.013523,0.002678,0.000431,0.000940
17700000,0.0324,0.013523,0.002678,0.000431,0.000705
17701000,0.0324,0.013523,0.002678,0.000431,0.000940
17702000,0.0324,0.013523,0.002678,0.000431,0.000940
17703000,0.0324,0.013523,0.002678,0.000431,0.000823
17704000,0.0324,0.013523,0.002678,0.000431,0.000823
17705000,0.0324,0.013523,0.002678,0.000431,0.000940
17706000,0.0324,0.013523,0.002678,0.000431,0.000940
17707000,0.0324,0.013523,0.002678,0.000431,0.000940
17708000,0.0324,0.013523,0.002678,0.000431,0.225772
17709000,0.0324,0.013523,0.002678,0.000431,0.627365
17710000,0.0324,0.013523,0.002678,0.000431,0.319559
17711000,0.0324,0.013523,0.002678,0.000431,0.132572
17712000,0.0324,0.013523,0.002678,0.000431,0.132924
17713000,0.0324,0.013523,0.002678,0.000431,0.595280
17714000,0.0324,0.013523,0.002678,0.000431,0.235174
17715000,0.0324,0.013523,0.002678,0.000431,0.273371
17716000,0.0324,0.013523,0.002678,0.000431,0.267259
17717000,0.0324,0.013523,0.002678,0.000431,0.138566
17718000,0.0324,0.013523,0.002678,0.000431,0.169711
17719000,0.0324,0.013523,0.002678,0.000431,0.105423
17720000,0.0324,0.013523,0.002678,0.000431,0.466939
17721000,0.0324,0.013523,0.002678,0.000431,0.103895
17722000,0.0324,0.013523,0.002678,0.000431,0.041840
17723000,0.0324,0.013523,0.002678,0.000431,0.034436
17724000,0.0324,0.013523,0.002678,0.000431,0.026561
17725000,0.0324,0.013523,0.002678,0.000431,0.026209
17726000,0.0324,0.013523,0.002678,0.000431,0.014338
17727000,0.0324,0.013523,0.002678,0.000431,0.015279
17728000,0.0324,0.013523,0.002678,0.000431,0.012928
17729000,0.0324,0.013523,0.002678,0.000431,0.010107
17730000,0.0324,0.013523,0.002678,0.000431,0.005054
17731000,0.0324,0.013523,0.002678,0.000431,0.004936
17732000,0.0324,0.013523,0.002678,0.000431,0.005054
17733000,0.0324,0.013523,0.002678,0.000431,0.004466
17734000,0.0324,0.013523,0.002678,0.000431,0.001763
17735000,0.0324,0.013523,0.002678,0.000431,0.003173
17736000,0.0324,0.013523,0.002678,0.000431,0.017042
17737000,0.0324,0.013523,0.002678,0.000431,0.519357
17738000,0.0324,0.013523,0.002678,0.000431,0.586583
17739000,0.0324,0.013523,0.002678,0.000431,0.132572
17740000,0.0324,0.013523,0.002678,0.000431,0.133042
17741000,0.0324,0.013523,0.002678,0.000431,0.548504
17742000,0.0324,0.013523,0.002678,0.000431,0.233411
17743000,0.0324,0.013523,0.002678,0.000431,0.272783
17744000,0.0324,0.013523,0.002678,0.000431,0.348118
17745000,0.0324,0.013523,0.002678,0.000431,0.139506
17746000,0.0324,0.013523,0.002678,0.000431,0.183932
17747000,0.0324,0.013523,0.002678,0.000431,0.084503
17748000,0.0324,0.013523,0.002678,0.000431,0.515244
17749000,0.0324,0.013523,0.002678,0.000431,0.098841
17750000,0.0324,0.013523,0.002678,0.000431,0.054768
17751000,0.0324,0.013523,0.002678,0.000431,0.037491
17752000,0.0324,0.013523,0.002678,0.000431,0.032673
17753000,0.0324,0.013523,0.002678,0.000431,0.019275
17754000,0.0324,0.013523,0.002678,0.000431,0.009990
17755000,0.0324,0.013523,0.002678,0.000431,0.013516
17756000,0.0324,0.013523,0.002678,0.000431,0.011518
17757000,0.0324,0.013523,0.002678,0.000431,0.007287
17758000,0.0324,0.013523,0.002678,0.000431,0.008109
17759000,0.0324,0.013523,0.002678,0.000431,0.007874
17760000,0.0324,0.013523,0.002678,0.000431,0.009520
17761000,0.0324,0.013523,0.002678,0.000431,0.009520
17762000,0.0324,0.013523,0.002678,0.000431,0.005759
17763000,0.0324,0.013523,0.002678,0.000431,0.006347
17764000,0.0324,0.013523,0.002678,0.000431,0.008932
17765000,0.0324,0.013523,0.002678,0.000431,0.004349
17766000,0.0324,0.013523,0.002678,0.000431,0.004349
17767000,0.0324,0.013523,0.002678,0.000431,0.004113
17768000,0.0324,0.013523,0.002678,0.000431,0.004466
17769000,0.0324,0.013523,0.002678,0.000431,0.004113
17770000,0.0324,0.013523,0.002678,0.000431,0.004466
17771000,0.0324,0.013523,0.002678,0.000431,0.003878
17772000,0.0324,0.013523,0.002678,0.000431,0.004466
17773000,0.0324,0.013523,0.002678,0.000431,0.004466
17774000,0.0324,0.013523,0.002678,0.000431,0.004349
17775000,0.0324,0.013523,0.002678,0.000431,0.004113
17776000,0.0324,0.013523,0.002678,0.000431,0.004466
17777000,0.0324,0.013523,0.002678,0.000431,0.005406
17778000,0.0324,0.013523,0.002678,0.000431,0.003408
17779000,0.0324,0.013523,0.002678,0.000431,0.003643
17780000,0.0324,0.013523,0.002678,0.000431,0.003173
17781000,0.0324,0.013523,0.002678,0.000431,0.003643
17782000,0.0324,0.013523,0.002678,0.000431,0.003173
17783000,0.0324,0.013523,0.002678,0.000431,0.003526
17784000,0.0324,0.013523,0.002678,0.000431,0.003643
17785000,0.0324,0.013523,0.002678,0.000431,0.004466
17786000,0.0324,0.013523,0.002678,0.000431,0.002703
17787000,0.0324,0.013523,0.002678,0.000431,0.002468
17788000,0.0324,0.013523,0.002678,0.000431,0.002586
17789000,0.0324,0.013523,0.002678,0.000431,0.002821
17790000,0.0324,0.013523,0.002678,0.000431,0.002468
17791000,0.0324,0.013523,0.002678,0.000431,0.003408
17792000,0.0324,0.013523,0.002678,0.000431,0.002703
17793000,0.0324,0.013523,0.002678,0.000431,0.001763
17794000,0.0324,0.013523,0.002678,0.000431,0.001763
17795000,0.0324,0.013523,0.002678,0.000431,0.001645
17796000,0.0324,0.013523,0.002678,0.000431,0.001763
17797000,0.0324,0.013523,0.002678,0.000431,0.001645
17798000,0.0324,0.013523,0.002678,0.000431,0.003761
17799000,0.0324,0.013523,0.002678,0.000431,0.000705
17800000,0.0324,0.013523,0.002678,0.000431,0.000940
17801000,0.0324,0.013523,0.002678,0.000431,0.000705
17802000,0.0324,0.013523,0.002678,0.000431,0.000940
17803000,0.0324,0.013523,0.002678,0.000431,0.000823
17804000,0.0324,0.013523,0.002678,0.000431,0.000823
17805000,0.0324,0.013523,0.002678,0.000431,0.000823
17806000,0.0324,0.013523,0.002678,0.000431,0.000823
17807000,0.0324,0.013523,0.002678,0.000431,0.000940
17808000,0.0324,0.013523,0.002678,0.000431,0.000705
17809000,0.0324,0.013523,0.002678,0.000431,0.000940
17810000,0.0324,0.013523,0.002678,0.000431,0.000705
17811000,0.0324,0.013523,0.002678,0.000431,0.000940
17812000,0.0324,0.013523,0.002678,0.000431,0.000823
17813000,0.0324,0.013523,0.002678,0.000431,0.000823
17814000,0.0324,0.013523,0.002678,0.000431,0.000940
17815000,0.0324,0.013523,0.002678,0.000431,0.000705
17816000,0.0324,0.013523,0.002678,0.000431,0.000940
17817000,0.0324,0.013523,0.002678,0.000431,0.000823
17818000,0.0324,0.013523,0.002678,0.000431,0.000823
17819000,0.0324,0.013523,0.002678,0.000431,0.000823
17820000,0.0324,0.013523,0.002678,0.000431,0.000823
17821000,0.0324,0.013523,0.002678,0.000431,0.000940
17822000,0.0324,0.013523,0.002678,0.000431,0.000940
17823000,0.0324,0.013523,0.002678,0.000431,0.000940
17824000,0.0324,0.013523,0.002678,0.000431,0.000823
17825000,0.0324,0.013523,0.002678,0.000431,0.000940
17826000,0.0324,0.013523,0.002678,0.000431,0.000823
17827000,0.0324,0.013523,0.002678,0.000431,0.000940
17828000,0.0324,0.013523,0.002678,0.000431,0.000823
17829000,0.0324,0.013523,0.002678,0.000431,0.000823
17830000,0.0324,0.013523,0.002678,0.000431,0.000940
17831000,0.0324,0.013523,0.002678,0.000431,0.000940
17832000,0.0324,0.013523,0.002678,0.000431,0.000823
17833000,0.0324,0.013523,0.002678,0.000431,0.000823
17834000,0.0324,0.013523,0.002678,0.000431,0.000940
17835000,0.0324,0.013523,0.002678,0.000431,0.000940
17836000,0.0324,0.013523,0.002678,0.000431,0.000705
17837000,0.0324,0.013523,0.002678,0.000431,0.000940
17838000,0.0324,0.013523,0.002678,0.000431,0.000940
17839000,0.0324,0.013523,0.002678,0.000431,0.000940
17840000,0.0324,0.013523,0.002678,0.000431,0.000705
17841000,0.0324,0.013523,0.002678,0.000431,0.000940
17842000,0.0324,0.013523,0.002678,0.000431,0.000940
17843000,0.0324,0.013523,0.002678,0.000431,0.000823
17844000,0.0324,0.013523,0.002678,0.000431,0.000823
17845000,0.0324,0.013523,0.002678,0.000431,0.000940
17846000,0.0324,0.013523,0.002678,0.000431,0.000940
17847000,0.0324,0.013523,0.002678,0.000431,0.000823
17848000,0.0324,0.013523,0.002678,0.000431,0.000823
17849000,0.0324,0.013523,0.002678,0.000431,0.212844
17850000,0.0324,0.013523,0.002678,0.000431,0.531580
17851000,0.0324,0.013523,0.002678,0.000431,0.477987
17852000,0.0324,0.013523,0.002678,0.000431,0.132572
17853000,0.0324,0.013523,0.002678,0.000431,0.133982
17854000,0.0324,0.013523,0.002678,0.000431,0.561080
17855000,0.0324,0.013523,0.002678,0.000431,0.227770
17856000,0.0324,0.013523,0.002678,0.000431,0.285829
17857000,0.0324,0.013523,0.002678,0.000431,0.246809
17858000,0.0324,0.013523,0.002678,0.000431,0.139506
17859000,0.0324,0.013523,0.002678,0.000431,0.171709
17860000,0.0324,0.013523,0.002678,0.000431,0.162189
17861000,0.0324,0.013523,0.002678,0.000431,0.429213
17862000,0.0324,0.013523,0.002678,0.000431,0.054063
17863000,0.0324,0.013523,0.002678,0.000431,0.043250
17864000,0.0324,0.013523,0.002678,0.000431,0.032908
17865000,0.0324,0.013523,0.002678,0.000431,0.024681
17866000,0.0324,0.013523,0.002678,0.000431,0.019510
17867000,0.0324,0.013523,0.002678,0.000431,0.016219
17868000,0.0324,0.013523,0.002678,0.000431,0.013986
17869000,0.0324,0.013523,0.002678,0.000431,0.012458
17870000,0.0324,0.013523,0.002678,0.000431,0.011870
17871000,0.0324,0.013523,0.002678,0.000431,0.006699
17872000,0.0324,0.013523,0.002678,0.000431,0.008580
17873000,0.0324,0.013523,0.002678,0.000431,0.005876
17874000,0.0324,0.013523,0.002678,0.000431,0.005876
17875000,0.0324,0.013523,0.002678,0.000431,0.007639
17876000,0.0324,0.013523,0.002678,0.000431,0.007287
17877000,0.0324,0.013523,0.002678,0.000431,0.004349
17878000,0.0324,0.013523,0.002678,0.000431,0.003878
17879000,0.0324,0.013523,0.002678,0.000431,0.004466
17880000,0.0324,0.013523,0.002678,0.000431,0.004231
17881000,0.0324,0.013523,0.002678,0.000431,0.004349
17882000,0.0324,0.013523,0.002678,0.000431,0.003996
17883000,0.0324,0.013523,0.002678,0.000431,0.004113
17884000,0.0324,0.013523,0.002678,0.000431,0.004231
17885000,0.0324,0.013523,0.002678,0.000431,0.004466
17886000,0.0324,0.013523,0.002678,0.000431,0.003878
17887000,0.0324,0.013523,0.002678,0.000431,0.004231
17888000,0.0324,0.013523,0.002678,0.000431,0.004466
17889000,0.0324,0.013523,0.002678,0.000431,0.003761
17890000,0.0324,0.013523,0.002678,0.000431,0.004349
17891000,0.0324,0.013523,0.002678,0.000431,0.004231
17892000,0.0324,0.013523,0.002678,0.000431,0.004349
17893000,0.0324,0.013523,0.002678,0.000431,0.005406
17894000,0.0324,0.013523,0.002678,0.000431,0.003291
17895000,0.0324,0.013523,0.002678,0.000431,0.003761
17896000,0.0324,0.013523,0.002678,0.000431,0.003291
17897000,0.0324,0.013523,0.002678,0.000431,0.003056
17898000,0.0324,0.013523,0.002678,0.000431,0.003526
17899000,0.0324,0.013523,0.002678,0.000431,0.003526
17900000,0.0324,0.013523,0.002678,0.000431,0.003291
17901000,0.0324,0.013523,0.002678,0.000431,0.003056
17902000,0.0324,0.013523,0.002678,0.000431,0.003761
17903000,0.0324,0.013523,0.002678,0.000431,0.003291
17904000,0.0324,0.013523,0.002678,0.000431,0.003291
17905000,0.0324,0.013523,0.002678,0.000431,0.003408
17906000,0.0324,0.013523,0.002678,0.000431,0.003408
17907000,0.0324,0.013523,0.002678,0.000431,0.003291
17908000,0.0324,0.013523,0.002678,0.000431,0.003173
17909000,0.0324,0.013523,0.002678,0.000431,0.003408
17910000,0.0324,0.013523,0.002678,0.000431,0.004231
17911000,0.0324,0.013523,0.002678,0.000431,0.002938
17912000,0.0324,0.013523,0.002678,0.000431,0.001528
17913000,0.0324,0.013523,0.002678,0.000431,0.001880
17914000,0.0324,0.013523,0.002678,0.000431,0.001645
17915000,0.0324,0.013523,0.002678,0.000431,0.001763
17916000,0.0324,0.013523,0.002678,0.000431,0.001763
17917000,0.0324,0.013523,0.002678,0.000431,0.001645
17918000,0.0324,0.013523,0.002678,0.000431,0.001880
17919000,0.0324,0.013523,0.002678,0.000431,0.001410
17920000,0.0324,0.013523,0.002678,0.000431,0.001880
17921000,0.0324,0.013523,0.002678,0.000431,0.001763
17922000,0.0324,0.013523,0.002678,0.000431,0.001763
17923000,0.0324,0.013523,0.002678,0.000431,0.001528
17924000,0.0324,0.013523,0.002678,0.000431,0.001763
17925000,0.0324,0.013523,0.002678,0.000431,0.001763
17926000,0.0324,0.013523,0.002678,0.000431,0.001645
17927000,0.0324,0.013523,0.002678,0.000431,0.002586
17928000,0.0324,0.013523,0.002678,0.000431,0.104718
17929000,0.0324,0.013523,0.002678,0.000431,0.507839
17930000,0.0324,0.013523,0.002678,0.000431,0.526996
17931000,0.0324,0.013523,0.002678,0.000431,0.134452
17932000,0.0324,0.013523,0.002678,0.000431,0.132572
17933000,0.0324,0.013523,0.002678,0.000431,0.568131
17934000,0.0324,0.013523,0.002678,0.000431,0.264673
17935000,0.0324,0.013523,0.002678,0.000431,0.245869
17936000,0.0324,0.013523,0.002678,0.000431,0.297346
17937000,0.0324,0.013523,0.002678,0.000431,0.141974
17938000,0.0324,0.013523,0.002678,0.000431,0.154902
17939000,0.0324,0.013523,0.002678,0.000431,0.104247
17940000,0.0324,0.013523,0.002678,0.000431,0.424394
17941000,0.0324,0.013523,0.002678,0.000431,0.141269
17942000,0.0324,0.013523,0.002678,0.000431,0.029852
17943000,0.0324,0.013523,0.002678,0.000431,0.025386
17944000,0.0324,0.013523,0.002678,0.000431,0.019862
17945000,0.0324,0.013523,0.002678,0.000431,0.017982
17946000,0.0324,0.013523,0.002678,0.000431,0.023623
17947000,0.0324,0.013523,0.002678,0.000431,0.014103
17948000,0.0324,0.013523,0.002678,0.000431,0.008932
17949000,0.0324,0.013523,0.002678,0.000431,0.009637
17950000,0.0324,0.013523,0.002678,0.000431,0.007522
17951000,0.0324,0.013523,0.002678,0.000431,0.009050
17952000,0.0324,0.013523,0.002678,0.000431,0.005994
17953000,0.0324,0.013523,0.002678,0.000431,0.005524
17954000,0.0324,0.013523,0.002678,0.000431,0.008227
17955000,0.0324,0.013523,0.002678,0.000431,0.006464
17956000,0.0324,0.013523,0.002678,0.000431,0.002351
17957000,0.0324,0.013523,0.002678,0.000431,0.002468
17958000,0.0324,0.013523,0.002678,0.000431,0.002468
17959000,0.0324,0.013523,0.002678,0.000431,0.002233
17960000,0.0324,0.013523,0.002678,0.000431,0.002468
17961000,0.0324,0.013523,0.002678,0.000431,0.002233
17962000,0.0324,0.013523,0.002678,0.000431,0.003643
17963000,0.0324,0.013523,0.002678,0.000431,0.001880
17964000,0.0324,0.013523,0.002678,0.000431,0.001175
17965000,0.0324,0.013523,0.002678,0.000431,0.001528
17966000,0.0324,0.013523,0.002678,0.000431,0.001763
17967000,0.0324,0.013523,0.002678,0.000431,0.001880
17968000,0.0324,0.013523,0.002678,0.000431,0.001410
17969000,0.0324,0.013523,0.002678,0.000431,0.014573
17970000,0.0324,0.013523,0.002678,0.000431,0.481043
17971000,0.0324,0.013523,0.002678,0.000431,0.590109
17972000,0.0324,0.013523,0.002678,0.000431,0.132572
17973000,0.0324,0.013523,0.002678,0.000431,0.132572
17974000,0.0324,0.013523,0.002678,0.000431,0.450486
17975000,0.0324,0.013523,0.002678,0.000431,0.335425
17976000,0.0324,0.013523,0.002678,0.000431,0.266789
17977000,0.0324,0.013523,0.002678,0.000431,0.325200
17978000,0.0324,0.013523,0.002678,0.000431,0.157605
17979000,0.0324,0.013523,0.002678,0.000431,0.146205
17980000,0.0324,0.013523,0.002678,0.000431,0.115060
17981000,0.0324,0.013523,0.002678,0.000431,0.326611
17982000,0.0324,0.013523,0.002678,0.000431,0.277954
17983000,0.0324,0.013523,0.002678,0.000431,0.049244
17984000,0.0324,0.013523,0.002678,0.000431,0.034788
17985000,0.0324,0.013523,0.002678,0.000431,0.031498
17986000,0.0324,0.013523,0.002678,0.000431,0.028677
17987000,0.0324,0.013523,0.002678,0.000431,0.019510
17988000,0.0324,0.013523,0.002678,0.000431,0.022330
17989000,0.0324,0.013523,0.002678,0.000431,0.013868
17990000,0.0324,0.013523,0.002678,0.000431,0.013516
17991000,0.0324,0.013523,0.002678,0.000431,0.012223
17992000,0.0324,0.013523,0.002678,0.000431,0.010225
17993000,0.0324,0.013523,0.002678,0.000431,0.009990
17994000,0.0324,0.013523,0.002678,0.000431,0.008227
17995000,0.0324,0.013523,0.002678,0.000431,0.008345
17996000,0.0324,0.013523,0.002678,0.000431,0.006934
17997000,0.0324,0.013523,0.002678,0.000431,0.006582
17998000,0.0324,0.013523,0.002678,0.000431,0.007169
17999000,0.0324,0.013523,0.002678,0.000431,0.006699
