Cycle,Area(mm^2),PeakDynamic(W),SubthresholdLeakage(W),GateLeakage(W),RunTimeDynamic(W)
25000000,0.0324,0.013523,0.002678,0.000431,0.000940
25001000,0.0324,0.013523,0.002678,0.000431,0.000705
25002000,0.0324,0.013523,0.002678,0.000431,0.000940
25003000,0.0324,0.013523,0.002678,0.000431,0.000940
25004000,0.0324,0.013523,0.002678,0.000431,0.000705
25005000,0.0324,0.013523,0.002678,0.000431,0.000940
25006000,0.0324,0.013523,0.002678,0.000431,0.000705
25007000,0.0324,0.013523,0.002678,0.000431,0.000940
25008000,0.0324,0.013523,0.002678,0.000431,0.000823
25009000,0.0324,0.013523,0.002678,0.000431,0.000823
25010000,0.0324,0.013523,0.002678,0.000431,0.000823
25011000,0.0324,0.013523,0.002678,0.000431,0.000823
25012000,0.0324,0.013523,0.002678,0.000431,0.000940
25013000,0.0324,0.013523,0.002678,0.000431,0.000705
25014000,0.0324,0.013523,0.002678,0.000431,0.000940
25015000,0.0324,0.013523,0.002678,0.000431,0.000823
25016000,0.0324,0.013523,0.002678,0.000431,0.000823
25017000,0.0324,0.013523,0.002678,0.000431,0.000823
25018000,0.0324,0.013523,0.002678,0.000431,0.000823
25019000,0.0324,0.013523,0.002678,0.000431,0.000823
25020000,0.0324,0.013523,0.002678,0.000431,0.000823
25021000,0.0324,0.013523,0.002678,0.000431,0.000823
25022000,0.0324,0.013523,0.002678,0.000431,0.000940
25023000,0.0324,0.013523,0.002678,0.000431,0.000823
25024000,0.0324,0.013523,0.002678,0.000431,0.000823
25025000,0.0324,0.013523,0.002678,0.000431,0.000823
25026000,0.0324,0.013523,0.002678,0.000431,0.000705
25027000,0.0324,0.013523,0.002678,0.000431,0.000940
25028000,0.0324,0.013523,0.002678,0.000431,0.000940
25029000,0.0324,0.013523,0.002678,0.000431,0.000705
25030000,0.0324,0.013523,0.002678,0.000431,0.000940
25031000,0.0324,0.013523,0.002678,0.000431,0.000705
25032000,0.0324,0.013523,0.002678,0.000431,0.000940
25033000,0.0324,0.013523,0.002678,0.000431,0.000823
25034000,0.0324,0.013523,0.002678,0.000431,0.000823
25035000,0.0324,0.013523,0.002678,0.000431,0.000940
25036000,0.0324,0.013523,0.002678,0.000431,0.000705
25037000,0.0324,0.013523,0.002678,0.000431,0.188280
25038000,0.0324,0.013523,0.002678,0.000431,0.435324
25039000,0.0324,0.013523,0.002678,0.000431,0.513011
25040000,0.0324,0.013523,0.002678,0.000431,0.133865
25041000,0.0324,0.013523,0.002678,0.000431,0.132102
25042000,0.0324,0.013523,0.002678,0.000431,0.547094
25043000,0.0324,0.013523,0.002678,0.000431,0.252451
25044000,0.0324,0.013523,0.002678,0.000431,0.223304
25045000,0.0324,0.013523,0.002678,0.000431,0.326493
25046000,0.0324,0.013523,0.002678,0.000431,0.144677
25047000,0.0324,0.013523,0.002678,0.000431,0.142327
25048000,0.0324,0.013523,0.002678,0.000431,0.126930
25049000,0.0324,0.013523,0.002678,0.000431,0.270197
25050000,0.0324,0.013523,0.002678,0.000431,0.324378
25051000,0.0324,0.013523,0.002678,0.000431,0.040547
25052000,0.0324,0.013523,0.002678,0.000431,0.025151
25053000,0.0324,0.013523,0.002678,0.000431,0.019745
25054000,0.0324,0.013523,0.002678,0.000431,0.016924
25055000,0.0324,0.013523,0.002678,0.000431,0.010930
25056000,0.0324,0.013523,0.002678,0.000431,0.010460
25057000,0.0324,0.013523,0.002678,0.000431,0.007404
25058000,0.0324,0.013523,0.002678,0.000431,0.011400
25059000,0.0324,0.013523,0.002678,0.000431,0.005171
25060000,0.0324,0.013523,0.002678,0.000431,0.005171
25061000,0.0324,0.013523,0.002678,0.000431,0.005171
25062000,0.0324,0.013523,0.002678,0.000431,0.005171
25063000,0.0324,0.013523,0.002678,0.000431,0.005054
25064000,0.0324,0.013523,0.002678,0.000431,0.005054
25065000,0.0324,0.013523,0.002678,0.000431,0.005289
25066000,0.0324,0.013523,0.002678,0.000431,0.004936
25067000,0.0324,0.013523,0.002678,0.000431,0.006347
25068000,0.0324,0.013523,0.002678,0.000431,0.004466
25069000,0.0324,0.013523,0.002678,0.000431,0.003996
25070000,0.0324,0.013523,0.002678,0.000431,0.003526
25071000,0.0324,0.013523,0.002678,0.000431,0.003408
25072000,0.0324,0.013523,0.002678,0.000431,0.004349
25073000,0.0324,0.013523,0.002678,0.000431,0.003408
25074000,0.0324,0.013523,0.002678,0.000431,0.002821
25075000,0.0324,0.013523,0.002678,0.000431,0.002468
25076000,0.0324,0.013523,0.002678,0.000431,0.002703
25077000,0.0324,0.013523,0.002678,0.000431,0.002586
25078000,0.0324,0.013523,0.002678,0.000431,0.002703
25079000,0.0324,0.013523,0.002678,0.000431,0.002586
25080000,0.0324,0.013523,0.002678,0.000431,0.002703
25081000,0.0324,0.013523,0.002678,0.000431,0.002586
25082000,0.0324,0.013523,0.002678,0.000431,0.002586
25083000,0.0324,0.013523,0.002678,0.000431,0.002703
25084000,0.0324,0.013523,0.002678,0.000431,0.002703
25085000,0.0324,0.013523,0.002678,0.000431,0.002468
25086000,0.0324,0.013523,0.002678,0.000431,0.002703
25087000,0.0324,0.013523,0.002678,0.000431,0.002586
25088000,0.0324,0.013523,0.002678,0.000431,0.002703
25089000,0.0324,0.013523,0.002678,0.000431,0.002468
25090000,0.0324,0.013523,0.002678,0.000431,0.002703
25091000,0.0324,0.013523,0.002678,0.000431,0.002703
25092000,0.0324,0.013523,0.002678,0.000431,0.002703
25093000,0.0324,0.013523,0.002678,0.000431,0.002586
25094000,0.0324,0.013523,0.002678,0.000431,0.002586
25095000,0.0324,0.013523,0.002678,0.000431,0.002703
25096000,0.0324,0.013523,0.002678,0.000431,0.002703
25097000,0.0324,0.013523,0.002678,0.000431,0.002586
25098000,0.0324,0.013523,0.002678,0.000431,0.002468
25099000,0.0324,0.013523,0.002678,0.000431,0.002821
25100000,0.0324,0.013523,0.002678,0.000431,0.002586
25101000,0.0324,0.013523,0.002678,0.000431,0.002703
25102000,0.0324,0.013523,0.002678,0.000431,0.002468
25103000,0.0324,0.013523,0.002678,0.000431,0.002703
25104000,0.0324,0.013523,0.002678,0.000431,0.002586
25105000,0.0324,0.013523,0.002678,0.000431,0.002703
25106000,0.0324,0.013523,0.002678,0.000431,0.002586
25107000,0.0324,0.013523,0.002678,0.000431,0.002703
25108000,0.0324,0.013523,0.002678,0.000431,0.002468
25109000,0.0324,0.013523,0.002678,0.000431,0.002703
25110000,0.0324,0.013523,0.002678,0.000431,0.002586
25111000,0.0324,0.013523,0.002678,0.000431,0.002821
25112000,0.0324,0.013523,0.002678,0.000431,0.002468
25113000,0.0324,0.013523,0.002678,0.000431,0.002703
25114000,0.0324,0.013523,0.002678,0.000431,0.003878
25115000,0.0324,0.013523,0.002678,0.000431,0.001880
25116000,0.0324,0.013523,0.002678,0.000431,0.001763
25117000,0.0324,0.013523,0.002678,0.000431,0.001645
25118000,0.0324,0.013523,0.002678,0.000431,0.001763
25119000,0.0324,0.013523,0.002678,0.000431,0.001880
25120000,0.0324,0.013523,0.002678,0.000431,0.001763
25121000,0.0324,0.013523,0.002678,0.000431,0.001645
25122000,0.0324,0.013523,0.002678,0.000431,0.001763
25123000,0.0324,0.013523,0.002678,0.000431,0.001763
25124000,0.0324,0.013523,0.002678,0.000431,0.001763
25125000,0.0324,0.013523,0.002678,0.000431,0.001763
25126000,0.0324,0.013523,0.002678,0.000431,0.001763
25127000,0.0324,0.013523,0.002678,0.000431,0.001763
25128000,0.0324,0.013523,0.002678,0.000431,0.001645
25129000,0.0324,0.013523,0.002678,0.000431,0.001763
25130000,0.0324,0.013523,0.002678,0.000431,0.001880
25131000,0.0324,0.013523,0.002678,0.000431,0.001645
25132000,0.0324,0.013523,0.002678,0.000431,0.001880
25133000,0.0324,0.013523,0.002678,0.000431,0.001645
25134000,0.0324,0.013523,0.002678,0.000431,0.001880
25135000,0.0324,0.013523,0.002678,0.000431,0.001645
25136000,0.0324,0.013523,0.002678,0.000431,0.001763
25137000,0.0324,0.013523,0.002678,0.000431,0.001763
25138000,0.0324,0.013523,0.002678,0.000431,0.001763
25139000,0.0324,0.013523,0.002678,0.000431,0.001645
25140000,0.0324,0.013523,0.002678,0.000431,0.001880
25141000,0.0324,0.013523,0.002678,0.000431,0.001763
25142000,0.0324,0.013523,0.002678,0.000431,0.001763
25143000,0.0324,0.013523,0.002678,0.000431,0.001645
25144000,0.0324,0.013523,0.002678,0.000431,0.002703
25145000,0.0324,0.013523,0.002678,0.000431,0.001880
25146000,0.0324,0.013523,0.002678,0.000431,0.000940
25147000,0.0324,0.013523,0.002678,0.000431,0.000823
25148000,0.0324,0.013523,0.002678,0.000431,0.000940
25149000,0.0324,0.013523,0.002678,0.000431,0.000823
25150000,0.0324,0.013523,0.002678,0.000431,0.000823
25151000,0.0324,0.013523,0.002678,0.000431,0.000940
25152000,0.0324,0.013523,0.002678,0.000431,0.000940
25153000,0.0324,0.013523,0.002678,0.000431,0.000940
25154000,0.0324,0.013523,0.002678,0.000431,0.000705
25155000,0.0324,0.013523,0.002678,0.000431,0.000940
25156000,0.0324,0.013523,0.002678,0.000431,0.000940
25157000,0.0324,0.013523,0.002678,0.000431,0.000823
25158000,0.0324,0.013523,0.002678,0.000431,0.000823
25159000,0.0324,0.013523,0.002678,0.000431,0.000940
25160000,0.0324,0.013523,0.002678,0.000431,0.000940
25161000,0.0324,0.013523,0.002678,0.000431,0.000823
25162000,0.0324,0.013523,0.002678,0.000431,0.000823
25163000,0.0324,0.013523,0.002678,0.000431,0.000940
25164000,0.0324,0.013523,0.002678,0.000431,0.000823
25165000,0.0324,0.013523,0.002678,0.000431,0.000940
25166000,0.0324,0.013523,0.002678,0.000431,0.000823
25167000,0.0324,0.013523,0.002678,0.000431,0.000940
25168000,0.0324,0.013523,0.002678,0.000431,0.000823
25169000,0.0324,0.013523,0.002678,0.000431,0.000823
25170000,0.0324,0.013523,0.002678,0.000431,0.000940
25171000,0.0324,0.013523,0.002678,0.000431,0.000940
25172000,0.0324,0.013523,0.002678,0.000431,0.000823
25173000,0.0324,0.013523,0.002678,0.000431,0.000823
25174000,0.0324,0.013523,0.002678,0.000431,0.000940
25175000,0.0324,0.013523,0.002678,0.000431,0.000940
25176000,0.0324,0.013523,0.002678,0.000431,0.000823
25177000,0.0324,0.013523,0.002678,0.000431,0.000823
25178000,0.0324,0.013523,0.002678,0.000431,0.000940
25179000,0.0324,0.013523,0.002678,0.000431,0.000823
25180000,0.0324,0.013523,0.002678,0.000431,0.000940
25181000,0.0324,0.013523,0.002678,0.000431,0.000823
25182000,0.0324,0.013523,0.002678,0.000431,0.000940
25183000,0.0324,0.013523,0.002678,0.000431,0.000823
25184000,0.0324,0.013523,0.002678,0.000431,0.000823
25185000,0.0324,0.013523,0.002678,0.000431,0.000940
25186000,0.0324,0.013523,0.002678,0.000431,0.000940
25187000,0.0324,0.013523,0.002678,0.000431,0.000823
25188000,0.0324,0.013523,0.002678,0.000431,0.000823
25189000,0.0324,0.013523,0.002678,0.000431,0.000940
25190000,0.0324,0.013523,0.002678,0.000431,0.000940
25191000,0.0324,0.013523,0.002678,0.000431,0.000705
25192000,0.0324,0.013523,0.002678,0.000431,0.000940
25193000,0.0324,0.013523,0.002678,0.000431,0.000940
25194000,0.0324,0.013523,0.002678,0.000431,0.000940
25195000,0.0324,0.013523,0.002678,0.000431,0.000705
25196000,0.0324,0.013523,0.002678,0.000431,0.000940
25197000,0.0324,0.013523,0.002678,0.000431,0.000940
25198000,0.0324,0.013523,0.002678,0.000431,0.000823
25199000,0.0324,0.013523,0.002678,0.000431,0.000823
25200000,0.0324,0.013523,0.002678,0.000431,0.000940
25201000,0.0324,0.013523,0.002678,0.000431,0.000940
25202000,0.0324,0.013523,0.002678,0.000431,0.000823
25203000,0.0324,0.013523,0.002678,0.000431,0.000823
25204000,0.0324,0.013523,0.002678,0.000431,0.000940
25205000,0.0324,0.013523,0.002678,0.000431,0.000823
25206000,0.0324,0.013523,0.002678,0.000431,0.000940
25207000,0.0324,0.013523,0.002678,0.000431,0.000823
25208000,0.0324,0.013523,0.002678,0.000431,0.000940
25209000,0.0324,0.013523,0.002678,0.000431,0.000823
25210000,0.0324,0.013523,0.002678,0.000431,0.000823
25211000,0.0324,0.013523,0.002678,0.000431,0.000940
25212000,0.0324,0.013523,0.002678,0.000431,0.000940
25213000,0.0324,0.013523,0.002678,0.000431,0.000940
25214000,0.0324,0.013523,0.002678,0.000431,0.000705
25215000,0.0324,0.013523,0.002678,0.000431,0.000940
25216000,0.0324,0.013523,0.002678,0.000431,0.000940
25217000,0.0324,0.013523,0.002678,0.000431,0.000823
25218000,0.0324,0.013523,0.002678,0.000431,0.000823
25219000,0.0324,0.013523,0.002678,0.000431,0.000940
25220000,0.0324,0.013523,0.002678,0.000431,0.000823
25221000,0.0324,0.013523,0.002678,0.000431,0.000940
25222000,0.0324,0.013523,0.002678,0.000431,0.000823
25223000,0.0324,0.013523,0.002678,0.000431,0.000940
25224000,0.0324,0.013523,0.002678,0.000431,0.000823
25225000,0.0324,0.013523,0.002678,0.000431,0.000823
25226000,0.0324,0.013523,0.002678,0.000431,0.000940
25227000,0.0324,0.013523,0.002678,0.000431,0.000940
25228000,0.0324,0.013523,0.002678,0.000431,0.000823
25229000,0.0324,0.013523,0.002678,0.000431,0.000823
25230000,0.0324,0.013523,0.002678,0.000431,0.000940
25231000,0.0324,0.013523,0.002678,0.000431,0.000940
25232000,0.0324,0.013523,0.002678,0.000431,0.000705
25233000,0.0324,0.013523,0.002678,0.000431,0.000940
25234000,0.0324,0.013523,0.002678,0.000431,0.000940
25235000,0.0324,0.013523,0.002678,0.000431,0.000940
25236000,0.0324,0.013523,0.002678,0.000431,0.000823
25237000,0.0324,0.013523,0.002678,0.000431,0.000823
25238000,0.0324,0.013523,0.002678,0.000431,0.000940
25239000,0.0324,0.013523,0.002678,0.000431,0.000823
25240000,0.0324,0.013523,0.002678,0.000431,0.000940
25241000,0.0324,0.013523,0.002678,0.000431,0.000823
25242000,0.0324,0.013523,0.002678,0.000431,0.000940
25243000,0.0324,0.013523,0.002678,0.000431,0.000823
25244000,0.0324,0.013523,0.002678,0.000431,0.000823
25245000,0.0324,0.013523,0.002678,0.000431,0.000940
25246000,0.0324,0.013523,0.002678,0.000431,0.000940
25247000,0.0324,0.013523,0.002678,0.000431,0.000823
25248000,0.0324,0.013523,0.002678,0.000431,0.000823
25249000,0.0324,0.013523,0.002678,0.000431,0.000940
25250000,0.0324,0.013523,0.002678,0.000431,0.000940
25251000,0.0324,0.013523,0.002678,0.000431,0.000705
25252000,0.0324,0.013523,0.002678,0.000431,0.000940
25253000,0.0324,0.013523,0.002678,0.000431,0.000940
25254000,0.0324,0.013523,0.002678,0.000431,0.000940
25255000,0.0324,0.013523,0.002678,0.000431,0.000705
25256000,0.0324,0.013523,0.002678,0.000431,0.000940
25257000,0.0324,0.013523,0.002678,0.000431,0.000940
25258000,0.0324,0.013523,0.002678,0.000431,0.000823
25259000,0.0324,0.013523,0.002678,0.000431,0.000823
25260000,0.0324,0.013523,0.002678,0.000431,0.000940
25261000,0.0324,0.013523,0.002678,0.000431,0.000940
25262000,0.0324,0.013523,0.002678,0.000431,0.000823
25263000,0.0324,0.013523,0.002678,0.000431,0.000823
25264000,0.0324,0.013523,0.002678,0.000431,0.000940
25265000,0.0324,0.013523,0.002678,0.000431,0.000823
25266000,0.0324,0.013523,0.002678,0.000431,0.000823
25267000,0.0324,0.013523,0.002678,0.000431,0.000940
25268000,0.0324,0.013523,0.002678,0.000431,0.000940
25269000,0.0324,0.013523,0.002678,0.000431,0.000940
25270000,0.0324,0.013523,0.002678,0.000431,0.000705
25271000,0.0324,0.013523,0.002678,0.000431,0.000940
25272000,0.0324,0.013523,0.002678,0.000431,0.000940
25273000,0.0324,0.013523,0.002678,0.000431,0.000823
25274000,0.0324,0.013523,0.002678,0.000431,0.000823
25275000,0.0324,0.013523,0.002678,0.000431,0.000940
25276000,0.0324,0.013523,0.002678,0.000431,0.000940
25277000,0.0324,0.013523,0.002678,0.000431,0.000823
25278000,0.0324,0.013523,0.002678,0.000431,0.000823
25279000,0.0324,0.013523,0.002678,0.000431,0.000940
25280000,0.0324,0.013523,0.002678,0.000431,0.000823
25281000,0.0324,0.013523,0.002678,0.000431,0.000940
25282000,0.0324,0.013523,0.002678,0.000431,0.000823
25283000,0.0324,0.013523,0.002678,0.000431,0.194509
25284000,0.0324,0.013523,0.002678,0.000431,0.483393
25285000,0.0324,0.013523,0.002678,0.000431,0.468702
25286000,0.0324,0.013523,0.002678,0.000431,0.134922
25287000,0.0324,0.013523,0.002678,0.000431,0.131632
25288000,0.0324,0.013523,0.002678,0.000431,0.597748
25289000,0.0324,0.013523,0.002678,0.000431,0.294173
25290000,0.0324,0.013523,0.002678,0.000431,0.266436
25291000,0.0324,0.013523,0.002678,0.000431,0.247162
25292000,0.0324,0.013523,0.002678,0.000431,0.141034
25293000,0.0324,0.013523,0.002678,0.000431,0.174059
25294000,0.0324,0.013523,0.002678,0.000431,0.097313
25295000,0.0324,0.013523,0.002678,0.000431,0.460005
25296000,0.0324,0.013523,0.002678,0.000431,0.062407
25297000,0.0324,0.013523,0.002678,0.000431,0.027267
25298000,0.0324,0.013523,0.002678,0.000431,0.019745
25299000,0.0324,0.013523,0.002678,0.000431,0.020215
25300000,0.0324,0.013523,0.002678,0.000431,0.019040
25301000,0.0324,0.013523,0.002678,0.000431,0.019392
25302000,0.0324,0.013523,0.002678,0.000431,0.015514
25303000,0.0324,0.013523,0.002678,0.000431,0.015631
25304000,0.0324,0.013523,0.002678,0.000431,0.018099
25305000,0.0324,0.013523,0.002678,0.000431,0.013751
25306000,0.0324,0.013523,0.002678,0.000431,0.013163
25307000,0.0324,0.013523,0.002678,0.000431,0.012458
25308000,0.0324,0.013523,0.002678,0.000431,0.010578
25309000,0.0324,0.013523,0.002678,0.000431,0.011635
25310000,0.0324,0.013523,0.002678,0.000431,0.011283
25311000,0.0324,0.013523,0.002678,0.000431,0.012340
25312000,0.0324,0.013523,0.002678,0.000431,0.010107
25313000,0.0324,0.013523,0.002678,0.000431,0.008227
25314000,0.0324,0.013523,0.002678,0.000431,0.007874
25315000,0.0324,0.013523,0.002678,0.000431,0.008227
25316000,0.0324,0.013523,0.002678,0.000431,0.007757
25317000,0.0324,0.013523,0.002678,0.000431,0.007874
25318000,0.0324,0.013523,0.002678,0.000431,0.009050
25319000,0.0324,0.013523,0.002678,0.000431,0.007287
25320000,0.0324,0.013523,0.002678,0.000431,0.008109
25321000,0.0324,0.013523,0.002678,0.000431,0.007874
25322000,0.0324,0.013523,0.002678,0.000431,0.008932
25323000,0.0324,0.013523,0.002678,0.000431,0.007404
25324000,0.0324,0.013523,0.002678,0.000431,0.006347
25325000,0.0324,0.013523,0.002678,0.000431,0.006464
25326000,0.0324,0.013523,0.002678,0.000431,0.006464
25327000,0.0324,0.013523,0.002678,0.000431,0.008697
25328000,0.0324,0.013523,0.002678,0.000431,0.005171
25329000,0.0324,0.013523,0.002678,0.000431,0.004231
25330000,0.0324,0.013523,0.002678,0.000431,0.004819
25331000,0.0324,0.013523,0.002678,0.000431,0.004701
25332000,0.0324,0.013523,0.002678,0.000431,0.004584
25333000,0.0324,0.013523,0.002678,0.000431,0.004701
25334000,0.0324,0.013523,0.002678,0.000431,0.004349
25335000,0.0324,0.013523,0.002678,0.000431,0.005054
25336000,0.0324,0.013523,0.002678,0.000431,0.004349
25337000,0.0324,0.013523,0.002678,0.000431,0.004466
25338000,0.0324,0.013523,0.002678,0.000431,0.004936
25339000,0.0324,0.013523,0.002678,0.000431,0.004584
25340000,0.0324,0.013523,0.002678,0.000431,0.006111
25341000,0.0324,0.013523,0.002678,0.000431,0.003291
25342000,0.0324,0.013523,0.002678,0.000431,0.003996
25343000,0.0324,0.013523,0.002678,0.000431,0.003761
25344000,0.0324,0.013523,0.002678,0.000431,0.003408
25345000,0.0324,0.013523,0.002678,0.000431,0.004231
25346000,0.0324,0.013523,0.002678,0.000431,0.003526
25347000,0.0324,0.013523,0.002678,0.000431,0.004113
25348000,0.0324,0.013523,0.002678,0.000431,0.003173
25349000,0.0324,0.013523,0.002678,0.000431,0.004819
25350000,0.0324,0.013523,0.002678,0.000431,0.002351
25351000,0.0324,0.013523,0.002678,0.000431,0.001645
25352000,0.0324,0.013523,0.002678,0.000431,0.002468
25353000,0.0324,0.013523,0.002678,0.000431,0.001880
25354000,0.0324,0.013523,0.002678,0.000431,0.002468
25355000,0.0324,0.013523,0.002678,0.000431,0.001880
25356000,0.0324,0.013523,0.002678,0.000431,0.001998
25357000,0.0324,0.013523,0.002678,0.000431,0.002468
25358000,0.0324,0.013523,0.002678,0.000431,0.001645
25359000,0.0324,0.013523,0.002678,0.000431,0.002233
25360000,0.0324,0.013523,0.002678,0.000431,0.002116
25361000,0.0324,0.013523,0.002678,0.000431,0.002233
25362000,0.0324,0.013523,0.002678,0.000431,0.002116
25363000,0.0324,0.013523,0.002678,0.000431,0.001763
25364000,0.0324,0.013523,0.002678,0.000431,0.002586
25365000,0.0324,0.013523,0.002678,0.000431,0.001763
25366000,0.0324,0.013523,0.002678,0.000431,0.002233
25367000,0.0324,0.013523,0.002678,0.000431,0.002116
25368000,0.0324,0.013523,0.002678,0.000431,0.001998
25369000,0.0324,0.013523,0.002678,0.000431,0.002351
25370000,0.0324,0.013523,0.002678,0.000431,0.001763
25371000,0.0324,0.013523,0.002678,0.000431,0.002233
25372000,0.0324,0.013523,0.002678,0.000431,0.002233
25373000,0.0324,0.013523,0.002678,0.000431,0.001410
25374000,0.0324,0.013523,0.002678,0.000431,0.003291
25375000,0.0324,0.013523,0.002678,0.000431,0.001058
25376000,0.0324,0.013523,0.002678,0.000431,0.000705
25377000,0.0324,0.013523,0.002678,0.000431,0.000940
25378000,0.0324,0.013523,0.002678,0.000431,0.000705
25379000,0.0324,0.013523,0.002678,0.000431,0.000940
25380000,0.0324,0.013523,0.002678,0.000431,0.000823
25381000,0.0324,0.013523,0.002678,0.000431,0.000823
25382000,0.0324,0.013523,0.002678,0.000431,0.000823
25383000,0.0324,0.013523,0.002678,0.000431,0.000823
25384000,0.0324,0.013523,0.002678,0.000431,0.000940
25385000,0.0324,0.013523,0.002678,0.000431,0.000705
25386000,0.0324,0.013523,0.002678,0.000431,0.000940
25387000,0.0324,0.013523,0.002678,0.000431,0.000823
25388000,0.0324,0.013523,0.002678,0.000431,0.000823
25389000,0.0324,0.013523,0.002678,0.000431,0.000823
25390000,0.0324,0.013523,0.002678,0.000431,0.000823
25391000,0.0324,0.013523,0.002678,0.000431,0.000823
25392000,0.0324,0.013523,0.002678,0.000431,0.000823
25393000,0.0324,0.013523,0.002678,0.000431,0.000940
25394000,0.0324,0.013523,0.002678,0.000431,0.000705
25395000,0.0324,0.013523,0.002678,0.000431,0.000940
25396000,0.0324,0.013523,0.002678,0.000431,0.000705
25397000,0.0324,0.013523,0.002678,0.000431,0.000940
25398000,0.0324,0.013523,0.002678,0.000431,0.000940
25399000,0.0324,0.013523,0.002678,0.000431,0.000705
25400000,0.0324,0.013523,0.002678,0.000431,0.000940
25401000,0.0324,0.013523,0.002678,0.000431,0.000705
25402000,0.0324,0.013523,0.002678,0.000431,0.000940
25403000,0.0324,0.013523,0.002678,0.000431,0.000823
25404000,0.0324,0.013523,0.002678,0.000431,0.000823
25405000,0.0324,0.013523,0.002678,0.000431,0.000823
25406000,0.0324,0.013523,0.002678,0.000431,0.000823
25407000,0.0324,0.013523,0.002678,0.000431,0.000940
25408000,0.0324,0.013523,0.002678,0.000431,0.000705
25409000,0.0324,0.013523,0.002678,0.000431,0.000940
25410000,0.0324,0.013523,0.002678,0.000431,0.000940
25411000,0.0324,0.013523,0.002678,0.000431,0.000940
25412000,0.0324,0.013523,0.002678,0.000431,0.000823
25413000,0.0324,0.013523,0.002678,0.000431,0.000940
25414000,0.0324,0.013523,0.002678,0.000431,0.000823
25415000,0.0324,0.013523,0.002678,0.000431,0.000940
25416000,0.0324,0.013523,0.002678,0.000431,0.000940
25417000,0.0324,0.013523,0.002678,0.000431,0.000705
25418000,0.0324,0.013523,0.002678,0.000431,0.000940
25419000,0.0324,0.013523,0.002678,0.000431,0.000940
25420000,0.0324,0.013523,0.002678,0.000431,0.000940
25421000,0.0324,0.013523,0.002678,0.000431,0.000705
25422000,0.0324,0.013523,0.002678,0.000431,0.000940
25423000,0.0324,0.013523,0.002678,0.000431,0.000940
25424000,0.0324,0.013523,0.002678,0.000431,0.000823
25425000,0.0324,0.013523,0.002678,0.000431,0.000823
25426000,0.0324,0.013523,0.002678,0.000431,0.000940
25427000,0.0324,0.013523,0.002678,0.000431,0.000823
25428000,0.0324,0.013523,0.002678,0.000431,0.000940
25429000,0.0324,0.013523,0.002678,0.000431,0.000823
25430000,0.0324,0.013523,0.002678,0.000431,0.000940
25431000,0.0324,0.013523,0.002678,0.000431,0.000823
25432000,0.0324,0.013523,0.002678,0.000431,0.000823
25433000,0.0324,0.013523,0.002678,0.000431,0.000940
25434000,0.0324,0.013523,0.002678,0.000431,0.000940
25435000,0.0324,0.013523,0.002678,0.000431,0.000823
25436000,0.0324,0.013523,0.002678,0.000431,0.000823
25437000,0.0324,0.013523,0.002678,0.000431,0.000940
25438000,0.0324,0.013523,0.002678,0.000431,0.000940
25439000,0.0324,0.013523,0.002678,0.000431,0.000823
25440000,0.0324,0.013523,0.002678,0.000431,0.000823
25441000,0.0324,0.013523,0.002678,0.000431,0.000940
25442000,0.0324,0.013523,0.002678,0.000431,0.000940
25443000,0.0324,0.013523,0.002678,0.000431,0.000823
25444000,0.0324,0.013523,0.002678,0.000431,0.000823
25445000,0.0324,0.013523,0.002678,0.000431,0.000940
25446000,0.0324,0.013523,0.002678,0.000431,0.000823
25447000,0.0324,0.013523,0.002678,0.000431,0.000940
25448000,0.0324,0.013523,0.002678,0.000431,0.000823
25449000,0.0324,0.013523,0.002678,0.000431,0.000940
25450000,0.0324,0.013523,0.002678,0.000431,0.000823
25451000,0.0324,0.013523,0.002678,0.000431,0.000823
25452000,0.0324,0.013523,0.002678,0.000431,0.000940
25453000,0.0324,0.013523,0.002678,0.000431,0.000940
25454000,0.0324,0.013523,0.002678,0.000431,0.000823
25455000,0.0324,0.013523,0.002678,0.000431,0.000823
25456000,0.0324,0.013523,0.002678,0.000431,0.000940
25457000,0.0324,0.013523,0.002678,0.000431,0.000940
25458000,0.0324,0.013523,0.002678,0.000431,0.000705
25459000,0.0324,0.013523,0.002678,0.000431,0.000940
25460000,0.0324,0.013523,0.002678,0.000431,0.000940
25461000,0.0324,0.013523,0.002678,0.000431,0.000940
25462000,0.0324,0.013523,0.002678,0.000431,0.000705
25463000,0.0324,0.013523,0.002678,0.000431,0.000940
25464000,0.0324,0.013523,0.002678,0.000431,0.000940
25465000,0.0324,0.013523,0.002678,0.000431,0.000823
25466000,0.0324,0.013523,0.002678,0.000431,0.000940
25467000,0.0324,0.013523,0.002678,0.000431,0.000823
25468000,0.0324,0.013523,0.002678,0.000431,0.000940
25469000,0.0324,0.013523,0.002678,0.000431,0.000823
25470000,0.0324,0.013523,0.002678,0.000431,0.000823
25471000,0.0324,0.013523,0.002678,0.000431,0.000940
25472000,0.0324,0.013523,0.002678,0.000431,0.000823
25473000,0.0324,0.013523,0.002678,0.000431,0.000823
25474000,0.0324,0.013523,0.002678,0.000431,0.000940
25475000,0.0324,0.013523,0.002678,0.000431,0.000940
25476000,0.0324,0.013523,0.002678,0.000431,0.000940
25477000,0.0324,0.013523,0.002678,0.000431,0.000705
25478000,0.0324,0.013523,0.002678,0.000431,0.000940
25479000,0.0324,0.013523,0.002678,0.000431,0.000940
25480000,0.0324,0.013523,0.002678,0.000431,0.000823
25481000,0.0324,0.013523,0.002678,0.000431,0.000823
25482000,0.0324,0.013523,0.002678,0.000431,0.000940
25483000,0.0324,0.013523,0.002678,0.000431,0.000940
25484000,0.0324,0.013523,0.002678,0.000431,0.000823
25485000,0.0324,0.013523,0.002678,0.000431,0.000823
25486000,0.0324,0.013523,0.002678,0.000431,0.000940
25487000,0.0324,0.013523,0.002678,0.000431,0.000823
25488000,0.0324,0.013523,0.002678,0.000431,0.000940
25489000,0.0324,0.013523,0.002678,0.000431,0.000823
25490000,0.0324,0.013523,0.002678,0.000431,0.000940
25491000,0.0324,0.013523,0.002678,0.000431,0.000823
25492000,0.0324,0.013523,0.002678,0.000431,0.000823
25493000,0.0324,0.013523,0.002678,0.000431,0.000940
25494000,0.0324,0.013523,0.002678,0.000431,0.000940
25495000,0.0324,0.013523,0.002678,0.000431,0.000823
25496000,0.0324,0.013523,0.002678,0.000431,0.000823
25497000,0.0324,0.013523,0.002678,0.000431,0.000940
25498000,0.0324,0.013523,0.002678,0.000431,0.000940
25499000,0.0324,0.013523,0.002678,0.000431,0.000823
25500000,0.0324,0.013523,0.002678,0.000431,0.191806
25501000,0.0324,0.013523,0.002678,0.000431,0.571540
25502000,0.0324,0.013523,0.002678,0.000431,0.368098
25503000,0.0324,0.013523,0.002678,0.000431,0.131632
25504000,0.0324,0.013523,0.002678,0.000431,0.133042
25505000,0.0324,0.013523,0.002678,0.000431,0.578474
25506000,0.0324,0.013523,0.002678,0.000431,0.238817
25507000,0.0324,0.013523,0.002678,0.000431,0.252686
25508000,0.0324,0.013523,0.002678,0.000431,0.335896
25509000,0.0324,0.013523,0.002678,0.000431,0.139153
25510000,0.0324,0.013523,0.002678,0.000431,0.151259
25511000,0.0324,0.013523,0.002678,0.000431,0.106481
25512000,0.0324,0.013523,0.002678,0.000431,0.455892
25513000,0.0324,0.013523,0.002678,0.000431,0.103425
25514000,0.0324,0.013523,0.002678,0.000431,0.039725
25515000,0.0324,0.013523,0.002678,0.000431,0.025504
25516000,0.0324,0.013523,0.002678,0.000431,0.029382
25517000,0.0324,0.013523,0.002678,0.000431,0.020450
25518000,0.0324,0.013523,0.002678,0.000431,0.016101
25519000,0.0324,0.013523,0.002678,0.000431,0.013398
25520000,0.0324,0.013523,0.002678,0.000431,0.012693
25521000,0.0324,0.013523,0.002678,0.000431,0.011165
25522000,0.0324,0.013523,0.002678,0.000431,0.011283
25523000,0.0324,0.013523,0.002678,0.000431,0.010107
25524000,0.0324,0.013523,0.002678,0.000431,0.007874
25525000,0.0324,0.013523,0.002678,0.000431,0.007639
25526000,0.0324,0.013523,0.002678,0.000431,0.008109
25527000,0.0324,0.013523,0.002678,0.000431,0.006934
25528000,0.0324,0.013523,0.002678,0.000431,0.007992
25529000,0.0324,0.013523,0.002678,0.000431,0.007639
25530000,0.0324,0.013523,0.002678,0.000431,0.007639
25531000,0.0324,0.013523,0.002678,0.000431,0.007404
25532000,0.0324,0.013523,0.002678,0.000431,0.007874
25533000,0.0324,0.013523,0.002678,0.000431,0.007874
25534000,0.0324,0.013523,0.002678,0.000431,0.009050
25535000,0.0324,0.013523,0.002678,0.000431,0.006464
25536000,0.0324,0.013523,0.002678,0.000431,0.007287
25537000,0.0324,0.013523,0.002678,0.000431,0.007992
25538000,0.0324,0.013523,0.002678,0.000431,0.006229
25539000,0.0324,0.013523,0.002678,0.000431,0.005406
25540000,0.0324,0.013523,0.002678,0.000431,0.006464
25541000,0.0324,0.013523,0.002678,0.000431,0.005524
25542000,0.0324,0.013523,0.002678,0.000431,0.005759
25543000,0.0324,0.013523,0.002678,0.000431,0.006111
25544000,0.0324,0.013523,0.002678,0.000431,0.006699
25545000,0.0324,0.013523,0.002678,0.000431,0.005289
25546000,0.0324,0.013523,0.002678,0.000431,0.004349
25547000,0.0324,0.013523,0.002678,0.000431,0.004349
25548000,0.0324,0.013523,0.002678,0.000431,0.004349
25549000,0.0324,0.013523,0.002678,0.000431,0.004231
25550000,0.0324,0.013523,0.002678,0.000431,0.004349
25551000,0.0324,0.013523,0.002678,0.000431,0.004231
25552000,0.0324,0.013523,0.002678,0.000431,0.004349
25553000,0.0324,0.013523,0.002678,0.000431,0.004113
25554000,0.0324,0.013523,0.002678,0.000431,0.004466
25555000,0.0324,0.013523,0.002678,0.000431,0.005054
25556000,0.0324,0.013523,0.002678,0.000431,0.003173
25557000,0.0324,0.013523,0.002678,0.000431,0.002703
25558000,0.0324,0.013523,0.002678,0.000431,0.002586
25559000,0.0324,0.013523,0.002678,0.000431,0.002821
25560000,0.0324,0.013523,0.002678,0.000431,0.002468
25561000,0.0324,0.013523,0.002678,0.000431,0.002703
25562000,0.0324,0.013523,0.002678,0.000431,0.002586
25563000,0.0324,0.013523,0.002678,0.000431,0.002586
25564000,0.0324,0.013523,0.002678,0.000431,0.002703
25565000,0.0324,0.013523,0.002678,0.000431,0.002703
25566000,0.0324,0.013523,0.002678,0.000431,0.002468
25567000,0.0324,0.013523,0.002678,0.000431,0.002703
25568000,0.0324,0.013523,0.002678,0.000431,0.002703
25569000,0.0324,0.013523,0.002678,0.000431,0.002703
25570000,0.0324,0.013523,0.002678,0.000431,0.002351
25571000,0.0324,0.013523,0.002678,0.000431,0.002703
25572000,0.0324,0.013523,0.002678,0.000431,0.002703
25573000,0.0324,0.013523,0.002678,0.000431,0.002703
25574000,0.0324,0.013523,0.002678,0.000431,0.002468
25575000,0.0324,0.013523,0.002678,0.000431,0.002703
25576000,0.0324,0.013523,0.002678,0.000431,0.002703
25577000,0.0324,0.013523,0.002678,0.000431,0.002586
25578000,0.0324,0.013523,0.002678,0.000431,0.002586
25579000,0.0324,0.013523,0.002678,0.000431,0.002703
25580000,0.0324,0.013523,0.002678,0.000431,0.002586
25581000,0.0324,0.013523,0.002678,0.000431,0.002703
25582000,0.0324,0.013523,0.002678,0.000431,0.002703
25583000,0.0324,0.013523,0.002678,0.000431,0.002703
25584000,0.0324,0.013523,0.002678,0.000431,0.002468
25585000,0.0324,0.013523,0.002678,0.000431,0.002586
25586000,0.0324,0.013523,0.002678,0.000431,0.002821
25587000,0.0324,0.013523,0.002678,0.000431,0.002468
25588000,0.0324,0.013523,0.002678,0.000431,0.002703
25589000,0.0324,0.013523,0.002678,0.000431,0.002586
25590000,0.0324,0.013523,0.002678,0.000431,0.002821
25591000,0.0324,0.013523,0.002678,0.000431,0.002468
25592000,0.0324,0.013523,0.002678,0.000431,0.002586
25593000,0.0324,0.013523,0.002678,0.000431,0.002703
25594000,0.0324,0.013523,0.002678,0.000431,0.002586
25595000,0.0324,0.013523,0.002678,0.000431,0.002703
25596000,0.0324,0.013523,0.002678,0.000431,0.002586
25597000,0.0324,0.013523,0.002678,0.000431,0.002703
25598000,0.0324,0.013523,0.002678,0.000431,0.002703
25599000,0.0324,0.013523,0.002678,0.000431,0.002351
25600000,0.0324,0.013523,0.002678,0.000431,0.002821
25601000,0.0324,0.013523,0.002678,0.000431,0.002586
25602000,0.0324,0.013523,0.002678,0.000431,0.002821
25603000,0.0324,0.013523,0.002678,0.000431,0.002351
25604000,0.0324,0.013523,0.002678,0.000431,0.002703
25605000,0.0324,0.013523,0.002678,0.000431,0.002703
25606000,0.0324,0.013523,0.002678,0.000431,0.002586
25607000,0.0324,0.013523,0.002678,0.000431,0.002586
25608000,0.0324,0.013523,0.002678,0.000431,0.002703
25609000,0.0324,0.013523,0.002678,0.000431,0.002821
25610000,0.0324,0.013523,0.002678,0.000431,0.002468
25611000,0.0324,0.013523,0.002678,0.000431,0.002586
25612000,0.0324,0.013523,0.002678,0.000431,0.002703
25613000,0.0324,0.013523,0.002678,0.000431,0.002586
25614000,0.0324,0.013523,0.002678,0.000431,0.002586
25615000,0.0324,0.013523,0.002678,0.000431,0.002703
25616000,0.0324,0.013523,0.002678,0.000431,0.002586
25617000,0.0324,0.013523,0.002678,0.000431,0.004466
25618000,0.0324,0.013523,0.002678,0.000431,0.003173
25619000,0.0324,0.013523,0.002678,0.000431,0.000940
25620000,0.0324,0.013523,0.002678,0.000431,0.000823
25621000,0.0324,0.013523,0.002678,0.000431,0.000823
25622000,0.0324,0.013523,0.002678,0.000431,0.000940
25623000,0.0324,0.013523,0.002678,0.000431,0.000940
25624000,0.0324,0.013523,0.002678,0.000431,0.000823
25625000,0.0324,0.013523,0.002678,0.000431,0.000823
25626000,0.0324,0.013523,0.002678,0.000431,0.000940
25627000,0.0324,0.013523,0.002678,0.000431,0.000940
25628000,0.0324,0.013523,0.002678,0.000431,0.000705
25629000,0.0324,0.013523,0.002678,0.000431,0.000940
25630000,0.0324,0.013523,0.002678,0.000431,0.000940
25631000,0.0324,0.013523,0.002678,0.000431,0.000940
25632000,0.0324,0.013523,0.002678,0.000431,0.000823
25633000,0.0324,0.013523,0.002678,0.000431,0.000823
25634000,0.0324,0.013523,0.002678,0.000431,0.000940
25635000,0.0324,0.013523,0.002678,0.000431,0.000823
25636000,0.0324,0.013523,0.002678,0.000431,0.000940
25637000,0.0324,0.013523,0.002678,0.000431,0.000823
25638000,0.0324,0.013523,0.002678,0.000431,0.000940
25639000,0.0324,0.013523,0.002678,0.000431,0.000823
25640000,0.0324,0.013523,0.002678,0.000431,0.000823
25641000,0.0324,0.013523,0.002678,0.000431,0.000940
25642000,0.0324,0.013523,0.002678,0.000431,0.000940
25643000,0.0324,0.013523,0.002678,0.000431,0.000823
25644000,0.0324,0.013523,0.002678,0.000431,0.000823
25645000,0.0324,0.013523,0.002678,0.000431,0.000940
25646000,0.0324,0.013523,0.002678,0.000431,0.000940
25647000,0.0324,0.013523,0.002678,0.000431,0.000705
25648000,0.0324,0.013523,0.002678,0.000431,0.000940
25649000,0.0324,0.013523,0.002678,0.000431,0.000940
25650000,0.0324,0.013523,0.002678,0.000431,0.000940
25651000,0.0324,0.013523,0.002678,0.000431,0.000705
25652000,0.0324,0.013523,0.002678,0.000431,0.000940
25653000,0.0324,0.013523,0.002678,0.000431,0.000940
25654000,0.0324,0.013523,0.002678,0.000431,0.000823
25655000,0.0324,0.013523,0.002678,0.000431,0.000823
25656000,0.0324,0.013523,0.002678,0.000431,0.000940
25657000,0.0324,0.013523,0.002678,0.000431,0.000823
25658000,0.0324,0.013523,0.002678,0.000431,0.000940
25659000,0.0324,0.013523,0.002678,0.000431,0.000823
25660000,0.0324,0.013523,0.002678,0.000431,0.000940
25661000,0.0324,0.013523,0.002678,0.000431,0.000823
25662000,0.0324,0.013523,0.002678,0.000431,0.000823
25663000,0.0324,0.013523,0.002678,0.000431,0.000940
25664000,0.0324,0.013523,0.002678,0.000431,0.000940
25665000,0.0324,0.013523,0.002678,0.000431,0.000823
25666000,0.0324,0.013523,0.002678,0.000431,0.000823
25667000,0.0324,0.013523,0.002678,0.000431,0.000940
25668000,0.0324,0.013523,0.002678,0.000431,0.000940
25669000,0.0324,0.013523,0.002678,0.000431,0.000823
25670000,0.0324,0.013523,0.002678,0.000431,0.205909
25671000,0.0324,0.013523,0.002678,0.000431,0.612557
25672000,0.0324,0.013523,0.002678,0.000431,0.343065
25673000,0.0324,0.013523,0.002678,0.000431,0.131044
25674000,0.0324,0.013523,0.002678,0.000431,0.133630
25675000,0.0324,0.013523,0.002678,0.000431,0.585878
25676000,0.0324,0.013523,0.002678,0.000431,0.233176
25677000,0.0324,0.013523,0.002678,0.000431,0.301577
25678000,0.0324,0.013523,0.002678,0.000431,0.298522
25679000,0.0324,0.013523,0.002678,0.000431,0.136803
25680000,0.0324,0.013523,0.002678,0.000431,0.154785
25681000,0.0324,0.013523,0.002678,0.000431,0.141034
25682000,0.0324,0.013523,0.002678,0.000431,0.445549
25683000,0.0324,0.013523,0.002678,0.000431,0.045013
25684000,0.0324,0.013523,0.002678,0.000431,0.033260
25685000,0.0324,0.013523,0.002678,0.000431,0.021625
25686000,0.0324,0.013523,0.002678,0.000431,0.024328
25687000,0.0324,0.013523,0.002678,0.000431,0.012811
25688000,0.0324,0.013523,0.002678,0.000431,0.013751
25689000,0.0324,0.013523,0.002678,0.000431,0.010813
25690000,0.0324,0.013523,0.002678,0.000431,0.011870
25691000,0.0324,0.013523,0.002678,0.000431,0.014338
25692000,0.0324,0.013523,0.002678,0.000431,0.009755
25693000,0.0324,0.013523,0.002678,0.000431,0.009755
25694000,0.0324,0.013523,0.002678,0.000431,0.008109
25695000,0.0324,0.013523,0.002678,0.000431,0.004936
25696000,0.0324,0.013523,0.002678,0.000431,0.005171
25697000,0.0324,0.013523,0.002678,0.000431,0.006817
25698000,0.0324,0.013523,0.002678,0.000431,0.007639
25699000,0.0324,0.013523,0.002678,0.000431,0.002468
25700000,0.0324,0.013523,0.002678,0.000431,0.001998
25701000,0.0324,0.013523,0.002678,0.000431,0.001763
25702000,0.0324,0.013523,0.002678,0.000431,0.001763
25703000,0.0324,0.013523,0.002678,0.000431,0.003173
25704000,0.0324,0.013523,0.002678,0.000431,0.000940
25705000,0.0324,0.013523,0.002678,0.000431,0.185812
25706000,0.0324,0.013523,0.002678,0.000431,0.432269
25707000,0.0324,0.013523,0.002678,0.000431,0.518887
25708000,0.0324,0.013523,0.002678,0.000431,0.133512
25709000,0.0324,0.013523,0.002678,0.000431,0.132572
25710000,0.0324,0.013523,0.002678,0.000431,0.605858
25711000,0.0324,0.013523,0.002678,0.000431,0.286769
25712000,0.0324,0.013523,0.002678,0.000431,0.270667
25713000,0.0324,0.013523,0.002678,0.000431,0.256094
25714000,0.0324,0.013523,0.002678,0.000431,0.146440
25715000,0.0324,0.013523,0.002678,0.000431,0.168770
25716000,0.0324,0.013523,0.002678,0.000431,0.089321
25717000,0.0324,0.013523,0.002678,0.000431,0.481043
25718000,0.0324,0.013523,0.002678,0.000431,0.088264
25719000,0.0324,0.013523,0.002678,0.000431,0.050772
25720000,0.0324,0.013523,0.002678,0.000431,0.038902
25721000,0.0324,0.013523,0.002678,0.000431,0.028089
25722000,0.0324,0.013523,0.002678,0.000431,0.022330
25723000,0.0324,0.013523,0.002678,0.000431,0.018687
25724000,0.0324,0.013523,0.002678,0.000431,0.017982
25725000,0.0324,0.013523,0.002678,0.000431,0.019392
25726000,0.0324,0.013523,0.002678,0.000431,0.014926
25727000,0.0324,0.013523,0.002678,0.000431,0.009755
25728000,0.0324,0.013523,0.002678,0.000431,0.008932
25729000,0.0324,0.013523,0.002678,0.000431,0.009637
25730000,0.0324,0.013523,0.002678,0.000431,0.011988
25731000,0.0324,0.013523,0.002678,0.000431,0.008697
25732000,0.0324,0.013523,0.002678,0.000431,0.009872
25733000,0.0324,0.013523,0.002678,0.000431,0.007992
25734000,0.0324,0.013523,0.002678,0.000431,0.007639
25735000,0.0324,0.013523,0.002678,0.000431,0.007874
25736000,0.0324,0.013523,0.002678,0.000431,0.007757
25737000,0.0324,0.013523,0.002678,0.000431,0.007287
25738000,0.0324,0.013523,0.002678,0.000431,0.008109
25739000,0.0324,0.013523,0.002678,0.000431,0.007522
25740000,0.0324,0.013523,0.002678,0.000431,0.007992
25741000,0.0324,0.013523,0.002678,0.000431,0.009285
25742000,0.0324,0.013523,0.002678,0.000431,0.006582
25743000,0.0324,0.013523,0.002678,0.000431,0.008815
25744000,0.0324,0.013523,0.002678,0.000431,0.005759
25745000,0.0324,0.013523,0.002678,0.000431,0.005994
25746000,0.0324,0.013523,0.002678,0.000431,0.005994
25747000,0.0324,0.013523,0.002678,0.000431,0.005994
25748000,0.0324,0.013523,0.002678,0.000431,0.006229
25749000,0.0324,0.013523,0.002678,0.000431,0.005759
25750000,0.0324,0.013523,0.002678,0.000431,0.006229
25751000,0.0324,0.013523,0.002678,0.000431,0.005641
25752000,0.0324,0.013523,0.002678,0.000431,0.006111
25753000,0.0324,0.013523,0.002678,0.000431,0.007404
25754000,0.0324,0.013523,0.002678,0.000431,0.006934
25755000,0.0324,0.013523,0.002678,0.000431,0.004466
25756000,0.0324,0.013523,0.002678,0.000431,0.004936
25757000,0.0324,0.013523,0.002678,0.000431,0.003761
25758000,0.0324,0.013523,0.002678,0.000431,0.003408
25759000,0.0324,0.013523,0.002678,0.000431,0.003408
25760000,0.0324,0.013523,0.002678,0.000431,0.004819
25761000,0.0324,0.013523,0.002678,0.000431,0.002938
25762000,0.0324,0.013523,0.002678,0.000431,0.002821
25763000,0.0324,0.013523,0.002678,0.000431,0.002351
25764000,0.0324,0.013523,0.002678,0.000431,0.004113
25765000,0.0324,0.013523,0.002678,0.000431,0.001645
25766000,0.0324,0.013523,0.002678,0.000431,0.001763
25767000,0.0324,0.013523,0.002678,0.000431,0.003761
25768000,0.0324,0.013523,0.002678,0.000431,0.071105
25769000,0.0324,0.013523,0.002678,0.000431,0.522530
25770000,0.0324,0.013523,0.002678,0.000431,0.558729
25771000,0.0324,0.013523,0.002678,0.000431,0.137155
25772000,0.0324,0.013523,0.002678,0.000431,0.132572
25773000,0.0324,0.013523,0.002678,0.000431,0.573185
25774000,0.0324,0.013523,0.002678,0.000431,0.229180
25775000,0.0324,0.013523,0.002678,0.000431,0.246927
25776000,0.0324,0.013523,0.002678,0.000431,0.342947
25777000,0.0324,0.013523,0.002678,0.000431,0.144795
25778000,0.0324,0.013523,0.002678,0.000431,0.151141
25779000,0.0324,0.013523,0.002678,0.000431,0.100722
25780000,0.0324,0.013523,0.002678,0.000431,0.446490
25781000,0.0324,0.013523,0.002678,0.000431,0.186517
25782000,0.0324,0.013523,0.002678,0.000431,0.067696
25783000,0.0324,0.013523,0.002678,0.000431,0.050185
25784000,0.0324,0.013523,0.002678,0.000431,0.048422
25785000,0.0324,0.013523,0.002678,0.000431,0.034788
25786000,0.0324,0.013523,0.002678,0.000431,0.027737
25787000,0.0324,0.013523,0.002678,0.000431,0.025856
25788000,0.0324,0.013523,0.002678,0.000431,0.017864
25789000,0.0324,0.013523,0.002678,0.000431,0.019275
25790000,0.0324,0.013523,0.002678,0.000431,0.011753
25791000,0.0324,0.013523,0.002678,0.000431,0.013986
25792000,0.0324,0.013523,0.002678,0.000431,0.009755
25793000,0.0324,0.013523,0.002678,0.000431,0.010342
25794000,0.0324,0.013523,0.002678,0.000431,0.006111
25795000,0.0324,0.013523,0.002678,0.000431,0.006699
25796000,0.0324,0.013523,0.002678,0.000431,0.004936
25797000,0.0324,0.013523,0.002678,0.000431,0.005171
25798000,0.0324,0.013523,0.002678,0.000431,0.006699
25799000,0.0324,0.013523,0.002678,0.000431,0.005406
25800000,0.0324,0.013523,0.002678,0.000431,0.006464
25801000,0.0324,0.013523,0.002678,0.000431,0.004231
25802000,0.0324,0.013523,0.002678,0.000431,0.003761
25803000,0.0324,0.013523,0.002678,0.000431,0.000823
25804000,0.0324,0.013523,0.002678,0.000431,0.000940
25805000,0.0324,0.013523,0.002678,0.000431,0.000823
25806000,0.0324,0.013523,0.002678,0.000431,0.000823
25807000,0.0324,0.013523,0.002678,0.000431,0.000705
25808000,0.0324,0.013523,0.002678,0.000431,0.000940
25809000,0.0324,0.013523,0.002678,0.000431,0.000940
25810000,0.0324,0.013523,0.002678,0.000431,0.000705
25811000,0.0324,0.013523,0.002678,0.000431,0.000940
25812000,0.0324,0.013523,0.002678,0.000431,0.000705
25813000,0.0324,0.013523,0.002678,0.000431,0.000940
25814000,0.0324,0.013523,0.002678,0.000431,0.000823
25815000,0.0324,0.013523,0.002678,0.000431,0.000823
25816000,0.0324,0.013523,0.002678,0.000431,0.000940
25817000,0.0324,0.013523,0.002678,0.000431,0.000705
25818000,0.0324,0.013523,0.002678,0.000431,0.011870
25819000,0.0324,0.013523,0.002678,0.000431,0.531580
25820000,0.0324,0.013523,0.002678,0.000431,0.601392
25821000,0.0324,0.013523,0.002678,0.000431,0.135392
25822000,0.0324,0.013523,0.002678,0.000431,0.132337
25823000,0.0324,0.013523,0.002678,0.000431,0.443786
25824000,0.0324,0.013523,0.002678,0.000431,0.391369
25825000,0.0324,0.013523,0.002678,0.000431,0.254566
25826000,0.0324,0.013523,0.002678,0.000431,0.323555
25827000,0.0324,0.013523,0.002678,0.000431,0.145852
25828000,0.0324,0.013523,0.002678,0.000431,0.175470
25829000,0.0324,0.013523,0.002678,0.000431,0.088499
25830000,0.0324,0.013523,0.002678,0.000431,0.479162
25831000,0.0324,0.013523,0.002678,0.000431,0.102014
25832000,0.0324,0.013523,0.002678,0.000431,0.057824
25833000,0.0324,0.013523,0.002678,0.000431,0.052183
25834000,0.0324,0.013523,0.002678,0.000431,0.025739
25835000,0.0324,0.013523,0.002678,0.000431,0.021978
25836000,0.0324,0.013523,0.002678,0.000431,0.016219
25837000,0.0324,0.013523,0.002678,0.000431,0.014338
25838000,0.0324,0.013523,0.002678,0.000431,0.012576
25839000,0.0324,0.013523,0.002678,0.000431,0.012811
25840000,0.0324,0.013523,0.002678,0.000431,0.007992
25841000,0.0324,0.013523,0.002678,0.000431,0.008462
25842000,0.0324,0.013523,0.002678,0.000431,0.007169
25843000,0.0324,0.013523,0.002678,0.000431,0.007522
25844000,0.0324,0.013523,0.002678,0.000431,0.005289
25845000,0.0324,0.013523,0.002678,0.000431,0.006582
25846000,0.0324,0.013523,0.002678,0.000431,0.004349
25847000,0.0324,0.013523,0.002678,0.000431,0.004231
25848000,0.0324,0.013523,0.002678,0.000431,0.004231
25849000,0.0324,0.013523,0.002678,0.000431,0.004349
25850000,0.0324,0.013523,0.002678,0.000431,0.005876
25851000,0.0324,0.013523,0.002678,0.000431,0.004819
25852000,0.0324,0.013523,0.002678,0.000431,0.002703
25853000,0.0324,0.013523,0.002678,0.000431,0.002586
25854000,0.0324,0.013523,0.002678,0.000431,0.002586
25855000,0.0324,0.013523,0.002678,0.000431,0.002703
25856000,0.0324,0.013523,0.002678,0.000431,0.002468
25857000,0.0324,0.013523,0.002678,0.000431,0.003526
25858000,0.0324,0.013523,0.002678,0.000431,0.002703
25859000,0.0324,0.013523,0.002678,0.000431,0.001880
25860000,0.0324,0.013523,0.002678,0.000431,0.001763
25861000,0.0324,0.013523,0.002678,0.000431,0.001645
25862000,0.0324,0.013523,0.002678,0.000431,0.002703
25863000,0.0324,0.013523,0.002678,0.000431,0.002116
25864000,0.0324,0.013523,0.002678,0.000431,0.000823
25865000,0.0324,0.013523,0.002678,0.000431,0.000823
25866000,0.0324,0.013523,0.002678,0.000431,0.072280
25867000,0.0324,0.013523,0.002678,0.000431,0.547329
25868000,0.0324,0.013523,0.002678,0.000431,0.547446
25869000,0.0324,0.013523,0.002678,0.000431,0.133982
25870000,0.0324,0.013523,0.002678,0.000431,0.131397
25871000,0.0324,0.013523,0.002678,0.000431,0.572010
25872000,0.0324,0.013523,0.002678,0.000431,0.236702
25873000,0.0324,0.013523,0.002678,0.000431,0.273488
25874000,0.0324,0.013523,0.002678,0.000431,0.310157
25875000,0.0324,0.013523,0.002678,0.000431,0.143502
25876000,0.0324,0.013523,0.002678,0.000431,0.150319
25877000,0.0324,0.013523,0.002678,0.000431,0.109536
25878000,0.0324,0.013523,0.002678,0.000431,0.414639
25879000,0.0324,0.013523,0.002678,0.000431,0.157370
25880000,0.0324,0.013523,0.002678,0.000431,0.033496
25881000,0.0324,0.013523,0.002678,0.000431,0.028324
25882000,0.0324,0.013523,0.002678,0.000431,0.018217
25883000,0.0324,0.013523,0.002678,0.000431,0.018687
25884000,0.0324,0.013523,0.002678,0.000431,0.018452
25885000,0.0324,0.013523,0.002678,0.000431,0.014456
25886000,0.0324,0.013523,0.002678,0.000431,0.009755
25887000,0.0324,0.013523,0.002678,0.000431,0.009167
25888000,0.0324,0.013523,0.002678,0.000431,0.008815
25889000,0.0324,0.013523,0.002678,0.000431,0.008815
25890000,0.0324,0.013523,0.002678,0.000431,0.009050
25891000,0.0324,0.013523,0.002678,0.000431,0.009285
25892000,0.0324,0.013523,0.002678,0.000431,0.008697
25893000,0.0324,0.013523,0.002678,0.000431,0.009050
25894000,0.0324,0.013523,0.002678,0.000431,0.008815
25895000,0.0324,0.013523,0.002678,0.000431,0.007052
25896000,0.0324,0.013523,0.002678,0.000431,0.008345
25897000,0.0324,0.013523,0.002678,0.000431,0.007404
25898000,0.0324,0.013523,0.002678,0.000431,0.007522
25899000,0.0324,0.013523,0.002678,0.000431,0.008227
25900000,0.0324,0.013523,0.002678,0.000431,0.007522
25901000,0.0324,0.013523,0.002678,0.000431,0.008697
25902000,0.0324,0.013523,0.002678,0.000431,0.006934
25903000,0.0324,0.013523,0.002678,0.000431,0.007874
25904000,0.0324,0.013523,0.002678,0.000431,0.008462
25905000,0.0324,0.013523,0.002678,0.000431,0.010107
25906000,0.0324,0.013523,0.002678,0.000431,0.006817
25907000,0.0324,0.013523,0.002678,0.000431,0.004819
25908000,0.0324,0.013523,0.002678,0.000431,0.004819
25909000,0.0324,0.013523,0.002678,0.000431,0.005289
25910000,0.0324,0.013523,0.002678,0.000431,0.005054
25911000,0.0324,0.013523,0.002678,0.000431,0.005054
25912000,0.0324,0.013523,0.002678,0.000431,0.004819
25913000,0.0324,0.013523,0.002678,0.000431,0.006229
25914000,0.0324,0.013523,0.002678,0.000431,0.005406
25915000,0.0324,0.013523,0.002678,0.000431,0.003878
25916000,0.0324,0.013523,0.002678,0.000431,0.004349
25917000,0.0324,0.013523,0.002678,0.000431,0.004113
25918000,0.0324,0.013523,0.002678,0.000431,0.004113
25919000,0.0324,0.013523,0.002678,0.000431,0.004231
25920000,0.0324,0.013523,0.002678,0.000431,0.004113
25921000,0.0324,0.013523,0.002678,0.000431,0.003996
25922000,0.0324,0.013523,0.002678,0.000431,0.004584
25923000,0.0324,0.013523,0.002678,0.000431,0.003996
25924000,0.0324,0.013523,0.002678,0.000431,0.004231
25925000,0.0324,0.013523,0.002678,0.000431,0.005406
25926000,0.0324,0.013523,0.002678,0.000431,0.005054
25927000,0.0324,0.013523,0.002678,0.000431,0.002468
25928000,0.0324,0.013523,0.002678,0.000431,0.001880
25929000,0.0324,0.013523,0.002678,0.000431,0.001528
25930000,0.0324,0.013523,0.002678,0.000431,0.001763
25931000,0.0324,0.013523,0.002678,0.000431,0.003173
25932000,0.0324,0.013523,0.002678,0.000431,0.000940
25933000,0.0324,0.013523,0.002678,0.000431,0.000823
25934000,0.0324,0.013523,0.002678,0.000431,0.000823
25935000,0.0324,0.013523,0.002678,0.000431,0.000940
25936000,0.0324,0.013523,0.002678,0.000431,0.000940
25937000,0.0324,0.013523,0.002678,0.000431,0.000823
25938000,0.0324,0.013523,0.002678,0.000431,0.205439
25939000,0.0324,0.013523,0.002678,0.000431,0.623017
25940000,0.0324,0.013523,0.002678,0.000431,0.332370
25941000,0.0324,0.013523,0.002678,0.000431,0.130691
25942000,0.0324,0.013523,0.002678,0.000431,0.134687
25943000,0.0324,0.013523,0.002678,0.000431,0.649226
25944000,0.0324,0.013523,0.002678,0.000431,0.228357
25945000,0.0324,0.013523,0.002678,0.000431,0.276544
25946000,0.0324,0.013523,0.002678,0.000431,0.224479
25947000,0.0324,0.013523,0.002678,0.000431,0.138096
25948000,0.0324,0.013523,0.002678,0.000431,0.152669
25949000,0.0324,0.013523,0.002678,0.000431,0.102250
25950000,0.0324,0.013523,0.002678,0.000431,0.437792
25951000,0.0324,0.013523,0.002678,0.000431,0.172061
25952000,0.0324,0.013523,0.002678,0.000431,0.063465
25953000,0.0324,0.013523,0.002678,0.000431,0.049597
25954000,0.0324,0.013523,0.002678,0.000431,0.044661
25955000,0.0324,0.013523,0.002678,0.000431,0.035964
25956000,0.0324,0.013523,0.002678,0.000431,0.025386
25957000,0.0324,0.013523,0.002678,0.000431,0.022095
25958000,0.0324,0.013523,0.002678,0.000431,0.021273
25959000,0.0324,0.013523,0.002678,0.000431,0.016454
25960000,0.0324,0.013523,0.002678,0.000431,0.013751
25961000,0.0324,0.013523,0.002678,0.000431,0.016571
25962000,0.0324,0.013523,0.002678,0.000431,0.012693
25963000,0.0324,0.013523,0.002678,0.000431,0.011165
25964000,0.0324,0.013523,0.002678,0.000431,0.010813
25965000,0.0324,0.013523,0.002678,0.000431,0.011400
25966000,0.0324,0.013523,0.002678,0.000431,0.012811
25967000,0.0324,0.013523,0.002678,0.000431,0.010225
25968000,0.0324,0.013523,0.002678,0.000431,0.010460
25969000,0.0324,0.013523,0.002678,0.000431,0.013751
25970000,0.0324,0.013523,0.002678,0.000431,0.009990
25971000,0.0324,0.013523,0.002678,0.000431,0.011400
25972000,0.0324,0.013523,0.002678,0.000431,0.007639
25973000,0.0324,0.013523,0.002678,0.000431,0.006229
25974000,0.0324,0.013523,0.002678,0.000431,0.007052
25975000,0.0324,0.013523,0.002678,0.000431,0.007287
25976000,0.0324,0.013523,0.002678,0.000431,0.003291
25977000,0.0324,0.013523,0.002678,0.000431,0.003291
25978000,0.0324,0.013523,0.002678,0.000431,0.003526
25979000,0.0324,0.013523,0.002678,0.000431,0.004466
25980000,0.0324,0.013523,0.002678,0.000431,0.003643
25981000,0.0324,0.013523,0.002678,0.000431,0.002468
25982000,0.0324,0.013523,0.002678,0.000431,0.002586
25983000,0.0324,0.013523,0.002678,0.000431,0.002821
25984000,0.0324,0.013523,0.002678,0.000431,0.002468
25985000,0.0324,0.013523,0.002678,0.000431,0.002468
25986000,0.0324,0.013523,0.002678,0.000431,0.002821
25987000,0.0324,0.013523,0.002678,0.000431,0.002468
25988000,0.0324,0.013523,0.002678,0.000431,0.004819
25989000,0.0324,0.013523,0.002678,0.000431,0.001763
25990000,0.0324,0.013523,0.002678,0.000431,0.001645
25991000,0.0324,0.013523,0.002678,0.000431,0.001763
25992000,0.0324,0.013523,0.002678,0.000431,0.001528
25993000,0.0324,0.013523,0.002678,0.000431,0.001880
25994000,0.0324,0.013523,0.002678,0.000431,0.001763
25995000,0.0324,0.013523,0.002678,0.000431,0.001645
25996000,0.0324,0.013523,0.002678,0.000431,0.001645
25997000,0.0324,0.013523,0.002678,0.000431,0.001763
25998000,0.0324,0.013523,0.002678,0.000431,0.001880
25999000,0.0324,0.013523,0.002678,0.000431,0.001528
