Cycle,Area(mm^2),PeakDynamic(W),SubthresholdLeakage(W),GateLeakage(W),RunTimeDynamic(W)
111000000,0.0324,0.013523,0.002678,0.000431,0.000823
111001000,0.0324,0.013523,0.002678,0.000431,0.000823
111002000,0.0324,0.013523,0.002678,0.000431,0.000823
111003000,0.0324,0.013523,0.002678,0.000431,0.000940
111004000,0.0324,0.013523,0.002678,0.000431,0.000705
111005000,0.0324,0.013523,0.002678,0.000431,0.000940
111006000,0.0324,0.013523,0.002678,0.000431,0.000823
111007000,0.0324,0.013523,0.002678,0.000431,0.000823
111008000,0.0324,0.013523,0.002678,0.000431,0.000705
111009000,0.0324,0.013523,0.002678,0.000431,0.000940
111010000,0.0324,0.013523,0.002678,0.000431,0.000940
111011000,0.0324,0.013523,0.002678,0.000431,0.000705
111012000,0.0324,0.013523,0.002678,0.000431,0.000940
111013000,0.0324,0.013523,0.002678,0.000431,0.000705
111014000,0.0324,0.013523,0.002678,0.000431,0.000940
111015000,0.0324,0.013523,0.002678,0.000431,0.000823
111016000,0.0324,0.013523,0.002678,0.000431,0.000823
111017000,0.0324,0.013523,0.002678,0.000431,0.000940
111018000,0.0324,0.013523,0.002678,0.000431,0.000705
111019000,0.0324,0.013523,0.002678,0.000431,0.000940
111020000,0.0324,0.013523,0.002678,0.000431,0.000705
111021000,0.0324,0.013523,0.002678,0.000431,0.000940
111022000,0.0324,0.013523,0.002678,0.000431,0.000823
111023000,0.0324,0.013523,0.002678,0.000431,0.000823
111024000,0.0324,0.013523,0.002678,0.000431,0.000823
111025000,0.0324,0.013523,0.002678,0.000431,0.000823
111026000,0.0324,0.013523,0.002678,0.000431,0.000940
111027000,0.0324,0.013523,0.002678,0.000431,0.000705
111028000,0.0324,0.013523,0.002678,0.000431,0.000823
111029000,0.0324,0.013523,0.002678,0.000431,0.000823
111030000,0.0324,0.013523,0.002678,0.000431,0.000940
111031000,0.0324,0.013523,0.002678,0.000431,0.000705
111032000,0.0324,0.013523,0.002678,0.000431,0.000940
111033000,0.0324,0.013523,0.002678,0.000431,0.000705
111034000,0.0324,0.013523,0.002678,0.000431,0.000940
111035000,0.0324,0.013523,0.002678,0.000431,0.000823
111036000,0.0324,0.013523,0.002678,0.000431,0.000823
111037000,0.0324,0.013523,0.002678,0.000431,0.000940
111038000,0.0324,0.013523,0.002678,0.000431,0.000705
111039000,0.0324,0.013523,0.002678,0.000431,0.000823
111040000,0.0324,0.013523,0.002678,0.000431,0.000823
111041000,0.0324,0.013523,0.002678,0.000431,0.000940
111042000,0.0324,0.013523,0.002678,0.000431,0.000823
111043000,0.0324,0.013523,0.002678,0.000431,0.000823
111044000,0.0324,0.013523,0.002678,0.000431,0.014926
111045000,0.0324,0.013523,0.002678,0.000431,0.481983
111046000,0.0324,0.013523,0.002678,0.000431,0.593165
111047000,0.0324,0.013523,0.002678,0.000431,0.137743
111048000,0.0324,0.013523,0.002678,0.000431,0.131632
111049000,0.0324,0.013523,0.002678,0.000431,0.321910
111050000,0.0324,0.013523,0.002678,0.000431,0.472581
111051000,0.0324,0.013523,0.002678,0.000431,0.268317
111052000,0.0324,0.013523,0.002678,0.000431,0.302753
111053000,0.0324,0.013523,0.002678,0.000431,0.180993
111054000,0.0324,0.013523,0.002678,0.000431,0.146088
111055000,0.0324,0.013523,0.002678,0.000431,0.134687
111056000,0.0324,0.013523,0.002678,0.000431,0.234116
111057000,0.0324,0.013523,0.002678,0.000431,0.363515
111058000,0.0324,0.013523,0.002678,0.000431,0.046424
111059000,0.0324,0.013523,0.002678,0.000431,0.035141
111060000,0.0324,0.013523,0.002678,0.000431,0.031615
111061000,0.0324,0.013523,0.002678,0.000431,0.027619
111062000,0.0324,0.013523,0.002678,0.000431,0.024328
111063000,0.0324,0.013523,0.002678,0.000431,0.015161
111064000,0.0324,0.013523,0.002678,0.000431,0.016454
111065000,0.0324,0.013523,0.002678,0.000431,0.015749
111066000,0.0324,0.013523,0.002678,0.000431,0.011870
111067000,0.0324,0.013523,0.002678,0.000431,0.012928
111068000,0.0324,0.013523,0.002678,0.000431,0.011988
111069000,0.0324,0.013523,0.002678,0.000431,0.012458
111070000,0.0324,0.013523,0.002678,0.000431,0.011988
111071000,0.0324,0.013523,0.002678,0.000431,0.012811
111072000,0.0324,0.013523,0.002678,0.000431,0.013163
111073000,0.0324,0.013523,0.002678,0.000431,0.012458
111074000,0.0324,0.013523,0.002678,0.000431,0.011870
111075000,0.0324,0.013523,0.002678,0.000431,0.011635
111076000,0.0324,0.013523,0.002678,0.000431,0.011165
111077000,0.0324,0.013523,0.002678,0.000431,0.011635
111078000,0.0324,0.013523,0.002678,0.000431,0.011635
111079000,0.0324,0.013523,0.002678,0.000431,0.011753
111080000,0.0324,0.013523,0.002678,0.000431,0.011165
111081000,0.0324,0.013523,0.002678,0.000431,0.011400
111082000,0.0324,0.013523,0.002678,0.000431,0.011165
111083000,0.0324,0.013523,0.002678,0.000431,0.011988
111084000,0.0324,0.013523,0.002678,0.000431,0.012105
111085000,0.0324,0.013523,0.002678,0.000431,0.011518
111086000,0.0324,0.013523,0.002678,0.000431,0.009755
111087000,0.0324,0.013523,0.002678,0.000431,0.010107
111088000,0.0324,0.013523,0.002678,0.000431,0.010460
111089000,0.0324,0.013523,0.002678,0.000431,0.009755
111090000,0.0324,0.013523,0.002678,0.000431,0.013046
111091000,0.0324,0.013523,0.002678,0.000431,0.007757
111092000,0.0324,0.013523,0.002678,0.000431,0.009990
111093000,0.0324,0.013523,0.002678,0.000431,0.006582
111094000,0.0324,0.013523,0.002678,0.000431,0.006582
111095000,0.0324,0.013523,0.002678,0.000431,0.006582
111096000,0.0324,0.013523,0.002678,0.000431,0.006464
111097000,0.0324,0.013523,0.002678,0.000431,0.008462
111098000,0.0324,0.013523,0.002678,0.000431,0.005524
111099000,0.0324,0.013523,0.002678,0.000431,0.004936
111100000,0.0324,0.013523,0.002678,0.000431,0.005054
111101000,0.0324,0.013523,0.002678,0.000431,0.004819
111102000,0.0324,0.013523,0.002678,0.000431,0.004819
111103000,0.0324,0.013523,0.002678,0.000431,0.004936
111104000,0.0324,0.013523,0.002678,0.000431,0.004819
111105000,0.0324,0.013523,0.002678,0.000431,0.004819
111106000,0.0324,0.013523,0.002678,0.000431,0.005171
111107000,0.0324,0.013523,0.002678,0.000431,0.004701
111108000,0.0324,0.013523,0.002678,0.000431,0.004819
111109000,0.0324,0.013523,0.002678,0.000431,0.005054
111110000,0.0324,0.013523,0.002678,0.000431,0.004466
111111000,0.0324,0.013523,0.002678,0.000431,0.005171
111112000,0.0324,0.013523,0.002678,0.000431,0.004584
111113000,0.0324,0.013523,0.002678,0.000431,0.005054
111114000,0.0324,0.013523,0.002678,0.000431,0.004936
111115000,0.0324,0.013523,0.002678,0.000431,0.005054
111116000,0.0324,0.013523,0.002678,0.000431,0.004584
111117000,0.0324,0.013523,0.002678,0.000431,0.005054
111118000,0.0324,0.013523,0.002678,0.000431,0.004936
111119000,0.0324,0.013523,0.002678,0.000431,0.004819
111120000,0.0324,0.013523,0.002678,0.000431,0.005171
111121000,0.0324,0.013523,0.002678,0.000431,0.004466
111122000,0.0324,0.013523,0.002678,0.000431,0.004231
111123000,0.0324,0.013523,0.002678,0.000431,0.004466
111124000,0.0324,0.013523,0.002678,0.000431,0.004231
111125000,0.0324,0.013523,0.002678,0.000431,0.004113
111126000,0.0324,0.013523,0.002678,0.000431,0.004231
111127000,0.0324,0.013523,0.002678,0.000431,0.004231
111128000,0.0324,0.013523,0.002678,0.000431,0.004466
111129000,0.0324,0.013523,0.002678,0.000431,0.003996
111130000,0.0324,0.013523,0.002678,0.000431,0.004349
111131000,0.0324,0.013523,0.002678,0.000431,0.004113
111132000,0.0324,0.013523,0.002678,0.000431,0.004231
111133000,0.0324,0.013523,0.002678,0.000431,0.004231
111134000,0.0324,0.013523,0.002678,0.000431,0.004349
111135000,0.0324,0.013523,0.002678,0.000431,0.004113
111136000,0.0324,0.013523,0.002678,0.000431,0.004113
111137000,0.0324,0.013523,0.002678,0.000431,0.004349
111138000,0.0324,0.013523,0.002678,0.000431,0.004349
111139000,0.0324,0.013523,0.002678,0.000431,0.006229
111140000,0.0324,0.013523,0.002678,0.000431,0.004936
111141000,0.0324,0.013523,0.002678,0.000431,0.002586
111142000,0.0324,0.013523,0.002678,0.000431,0.002468
111143000,0.0324,0.013523,0.002678,0.000431,0.002468
111144000,0.0324,0.013523,0.002678,0.000431,0.002821
111145000,0.0324,0.013523,0.002678,0.000431,0.002468
111146000,0.0324,0.013523,0.002678,0.000431,0.002703
111147000,0.0324,0.013523,0.002678,0.000431,0.002233
111148000,0.0324,0.013523,0.002678,0.000431,0.002703
111149000,0.0324,0.013523,0.002678,0.000431,0.002586
111150000,0.0324,0.013523,0.002678,0.000431,0.002468
111151000,0.0324,0.013523,0.002678,0.000431,0.002586
111152000,0.0324,0.013523,0.002678,0.000431,0.002468
111153000,0.0324,0.013523,0.002678,0.000431,0.002821
111154000,0.0324,0.013523,0.002678,0.000431,0.002468
111155000,0.0324,0.013523,0.002678,0.000431,0.005171
111156000,0.0324,0.013523,0.002678,0.000431,0.001645
111157000,0.0324,0.013523,0.002678,0.000431,0.001763
111158000,0.0324,0.013523,0.002678,0.000431,0.001880
111159000,0.0324,0.013523,0.002678,0.000431,0.001528
111160000,0.0324,0.013523,0.002678,0.000431,0.001880
111161000,0.0324,0.013523,0.002678,0.000431,0.001645
111162000,0.0324,0.013523,0.002678,0.000431,0.001645
111163000,0.0324,0.013523,0.002678,0.000431,0.001763
111164000,0.0324,0.013523,0.002678,0.000431,0.001645
111165000,0.0324,0.013523,0.002678,0.000431,0.001880
111166000,0.0324,0.013523,0.002678,0.000431,0.001528
111167000,0.0324,0.013523,0.002678,0.000431,0.002468
111168000,0.0324,0.013523,0.002678,0.000431,0.002116
111169000,0.0324,0.013523,0.002678,0.000431,0.000823
111170000,0.0324,0.013523,0.002678,0.000431,0.000823
111171000,0.0324,0.013523,0.002678,0.000431,0.000940
111172000,0.0324,0.013523,0.002678,0.000431,0.003291
111173000,0.0324,0.013523,0.002678,0.000431,0.416990
111174000,0.0324,0.013523,0.002678,0.000431,0.621136
111175000,0.0324,0.013523,0.002678,0.000431,0.159603
111176000,0.0324,0.013523,0.002678,0.000431,0.139153
111177000,0.0324,0.013523,0.002678,0.000431,0.233293
111178000,0.0324,0.013523,0.002678,0.000431,0.610206
111179000,0.0324,0.013523,0.002678,0.000431,0.245399
111180000,0.0324,0.013523,0.002678,0.000431,0.300049
111181000,0.0324,0.013523,0.002678,0.000431,0.172179
111182000,0.0324,0.013523,0.002678,0.000431,0.144560
111183000,0.0324,0.013523,0.002678,0.000431,0.126108
111184000,0.0324,0.013523,0.002678,0.000431,0.263968
111185000,0.0324,0.013523,0.002678,0.000431,0.333310
111186000,0.0324,0.013523,0.002678,0.000431,0.051830
111187000,0.0324,0.013523,0.002678,0.000431,0.045248
111188000,0.0324,0.013523,0.002678,0.000431,0.033025
111189000,0.0324,0.013523,0.002678,0.000431,0.028677
111190000,0.0324,0.013523,0.002678,0.000431,0.025739
111191000,0.0324,0.013523,0.002678,0.000431,0.023858
111192000,0.0324,0.013523,0.002678,0.000431,0.021743
111193000,0.0324,0.013523,0.002678,0.000431,0.024563
111194000,0.0324,0.013523,0.002678,0.000431,0.018805
111195000,0.0324,0.013523,0.002678,0.000431,0.020567
111196000,0.0324,0.013523,0.002678,0.000431,0.018099
111197000,0.0324,0.013523,0.002678,0.000431,0.019275
111198000,0.0324,0.013523,0.002678,0.000431,0.018687
111199000,0.0324,0.013523,0.002678,0.000431,0.018922
111200000,0.0324,0.013523,0.002678,0.000431,0.021038
111201000,0.0324,0.013523,0.002678,0.000431,0.017277
111202000,0.0324,0.013523,0.002678,0.000431,0.018569
111203000,0.0324,0.013523,0.002678,0.000431,0.019275
111204000,0.0324,0.013523,0.002678,0.000431,0.016571
111205000,0.0324,0.013523,0.002678,0.000431,0.018217
111206000,0.0324,0.013523,0.002678,0.000431,0.015161
111207000,0.0324,0.013523,0.002678,0.000431,0.014809
111208000,0.0324,0.013523,0.002678,0.000431,0.015514
111209000,0.0324,0.013523,0.002678,0.000431,0.013986
111210000,0.0324,0.013523,0.002678,0.000431,0.013633
111211000,0.0324,0.013523,0.002678,0.000431,0.013986
111212000,0.0324,0.013523,0.002678,0.000431,0.013868
111213000,0.0324,0.013523,0.002678,0.000431,0.013046
111214000,0.0324,0.013523,0.002678,0.000431,0.011518
111215000,0.0324,0.013523,0.002678,0.000431,0.011165
111216000,0.0324,0.013523,0.002678,0.000431,0.013516
111217000,0.0324,0.013523,0.002678,0.000431,0.010813
111218000,0.0324,0.013523,0.002678,0.000431,0.010813
111219000,0.0324,0.013523,0.002678,0.000431,0.008932
111220000,0.0324,0.013523,0.002678,0.000431,0.009402
111221000,0.0324,0.013523,0.002678,0.000431,0.007874
111222000,0.0324,0.013523,0.002678,0.000431,0.007169
111223000,0.0324,0.013523,0.002678,0.000431,0.007639
111224000,0.0324,0.013523,0.002678,0.000431,0.007874
111225000,0.0324,0.013523,0.002678,0.000431,0.007169
111226000,0.0324,0.013523,0.002678,0.000431,0.008109
111227000,0.0324,0.013523,0.002678,0.000431,0.007522
111228000,0.0324,0.013523,0.002678,0.000431,0.007757
111229000,0.0324,0.013523,0.002678,0.000431,0.007522
111230000,0.0324,0.013523,0.002678,0.000431,0.007874
111231000,0.0324,0.013523,0.002678,0.000431,0.007287
111232000,0.0324,0.013523,0.002678,0.000431,0.007639
111233000,0.0324,0.013523,0.002678,0.000431,0.007992
111234000,0.0324,0.013523,0.002678,0.000431,0.007639
111235000,0.0324,0.013523,0.002678,0.000431,0.009285
111236000,0.0324,0.013523,0.002678,0.000431,0.006817
111237000,0.0324,0.013523,0.002678,0.000431,0.007052
111238000,0.0324,0.013523,0.002678,0.000431,0.006934
111239000,0.0324,0.013523,0.002678,0.000431,0.006347
111240000,0.0324,0.013523,0.002678,0.000431,0.006817
111241000,0.0324,0.013523,0.002678,0.000431,0.007052
111242000,0.0324,0.013523,0.002678,0.000431,0.006699
111243000,0.0324,0.013523,0.002678,0.000431,0.008109
111244000,0.0324,0.013523,0.002678,0.000431,0.005994
111245000,0.0324,0.013523,0.002678,0.000431,0.005876
111246000,0.0324,0.013523,0.002678,0.000431,0.005524
111247000,0.0324,0.013523,0.002678,0.000431,0.005876
111248000,0.0324,0.013523,0.002678,0.000431,0.005759
111249000,0.0324,0.013523,0.002678,0.000431,0.005759
111250000,0.0324,0.013523,0.002678,0.000431,0.005406
111251000,0.0324,0.013523,0.002678,0.000431,0.006111
111252000,0.0324,0.013523,0.002678,0.000431,0.005524
111253000,0.0324,0.013523,0.002678,0.000431,0.005876
111254000,0.0324,0.013523,0.002678,0.000431,0.005406
111255000,0.0324,0.013523,0.002678,0.000431,0.005876
111256000,0.0324,0.013523,0.002678,0.000431,0.005994
111257000,0.0324,0.013523,0.002678,0.000431,0.005289
111258000,0.0324,0.013523,0.002678,0.000431,0.006347
111259000,0.0324,0.013523,0.002678,0.000431,0.007052
111260000,0.0324,0.013523,0.002678,0.000431,0.004701
111261000,0.0324,0.013523,0.002678,0.000431,0.007874
111262000,0.0324,0.013523,0.002678,0.000431,0.003643
111263000,0.0324,0.013523,0.002678,0.000431,0.002938
111264000,0.0324,0.013523,0.002678,0.000431,0.003408
111265000,0.0324,0.013523,0.002678,0.000431,0.003526
111266000,0.0324,0.013523,0.002678,0.000431,0.003291
111267000,0.0324,0.013523,0.002678,0.000431,0.003056
111268000,0.0324,0.013523,0.002678,0.000431,0.003291
111269000,0.0324,0.013523,0.002678,0.000431,0.004349
111270000,0.0324,0.013523,0.002678,0.000431,0.001528
111271000,0.0324,0.013523,0.002678,0.000431,0.001645
111272000,0.0324,0.013523,0.002678,0.000431,0.001645
111273000,0.0324,0.013523,0.002678,0.000431,0.001645
111274000,0.0324,0.013523,0.002678,0.000431,0.001293
111275000,0.0324,0.013523,0.002678,0.000431,0.000940
111276000,0.0324,0.013523,0.002678,0.000431,0.000823
111277000,0.0324,0.013523,0.002678,0.000431,0.000823
111278000,0.0324,0.013523,0.002678,0.000431,0.000940
111279000,0.0324,0.013523,0.002678,0.000431,0.000705
111280000,0.0324,0.013523,0.002678,0.000431,0.000940
111281000,0.0324,0.013523,0.002678,0.000431,0.000823
111282000,0.0324,0.013523,0.002678,0.000431,0.000823
111283000,0.0324,0.013523,0.002678,0.000431,0.000940
111284000,0.0324,0.013523,0.002678,0.000431,0.000823
111285000,0.0324,0.013523,0.002678,0.000431,0.000823
111286000,0.0324,0.013523,0.002678,0.000431,0.000940
111287000,0.0324,0.013523,0.002678,0.000431,0.000705
111288000,0.0324,0.013523,0.002678,0.000431,0.000940
111289000,0.0324,0.013523,0.002678,0.000431,0.000823
111290000,0.0324,0.013523,0.002678,0.000431,0.000823
111291000,0.0324,0.013523,0.002678,0.000431,0.000940
111292000,0.0324,0.013523,0.002678,0.000431,0.003056
111293000,0.0324,0.013523,0.002678,0.000431,0.389723
111294000,0.0324,0.013523,0.002678,0.000431,0.681899
111295000,0.0324,0.013523,0.002678,0.000431,0.132337
111296000,0.0324,0.013523,0.002678,0.000431,0.133512
111297000,0.0324,0.013523,0.002678,0.000431,0.193686
111298000,0.0324,0.013523,0.002678,0.000431,0.574008
111299000,0.0324,0.013523,0.002678,0.000431,0.284301
111300000,0.0324,0.013523,0.002678,0.000431,0.295818
111301000,0.0324,0.013523,0.002678,0.000431,0.214724
111302000,0.0324,0.013523,0.002678,0.000431,0.137508
111303000,0.0324,0.013523,0.002678,0.000431,0.142092
111304000,0.0324,0.013523,0.002678,0.000431,0.237877
111305000,0.0324,0.013523,0.002678,0.000431,0.400654
111306000,0.0324,0.013523,0.002678,0.000431,0.086971
111307000,0.0324,0.013523,0.002678,0.000431,0.072280
111308000,0.0324,0.013523,0.002678,0.000431,0.062290
111309000,0.0324,0.013523,0.002678,0.000431,0.054533
111310000,0.0324,0.013523,0.002678,0.000431,0.045836
111311000,0.0324,0.013523,0.002678,0.000431,0.039019
111312000,0.0324,0.013523,0.002678,0.000431,0.042780
111313000,0.0324,0.013523,0.002678,0.000431,0.026914
111314000,0.0324,0.013523,0.002678,0.000431,0.023036
111315000,0.0324,0.013523,0.002678,0.000431,0.023388
111316000,0.0324,0.013523,0.002678,0.000431,0.020215
111317000,0.0324,0.013523,0.002678,0.000431,0.015631
111318000,0.0324,0.013523,0.002678,0.000431,0.017629
111319000,0.0324,0.013523,0.002678,0.000431,0.016336
111320000,0.0324,0.013523,0.002678,0.000431,0.015161
111321000,0.0324,0.013523,0.002678,0.000431,0.015514
111322000,0.0324,0.013523,0.002678,0.000431,0.016101
111323000,0.0324,0.013523,0.002678,0.000431,0.012105
111324000,0.0324,0.013523,0.002678,0.000431,0.012576
111325000,0.0324,0.013523,0.002678,0.000431,0.017394
111326000,0.0324,0.013523,0.002678,0.000431,0.009872
111327000,0.0324,0.013523,0.002678,0.000431,0.013868
111328000,0.0324,0.013523,0.002678,0.000431,0.010813
111329000,0.0324,0.013523,0.002678,0.000431,0.007522
111330000,0.0324,0.013523,0.002678,0.000431,0.007639
111331000,0.0324,0.013523,0.002678,0.000431,0.007522
111332000,0.0324,0.013523,0.002678,0.000431,0.009167
111333000,0.0324,0.013523,0.002678,0.000431,0.006699
111334000,0.0324,0.013523,0.002678,0.000431,0.006464
111335000,0.0324,0.013523,0.002678,0.000431,0.007287
111336000,0.0324,0.013523,0.002678,0.000431,0.005759
111337000,0.0324,0.013523,0.002678,0.000431,0.004349
111338000,0.0324,0.013523,0.002678,0.000431,0.004584
111339000,0.0324,0.013523,0.002678,0.000431,0.004113
111340000,0.0324,0.013523,0.002678,0.000431,0.004466
111341000,0.0324,0.013523,0.002678,0.000431,0.004466
111342000,0.0324,0.013523,0.002678,0.000431,0.004113
111343000,0.0324,0.013523,0.002678,0.000431,0.004231
111344000,0.0324,0.013523,0.002678,0.000431,0.004349
111345000,0.0324,0.013523,0.002678,0.000431,0.004466
111346000,0.0324,0.013523,0.002678,0.000431,0.004113
111347000,0.0324,0.013523,0.002678,0.000431,0.005876
111348000,0.0324,0.013523,0.002678,0.000431,0.003408
111349000,0.0324,0.013523,0.002678,0.000431,0.004936
111350000,0.0324,0.013523,0.002678,0.000431,0.002468
111351000,0.0324,0.013523,0.002678,0.000431,0.002703
111352000,0.0324,0.013523,0.002678,0.000431,0.002468
111353000,0.0324,0.013523,0.002678,0.000431,0.002351
111354000,0.0324,0.013523,0.002678,0.000431,0.002703
111355000,0.0324,0.013523,0.002678,0.000431,0.002703
111356000,0.0324,0.013523,0.002678,0.000431,0.002351
111357000,0.0324,0.013523,0.002678,0.000431,0.002586
111358000,0.0324,0.013523,0.002678,0.000431,0.002468
111359000,0.0324,0.013523,0.002678,0.000431,0.003526
111360000,0.0324,0.013523,0.002678,0.000431,0.002938
111361000,0.0324,0.013523,0.002678,0.000431,0.001645
111362000,0.0324,0.013523,0.002678,0.000431,0.001763
111363000,0.0324,0.013523,0.002678,0.000431,0.001410
111364000,0.0324,0.013523,0.002678,0.000431,0.001880
111365000,0.0324,0.013523,0.002678,0.000431,0.001763
111366000,0.0324,0.013523,0.002678,0.000431,0.001528
111367000,0.0324,0.013523,0.002678,0.000431,0.001763
111368000,0.0324,0.013523,0.002678,0.000431,0.001528
111369000,0.0324,0.013523,0.002678,0.000431,0.001763
111370000,0.0324,0.013523,0.002678,0.000431,0.001645
111371000,0.0324,0.013523,0.002678,0.000431,0.001763
111372000,0.0324,0.013523,0.002678,0.000431,0.001645
111373000,0.0324,0.013523,0.002678,0.000431,0.001528
111374000,0.0324,0.013523,0.002678,0.000431,0.001880
111375000,0.0324,0.013523,0.002678,0.000431,0.001645
111376000,0.0324,0.013523,0.002678,0.000431,0.001645
111377000,0.0324,0.013523,0.002678,0.000431,0.001645
111378000,0.0324,0.013523,0.002678,0.000431,0.001645
111379000,0.0324,0.013523,0.002678,0.000431,0.001645
111380000,0.0324,0.013523,0.002678,0.000431,0.001763
111381000,0.0324,0.013523,0.002678,0.000431,0.001763
111382000,0.0324,0.013523,0.002678,0.000431,0.001528
111383000,0.0324,0.013523,0.002678,0.000431,0.001763
111384000,0.0324,0.013523,0.002678,0.000431,0.001645
111385000,0.0324,0.013523,0.002678,0.000431,0.001528
111386000,0.0324,0.013523,0.002678,0.000431,0.001645
111387000,0.0324,0.013523,0.002678,0.000431,0.001880
111388000,0.0324,0.013523,0.002678,0.000431,0.001645
111389000,0.0324,0.013523,0.002678,0.000431,0.001645
111390000,0.0324,0.013523,0.002678,0.000431,0.001645
111391000,0.0324,0.013523,0.002678,0.000431,0.001645
111392000,0.0324,0.013523,0.002678,0.000431,0.001880
111393000,0.0324,0.013523,0.002678,0.000431,0.001528
111394000,0.0324,0.013523,0.002678,0.000431,0.001763
111395000,0.0324,0.013523,0.002678,0.000431,0.001645
111396000,0.0324,0.013523,0.002678,0.000431,0.001645
111397000,0.0324,0.013523,0.002678,0.000431,0.001763
111398000,0.0324,0.013523,0.002678,0.000431,0.001645
111399000,0.0324,0.013523,0.002678,0.000431,0.005171
111400000,0.0324,0.013523,0.002678,0.000431,0.000823
111401000,0.0324,0.013523,0.002678,0.000431,0.000823
111402000,0.0324,0.013523,0.002678,0.000431,0.000823
111403000,0.0324,0.013523,0.002678,0.000431,0.000823
111404000,0.0324,0.013523,0.002678,0.000431,0.000940
111405000,0.0324,0.013523,0.002678,0.000431,0.000705
111406000,0.0324,0.013523,0.002678,0.000431,0.000823
111407000,0.0324,0.013523,0.002678,0.000431,0.000940
111408000,0.0324,0.013523,0.002678,0.000431,0.000823
111409000,0.0324,0.013523,0.002678,0.000431,0.000823
111410000,0.0324,0.013523,0.002678,0.000431,0.001528
111411000,0.0324,0.013523,0.002678,0.000431,0.404062
111412000,0.0324,0.013523,0.002678,0.000431,0.691888
111413000,0.0324,0.013523,0.002678,0.000431,0.167360
111414000,0.0324,0.013523,0.002678,0.000431,0.136333
111415000,0.0324,0.013523,0.002678,0.000431,0.237760
111416000,0.0324,0.013523,0.002678,0.000431,0.539102
111417000,0.0324,0.013523,0.002678,0.000431,0.297934
111418000,0.0324,0.013523,0.002678,0.000431,0.332957
111419000,0.0324,0.013523,0.002678,0.000431,0.154667
111420000,0.0324,0.013523,0.002678,0.000431,0.157253
111421000,0.0324,0.013523,0.002678,0.000431,0.104130
111422000,0.0324,0.013523,0.002678,0.000431,0.420281
111423000,0.0324,0.013523,0.002678,0.000431,0.153257
111424000,0.0324,0.013523,0.002678,0.000431,0.050890
111425000,0.0324,0.013523,0.002678,0.000431,0.044778
111426000,0.0324,0.013523,0.002678,0.000431,0.041958
111427000,0.0324,0.013523,0.002678,0.000431,0.042545
111428000,0.0324,0.013523,0.002678,0.000431,0.039372
111429000,0.0324,0.013523,0.002678,0.000431,0.032203
111430000,0.0324,0.013523,0.002678,0.000431,0.025974
111431000,0.0324,0.013523,0.002678,0.000431,0.024328
111432000,0.0324,0.013523,0.002678,0.000431,0.025034
111433000,0.0324,0.013523,0.002678,0.000431,0.021625
111434000,0.0324,0.013523,0.002678,0.000431,0.023153
111435000,0.0324,0.013523,0.002678,0.000431,0.021038
111436000,0.0324,0.013523,0.002678,0.000431,0.019862
111437000,0.0324,0.013523,0.002678,0.000431,0.017864
111438000,0.0324,0.013523,0.002678,0.000431,0.017629
111439000,0.0324,0.013523,0.002678,0.000431,0.017042
111440000,0.0324,0.013523,0.002678,0.000431,0.017747
111441000,0.0324,0.013523,0.002678,0.000431,0.019745
111442000,0.0324,0.013523,0.002678,0.000431,0.013986
111443000,0.0324,0.013523,0.002678,0.000431,0.014456
111444000,0.0324,0.013523,0.002678,0.000431,0.015749
111445000,0.0324,0.013523,0.002678,0.000431,0.013516
111446000,0.0324,0.013523,0.002678,0.000431,0.013633
111447000,0.0324,0.013523,0.002678,0.000431,0.012693
111448000,0.0324,0.013523,0.002678,0.000431,0.013868
111449000,0.0324,0.013523,0.002678,0.000431,0.014103
111450000,0.0324,0.013523,0.002678,0.000431,0.012223
111451000,0.0324,0.013523,0.002678,0.000431,0.009990
111452000,0.0324,0.013523,0.002678,0.000431,0.009637
111453000,0.0324,0.013523,0.002678,0.000431,0.010107
111454000,0.0324,0.013523,0.002678,0.000431,0.009755
111455000,0.0324,0.013523,0.002678,0.000431,0.010225
111456000,0.0324,0.013523,0.002678,0.000431,0.012223
111457000,0.0324,0.013523,0.002678,0.000431,0.008345
111458000,0.0324,0.013523,0.002678,0.000431,0.008227
111459000,0.0324,0.013523,0.002678,0.000431,0.009990
111460000,0.0324,0.013523,0.002678,0.000431,0.007522
111461000,0.0324,0.013523,0.002678,0.000431,0.007169
111462000,0.0324,0.013523,0.002678,0.000431,0.012928
111463000,0.0324,0.013523,0.002678,0.000431,0.004349
111464000,0.0324,0.013523,0.002678,0.000431,0.005289
111465000,0.0324,0.013523,0.002678,0.000431,0.004819
111466000,0.0324,0.013523,0.002678,0.000431,0.004936
111467000,0.0324,0.013523,0.002678,0.000431,0.005406
111468000,0.0324,0.013523,0.002678,0.000431,0.004231
111469000,0.0324,0.013523,0.002678,0.000431,0.004936
111470000,0.0324,0.013523,0.002678,0.000431,0.004819
111471000,0.0324,0.013523,0.002678,0.000431,0.005289
111472000,0.0324,0.013523,0.002678,0.000431,0.004584
111473000,0.0324,0.013523,0.002678,0.000431,0.005289
111474000,0.0324,0.013523,0.002678,0.000431,0.005876
111475000,0.0324,0.013523,0.002678,0.000431,0.003643
111476000,0.0324,0.013523,0.002678,0.000431,0.003526
111477000,0.0324,0.013523,0.002678,0.000431,0.003996
111478000,0.0324,0.013523,0.002678,0.000431,0.003761
111479000,0.0324,0.013523,0.002678,0.000431,0.002116
111480000,0.0324,0.013523,0.002678,0.000431,0.002821
111481000,0.0324,0.013523,0.002678,0.000431,0.002586
111482000,0.0324,0.013523,0.002678,0.000431,0.002351
111483000,0.0324,0.013523,0.002678,0.000431,0.002586
111484000,0.0324,0.013523,0.002678,0.000431,0.002351
111485000,0.0324,0.013523,0.002678,0.000431,0.002821
111486000,0.0324,0.013523,0.002678,0.000431,0.002233
111487000,0.0324,0.013523,0.002678,0.000431,0.002703
111488000,0.0324,0.013523,0.002678,0.000431,0.002586
111489000,0.0324,0.013523,0.002678,0.000431,0.002351
111490000,0.0324,0.013523,0.002678,0.000431,0.002586
111491000,0.0324,0.013523,0.002678,0.000431,0.004349
111492000,0.0324,0.013523,0.002678,0.000431,0.001645
111493000,0.0324,0.013523,0.002678,0.000431,0.001645
111494000,0.0324,0.013523,0.002678,0.000431,0.001763
111495000,0.0324,0.013523,0.002678,0.000431,0.001528
111496000,0.0324,0.013523,0.002678,0.000431,0.001880
111497000,0.0324,0.013523,0.002678,0.000431,0.001528
111498000,0.0324,0.013523,0.002678,0.000431,0.001763
111499000,0.0324,0.013523,0.002678,0.000431,0.001645
111500000,0.0324,0.013523,0.002678,0.000431,0.001645
111501000,0.0324,0.013523,0.002678,0.000431,0.001880
111502000,0.0324,0.013523,0.002678,0.000431,0.001645
111503000,0.0324,0.013523,0.002678,0.000431,0.003878
111504000,0.0324,0.013523,0.002678,0.000431,0.000823
111505000,0.0324,0.013523,0.002678,0.000431,0.000823
111506000,0.0324,0.013523,0.002678,0.000431,0.000823
111507000,0.0324,0.013523,0.002678,0.000431,0.000823
111508000,0.0324,0.013523,0.002678,0.000431,0.000940
111509000,0.0324,0.013523,0.002678,0.000431,0.003056
111510000,0.0324,0.013523,0.002678,0.000431,0.373387
111511000,0.0324,0.013523,0.002678,0.000431,0.690008
111512000,0.0324,0.013523,0.002678,0.000431,0.141739
111513000,0.0324,0.013523,0.002678,0.000431,0.138683
111514000,0.0324,0.013523,0.002678,0.000431,0.184402
111515000,0.0324,0.013523,0.002678,0.000431,0.597866
111516000,0.0324,0.013523,0.002678,0.000431,0.260678
111517000,0.0324,0.013523,0.002678,0.000431,0.323908
111518000,0.0324,0.013523,0.002678,0.000431,0.221071
111519000,0.0324,0.013523,0.002678,0.000431,0.146910
111520000,0.0324,0.013523,0.002678,0.000431,0.113062
111521000,0.0324,0.013523,0.002678,0.000431,0.331077
111522000,0.0324,0.013523,0.002678,0.000431,0.300990
111523000,0.0324,0.013523,0.002678,0.000431,0.064523
111524000,0.0324,0.013523,0.002678,0.000431,0.055238
111525000,0.0324,0.013523,0.002678,0.000431,0.041840
111526000,0.0324,0.013523,0.002678,0.000431,0.031850
111527000,0.0324,0.013523,0.002678,0.000431,0.026914
111528000,0.0324,0.013523,0.002678,0.000431,0.020097
111529000,0.0324,0.013523,0.002678,0.000431,0.022800
111530000,0.0324,0.013523,0.002678,0.000431,0.019745
111531000,0.0324,0.013523,0.002678,0.000431,0.018217
111532000,0.0324,0.013523,0.002678,0.000431,0.021155
111533000,0.0324,0.013523,0.002678,0.000431,0.011988
111534000,0.0324,0.013523,0.002678,0.000431,0.012340
111535000,0.0324,0.013523,0.002678,0.000431,0.013751
111536000,0.0324,0.013523,0.002678,0.000431,0.010578
111537000,0.0324,0.013523,0.002678,0.000431,0.013281
111538000,0.0324,0.013523,0.002678,0.000431,0.012576
111539000,0.0324,0.013523,0.002678,0.000431,0.009520
111540000,0.0324,0.013523,0.002678,0.000431,0.011518
111541000,0.0324,0.013523,0.002678,0.000431,0.009285
111542000,0.0324,0.013523,0.002678,0.000431,0.008462
111543000,0.0324,0.013523,0.002678,0.000431,0.007757
111544000,0.0324,0.013523,0.002678,0.000431,0.009285
111545000,0.0324,0.013523,0.002678,0.000431,0.006934
111546000,0.0324,0.013523,0.002678,0.000431,0.006817
111547000,0.0324,0.013523,0.002678,0.000431,0.006582
111548000,0.0324,0.013523,0.002678,0.000431,0.007052
111549000,0.0324,0.013523,0.002678,0.000431,0.008345
111550000,0.0324,0.013523,0.002678,0.000431,0.007404
111551000,0.0324,0.013523,0.002678,0.000431,0.005171
111552000,0.0324,0.013523,0.002678,0.000431,0.005171
111553000,0.0324,0.013523,0.002678,0.000431,0.004936
111554000,0.0324,0.013523,0.002678,0.000431,0.005289
111555000,0.0324,0.013523,0.002678,0.000431,0.004936
111556000,0.0324,0.013523,0.002678,0.000431,0.005406
111557000,0.0324,0.013523,0.002678,0.000431,0.005054
111558000,0.0324,0.013523,0.002678,0.000431,0.004466
111559000,0.0324,0.013523,0.002678,0.000431,0.007169
111560000,0.0324,0.013523,0.002678,0.000431,0.003291
111561000,0.0324,0.013523,0.002678,0.000431,0.003291
111562000,0.0324,0.013523,0.002678,0.000431,0.003643
111563000,0.0324,0.013523,0.002678,0.000431,0.003526
111564000,0.0324,0.013523,0.002678,0.000431,0.003408
111565000,0.0324,0.013523,0.002678,0.000431,0.003173
111566000,0.0324,0.013523,0.002678,0.000431,0.004584
111567000,0.0324,0.013523,0.002678,0.000431,0.002586
111568000,0.0324,0.013523,0.002678,0.000431,0.002586
111569000,0.0324,0.013523,0.002678,0.000431,0.002468
111570000,0.0324,0.013523,0.002678,0.000431,0.002821
111571000,0.0324,0.013523,0.002678,0.000431,0.002703
111572000,0.0324,0.013523,0.002678,0.000431,0.002351
111573000,0.0324,0.013523,0.002678,0.000431,0.002468
111574000,0.0324,0.013523,0.002678,0.000431,0.002821
111575000,0.0324,0.013523,0.002678,0.000431,0.004231
111576000,0.0324,0.013523,0.002678,0.000431,0.003408
111577000,0.0324,0.013523,0.002678,0.000431,0.001880
111578000,0.0324,0.013523,0.002678,0.000431,0.001645
111579000,0.0324,0.013523,0.002678,0.000431,0.001763
111580000,0.0324,0.013523,0.002678,0.000431,0.001645
111581000,0.0324,0.013523,0.002678,0.000431,0.001763
111582000,0.0324,0.013523,0.002678,0.000431,0.002586
111583000,0.0324,0.013523,0.002678,0.000431,0.001763
111584000,0.0324,0.013523,0.002678,0.000431,0.000940
111585000,0.0324,0.013523,0.002678,0.000431,0.000823
111586000,0.0324,0.013523,0.002678,0.000431,0.000823
111587000,0.0324,0.013523,0.002678,0.000431,0.000823
111588000,0.0324,0.013523,0.002678,0.000431,0.000823
111589000,0.0324,0.013523,0.002678,0.000431,0.000823
111590000,0.0324,0.013523,0.002678,0.000431,0.000823
111591000,0.0324,0.013523,0.002678,0.000431,0.000940
111592000,0.0324,0.013523,0.002678,0.000431,0.000705
111593000,0.0324,0.013523,0.002678,0.000431,0.000823
111594000,0.0324,0.013523,0.002678,0.000431,0.000940
111595000,0.0324,0.013523,0.002678,0.000431,0.000823
111596000,0.0324,0.013523,0.002678,0.000431,0.000823
111597000,0.0324,0.013523,0.002678,0.000431,0.000823
111598000,0.0324,0.013523,0.002678,0.000431,0.000705
111599000,0.0324,0.013523,0.002678,0.000431,0.000940
111600000,0.0324,0.013523,0.002678,0.000431,0.000940
111601000,0.0324,0.013523,0.002678,0.000431,0.000705
111602000,0.0324,0.013523,0.002678,0.000431,0.000940
111603000,0.0324,0.013523,0.002678,0.000431,0.000705
111604000,0.0324,0.013523,0.002678,0.000431,0.000940
111605000,0.0324,0.013523,0.002678,0.000431,0.000940
111606000,0.0324,0.013523,0.002678,0.000431,0.000705
111607000,0.0324,0.013523,0.002678,0.000431,0.000940
111608000,0.0324,0.013523,0.002678,0.000431,0.000705
111609000,0.0324,0.013523,0.002678,0.000431,0.000940
111610000,0.0324,0.013523,0.002678,0.000431,0.000823
111611000,0.0324,0.013523,0.002678,0.000431,0.000823
111612000,0.0324,0.013523,0.002678,0.000431,0.000823
111613000,0.0324,0.013523,0.002678,0.000431,0.000823
111614000,0.0324,0.013523,0.002678,0.000431,0.000940
111615000,0.0324,0.013523,0.002678,0.000431,0.000705
111616000,0.0324,0.013523,0.002678,0.000431,0.000940
111617000,0.0324,0.013523,0.002678,0.000431,0.000823
111618000,0.0324,0.013523,0.002678,0.000431,0.000823
111619000,0.0324,0.013523,0.002678,0.000431,0.000823
111620000,0.0324,0.013523,0.002678,0.000431,0.000823
111621000,0.0324,0.013523,0.002678,0.000431,0.000940
111622000,0.0324,0.013523,0.002678,0.000431,0.000940
111623000,0.0324,0.013523,0.002678,0.000431,0.000940
111624000,0.0324,0.013523,0.002678,0.000431,0.000823
111625000,0.0324,0.013523,0.002678,0.000431,0.000823
111626000,0.0324,0.013523,0.002678,0.000431,0.000940
111627000,0.0324,0.013523,0.002678,0.000431,0.000940
111628000,0.0324,0.013523,0.002678,0.000431,0.000823
111629000,0.0324,0.013523,0.002678,0.000431,0.000823
111630000,0.0324,0.013523,0.002678,0.000431,0.000940
111631000,0.0324,0.013523,0.002678,0.000431,0.000823
111632000,0.0324,0.013523,0.002678,0.000431,0.000940
111633000,0.0324,0.013523,0.002678,0.000431,0.000823
111634000,0.0324,0.013523,0.002678,0.000431,0.000940
111635000,0.0324,0.013523,0.002678,0.000431,0.000823
111636000,0.0324,0.013523,0.002678,0.000431,0.000823
111637000,0.0324,0.013523,0.002678,0.000431,0.000940
111638000,0.0324,0.013523,0.002678,0.000431,0.000940
111639000,0.0324,0.013523,0.002678,0.000431,0.000823
111640000,0.0324,0.013523,0.002678,0.000431,0.000823
111641000,0.0324,0.013523,0.002678,0.000431,0.001058
111642000,0.0324,0.013523,0.002678,0.000431,0.000823
111643000,0.0324,0.013523,0.002678,0.000431,0.000940
111644000,0.0324,0.013523,0.002678,0.000431,0.000823
111645000,0.0324,0.013523,0.002678,0.000431,0.000823
111646000,0.0324,0.013523,0.002678,0.000431,0.000940
111647000,0.0324,0.013523,0.002678,0.000431,0.000940
111648000,0.0324,0.013523,0.002678,0.000431,0.000823
111649000,0.0324,0.013523,0.002678,0.000431,0.000823
111650000,0.0324,0.013523,0.002678,0.000431,0.000940
111651000,0.0324,0.013523,0.002678,0.000431,0.000940
111652000,0.0324,0.013523,0.002678,0.000431,0.000705
111653000,0.0324,0.013523,0.002678,0.000431,0.000940
111654000,0.0324,0.013523,0.002678,0.000431,0.000940
111655000,0.0324,0.013523,0.002678,0.000431,0.000940
111656000,0.0324,0.013523,0.002678,0.000431,0.000705
111657000,0.0324,0.013523,0.002678,0.000431,0.000940
111658000,0.0324,0.013523,0.002678,0.000431,0.000940
111659000,0.0324,0.013523,0.002678,0.000431,0.000823
111660000,0.0324,0.013523,0.002678,0.000431,0.000823
111661000,0.0324,0.013523,0.002678,0.000431,0.000940
111662000,0.0324,0.013523,0.002678,0.000431,0.000823
111663000,0.0324,0.013523,0.002678,0.000431,0.000940
111664000,0.0324,0.013523,0.002678,0.000431,0.000823
111665000,0.0324,0.013523,0.002678,0.000431,0.000940
111666000,0.0324,0.013523,0.002678,0.000431,0.000823
111667000,0.0324,0.013523,0.002678,0.000431,0.000823
111668000,0.0324,0.013523,0.002678,0.000431,0.000940
111669000,0.0324,0.013523,0.002678,0.000431,0.000940
111670000,0.0324,0.013523,0.002678,0.000431,0.000823
111671000,0.0324,0.013523,0.002678,0.000431,0.001880
111672000,0.0324,0.013523,0.002678,0.000431,0.396658
111673000,0.0324,0.013523,0.002678,0.000431,0.707285
111674000,0.0324,0.013523,0.002678,0.000431,0.137978
111675000,0.0324,0.013523,0.002678,0.000431,0.133865
111676000,0.0324,0.013523,0.002678,0.000431,0.233764
111677000,0.0324,0.013523,0.002678,0.000431,0.585878
111678000,0.0324,0.013523,0.002678,0.000431,0.240463
111679000,0.0324,0.013523,0.002678,0.000431,0.320852
111680000,0.0324,0.013523,0.002678,0.000431,0.169006
111681000,0.0324,0.013523,0.002678,0.000431,0.157370
111682000,0.0324,0.013523,0.002678,0.000431,0.106598
111683000,0.0324,0.013523,0.002678,0.000431,0.335660
111684000,0.0324,0.013523,0.002678,0.000431,0.333427
111685000,0.0324,0.013523,0.002678,0.000431,0.108596
111686000,0.0324,0.013523,0.002678,0.000431,0.105188
111687000,0.0324,0.013523,0.002678,0.000431,0.077216
111688000,0.0324,0.013523,0.002678,0.000431,0.067109
111689000,0.0324,0.013523,0.002678,0.000431,0.066168
111690000,0.0324,0.013523,0.002678,0.000431,0.058412
111691000,0.0324,0.013523,0.002678,0.000431,0.049127
111692000,0.0324,0.013523,0.002678,0.000431,0.049714
111693000,0.0324,0.013523,0.002678,0.000431,0.035023
111694000,0.0324,0.013523,0.002678,0.000431,0.032320
111695000,0.0324,0.013523,0.002678,0.000431,0.026091
111696000,0.0324,0.013523,0.002678,0.000431,0.020567
111697000,0.0324,0.013523,0.002678,0.000431,0.022565
111698000,0.0324,0.013523,0.002678,0.000431,0.023271
111699000,0.0324,0.013523,0.002678,0.000431,0.023976
111700000,0.0324,0.013523,0.002678,0.000431,0.019627
111701000,0.0324,0.013523,0.002678,0.000431,0.019157
111702000,0.0324,0.013523,0.002678,0.000431,0.018217
111703000,0.0324,0.013523,0.002678,0.000431,0.015279
111704000,0.0324,0.013523,0.002678,0.000431,0.015631
111705000,0.0324,0.013523,0.002678,0.000431,0.016219
111706000,0.0324,0.013523,0.002678,0.000431,0.014456
111707000,0.0324,0.013523,0.002678,0.000431,0.014573
111708000,0.0324,0.013523,0.002678,0.000431,0.014221
111709000,0.0324,0.013523,0.002678,0.000431,0.018099
111710000,0.0324,0.013523,0.002678,0.000431,0.012693
111711000,0.0324,0.013523,0.002678,0.000431,0.012340
111712000,0.0324,0.013523,0.002678,0.000431,0.016101
111713000,0.0324,0.013523,0.002678,0.000431,0.011870
111714000,0.0324,0.013523,0.002678,0.000431,0.011048
111715000,0.0324,0.013523,0.002678,0.000431,0.012223
111716000,0.0324,0.013523,0.002678,0.000431,0.011988
111717000,0.0324,0.013523,0.002678,0.000431,0.011283
111718000,0.0324,0.013523,0.002678,0.000431,0.011753
111719000,0.0324,0.013523,0.002678,0.000431,0.013398
111720000,0.0324,0.013523,0.002678,0.000431,0.010107
111721000,0.0324,0.013523,0.002678,0.000431,0.009637
111722000,0.0324,0.013523,0.002678,0.000431,0.010107
111723000,0.0324,0.013523,0.002678,0.000431,0.010460
111724000,0.0324,0.013523,0.002678,0.000431,0.012223
111725000,0.0324,0.013523,0.002678,0.000431,0.009520
111726000,0.0324,0.013523,0.002678,0.000431,0.008815
111727000,0.0324,0.013523,0.002678,0.000431,0.011400
111728000,0.0324,0.013523,0.002678,0.000431,0.009402
111729000,0.0324,0.013523,0.002678,0.000431,0.006582
111730000,0.0324,0.013523,0.002678,0.000431,0.006817
111731000,0.0324,0.013523,0.002678,0.000431,0.006582
111732000,0.0324,0.013523,0.002678,0.000431,0.006699
111733000,0.0324,0.013523,0.002678,0.000431,0.006699
111734000,0.0324,0.013523,0.002678,0.000431,0.007052
111735000,0.0324,0.013523,0.002678,0.000431,0.006347
111736000,0.0324,0.013523,0.002678,0.000431,0.007757
111737000,0.0324,0.013523,0.002678,0.000431,0.006229
111738000,0.0324,0.013523,0.002678,0.000431,0.005994
111739000,0.0324,0.013523,0.002678,0.000431,0.006229
111740000,0.0324,0.013523,0.002678,0.000431,0.005641
111741000,0.0324,0.013523,0.002678,0.000431,0.005994
111742000,0.0324,0.013523,0.002678,0.000431,0.005641
111743000,0.0324,0.013523,0.002678,0.000431,0.005759
111744000,0.0324,0.013523,0.002678,0.000431,0.005994
111745000,0.0324,0.013523,0.002678,0.000431,0.005641
111746000,0.0324,0.013523,0.002678,0.000431,0.006229
111747000,0.0324,0.013523,0.002678,0.000431,0.005289
111748000,0.0324,0.013523,0.002678,0.000431,0.006229
111749000,0.0324,0.013523,0.002678,0.000431,0.006229
111750000,0.0324,0.013523,0.002678,0.000431,0.005289
111751000,0.0324,0.013523,0.002678,0.000431,0.005876
111752000,0.0324,0.013523,0.002678,0.000431,0.005641
111753000,0.0324,0.013523,0.002678,0.000431,0.006347
111754000,0.0324,0.013523,0.002678,0.000431,0.005641
111755000,0.0324,0.013523,0.002678,0.000431,0.005876
111756000,0.0324,0.013523,0.002678,0.000431,0.005876
111757000,0.0324,0.013523,0.002678,0.000431,0.005876
111758000,0.0324,0.013523,0.002678,0.000431,0.005759
111759000,0.0324,0.013523,0.002678,0.000431,0.005994
111760000,0.0324,0.013523,0.002678,0.000431,0.005641
111761000,0.0324,0.013523,0.002678,0.000431,0.006111
111762000,0.0324,0.013523,0.002678,0.000431,0.005524
111763000,0.0324,0.013523,0.002678,0.000431,0.005876
111764000,0.0324,0.013523,0.002678,0.000431,0.005876
111765000,0.0324,0.013523,0.002678,0.000431,0.005759
111766000,0.0324,0.013523,0.002678,0.000431,0.006229
111767000,0.0324,0.013523,0.002678,0.000431,0.006699
111768000,0.0324,0.013523,0.002678,0.000431,0.004231
111769000,0.0324,0.013523,0.002678,0.000431,0.006111
111770000,0.0324,0.013523,0.002678,0.000431,0.003291
111771000,0.0324,0.013523,0.002678,0.000431,0.003643
111772000,0.0324,0.013523,0.002678,0.000431,0.003761
111773000,0.0324,0.013523,0.002678,0.000431,0.003056
111774000,0.0324,0.013523,0.002678,0.000431,0.003408
111775000,0.0324,0.013523,0.002678,0.000431,0.003291
111776000,0.0324,0.013523,0.002678,0.000431,0.003761
111777000,0.0324,0.013523,0.002678,0.000431,0.003643
111778000,0.0324,0.013523,0.002678,0.000431,0.003173
111779000,0.0324,0.013523,0.002678,0.000431,0.003643
111780000,0.0324,0.013523,0.002678,0.000431,0.003056
111781000,0.0324,0.013523,0.002678,0.000431,0.003526
111782000,0.0324,0.013523,0.002678,0.000431,0.003291
111783000,0.0324,0.013523,0.002678,0.000431,0.003056
111784000,0.0324,0.013523,0.002678,0.000431,0.003526
111785000,0.0324,0.013523,0.002678,0.000431,0.003526
111786000,0.0324,0.013523,0.002678,0.000431,0.003526
111787000,0.0324,0.013523,0.002678,0.000431,0.003056
111788000,0.0324,0.013523,0.002678,0.000431,0.003173
111789000,0.0324,0.013523,0.002678,0.000431,0.003408
111790000,0.0324,0.013523,0.002678,0.000431,0.003643
111791000,0.0324,0.013523,0.002678,0.000431,0.003173
111792000,0.0324,0.013523,0.002678,0.000431,0.003526
111793000,0.0324,0.013523,0.002678,0.000431,0.003408
111794000,0.0324,0.013523,0.002678,0.000431,0.003173
111795000,0.0324,0.013523,0.002678,0.000431,0.003643
111796000,0.0324,0.013523,0.002678,0.000431,0.003643
111797000,0.0324,0.013523,0.002678,0.000431,0.003878
111798000,0.0324,0.013523,0.002678,0.000431,0.003056
111799000,0.0324,0.013523,0.002678,0.000431,0.003408
111800000,0.0324,0.013523,0.002678,0.000431,0.003408
111801000,0.0324,0.013523,0.002678,0.000431,0.003643
111802000,0.0324,0.013523,0.002678,0.000431,0.003408
111803000,0.0324,0.013523,0.002678,0.000431,0.003173
111804000,0.0324,0.013523,0.002678,0.000431,0.003761
111805000,0.0324,0.013523,0.002678,0.000431,0.003643
111806000,0.0324,0.013523,0.002678,0.000431,0.003408
111807000,0.0324,0.013523,0.002678,0.000431,0.003408
111808000,0.0324,0.013523,0.002678,0.000431,0.003408
111809000,0.0324,0.013523,0.002678,0.000431,0.003643
111810000,0.0324,0.013523,0.002678,0.000431,0.003408
111811000,0.0324,0.013523,0.002678,0.000431,0.003291
111812000,0.0324,0.013523,0.002678,0.000431,0.003643
111813000,0.0324,0.013523,0.002678,0.000431,0.003408
111814000,0.0324,0.013523,0.002678,0.000431,0.003526
111815000,0.0324,0.013523,0.002678,0.000431,0.003291
111816000,0.0324,0.013523,0.002678,0.000431,0.003291
111817000,0.0324,0.013523,0.002678,0.000431,0.006229
111818000,0.0324,0.013523,0.002678,0.000431,0.002938
111819000,0.0324,0.013523,0.002678,0.000431,0.001410
111820000,0.0324,0.013523,0.002678,0.000431,0.001880
111821000,0.0324,0.013523,0.002678,0.000431,0.001410
111822000,0.0324,0.013523,0.002678,0.000431,0.001645
111823000,0.0324,0.013523,0.002678,0.000431,0.001293
111824000,0.0324,0.013523,0.002678,0.000431,0.001763
111825000,0.0324,0.013523,0.002678,0.000431,0.001175
111826000,0.0324,0.013523,0.002678,0.000431,0.001410
111827000,0.0324,0.013523,0.002678,0.000431,0.001175
111828000,0.0324,0.013523,0.002678,0.000431,0.219895
111829000,0.0324,0.013523,0.002678,0.000431,0.585055
111830000,0.0324,0.013523,0.002678,0.000431,0.463414
111831000,0.0324,0.013523,0.002678,0.000431,0.138213
111832000,0.0324,0.013523,0.002678,0.000431,0.155607
111833000,0.0324,0.013523,0.002678,0.000431,0.632537
111834000,0.0324,0.013523,0.002678,0.000431,0.237642
111835000,0.0324,0.013523,0.002678,0.000431,0.364690
111836000,0.0324,0.013523,0.002678,0.000431,0.204264
111837000,0.0324,0.013523,0.002678,0.000431,0.151024
111838000,0.0324,0.013523,0.002678,0.000431,0.108243
111839000,0.0324,0.013523,0.002678,0.000431,0.422514
111840000,0.0324,0.013523,0.002678,0.000431,0.225537
111841000,0.0324,0.013523,0.002678,0.000431,0.098606
111842000,0.0324,0.013523,0.002678,0.000431,0.074983
111843000,0.0324,0.013523,0.002678,0.000431,0.059117
111844000,0.0324,0.013523,0.002678,0.000431,0.061820
111845000,0.0324,0.013523,0.002678,0.000431,0.049244
111846000,0.0324,0.013523,0.002678,0.000431,0.047364
111847000,0.0324,0.013523,0.002678,0.000431,0.043485
111848000,0.0324,0.013523,0.002678,0.000431,0.031850
111849000,0.0324,0.013523,0.002678,0.000431,0.024916
111850000,0.0324,0.013523,0.002678,0.000431,0.025151
111851000,0.0324,0.013523,0.002678,0.000431,0.022095
111852000,0.0324,0.013523,0.002678,0.000431,0.019980
111853000,0.0324,0.013523,0.002678,0.000431,0.016336
111854000,0.0324,0.013523,0.002678,0.000431,0.015161
111855000,0.0324,0.013523,0.002678,0.000431,0.017629
111856000,0.0324,0.013523,0.002678,0.000431,0.014926
111857000,0.0324,0.013523,0.002678,0.000431,0.013986
111858000,0.0324,0.013523,0.002678,0.000431,0.015279
111859000,0.0324,0.013523,0.002678,0.000431,0.015279
111860000,0.0324,0.013523,0.002678,0.000431,0.012928
111861000,0.0324,0.013523,0.002678,0.000431,0.012928
111862000,0.0324,0.013523,0.002678,0.000431,0.013046
111863000,0.0324,0.013523,0.002678,0.000431,0.013398
111864000,0.0324,0.013523,0.002678,0.000431,0.013516
111865000,0.0324,0.013523,0.002678,0.000431,0.011753
111866000,0.0324,0.013523,0.002678,0.000431,0.013633
111867000,0.0324,0.013523,0.002678,0.000431,0.011753
111868000,0.0324,0.013523,0.002678,0.000431,0.012576
111869000,0.0324,0.013523,0.002678,0.000431,0.010107
111870000,0.0324,0.013523,0.002678,0.000431,0.009520
111871000,0.0324,0.013523,0.002678,0.000431,0.012928
111872000,0.0324,0.013523,0.002678,0.000431,0.007287
111873000,0.0324,0.013523,0.002678,0.000431,0.007874
111874000,0.0324,0.013523,0.002678,0.000431,0.008815
111875000,0.0324,0.013523,0.002678,0.000431,0.006817
111876000,0.0324,0.013523,0.002678,0.000431,0.006347
111877000,0.0324,0.013523,0.002678,0.000431,0.006464
111878000,0.0324,0.013523,0.002678,0.000431,0.007052
111879000,0.0324,0.013523,0.002678,0.000431,0.006229
111880000,0.0324,0.013523,0.002678,0.000431,0.006934
111881000,0.0324,0.013523,0.002678,0.000431,0.006817
111882000,0.0324,0.013523,0.002678,0.000431,0.005994
111883000,0.0324,0.013523,0.002678,0.000431,0.007169
111884000,0.0324,0.013523,0.002678,0.000431,0.006699
111885000,0.0324,0.013523,0.002678,0.000431,0.006347
111886000,0.0324,0.013523,0.002678,0.000431,0.006934
111887000,0.0324,0.013523,0.002678,0.000431,0.007404
111888000,0.0324,0.013523,0.002678,0.000431,0.007757
111889000,0.0324,0.013523,0.002678,0.000431,0.006347
111890000,0.0324,0.013523,0.002678,0.000431,0.005054
111891000,0.0324,0.013523,0.002678,0.000431,0.006111
111892000,0.0324,0.013523,0.002678,0.000431,0.005994
111893000,0.0324,0.013523,0.002678,0.000431,0.009167
111894000,0.0324,0.013523,0.002678,0.000431,0.005171
111895000,0.0324,0.013523,0.002678,0.000431,0.004701
111896000,0.0324,0.013523,0.002678,0.000431,0.005289
111897000,0.0324,0.013523,0.002678,0.000431,0.005054
111898000,0.0324,0.013523,0.002678,0.000431,0.004819
111899000,0.0324,0.013523,0.002678,0.000431,0.004584
111900000,0.0324,0.013523,0.002678,0.000431,0.004349
111901000,0.0324,0.013523,0.002678,0.000431,0.004113
111902000,0.0324,0.013523,0.002678,0.000431,0.004349
111903000,0.0324,0.013523,0.002678,0.000431,0.004113
111904000,0.0324,0.013523,0.002678,0.000431,0.004113
111905000,0.0324,0.013523,0.002678,0.000431,0.004466
111906000,0.0324,0.013523,0.002678,0.000431,0.003878
111907000,0.0324,0.013523,0.002678,0.000431,0.004349
111908000,0.0324,0.013523,0.002678,0.000431,0.004349
111909000,0.0324,0.013523,0.002678,0.000431,0.003878
111910000,0.0324,0.013523,0.002678,0.000431,0.004231
111911000,0.0324,0.013523,0.002678,0.000431,0.004349
111912000,0.0324,0.013523,0.002678,0.000431,0.004349
111913000,0.0324,0.013523,0.002678,0.000431,0.003996
111914000,0.0324,0.013523,0.002678,0.000431,0.006111
111915000,0.0324,0.013523,0.002678,0.000431,0.003643
111916000,0.0324,0.013523,0.002678,0.000431,0.003408
111917000,0.0324,0.013523,0.002678,0.000431,0.003056
111918000,0.0324,0.013523,0.002678,0.000431,0.003173
111919000,0.0324,0.013523,0.002678,0.000431,0.003056
111920000,0.0324,0.013523,0.002678,0.000431,0.003291
111921000,0.0324,0.013523,0.002678,0.000431,0.003408
111922000,0.0324,0.013523,0.002678,0.000431,0.003173
111923000,0.0324,0.013523,0.002678,0.000431,0.003291
111924000,0.0324,0.013523,0.002678,0.000431,0.003173
111925000,0.0324,0.013523,0.002678,0.000431,0.003291
111926000,0.0324,0.013523,0.002678,0.000431,0.003291
111927000,0.0324,0.013523,0.002678,0.000431,0.003173
111928000,0.0324,0.013523,0.002678,0.000431,0.003056
111929000,0.0324,0.013523,0.002678,0.000431,0.003056
111930000,0.0324,0.013523,0.002678,0.000431,0.003291
111931000,0.0324,0.013523,0.002678,0.000431,0.003408
111932000,0.0324,0.013523,0.002678,0.000431,0.002821
111933000,0.0324,0.013523,0.002678,0.000431,0.003291
111934000,0.0324,0.013523,0.002678,0.000431,0.002821
111935000,0.0324,0.013523,0.002678,0.000431,0.003291
111936000,0.0324,0.013523,0.002678,0.000431,0.003643
111937000,0.0324,0.013523,0.002678,0.000431,0.003291
111938000,0.0324,0.013523,0.002678,0.000431,0.002938
111939000,0.0324,0.013523,0.002678,0.000431,0.003173
111940000,0.0324,0.013523,0.002678,0.000431,0.003526
111941000,0.0324,0.013523,0.002678,0.000431,0.003408
111942000,0.0324,0.013523,0.002678,0.000431,0.003056
111943000,0.0324,0.013523,0.002678,0.000431,0.003408
111944000,0.0324,0.013523,0.002678,0.000431,0.003291
111945000,0.0324,0.013523,0.002678,0.000431,0.003173
111946000,0.0324,0.013523,0.002678,0.000431,0.003173
111947000,0.0324,0.013523,0.002678,0.000431,0.003526
111948000,0.0324,0.013523,0.002678,0.000431,0.005641
111949000,0.0324,0.013523,0.002678,0.000431,0.002351
111950000,0.0324,0.013523,0.002678,0.000431,0.002468
111951000,0.0324,0.013523,0.002678,0.000431,0.002351
111952000,0.0324,0.013523,0.002678,0.000431,0.002821
111953000,0.0324,0.013523,0.002678,0.000431,0.002116
111954000,0.0324,0.013523,0.002678,0.000431,0.002351
111955000,0.0324,0.013523,0.002678,0.000431,0.002821
111956000,0.0324,0.013523,0.002678,0.000431,0.002351
111957000,0.0324,0.013523,0.002678,0.000431,0.002116
111958000,0.0324,0.013523,0.002678,0.000431,0.002586
111959000,0.0324,0.013523,0.002678,0.000431,0.002586
111960000,0.0324,0.013523,0.002678,0.000431,0.002468
111961000,0.0324,0.013523,0.002678,0.000431,0.001998
111962000,0.0324,0.013523,0.002678,0.000431,0.002821
111963000,0.0324,0.013523,0.002678,0.000431,0.002351
111964000,0.0324,0.013523,0.002678,0.000431,0.002468
111965000,0.0324,0.013523,0.002678,0.000431,0.002468
111966000,0.0324,0.013523,0.002678,0.000431,0.002351
111967000,0.0324,0.013523,0.002678,0.000431,0.002468
111968000,0.0324,0.013523,0.002678,0.000431,0.002351
111969000,0.0324,0.013523,0.002678,0.000431,0.002468
111970000,0.0324,0.013523,0.002678,0.000431,0.002586
111971000,0.0324,0.013523,0.002678,0.000431,0.002233
111972000,0.0324,0.013523,0.002678,0.000431,0.002468
111973000,0.0324,0.013523,0.002678,0.000431,0.002351
111974000,0.0324,0.013523,0.002678,0.000431,0.002821
111975000,0.0324,0.013523,0.002678,0.000431,0.001998
111976000,0.0324,0.013523,0.002678,0.000431,0.002468
111977000,0.0324,0.013523,0.002678,0.000431,0.002821
111978000,0.0324,0.013523,0.002678,0.000431,0.002351
111979000,0.0324,0.013523,0.002678,0.000431,0.002468
111980000,0.0324,0.013523,0.002678,0.000431,0.001998
111981000,0.0324,0.013523,0.002678,0.000431,0.002821
111982000,0.0324,0.013523,0.002678,0.000431,0.002468
111983000,0.0324,0.013523,0.002678,0.000431,0.002351
111984000,0.0324,0.013523,0.002678,0.000431,0.002468
111985000,0.0324,0.013523,0.002678,0.000431,0.002351
111986000,0.0324,0.013523,0.002678,0.000431,0.002468
111987000,0.0324,0.013523,0.002678,0.000431,0.002233
111988000,0.0324,0.013523,0.002678,0.000431,0.002586
111989000,0.0324,0.013523,0.002678,0.000431,0.002821
111990000,0.0324,0.013523,0.002678,0.000431,0.001998
111991000,0.0324,0.013523,0.002678,0.000431,0.002468
111992000,0.0324,0.013523,0.002678,0.000431,0.002351
111993000,0.0324,0.013523,0.002678,0.000431,0.002821
111994000,0.0324,0.013523,0.002678,0.000431,0.002116
111995000,0.0324,0.013523,0.002678,0.000431,0.002351
111996000,0.0324,0.013523,0.002678,0.000431,0.002821
111997000,0.0324,0.013523,0.002678,0.000431,0.002351
111998000,0.0324,0.013523,0.002678,0.000431,0.002116
111999000,0.0324,0.013523,0.002678,0.000431,0.002586
