Cycle,Area(mm^2),PeakDynamic(W),SubthresholdLeakage(W),GateLeakage(W),RunTimeDynamic(W)
123000000,0.0324,0.013523,0.002678,0.000431,0.006464
123001000,0.0324,0.013523,0.002678,0.000431,0.005994
123002000,0.0324,0.013523,0.002678,0.000431,0.006699
123003000,0.0324,0.013523,0.002678,0.000431,0.005876
123004000,0.0324,0.013523,0.002678,0.000431,0.009755
123005000,0.0324,0.013523,0.002678,0.000431,0.007639
123006000,0.0324,0.013523,0.002678,0.000431,0.004936
123007000,0.0324,0.013523,0.002678,0.000431,0.004701
123008000,0.0324,0.013523,0.002678,0.000431,0.004701
123009000,0.0324,0.013523,0.002678,0.000431,0.004701
123010000,0.0324,0.013523,0.002678,0.000431,0.004584
123011000,0.0324,0.013523,0.002678,0.000431,0.005289
123012000,0.0324,0.013523,0.002678,0.000431,0.004349
123013000,0.0324,0.013523,0.002678,0.000431,0.005054
123014000,0.0324,0.013523,0.002678,0.000431,0.004466
123015000,0.0324,0.013523,0.002678,0.000431,0.007287
123016000,0.0324,0.013523,0.002678,0.000431,0.004231
123017000,0.0324,0.013523,0.002678,0.000431,0.003291
123018000,0.0324,0.013523,0.002678,0.000431,0.003056
123019000,0.0324,0.013523,0.002678,0.000431,0.003291
123020000,0.0324,0.013523,0.002678,0.000431,0.002938
123021000,0.0324,0.013523,0.002678,0.000431,0.003526
123022000,0.0324,0.013523,0.002678,0.000431,0.003526
123023000,0.0324,0.013523,0.002678,0.000431,0.002938
123024000,0.0324,0.013523,0.002678,0.000431,0.003526
123025000,0.0324,0.013523,0.002678,0.000431,0.002938
123026000,0.0324,0.013523,0.002678,0.000431,0.003526
123027000,0.0324,0.013523,0.002678,0.000431,0.003291
123028000,0.0324,0.013523,0.002678,0.000431,0.003056
123029000,0.0324,0.013523,0.002678,0.000431,0.003291
123030000,0.0324,0.013523,0.002678,0.000431,0.004349
123031000,0.0324,0.013523,0.002678,0.000431,0.003761
123032000,0.0324,0.013523,0.002678,0.000431,0.002468
123033000,0.0324,0.013523,0.002678,0.000431,0.002351
123034000,0.0324,0.013523,0.002678,0.000431,0.002351
123035000,0.0324,0.013523,0.002678,0.000431,0.002468
123036000,0.0324,0.013523,0.002678,0.000431,0.002351
123037000,0.0324,0.013523,0.002678,0.000431,0.002703
123038000,0.0324,0.013523,0.002678,0.000431,0.002233
123039000,0.0324,0.013523,0.002678,0.000431,0.002468
123040000,0.0324,0.013523,0.002678,0.000431,0.002116
123041000,0.0324,0.013523,0.002678,0.000431,0.003643
123042000,0.0324,0.013523,0.002678,0.000431,0.003056
123043000,0.0324,0.013523,0.002678,0.000431,0.001175
123044000,0.0324,0.013523,0.002678,0.000431,0.001880
123045000,0.0324,0.013523,0.002678,0.000431,0.001410
123046000,0.0324,0.013523,0.002678,0.000431,0.001645
123047000,0.0324,0.013523,0.002678,0.000431,0.001645
123048000,0.0324,0.013523,0.002678,0.000431,0.001410
123049000,0.0324,0.013523,0.002678,0.000431,0.001645
123050000,0.0324,0.013523,0.002678,0.000431,0.001645
123051000,0.0324,0.013523,0.002678,0.000431,0.001645
123052000,0.0324,0.013523,0.002678,0.000431,0.001410
123053000,0.0324,0.013523,0.002678,0.000431,0.001645
123054000,0.0324,0.013523,0.002678,0.000431,0.001645
123055000,0.0324,0.013523,0.002678,0.000431,0.001645
123056000,0.0324,0.013523,0.002678,0.000431,0.001645
123057000,0.0324,0.013523,0.002678,0.000431,0.173472
123058000,0.0324,0.013523,0.002678,0.000431,0.439673
123059000,0.0324,0.013523,0.002678,0.000431,0.537104
123060000,0.0324,0.013523,0.002678,0.000431,0.134335
123061000,0.0324,0.013523,0.002678,0.000431,0.132102
123062000,0.0324,0.013523,0.002678,0.000431,0.562255
123063000,0.0324,0.013523,0.002678,0.000431,0.230238
123064000,0.0324,0.013523,0.002678,0.000431,0.276191
123065000,0.0324,0.013523,0.002678,0.000431,0.310392
123066000,0.0324,0.013523,0.002678,0.000431,0.137743
123067000,0.0324,0.013523,0.002678,0.000431,0.146205
123068000,0.0324,0.013523,0.002678,0.000431,0.117763
123069000,0.0324,0.013523,0.002678,0.000431,0.311802
123070000,0.0324,0.013523,0.002678,0.000431,0.295113
123071000,0.0324,0.013523,0.002678,0.000431,0.063348
123072000,0.0324,0.013523,0.002678,0.000431,0.063465
123073000,0.0324,0.013523,0.002678,0.000431,0.050185
123074000,0.0324,0.013523,0.002678,0.000431,0.048187
123075000,0.0324,0.013523,0.002678,0.000431,0.045483
123076000,0.0324,0.013523,0.002678,0.000431,0.042075
123077000,0.0324,0.013523,0.002678,0.000431,0.038314
123078000,0.0324,0.013523,0.002678,0.000431,0.038197
123079000,0.0324,0.013523,0.002678,0.000431,0.027619
123080000,0.0324,0.013523,0.002678,0.000431,0.028559
123081000,0.0324,0.013523,0.002678,0.000431,0.024211
123082000,0.0324,0.013523,0.002678,0.000431,0.025386
123083000,0.0324,0.013523,0.002678,0.000431,0.018687
123084000,0.0324,0.013523,0.002678,0.000431,0.019510
123085000,0.0324,0.013523,0.002678,0.000431,0.021978
123086000,0.0324,0.013523,0.002678,0.000431,0.015984
123087000,0.0324,0.013523,0.002678,0.000431,0.015749
123088000,0.0324,0.013523,0.002678,0.000431,0.017159
123089000,0.0324,0.013523,0.002678,0.000431,0.016336
123090000,0.0324,0.013523,0.002678,0.000431,0.017982
123091000,0.0324,0.013523,0.002678,0.000431,0.014809
123092000,0.0324,0.013523,0.002678,0.000431,0.015984
123093000,0.0324,0.013523,0.002678,0.000431,0.015749
123094000,0.0324,0.013523,0.002678,0.000431,0.016571
123095000,0.0324,0.013523,0.002678,0.000431,0.013633
123096000,0.0324,0.013523,0.002678,0.000431,0.014338
123097000,0.0324,0.013523,0.002678,0.000431,0.013751
123098000,0.0324,0.013523,0.002678,0.000431,0.014456
123099000,0.0324,0.013523,0.002678,0.000431,0.013986
123100000,0.0324,0.013523,0.002678,0.000431,0.013516
123101000,0.0324,0.013523,0.002678,0.000431,0.013986
123102000,0.0324,0.013523,0.002678,0.000431,0.012928
123103000,0.0324,0.013523,0.002678,0.000431,0.013986
123104000,0.0324,0.013523,0.002678,0.000431,0.012693
123105000,0.0324,0.013523,0.002678,0.000431,0.012105
123106000,0.0324,0.013523,0.002678,0.000431,0.012576
123107000,0.0324,0.013523,0.002678,0.000431,0.015044
123108000,0.0324,0.013523,0.002678,0.000431,0.011400
123109000,0.0324,0.013523,0.002678,0.000431,0.011283
123110000,0.0324,0.013523,0.002678,0.000431,0.012693
123111000,0.0324,0.013523,0.002678,0.000431,0.013163
123112000,0.0324,0.013523,0.002678,0.000431,0.011635
123113000,0.0324,0.013523,0.002678,0.000431,0.009990
123114000,0.0324,0.013523,0.002678,0.000431,0.009872
123115000,0.0324,0.013523,0.002678,0.000431,0.009755
123116000,0.0324,0.013523,0.002678,0.000431,0.009872
123117000,0.0324,0.013523,0.002678,0.000431,0.010107
123118000,0.0324,0.013523,0.002678,0.000431,0.009285
123119000,0.0324,0.013523,0.002678,0.000431,0.010342
123120000,0.0324,0.013523,0.002678,0.000431,0.009637
123121000,0.0324,0.013523,0.002678,0.000431,0.010107
123122000,0.0324,0.013523,0.002678,0.000431,0.010342
123123000,0.0324,0.013523,0.002678,0.000431,0.009872
123124000,0.0324,0.013523,0.002678,0.000431,0.009872
123125000,0.0324,0.013523,0.002678,0.000431,0.010342
123126000,0.0324,0.013523,0.002678,0.000431,0.009637
123127000,0.0324,0.013523,0.002678,0.000431,0.011400
123128000,0.0324,0.013523,0.002678,0.000431,0.011518
123129000,0.0324,0.013523,0.002678,0.000431,0.009990
123130000,0.0324,0.013523,0.002678,0.000431,0.007404
123131000,0.0324,0.013523,0.002678,0.000431,0.007992
123132000,0.0324,0.013523,0.002678,0.000431,0.006582
123133000,0.0324,0.013523,0.002678,0.000431,0.006582
123134000,0.0324,0.013523,0.002678,0.000431,0.006347
123135000,0.0324,0.013523,0.002678,0.000431,0.009755
123136000,0.0324,0.013523,0.002678,0.000431,0.005171
123137000,0.0324,0.013523,0.002678,0.000431,0.006111
123138000,0.0324,0.013523,0.002678,0.000431,0.005876
123139000,0.0324,0.013523,0.002678,0.000431,0.005406
123140000,0.0324,0.013523,0.002678,0.000431,0.007169
123141000,0.0324,0.013523,0.002678,0.000431,0.004936
123142000,0.0324,0.013523,0.002678,0.000431,0.004701
123143000,0.0324,0.013523,0.002678,0.000431,0.004936
123144000,0.0324,0.013523,0.002678,0.000431,0.004584
123145000,0.0324,0.013523,0.002678,0.000431,0.005171
123146000,0.0324,0.013523,0.002678,0.000431,0.004936
123147000,0.0324,0.013523,0.002678,0.000431,0.006699
123148000,0.0324,0.013523,0.002678,0.000431,0.004349
123149000,0.0324,0.013523,0.002678,0.000431,0.004113
123150000,0.0324,0.013523,0.002678,0.000431,0.003878
123151000,0.0324,0.013523,0.002678,0.000431,0.006817
123152000,0.0324,0.013523,0.002678,0.000431,0.003291
123153000,0.0324,0.013523,0.002678,0.000431,0.002821
123154000,0.0324,0.013523,0.002678,0.000431,0.003526
123155000,0.0324,0.013523,0.002678,0.000431,0.002938
123156000,0.0324,0.013523,0.002678,0.000431,0.003408
123157000,0.0324,0.013523,0.002678,0.000431,0.003291
123158000,0.0324,0.013523,0.002678,0.000431,0.004584
123159000,0.0324,0.013523,0.002678,0.000431,0.002821
123160000,0.0324,0.013523,0.002678,0.000431,0.002468
123161000,0.0324,0.013523,0.002678,0.000431,0.002233
123162000,0.0324,0.013523,0.002678,0.000431,0.002351
123163000,0.0324,0.013523,0.002678,0.000431,0.002586
123164000,0.0324,0.013523,0.002678,0.000431,0.002233
123165000,0.0324,0.013523,0.002678,0.000431,0.002468
123166000,0.0324,0.013523,0.002678,0.000431,0.002233
123167000,0.0324,0.013523,0.002678,0.000431,0.002233
123168000,0.0324,0.013523,0.002678,0.000431,0.002821
123169000,0.0324,0.013523,0.002678,0.000431,0.002233
123170000,0.0324,0.013523,0.002678,0.000431,0.002468
123171000,0.0324,0.013523,0.002678,0.000431,0.002468
123172000,0.0324,0.013523,0.002678,0.000431,0.002116
123173000,0.0324,0.013523,0.002678,0.000431,0.002586
123174000,0.0324,0.013523,0.002678,0.000431,0.002468
123175000,0.0324,0.013523,0.002678,0.000431,0.002233
123176000,0.0324,0.013523,0.002678,0.000431,0.002468
123177000,0.0324,0.013523,0.002678,0.000431,0.002351
123178000,0.0324,0.013523,0.002678,0.000431,0.002468
123179000,0.0324,0.013523,0.002678,0.000431,0.002468
123180000,0.0324,0.013523,0.002678,0.000431,0.002468
123181000,0.0324,0.013523,0.002678,0.000431,0.002233
123182000,0.0324,0.013523,0.002678,0.000431,0.002351
123183000,0.0324,0.013523,0.002678,0.000431,0.002351
123184000,0.0324,0.013523,0.002678,0.000431,0.002821
123185000,0.0324,0.013523,0.002678,0.000431,0.002116
123186000,0.0324,0.013523,0.002678,0.000431,0.002586
123187000,0.0324,0.013523,0.002678,0.000431,0.002233
123188000,0.0324,0.013523,0.002678,0.000431,0.002468
123189000,0.0324,0.013523,0.002678,0.000431,0.002703
123190000,0.0324,0.013523,0.002678,0.000431,0.001998
123191000,0.0324,0.013523,0.002678,0.000431,0.002821
123192000,0.0324,0.013523,0.002678,0.000431,0.002233
123193000,0.0324,0.013523,0.002678,0.000431,0.002468
123194000,0.0324,0.013523,0.002678,0.000431,0.002351
123195000,0.0324,0.013523,0.002678,0.000431,0.002351
123196000,0.0324,0.013523,0.002678,0.000431,0.002468
123197000,0.0324,0.013523,0.002678,0.000431,0.002468
123198000,0.0324,0.013523,0.002678,0.000431,0.002233
123199000,0.0324,0.013523,0.002678,0.000431,0.002468
123200000,0.0324,0.013523,0.002678,0.000431,0.002468
123201000,0.0324,0.013523,0.002678,0.000431,0.002233
123202000,0.0324,0.013523,0.002678,0.000431,0.002821
123203000,0.0324,0.013523,0.002678,0.000431,0.001880
123204000,0.0324,0.013523,0.002678,0.000431,0.002821
123205000,0.0324,0.013523,0.002678,0.000431,0.001998
123206000,0.0324,0.013523,0.002678,0.000431,0.002703
123207000,0.0324,0.013523,0.002678,0.000431,0.002821
123208000,0.0324,0.013523,0.002678,0.000431,0.001880
123209000,0.0324,0.013523,0.002678,0.000431,0.002821
123210000,0.0324,0.013523,0.002678,0.000431,0.001998
123211000,0.0324,0.013523,0.002678,0.000431,0.002351
123212000,0.0324,0.013523,0.002678,0.000431,0.001645
123213000,0.0324,0.013523,0.002678,0.000431,0.001645
123214000,0.0324,0.013523,0.002678,0.000431,0.001763
123215000,0.0324,0.013523,0.002678,0.000431,0.001528
123216000,0.0324,0.013523,0.002678,0.000431,0.001763
123217000,0.0324,0.013523,0.002678,0.000431,0.001645
123218000,0.0324,0.013523,0.002678,0.000431,0.001763
123219000,0.0324,0.013523,0.002678,0.000431,0.001645
123220000,0.0324,0.013523,0.002678,0.000431,0.001645
123221000,0.0324,0.013523,0.002678,0.000431,0.001645
123222000,0.0324,0.013523,0.002678,0.000431,0.001880
123223000,0.0324,0.013523,0.002678,0.000431,0.001645
123224000,0.0324,0.013523,0.002678,0.000431,0.002938
123225000,0.0324,0.013523,0.002678,0.000431,0.000940
123226000,0.0324,0.013523,0.002678,0.000431,0.000940
123227000,0.0324,0.013523,0.002678,0.000431,0.000705
123228000,0.0324,0.013523,0.002678,0.000431,0.000940
123229000,0.0324,0.013523,0.002678,0.000431,0.000940
123230000,0.0324,0.013523,0.002678,0.000431,0.000823
123231000,0.0324,0.013523,0.002678,0.000431,0.000940
123232000,0.0324,0.013523,0.002678,0.000431,0.000823
123233000,0.0324,0.013523,0.002678,0.000431,0.000940
123234000,0.0324,0.013523,0.002678,0.000431,0.000823
123235000,0.0324,0.013523,0.002678,0.000431,0.000823
123236000,0.0324,0.013523,0.002678,0.000431,0.000940
123237000,0.0324,0.013523,0.002678,0.000431,0.000823
123238000,0.0324,0.013523,0.002678,0.000431,0.000940
123239000,0.0324,0.013523,0.002678,0.000431,0.000823
123240000,0.0324,0.013523,0.002678,0.000431,0.000940
123241000,0.0324,0.013523,0.002678,0.000431,0.000940
123242000,0.0324,0.013523,0.002678,0.000431,0.000705
123243000,0.0324,0.013523,0.002678,0.000431,0.000940
123244000,0.0324,0.013523,0.002678,0.000431,0.000940
123245000,0.0324,0.013523,0.002678,0.000431,0.000940
123246000,0.0324,0.013523,0.002678,0.000431,0.000705
123247000,0.0324,0.013523,0.002678,0.000431,0.000940
123248000,0.0324,0.013523,0.002678,0.000431,0.001998
123249000,0.0324,0.013523,0.002678,0.000431,0.348001
123250000,0.0324,0.013523,0.002678,0.000431,0.658628
123251000,0.0324,0.013523,0.002678,0.000431,0.197682
123252000,0.0324,0.013523,0.002678,0.000431,0.131984
123253000,0.0324,0.013523,0.002678,0.000431,0.145852
123254000,0.0324,0.013523,0.002678,0.000431,0.612204
123255000,0.0324,0.013523,0.002678,0.000431,0.241285
123256000,0.0324,0.013523,0.002678,0.000431,0.298874
123257000,0.0324,0.013523,0.002678,0.000431,0.240698
123258000,0.0324,0.013523,0.002678,0.000431,0.144090
123259000,0.0324,0.013523,0.002678,0.000431,0.160896
123260000,0.0324,0.013523,0.002678,0.000431,0.144442
123261000,0.0324,0.013523,0.002678,0.000431,0.449898
123262000,0.0324,0.013523,0.002678,0.000431,0.073690
123263000,0.0324,0.013523,0.002678,0.000431,0.058647
123264000,0.0324,0.013523,0.002678,0.000431,0.060174
123265000,0.0324,0.013523,0.002678,0.000431,0.036786
123266000,0.0324,0.013523,0.002678,0.000431,0.035258
123267000,0.0324,0.013523,0.002678,0.000431,0.033496
123268000,0.0324,0.013523,0.002678,0.000431,0.032908
123269000,0.0324,0.013523,0.002678,0.000431,0.022565
123270000,0.0324,0.013523,0.002678,0.000431,0.019275
123271000,0.0324,0.013523,0.002678,0.000431,0.017277
123272000,0.0324,0.013523,0.002678,0.000431,0.019392
123273000,0.0324,0.013523,0.002678,0.000431,0.016219
123274000,0.0324,0.013523,0.002678,0.000431,0.012811
123275000,0.0324,0.013523,0.002678,0.000431,0.011048
123276000,0.0324,0.013523,0.002678,0.000431,0.015161
123277000,0.0324,0.013523,0.002678,0.000431,0.010813
123278000,0.0324,0.013523,0.002678,0.000431,0.011048
123279000,0.0324,0.013523,0.002678,0.000431,0.011283
123280000,0.0324,0.013523,0.002678,0.000431,0.010695
123281000,0.0324,0.013523,0.002678,0.000431,0.011635
123282000,0.0324,0.013523,0.002678,0.000431,0.010813
123283000,0.0324,0.013523,0.002678,0.000431,0.011400
123284000,0.0324,0.013523,0.002678,0.000431,0.010695
123285000,0.0324,0.013523,0.002678,0.000431,0.010930
123286000,0.0324,0.013523,0.002678,0.000431,0.011635
123287000,0.0324,0.013523,0.002678,0.000431,0.010813
123288000,0.0324,0.013523,0.002678,0.000431,0.012458
123289000,0.0324,0.013523,0.002678,0.000431,0.009990
123290000,0.0324,0.013523,0.002678,0.000431,0.011870
123291000,0.0324,0.013523,0.002678,0.000431,0.010342
123292000,0.0324,0.013523,0.002678,0.000431,0.010107
123293000,0.0324,0.013523,0.002678,0.000431,0.007639
123294000,0.0324,0.013523,0.002678,0.000431,0.010695
123295000,0.0324,0.013523,0.002678,0.000431,0.006934
123296000,0.0324,0.013523,0.002678,0.000431,0.006347
123297000,0.0324,0.013523,0.002678,0.000431,0.006934
123298000,0.0324,0.013523,0.002678,0.000431,0.005289
123299000,0.0324,0.013523,0.002678,0.000431,0.006111
123300000,0.0324,0.013523,0.002678,0.000431,0.006229
123301000,0.0324,0.013523,0.002678,0.000431,0.005641
123302000,0.0324,0.013523,0.002678,0.000431,0.006111
123303000,0.0324,0.013523,0.002678,0.000431,0.005289
123304000,0.0324,0.013523,0.002678,0.000431,0.006464
123305000,0.0324,0.013523,0.002678,0.000431,0.005759
123306000,0.0324,0.013523,0.002678,0.000431,0.005641
123307000,0.0324,0.013523,0.002678,0.000431,0.006111
123308000,0.0324,0.013523,0.002678,0.000431,0.005641
123309000,0.0324,0.013523,0.002678,0.000431,0.006347
123310000,0.0324,0.013523,0.002678,0.000431,0.005759
123311000,0.0324,0.013523,0.002678,0.000431,0.005759
123312000,0.0324,0.013523,0.002678,0.000431,0.006111
123313000,0.0324,0.013523,0.002678,0.000431,0.005524
123314000,0.0324,0.013523,0.002678,0.000431,0.006111
123315000,0.0324,0.013523,0.002678,0.000431,0.005759
123316000,0.0324,0.013523,0.002678,0.000431,0.005876
123317000,0.0324,0.013523,0.002678,0.000431,0.005994
123318000,0.0324,0.013523,0.002678,0.000431,0.005994
123319000,0.0324,0.013523,0.002678,0.000431,0.005641
123320000,0.0324,0.013523,0.002678,0.000431,0.006229
123321000,0.0324,0.013523,0.002678,0.000431,0.005524
123322000,0.0324,0.013523,0.002678,0.000431,0.006229
123323000,0.0324,0.013523,0.002678,0.000431,0.005759
123324000,0.0324,0.013523,0.002678,0.000431,0.005994
123325000,0.0324,0.013523,0.002678,0.000431,0.006229
123326000,0.0324,0.013523,0.002678,0.000431,0.005406
123327000,0.0324,0.013523,0.002678,0.000431,0.006229
123328000,0.0324,0.013523,0.002678,0.000431,0.005759
123329000,0.0324,0.013523,0.002678,0.000431,0.005994
123330000,0.0324,0.013523,0.002678,0.000431,0.006229
123331000,0.0324,0.013523,0.002678,0.000431,0.005289
123332000,0.0324,0.013523,0.002678,0.000431,0.007992
123333000,0.0324,0.013523,0.002678,0.000431,0.004701
123334000,0.0324,0.013523,0.002678,0.000431,0.005171
123335000,0.0324,0.013523,0.002678,0.000431,0.006817
123336000,0.0324,0.013523,0.002678,0.000431,0.004113
123337000,0.0324,0.013523,0.002678,0.000431,0.004466
123338000,0.0324,0.013523,0.002678,0.000431,0.003761
123339000,0.0324,0.013523,0.002678,0.000431,0.004584
123340000,0.0324,0.013523,0.002678,0.000431,0.004113
123341000,0.0324,0.013523,0.002678,0.000431,0.004349
123342000,0.0324,0.013523,0.002678,0.000431,0.004231
123343000,0.0324,0.013523,0.002678,0.000431,0.004113
123344000,0.0324,0.013523,0.002678,0.000431,0.004349
123345000,0.0324,0.013523,0.002678,0.000431,0.004231
123346000,0.0324,0.013523,0.002678,0.000431,0.003761
123347000,0.0324,0.013523,0.002678,0.000431,0.004584
123348000,0.0324,0.013523,0.002678,0.000431,0.004466
123349000,0.0324,0.013523,0.002678,0.000431,0.003996
123350000,0.0324,0.013523,0.002678,0.000431,0.004349
123351000,0.0324,0.013523,0.002678,0.000431,0.004936
123352000,0.0324,0.013523,0.002678,0.000431,0.003643
123353000,0.0324,0.013523,0.002678,0.000431,0.003408
123354000,0.0324,0.013523,0.002678,0.000431,0.003291
123355000,0.0324,0.013523,0.002678,0.000431,0.003526
123356000,0.0324,0.013523,0.002678,0.000431,0.003291
123357000,0.0324,0.013523,0.002678,0.000431,0.003408
123358000,0.0324,0.013523,0.002678,0.000431,0.003408
123359000,0.0324,0.013523,0.002678,0.000431,0.003291
123360000,0.0324,0.013523,0.002678,0.000431,0.003408
123361000,0.0324,0.013523,0.002678,0.000431,0.003408
123362000,0.0324,0.013523,0.002678,0.000431,0.003526
123363000,0.0324,0.013523,0.002678,0.000431,0.003291
123364000,0.0324,0.013523,0.002678,0.000431,0.003291
123365000,0.0324,0.013523,0.002678,0.000431,0.005171
123366000,0.0324,0.013523,0.002678,0.000431,0.002586
123367000,0.0324,0.013523,0.002678,0.000431,0.002586
123368000,0.0324,0.013523,0.002678,0.000431,0.002586
123369000,0.0324,0.013523,0.002678,0.000431,0.002233
123370000,0.0324,0.013523,0.002678,0.000431,0.002821
123371000,0.0324,0.013523,0.002678,0.000431,0.002703
123372000,0.0324,0.013523,0.002678,0.000431,0.002351
123373000,0.0324,0.013523,0.002678,0.000431,0.002586
123374000,0.0324,0.013523,0.002678,0.000431,0.002468
123375000,0.0324,0.013523,0.002678,0.000431,0.002703
123376000,0.0324,0.013523,0.002678,0.000431,0.002586
123377000,0.0324,0.013523,0.002678,0.000431,0.002468
123378000,0.0324,0.013523,0.002678,0.000431,0.002703
123379000,0.0324,0.013523,0.002678,0.000431,0.002351
123380000,0.0324,0.013523,0.002678,0.000431,0.002586
123381000,0.0324,0.013523,0.002678,0.000431,0.002586
123382000,0.0324,0.013523,0.002678,0.000431,0.002586
123383000,0.0324,0.013523,0.002678,0.000431,0.002586
123384000,0.0324,0.013523,0.002678,0.000431,0.002468
123385000,0.0324,0.013523,0.002678,0.000431,0.002586
123386000,0.0324,0.013523,0.002678,0.000431,0.002586
123387000,0.0324,0.013523,0.002678,0.000431,0.002586
123388000,0.0324,0.013523,0.002678,0.000431,0.002468
123389000,0.0324,0.013523,0.002678,0.000431,0.002351
123390000,0.0324,0.013523,0.002678,0.000431,0.002821
123391000,0.0324,0.013523,0.002678,0.000431,0.002703
123392000,0.0324,0.013523,0.002678,0.000431,0.002233
123393000,0.0324,0.013523,0.002678,0.000431,0.002703
123394000,0.0324,0.013523,0.002678,0.000431,0.002468
123395000,0.0324,0.013523,0.002678,0.000431,0.002703
123396000,0.0324,0.013523,0.002678,0.000431,0.002586
123397000,0.0324,0.013523,0.002678,0.000431,0.002468
123398000,0.0324,0.013523,0.002678,0.000431,0.002703
123399000,0.0324,0.013523,0.002678,0.000431,0.002233
123400000,0.0324,0.013523,0.002678,0.000431,0.002703
123401000,0.0324,0.013523,0.002678,0.000431,0.002703
123402000,0.0324,0.013523,0.002678,0.000431,0.002351
123403000,0.0324,0.013523,0.002678,0.000431,0.002821
123404000,0.0324,0.013523,0.002678,0.000431,0.002233
123405000,0.0324,0.013523,0.002678,0.000431,0.002821
123406000,0.0324,0.013523,0.002678,0.000431,0.002468
123407000,0.0324,0.013523,0.002678,0.000431,0.002468
123408000,0.0324,0.013523,0.002678,0.000431,0.002703
123409000,0.0324,0.013523,0.002678,0.000431,0.002468
123410000,0.0324,0.013523,0.002678,0.000431,0.002586
123411000,0.0324,0.013523,0.002678,0.000431,0.002468
123412000,0.0324,0.013523,0.002678,0.000431,0.002703
123413000,0.0324,0.013523,0.002678,0.000431,0.002468
123414000,0.0324,0.013523,0.002678,0.000431,0.002586
123415000,0.0324,0.013523,0.002678,0.000431,0.002468
123416000,0.0324,0.013523,0.002678,0.000431,0.003408
123417000,0.0324,0.013523,0.002678,0.000431,0.002821
123418000,0.0324,0.013523,0.002678,0.000431,0.001645
123419000,0.0324,0.013523,0.002678,0.000431,0.001880
123420000,0.0324,0.013523,0.002678,0.000431,0.001528
123421000,0.0324,0.013523,0.002678,0.000431,0.001763
123422000,0.0324,0.013523,0.002678,0.000431,0.001645
123423000,0.0324,0.013523,0.002678,0.000431,0.001645
123424000,0.0324,0.013523,0.002678,0.000431,0.001763
123425000,0.0324,0.013523,0.002678,0.000431,0.001645
123426000,0.0324,0.013523,0.002678,0.000431,0.001763
123427000,0.0324,0.013523,0.002678,0.000431,0.001645
123428000,0.0324,0.013523,0.002678,0.000431,0.001645
123429000,0.0324,0.013523,0.002678,0.000431,0.001763
123430000,0.0324,0.013523,0.002678,0.000431,0.001645
123431000,0.0324,0.013523,0.002678,0.000431,0.001645
123432000,0.0324,0.013523,0.002678,0.000431,0.001645
123433000,0.0324,0.013523,0.002678,0.000431,0.001763
123434000,0.0324,0.013523,0.002678,0.000431,0.001645
123435000,0.0324,0.013523,0.002678,0.000431,0.001645
123436000,0.0324,0.013523,0.002678,0.000431,0.001763
123437000,0.0324,0.013523,0.002678,0.000431,0.001645
123438000,0.0324,0.013523,0.002678,0.000431,0.001645
123439000,0.0324,0.013523,0.002678,0.000431,0.001645
123440000,0.0324,0.013523,0.002678,0.000431,0.001763
123441000,0.0324,0.013523,0.002678,0.000431,0.001645
123442000,0.0324,0.013523,0.002678,0.000431,0.001528
123443000,0.0324,0.013523,0.002678,0.000431,0.001763
123444000,0.0324,0.013523,0.002678,0.000431,0.001763
123445000,0.0324,0.013523,0.002678,0.000431,0.001645
123446000,0.0324,0.013523,0.002678,0.000431,0.001645
123447000,0.0324,0.013523,0.002678,0.000431,0.001645
123448000,0.0324,0.013523,0.002678,0.000431,0.001528
123449000,0.0324,0.013523,0.002678,0.000431,0.001880
123450000,0.0324,0.013523,0.002678,0.000431,0.001763
123451000,0.0324,0.013523,0.002678,0.000431,0.001528
123452000,0.0324,0.013523,0.002678,0.000431,0.001645
123453000,0.0324,0.013523,0.002678,0.000431,0.001645
123454000,0.0324,0.013523,0.002678,0.000431,0.001880
123455000,0.0324,0.013523,0.002678,0.000431,0.001645
123456000,0.0324,0.013523,0.002678,0.000431,0.001645
123457000,0.0324,0.013523,0.002678,0.000431,0.001645
123458000,0.0324,0.013523,0.002678,0.000431,0.001645
123459000,0.0324,0.013523,0.002678,0.000431,0.001763
123460000,0.0324,0.013523,0.002678,0.000431,0.001645
123461000,0.0324,0.013523,0.002678,0.000431,0.001763
123462000,0.0324,0.013523,0.002678,0.000431,0.001763
123463000,0.0324,0.013523,0.002678,0.000431,0.003291
123464000,0.0324,0.013523,0.002678,0.000431,0.000940
123465000,0.0324,0.013523,0.002678,0.000431,0.000823
123466000,0.0324,0.013523,0.002678,0.000431,0.000823
123467000,0.0324,0.013523,0.002678,0.000431,0.000823
123468000,0.0324,0.013523,0.002678,0.000431,0.013633
123469000,0.0324,0.013523,0.002678,0.000431,0.514891
123470000,0.0324,0.013523,0.002678,0.000431,0.598806
123471000,0.0324,0.013523,0.002678,0.000431,0.133042
123472000,0.0324,0.013523,0.002678,0.000431,0.132572
123473000,0.0324,0.013523,0.002678,0.000431,0.401711
123474000,0.0324,0.013523,0.002678,0.000431,0.380321
123475000,0.0324,0.013523,0.002678,0.000431,0.259855
123476000,0.0324,0.013523,0.002678,0.000431,0.297229
123477000,0.0324,0.013523,0.002678,0.000431,0.172884
123478000,0.0324,0.013523,0.002678,0.000431,0.143032
123479000,0.0324,0.013523,0.002678,0.000431,0.140799
123480000,0.0324,0.013523,0.002678,0.000431,0.229297
123481000,0.0324,0.013523,0.002678,0.000431,0.376443
123482000,0.0324,0.013523,0.002678,0.000431,0.058647
123483000,0.0324,0.013523,0.002678,0.000431,0.057941
123484000,0.0324,0.013523,0.002678,0.000431,0.051830
123485000,0.0324,0.013523,0.002678,0.000431,0.043838
123486000,0.0324,0.013523,0.002678,0.000431,0.043250
123487000,0.0324,0.013523,0.002678,0.000431,0.030792
123488000,0.0324,0.013523,0.002678,0.000431,0.028794
123489000,0.0324,0.013523,0.002678,0.000431,0.027267
123490000,0.0324,0.013523,0.002678,0.000431,0.027031
123491000,0.0324,0.013523,0.002678,0.000431,0.027502
123492000,0.0324,0.013523,0.002678,0.000431,0.022918
123493000,0.0324,0.013523,0.002678,0.000431,0.023741
123494000,0.0324,0.013523,0.002678,0.000431,0.024798
123495000,0.0324,0.013523,0.002678,0.000431,0.022448
123496000,0.0324,0.013523,0.002678,0.000431,0.024211
123497000,0.0324,0.013523,0.002678,0.000431,0.022565
123498000,0.0324,0.013523,0.002678,0.000431,0.024798
123499000,0.0324,0.013523,0.002678,0.000431,0.023623
123500000,0.0324,0.013523,0.002678,0.000431,0.025269
123501000,0.0324,0.013523,0.002678,0.000431,0.018805
123502000,0.0324,0.013523,0.002678,0.000431,0.018805
123503000,0.0324,0.013523,0.002678,0.000431,0.018922
123504000,0.0324,0.013523,0.002678,0.000431,0.016571
123505000,0.0324,0.013523,0.002678,0.000431,0.016689
123506000,0.0324,0.013523,0.002678,0.000431,0.015749
123507000,0.0324,0.013523,0.002678,0.000431,0.017747
123508000,0.0324,0.013523,0.002678,0.000431,0.016101
123509000,0.0324,0.013523,0.002678,0.000431,0.018805
123510000,0.0324,0.013523,0.002678,0.000431,0.013163
123511000,0.0324,0.013523,0.002678,0.000431,0.015044
123512000,0.0324,0.013523,0.002678,0.000431,0.012105
123513000,0.0324,0.013523,0.002678,0.000431,0.011870
123514000,0.0324,0.013523,0.002678,0.000431,0.012223
123515000,0.0324,0.013523,0.002678,0.000431,0.011635
123516000,0.0324,0.013523,0.002678,0.000431,0.012811
123517000,0.0324,0.013523,0.002678,0.000431,0.010225
123518000,0.0324,0.013523,0.002678,0.000431,0.010695
123519000,0.0324,0.013523,0.002678,0.000431,0.010460
123520000,0.0324,0.013523,0.002678,0.000431,0.010107
123521000,0.0324,0.013523,0.002678,0.000431,0.012223
123522000,0.0324,0.013523,0.002678,0.000431,0.011400
123523000,0.0324,0.013523,0.002678,0.000431,0.008815
123524000,0.0324,0.013523,0.002678,0.000431,0.008345
123525000,0.0324,0.013523,0.002678,0.000431,0.008697
123526000,0.0324,0.013523,0.002678,0.000431,0.009167
123527000,0.0324,0.013523,0.002678,0.000431,0.013046
123528000,0.0324,0.013523,0.002678,0.000431,0.008227
123529000,0.0324,0.013523,0.002678,0.000431,0.005524
123530000,0.0324,0.013523,0.002678,0.000431,0.005524
123531000,0.0324,0.013523,0.002678,0.000431,0.004701
123532000,0.0324,0.013523,0.002678,0.000431,0.006699
123533000,0.0324,0.013523,0.002678,0.000431,0.004231
123534000,0.0324,0.013523,0.002678,0.000431,0.004584
123535000,0.0324,0.013523,0.002678,0.000431,0.003996
123536000,0.0324,0.013523,0.002678,0.000431,0.004349
123537000,0.0324,0.013523,0.002678,0.000431,0.004584
123538000,0.0324,0.013523,0.002678,0.000431,0.003996
123539000,0.0324,0.013523,0.002678,0.000431,0.004349
123540000,0.0324,0.013523,0.002678,0.000431,0.004349
123541000,0.0324,0.013523,0.002678,0.000431,0.004466
123542000,0.0324,0.013523,0.002678,0.000431,0.004113
123543000,0.0324,0.013523,0.002678,0.000431,0.004231
123544000,0.0324,0.013523,0.002678,0.000431,0.005759
123545000,0.0324,0.013523,0.002678,0.000431,0.003526
123546000,0.0324,0.013523,0.002678,0.000431,0.003291
123547000,0.0324,0.013523,0.002678,0.000431,0.003408
123548000,0.0324,0.013523,0.002678,0.000431,0.003643
123549000,0.0324,0.013523,0.002678,0.000431,0.003408
123550000,0.0324,0.013523,0.002678,0.000431,0.003173
123551000,0.0324,0.013523,0.002678,0.000431,0.003526
123552000,0.0324,0.013523,0.002678,0.000431,0.003526
123553000,0.0324,0.013523,0.002678,0.000431,0.003291
123554000,0.0324,0.013523,0.002678,0.000431,0.003408
123555000,0.0324,0.013523,0.002678,0.000431,0.003526
123556000,0.0324,0.013523,0.002678,0.000431,0.003408
123557000,0.0324,0.013523,0.002678,0.000431,0.003526
123558000,0.0324,0.013523,0.002678,0.000431,0.003173
123559000,0.0324,0.013523,0.002678,0.000431,0.003526
123560000,0.0324,0.013523,0.002678,0.000431,0.003526
123561000,0.0324,0.013523,0.002678,0.000431,0.003408
123562000,0.0324,0.013523,0.002678,0.000431,0.003408
123563000,0.0324,0.013523,0.002678,0.000431,0.003408
123564000,0.0324,0.013523,0.002678,0.000431,0.004936
123565000,0.0324,0.013523,0.002678,0.000431,0.003761
123566000,0.0324,0.013523,0.002678,0.000431,0.002821
123567000,0.0324,0.013523,0.002678,0.000431,0.002468
123568000,0.0324,0.013523,0.002678,0.000431,0.002586
123569000,0.0324,0.013523,0.002678,0.000431,0.002468
123570000,0.0324,0.013523,0.002678,0.000431,0.002468
123571000,0.0324,0.013523,0.002678,0.000431,0.002821
123572000,0.0324,0.013523,0.002678,0.000431,0.002468
123573000,0.0324,0.013523,0.002678,0.000431,0.002586
123574000,0.0324,0.013523,0.002678,0.000431,0.002351
123575000,0.0324,0.013523,0.002678,0.000431,0.002703
123576000,0.0324,0.013523,0.002678,0.000431,0.002703
123577000,0.0324,0.013523,0.002678,0.000431,0.002233
123578000,0.0324,0.013523,0.002678,0.000431,0.002821
123579000,0.0324,0.013523,0.002678,0.000431,0.002468
123580000,0.0324,0.013523,0.002678,0.000431,0.002703
123581000,0.0324,0.013523,0.002678,0.000431,0.002351
123582000,0.0324,0.013523,0.002678,0.000431,0.002586
123583000,0.0324,0.013523,0.002678,0.000431,0.002586
123584000,0.0324,0.013523,0.002678,0.000431,0.002468
123585000,0.0324,0.013523,0.002678,0.000431,0.002586
123586000,0.0324,0.013523,0.002678,0.000431,0.002468
123587000,0.0324,0.013523,0.002678,0.000431,0.002821
123588000,0.0324,0.013523,0.002678,0.000431,0.002351
123589000,0.0324,0.013523,0.002678,0.000431,0.002586
123590000,0.0324,0.013523,0.002678,0.000431,0.002468
123591000,0.0324,0.013523,0.002678,0.000431,0.002703
123592000,0.0324,0.013523,0.002678,0.000431,0.002351
123593000,0.0324,0.013523,0.002678,0.000431,0.002586
123594000,0.0324,0.013523,0.002678,0.000431,0.004231
123595000,0.0324,0.013523,0.002678,0.000431,0.003408
123596000,0.0324,0.013523,0.002678,0.000431,0.001645
123597000,0.0324,0.013523,0.002678,0.000431,0.001645
123598000,0.0324,0.013523,0.002678,0.000431,0.001880
123599000,0.0324,0.013523,0.002678,0.000431,0.001645
123600000,0.0324,0.013523,0.002678,0.000431,0.001645
123601000,0.0324,0.013523,0.002678,0.000431,0.001880
123602000,0.0324,0.013523,0.002678,0.000431,0.001645
123603000,0.0324,0.013523,0.002678,0.000431,0.001763
123604000,0.0324,0.013523,0.002678,0.000431,0.001645
123605000,0.0324,0.013523,0.002678,0.000431,0.003408
123606000,0.0324,0.013523,0.002678,0.000431,0.000940
123607000,0.0324,0.013523,0.002678,0.000431,0.000823
123608000,0.0324,0.013523,0.002678,0.000431,0.000823
123609000,0.0324,0.013523,0.002678,0.000431,0.000823
123610000,0.0324,0.013523,0.002678,0.000431,0.000940
123611000,0.0324,0.013523,0.002678,0.000431,0.000705
123612000,0.0324,0.013523,0.002678,0.000431,0.000823
123613000,0.0324,0.013523,0.002678,0.000431,0.000940
123614000,0.0324,0.013523,0.002678,0.000431,0.000823
123615000,0.0324,0.013523,0.002678,0.000431,0.000823
123616000,0.0324,0.013523,0.002678,0.000431,0.000823
123617000,0.0324,0.013523,0.002678,0.000431,0.000705
123618000,0.0324,0.013523,0.002678,0.000431,0.000940
123619000,0.0324,0.013523,0.002678,0.000431,0.000940
123620000,0.0324,0.013523,0.002678,0.000431,0.000705
123621000,0.0324,0.013523,0.002678,0.000431,0.000940
123622000,0.0324,0.013523,0.002678,0.000431,0.000705
123623000,0.0324,0.013523,0.002678,0.000431,0.000940
123624000,0.0324,0.013523,0.002678,0.000431,0.000940
123625000,0.0324,0.013523,0.002678,0.000431,0.000705
123626000,0.0324,0.013523,0.002678,0.000431,0.000940
123627000,0.0324,0.013523,0.002678,0.000431,0.000705
123628000,0.0324,0.013523,0.002678,0.000431,0.000940
123629000,0.0324,0.013523,0.002678,0.000431,0.000823
123630000,0.0324,0.013523,0.002678,0.000431,0.000823
123631000,0.0324,0.013523,0.002678,0.000431,0.000823
123632000,0.0324,0.013523,0.002678,0.000431,0.000823
123633000,0.0324,0.013523,0.002678,0.000431,0.000940
123634000,0.0324,0.013523,0.002678,0.000431,0.000705
123635000,0.0324,0.013523,0.002678,0.000431,0.000940
123636000,0.0324,0.013523,0.002678,0.000431,0.000823
123637000,0.0324,0.013523,0.002678,0.000431,0.000823
123638000,0.0324,0.013523,0.002678,0.000431,0.000823
123639000,0.0324,0.013523,0.002678,0.000431,0.000823
123640000,0.0324,0.013523,0.002678,0.000431,0.000823
123641000,0.0324,0.013523,0.002678,0.000431,0.000823
123642000,0.0324,0.013523,0.002678,0.000431,0.000940
123643000,0.0324,0.013523,0.002678,0.000431,0.000823
123644000,0.0324,0.013523,0.002678,0.000431,0.000823
123645000,0.0324,0.013523,0.002678,0.000431,0.000705
123646000,0.0324,0.013523,0.002678,0.000431,0.000940
123647000,0.0324,0.013523,0.002678,0.000431,0.000940
123648000,0.0324,0.013523,0.002678,0.000431,0.000705
123649000,0.0324,0.013523,0.002678,0.000431,0.000940
123650000,0.0324,0.013523,0.002678,0.000431,0.000705
123651000,0.0324,0.013523,0.002678,0.000431,0.000940
123652000,0.0324,0.013523,0.002678,0.000431,0.000823
123653000,0.0324,0.013523,0.002678,0.000431,0.000823
123654000,0.0324,0.013523,0.002678,0.000431,0.000940
123655000,0.0324,0.013523,0.002678,0.000431,0.000705
123656000,0.0324,0.013523,0.002678,0.000431,0.000940
123657000,0.0324,0.013523,0.002678,0.000431,0.000705
123658000,0.0324,0.013523,0.002678,0.000431,0.000940
123659000,0.0324,0.013523,0.002678,0.000431,0.000823
123660000,0.0324,0.013523,0.002678,0.000431,0.000823
123661000,0.0324,0.013523,0.002678,0.000431,0.000823
123662000,0.0324,0.013523,0.002678,0.000431,0.000823
123663000,0.0324,0.013523,0.002678,0.000431,0.000940
123664000,0.0324,0.013523,0.002678,0.000431,0.000705
123665000,0.0324,0.013523,0.002678,0.000431,0.000823
123666000,0.0324,0.013523,0.002678,0.000431,0.000823
123667000,0.0324,0.013523,0.002678,0.000431,0.000940
123668000,0.0324,0.013523,0.002678,0.000431,0.000823
123669000,0.0324,0.013523,0.002678,0.000431,0.000823
123670000,0.0324,0.013523,0.002678,0.000431,0.000705
123671000,0.0324,0.013523,0.002678,0.000431,0.000940
123672000,0.0324,0.013523,0.002678,0.000431,0.000940
123673000,0.0324,0.013523,0.002678,0.000431,0.000705
123674000,0.0324,0.013523,0.002678,0.000431,0.000940
123675000,0.0324,0.013523,0.002678,0.000431,0.000705
123676000,0.0324,0.013523,0.002678,0.000431,0.000940
123677000,0.0324,0.013523,0.002678,0.000431,0.000823
123678000,0.0324,0.013523,0.002678,0.000431,0.000823
123679000,0.0324,0.013523,0.002678,0.000431,0.000940
123680000,0.0324,0.013523,0.002678,0.000431,0.000705
123681000,0.0324,0.013523,0.002678,0.000431,0.000940
123682000,0.0324,0.013523,0.002678,0.000431,0.000823
123683000,0.0324,0.013523,0.002678,0.000431,0.000823
123684000,0.0324,0.013523,0.002678,0.000431,0.003173
123685000,0.0324,0.013523,0.002678,0.000431,0.442846
123686000,0.0324,0.013523,0.002678,0.000431,0.658510
123687000,0.0324,0.013523,0.002678,0.000431,0.132102
123688000,0.0324,0.013523,0.002678,0.000431,0.133042
123689000,0.0324,0.013523,0.002678,0.000431,0.204146
123690000,0.0324,0.013523,0.002678,0.000431,0.550267
123691000,0.0324,0.013523,0.002678,0.000431,0.265144
123692000,0.0324,0.013523,0.002678,0.000431,0.317914
123693000,0.0324,0.013523,0.002678,0.000431,0.214371
123694000,0.0324,0.013523,0.002678,0.000431,0.141151
123695000,0.0324,0.013523,0.002678,0.000431,0.136215
123696000,0.0324,0.013523,0.002678,0.000431,0.237289
123697000,0.0324,0.013523,0.002678,0.000431,0.370801
123698000,0.0324,0.013523,0.002678,0.000431,0.072867
123699000,0.0324,0.013523,0.002678,0.000431,0.062878
123700000,0.0324,0.013523,0.002678,0.000431,0.057706
123701000,0.0324,0.013523,0.002678,0.000431,0.048774
123702000,0.0324,0.013523,0.002678,0.000431,0.037374
123703000,0.0324,0.013523,0.002678,0.000431,0.042428
123704000,0.0324,0.013523,0.002678,0.000431,0.035376
123705000,0.0324,0.013523,0.002678,0.000431,0.021743
123706000,0.0324,0.013523,0.002678,0.000431,0.020450
123707000,0.0324,0.013523,0.002678,0.000431,0.023036
123708000,0.0324,0.013523,0.002678,0.000431,0.019862
123709000,0.0324,0.013523,0.002678,0.000431,0.017512
123710000,0.0324,0.013523,0.002678,0.000431,0.017042
123711000,0.0324,0.013523,0.002678,0.000431,0.016101
123712000,0.0324,0.013523,0.002678,0.000431,0.019157
123713000,0.0324,0.013523,0.002678,0.000431,0.013868
123714000,0.0324,0.013523,0.002678,0.000431,0.011988
123715000,0.0324,0.013523,0.002678,0.000431,0.013046
123716000,0.0324,0.013523,0.002678,0.000431,0.011400
123717000,0.0324,0.013523,0.002678,0.000431,0.010930
123718000,0.0324,0.013523,0.002678,0.000431,0.010695
123719000,0.0324,0.013523,0.002678,0.000431,0.011165
123720000,0.0324,0.013523,0.002678,0.000431,0.011988
123721000,0.0324,0.013523,0.002678,0.000431,0.010460
123722000,0.0324,0.013523,0.002678,0.000431,0.009637
123723000,0.0324,0.013523,0.002678,0.000431,0.011165
123724000,0.0324,0.013523,0.002678,0.000431,0.012340
123725000,0.0324,0.013523,0.002678,0.000431,0.007992
123726000,0.0324,0.013523,0.002678,0.000431,0.008345
123727000,0.0324,0.013523,0.002678,0.000431,0.008227
123728000,0.0324,0.013523,0.002678,0.000431,0.008815
123729000,0.0324,0.013523,0.002678,0.000431,0.008109
123730000,0.0324,0.013523,0.002678,0.000431,0.009285
123731000,0.0324,0.013523,0.002678,0.000431,0.007874
123732000,0.0324,0.013523,0.002678,0.000431,0.009520
123733000,0.0324,0.013523,0.002678,0.000431,0.007052
123734000,0.0324,0.013523,0.002678,0.000431,0.005054
123735000,0.0324,0.013523,0.002678,0.000431,0.005054
123736000,0.0324,0.013523,0.002678,0.000431,0.004936
123737000,0.0324,0.013523,0.002678,0.000431,0.005641
123738000,0.0324,0.013523,0.002678,0.000431,0.004701
123739000,0.0324,0.013523,0.002678,0.000431,0.005289
123740000,0.0324,0.013523,0.002678,0.000431,0.004466
123741000,0.0324,0.013523,0.002678,0.000431,0.007522
123742000,0.0324,0.013523,0.002678,0.000431,0.004231
123743000,0.0324,0.013523,0.002678,0.000431,0.004113
123744000,0.0324,0.013523,0.002678,0.000431,0.004231
123745000,0.0324,0.013523,0.002678,0.000431,0.004231
123746000,0.0324,0.013523,0.002678,0.000431,0.003996
123747000,0.0324,0.013523,0.002678,0.000431,0.004113
123748000,0.0324,0.013523,0.002678,0.000431,0.004466
123749000,0.0324,0.013523,0.002678,0.000431,0.004231
123750000,0.0324,0.013523,0.002678,0.000431,0.004113
123751000,0.0324,0.013523,0.002678,0.000431,0.003996
123752000,0.0324,0.013523,0.002678,0.000431,0.004349
123753000,0.0324,0.013523,0.002678,0.000431,0.004349
123754000,0.0324,0.013523,0.002678,0.000431,0.003996
123755000,0.0324,0.013523,0.002678,0.000431,0.004349
123756000,0.0324,0.013523,0.002678,0.000431,0.004349
123757000,0.0324,0.013523,0.002678,0.000431,0.003761
123758000,0.0324,0.013523,0.002678,0.000431,0.004466
123759000,0.0324,0.013523,0.002678,0.000431,0.004231
123760000,0.0324,0.013523,0.002678,0.000431,0.003996
123761000,0.0324,0.013523,0.002678,0.000431,0.002938
123762000,0.0324,0.013523,0.002678,0.000431,0.003643
123763000,0.0324,0.013523,0.002678,0.000431,0.003526
123764000,0.0324,0.013523,0.002678,0.000431,0.003643
123765000,0.0324,0.013523,0.002678,0.000431,0.003291
123766000,0.0324,0.013523,0.002678,0.000431,0.003408
123767000,0.0324,0.013523,0.002678,0.000431,0.003761
123768000,0.0324,0.013523,0.002678,0.000431,0.003291
123769000,0.0324,0.013523,0.002678,0.000431,0.003291
123770000,0.0324,0.013523,0.002678,0.000431,0.003643
123771000,0.0324,0.013523,0.002678,0.000431,0.003643
123772000,0.0324,0.013523,0.002678,0.000431,0.003408
123773000,0.0324,0.013523,0.002678,0.000431,0.003173
123774000,0.0324,0.013523,0.002678,0.000431,0.003643
123775000,0.0324,0.013523,0.002678,0.000431,0.003526
123776000,0.0324,0.013523,0.002678,0.000431,0.003408
123777000,0.0324,0.013523,0.002678,0.000431,0.003291
123778000,0.0324,0.013523,0.002678,0.000431,0.003643
123779000,0.0324,0.013523,0.002678,0.000431,0.003526
123780000,0.0324,0.013523,0.002678,0.000431,0.003291
123781000,0.0324,0.013523,0.002678,0.000431,0.003526
123782000,0.0324,0.013523,0.002678,0.000431,0.003643
123783000,0.0324,0.013523,0.002678,0.000431,0.003291
123784000,0.0324,0.013523,0.002678,0.000431,0.003408
123785000,0.0324,0.013523,0.002678,0.000431,0.004936
123786000,0.0324,0.013523,0.002678,0.000431,0.002821
123787000,0.0324,0.013523,0.002678,0.000431,0.002468
123788000,0.0324,0.013523,0.002678,0.000431,0.002468
123789000,0.0324,0.013523,0.002678,0.000431,0.002821
123790000,0.0324,0.013523,0.002678,0.000431,0.002821
123791000,0.0324,0.013523,0.002678,0.000431,0.002586
123792000,0.0324,0.013523,0.002678,0.000431,0.002351
123793000,0.0324,0.013523,0.002678,0.000431,0.002821
123794000,0.0324,0.013523,0.002678,0.000431,0.002586
123795000,0.0324,0.013523,0.002678,0.000431,0.002586
123796000,0.0324,0.013523,0.002678,0.000431,0.002586
123797000,0.0324,0.013523,0.002678,0.000431,0.002821
123798000,0.0324,0.013523,0.002678,0.000431,0.002586
123799000,0.0324,0.013523,0.002678,0.000431,0.002468
123800000,0.0324,0.013523,0.002678,0.000431,0.002703
123801000,0.0324,0.013523,0.002678,0.000431,0.002821
123802000,0.0324,0.013523,0.002678,0.000431,0.002468
123803000,0.0324,0.013523,0.002678,0.000431,0.002468
123804000,0.0324,0.013523,0.002678,0.000431,0.002821
123805000,0.0324,0.013523,0.002678,0.000431,0.002821
123806000,0.0324,0.013523,0.002678,0.000431,0.002351
123807000,0.0324,0.013523,0.002678,0.000431,0.002586
123808000,0.0324,0.013523,0.002678,0.000431,0.002821
123809000,0.0324,0.013523,0.002678,0.000431,0.002586
123810000,0.0324,0.013523,0.002678,0.000431,0.002586
123811000,0.0324,0.013523,0.002678,0.000431,0.002586
123812000,0.0324,0.013523,0.002678,0.000431,0.002821
123813000,0.0324,0.013523,0.002678,0.000431,0.002586
123814000,0.0324,0.013523,0.002678,0.000431,0.002703
123815000,0.0324,0.013523,0.002678,0.000431,0.002468
123816000,0.0324,0.013523,0.002678,0.000431,0.002821
123817000,0.0324,0.013523,0.002678,0.000431,0.002586
123818000,0.0324,0.013523,0.002678,0.000431,0.002586
123819000,0.0324,0.013523,0.002678,0.000431,0.002586
123820000,0.0324,0.013523,0.002678,0.000431,0.002821
123821000,0.0324,0.013523,0.002678,0.000431,0.002468
123822000,0.0324,0.013523,0.002678,0.000431,0.002586
123823000,0.0324,0.013523,0.002678,0.000431,0.002703
123824000,0.0324,0.013523,0.002678,0.000431,0.002821
123825000,0.0324,0.013523,0.002678,0.000431,0.002468
123826000,0.0324,0.013523,0.002678,0.000431,0.002586
123827000,0.0324,0.013523,0.002678,0.000431,0.002703
123828000,0.0324,0.013523,0.002678,0.000431,0.002821
123829000,0.0324,0.013523,0.002678,0.000431,0.002468
123830000,0.0324,0.013523,0.002678,0.000431,0.002468
123831000,0.0324,0.013523,0.002678,0.000431,0.002821
123832000,0.0324,0.013523,0.002678,0.000431,0.002821
123833000,0.0324,0.013523,0.002678,0.000431,0.002351
123834000,0.0324,0.013523,0.002678,0.000431,0.002586
123835000,0.0324,0.013523,0.002678,0.000431,0.002821
123836000,0.0324,0.013523,0.002678,0.000431,0.002703
123837000,0.0324,0.013523,0.002678,0.000431,0.002468
123838000,0.0324,0.013523,0.002678,0.000431,0.002586
123839000,0.0324,0.013523,0.002678,0.000431,0.002821
123840000,0.0324,0.013523,0.002678,0.000431,0.002468
123841000,0.0324,0.013523,0.002678,0.000431,0.002703
123842000,0.0324,0.013523,0.002678,0.000431,0.002586
123843000,0.0324,0.013523,0.002678,0.000431,0.002703
123844000,0.0324,0.013523,0.002678,0.000431,0.002468
123845000,0.0324,0.013523,0.002678,0.000431,0.002586
123846000,0.0324,0.013523,0.002678,0.000431,0.002821
123847000,0.0324,0.013523,0.002678,0.000431,0.002703
123848000,0.0324,0.013523,0.002678,0.000431,0.002468
123849000,0.0324,0.013523,0.002678,0.000431,0.002586
123850000,0.0324,0.013523,0.002678,0.000431,0.002821
123851000,0.0324,0.013523,0.002678,0.000431,0.002703
123852000,0.0324,0.013523,0.002678,0.000431,0.002351
123853000,0.0324,0.013523,0.002678,0.000431,0.002703
123854000,0.0324,0.013523,0.002678,0.000431,0.002821
123855000,0.0324,0.013523,0.002678,0.000431,0.002586
123856000,0.0324,0.013523,0.002678,0.000431,0.002468
123857000,0.0324,0.013523,0.002678,0.000431,0.002703
123858000,0.0324,0.013523,0.002678,0.000431,0.002703
123859000,0.0324,0.013523,0.002678,0.000431,0.002586
123860000,0.0324,0.013523,0.002678,0.000431,0.002468
123861000,0.0324,0.013523,0.002678,0.000431,0.002821
123862000,0.0324,0.013523,0.002678,0.000431,0.002703
123863000,0.0324,0.013523,0.002678,0.000431,0.002468
123864000,0.0324,0.013523,0.002678,0.000431,0.002586
123865000,0.0324,0.013523,0.002678,0.000431,0.002821
123866000,0.0324,0.013523,0.002678,0.000431,0.002586
123867000,0.0324,0.013523,0.002678,0.000431,0.002468
123868000,0.0324,0.013523,0.002678,0.000431,0.002703
123869000,0.0324,0.013523,0.002678,0.000431,0.002821
123870000,0.0324,0.013523,0.002678,0.000431,0.002468
123871000,0.0324,0.013523,0.002678,0.000431,0.002468
123872000,0.0324,0.013523,0.002678,0.000431,0.002821
123873000,0.0324,0.013523,0.002678,0.000431,0.002821
123874000,0.0324,0.013523,0.002678,0.000431,0.002586
123875000,0.0324,0.013523,0.002678,0.000431,0.002351
123876000,0.0324,0.013523,0.002678,0.000431,0.002821
123877000,0.0324,0.013523,0.002678,0.000431,0.002703
123878000,0.0324,0.013523,0.002678,0.000431,0.002586
123879000,0.0324,0.013523,0.002678,0.000431,0.004701
123880000,0.0324,0.013523,0.002678,0.000431,0.001880
123881000,0.0324,0.013523,0.002678,0.000431,0.001645
123882000,0.0324,0.013523,0.002678,0.000431,0.001763
123883000,0.0324,0.013523,0.002678,0.000431,0.001763
123884000,0.0324,0.013523,0.002678,0.000431,0.001880
123885000,0.0324,0.013523,0.002678,0.000431,0.001645
123886000,0.0324,0.013523,0.002678,0.000431,0.001645
123887000,0.0324,0.013523,0.002678,0.000431,0.001880
123888000,0.0324,0.013523,0.002678,0.000431,0.001880
123889000,0.0324,0.013523,0.002678,0.000431,0.001645
123890000,0.0324,0.013523,0.002678,0.000431,0.001645
123891000,0.0324,0.013523,0.002678,0.000431,0.001880
123892000,0.0324,0.013523,0.002678,0.000431,0.001763
123893000,0.0324,0.013523,0.002678,0.000431,0.001645
123894000,0.0324,0.013523,0.002678,0.000431,0.001763
123895000,0.0324,0.013523,0.002678,0.000431,0.001880
123896000,0.0324,0.013523,0.002678,0.000431,0.001645
123897000,0.0324,0.013523,0.002678,0.000431,0.001763
123898000,0.0324,0.013523,0.002678,0.000431,0.001763
123899000,0.0324,0.013523,0.002678,0.000431,0.001763
123900000,0.0324,0.013523,0.002678,0.000431,0.001763
123901000,0.0324,0.013523,0.002678,0.000431,0.001645
123902000,0.0324,0.013523,0.002678,0.000431,0.001880
123903000,0.0324,0.013523,0.002678,0.000431,0.001763
123904000,0.0324,0.013523,0.002678,0.000431,0.001645
123905000,0.0324,0.013523,0.002678,0.000431,0.001763
123906000,0.0324,0.013523,0.002678,0.000431,0.001880
123907000,0.0324,0.013523,0.002678,0.000431,0.001763
123908000,0.0324,0.013523,0.002678,0.000431,0.001645
123909000,0.0324,0.013523,0.002678,0.000431,0.001763
123910000,0.0324,0.013523,0.002678,0.000431,0.001880
123911000,0.0324,0.013523,0.002678,0.000431,0.001763
123912000,0.0324,0.013523,0.002678,0.000431,0.001645
123913000,0.0324,0.013523,0.002678,0.000431,0.001763
123914000,0.0324,0.013523,0.002678,0.000431,0.001880
123915000,0.0324,0.013523,0.002678,0.000431,0.001645
123916000,0.0324,0.013523,0.002678,0.000431,0.001763
123917000,0.0324,0.013523,0.002678,0.000431,0.001763
123918000,0.0324,0.013523,0.002678,0.000431,0.001763
123919000,0.0324,0.013523,0.002678,0.000431,0.001763
123920000,0.0324,0.013523,0.002678,0.000431,0.001645
123921000,0.0324,0.013523,0.002678,0.000431,0.001880
123922000,0.0324,0.013523,0.002678,0.000431,0.001763
123923000,0.0324,0.013523,0.002678,0.000431,0.001763
123924000,0.0324,0.013523,0.002678,0.000431,0.001763
123925000,0.0324,0.013523,0.002678,0.000431,0.001763
123926000,0.0324,0.013523,0.002678,0.000431,0.001763
123927000,0.0324,0.013523,0.002678,0.000431,0.001645
123928000,0.0324,0.013523,0.002678,0.000431,0.001880
123929000,0.0324,0.013523,0.002678,0.000431,0.001763
123930000,0.0324,0.013523,0.002678,0.000431,0.001645
123931000,0.0324,0.013523,0.002678,0.000431,0.001763
123932000,0.0324,0.013523,0.002678,0.000431,0.001763
123933000,0.0324,0.013523,0.002678,0.000431,0.001763
123934000,0.0324,0.013523,0.002678,0.000431,0.001880
123935000,0.0324,0.013523,0.002678,0.000431,0.001645
123936000,0.0324,0.013523,0.002678,0.000431,0.001763
123937000,0.0324,0.013523,0.002678,0.000431,0.001763
123938000,0.0324,0.013523,0.002678,0.000431,0.001763
123939000,0.0324,0.013523,0.002678,0.000431,0.001763
123940000,0.0324,0.013523,0.002678,0.000431,0.001763
123941000,0.0324,0.013523,0.002678,0.000431,0.001763
123942000,0.0324,0.013523,0.002678,0.000431,0.001763
123943000,0.0324,0.013523,0.002678,0.000431,0.001763
123944000,0.0324,0.013523,0.002678,0.000431,0.001763
123945000,0.0324,0.013523,0.002678,0.000431,0.001645
123946000,0.0324,0.013523,0.002678,0.000431,0.001763
123947000,0.0324,0.013523,0.002678,0.000431,0.001880
123948000,0.0324,0.013523,0.002678,0.000431,0.001763
123949000,0.0324,0.013523,0.002678,0.000431,0.001645
123950000,0.0324,0.013523,0.002678,0.000431,0.001763
123951000,0.0324,0.013523,0.002678,0.000431,0.001763
123952000,0.0324,0.013523,0.002678,0.000431,0.001763
123953000,0.0324,0.013523,0.002678,0.000431,0.001763
123954000,0.0324,0.013523,0.002678,0.000431,0.003173
123955000,0.0324,0.013523,0.002678,0.000431,0.000940
123956000,0.0324,0.013523,0.002678,0.000431,0.000940
123957000,0.0324,0.013523,0.002678,0.000431,0.227417
123958000,0.0324,0.013523,0.002678,0.000431,0.640176
123959000,0.0324,0.013523,0.002678,0.000431,0.340949
123960000,0.0324,0.013523,0.002678,0.000431,0.130221
123961000,0.0324,0.013523,0.002678,0.000431,0.135392
123962000,0.0324,0.013523,0.002678,0.000431,0.591402
123963000,0.0324,0.013523,0.002678,0.000431,0.221658
123964000,0.0324,0.013523,0.002678,0.000431,0.249865
123965000,0.0324,0.013523,0.002678,0.000431,0.312978
123966000,0.0324,0.013523,0.002678,0.000431,0.148908
123967000,0.0324,0.013523,0.002678,0.000431,0.147028
123968000,0.0324,0.013523,0.002678,0.000431,0.101544
123969000,0.0324,0.013523,0.002678,0.000431,0.434502
123970000,0.0324,0.013523,0.002678,0.000431,0.157958
123971000,0.0324,0.013523,0.002678,0.000431,0.048539
123972000,0.0324,0.013523,0.002678,0.000431,0.053005
123973000,0.0324,0.013523,0.002678,0.000431,0.048892
123974000,0.0324,0.013523,0.002678,0.000431,0.038079
123975000,0.0324,0.013523,0.002678,0.000431,0.037609
123976000,0.0324,0.013523,0.002678,0.000431,0.030910
123977000,0.0324,0.013523,0.002678,0.000431,0.023741
123978000,0.0324,0.013523,0.002678,0.000431,0.025621
123979000,0.0324,0.013523,0.002678,0.000431,0.019392
123980000,0.0324,0.013523,0.002678,0.000431,0.019627
123981000,0.0324,0.013523,0.002678,0.000431,0.022330
123982000,0.0324,0.013523,0.002678,0.000431,0.018569
123983000,0.0324,0.013523,0.002678,0.000431,0.016219
123984000,0.0324,0.013523,0.002678,0.000431,0.018452
123985000,0.0324,0.013523,0.002678,0.000431,0.016689
123986000,0.0324,0.013523,0.002678,0.000431,0.016454
123987000,0.0324,0.013523,0.002678,0.000431,0.017394
123988000,0.0324,0.013523,0.002678,0.000431,0.017747
123989000,0.0324,0.013523,0.002678,0.000431,0.015749
123990000,0.0324,0.013523,0.002678,0.000431,0.012928
123991000,0.0324,0.013523,0.002678,0.000431,0.012458
123992000,0.0324,0.013523,0.002678,0.000431,0.012811
123993000,0.0324,0.013523,0.002678,0.000431,0.012693
123994000,0.0324,0.013523,0.002678,0.000431,0.011048
123995000,0.0324,0.013523,0.002678,0.000431,0.012576
123996000,0.0324,0.013523,0.002678,0.000431,0.011870
123997000,0.0324,0.013523,0.002678,0.000431,0.011753
123998000,0.0324,0.013523,0.002678,0.000431,0.011988
123999000,0.0324,0.013523,0.002678,0.000431,0.011283
