Cycle,Area(mm^2),PeakDynamic(W),SubthresholdLeakage(W),GateLeakage(W),RunTimeDynamic(W)
100,0.0324,0.013523,0.002678,0.000431,0.001175
200,0.0324,0.013523,0.002678,0.000431,0.000000
300,0.0324,0.013523,0.002678,0.000431,0.000000
400,0.0324,0.013523,0.002678,0.000431,0.000000
500,0.0324,0.013523,0.002678,0.000431,0.000000
600,0.0324,0.013523,0.002678,0.000431,0.000000
700,0.0324,0.013523,0.002678,0.000431,0.000000
800,0.0324,0.013523,0.002678,0.000431,0.000000
900,0.0324,0.013523,0.002678,0.000431,0.000000
1000,0.0324,0.013523,0.002678,0.000431,0.000000
1100,0.0324,0.013523,0.002678,0.000431,0.000000
1200,0.0324,0.013523,0.002678,0.000431,0.000000
1300,0.0324,0.013523,0.002678,0.000431,0.000000
1400,0.0324,0.013523,0.002678,0.000431,0.000000
1500,0.0324,0.013523,0.002678,0.000431,0.000000
1600,0.0324,0.013523,0.002678,0.000431,0.000000
1700,0.0324,0.013523,0.002678,0.000431,0.000000
1800,0.0324,0.013523,0.002678,0.000431,0.000000
1900,0.0324,0.013523,0.002678,0.000431,0.000000
2000,0.0324,0.013523,0.002678,0.000431,0.000000
2100,0.0324,0.013523,0.002678,0.000431,0.000000
2200,0.0324,0.013523,0.002678,0.000431,0.000000
2300,0.0324,0.013523,0.002678,0.000431,0.000000
2400,0.0324,0.013523,0.002678,0.000431,0.000000
2500,0.0324,0.013523,0.002678,0.000431,0.000000
2600,0.0324,0.013523,0.002678,0.000431,0.000000
2700,0.0324,0.013523,0.002678,0.000431,0.000000
2800,0.0324,0.013523,0.002678,0.000431,0.000000
2900,0.0324,0.013523,0.002678,0.000431,0.000000
3000,0.0324,0.013523,0.002678,0.000431,0.000000
3100,0.0324,0.013523,0.002678,0.000431,0.000000
3200,0.0324,0.013523,0.002678,0.000431,0.000000
3300,0.0324,0.013523,0.002678,0.000431,0.000000
3400,0.0324,0.013523,0.002678,0.000431,0.000000
3500,0.0324,0.013523,0.002678,0.000431,0.000000
3600,0.0324,0.013523,0.002678,0.000431,0.000000
3700,0.0324,0.013523,0.002678,0.000431,0.000000
3800,0.0324,0.013523,0.002678,0.000431,0.000000
3900,0.0324,0.013523,0.002678,0.000431,0.000000
4000,0.0324,0.013523,0.002678,0.000431,0.000000
4100,0.0324,0.013523,0.002678,0.000431,0.000000
4200,0.0324,0.013523,0.002678,0.000431,0.000000
4300,0.0324,0.013523,0.002678,0.000431,0.000000
4400,0.0324,0.013523,0.002678,0.000431,0.000000
4500,0.0324,0.013523,0.002678,0.000431,0.000000
4600,0.0324,0.013523,0.002678,0.000431,0.000000
4700,0.0324,0.013523,0.002678,0.000431,0.000000
4800,0.0324,0.013523,0.002678,0.000431,0.000000
4900,0.0324,0.013523,0.002678,0.000431,0.000000
5000,0.0324,0.013523,0.002678,0.000431,0.000000
5100,0.0324,0.013523,0.002678,0.000431,0.000000
5200,0.0324,0.013523,0.002678,0.000431,0.000000
5300,0.0324,0.013523,0.002678,0.000431,0.000000
5400,0.0324,0.013523,0.002678,0.000431,0.035258
5500,0.0324,0.013523,0.002678,0.000431,0.000000
5600,0.0324,0.013523,0.002678,0.000431,0.054063
5700,0.0324,0.013523,0.002678,0.000431,3.094517
5800,0.0324,0.013523,0.002678,0.000431,1.425617
5900,0.0324,0.013523,0.002678,0.000431,2.452813
6000,0.0324,0.013523,0.002678,0.000431,5.562609
6100,0.0324,0.013523,0.002678,0.000431,4.489577
6200,0.0324,0.013523,0.002678,0.000431,1.893379
6300,0.0324,0.013523,0.002678,0.000431,2.778366
6400,0.0324,0.013523,0.002678,0.000431,3.128600
6500,0.0324,0.013523,0.002678,0.000431,3.405967
6600,0.0324,0.013523,0.002678,0.000431,3.612816
6700,0.0324,0.013523,0.002678,0.000431,3.894884
6800,0.0324,0.013523,0.002678,0.000431,4.037093
6900,0.0324,0.013523,0.002678,0.000431,4.111136
7000,0.0324,0.013523,0.002678,0.000431,4.261572
7100,0.0324,0.013523,0.002678,0.000431,4.231015
7200,0.0324,0.013523,0.002678,0.000431,4.463720
7300,0.0324,0.013523,0.002678,0.000431,4.329738
7400,0.0324,0.013523,0.002678,0.000431,4.288603
7500,0.0324,0.013523,0.002678,0.000431,4.267448
7600,0.0324,0.013523,0.002678,0.000431,4.477824
7700,0.0324,0.013523,0.002678,0.000431,4.467246
7800,0.0324,0.013523,0.002678,0.000431,4.451968
7900,0.0324,0.013523,0.002678,0.000431,4.288603
8000,0.0324,0.013523,0.002678,0.000431,4.353244
8100,0.0324,0.013523,0.002678,0.000431,4.544815
8200,0.0324,0.013523,0.002678,0.000431,4.481350
8300,0.0324,0.013523,0.002678,0.000431,3.940720
8400,0.0324,0.013523,0.002678,0.000431,3.421245
8500,0.0324,0.013523,0.002678,0.000431,2.562114
8600,0.0324,0.013523,0.002678,0.000431,2.486896
8700,0.0324,0.013523,0.002678,0.000431,2.444586
8800,0.0324,0.013523,0.002678,0.000431,1.996804
8900,0.0324,0.013523,0.002678,0.000431,1.788779
9000,0.0324,0.013523,0.002678,0.000431,1.863997
9100,0.0324,0.013523,0.002678,0.000431,1.809934
9200,0.0324,0.013523,0.002678,0.000431,1.511412
9300,0.0324,0.013523,0.002678,0.000431,1.666550
9400,0.0324,0.013523,0.002678,0.000431,1.733541
9500,0.0324,0.013523,0.002678,0.000431,1.954494
9600,0.0324,0.013523,0.002678,0.000431,2.362316
9700,0.0324,0.013523,0.002678,0.000431,2.922926
9800,0.0324,0.013523,0.002678,0.000431,2.902946
9900,0.0324,0.013523,0.002678,0.000431,3.115672
10000,0.0324,0.013523,0.002678,0.000431,3.409493
10100,0.0324,0.013523,0.002678,0.000431,3.643374
10200,0.0324,0.013523,0.002678,0.000431,3.889008
10300,0.0324,0.013523,0.002678,0.000431,3.897235
10400,0.0324,0.013523,0.002678,0.000431,3.854924
10500,0.0324,0.013523,0.002678,0.000431,3.271985
10600,0.0324,0.013523,0.002678,0.000431,3.270809
10700,0.0324,0.013523,0.002678,0.000431,3.340151
10800,0.0324,0.013523,0.002678,0.000431,3.380111
10900,0.0324,0.013523,0.002678,0.000431,3.380111
11000,0.0324,0.013523,0.002678,0.000431,3.993608
11100,0.0324,0.013523,0.002678,0.000431,3.945421
11200,0.0324,0.013523,0.002678,0.000431,4.268624
11300,0.0324,0.013523,0.002678,0.000431,3.936019
11400,0.0324,0.013523,0.002678,0.000431,3.920740
11500,0.0324,0.013523,0.002678,0.000431,3.636322
11600,0.0324,0.013523,0.002678,0.000431,3.813790
11700,0.0324,0.013523,0.002678,0.000431,4.182828
11800,0.0324,0.013523,0.002678,0.000431,4.155797
11900,0.0324,0.013523,0.002678,0.000431,4.235716
12000,0.0324,0.013523,0.002678,0.000431,4.174601
12100,0.0324,0.013523,0.002678,0.000431,3.994783
12200,0.0324,0.013523,0.002678,0.000431,3.770304
12300,0.0324,0.013523,0.002678,0.000431,3.987731
12400,0.0324,0.013523,0.002678,0.000431,3.431823
12500,0.0324,0.013523,0.002678,0.000431,3.703313
12600,0.0324,0.013523,0.002678,0.000431,3.480009
12700,0.0324,0.013523,0.002678,0.000431,3.279036
12800,0.0324,0.013523,0.002678,0.000431,3.078063
12900,0.0324,0.013523,0.002678,0.000431,3.244953
13000,0.0324,0.013523,0.002678,0.000431,3.166209
13100,0.0324,0.013523,0.002678,0.000431,3.612816
13200,0.0324,0.013523,0.002678,0.000431,3.280212
13300,0.0324,0.013523,0.002678,0.000431,3.079238
13400,0.0324,0.013523,0.002678,0.000431,2.794820
13500,0.0324,0.013523,0.002678,0.000431,3.016948
13600,0.0324,0.013523,0.002678,0.000431,3.328398
13700,0.0324,0.013523,0.002678,0.000431,3.764428
13800,0.0324,0.013523,0.002678,0.000431,3.527021
13900,0.0324,0.013523,0.002678,0.000431,3.688034
14000,0.0324,0.013523,0.002678,0.000431,3.705664
14100,0.0324,0.013523,0.002678,0.000431,4.041794
14200,0.0324,0.013523,0.002678,0.000431,4.152271
14300,0.0324,0.013523,0.002678,0.000431,4.434338
14400,0.0324,0.013523,0.002678,0.000431,4.381451
14500,0.0324,0.013523,0.002678,0.000431,4.057073
14600,0.0324,0.013523,0.002678,0.000431,4.075877
14700,0.0324,0.013523,0.002678,0.000431,4.186354
14800,0.0324,0.013523,0.002678,0.000431,4.201633
14900,0.0324,0.013523,0.002678,0.000431,4.121713
15000,0.0324,0.013523,0.002678,0.000431,3.981855
15100,0.0324,0.013523,0.002678,0.000431,4.131116
15200,0.0324,0.013523,0.002678,0.000431,3.893709
15300,0.0324,0.013523,0.002678,0.000431,4.201633
15400,0.0324,0.013523,0.002678,0.000431,3.845522
15500,0.0324,0.013523,0.002678,0.000431,4.155797
15600,0.0324,0.013523,0.002678,0.000431,4.075877
15700,0.0324,0.013523,0.002678,0.000431,3.939545
15800,0.0324,0.013523,0.002678,0.000431,4.006536
15900,0.0324,0.013523,0.002678,0.000431,3.930142
16000,0.0324,0.013523,0.002678,0.000431,3.944246
16100,0.0324,0.013523,0.002678,0.000431,3.930142
16200,0.0324,0.013523,0.002678,0.000431,3.799686
16300,0.0324,0.013523,0.002678,0.000431,4.209859
16400,0.0324,0.013523,0.002678,0.000431,4.185179
16500,0.0324,0.013523,0.002678,0.000431,3.977154
16600,0.0324,0.013523,0.002678,0.000431,4.093507
16700,0.0324,0.013523,0.002678,0.000431,3.967751
16800,0.0324,0.013523,0.002678,0.000431,3.978329
16900,0.0324,0.013523,0.002678,0.000431,4.053547
17000,0.0324,0.013523,0.002678,0.000431,3.818491
17100,0.0324,0.013523,0.002678,0.000431,4.047671
17200,0.0324,0.013523,0.002678,0.000431,4.102909
17300,0.0324,0.013523,0.002678,0.000431,4.133466
17400,0.0324,0.013523,0.002678,0.000431,3.966576
17500,0.0324,0.013523,0.002678,0.000431,3.889008
17600,0.0324,0.013523,0.002678,0.000431,3.995958
17700,0.0324,0.013523,0.002678,0.000431,4.038268
17800,0.0324,0.013523,0.002678,0.000431,3.704488
17900,0.0324,0.013523,0.002678,0.000431,4.162848
18000,0.0324,0.013523,0.002678,0.000431,4.080578
18100,0.0324,0.013523,0.002678,0.000431,3.971277
18200,0.0324,0.013523,0.002678,0.000431,4.243943
18300,0.0324,0.013523,0.002678,0.000431,4.040619
18400,0.0324,0.013523,0.002678,0.000431,3.677457
18500,0.0324,0.013523,0.002678,0.000431,4.051196
18600,0.0324,0.013523,0.002678,0.000431,3.880781
18700,0.0324,0.013523,0.002678,0.000431,3.887832
18800,0.0324,0.013523,0.002678,0.000431,4.085280
18900,0.0324,0.013523,0.002678,0.000431,3.791459
19000,0.0324,0.013523,0.002678,0.000431,3.879605
19100,0.0324,0.013523,0.002678,0.000431,4.034743
19200,0.0324,0.013523,0.002678,0.000431,3.682158
19300,0.0324,0.013523,0.002678,0.000431,3.755025
19400,0.0324,0.013523,0.002678,0.000431,3.729169
19500,0.0324,0.013523,0.002678,0.000431,3.240252
19600,0.0324,0.013523,0.002678,0.000431,3.791459
19700,0.0324,0.013523,0.002678,0.000431,3.832594
19800,0.0324,0.013523,0.002678,0.000431,3.327223
19900,0.0324,0.013523,0.002678,0.000431,3.413018
20000,0.0324,0.013523,0.002678,0.000431,3.216746
20100,0.0324,0.013523,0.002678,0.000431,3.075713
20200,0.0324,0.013523,0.002678,0.000431,3.260232
20300,0.0324,0.013523,0.002678,0.000431,3.333099
20400,0.0324,0.013523,0.002678,0.000431,2.946432
20500,0.0324,0.013523,0.002678,0.000431,2.882966
20600,0.0324,0.013523,0.002678,0.000431,3.090991
20700,0.0324,0.013523,0.002678,0.000431,3.444751
20800,0.0324,0.013523,0.002678,0.000431,3.333099
20900,0.0324,0.013523,0.002678,0.000431,3.512917
21000,0.0324,0.013523,0.002678,0.000431,3.303717
21100,0.0324,0.013523,0.002678,0.000431,2.998144
21200,0.0324,0.013523,0.002678,0.000431,2.867688
21300,0.0324,0.013523,0.002678,0.000431,3.153281
21400,0.0324,0.013523,0.002678,0.000431,3.296666
21500,0.0324,0.013523,0.002678,0.000431,3.046330
21600,0.0324,0.013523,0.002678,0.000431,3.090991
21700,0.0324,0.013523,0.002678,0.000431,2.712550
21800,0.0324,0.013523,0.002678,0.000431,2.894719
21900,0.0324,0.013523,0.002678,0.000431,2.791294
22000,0.0324,0.013523,0.002678,0.000431,2.860636
22100,0.0324,0.013523,0.002678,0.000431,3.123899
22200,0.0324,0.013523,0.002678,0.000431,3.276686
22300,0.0324,0.013523,0.002678,0.000431,2.783067
22400,0.0324,0.013523,0.002678,0.000431,2.443411
22500,0.0324,0.013523,0.002678,0.000431,2.788944
22600,0.0324,0.013523,0.002678,0.000431,3.686859
22700,0.0324,0.013523,0.002678,0.000431,3.481185
22800,0.0324,0.013523,0.002678,0.000431,3.193241
22900,0.0324,0.013523,0.002678,0.000431,3.128600
23000,0.0324,0.013523,0.002678,0.000431,2.846533
23100,0.0324,0.013523,0.002678,0.000431,3.249654
23200,0.0324,0.013523,0.002678,0.000431,3.411843
23300,0.0324,0.013523,0.002678,0.000431,3.346027
23400,0.0324,0.013523,0.002678,0.000431,2.987566
23500,0.0324,0.013523,0.002678,0.000431,2.952308
23600,0.0324,0.013523,0.002678,0.000431,2.744283
23700,0.0324,0.013523,0.002678,0.000431,2.819501
23800,0.0324,0.013523,0.002678,0.000431,2.770139
23900,0.0324,0.013523,0.002678,0.000431,3.031052
24000,0.0324,0.013523,0.002678,0.000431,3.577558
24100,0.0324,0.013523,0.002678,0.000431,3.430648
24200,0.0324,0.013523,0.002678,0.000431,2.931153
24300,0.0324,0.013523,0.002678,0.000431,3.080414
24400,0.0324,0.013523,0.002678,0.000431,3.559929
24500,0.0324,0.013523,0.002678,0.000431,3.361306
24600,0.0324,0.013523,0.002678,0.000431,3.411843
24700,0.0324,0.013523,0.002678,0.000431,2.932328
24800,0.0324,0.013523,0.002678,0.000431,2.717252
24900,0.0324,0.013523,0.002678,0.000431,2.887667
25000,0.0324,0.013523,0.002678,0.000431,3.295490
25100,0.0324,0.013523,0.002678,0.000431,3.427122
25200,0.0324,0.013523,0.002678,0.000431,3.464731
25300,0.0324,0.013523,0.002678,0.000431,2.959360
25400,0.0324,0.013523,0.002678,0.000431,3.073362
25500,0.0324,0.013523,0.002678,0.000431,3.256706
25600,0.0324,0.013523,0.002678,0.000431,3.381286
25700,0.0324,0.013523,0.002678,0.000431,3.228499
25800,0.0324,0.013523,0.002678,0.000431,3.270809
25900,0.0324,0.013523,0.002678,0.000431,2.987566
26000,0.0324,0.013523,0.002678,0.000431,3.183838
26100,0.0324,0.013523,0.002678,0.000431,2.962885
26200,0.0324,0.013523,0.002678,0.000431,2.911173
26300,0.0324,0.013523,0.002678,0.000431,3.090991
26400,0.0324,0.013523,0.002678,0.000431,2.705499
26500,0.0324,0.013523,0.002678,0.000431,2.719602
26600,0.0324,0.013523,0.002678,0.000431,2.694921
26700,0.0324,0.013523,0.002678,0.000431,3.056908
26800,0.0324,0.013523,0.002678,0.000431,3.172086
26900,0.0324,0.013523,0.002678,0.000431,2.804222
27000,0.0324,0.013523,0.002678,0.000431,3.040454
27100,0.0324,0.013523,0.002678,0.000431,2.939380
27200,0.0324,0.013523,0.002678,0.000431,2.831254
27300,0.0324,0.013523,0.002678,0.000431,2.898245
27400,0.0324,0.013523,0.002678,0.000431,2.459865
27500,0.0324,0.013523,0.002678,0.000431,2.390523
27600,0.0324,0.013523,0.002678,0.000431,2.510402
27700,0.0324,0.013523,0.002678,0.000431,2.980515
27800,0.0324,0.013523,0.002678,0.000431,2.795995
27900,0.0324,0.013523,0.002678,0.000431,2.529206
28000,0.0324,0.013523,0.002678,0.000431,2.712550
28100,0.0324,0.013523,0.002678,0.000431,2.757211
28200,0.0324,0.013523,0.002678,0.000431,2.645559
28300,0.0324,0.013523,0.002678,0.000431,2.656137
28400,0.0324,0.013523,0.002678,0.000431,2.342337
28500,0.0324,0.013523,0.002678,0.000431,2.558589
28600,0.0324,0.013523,0.002678,0.000431,2.596198
28700,0.0324,0.013523,0.002678,0.000431,2.927627
28800,0.0324,0.013523,0.002678,0.000431,2.888843
28900,0.0324,0.013523,0.002678,0.000431,2.767789
29000,0.0324,0.013523,0.002678,0.000431,3.166209
29100,0.0324,0.013523,0.002678,0.000431,2.838306
29200,0.0324,0.013523,0.002678,0.000431,2.585620
29300,0.0324,0.013523,0.002678,0.000431,2.691395
29400,0.0324,0.013523,0.002678,0.000431,2.745458
29500,0.0324,0.013523,0.002678,0.000431,2.408152
29600,0.0324,0.013523,0.002678,0.000431,2.402276
29700,0.0324,0.013523,0.002678,0.000431,2.557413
29800,0.0324,0.013523,0.002678,0.000431,2.886492
29900,0.0324,0.013523,0.002678,0.000431,2.603249
30000,0.0324,0.013523,0.002678,0.000431,2.673766
30100,0.0324,0.013523,0.002678,0.000431,2.699622
30200,0.0324,0.013523,0.002678,0.000431,2.622054
30300,0.0324,0.013523,0.002678,0.000431,2.691395
30400,0.0324,0.013523,0.002678,0.000431,2.738407
30500,0.0324,0.013523,0.002678,0.000431,2.716076
30600,0.0324,0.013523,0.002678,0.000431,2.753685
30700,0.0324,0.013523,0.002678,0.000431,2.714901
30800,0.0324,0.013523,0.002678,0.000431,2.954659
30900,0.0324,0.013523,0.002678,0.000431,2.616177
31000,0.0324,0.013523,0.002678,0.000431,2.555063
31100,0.0324,0.013523,0.002678,0.000431,2.576218
31200,0.0324,0.013523,0.002678,0.000431,2.650261
31300,0.0324,0.013523,0.002678,0.000431,2.595022
31400,0.0324,0.013523,0.002678,0.000431,2.529206
31500,0.0324,0.013523,0.002678,0.000431,2.738407
31600,0.0324,0.013523,0.002678,0.000431,2.664364
31700,0.0324,0.013523,0.002678,0.000431,2.355265
31800,0.0324,0.013523,0.002678,0.000431,2.627930
31900,0.0324,0.013523,0.002678,0.000431,2.570341
32000,0.0324,0.013523,0.002678,0.000431,2.264768
32100,0.0324,0.013523,0.002678,0.000431,2.761912
32200,0.0324,0.013523,0.002678,0.000431,2.477494
32300,0.0324,0.013523,0.002678,0.000431,2.515103
32400,0.0324,0.013523,0.002678,0.000431,2.367018
32500,0.0324,0.013523,0.002678,0.000431,2.348213
32600,0.0324,0.013523,0.002678,0.000431,2.539784
32700,0.0324,0.013523,0.002678,0.000431,2.318831
32800,0.0324,0.013523,0.002678,0.000431,2.364667
32900,0.0324,0.013523,0.002678,0.000431,2.317656
33000,0.0324,0.013523,0.002678,0.000431,2.343512
33100,0.0324,0.013523,0.002678,0.000431,1.994453
33200,0.0324,0.013523,0.002678,0.000431,2.042640
33300,0.0324,0.013523,0.002678,0.000431,1.988577
33400,0.0324,0.013523,0.002678,0.000431,2.014433
33500,0.0324,0.013523,0.002678,0.000431,1.987402
33600,0.0324,0.013523,0.002678,0.000431,1.926287
33700,0.0324,0.013523,0.002678,0.000431,2.302377
33800,0.0324,0.013523,0.002678,0.000431,2.044990
33900,0.0324,0.013523,0.002678,0.000431,2.183674
34000,0.0324,0.013523,0.002678,0.000431,2.215406
34100,0.0324,0.013523,0.002678,0.000431,2.175447
34200,0.0324,0.013523,0.002678,0.000431,1.953318
34300,0.0324,0.013523,0.002678,0.000431,2.055568
34400,0.0324,0.013523,0.002678,0.000431,1.912184
34500,0.0324,0.013523,0.002678,0.000431,1.949793
34600,0.0324,0.013523,0.002678,0.000431,1.769974
34700,0.0324,0.013523,0.002678,0.000431,1.977999
34800,0.0324,0.013523,0.002678,0.000431,1.826388
34900,0.0324,0.013523,0.002678,0.000431,1.752345
35000,0.0324,0.013523,0.002678,0.000431,2.016784
35100,0.0324,0.013523,0.002678,0.000431,2.166044
35200,0.0324,0.013523,0.002678,0.000431,2.040289
35300,0.0324,0.013523,0.002678,0.000431,1.943916
35400,0.0324,0.013523,0.002678,0.000431,2.250665
35500,0.0324,0.013523,0.002678,0.000431,2.073197
35600,0.0324,0.013523,0.002678,0.000431,2.160168
35700,0.0324,0.013523,0.002678,0.000431,2.067321
35800,0.0324,0.013523,0.002678,0.000431,2.116683
35900,0.0324,0.013523,0.002678,0.000431,1.920411
36000,0.0324,0.013523,0.002678,0.000431,1.928637
36100,0.0324,0.013523,0.002678,0.000431,2.027361
36200,0.0324,0.013523,0.002678,0.000431,2.081424
36300,0.0324,0.013523,0.002678,0.000431,2.005031
36400,0.0324,0.013523,0.002678,0.000431,1.742943
36500,0.0324,0.013523,0.002678,0.000431,1.928637
36600,0.0324,0.013523,0.002678,0.000431,1.711210
36700,0.0324,0.013523,0.002678,0.000431,1.787604
36800,0.0324,0.013523,0.002678,0.000431,2.047341
36900,0.0324,0.013523,0.002678,0.000431,1.974473
37000,0.0324,0.013523,0.002678,0.000431,2.113157
37100,0.0324,0.013523,0.002678,0.000431,1.982700
37200,0.0324,0.013523,0.002678,0.000431,1.856945
37300,0.0324,0.013523,0.002678,0.000431,1.772325
37400,0.0324,0.013523,0.002678,0.000431,1.868698
37500,0.0324,0.013523,0.002678,0.000431,1.769974
37600,0.0324,0.013523,0.002678,0.000431,2.037939
37700,0.0324,0.013523,0.002678,0.000431,2.041465
37800,0.0324,0.013523,0.002678,0.000431,1.645395
37900,0.0324,0.013523,0.002678,0.000431,1.959195
38000,0.0324,0.013523,0.002678,0.000431,1.777026
38100,0.0324,0.013523,0.002678,0.000431,1.915709
38200,0.0324,0.013523,0.002678,0.000431,1.902781
38300,0.0324,0.013523,0.002678,0.000431,1.982700
38400,0.0324,0.013523,0.002678,0.000431,1.780552
38500,0.0324,0.013523,0.002678,0.000431,1.719437
38600,0.0324,0.013523,0.002678,0.000431,1.921586
38700,0.0324,0.013523,0.002678,0.000431,1.626590
38800,0.0324,0.013523,0.002678,0.000431,1.921586
38900,0.0324,0.013523,0.002678,0.000431,1.598383
39000,0.0324,0.013523,0.002678,0.000431,1.640693
39100,0.0324,0.013523,0.002678,0.000431,1.678302
39200,0.0324,0.013523,0.002678,0.000431,1.724138
39300,0.0324,0.013523,0.002678,0.000431,1.686529
39400,0.0324,0.013523,0.002678,0.000431,1.834615
39500,0.0324,0.013523,0.002678,0.000431,1.685354
39600,0.0324,0.013523,0.002678,0.000431,1.880451
39700,0.0324,0.013523,0.002678,0.000431,1.640693
39800,0.0324,0.013523,0.002678,0.000431,1.828739
39900,0.0324,0.013523,0.002678,0.000431,1.580754
40000,0.0324,0.013523,0.002678,0.000431,1.561950
40100,0.0324,0.013523,0.002678,0.000431,1.658323
40200,0.0324,0.013523,0.002678,0.000431,1.717087
40300,0.0324,0.013523,0.002678,0.000431,1.692406
40400,0.0324,0.013523,0.002678,0.000431,2.046166
40500,0.0324,0.013523,0.002678,0.000431,1.900431
40600,0.0324,0.013523,0.002678,0.000431,1.934514
40700,0.0324,0.013523,0.002678,0.000431,1.807583
40800,0.0324,0.013523,0.002678,0.000431,1.740592
40900,0.0324,0.013523,0.002678,0.000431,1.892204
41000,0.0324,0.013523,0.002678,0.000431,1.699458
41100,0.0324,0.013523,0.002678,0.000431,1.777026
41200,0.0324,0.013523,0.002678,0.000431,1.847543
41300,0.0324,0.013523,0.002678,0.000431,1.720613
41400,0.0324,0.013523,0.002678,0.000431,1.706509
41500,0.0324,0.013523,0.002678,0.000431,1.727664
41600,0.0324,0.013523,0.002678,0.000431,1.724138
41700,0.0324,0.013523,0.002678,0.000431,1.773500
41800,0.0324,0.013523,0.002678,0.000431,1.504361
41900,0.0324,0.013523,0.002678,0.000431,1.720613
42000,0.0324,0.013523,0.002678,0.000431,1.553723
42100,0.0324,0.013523,0.002678,0.000431,1.453824
42200,0.0324,0.013523,0.002678,0.000431,1.665374
42300,0.0324,0.013523,0.002678,0.000431,1.462051
42400,0.0324,0.013523,0.002678,0.000431,1.457349
42500,0.0324,0.013523,0.002678,0.000431,1.553723
42600,0.0324,0.013523,0.002678,0.000431,1.402111
42700,0.0324,0.013523,0.002678,0.000431,1.581929
42800,0.0324,0.013523,0.002678,0.000431,1.760572
42900,0.0324,0.013523,0.002678,0.000431,1.637168
43000,0.0324,0.013523,0.002678,0.000431,1.779377
43100,0.0324,0.013523,0.002678,0.000431,1.657147
43200,0.0324,0.013523,0.002678,0.000431,1.646570
43300,0.0324,0.013523,0.002678,0.000431,1.511412
43400,0.0324,0.013523,0.002678,0.000431,1.476154
43500,0.0324,0.013523,0.002678,0.000431,1.415039
43600,0.0324,0.013523,0.002678,0.000431,1.484381
43700,0.0324,0.013523,0.002678,0.000431,1.467927
43800,0.0324,0.013523,0.002678,0.000431,1.640693
43900,0.0324,0.013523,0.002678,0.000431,1.343347
44000,0.0324,0.013523,0.002678,0.000431,1.490257
44100,0.0324,0.013523,0.002678,0.000431,1.346873
44200,0.0324,0.013523,0.002678,0.000431,1.500835
44300,0.0324,0.013523,0.002678,0.000431,1.502010
44400,0.0324,0.013523,0.002678,0.000431,1.460875
44500,0.0324,0.013523,0.002678,0.000431,1.486732
44600,0.0324,0.013523,0.002678,0.000431,1.362152
44700,0.0324,0.013523,0.002678,0.000431,1.510237
44800,0.0324,0.013523,0.002678,0.000431,1.484381
44900,0.0324,0.013523,0.002678,0.000431,1.426792
45000,0.0324,0.013523,0.002678,0.000431,1.457349
45100,0.0324,0.013523,0.002678,0.000431,1.456174
45200,0.0324,0.013523,0.002678,0.000431,1.145900
45300,0.0324,0.013523,0.002678,0.000431,1.454999
45400,0.0324,0.013523,0.002678,0.000431,1.299862
45500,0.0324,0.013523,0.002678,0.000431,1.391534
45600,0.0324,0.013523,0.002678,0.000431,1.371554
45700,0.0324,0.013523,0.002678,0.000431,1.396235
45800,0.0324,0.013523,0.002678,0.000431,1.427967
45900,0.0324,0.013523,0.002678,0.000431,1.353925
46000,0.0324,0.013523,0.002678,0.000431,1.345698
46100,0.0324,0.013523,0.002678,0.000431,1.454999
46200,0.0324,0.013523,0.002678,0.000431,1.388008
46300,0.0324,0.013523,0.002678,0.000431,1.422091
46400,0.0324,0.013523,0.002678,0.000431,1.377430
46500,0.0324,0.013523,0.002678,0.000431,1.192911
46600,0.0324,0.013523,0.002678,0.000431,1.118868
46700,0.0324,0.013523,0.002678,0.000431,1.083610
46800,0.0324,0.013523,0.002678,0.000431,1.174107
46900,0.0324,0.013523,0.002678,0.000431,1.460875
47000,0.0324,0.013523,0.002678,0.000431,1.557248
47100,0.0324,0.013523,0.002678,0.000431,1.553723
47200,0.0324,0.013523,0.002678,0.000431,1.773500
47300,0.0324,0.013523,0.002678,0.000431,1.623064
47400,0.0324,0.013523,0.002678,0.000431,1.647745
47500,0.0324,0.013523,0.002678,0.000431,1.403286
47600,0.0324,0.013523,0.002678,0.000431,1.435019
47700,0.0324,0.013523,0.002678,0.000431,1.245799
47800,0.0324,0.013523,0.002678,0.000431,1.567826
47900,0.0324,0.013523,0.002678,0.000431,1.292810
48000,0.0324,0.013523,0.002678,0.000431,1.503185
48100,0.0324,0.013523,0.002678,0.000431,1.297511
48200,0.0324,0.013523,0.002678,0.000431,1.348048
48300,0.0324,0.013523,0.002678,0.000431,1.376255
48400,0.0324,0.013523,0.002678,0.000431,1.456174
48500,0.0324,0.013523,0.002678,0.000431,1.399761
48600,0.0324,0.013523,0.002678,0.000431,1.471453
48700,0.0324,0.013523,0.002678,0.000431,1.393884
48800,0.0324,0.013523,0.002678,0.000431,1.487907
48900,0.0324,0.013523,0.002678,0.000431,1.379781
49000,0.0324,0.013523,0.002678,0.000431,1.282232
49100,0.0324,0.013523,0.002678,0.000431,1.209365
49200,0.0324,0.013523,0.002678,0.000431,1.013093
49300,0.0324,0.013523,0.002678,0.000431,1.152951
49400,0.0324,0.013523,0.002678,0.000431,1.105940
49500,0.0324,0.013523,0.002678,0.000431,1.279882
49600,0.0324,0.013523,0.002678,0.000431,1.344522
49700,0.0324,0.013523,0.002678,0.000431,1.352749
49800,0.0324,0.013523,0.002678,0.000431,1.516114
49900,0.0324,0.013523,0.002678,0.000431,1.380956
50000,0.0324,0.013523,0.002678,0.000431,1.316316
50100,0.0324,0.013523,0.002678,0.000431,1.168230
50200,0.0324,0.013523,0.002678,0.000431,0.996639
50300,0.0324,0.013523,0.002678,0.000431,1.117693
50400,0.0324,0.013523,0.002678,0.000431,1.037774
50500,0.0324,0.013523,0.002678,0.000431,1.278707
50600,0.0324,0.013523,0.002678,0.000431,1.431493
50700,0.0324,0.013523,0.002678,0.000431,1.438545
50800,0.0324,0.013523,0.002678,0.000431,1.396235
50900,0.0324,0.013523,0.002678,0.000431,1.364502
51000,0.0324,0.013523,0.002678,0.000431,1.384482
51100,0.0324,0.013523,0.002678,0.000431,1.087136
51200,0.0324,0.013523,0.002678,0.000431,1.188210
51300,0.0324,0.013523,0.002678,0.000431,1.117693
51400,0.0324,0.013523,0.002678,0.000431,1.074208
51500,0.0324,0.013523,0.002678,0.000431,1.128271
51600,0.0324,0.013523,0.002678,0.000431,1.192911
51700,0.0324,0.013523,0.002678,0.000431,1.178808
51800,0.0324,0.013523,0.002678,0.000431,1.337471
51900,0.0324,0.013523,0.002678,0.000431,1.112992
52000,0.0324,0.013523,0.002678,0.000431,1.232871
52100,0.0324,0.013523,0.002678,0.000431,1.169405
52200,0.0324,0.013523,0.002678,0.000431,0.953154
52300,0.0324,0.013523,0.002678,0.000431,1.192911
52400,0.0324,0.013523,0.002678,0.000431,0.855605
52500,0.0324,0.013523,0.002678,0.000431,0.969608
52600,0.0324,0.013523,0.002678,0.000431,0.973133
52700,0.0324,0.013523,0.002678,0.000431,0.921421
52800,0.0324,0.013523,0.002678,0.000431,0.993113
52900,0.0324,0.013523,0.002678,0.000431,1.014268
53000,0.0324,0.013523,0.002678,0.000431,1.154127
53100,0.0324,0.013523,0.002678,0.000431,0.940225
53200,0.0324,0.013523,0.002678,0.000431,1.122394
53300,0.0324,0.013523,0.002678,0.000431,0.927297
53400,0.0324,0.013523,0.002678,0.000431,0.950803
53500,0.0324,0.013523,0.002678,0.000431,1.058929
53600,0.0324,0.013523,0.002678,0.000431,1.040124
53700,0.0324,0.013523,0.002678,0.000431,1.036599
53800,0.0324,0.013523,0.002678,0.000431,0.953154
53900,0.0324,0.013523,0.002678,0.000431,0.884987
54000,0.0324,0.013523,0.002678,0.000431,0.762758
54100,0.0324,0.013523,0.002678,0.000431,0.842677
54200,0.0324,0.013523,0.002678,0.000431,0.896740
54300,0.0324,0.013523,0.002678,0.000431,1.047176
54400,0.0324,0.013523,0.002678,0.000431,0.889688
54500,0.0324,0.013523,0.002678,0.000431,0.988412
54600,0.0324,0.013523,0.002678,0.000431,1.038949
54700,0.0324,0.013523,0.002678,0.000431,0.849729
54800,0.0324,0.013523,0.002678,0.000431,0.986061
54900,0.0324,0.013523,0.002678,0.000431,0.922596
55000,0.0324,0.013523,0.002678,0.000431,0.779212
55100,0.0324,0.013523,0.002678,0.000431,0.768634
55200,0.0324,0.013523,0.002678,0.000431,0.850904
55300,0.0324,0.013523,0.002678,0.000431,0.808594
55400,0.0324,0.013523,0.002678,0.000431,0.823873
55500,0.0324,0.013523,0.002678,0.000431,0.817996
55600,0.0324,0.013523,0.002678,0.000431,0.928473
55700,0.0324,0.013523,0.002678,0.000431,0.888513
55800,0.0324,0.013523,0.002678,0.000431,0.886162
55900,0.0324,0.013523,0.002678,0.000431,0.983711
56000,0.0324,0.013523,0.002678,0.000431,0.843852
56100,0.0324,0.013523,0.002678,0.000431,0.817996
56200,0.0324,0.013523,0.002678,0.000431,0.986061
56300,0.0324,0.013523,0.002678,0.000431,0.991938
56400,0.0324,0.013523,0.002678,0.000431,1.074208
56500,0.0324,0.013523,0.002678,0.000431,1.107115
56600,0.0324,0.013523,0.002678,0.000431,1.167055
56700,0.0324,0.013523,0.002678,0.000431,1.278707
56800,0.0324,0.013523,0.002678,0.000431,1.033073
56900,0.0324,0.013523,0.002678,0.000431,1.293985
57000,0.0324,0.013523,0.002678,0.000431,1.077733
57100,0.0324,0.013523,0.002678,0.000431,0.924947
57200,0.0324,0.013523,0.002678,0.000431,0.987237
57300,0.0324,0.013523,0.002678,0.000431,0.956679
57400,0.0324,0.013523,0.002678,0.000431,1.110641
57500,0.0324,0.013523,0.002678,0.000431,1.070682
57600,0.0324,0.013523,0.002678,0.000431,1.223468
57700,0.0324,0.013523,0.002678,0.000431,1.238747
57800,0.0324,0.013523,0.002678,0.000431,1.393884
57900,0.0324,0.013523,0.002678,0.000431,1.375080
58000,0.0324,0.013523,0.002678,0.000431,1.450298
58100,0.0324,0.013523,0.002678,0.000431,1.207014
58200,0.0324,0.013523,0.002678,0.000431,1.111817
58300,0.0324,0.013523,0.002678,0.000431,0.946102
58400,0.0324,0.013523,0.002678,0.000431,1.080084
58500,0.0324,0.013523,0.002678,0.000431,1.295161
58600,0.0324,0.013523,0.002678,0.000431,1.328068
58700,0.0324,0.013523,0.002678,0.000431,1.463226
58800,0.0324,0.013523,0.002678,0.000431,1.302212
58900,0.0324,0.013523,0.002678,0.000431,1.368028
59000,0.0324,0.013523,0.002678,0.000431,1.117693
59100,0.0324,0.013523,0.002678,0.000431,1.164704
59200,0.0324,0.013523,0.002678,0.000431,1.194086
59300,0.0324,0.013523,0.002678,0.000431,1.245799
59400,0.0324,0.013523,0.002678,0.000431,1.067156
59500,0.0324,0.013523,0.002678,0.000431,1.235221
59600,0.0324,0.013523,0.002678,0.000431,1.369203
59700,0.0324,0.013523,0.002678,0.000431,1.150601
59800,0.0324,0.013523,0.002678,0.000431,1.333945
59900,0.0324,0.013523,0.002678,0.000431,1.136498
60000,0.0324,0.013523,0.002678,0.000431,0.861482
60100,0.0324,0.013523,0.002678,0.000431,1.022495
60200,0.0324,0.013523,0.002678,0.000431,0.896740
60300,0.0324,0.013523,0.002678,0.000431,1.199963
60400,0.0324,0.013523,0.002678,0.000431,0.973133
60500,0.0324,0.013523,0.002678,0.000431,0.963731
60600,0.0324,0.013523,0.002678,0.000431,0.948452
60700,0.0324,0.013523,0.002678,0.000431,1.081259
60800,0.0324,0.013523,0.002678,0.000431,1.137673
60900,0.0324,0.013523,0.002678,0.000431,1.176457
61000,0.0324,0.013523,0.002678,0.000431,1.164704
61100,0.0324,0.013523,0.002678,0.000431,0.989587
61200,0.0324,0.013523,0.002678,0.000431,1.090662
61300,0.0324,0.013523,0.002678,0.000431,1.097713
61400,0.0324,0.013523,0.002678,0.000431,1.040124
61500,0.0324,0.013523,0.002678,0.000431,0.989587
61600,0.0324,0.013523,0.002678,0.000431,0.986061
61700,0.0324,0.013523,0.002678,0.000431,0.809769
61800,0.0324,0.013523,0.002678,0.000431,0.785088
61900,0.0324,0.013523,0.002678,0.000431,0.722798
62000,0.0324,0.013523,0.002678,0.000431,0.739252
62100,0.0324,0.013523,0.002678,0.000431,0.654632
62200,0.0324,0.013523,0.002678,0.000431,0.743953
62300,0.0324,0.013523,0.002678,0.000431,0.745129
62400,0.0324,0.013523,0.002678,0.000431,0.707520
62500,0.0324,0.013523,0.002678,0.000431,0.746304
62600,0.0324,0.013523,0.002678,0.000431,0.694592
62700,0.0324,0.013523,0.002678,0.000431,0.621724
62800,0.0324,0.013523,0.002678,0.000431,0.624075
62900,0.0324,0.013523,0.002678,0.000431,0.639353
63000,0.0324,0.013523,0.002678,0.000431,0.628776
63100,0.0324,0.013523,0.002678,0.000431,0.628776
63200,0.0324,0.013523,0.002678,0.000431,0.672261
63300,0.0324,0.013523,0.002678,0.000431,0.586466
63400,0.0324,0.013523,0.002678,0.000431,0.593517
63500,0.0324,0.013523,0.002678,0.000431,0.588816
63600,0.0324,0.013523,0.002678,0.000431,0.611147
63700,0.0324,0.013523,0.002678,0.000431,0.591167
63800,0.0324,0.013523,0.002678,0.000431,0.601744
63900,0.0324,0.013523,0.002678,0.000431,0.575888
64000,0.0324,0.013523,0.002678,0.000431,0.521825
64100,0.0324,0.013523,0.002678,0.000431,0.519475
64200,0.0324,0.013523,0.002678,0.000431,0.540630
64300,0.0324,0.013523,0.002678,0.000431,0.479515
64400,0.0324,0.013523,0.002678,0.000431,0.561785
64500,0.0324,0.013523,0.002678,0.000431,0.500670
64600,0.0324,0.013523,0.002678,0.000431,0.478340
64700,0.0324,0.013523,0.002678,0.000431,0.472463
64800,0.0324,0.013523,0.002678,0.000431,0.436030
64900,0.0324,0.013523,0.002678,0.000431,0.454834
65000,0.0324,0.013523,0.002678,0.000431,0.448958
65100,0.0324,0.013523,0.002678,0.000431,0.437205
65200,0.0324,0.013523,0.002678,0.000431,0.430153
65300,0.0324,0.013523,0.002678,0.000431,0.447782
65400,0.0324,0.013523,0.002678,0.000431,0.428978
65500,0.0324,0.013523,0.002678,0.000431,0.434854
65600,0.0324,0.013523,0.002678,0.000431,0.413699
65700,0.0324,0.013523,0.002678,0.000431,0.428978
65800,0.0324,0.013523,0.002678,0.000431,0.366688
65900,0.0324,0.013523,0.002678,0.000431,0.418400
66000,0.0324,0.013523,0.002678,0.000431,0.360812
66100,0.0324,0.013523,0.002678,0.000431,0.406648
66200,0.0324,0.013523,0.002678,0.000431,0.352585
66300,0.0324,0.013523,0.002678,0.000431,0.384317
66400,0.0324,0.013523,0.002678,0.000431,0.353760
66500,0.0324,0.013523,0.002678,0.000431,0.323203
66600,0.0324,0.013523,0.002678,0.000431,0.353760
66700,0.0324,0.013523,0.002678,0.000431,0.356110
66800,0.0324,0.013523,0.002678,0.000431,0.347883
66900,0.0324,0.013523,0.002678,0.000431,0.358461
67000,0.0324,0.013523,0.002678,0.000431,0.359636
67100,0.0324,0.013523,0.002678,0.000431,0.326728
67200,0.0324,0.013523,0.002678,0.000431,0.313800
67300,0.0324,0.013523,0.002678,0.000431,0.367863
67400,0.0324,0.013523,0.002678,0.000431,0.290295
67500,0.0324,0.013523,0.002678,0.000431,0.360812
67600,0.0324,0.013523,0.002678,0.000431,0.320852
67700,0.0324,0.013523,0.002678,0.000431,0.300872
67800,0.0324,0.013523,0.002678,0.000431,0.291470
67900,0.0324,0.013523,0.002678,0.000431,0.309099
68000,0.0324,0.013523,0.002678,0.000431,0.266789
68100,0.0324,0.013523,0.002678,0.000431,0.292645
68200,0.0324,0.013523,0.002678,0.000431,0.292645
68300,0.0324,0.013523,0.002678,0.000431,0.266789
68400,0.0324,0.013523,0.002678,0.000431,0.280892
68500,0.0324,0.013523,0.002678,0.000431,0.258562
68600,0.0324,0.013523,0.002678,0.000431,0.279717
68700,0.0324,0.013523,0.002678,0.000431,0.279717
68800,0.0324,0.013523,0.002678,0.000431,0.312625
68900,0.0324,0.013523,0.002678,0.000431,0.256211
69000,0.0324,0.013523,0.002678,0.000431,0.267964
69100,0.0324,0.013523,0.002678,0.000431,0.244459
69200,0.0324,0.013523,0.002678,0.000431,0.237407
69300,0.0324,0.013523,0.002678,0.000431,0.270315
69400,0.0324,0.013523,0.002678,0.000431,0.284418
69500,0.0324,0.013523,0.002678,0.000431,0.272665
69600,0.0324,0.013523,0.002678,0.000431,0.293820
69700,0.0324,0.013523,0.002678,0.000431,0.258562
69800,0.0324,0.013523,0.002678,0.000431,0.244459
69900,0.0324,0.013523,0.002678,0.000431,0.246809
70000,0.0324,0.013523,0.002678,0.000431,0.260913
70100,0.0324,0.013523,0.002678,0.000431,0.249160
70200,0.0324,0.013523,0.002678,0.000431,0.249160
70300,0.0324,0.013523,0.002678,0.000431,0.264438
70400,0.0324,0.013523,0.002678,0.000431,0.235056
70500,0.0324,0.013523,0.002678,0.000431,0.250335
70600,0.0324,0.013523,0.002678,0.000431,0.265614
70700,0.0324,0.013523,0.002678,0.000431,0.244459
70800,0.0324,0.013523,0.002678,0.000431,0.282068
70900,0.0324,0.013523,0.002678,0.000431,0.273841
71000,0.0324,0.013523,0.002678,0.000431,0.259737
71100,0.0324,0.013523,0.002678,0.000431,0.236232
71200,0.0324,0.013523,0.002678,0.000431,0.229180
71300,0.0324,0.013523,0.002678,0.000431,0.278542
71400,0.0324,0.013523,0.002678,0.000431,0.218602
71500,0.0324,0.013523,0.002678,0.000431,0.271490
71600,0.0324,0.013523,0.002678,0.000431,0.240933
71700,0.0324,0.013523,0.002678,0.000431,0.228005
71800,0.0324,0.013523,0.002678,0.000431,0.245634
71900,0.0324,0.013523,0.002678,0.000431,0.258562
72000,0.0324,0.013523,0.002678,0.000431,0.256211
72100,0.0324,0.013523,0.002678,0.000431,0.271490
72200,0.0324,0.013523,0.002678,0.000431,0.267964
72300,0.0324,0.013523,0.002678,0.000431,0.219778
72400,0.0324,0.013523,0.002678,0.000431,0.273841
72500,0.0324,0.013523,0.002678,0.000431,0.213901
72600,0.0324,0.013523,0.002678,0.000431,0.226829
72700,0.0324,0.013523,0.002678,0.000431,0.211551
72800,0.0324,0.013523,0.002678,0.000431,0.238582
72900,0.0324,0.013523,0.002678,0.000431,0.202148
73000,0.0324,0.013523,0.002678,0.000431,0.246809
73100,0.0324,0.013523,0.002678,0.000431,0.224479
73200,0.0324,0.013523,0.002678,0.000431,0.223304
73300,0.0324,0.013523,0.002678,0.000431,0.238582
73400,0.0324,0.013523,0.002678,0.000431,0.218602
73500,0.0324,0.013523,0.002678,0.000431,0.245634
73600,0.0324,0.013523,0.002678,0.000431,0.205674
73700,0.0324,0.013523,0.002678,0.000431,0.237407
73800,0.0324,0.013523,0.002678,0.000431,0.218602
73900,0.0324,0.013523,0.002678,0.000431,0.183344
74000,0.0324,0.013523,0.002678,0.000431,0.224479
74100,0.0324,0.013523,0.002678,0.000431,0.213901
74200,0.0324,0.013523,0.002678,0.000431,0.209200
74300,0.0324,0.013523,0.002678,0.000431,0.250335
74400,0.0324,0.013523,0.002678,0.000431,0.196272
74500,0.0324,0.013523,0.002678,0.000431,0.212726
74600,0.0324,0.013523,0.002678,0.000431,0.212726
74700,0.0324,0.013523,0.002678,0.000431,0.217427
74800,0.0324,0.013523,0.002678,0.000431,0.233881
74900,0.0324,0.013523,0.002678,0.000431,0.236232
75000,0.0324,0.013523,0.002678,0.000431,0.216252
75100,0.0324,0.013523,0.002678,0.000431,0.226829
75200,0.0324,0.013523,0.002678,0.000431,0.189220
75300,0.0324,0.013523,0.002678,0.000431,0.204499
75400,0.0324,0.013523,0.002678,0.000431,0.216252
75500,0.0324,0.013523,0.002678,0.000431,0.193922
75600,0.0324,0.013523,0.002678,0.000431,0.247984
75700,0.0324,0.013523,0.002678,0.000431,0.228005
75800,0.0324,0.013523,0.002678,0.000431,0.220953
75900,0.0324,0.013523,0.002678,0.000431,0.236232
76000,0.0324,0.013523,0.002678,0.000431,0.220953
76100,0.0324,0.013523,0.002678,0.000431,0.180993
76200,0.0324,0.013523,0.002678,0.000431,0.211551
76300,0.0324,0.013523,0.002678,0.000431,0.177468
76400,0.0324,0.013523,0.002678,0.000431,0.226829
76500,0.0324,0.013523,0.002678,0.000431,0.215077
76600,0.0324,0.013523,0.002678,0.000431,0.211551
76700,0.0324,0.013523,0.002678,0.000431,0.195097
76800,0.0324,0.013523,0.002678,0.000431,0.213901
76900,0.0324,0.013523,0.002678,0.000431,0.169241
77000,0.0324,0.013523,0.002678,0.000431,0.197447
77100,0.0324,0.013523,0.002678,0.000431,0.195097
77200,0.0324,0.013523,0.002678,0.000431,0.212726
77300,0.0324,0.013523,0.002678,0.000431,0.196272
77400,0.0324,0.013523,0.002678,0.000431,0.189220
77500,0.0324,0.013523,0.002678,0.000431,0.178643
77600,0.0324,0.013523,0.002678,0.000431,0.193922
77700,0.0324,0.013523,0.002678,0.000431,0.209200
77800,0.0324,0.013523,0.002678,0.000431,0.200973
77900,0.0324,0.013523,0.002678,0.000431,0.211551
78000,0.0324,0.013523,0.002678,0.000431,0.177468
78100,0.0324,0.013523,0.002678,0.000431,0.173942
78200,0.0324,0.013523,0.002678,0.000431,0.204499
78300,0.0324,0.013523,0.002678,0.000431,0.190396
78400,0.0324,0.013523,0.002678,0.000431,0.223304
78500,0.0324,0.013523,0.002678,0.000431,0.195097
78600,0.0324,0.013523,0.002678,0.000431,0.195097
78700,0.0324,0.013523,0.002678,0.000431,0.182169
78800,0.0324,0.013523,0.002678,0.000431,0.172766
78900,0.0324,0.013523,0.002678,0.000431,0.180993
79000,0.0324,0.013523,0.002678,0.000431,0.173942
79100,0.0324,0.013523,0.002678,0.000431,0.198623
79200,0.0324,0.013523,0.002678,0.000431,0.165715
79300,0.0324,0.013523,0.002678,0.000431,0.185695
79400,0.0324,0.013523,0.002678,0.000431,0.168065
79500,0.0324,0.013523,0.002678,0.000431,0.215077
79600,0.0324,0.013523,0.002678,0.000431,0.171591
79700,0.0324,0.013523,0.002678,0.000431,0.200973
79800,0.0324,0.013523,0.002678,0.000431,0.176292
79900,0.0324,0.013523,0.002678,0.000431,0.189220
80000,0.0324,0.013523,0.002678,0.000431,0.158663
80100,0.0324,0.013523,0.002678,0.000431,0.175117
80200,0.0324,0.013523,0.002678,0.000431,0.185695
80300,0.0324,0.013523,0.002678,0.000431,0.175117
80400,0.0324,0.013523,0.002678,0.000431,0.173942
80500,0.0324,0.013523,0.002678,0.000431,0.165715
80600,0.0324,0.013523,0.002678,0.000431,0.179818
80700,0.0324,0.013523,0.002678,0.000431,0.141034
80800,0.0324,0.013523,0.002678,0.000431,0.202148
80900,0.0324,0.013523,0.002678,0.000431,0.188045
81000,0.0324,0.013523,0.002678,0.000431,0.153962
81100,0.0324,0.013523,0.002678,0.000431,0.191571
81200,0.0324,0.013523,0.002678,0.000431,0.182169
81300,0.0324,0.013523,0.002678,0.000431,0.152787
81400,0.0324,0.013523,0.002678,0.000431,0.188045
81500,0.0324,0.013523,0.002678,0.000431,0.162189
81600,0.0324,0.013523,0.002678,0.000431,0.151611
81700,0.0324,0.013523,0.002678,0.000431,0.163364
81800,0.0324,0.013523,0.002678,0.000431,0.157488
81900,0.0324,0.013523,0.002678,0.000431,0.164539
82000,0.0324,0.013523,0.002678,0.000431,0.138683
82100,0.0324,0.013523,0.002678,0.000431,0.180993
82200,0.0324,0.013523,0.002678,0.000431,0.141034
82300,0.0324,0.013523,0.002678,0.000431,0.172766
82400,0.0324,0.013523,0.002678,0.000431,0.156312
82500,0.0324,0.013523,0.002678,0.000431,0.177468
82600,0.0324,0.013523,0.002678,0.000431,0.155137
82700,0.0324,0.013523,0.002678,0.000431,0.173942
82800,0.0324,0.013523,0.002678,0.000431,0.183344
82900,0.0324,0.013523,0.002678,0.000431,0.153962
83000,0.0324,0.013523,0.002678,0.000431,0.177468
83100,0.0324,0.013523,0.002678,0.000431,0.159838
83200,0.0324,0.013523,0.002678,0.000431,0.145735
83300,0.0324,0.013523,0.002678,0.000431,0.158663
83400,0.0324,0.013523,0.002678,0.000431,0.168065
83500,0.0324,0.013523,0.002678,0.000431,0.152787
83600,0.0324,0.013523,0.002678,0.000431,0.159838
83700,0.0324,0.013523,0.002678,0.000431,0.171591
83800,0.0324,0.013523,0.002678,0.000431,0.155137
83900,0.0324,0.013523,0.002678,0.000431,0.162189
84000,0.0324,0.013523,0.002678,0.000431,0.151611
84100,0.0324,0.013523,0.002678,0.000431,0.148086
84200,0.0324,0.013523,0.002678,0.000431,0.165715
84300,0.0324,0.013523,0.002678,0.000431,0.142209
84400,0.0324,0.013523,0.002678,0.000431,0.150436
84500,0.0324,0.013523,0.002678,0.000431,0.164539
84600,0.0324,0.013523,0.002678,0.000431,0.162189
84700,0.0324,0.013523,0.002678,0.000431,0.128106
84800,0.0324,0.013523,0.002678,0.000431,0.165715
84900,0.0324,0.013523,0.002678,0.000431,0.159838
85000,0.0324,0.013523,0.002678,0.000431,0.132807
85100,0.0324,0.013523,0.002678,0.000431,0.164539
85200,0.0324,0.013523,0.002678,0.000431,0.135157
85300,0.0324,0.013523,0.002678,0.000431,0.151611
85400,0.0324,0.013523,0.002678,0.000431,0.151611
85500,0.0324,0.013523,0.002678,0.000431,0.165715
85600,0.0324,0.013523,0.002678,0.000431,0.149261
85700,0.0324,0.013523,0.002678,0.000431,0.155137
85800,0.0324,0.013523,0.002678,0.000431,0.155137
85900,0.0324,0.013523,0.002678,0.000431,0.141034
86000,0.0324,0.013523,0.002678,0.000431,0.128106
86100,0.0324,0.013523,0.002678,0.000431,0.173942
86200,0.0324,0.013523,0.002678,0.000431,0.133982
86300,0.0324,0.013523,0.002678,0.000431,0.141034
86400,0.0324,0.013523,0.002678,0.000431,0.150436
86500,0.0324,0.013523,0.002678,0.000431,0.142209
86600,0.0324,0.013523,0.002678,0.000431,0.126930
86700,0.0324,0.013523,0.002678,0.000431,0.138683
86800,0.0324,0.013523,0.002678,0.000431,0.153962
86900,0.0324,0.013523,0.002678,0.000431,0.144560
87000,0.0324,0.013523,0.002678,0.000431,0.151611
87100,0.0324,0.013523,0.002678,0.000431,0.158663
87200,0.0324,0.013523,0.002678,0.000431,0.121054
87300,0.0324,0.013523,0.002678,0.000431,0.142209
87400,0.0324,0.013523,0.002678,0.000431,0.143384
87500,0.0324,0.013523,0.002678,0.000431,0.142209
87600,0.0324,0.013523,0.002678,0.000431,0.138683
87700,0.0324,0.013523,0.002678,0.000431,0.146910
87800,0.0324,0.013523,0.002678,0.000431,0.138683
87900,0.0324,0.013523,0.002678,0.000431,0.141034
88000,0.0324,0.013523,0.002678,0.000431,0.152787
88100,0.0324,0.013523,0.002678,0.000431,0.162189
88200,0.0324,0.013523,0.002678,0.000431,0.135157
88300,0.0324,0.013523,0.002678,0.000431,0.150436
88400,0.0324,0.013523,0.002678,0.000431,0.141034
88500,0.0324,0.013523,0.002678,0.000431,0.124580
88600,0.0324,0.013523,0.002678,0.000431,0.142209
88700,0.0324,0.013523,0.002678,0.000431,0.151611
88800,0.0324,0.013523,0.002678,0.000431,0.111652
88900,0.0324,0.013523,0.002678,0.000431,0.166890
89000,0.0324,0.013523,0.002678,0.000431,0.141034
89100,0.0324,0.013523,0.002678,0.000431,0.131632
89200,0.0324,0.013523,0.002678,0.000431,0.145735
89300,0.0324,0.013523,0.002678,0.000431,0.150436
89400,0.0324,0.013523,0.002678,0.000431,0.116353
89500,0.0324,0.013523,0.002678,0.000431,0.148086
89600,0.0324,0.013523,0.002678,0.000431,0.130456
89700,0.0324,0.013523,0.002678,0.000431,0.124580
89800,0.0324,0.013523,0.002678,0.000431,0.122229
89900,0.0324,0.013523,0.002678,0.000431,0.148086
90000,0.0324,0.013523,0.002678,0.000431,0.129281
90100,0.0324,0.013523,0.002678,0.000431,0.138683
90200,0.0324,0.013523,0.002678,0.000431,0.133982
90300,0.0324,0.013523,0.002678,0.000431,0.130456
90400,0.0324,0.013523,0.002678,0.000431,0.124580
90500,0.0324,0.013523,0.002678,0.000431,0.131632
90600,0.0324,0.013523,0.002678,0.000431,0.124580
90700,0.0324,0.013523,0.002678,0.000431,0.149261
90800,0.0324,0.013523,0.002678,0.000431,0.132807
90900,0.0324,0.013523,0.002678,0.000431,0.144560
91000,0.0324,0.013523,0.002678,0.000431,0.145735
91100,0.0324,0.013523,0.002678,0.000431,0.125755
91200,0.0324,0.013523,0.002678,0.000431,0.164539
91300,0.0324,0.013523,0.002678,0.000431,0.125755
91400,0.0324,0.013523,0.002678,0.000431,0.129281
91500,0.0324,0.013523,0.002678,0.000431,0.145735
91600,0.0324,0.013523,0.002678,0.000431,0.123405
91700,0.0324,0.013523,0.002678,0.000431,0.115178
91800,0.0324,0.013523,0.002678,0.000431,0.143384
91900,0.0324,0.013523,0.002678,0.000431,0.144560
92000,0.0324,0.013523,0.002678,0.000431,0.135157
92100,0.0324,0.013523,0.002678,0.000431,0.126930
92200,0.0324,0.013523,0.002678,0.000431,0.148086
92300,0.0324,0.013523,0.002678,0.000431,0.112827
92400,0.0324,0.013523,0.002678,0.000431,0.142209
92500,0.0324,0.013523,0.002678,0.000431,0.151611
92600,0.0324,0.013523,0.002678,0.000431,0.103425
92700,0.0324,0.013523,0.002678,0.000431,0.146910
92800,0.0324,0.013523,0.002678,0.000431,0.138683
92900,0.0324,0.013523,0.002678,0.000431,0.104600
93000,0.0324,0.013523,0.002678,0.000431,0.131632
93100,0.0324,0.013523,0.002678,0.000431,0.135157
93200,0.0324,0.013523,0.002678,0.000431,0.125755
93300,0.0324,0.013523,0.002678,0.000431,0.136333
93400,0.0324,0.013523,0.002678,0.000431,0.144560
93500,0.0324,0.013523,0.002678,0.000431,0.099899
93600,0.0324,0.013523,0.002678,0.000431,0.129281
93700,0.0324,0.013523,0.002678,0.000431,0.123405
93800,0.0324,0.013523,0.002678,0.000431,0.108126
93900,0.0324,0.013523,0.002678,0.000431,0.123405
94000,0.0324,0.013523,0.002678,0.000431,0.118703
94100,0.0324,0.013523,0.002678,0.000431,0.110476
94200,0.0324,0.013523,0.002678,0.000431,0.117528
94300,0.0324,0.013523,0.002678,0.000431,0.121054
94400,0.0324,0.013523,0.002678,0.000431,0.101074
94500,0.0324,0.013523,0.002678,0.000431,0.138683
94600,0.0324,0.013523,0.002678,0.000431,0.121054
94700,0.0324,0.013523,0.002678,0.000431,0.122229
94800,0.0324,0.013523,0.002678,0.000431,0.126930
94900,0.0324,0.013523,0.002678,0.000431,0.125755
95000,0.0324,0.013523,0.002678,0.000431,0.114002
95100,0.0324,0.013523,0.002678,0.000431,0.125755
95200,0.0324,0.013523,0.002678,0.000431,0.119879
95300,0.0324,0.013523,0.002678,0.000431,0.102250
95400,0.0324,0.013523,0.002678,0.000431,0.126930
95500,0.0324,0.013523,0.002678,0.000431,0.118703
95600,0.0324,0.013523,0.002678,0.000431,0.128106
95700,0.0324,0.013523,0.002678,0.000431,0.124580
95800,0.0324,0.013523,0.002678,0.000431,0.139859
95900,0.0324,0.013523,0.002678,0.000431,0.112827
96000,0.0324,0.013523,0.002678,0.000431,0.129281
96100,0.0324,0.013523,0.002678,0.000431,0.098724
96200,0.0324,0.013523,0.002678,0.000431,0.126930
96300,0.0324,0.013523,0.002678,0.000431,0.104600
96400,0.0324,0.013523,0.002678,0.000431,0.119879
96500,0.0324,0.013523,0.002678,0.000431,0.125755
96600,0.0324,0.013523,0.002678,0.000431,0.112827
96700,0.0324,0.013523,0.002678,0.000431,0.105775
96800,0.0324,0.013523,0.002678,0.000431,0.106951
96900,0.0324,0.013523,0.002678,0.000431,0.111652
97000,0.0324,0.013523,0.002678,0.000431,0.112827
97100,0.0324,0.013523,0.002678,0.000431,0.125755
97200,0.0324,0.013523,0.002678,0.000431,0.104600
97300,0.0324,0.013523,0.002678,0.000431,0.109301
97400,0.0324,0.013523,0.002678,0.000431,0.097548
97500,0.0324,0.013523,0.002678,0.000431,0.122229
97600,0.0324,0.013523,0.002678,0.000431,0.103425
97700,0.0324,0.013523,0.002678,0.000431,0.112827
97800,0.0324,0.013523,0.002678,0.000431,0.121054
97900,0.0324,0.013523,0.002678,0.000431,0.108126
98000,0.0324,0.013523,0.002678,0.000431,0.098724
98100,0.0324,0.013523,0.002678,0.000431,0.116353
98200,0.0324,0.013523,0.002678,0.000431,0.091672
98300,0.0324,0.013523,0.002678,0.000431,0.102250
98400,0.0324,0.013523,0.002678,0.000431,0.112827
98500,0.0324,0.013523,0.002678,0.000431,0.101074
98600,0.0324,0.013523,0.002678,0.000431,0.102250
98700,0.0324,0.013523,0.002678,0.000431,0.116353
98800,0.0324,0.013523,0.002678,0.000431,0.095198
98900,0.0324,0.013523,0.002678,0.000431,0.096373
99000,0.0324,0.013523,0.002678,0.000431,0.116353
99100,0.0324,0.013523,0.002678,0.000431,0.088146
99200,0.0324,0.013523,0.002678,0.000431,0.105775
99300,0.0324,0.013523,0.002678,0.000431,0.110476
99400,0.0324,0.013523,0.002678,0.000431,0.091672
99500,0.0324,0.013523,0.002678,0.000431,0.102250
99600,0.0324,0.013523,0.002678,0.000431,0.104600
99700,0.0324,0.013523,0.002678,0.000431,0.099899
99800,0.0324,0.013523,0.002678,0.000431,0.106951
99900,0.0324,0.013523,0.002678,0.000431,0.089321
100000,0.0324,0.013523,0.002678,0.000431,0.097548
100100,0.0324,0.013523,0.002678,0.000431,0.097548
100200,0.0324,0.013523,0.002678,0.000431,0.101074
100300,0.0324,0.013523,0.002678,0.000431,0.103425
100400,0.0324,0.013523,0.002678,0.000431,0.105775
100500,0.0324,0.013523,0.002678,0.000431,0.095198
100600,0.0324,0.013523,0.002678,0.000431,0.095198
100700,0.0324,0.013523,0.002678,0.000431,0.090497
100800,0.0324,0.013523,0.002678,0.000431,0.098724
100900,0.0324,0.013523,0.002678,0.000431,0.096373
101000,0.0324,0.013523,0.002678,0.000431,0.092847
101100,0.0324,0.013523,0.002678,0.000431,0.098724
101200,0.0324,0.013523,0.002678,0.000431,0.097548
101300,0.0324,0.013523,0.002678,0.000431,0.095198
101400,0.0324,0.013523,0.002678,0.000431,0.102250
101500,0.0324,0.013523,0.002678,0.000431,0.084620
101600,0.0324,0.013523,0.002678,0.000431,0.091672
101700,0.0324,0.013523,0.002678,0.000431,0.094023
101800,0.0324,0.013523,0.002678,0.000431,0.094023
101900,0.0324,0.013523,0.002678,0.000431,0.110476
102000,0.0324,0.013523,0.002678,0.000431,0.084620
102100,0.0324,0.013523,0.002678,0.000431,0.088146
102200,0.0324,0.013523,0.002678,0.000431,0.081094
102300,0.0324,0.013523,0.002678,0.000431,0.095198
102400,0.0324,0.013523,0.002678,0.000431,0.082270
102500,0.0324,0.013523,0.002678,0.000431,0.112827
102600,0.0324,0.013523,0.002678,0.000431,0.085796
102700,0.0324,0.013523,0.002678,0.000431,0.102250
102800,0.0324,0.013523,0.002678,0.000431,0.084620
102900,0.0324,0.013523,0.002678,0.000431,0.084620
103000,0.0324,0.013523,0.002678,0.000431,0.089321
103100,0.0324,0.013523,0.002678,0.000431,0.088146
103200,0.0324,0.013523,0.002678,0.000431,0.086971
103300,0.0324,0.013523,0.002678,0.000431,0.092847
103400,0.0324,0.013523,0.002678,0.000431,0.081094
103500,0.0324,0.013523,0.002678,0.000431,0.083445
103600,0.0324,0.013523,0.002678,0.000431,0.098724
103700,0.0324,0.013523,0.002678,0.000431,0.078744
103800,0.0324,0.013523,0.002678,0.000431,0.097548
103900,0.0324,0.013523,0.002678,0.000431,0.078744
104000,0.0324,0.013523,0.002678,0.000431,0.089321
104100,0.0324,0.013523,0.002678,0.000431,0.085796
104200,0.0324,0.013523,0.002678,0.000431,0.083445
104300,0.0324,0.013523,0.002678,0.000431,0.091672
104400,0.0324,0.013523,0.002678,0.000431,0.090497
104500,0.0324,0.013523,0.002678,0.000431,0.085796
104600,0.0324,0.013523,0.002678,0.000431,0.078744
104700,0.0324,0.013523,0.002678,0.000431,0.082270
104800,0.0324,0.013523,0.002678,0.000431,0.084620
104900,0.0324,0.013523,0.002678,0.000431,0.082270
105000,0.0324,0.013523,0.002678,0.000431,0.088146
105100,0.0324,0.013523,0.002678,0.000431,0.086971
105200,0.0324,0.013523,0.002678,0.000431,0.065816
105300,0.0324,0.013523,0.002678,0.000431,0.078744
105400,0.0324,0.013523,0.002678,0.000431,0.086971
105500,0.0324,0.013523,0.002678,0.000431,0.078744
105600,0.0324,0.013523,0.002678,0.000431,0.086971
105700,0.0324,0.013523,0.002678,0.000431,0.086971
105800,0.0324,0.013523,0.002678,0.000431,0.086971
105900,0.0324,0.013523,0.002678,0.000431,0.085796
106000,0.0324,0.013523,0.002678,0.000431,0.077569
106100,0.0324,0.013523,0.002678,0.000431,0.098724
106200,0.0324,0.013523,0.002678,0.000431,0.069342
106300,0.0324,0.013523,0.002678,0.000431,0.099899
106400,0.0324,0.013523,0.002678,0.000431,0.071692
106500,0.0324,0.013523,0.002678,0.000431,0.078744
106600,0.0324,0.013523,0.002678,0.000431,0.084620
106700,0.0324,0.013523,0.002678,0.000431,0.077569
106800,0.0324,0.013523,0.002678,0.000431,0.081094
106900,0.0324,0.013523,0.002678,0.000431,0.098724
107000,0.0324,0.013523,0.002678,0.000431,0.068166
107100,0.0324,0.013523,0.002678,0.000431,0.096373
107200,0.0324,0.013523,0.002678,0.000431,0.083445
107300,0.0324,0.013523,0.002678,0.000431,0.077569
107400,0.0324,0.013523,0.002678,0.000431,0.095198
107500,0.0324,0.013523,0.002678,0.000431,0.071692
107600,0.0324,0.013523,0.002678,0.000431,0.088146
107700,0.0324,0.013523,0.002678,0.000431,0.084620
107800,0.0324,0.013523,0.002678,0.000431,0.077569
107900,0.0324,0.013523,0.002678,0.000431,0.083445
108000,0.0324,0.013523,0.002678,0.000431,0.078744
108100,0.0324,0.013523,0.002678,0.000431,0.075218
108200,0.0324,0.013523,0.002678,0.000431,0.081094
108300,0.0324,0.013523,0.002678,0.000431,0.076393
108400,0.0324,0.013523,0.002678,0.000431,0.069342
108500,0.0324,0.013523,0.002678,0.000431,0.085796
108600,0.0324,0.013523,0.002678,0.000431,0.081094
108700,0.0324,0.013523,0.002678,0.000431,0.078744
108800,0.0324,0.013523,0.002678,0.000431,0.072867
108900,0.0324,0.013523,0.002678,0.000431,0.095198
109000,0.0324,0.013523,0.002678,0.000431,0.066991
109100,0.0324,0.013523,0.002678,0.000431,0.083445
109200,0.0324,0.013523,0.002678,0.000431,0.074043
109300,0.0324,0.013523,0.002678,0.000431,0.068166
109400,0.0324,0.013523,0.002678,0.000431,0.070517
109500,0.0324,0.013523,0.002678,0.000431,0.089321
109600,0.0324,0.013523,0.002678,0.000431,0.057589
109700,0.0324,0.013523,0.002678,0.000431,0.092847
109800,0.0324,0.013523,0.002678,0.000431,0.068166
109900,0.0324,0.013523,0.002678,0.000431,0.081094
110000,0.0324,0.013523,0.002678,0.000431,0.071692
110100,0.0324,0.013523,0.002678,0.000431,0.075218
110200,0.0324,0.013523,0.002678,0.000431,0.071692
110300,0.0324,0.013523,0.002678,0.000431,0.066991
110400,0.0324,0.013523,0.002678,0.000431,0.070517
110500,0.0324,0.013523,0.002678,0.000431,0.070517
110600,0.0324,0.013523,0.002678,0.000431,0.076393
110700,0.0324,0.013523,0.002678,0.000431,0.070517
110800,0.0324,0.013523,0.002678,0.000431,0.086971
110900,0.0324,0.013523,0.002678,0.000431,0.069342
111000,0.0324,0.013523,0.002678,0.000431,0.075218
111100,0.0324,0.013523,0.002678,0.000431,0.072867
111200,0.0324,0.013523,0.002678,0.000431,0.069342
111300,0.0324,0.013523,0.002678,0.000431,0.059939
111400,0.0324,0.013523,0.002678,0.000431,0.086971
111500,0.0324,0.013523,0.002678,0.000431,0.055238
111600,0.0324,0.013523,0.002678,0.000431,0.084620
111700,0.0324,0.013523,0.002678,0.000431,0.066991
111800,0.0324,0.013523,0.002678,0.000431,0.074043
111900,0.0324,0.013523,0.002678,0.000431,0.072867
112000,0.0324,0.013523,0.002678,0.000431,0.079919
112100,0.0324,0.013523,0.002678,0.000431,0.062290
112200,0.0324,0.013523,0.002678,0.000431,0.083445
112300,0.0324,0.013523,0.002678,0.000431,0.068166
112400,0.0324,0.013523,0.002678,0.000431,0.068166
112500,0.0324,0.013523,0.002678,0.000431,0.082270
112600,0.0324,0.013523,0.002678,0.000431,0.056414
112700,0.0324,0.013523,0.002678,0.000431,0.075218
112800,0.0324,0.013523,0.002678,0.000431,0.064641
112900,0.0324,0.013523,0.002678,0.000431,0.065816
113000,0.0324,0.013523,0.002678,0.000431,0.081094
113100,0.0324,0.013523,0.002678,0.000431,0.059939
113200,0.0324,0.013523,0.002678,0.000431,0.081094
113300,0.0324,0.013523,0.002678,0.000431,0.058764
113400,0.0324,0.013523,0.002678,0.000431,0.074043
113500,0.0324,0.013523,0.002678,0.000431,0.064641
113600,0.0324,0.013523,0.002678,0.000431,0.061115
113700,0.0324,0.013523,0.002678,0.000431,0.077569
113800,0.0324,0.013523,0.002678,0.000431,0.061115
113900,0.0324,0.013523,0.002678,0.000431,0.064641
114000,0.0324,0.013523,0.002678,0.000431,0.077569
114100,0.0324,0.013523,0.002678,0.000431,0.050537
114200,0.0324,0.013523,0.002678,0.000431,0.066991
114300,0.0324,0.013523,0.002678,0.000431,0.068166
114400,0.0324,0.013523,0.002678,0.000431,0.062290
114500,0.0324,0.013523,0.002678,0.000431,0.061115
114600,0.0324,0.013523,0.002678,0.000431,0.079919
114700,0.0324,0.013523,0.002678,0.000431,0.056414
114800,0.0324,0.013523,0.002678,0.000431,0.068166
114900,0.0324,0.013523,0.002678,0.000431,0.069342
115000,0.0324,0.013523,0.002678,0.000431,0.059939
115100,0.0324,0.013523,0.002678,0.000431,0.076393
115200,0.0324,0.013523,0.002678,0.000431,0.068166
115300,0.0324,0.013523,0.002678,0.000431,0.062290
115400,0.0324,0.013523,0.002678,0.000431,0.064641
115500,0.0324,0.013523,0.002678,0.000431,0.055238
115600,0.0324,0.013523,0.002678,0.000431,0.072867
115700,0.0324,0.013523,0.002678,0.000431,0.056414
115800,0.0324,0.013523,0.002678,0.000431,0.074043
115900,0.0324,0.013523,0.002678,0.000431,0.070517
116000,0.0324,0.013523,0.002678,0.000431,0.061115
116100,0.0324,0.013523,0.002678,0.000431,0.065816
116200,0.0324,0.013523,0.002678,0.000431,0.068166
116300,0.0324,0.013523,0.002678,0.000431,0.065816
116400,0.0324,0.013523,0.002678,0.000431,0.063465
116500,0.0324,0.013523,0.002678,0.000431,0.071692
116600,0.0324,0.013523,0.002678,0.000431,0.064641
116700,0.0324,0.013523,0.002678,0.000431,0.054063
116800,0.0324,0.013523,0.002678,0.000431,0.065816
116900,0.0324,0.013523,0.002678,0.000431,0.049362
117000,0.0324,0.013523,0.002678,0.000431,0.066991
117100,0.0324,0.013523,0.002678,0.000431,0.059939
117200,0.0324,0.013523,0.002678,0.000431,0.058764
117300,0.0324,0.013523,0.002678,0.000431,0.054063
117400,0.0324,0.013523,0.002678,0.000431,0.070517
117500,0.0324,0.013523,0.002678,0.000431,0.043485
117600,0.0324,0.013523,0.002678,0.000431,0.064641
117700,0.0324,0.013523,0.002678,0.000431,0.061115
117800,0.0324,0.013523,0.002678,0.000431,0.050537
117900,0.0324,0.013523,0.002678,0.000431,0.065816
118000,0.0324,0.013523,0.002678,0.000431,0.071692
118100,0.0324,0.013523,0.002678,0.000431,0.050537
118200,0.0324,0.013523,0.002678,0.000431,0.066991
118300,0.0324,0.013523,0.002678,0.000431,0.055238
118400,0.0324,0.013523,0.002678,0.000431,0.054063
118500,0.0324,0.013523,0.002678,0.000431,0.054063
118600,0.0324,0.013523,0.002678,0.000431,0.062290
118700,0.0324,0.013523,0.002678,0.000431,0.047011
118800,0.0324,0.013523,0.002678,0.000431,0.057589
118900,0.0324,0.013523,0.002678,0.000431,0.052888
119000,0.0324,0.013523,0.002678,0.000431,0.065816
119100,0.0324,0.013523,0.002678,0.000431,0.054063
119200,0.0324,0.013523,0.002678,0.000431,0.059939
119300,0.0324,0.013523,0.002678,0.000431,0.056414
119400,0.0324,0.013523,0.002678,0.000431,0.050537
119500,0.0324,0.013523,0.002678,0.000431,0.055238
119600,0.0324,0.013523,0.002678,0.000431,0.061115
119700,0.0324,0.013523,0.002678,0.000431,0.050537
119800,0.0324,0.013523,0.002678,0.000431,0.061115
119900,0.0324,0.013523,0.002678,0.000431,0.054063
120000,0.0324,0.013523,0.002678,0.000431,0.050537
120100,0.0324,0.013523,0.002678,0.000431,0.062290
120200,0.0324,0.013523,0.002678,0.000431,0.038784
120300,0.0324,0.013523,0.002678,0.000431,0.061115
120400,0.0324,0.013523,0.002678,0.000431,0.038784
120500,0.0324,0.013523,0.002678,0.000431,0.051712
120600,0.0324,0.013523,0.002678,0.000431,0.057589
120700,0.0324,0.013523,0.002678,0.000431,0.043485
120800,0.0324,0.013523,0.002678,0.000431,0.058764
120900,0.0324,0.013523,0.002678,0.000431,0.048187
121000,0.0324,0.013523,0.002678,0.000431,0.047011
121100,0.0324,0.013523,0.002678,0.000431,0.052888
121200,0.0324,0.013523,0.002678,0.000431,0.057589
121300,0.0324,0.013523,0.002678,0.000431,0.037609
121400,0.0324,0.013523,0.002678,0.000431,0.058764
121500,0.0324,0.013523,0.002678,0.000431,0.050537
121600,0.0324,0.013523,0.002678,0.000431,0.042310
121700,0.0324,0.013523,0.002678,0.000431,0.054063
121800,0.0324,0.013523,0.002678,0.000431,0.059939
121900,0.0324,0.013523,0.002678,0.000431,0.032908
122000,0.0324,0.013523,0.002678,0.000431,0.061115
122100,0.0324,0.013523,0.002678,0.000431,0.042310
122200,0.0324,0.013523,0.002678,0.000431,0.044661
122300,0.0324,0.013523,0.002678,0.000431,0.055238
122400,0.0324,0.013523,0.002678,0.000431,0.037609
122500,0.0324,0.013523,0.002678,0.000431,0.049362
122600,0.0324,0.013523,0.002678,0.000431,0.041135
122700,0.0324,0.013523,0.002678,0.000431,0.041135
122800,0.0324,0.013523,0.002678,0.000431,0.058764
122900,0.0324,0.013523,0.002678,0.000431,0.029382
123000,0.0324,0.013523,0.002678,0.000431,0.047011
123100,0.0324,0.013523,0.002678,0.000431,0.042310
123200,0.0324,0.013523,0.002678,0.000431,0.035258
123300,0.0324,0.013523,0.002678,0.000431,0.043485
123400,0.0324,0.013523,0.002678,0.000431,0.045836
123500,0.0324,0.013523,0.002678,0.000431,0.031733
123600,0.0324,0.013523,0.002678,0.000431,0.052888
123700,0.0324,0.013523,0.002678,0.000431,0.036434
123800,0.0324,0.013523,0.002678,0.000431,0.047011
123900,0.0324,0.013523,0.002678,0.000431,0.048187
124000,0.0324,0.013523,0.002678,0.000431,0.037609
124100,0.0324,0.013523,0.002678,0.000431,0.048187
124200,0.0324,0.013523,0.002678,0.000431,0.038784
124300,0.0324,0.013523,0.002678,0.000431,0.039960
124400,0.0324,0.013523,0.002678,0.000431,0.037609
124500,0.0324,0.013523,0.002678,0.000431,0.029382
124600,0.0324,0.013523,0.002678,0.000431,0.036434
124700,0.0324,0.013523,0.002678,0.000431,0.042310
124800,0.0324,0.013523,0.002678,0.000431,0.034083
124900,0.0324,0.013523,0.002678,0.000431,0.050537
125000,0.0324,0.013523,0.002678,0.000431,0.027031
125100,0.0324,0.013523,0.002678,0.000431,0.043485
125200,0.0324,0.013523,0.002678,0.000431,0.029382
125300,0.0324,0.013523,0.002678,0.000431,0.035258
125400,0.0324,0.013523,0.002678,0.000431,0.041135
125500,0.0324,0.013523,0.002678,0.000431,0.028207
125600,0.0324,0.013523,0.002678,0.000431,0.039960
125700,0.0324,0.013523,0.002678,0.000431,0.032908
125800,0.0324,0.013523,0.002678,0.000431,0.028207
125900,0.0324,0.013523,0.002678,0.000431,0.047011
126000,0.0324,0.013523,0.002678,0.000431,0.024681
126100,0.0324,0.013523,0.002678,0.000431,0.037609
126200,0.0324,0.013523,0.002678,0.000431,0.044661
126300,0.0324,0.013523,0.002678,0.000431,0.029382
126400,0.0324,0.013523,0.002678,0.000431,0.049362
126500,0.0324,0.013523,0.002678,0.000431,0.034083
126600,0.0324,0.013523,0.002678,0.000431,0.029382
126700,0.0324,0.013523,0.002678,0.000431,0.037609
126800,0.0324,0.013523,0.002678,0.000431,0.034083
126900,0.0324,0.013523,0.002678,0.000431,0.032908
127000,0.0324,0.013523,0.002678,0.000431,0.035258
127100,0.0324,0.013523,0.002678,0.000431,0.037609
127200,0.0324,0.013523,0.002678,0.000431,0.028207
127300,0.0324,0.013523,0.002678,0.000431,0.039960
127400,0.0324,0.013523,0.002678,0.000431,0.036434
127500,0.0324,0.013523,0.002678,0.000431,0.024681
127600,0.0324,0.013523,0.002678,0.000431,0.030557
127700,0.0324,0.013523,0.002678,0.000431,0.036434
127800,0.0324,0.013523,0.002678,0.000431,0.031733
127900,0.0324,0.013523,0.002678,0.000431,0.035258
128000,0.0324,0.013523,0.002678,0.000431,0.037609
128100,0.0324,0.013523,0.002678,0.000431,0.024681
128200,0.0324,0.013523,0.002678,0.000431,0.031733
128300,0.0324,0.013523,0.002678,0.000431,0.025856
128400,0.0324,0.013523,0.002678,0.000431,0.036434
128500,0.0324,0.013523,0.002678,0.000431,0.021155
128600,0.0324,0.013523,0.002678,0.000431,0.048187
128700,0.0324,0.013523,0.002678,0.000431,0.019980
128800,0.0324,0.013523,0.002678,0.000431,0.037609
128900,0.0324,0.013523,0.002678,0.000431,0.031733
129000,0.0324,0.013523,0.002678,0.000431,0.031733
129100,0.0324,0.013523,0.002678,0.000431,0.028207
129200,0.0324,0.013523,0.002678,0.000431,0.029382
129300,0.0324,0.013523,0.002678,0.000431,0.028207
129400,0.0324,0.013523,0.002678,0.000431,0.025856
129500,0.0324,0.013523,0.002678,0.000431,0.027031
129600,0.0324,0.013523,0.002678,0.000431,0.029382
129700,0.0324,0.013523,0.002678,0.000431,0.023506
129800,0.0324,0.013523,0.002678,0.000431,0.032908
129900,0.0324,0.013523,0.002678,0.000431,0.035258
130000,0.0324,0.013523,0.002678,0.000431,0.027031
130100,0.0324,0.013523,0.002678,0.000431,0.032908
130200,0.0324,0.013523,0.002678,0.000431,0.021155
130300,0.0324,0.013523,0.002678,0.000431,0.030557
130400,0.0324,0.013523,0.002678,0.000431,0.024681
130500,0.0324,0.013523,0.002678,0.000431,0.029382
130600,0.0324,0.013523,0.002678,0.000431,0.027031
130700,0.0324,0.013523,0.002678,0.000431,0.034083
130800,0.0324,0.013523,0.002678,0.000431,0.022330
130900,0.0324,0.013523,0.002678,0.000431,0.025856
131000,0.0324,0.013523,0.002678,0.000431,0.030557
131100,0.0324,0.013523,0.002678,0.000431,0.024681
131200,0.0324,0.013523,0.002678,0.000431,0.022330
131300,0.0324,0.013523,0.002678,0.000431,0.038784
131400,0.0324,0.013523,0.002678,0.000431,0.016454
131500,0.0324,0.013523,0.002678,0.000431,0.034083
131600,0.0324,0.013523,0.002678,0.000431,0.028207
131700,0.0324,0.013523,0.002678,0.000431,0.021155
131800,0.0324,0.013523,0.002678,0.000431,0.019980
131900,0.0324,0.013523,0.002678,0.000431,0.037609
132000,0.0324,0.013523,0.002678,0.000431,0.017629
132100,0.0324,0.013523,0.002678,0.000431,0.030557
132200,0.0324,0.013523,0.002678,0.000431,0.029382
132300,0.0324,0.013523,0.002678,0.000431,0.021155
132400,0.0324,0.013523,0.002678,0.000431,0.019980
132500,0.0324,0.013523,0.002678,0.000431,0.041135
132600,0.0324,0.013523,0.002678,0.000431,0.019980
132700,0.0324,0.013523,0.002678,0.000431,0.029382
132800,0.0324,0.013523,0.002678,0.000431,0.030557
132900,0.0324,0.013523,0.002678,0.000431,0.017629
133000,0.0324,0.013523,0.002678,0.000431,0.022330
133100,0.0324,0.013523,0.002678,0.000431,0.021155
133200,0.0324,0.013523,0.002678,0.000431,0.028207
133300,0.0324,0.013523,0.002678,0.000431,0.021155
133400,0.0324,0.013523,0.002678,0.000431,0.029382
133500,0.0324,0.013523,0.002678,0.000431,0.030557
133600,0.0324,0.013523,0.002678,0.000431,0.021155
133700,0.0324,0.013523,0.002678,0.000431,0.038784
133800,0.0324,0.013523,0.002678,0.000431,0.019980
133900,0.0324,0.013523,0.002678,0.000431,0.023506
134000,0.0324,0.013523,0.002678,0.000431,0.023506
134100,0.0324,0.013523,0.002678,0.000431,0.029382
134200,0.0324,0.013523,0.002678,0.000431,0.019980
134300,0.0324,0.013523,0.002678,0.000431,0.034083
134400,0.0324,0.013523,0.002678,0.000431,0.017629
134500,0.0324,0.013523,0.002678,0.000431,0.025856
134600,0.0324,0.013523,0.002678,0.000431,0.023506
134700,0.0324,0.013523,0.002678,0.000431,0.028207
134800,0.0324,0.013523,0.002678,0.000431,0.024681
134900,0.0324,0.013523,0.002678,0.000431,0.025856
135000,0.0324,0.013523,0.002678,0.000431,0.025856
135100,0.0324,0.013523,0.002678,0.000431,0.021155
135200,0.0324,0.013523,0.002678,0.000431,0.021155
135300,0.0324,0.013523,0.002678,0.000431,0.023506
135400,0.0324,0.013523,0.002678,0.000431,0.021155
135500,0.0324,0.013523,0.002678,0.000431,0.023506
135600,0.0324,0.013523,0.002678,0.000431,0.022330
135700,0.0324,0.013523,0.002678,0.000431,0.025856
135800,0.0324,0.013523,0.002678,0.000431,0.030557
135900,0.0324,0.013523,0.002678,0.000431,0.015279
136000,0.0324,0.013523,0.002678,0.000431,0.027031
136100,0.0324,0.013523,0.002678,0.000431,0.015279
136200,0.0324,0.013523,0.002678,0.000431,0.017629
136300,0.0324,0.013523,0.002678,0.000431,0.027031
136400,0.0324,0.013523,0.002678,0.000431,0.021155
136500,0.0324,0.013523,0.002678,0.000431,0.018805
136600,0.0324,0.013523,0.002678,0.000431,0.024681
136700,0.0324,0.013523,0.002678,0.000431,0.022330
136800,0.0324,0.013523,0.002678,0.000431,0.021155
136900,0.0324,0.013523,0.002678,0.000431,0.023506
137000,0.0324,0.013523,0.002678,0.000431,0.029382
137100,0.0324,0.013523,0.002678,0.000431,0.012928
137200,0.0324,0.013523,0.002678,0.000431,0.028207
137300,0.0324,0.013523,0.002678,0.000431,0.018805
137400,0.0324,0.013523,0.002678,0.000431,0.021155
137500,0.0324,0.013523,0.002678,0.000431,0.028207
137600,0.0324,0.013523,0.002678,0.000431,0.019980
137700,0.0324,0.013523,0.002678,0.000431,0.019980
137800,0.0324,0.013523,0.002678,0.000431,0.024681
137900,0.0324,0.013523,0.002678,0.000431,0.022330
138000,0.0324,0.013523,0.002678,0.000431,0.018805
138100,0.0324,0.013523,0.002678,0.000431,0.025856
138200,0.0324,0.013523,0.002678,0.000431,0.018805
138300,0.0324,0.013523,0.002678,0.000431,0.019980
138400,0.0324,0.013523,0.002678,0.000431,0.021155
138500,0.0324,0.013523,0.002678,0.000431,0.019980
138600,0.0324,0.013523,0.002678,0.000431,0.018805
138700,0.0324,0.013523,0.002678,0.000431,0.024681
138800,0.0324,0.013523,0.002678,0.000431,0.024681
138900,0.0324,0.013523,0.002678,0.000431,0.017629
139000,0.0324,0.013523,0.002678,0.000431,0.036434
139100,0.0324,0.013523,0.002678,0.000431,0.016454
139200,0.0324,0.013523,0.002678,0.000431,0.025856
139300,0.0324,0.013523,0.002678,0.000431,0.018805
139400,0.0324,0.013523,0.002678,0.000431,0.031733
139500,0.0324,0.013523,0.002678,0.000431,0.014103
139600,0.0324,0.013523,0.002678,0.000431,0.032908
139700,0.0324,0.013523,0.002678,0.000431,0.021155
139800,0.0324,0.013523,0.002678,0.000431,0.018805
139900,0.0324,0.013523,0.002678,0.000431,0.023506
140000,0.0324,0.013523,0.002678,0.000431,0.022330
140100,0.0324,0.013523,0.002678,0.000431,0.022330
140200,0.0324,0.013523,0.002678,0.000431,0.019980
140300,0.0324,0.013523,0.002678,0.000431,0.024681
140400,0.0324,0.013523,0.002678,0.000431,0.014103
140500,0.0324,0.013523,0.002678,0.000431,0.028207
140600,0.0324,0.013523,0.002678,0.000431,0.018805
140700,0.0324,0.013523,0.002678,0.000431,0.023506
140800,0.0324,0.013523,0.002678,0.000431,0.022330
140900,0.0324,0.013523,0.002678,0.000431,0.024681
141000,0.0324,0.013523,0.002678,0.000431,0.023506
141100,0.0324,0.013523,0.002678,0.000431,0.015279
141200,0.0324,0.013523,0.002678,0.000431,0.018805
141300,0.0324,0.013523,0.002678,0.000431,0.016454
141400,0.0324,0.013523,0.002678,0.000431,0.016454
141500,0.0324,0.013523,0.002678,0.000431,0.022330
141600,0.0324,0.013523,0.002678,0.000431,0.015279
141700,0.0324,0.013523,0.002678,0.000431,0.017629
141800,0.0324,0.013523,0.002678,0.000431,0.025856
141900,0.0324,0.013523,0.002678,0.000431,0.012928
142000,0.0324,0.013523,0.002678,0.000431,0.023506
142100,0.0324,0.013523,0.002678,0.000431,0.022330
142200,0.0324,0.013523,0.002678,0.000431,0.017629
142300,0.0324,0.013523,0.002678,0.000431,0.017629
142400,0.0324,0.013523,0.002678,0.000431,0.024681
142500,0.0324,0.013523,0.002678,0.000431,0.018805
142600,0.0324,0.013523,0.002678,0.000431,0.022330
142700,0.0324,0.013523,0.002678,0.000431,0.022330
142800,0.0324,0.013523,0.002678,0.000431,0.014103
142900,0.0324,0.013523,0.002678,0.000431,0.023506
143000,0.0324,0.013523,0.002678,0.000431,0.016454
143100,0.0324,0.013523,0.002678,0.000431,0.022330
143200,0.0324,0.013523,0.002678,0.000431,0.022330
143300,0.0324,0.013523,0.002678,0.000431,0.019980
143400,0.0324,0.013523,0.002678,0.000431,0.017629
143500,0.0324,0.013523,0.002678,0.000431,0.023506
143600,0.0324,0.013523,0.002678,0.000431,0.011753
143700,0.0324,0.013523,0.002678,0.000431,0.023506
143800,0.0324,0.013523,0.002678,0.000431,0.019980
143900,0.0324,0.013523,0.002678,0.000431,0.010578
144000,0.0324,0.013523,0.002678,0.000431,0.018805
144100,0.0324,0.013523,0.002678,0.000431,0.021155
144200,0.0324,0.013523,0.002678,0.000431,0.011753
144300,0.0324,0.013523,0.002678,0.000431,0.022330
144400,0.0324,0.013523,0.002678,0.000431,0.022330
144500,0.0324,0.013523,0.002678,0.000431,0.012928
144600,0.0324,0.013523,0.002678,0.000431,0.018805
144700,0.0324,0.013523,0.002678,0.000431,0.011753
144800,0.0324,0.013523,0.002678,0.000431,0.017629
144900,0.0324,0.013523,0.002678,0.000431,0.021155
145000,0.0324,0.013523,0.002678,0.000431,0.015279
145100,0.0324,0.013523,0.002678,0.000431,0.019980
145200,0.0324,0.013523,0.002678,0.000431,0.015279
145300,0.0324,0.013523,0.002678,0.000431,0.019980
145400,0.0324,0.013523,0.002678,0.000431,0.018805
145500,0.0324,0.013523,0.002678,0.000431,0.016454
145600,0.0324,0.013523,0.002678,0.000431,0.022330
145700,0.0324,0.013523,0.002678,0.000431,0.014103
145800,0.0324,0.013523,0.002678,0.000431,0.019980
145900,0.0324,0.013523,0.002678,0.000431,0.015279
146000,0.0324,0.013523,0.002678,0.000431,0.016454
146100,0.0324,0.013523,0.002678,0.000431,0.014103
146200,0.0324,0.013523,0.002678,0.000431,0.021155
146300,0.0324,0.013523,0.002678,0.000431,0.011753
146400,0.0324,0.013523,0.002678,0.000431,0.016454
146500,0.0324,0.013523,0.002678,0.000431,0.019980
146600,0.0324,0.013523,0.002678,0.000431,0.011753
146700,0.0324,0.013523,0.002678,0.000431,0.023506
146800,0.0324,0.013523,0.002678,0.000431,0.012928
146900,0.0324,0.013523,0.002678,0.000431,0.015279
147000,0.0324,0.013523,0.002678,0.000431,0.012928
147100,0.0324,0.013523,0.002678,0.000431,0.016454
147200,0.0324,0.013523,0.002678,0.000431,0.010578
147300,0.0324,0.013523,0.002678,0.000431,0.022330
147400,0.0324,0.013523,0.002678,0.000431,0.011753
147500,0.0324,0.013523,0.002678,0.000431,0.015279
147600,0.0324,0.013523,0.002678,0.000431,0.021155
147700,0.0324,0.013523,0.002678,0.000431,0.015279
147800,0.0324,0.013523,0.002678,0.000431,0.014103
147900,0.0324,0.013523,0.002678,0.000431,0.014103
148000,0.0324,0.013523,0.002678,0.000431,0.018805
148100,0.0324,0.013523,0.002678,0.000431,0.008227
148200,0.0324,0.013523,0.002678,0.000431,0.022330
148300,0.0324,0.013523,0.002678,0.000431,0.009402
148400,0.0324,0.013523,0.002678,0.000431,0.015279
148500,0.0324,0.013523,0.002678,0.000431,0.017629
148600,0.0324,0.013523,0.002678,0.000431,0.011753
148700,0.0324,0.013523,0.002678,0.000431,0.014103
148800,0.0324,0.013523,0.002678,0.000431,0.012928
148900,0.0324,0.013523,0.002678,0.000431,0.016454
149000,0.0324,0.013523,0.002678,0.000431,0.008227
149100,0.0324,0.013523,0.002678,0.000431,0.015279
149200,0.0324,0.013523,0.002678,0.000431,0.010578
149300,0.0324,0.013523,0.002678,0.000431,0.016454
149400,0.0324,0.013523,0.002678,0.000431,0.005876
149500,0.0324,0.013523,0.002678,0.000431,0.018805
149600,0.0324,0.013523,0.002678,0.000431,0.010578
149700,0.0324,0.013523,0.002678,0.000431,0.012928
149800,0.0324,0.013523,0.002678,0.000431,0.016454
149900,0.0324,0.013523,0.002678,0.000431,0.010578
150000,0.0324,0.013523,0.002678,0.000431,0.018805
150100,0.0324,0.013523,0.002678,0.000431,0.008227
150200,0.0324,0.013523,0.002678,0.000431,0.018805
150300,0.0324,0.013523,0.002678,0.000431,0.015279
150400,0.0324,0.013523,0.002678,0.000431,0.008227
150500,0.0324,0.013523,0.002678,0.000431,0.015279
150600,0.0324,0.013523,0.002678,0.000431,0.010578
150700,0.0324,0.013523,0.002678,0.000431,0.016454
150800,0.0324,0.013523,0.002678,0.000431,0.010578
150900,0.0324,0.013523,0.002678,0.000431,0.018805
151000,0.0324,0.013523,0.002678,0.000431,0.008227
151100,0.0324,0.013523,0.002678,0.000431,0.012928
151200,0.0324,0.013523,0.002678,0.000431,0.011753
151300,0.0324,0.013523,0.002678,0.000431,0.010578
151400,0.0324,0.013523,0.002678,0.000431,0.014103
151500,0.0324,0.013523,0.002678,0.000431,0.016454
151600,0.0324,0.013523,0.002678,0.000431,0.012928
151700,0.0324,0.013523,0.002678,0.000431,0.016454
151800,0.0324,0.013523,0.002678,0.000431,0.011753
151900,0.0324,0.013523,0.002678,0.000431,0.012928
152000,0.0324,0.013523,0.002678,0.000431,0.012928
152100,0.0324,0.013523,0.002678,0.000431,0.011753
152200,0.0324,0.013523,0.002678,0.000431,0.018805
152300,0.0324,0.013523,0.002678,0.000431,0.010578
152400,0.0324,0.013523,0.002678,0.000431,0.016454
152500,0.0324,0.013523,0.002678,0.000431,0.011753
152600,0.0324,0.013523,0.002678,0.000431,0.010578
152700,0.0324,0.013523,0.002678,0.000431,0.019980
152800,0.0324,0.013523,0.002678,0.000431,0.012928
152900,0.0324,0.013523,0.002678,0.000431,0.016454
153000,0.0324,0.013523,0.002678,0.000431,0.011753
153100,0.0324,0.013523,0.002678,0.000431,0.011753
153200,0.0324,0.013523,0.002678,0.000431,0.014103
153300,0.0324,0.013523,0.002678,0.000431,0.009402
153400,0.0324,0.013523,0.002678,0.000431,0.015279
153500,0.0324,0.013523,0.002678,0.000431,0.010578
153600,0.0324,0.013523,0.002678,0.000431,0.010578
153700,0.0324,0.013523,0.002678,0.000431,0.012928
153800,0.0324,0.013523,0.002678,0.000431,0.008227
153900,0.0324,0.013523,0.002678,0.000431,0.012928
154000,0.0324,0.013523,0.002678,0.000431,0.014103
154100,0.0324,0.013523,0.002678,0.000431,0.011753
154200,0.0324,0.013523,0.002678,0.000431,0.009402
154300,0.0324,0.013523,0.002678,0.000431,0.012928
154400,0.0324,0.013523,0.002678,0.000431,0.005876
154500,0.0324,0.013523,0.002678,0.000431,0.009402
154600,0.0324,0.013523,0.002678,0.000431,0.010578
154700,0.0324,0.013523,0.002678,0.000431,0.004701
154800,0.0324,0.013523,0.002678,0.000431,0.011753
154900,0.0324,0.013523,0.002678,0.000431,0.005876
155000,0.0324,0.013523,0.002678,0.000431,0.017629
155100,0.0324,0.013523,0.002678,0.000431,0.005876
155200,0.0324,0.013523,0.002678,0.000431,0.011753
155300,0.0324,0.013523,0.002678,0.000431,0.014103
155400,0.0324,0.013523,0.002678,0.000431,0.007052
155500,0.0324,0.013523,0.002678,0.000431,0.015279
155600,0.0324,0.013523,0.002678,0.000431,0.008227
155700,0.0324,0.013523,0.002678,0.000431,0.009402
155800,0.0324,0.013523,0.002678,0.000431,0.007052
155900,0.0324,0.013523,0.002678,0.000431,0.009402
156000,0.0324,0.013523,0.002678,0.000431,0.009402
156100,0.0324,0.013523,0.002678,0.000431,0.008227
156200,0.0324,0.013523,0.002678,0.000431,0.009402
156300,0.0324,0.013523,0.002678,0.000431,0.009402
156400,0.0324,0.013523,0.002678,0.000431,0.002351
156500,0.0324,0.013523,0.002678,0.000431,0.009402
156600,0.0324,0.013523,0.002678,0.000431,0.008227
156700,0.0324,0.013523,0.002678,0.000431,0.008227
156800,0.0324,0.013523,0.002678,0.000431,0.008227
156900,0.0324,0.013523,0.002678,0.000431,0.007052
157000,0.0324,0.013523,0.002678,0.000431,0.009402
157100,0.0324,0.013523,0.002678,0.000431,0.007052
157200,0.0324,0.013523,0.002678,0.000431,0.009402
157300,0.0324,0.013523,0.002678,0.000431,0.010578
157400,0.0324,0.013523,0.002678,0.000431,0.004701
157500,0.0324,0.013523,0.002678,0.000431,0.010578
157600,0.0324,0.013523,0.002678,0.000431,0.009402
157700,0.0324,0.013523,0.002678,0.000431,0.005876
157800,0.0324,0.013523,0.002678,0.000431,0.011753
157900,0.0324,0.013523,0.002678,0.000431,0.009402
158000,0.0324,0.013523,0.002678,0.000431,0.009402
158100,0.0324,0.013523,0.002678,0.000431,0.010578
158200,0.0324,0.013523,0.002678,0.000431,0.012928
158300,0.0324,0.013523,0.002678,0.000431,0.005876
158400,0.0324,0.013523,0.002678,0.000431,0.008227
158500,0.0324,0.013523,0.002678,0.000431,0.010578
158600,0.0324,0.013523,0.002678,0.000431,0.003526
158700,0.0324,0.013523,0.002678,0.000431,0.011753
158800,0.0324,0.013523,0.002678,0.000431,0.004701
158900,0.0324,0.013523,0.002678,0.000431,0.008227
159000,0.0324,0.013523,0.002678,0.000431,0.009402
159100,0.0324,0.013523,0.002678,0.000431,0.007052
159200,0.0324,0.013523,0.002678,0.000431,0.011753
159300,0.0324,0.013523,0.002678,0.000431,0.005876
159400,0.0324,0.013523,0.002678,0.000431,0.009402
159500,0.0324,0.013523,0.002678,0.000431,0.009402
159600,0.0324,0.013523,0.002678,0.000431,0.005876
159700,0.0324,0.013523,0.002678,0.000431,0.008227
159800,0.0324,0.013523,0.002678,0.000431,0.004701
159900,0.0324,0.013523,0.002678,0.000431,0.009402
160000,0.0324,0.013523,0.002678,0.000431,0.004701
160100,0.0324,0.013523,0.002678,0.000431,0.005876
160200,0.0324,0.013523,0.002678,0.000431,0.007052
160300,0.0324,0.013523,0.002678,0.000431,0.003526
160400,0.0324,0.013523,0.002678,0.000431,0.007052
160500,0.0324,0.013523,0.002678,0.000431,0.003526
160600,0.0324,0.013523,0.002678,0.000431,0.007052
160700,0.0324,0.013523,0.002678,0.000431,0.007052
160800,0.0324,0.013523,0.002678,0.000431,0.007052
160900,0.0324,0.013523,0.002678,0.000431,0.008227
161000,0.0324,0.013523,0.002678,0.000431,0.003526
161100,0.0324,0.013523,0.002678,0.000431,0.002351
161200,0.0324,0.013523,0.002678,0.000431,0.011753
161300,0.0324,0.013523,0.002678,0.000431,0.003526
161400,0.0324,0.013523,0.002678,0.000431,0.007052
161500,0.0324,0.013523,0.002678,0.000431,0.005876
161600,0.0324,0.013523,0.002678,0.000431,0.002351
161700,0.0324,0.013523,0.002678,0.000431,0.005876
161800,0.0324,0.013523,0.002678,0.000431,0.002351
161900,0.0324,0.013523,0.002678,0.000431,0.005876
162000,0.0324,0.013523,0.002678,0.000431,0.005876
162100,0.0324,0.013523,0.002678,0.000431,0.004701
162200,0.0324,0.013523,0.002678,0.000431,0.007052
162300,0.0324,0.013523,0.002678,0.000431,0.004701
162400,0.0324,0.013523,0.002678,0.000431,0.008227
162500,0.0324,0.013523,0.002678,0.000431,0.003526
162600,0.0324,0.013523,0.002678,0.000431,0.011753
162700,0.0324,0.013523,0.002678,0.000431,0.002351
162800,0.0324,0.013523,0.002678,0.000431,0.005876
162900,0.0324,0.013523,0.002678,0.000431,0.007052
163000,0.0324,0.013523,0.002678,0.000431,0.002351
163100,0.0324,0.013523,0.002678,0.000431,0.007052
163200,0.0324,0.013523,0.002678,0.000431,0.007052
163300,0.0324,0.013523,0.002678,0.000431,0.003526
163400,0.0324,0.013523,0.002678,0.000431,0.007052
163500,0.0324,0.013523,0.002678,0.000431,0.007052
163600,0.0324,0.013523,0.002678,0.000431,0.004701
163700,0.0324,0.013523,0.002678,0.000431,0.007052
163800,0.0324,0.013523,0.002678,0.000431,0.004701
163900,0.0324,0.013523,0.002678,0.000431,0.004701
164000,0.0324,0.013523,0.002678,0.000431,0.005876
164100,0.0324,0.013523,0.002678,0.000431,0.004701
164200,0.0324,0.013523,0.002678,0.000431,0.002351
164300,0.0324,0.013523,0.002678,0.000431,0.003526
164400,0.0324,0.013523,0.002678,0.000431,0.008227
164500,0.0324,0.013523,0.002678,0.000431,0.003526
164600,0.0324,0.013523,0.002678,0.000431,0.008227
164700,0.0324,0.013523,0.002678,0.000431,0.004701
164800,0.0324,0.013523,0.002678,0.000431,0.004701
164900,0.0324,0.013523,0.002678,0.000431,0.008227
165000,0.0324,0.013523,0.002678,0.000431,0.004701
165100,0.0324,0.013523,0.002678,0.000431,0.005876
165200,0.0324,0.013523,0.002678,0.000431,0.004701
165300,0.0324,0.013523,0.002678,0.000431,0.004701
165400,0.0324,0.013523,0.002678,0.000431,0.004701
165500,0.0324,0.013523,0.002678,0.000431,0.005876
165600,0.0324,0.013523,0.002678,0.000431,0.005876
165700,0.0324,0.013523,0.002678,0.000431,0.005876
165800,0.0324,0.013523,0.002678,0.000431,0.005876
165900,0.0324,0.013523,0.002678,0.000431,0.003526
166000,0.0324,0.013523,0.002678,0.000431,0.007052
166100,0.0324,0.013523,0.002678,0.000431,0.004701
166200,0.0324,0.013523,0.002678,0.000431,0.011753
166300,0.0324,0.013523,0.002678,0.000431,0.005876
166400,0.0324,0.013523,0.002678,0.000431,0.008227
166500,0.0324,0.013523,0.002678,0.000431,0.004701
166600,0.0324,0.013523,0.002678,0.000431,0.005876
166700,0.0324,0.013523,0.002678,0.000431,0.003526
166800,0.0324,0.013523,0.002678,0.000431,0.007052
166900,0.0324,0.013523,0.002678,0.000431,0.003526
167000,0.0324,0.013523,0.002678,0.000431,0.007052
167100,0.0324,0.013523,0.002678,0.000431,0.002351
167200,0.0324,0.013523,0.002678,0.000431,0.004701
167300,0.0324,0.013523,0.002678,0.000431,0.003526
167400,0.0324,0.013523,0.002678,0.000431,0.005876
167500,0.0324,0.013523,0.002678,0.000431,0.004701
167600,0.0324,0.013523,0.002678,0.000431,0.009402
167700,0.0324,0.013523,0.002678,0.000431,0.002351
167800,0.0324,0.013523,0.002678,0.000431,0.007052
167900,0.0324,0.013523,0.002678,0.000431,0.004701
168000,0.0324,0.013523,0.002678,0.000431,0.002351
168100,0.0324,0.013523,0.002678,0.000431,0.008227
168200,0.0324,0.013523,0.002678,0.000431,0.001175
168300,0.0324,0.013523,0.002678,0.000431,0.004701
168400,0.0324,0.013523,0.002678,0.000431,0.007052
168500,0.0324,0.013523,0.002678,0.000431,0.002351
168600,0.0324,0.013523,0.002678,0.000431,0.003526
168700,0.0324,0.013523,0.002678,0.000431,0.008227
168800,0.0324,0.013523,0.002678,0.000431,0.003526
168900,0.0324,0.013523,0.002678,0.000431,0.003526
169000,0.0324,0.013523,0.002678,0.000431,0.007052
169100,0.0324,0.013523,0.002678,0.000431,0.002351
169200,0.0324,0.013523,0.002678,0.000431,0.005876
169300,0.0324,0.013523,0.002678,0.000431,0.005876
169400,0.0324,0.013523,0.002678,0.000431,0.001175
169500,0.0324,0.013523,0.002678,0.000431,0.002351
169600,0.0324,0.013523,0.002678,0.000431,0.005876
169700,0.0324,0.013523,0.002678,0.000431,0.001175
169800,0.0324,0.013523,0.002678,0.000431,0.005876
169900,0.0324,0.013523,0.002678,0.000431,0.004701
170000,0.0324,0.013523,0.002678,0.000431,0.002351
170100,0.0324,0.013523,0.002678,0.000431,0.009402
170200,0.0324,0.013523,0.002678,0.000431,0.002351
170300,0.0324,0.013523,0.002678,0.000431,0.005876
170400,0.0324,0.013523,0.002678,0.000431,0.004701
170500,0.0324,0.013523,0.002678,0.000431,0.002351
170600,0.0324,0.013523,0.002678,0.000431,0.004701
170700,0.0324,0.013523,0.002678,0.000431,0.007052
170800,0.0324,0.013523,0.002678,0.000431,0.000000
170900,0.0324,0.013523,0.002678,0.000431,0.005876
171000,0.0324,0.013523,0.002678,0.000431,0.004701
171100,0.0324,0.013523,0.002678,0.000431,0.001175
171200,0.0324,0.013523,0.002678,0.000431,0.004701
171300,0.0324,0.013523,0.002678,0.000431,0.004701
171400,0.0324,0.013523,0.002678,0.000431,0.001175
171500,0.0324,0.013523,0.002678,0.000431,0.003526
171600,0.0324,0.013523,0.002678,0.000431,0.008227
171700,0.0324,0.013523,0.002678,0.000431,0.000000
171800,0.0324,0.013523,0.002678,0.000431,0.005876
171900,0.0324,0.013523,0.002678,0.000431,0.003526
172000,0.0324,0.013523,0.002678,0.000431,0.001175
172100,0.0324,0.013523,0.002678,0.000431,0.007052
172200,0.0324,0.013523,0.002678,0.000431,0.002351
172300,0.0324,0.013523,0.002678,0.000431,0.002351
172400,0.0324,0.013523,0.002678,0.000431,0.002351
172500,0.0324,0.013523,0.002678,0.000431,0.004701
172600,0.0324,0.013523,0.002678,0.000431,0.001175
172700,0.0324,0.013523,0.002678,0.000431,0.008227
172800,0.0324,0.013523,0.002678,0.000431,0.001175
172900,0.0324,0.013523,0.002678,0.000431,0.007052
173000,0.0324,0.013523,0.002678,0.000431,0.003526
173100,0.0324,0.013523,0.002678,0.000431,0.003526
173200,0.0324,0.013523,0.002678,0.000431,0.003526
173300,0.0324,0.013523,0.002678,0.000431,0.004701
173400,0.0324,0.013523,0.002678,0.000431,0.003526
173500,0.0324,0.013523,0.002678,0.000431,0.002351
173600,0.0324,0.013523,0.002678,0.000431,0.003526
173700,0.0324,0.013523,0.002678,0.000431,0.001175
173800,0.0324,0.013523,0.002678,0.000431,0.003526
173900,0.0324,0.013523,0.002678,0.000431,0.002351
174000,0.0324,0.013523,0.002678,0.000431,0.002351
174100,0.0324,0.013523,0.002678,0.000431,0.003526
174200,0.0324,0.013523,0.002678,0.000431,0.002351
174300,0.0324,0.013523,0.002678,0.000431,0.005876
174400,0.0324,0.013523,0.002678,0.000431,0.001175
174500,0.0324,0.013523,0.002678,0.000431,0.004701
174600,0.0324,0.013523,0.002678,0.000431,0.002351
174700,0.0324,0.013523,0.002678,0.000431,0.002351
174800,0.0324,0.013523,0.002678,0.000431,0.001175
174900,0.0324,0.013523,0.002678,0.000431,0.004701
175000,0.0324,0.013523,0.002678,0.000431,0.003526
175100,0.0324,0.013523,0.002678,0.000431,0.002351
175200,0.0324,0.013523,0.002678,0.000431,0.002351
175300,0.0324,0.013523,0.002678,0.000431,0.001175
175400,0.0324,0.013523,0.002678,0.000431,0.003526
175500,0.0324,0.013523,0.002678,0.000431,0.003526
175600,0.0324,0.013523,0.002678,0.000431,0.001175
175700,0.0324,0.013523,0.002678,0.000431,0.004701
175800,0.0324,0.013523,0.002678,0.000431,0.002351
175900,0.0324,0.013523,0.002678,0.000431,0.002351
176000,0.0324,0.013523,0.002678,0.000431,0.002351
176100,0.0324,0.013523,0.002678,0.000431,0.003526
176200,0.0324,0.013523,0.002678,0.000431,0.001175
176300,0.0324,0.013523,0.002678,0.000431,0.004701
176400,0.0324,0.013523,0.002678,0.000431,0.002351
176500,0.0324,0.013523,0.002678,0.000431,0.001175
176600,0.0324,0.013523,0.002678,0.000431,0.004701
176700,0.0324,0.013523,0.002678,0.000431,0.002351
176800,0.0324,0.013523,0.002678,0.000431,0.005876
176900,0.0324,0.013523,0.002678,0.000431,0.003526
177000,0.0324,0.013523,0.002678,0.000431,0.005876
177100,0.0324,0.013523,0.002678,0.000431,0.001175
177200,0.0324,0.013523,0.002678,0.000431,0.004701
177300,0.0324,0.013523,0.002678,0.000431,0.004701
177400,0.0324,0.013523,0.002678,0.000431,0.000000
177500,0.0324,0.013523,0.002678,0.000431,0.002351
177600,0.0324,0.013523,0.002678,0.000431,0.004701
177700,0.0324,0.013523,0.002678,0.000431,0.001175
177800,0.0324,0.013523,0.002678,0.000431,0.002351
177900,0.0324,0.013523,0.002678,0.000431,0.003526
178000,0.0324,0.013523,0.002678,0.000431,0.002351
178100,0.0324,0.013523,0.002678,0.000431,0.003526
178200,0.0324,0.013523,0.002678,0.000431,0.003526
178300,0.0324,0.013523,0.002678,0.000431,0.003526
178400,0.0324,0.013523,0.002678,0.000431,0.001175
178500,0.0324,0.013523,0.002678,0.000431,0.003526
178600,0.0324,0.013523,0.002678,0.000431,0.002351
178700,0.0324,0.013523,0.002678,0.000431,0.003526
178800,0.0324,0.013523,0.002678,0.000431,0.001175
178900,0.0324,0.013523,0.002678,0.000431,0.005876
179000,0.0324,0.013523,0.002678,0.000431,0.002351
179100,0.0324,0.013523,0.002678,0.000431,0.002351
179200,0.0324,0.013523,0.002678,0.000431,0.004701
179300,0.0324,0.013523,0.002678,0.000431,0.004701
179400,0.0324,0.013523,0.002678,0.000431,0.002351
179500,0.0324,0.013523,0.002678,0.000431,0.007052
179600,0.0324,0.013523,0.002678,0.000431,0.002351
179700,0.0324,0.013523,0.002678,0.000431,0.003526
179800,0.0324,0.013523,0.002678,0.000431,0.004701
179900,0.0324,0.013523,0.002678,0.000431,0.002351
180000,0.0324,0.013523,0.002678,0.000431,0.002351
180100,0.0324,0.013523,0.002678,0.000431,0.004701
180200,0.0324,0.013523,0.002678,0.000431,0.001175
180300,0.0324,0.013523,0.002678,0.000431,0.003526
180400,0.0324,0.013523,0.002678,0.000431,0.005876
180500,0.0324,0.013523,0.002678,0.000431,0.000000
180600,0.0324,0.013523,0.002678,0.000431,0.005876
180700,0.0324,0.013523,0.002678,0.000431,0.002351
180800,0.0324,0.013523,0.002678,0.000431,0.005876
180900,0.0324,0.013523,0.002678,0.000431,0.002351
181000,0.0324,0.013523,0.002678,0.000431,0.004701
181100,0.0324,0.013523,0.002678,0.000431,0.002351
181200,0.0324,0.013523,0.002678,0.000431,0.003526
181300,0.0324,0.013523,0.002678,0.000431,0.004701
181400,0.0324,0.013523,0.002678,0.000431,0.003526
181500,0.0324,0.013523,0.002678,0.000431,0.004701
181600,0.0324,0.013523,0.002678,0.000431,0.003526
181700,0.0324,0.013523,0.002678,0.000431,0.002351
181800,0.0324,0.013523,0.002678,0.000431,0.007052
181900,0.0324,0.013523,0.002678,0.000431,0.002351
182000,0.0324,0.013523,0.002678,0.000431,0.003526
182100,0.0324,0.013523,0.002678,0.000431,0.005876
182200,0.0324,0.013523,0.002678,0.000431,0.002351
182300,0.0324,0.013523,0.002678,0.000431,0.004701
182400,0.0324,0.013523,0.002678,0.000431,0.002351
182500,0.0324,0.013523,0.002678,0.000431,0.003526
182600,0.0324,0.013523,0.002678,0.000431,0.003526
182700,0.0324,0.013523,0.002678,0.000431,0.002351
182800,0.0324,0.013523,0.002678,0.000431,0.003526
182900,0.0324,0.013523,0.002678,0.000431,0.003526
183000,0.0324,0.013523,0.002678,0.000431,0.002351
183100,0.0324,0.013523,0.002678,0.000431,0.004701
183200,0.0324,0.013523,0.002678,0.000431,0.001175
183300,0.0324,0.013523,0.002678,0.000431,0.004701
183400,0.0324,0.013523,0.002678,0.000431,0.003526
183500,0.0324,0.013523,0.002678,0.000431,0.004701
183600,0.0324,0.013523,0.002678,0.000431,0.003526
183700,0.0324,0.013523,0.002678,0.000431,0.003526
183800,0.0324,0.013523,0.002678,0.000431,0.003526
183900,0.0324,0.013523,0.002678,0.000431,0.002351
184000,0.0324,0.013523,0.002678,0.000431,0.002351
184100,0.0324,0.013523,0.002678,0.000431,0.003526
184200,0.0324,0.013523,0.002678,0.000431,0.003526
184300,0.0324,0.013523,0.002678,0.000431,0.004701
184400,0.0324,0.013523,0.002678,0.000431,0.002351
184500,0.0324,0.013523,0.002678,0.000431,0.003526
184600,0.0324,0.013523,0.002678,0.000431,0.005876
184700,0.0324,0.013523,0.002678,0.000431,0.001175
184800,0.0324,0.013523,0.002678,0.000431,0.004701
184900,0.0324,0.013523,0.002678,0.000431,0.005876
185000,0.0324,0.013523,0.002678,0.000431,0.000000
185100,0.0324,0.013523,0.002678,0.000431,0.003526
185200,0.0324,0.013523,0.002678,0.000431,0.003526
185300,0.0324,0.013523,0.002678,0.000431,0.001175
185400,0.0324,0.013523,0.002678,0.000431,0.003526
185500,0.0324,0.013523,0.002678,0.000431,0.001175
185600,0.0324,0.013523,0.002678,0.000431,0.003526
185700,0.0324,0.013523,0.002678,0.000431,0.002351
185800,0.0324,0.013523,0.002678,0.000431,0.002351
185900,0.0324,0.013523,0.002678,0.000431,0.002351
186000,0.0324,0.013523,0.002678,0.000431,0.002351
186100,0.0324,0.013523,0.002678,0.000431,0.002351
186200,0.0324,0.013523,0.002678,0.000431,0.003526
186300,0.0324,0.013523,0.002678,0.000431,0.002351
186400,0.0324,0.013523,0.002678,0.000431,0.003526
186500,0.0324,0.013523,0.002678,0.000431,0.001175
186600,0.0324,0.013523,0.002678,0.000431,0.001175
186700,0.0324,0.013523,0.002678,0.000431,0.002351
186800,0.0324,0.013523,0.002678,0.000431,0.002351
186900,0.0324,0.013523,0.002678,0.000431,0.003526
187000,0.0324,0.013523,0.002678,0.000431,0.001175
187100,0.0324,0.013523,0.002678,0.000431,0.002351
187200,0.0324,0.013523,0.002678,0.000431,0.002351
187300,0.0324,0.013523,0.002678,0.000431,0.000000
187400,0.0324,0.013523,0.002678,0.000431,0.003526
187500,0.0324,0.013523,0.002678,0.000431,0.002351
187600,0.0324,0.013523,0.002678,0.000431,0.002351
187700,0.0324,0.013523,0.002678,0.000431,0.003526
187800,0.0324,0.013523,0.002678,0.000431,0.003526
187900,0.0324,0.013523,0.002678,0.000431,0.001175
188000,0.0324,0.013523,0.002678,0.000431,0.003526
188100,0.0324,0.013523,0.002678,0.000431,0.002351
188200,0.0324,0.013523,0.002678,0.000431,0.002351
188300,0.0324,0.013523,0.002678,0.000431,0.003526
188400,0.0324,0.013523,0.002678,0.000431,0.001175
188500,0.0324,0.013523,0.002678,0.000431,0.002351
188600,0.0324,0.013523,0.002678,0.000431,0.001175
188700,0.0324,0.013523,0.002678,0.000431,0.003526
188800,0.0324,0.013523,0.002678,0.000431,0.001175
188900,0.0324,0.013523,0.002678,0.000431,0.002351
189000,0.0324,0.013523,0.002678,0.000431,0.001175
189100,0.0324,0.013523,0.002678,0.000431,0.002351
189200,0.0324,0.013523,0.002678,0.000431,0.002351
189300,0.0324,0.013523,0.002678,0.000431,0.001175
189400,0.0324,0.013523,0.002678,0.000431,0.003526
189500,0.0324,0.013523,0.002678,0.000431,0.001175
189600,0.0324,0.013523,0.002678,0.000431,0.001175
189700,0.0324,0.013523,0.002678,0.000431,0.002351
189800,0.0324,0.013523,0.002678,0.000431,0.001175
189900,0.0324,0.013523,0.002678,0.000431,0.001175
190000,0.0324,0.013523,0.002678,0.000431,0.002351
190100,0.0324,0.013523,0.002678,0.000431,0.001175
190200,0.0324,0.013523,0.002678,0.000431,0.001175
190300,0.0324,0.013523,0.002678,0.000431,0.002351
190400,0.0324,0.013523,0.002678,0.000431,0.000000
190500,0.0324,0.013523,0.002678,0.000431,0.001175
190600,0.0324,0.013523,0.002678,0.000431,0.001175
190700,0.0324,0.013523,0.002678,0.000431,0.000000
190800,0.0324,0.013523,0.002678,0.000431,0.001175
190900,0.0324,0.013523,0.002678,0.000431,0.001175
191000,0.0324,0.013523,0.002678,0.000431,0.000000
191100,0.0324,0.013523,0.002678,0.000431,0.001175
191200,0.0324,0.013523,0.002678,0.000431,0.001175
191300,0.0324,0.013523,0.002678,0.000431,0.000000
191400,0.0324,0.013523,0.002678,0.000431,0.001175
191500,0.0324,0.013523,0.002678,0.000431,0.001175
191600,0.0324,0.013523,0.002678,0.000431,0.000000
191700,0.0324,0.013523,0.002678,0.000431,0.000000
191800,0.0324,0.013523,0.002678,0.000431,0.002351
191900,0.0324,0.013523,0.002678,0.000431,0.000000
192000,0.0324,0.013523,0.002678,0.000431,0.001175
192100,0.0324,0.013523,0.002678,0.000431,0.001175
192200,0.0324,0.013523,0.002678,0.000431,0.000000
192300,0.0324,0.013523,0.002678,0.000431,0.001175
192400,0.0324,0.013523,0.002678,0.000431,0.000000
192500,0.0324,0.013523,0.002678,0.000431,0.000000
192600,0.0324,0.013523,0.002678,0.000431,0.001175
192700,0.0324,0.013523,0.002678,0.000431,0.000000
192800,0.0324,0.013523,0.002678,0.000431,0.001175
192900,0.0324,0.013523,0.002678,0.000431,0.001175
193000,0.0324,0.013523,0.002678,0.000431,0.000000
193100,0.0324,0.013523,0.002678,0.000431,0.001175
193200,0.0324,0.013523,0.002678,0.000431,0.000000
193300,0.0324,0.013523,0.002678,0.000431,0.001175
193400,0.0324,0.013523,0.002678,0.000431,0.000000
193500,0.0324,0.013523,0.002678,0.000431,0.001175
193600,0.0324,0.013523,0.002678,0.000431,0.001175
193700,0.0324,0.013523,0.002678,0.000431,0.000000
193800,0.0324,0.013523,0.002678,0.000431,0.002351
193900,0.0324,0.013523,0.002678,0.000431,0.000000
194000,0.0324,0.013523,0.002678,0.000431,0.000000
194100,0.0324,0.013523,0.002678,0.000431,0.001175
194200,0.0324,0.013523,0.002678,0.000431,0.001175
194300,0.0324,0.013523,0.002678,0.000431,0.000000
194400,0.0324,0.013523,0.002678,0.000431,0.001175
194500,0.0324,0.013523,0.002678,0.000431,0.001175
194600,0.0324,0.013523,0.002678,0.000431,0.000000
194700,0.0324,0.013523,0.002678,0.000431,0.001175
194800,0.0324,0.013523,0.002678,0.000431,0.001175
194900,0.0324,0.013523,0.002678,0.000431,0.000000
195000,0.0324,0.013523,0.002678,0.000431,0.001175
195100,0.0324,0.013523,0.002678,0.000431,0.001175
195200,0.0324,0.013523,0.002678,0.000431,0.000000
195300,0.0324,0.013523,0.002678,0.000431,0.001175
195400,0.0324,0.013523,0.002678,0.000431,0.001175
195500,0.0324,0.013523,0.002678,0.000431,0.000000
195600,0.0324,0.013523,0.002678,0.000431,0.001175
195700,0.0324,0.013523,0.002678,0.000431,0.000000
195800,0.0324,0.013523,0.002678,0.000431,0.001175
195900,0.0324,0.013523,0.002678,0.000431,0.000000
196000,0.0324,0.013523,0.002678,0.000431,0.001175
196100,0.0324,0.013523,0.002678,0.000431,0.001175
196200,0.0324,0.013523,0.002678,0.000431,0.000000
196300,0.0324,0.013523,0.002678,0.000431,0.001175
196400,0.0324,0.013523,0.002678,0.000431,0.001175
196500,0.0324,0.013523,0.002678,0.000431,0.000000
196600,0.0324,0.013523,0.002678,0.000431,0.000000
196700,0.0324,0.013523,0.002678,0.000431,0.001175
196800,0.0324,0.013523,0.002678,0.000431,0.001175
196900,0.0324,0.013523,0.002678,0.000431,0.000000
197000,0.0324,0.013523,0.002678,0.000431,0.001175
197100,0.0324,0.013523,0.002678,0.000431,0.001175
197200,0.0324,0.013523,0.002678,0.000431,0.000000
197300,0.0324,0.013523,0.002678,0.000431,0.001175
197400,0.0324,0.013523,0.002678,0.000431,0.001175
197500,0.0324,0.013523,0.002678,0.000431,0.000000
197600,0.0324,0.013523,0.002678,0.000431,0.001175
197700,0.0324,0.013523,0.002678,0.000431,0.001175
197800,0.0324,0.013523,0.002678,0.000431,0.000000
197900,0.0324,0.013523,0.002678,0.000431,0.001175
198000,0.0324,0.013523,0.002678,0.000431,0.001175
198100,0.0324,0.013523,0.002678,0.000431,0.000000
198200,0.0324,0.013523,0.002678,0.000431,0.001175
198300,0.0324,0.013523,0.002678,0.000431,0.001175
198400,0.0324,0.013523,0.002678,0.000431,0.000000
198500,0.0324,0.013523,0.002678,0.000431,0.001175
198600,0.0324,0.013523,0.002678,0.000431,0.001175
198700,0.0324,0.013523,0.002678,0.000431,0.000000
198800,0.0324,0.013523,0.002678,0.000431,0.001175
198900,0.0324,0.013523,0.002678,0.000431,0.001175
199000,0.0324,0.013523,0.002678,0.000431,0.000000
199100,0.0324,0.013523,0.002678,0.000431,0.001175
199200,0.0324,0.013523,0.002678,0.000431,0.001175
199300,0.0324,0.013523,0.002678,0.000431,0.000000
199400,0.0324,0.013523,0.002678,0.000431,0.000000
199500,0.0324,0.013523,0.002678,0.000431,0.002351
199600,0.0324,0.013523,0.002678,0.000431,0.000000
199700,0.0324,0.013523,0.002678,0.000431,0.001175
199800,0.0324,0.013523,0.002678,0.000431,0.001175
199900,0.0324,0.013523,0.002678,0.000431,0.000000
200000,0.0324,0.013523,0.002678,0.000431,0.001175
200100,0.0324,0.013523,0.002678,0.000431,0.001175
200200,0.0324,0.013523,0.002678,0.000431,0.000000
200300,0.0324,0.013523,0.002678,0.000431,0.001175
200400,0.0324,0.013523,0.002678,0.000431,0.001175
200500,0.0324,0.013523,0.002678,0.000431,0.000000
200600,0.0324,0.013523,0.002678,0.000431,0.001175
200700,0.0324,0.013523,0.002678,0.000431,0.001175
200800,0.0324,0.013523,0.002678,0.000431,0.000000
200900,0.0324,0.013523,0.002678,0.000431,0.001175
201000,0.0324,0.013523,0.002678,0.000431,0.001175
201100,0.0324,0.013523,0.002678,0.000431,0.000000
201200,0.0324,0.013523,0.002678,0.000431,0.001175
201300,0.0324,0.013523,0.002678,0.000431,0.000000
201400,0.0324,0.013523,0.002678,0.000431,0.001175
201500,0.0324,0.013523,0.002678,0.000431,0.000000
201600,0.0324,0.013523,0.002678,0.000431,0.001175
201700,0.0324,0.013523,0.002678,0.000431,0.001175
201800,0.0324,0.013523,0.002678,0.000431,0.000000
201900,0.0324,0.013523,0.002678,0.000431,0.002351
202000,0.0324,0.013523,0.002678,0.000431,0.000000
202100,0.0324,0.013523,0.002678,0.000431,0.000000
202200,0.0324,0.013523,0.002678,0.000431,0.001175
202300,0.0324,0.013523,0.002678,0.000431,0.001175
202400,0.0324,0.013523,0.002678,0.000431,0.000000
202500,0.0324,0.013523,0.002678,0.000431,0.001175
202600,0.0324,0.013523,0.002678,0.000431,0.001175
202700,0.0324,0.013523,0.002678,0.000431,0.000000
202800,0.0324,0.013523,0.002678,0.000431,0.001175
202900,0.0324,0.013523,0.002678,0.000431,0.001175
203000,0.0324,0.013523,0.002678,0.000431,0.000000
203100,0.0324,0.013523,0.002678,0.000431,0.001175
203200,0.0324,0.013523,0.002678,0.000431,0.001175
203300,0.0324,0.013523,0.002678,0.000431,0.000000
203400,0.0324,0.013523,0.002678,0.000431,0.001175
203500,0.0324,0.013523,0.002678,0.000431,0.001175
203600,0.0324,0.013523,0.002678,0.000431,0.000000
203700,0.0324,0.013523,0.002678,0.000431,0.001175
203800,0.0324,0.013523,0.002678,0.000431,0.001175
203900,0.0324,0.013523,0.002678,0.000431,0.000000
204000,0.0324,0.013523,0.002678,0.000431,0.001175
204100,0.0324,0.013523,0.002678,0.000431,0.001175
204200,0.0324,0.013523,0.002678,0.000431,0.000000
204300,0.0324,0.013523,0.002678,0.000431,0.001175
204400,0.0324,0.013523,0.002678,0.000431,0.001175
204500,0.0324,0.013523,0.002678,0.000431,0.000000
204600,0.0324,0.013523,0.002678,0.000431,0.001175
204700,0.0324,0.013523,0.002678,0.000431,0.001175
204800,0.0324,0.013523,0.002678,0.000431,0.000000
204900,0.0324,0.013523,0.002678,0.000431,0.000000
205000,0.0324,0.013523,0.002678,0.000431,0.001175
205100,0.0324,0.013523,0.002678,0.000431,0.001175
205200,0.0324,0.013523,0.002678,0.000431,0.000000
205300,0.0324,0.013523,0.002678,0.000431,0.001175
205400,0.0324,0.013523,0.002678,0.000431,0.001175
205500,0.0324,0.013523,0.002678,0.000431,0.000000
205600,0.0324,0.013523,0.002678,0.000431,0.001175
205700,0.0324,0.013523,0.002678,0.000431,0.001175
205800,0.0324,0.013523,0.002678,0.000431,0.000000
205900,0.0324,0.013523,0.002678,0.000431,0.001175
206000,0.0324,0.013523,0.002678,0.000431,0.001175
206100,0.0324,0.013523,0.002678,0.000431,0.000000
206200,0.0324,0.013523,0.002678,0.000431,0.001175
206300,0.0324,0.013523,0.002678,0.000431,0.001175
206400,0.0324,0.013523,0.002678,0.000431,0.000000
206500,0.0324,0.013523,0.002678,0.000431,0.001175
206600,0.0324,0.013523,0.002678,0.000431,0.001175
206700,0.0324,0.013523,0.002678,0.000431,0.000000
206800,0.0324,0.013523,0.002678,0.000431,0.001175
206900,0.0324,0.013523,0.002678,0.000431,0.001175
207000,0.0324,0.013523,0.002678,0.000431,0.000000
207100,0.0324,0.013523,0.002678,0.000431,0.001175
207200,0.0324,0.013523,0.002678,0.000431,0.001175
207300,0.0324,0.013523,0.002678,0.000431,0.000000
207400,0.0324,0.013523,0.002678,0.000431,0.002351
207500,0.0324,0.013523,0.002678,0.000431,0.000000
207600,0.0324,0.013523,0.002678,0.000431,0.000000
207700,0.0324,0.013523,0.002678,0.000431,0.000000
207800,0.0324,0.013523,0.002678,0.000431,0.002351
207900,0.0324,0.013523,0.002678,0.000431,0.000000
208000,0.0324,0.013523,0.002678,0.000431,0.001175
208100,0.0324,0.013523,0.002678,0.000431,0.001175
208200,0.0324,0.013523,0.002678,0.000431,0.000000
208300,0.0324,0.013523,0.002678,0.000431,0.001175
208400,0.0324,0.013523,0.002678,0.000431,0.001175
208500,0.0324,0.013523,0.002678,0.000431,0.000000
208600,0.0324,0.013523,0.002678,0.000431,0.001175
208700,0.0324,0.013523,0.002678,0.000431,0.001175
208800,0.0324,0.013523,0.002678,0.000431,0.000000
208900,0.0324,0.013523,0.002678,0.000431,0.001175
209000,0.0324,0.013523,0.002678,0.000431,0.001175
209100,0.0324,0.013523,0.002678,0.000431,0.000000
209200,0.0324,0.013523,0.002678,0.000431,0.001175
209300,0.0324,0.013523,0.002678,0.000431,0.001175
209400,0.0324,0.013523,0.002678,0.000431,0.000000
209500,0.0324,0.013523,0.002678,0.000431,0.001175
209600,0.0324,0.013523,0.002678,0.000431,0.000000
209700,0.0324,0.013523,0.002678,0.000431,0.001175
209800,0.0324,0.013523,0.002678,0.000431,0.000000
209900,0.0324,0.013523,0.002678,0.000431,0.001175
210000,0.0324,0.013523,0.002678,0.000431,0.001175
210100,0.0324,0.013523,0.002678,0.000431,0.000000
210200,0.0324,0.013523,0.002678,0.000431,0.002351
210300,0.0324,0.013523,0.002678,0.000431,0.000000
210400,0.0324,0.013523,0.002678,0.000431,0.000000
210500,0.0324,0.013523,0.002678,0.000431,0.001175
210600,0.0324,0.013523,0.002678,0.000431,0.001175
210700,0.0324,0.013523,0.002678,0.000431,0.000000
210800,0.0324,0.013523,0.002678,0.000431,0.001175
210900,0.0324,0.013523,0.002678,0.000431,0.001175
211000,0.0324,0.013523,0.002678,0.000431,0.000000
211100,0.0324,0.013523,0.002678,0.000431,0.001175
211200,0.0324,0.013523,0.002678,0.000431,0.001175
211300,0.0324,0.013523,0.002678,0.000431,0.000000
211400,0.0324,0.013523,0.002678,0.000431,0.001175
211500,0.0324,0.013523,0.002678,0.000431,0.001175
211600,0.0324,0.013523,0.002678,0.000431,0.000000
211700,0.0324,0.013523,0.002678,0.000431,0.001175
211800,0.0324,0.013523,0.002678,0.000431,0.001175
211900,0.0324,0.013523,0.002678,0.000431,0.000000
212000,0.0324,0.013523,0.002678,0.000431,0.001175
212100,0.0324,0.013523,0.002678,0.000431,0.001175
212200,0.0324,0.013523,0.002678,0.000431,0.000000
212300,0.0324,0.013523,0.002678,0.000431,0.001175
212400,0.0324,0.013523,0.002678,0.000431,0.001175
212500,0.0324,0.013523,0.002678,0.000431,0.000000
212600,0.0324,0.013523,0.002678,0.000431,0.001175
212700,0.0324,0.013523,0.002678,0.000431,0.001175
212800,0.0324,0.013523,0.002678,0.000431,0.000000
212900,0.0324,0.013523,0.002678,0.000431,0.001175
213000,0.0324,0.013523,0.002678,0.000431,0.001175
213100,0.0324,0.013523,0.002678,0.000431,0.000000
213200,0.0324,0.013523,0.002678,0.000431,0.000000
213300,0.0324,0.013523,0.002678,0.000431,0.002351
213400,0.0324,0.013523,0.002678,0.000431,0.000000
213500,0.0324,0.013523,0.002678,0.000431,0.001175
213600,0.0324,0.013523,0.002678,0.000431,0.001175
213700,0.0324,0.013523,0.002678,0.000431,0.000000
213800,0.0324,0.013523,0.002678,0.000431,0.001175
213900,0.0324,0.013523,0.002678,0.000431,0.000000
214000,0.0324,0.013523,0.002678,0.000431,0.001175
214100,0.0324,0.013523,0.002678,0.000431,0.000000
214200,0.0324,0.013523,0.002678,0.000431,0.001175
214300,0.0324,0.013523,0.002678,0.000431,0.001175
214400,0.0324,0.013523,0.002678,0.000431,0.000000
214500,0.0324,0.013523,0.002678,0.000431,0.001175
214600,0.0324,0.013523,0.002678,0.000431,0.000000
214700,0.0324,0.013523,0.002678,0.000431,0.001175
214800,0.0324,0.013523,0.002678,0.000431,0.001175
214900,0.0324,0.013523,0.002678,0.000431,0.000000
215000,0.0324,0.013523,0.002678,0.000431,0.001175
215100,0.0324,0.013523,0.002678,0.000431,0.000000
215200,0.0324,0.013523,0.002678,0.000431,0.001175
215300,0.0324,0.013523,0.002678,0.000431,0.001175
215400,0.0324,0.013523,0.002678,0.000431,0.000000
215500,0.0324,0.013523,0.002678,0.000431,0.002351
215600,0.0324,0.013523,0.002678,0.000431,0.000000
215700,0.0324,0.013523,0.002678,0.000431,0.000000
215800,0.0324,0.013523,0.002678,0.000431,0.001175
215900,0.0324,0.013523,0.002678,0.000431,0.001175
216000,0.0324,0.013523,0.002678,0.000431,0.000000
216100,0.0324,0.013523,0.002678,0.000431,0.001175
216200,0.0324,0.013523,0.002678,0.000431,0.001175
216300,0.0324,0.013523,0.002678,0.000431,0.000000
216400,0.0324,0.013523,0.002678,0.000431,0.001175
216500,0.0324,0.013523,0.002678,0.000431,0.001175
216600,0.0324,0.013523,0.002678,0.000431,0.000000
216700,0.0324,0.013523,0.002678,0.000431,0.001175
216800,0.0324,0.013523,0.002678,0.000431,0.001175
216900,0.0324,0.013523,0.002678,0.000431,0.000000
217000,0.0324,0.013523,0.002678,0.000431,0.001175
217100,0.0324,0.013523,0.002678,0.000431,0.001175
217200,0.0324,0.013523,0.002678,0.000431,0.000000
217300,0.0324,0.013523,0.002678,0.000431,0.001175
217400,0.0324,0.013523,0.002678,0.000431,0.001175
217500,0.0324,0.013523,0.002678,0.000431,0.000000
217600,0.0324,0.013523,0.002678,0.000431,0.001175
217700,0.0324,0.013523,0.002678,0.000431,0.001175
217800,0.0324,0.013523,0.002678,0.000431,0.000000
217900,0.0324,0.013523,0.002678,0.000431,0.001175
218000,0.0324,0.013523,0.002678,0.000431,0.001175
218100,0.0324,0.013523,0.002678,0.000431,0.000000
218200,0.0324,0.013523,0.002678,0.000431,0.001175
218300,0.0324,0.013523,0.002678,0.000431,0.001175
218400,0.0324,0.013523,0.002678,0.000431,0.000000
218500,0.0324,0.013523,0.002678,0.000431,0.000000
218600,0.0324,0.013523,0.002678,0.000431,0.001175
218700,0.0324,0.013523,0.002678,0.000431,0.001175
218800,0.0324,0.013523,0.002678,0.000431,0.000000
218900,0.0324,0.013523,0.002678,0.000431,0.001175
219000,0.0324,0.013523,0.002678,0.000431,0.001175
219100,0.0324,0.013523,0.002678,0.000431,0.000000
219200,0.0324,0.013523,0.002678,0.000431,0.001175
219300,0.0324,0.013523,0.002678,0.000431,0.001175
219400,0.0324,0.013523,0.002678,0.000431,0.000000
219500,0.0324,0.013523,0.002678,0.000431,0.001175
219600,0.0324,0.013523,0.002678,0.000431,0.001175
219700,0.0324,0.013523,0.002678,0.000431,0.000000
219800,0.0324,0.013523,0.002678,0.000431,0.001175
219900,0.0324,0.013523,0.002678,0.000431,0.001175
220000,0.0324,0.013523,0.002678,0.000431,0.000000
220100,0.0324,0.013523,0.002678,0.000431,0.001175
220200,0.0324,0.013523,0.002678,0.000431,0.001175
220300,0.0324,0.013523,0.002678,0.000431,0.000000
220400,0.0324,0.013523,0.002678,0.000431,0.001175
220500,0.0324,0.013523,0.002678,0.000431,0.001175
220600,0.0324,0.013523,0.002678,0.000431,0.000000
220700,0.0324,0.013523,0.002678,0.000431,0.001175
220800,0.0324,0.013523,0.002678,0.000431,0.001175
220900,0.0324,0.013523,0.002678,0.000431,0.000000
221000,0.0324,0.013523,0.002678,0.000431,0.001175
221100,0.0324,0.013523,0.002678,0.000431,0.001175
221200,0.0324,0.013523,0.002678,0.000431,0.000000
221300,0.0324,0.013523,0.002678,0.000431,0.000000
221400,0.0324,0.013523,0.002678,0.000431,0.002351
221500,0.0324,0.013523,0.002678,0.000431,0.000000
221600,0.0324,0.013523,0.002678,0.000431,0.001175
221700,0.0324,0.013523,0.002678,0.000431,0.001175
221800,0.0324,0.013523,0.002678,0.000431,0.000000
221900,0.0324,0.013523,0.002678,0.000431,0.001175
222000,0.0324,0.013523,0.002678,0.000431,0.001175
222100,0.0324,0.013523,0.002678,0.000431,0.000000
222200,0.0324,0.013523,0.002678,0.000431,0.001175
222300,0.0324,0.013523,0.002678,0.000431,0.001175
222400,0.0324,0.013523,0.002678,0.000431,0.000000
222500,0.0324,0.013523,0.002678,0.000431,0.001175
222600,0.0324,0.013523,0.002678,0.000431,0.001175
222700,0.0324,0.013523,0.002678,0.000431,0.000000
222800,0.0324,0.013523,0.002678,0.000431,0.001175
222900,0.0324,0.013523,0.002678,0.000431,0.001175
223000,0.0324,0.013523,0.002678,0.000431,0.000000
223100,0.0324,0.013523,0.002678,0.000431,0.001175
223200,0.0324,0.013523,0.002678,0.000431,0.000000
223300,0.0324,0.013523,0.002678,0.000431,0.001175
223400,0.0324,0.013523,0.002678,0.000431,0.000000
223500,0.0324,0.013523,0.002678,0.000431,0.001175
223600,0.0324,0.013523,0.002678,0.000431,0.001175
223700,0.0324,0.013523,0.002678,0.000431,0.000000
223800,0.0324,0.013523,0.002678,0.000431,0.002351
223900,0.0324,0.013523,0.002678,0.000431,0.000000
224000,0.0324,0.013523,0.002678,0.000431,0.000000
224100,0.0324,0.013523,0.002678,0.000431,0.001175
224200,0.0324,0.013523,0.002678,0.000431,0.001175
224300,0.0324,0.013523,0.002678,0.000431,0.000000
224400,0.0324,0.013523,0.002678,0.000431,0.001175
224500,0.0324,0.013523,0.002678,0.000431,0.001175
224600,0.0324,0.013523,0.002678,0.000431,0.000000
224700,0.0324,0.013523,0.002678,0.000431,0.001175
224800,0.0324,0.013523,0.002678,0.000431,0.001175
224900,0.0324,0.013523,0.002678,0.000431,0.000000
225000,0.0324,0.013523,0.002678,0.000431,0.001175
225100,0.0324,0.013523,0.002678,0.000431,0.001175
225200,0.0324,0.013523,0.002678,0.000431,0.000000
225300,0.0324,0.013523,0.002678,0.000431,0.001175
225400,0.0324,0.013523,0.002678,0.000431,0.001175
225500,0.0324,0.013523,0.002678,0.000431,0.000000
225600,0.0324,0.013523,0.002678,0.000431,0.001175
225700,0.0324,0.013523,0.002678,0.000431,0.001175
225800,0.0324,0.013523,0.002678,0.000431,0.000000
225900,0.0324,0.013523,0.002678,0.000431,0.001175
226000,0.0324,0.013523,0.002678,0.000431,0.001175
226100,0.0324,0.013523,0.002678,0.000431,0.000000
226200,0.0324,0.013523,0.002678,0.000431,0.001175
226300,0.0324,0.013523,0.002678,0.000431,0.001175
226400,0.0324,0.013523,0.002678,0.000431,0.000000
226500,0.0324,0.013523,0.002678,0.000431,0.001175
226600,0.0324,0.013523,0.002678,0.000431,0.001175
226700,0.0324,0.013523,0.002678,0.000431,0.000000
226800,0.0324,0.013523,0.002678,0.000431,0.000000
226900,0.0324,0.013523,0.002678,0.000431,0.001175
227000,0.0324,0.013523,0.002678,0.000431,0.000000
227100,0.0324,0.013523,0.002678,0.000431,0.001175
227200,0.0324,0.013523,0.002678,0.000431,0.000000
227300,0.0324,0.013523,0.002678,0.000431,0.001175
227400,0.0324,0.013523,0.002678,0.000431,0.001175
227500,0.0324,0.013523,0.002678,0.000431,0.000000
227600,0.0324,0.013523,0.002678,0.000431,0.001175
227700,0.0324,0.013523,0.002678,0.000431,0.001175
227800,0.0324,0.013523,0.002678,0.000431,0.000000
227900,0.0324,0.013523,0.002678,0.000431,0.001175
228000,0.0324,0.013523,0.002678,0.000431,0.001175
228100,0.0324,0.013523,0.002678,0.000431,0.000000
228200,0.0324,0.013523,0.002678,0.000431,0.001175
228300,0.0324,0.013523,0.002678,0.000431,0.001175
228400,0.0324,0.013523,0.002678,0.000431,0.000000
228500,0.0324,0.013523,0.002678,0.000431,0.001175
228600,0.0324,0.013523,0.002678,0.000431,0.001175
228700,0.0324,0.013523,0.002678,0.000431,0.000000
228800,0.0324,0.013523,0.002678,0.000431,0.001175
228900,0.0324,0.013523,0.002678,0.000431,0.001175
229000,0.0324,0.013523,0.002678,0.000431,0.000000
229100,0.0324,0.013523,0.002678,0.000431,0.002351
229200,0.0324,0.013523,0.002678,0.000431,0.000000
229300,0.0324,0.013523,0.002678,0.000431,0.000000
229400,0.0324,0.013523,0.002678,0.000431,0.000000
229500,0.0324,0.013523,0.002678,0.000431,0.001175
229600,0.0324,0.013523,0.002678,0.000431,0.001175
229700,0.0324,0.013523,0.002678,0.000431,0.000000
229800,0.0324,0.013523,0.002678,0.000431,0.001175
229900,0.0324,0.013523,0.002678,0.000431,0.001175
230000,0.0324,0.013523,0.002678,0.000431,0.000000
230100,0.0324,0.013523,0.002678,0.000431,0.001175
230200,0.0324,0.013523,0.002678,0.000431,0.001175
230300,0.0324,0.013523,0.002678,0.000431,0.000000
230400,0.0324,0.013523,0.002678,0.000431,0.001175
230500,0.0324,0.013523,0.002678,0.000431,0.001175
230600,0.0324,0.013523,0.002678,0.000431,0.000000
230700,0.0324,0.013523,0.002678,0.000431,0.001175
230800,0.0324,0.013523,0.002678,0.000431,0.001175
230900,0.0324,0.013523,0.002678,0.000431,0.000000
231000,0.0324,0.013523,0.002678,0.000431,0.001175
231100,0.0324,0.013523,0.002678,0.000431,0.001175
231200,0.0324,0.013523,0.002678,0.000431,0.000000
231300,0.0324,0.013523,0.002678,0.000431,0.001175
231400,0.0324,0.013523,0.002678,0.000431,0.000000
231500,0.0324,0.013523,0.002678,0.000431,0.001175
231600,0.0324,0.013523,0.002678,0.000431,0.001175
231700,0.0324,0.013523,0.002678,0.000431,0.001175
231800,0.0324,0.013523,0.002678,0.000431,0.000000
231900,0.0324,0.013523,0.002678,0.000431,0.000000
232000,0.0324,0.013523,0.002678,0.000431,0.001175
232100,0.0324,0.013523,0.002678,0.000431,0.001175
232200,0.0324,0.013523,0.002678,0.000431,0.000000
232300,0.0324,0.013523,0.002678,0.000431,0.001175
232400,0.0324,0.013523,0.002678,0.000431,0.001175
232500,0.0324,0.013523,0.002678,0.000431,0.000000
232600,0.0324,0.013523,0.002678,0.000431,0.001175
232700,0.0324,0.013523,0.002678,0.000431,0.001175
232800,0.0324,0.013523,0.002678,0.000431,0.000000
232900,0.0324,0.013523,0.002678,0.000431,0.001175
233000,0.0324,0.013523,0.002678,0.000431,0.001175
233100,0.0324,0.013523,0.002678,0.000431,0.000000
233200,0.0324,0.013523,0.002678,0.000431,0.001175
233300,0.0324,0.013523,0.002678,0.000431,0.001175
233400,0.0324,0.013523,0.002678,0.000431,0.000000
233500,0.0324,0.013523,0.002678,0.000431,0.001175
233600,0.0324,0.013523,0.002678,0.000431,0.001175
233700,0.0324,0.013523,0.002678,0.000431,0.000000
233800,0.0324,0.013523,0.002678,0.000431,0.001175
233900,0.0324,0.013523,0.002678,0.000431,0.001175
234000,0.0324,0.013523,0.002678,0.000431,0.000000
234100,0.0324,0.013523,0.002678,0.000431,0.001175
234200,0.0324,0.013523,0.002678,0.000431,0.001175
234300,0.0324,0.013523,0.002678,0.000431,0.000000
234400,0.0324,0.013523,0.002678,0.000431,0.001175
234500,0.0324,0.013523,0.002678,0.000431,0.001175
234600,0.0324,0.013523,0.002678,0.000431,0.000000
234700,0.0324,0.013523,0.002678,0.000431,0.000000
234800,0.0324,0.013523,0.002678,0.000431,0.001175
234900,0.0324,0.013523,0.002678,0.000431,0.001175
235000,0.0324,0.013523,0.002678,0.000431,0.000000
235100,0.0324,0.013523,0.002678,0.000431,0.001175
235200,0.0324,0.013523,0.002678,0.000431,0.001175
235300,0.0324,0.013523,0.002678,0.000431,0.000000
235400,0.0324,0.013523,0.002678,0.000431,0.001175
235500,0.0324,0.013523,0.002678,0.000431,0.001175
235600,0.0324,0.013523,0.002678,0.000431,0.000000
235700,0.0324,0.013523,0.002678,0.000431,0.001175
235800,0.0324,0.013523,0.002678,0.000431,0.001175
235900,0.0324,0.013523,0.002678,0.000431,0.000000
236000,0.0324,0.013523,0.002678,0.000431,0.001175
236100,0.0324,0.013523,0.002678,0.000431,0.001175
236200,0.0324,0.013523,0.002678,0.000431,0.000000
236300,0.0324,0.013523,0.002678,0.000431,0.001175
236400,0.0324,0.013523,0.002678,0.000431,0.000000
236500,0.0324,0.013523,0.002678,0.000431,0.001175
236600,0.0324,0.013523,0.002678,0.000431,0.000000
236700,0.0324,0.013523,0.002678,0.000431,0.001175
236800,0.0324,0.013523,0.002678,0.000431,0.001175
236900,0.0324,0.013523,0.002678,0.000431,0.000000
237000,0.0324,0.013523,0.002678,0.000431,0.002351
237100,0.0324,0.013523,0.002678,0.000431,0.000000
237200,0.0324,0.013523,0.002678,0.000431,0.000000
237300,0.0324,0.013523,0.002678,0.000431,0.001175
237400,0.0324,0.013523,0.002678,0.000431,0.001175
237500,0.0324,0.013523,0.002678,0.000431,0.000000
237600,0.0324,0.013523,0.002678,0.000431,0.001175
237700,0.0324,0.013523,0.002678,0.000431,0.001175
237800,0.0324,0.013523,0.002678,0.000431,0.000000
237900,0.0324,0.013523,0.002678,0.000431,0.001175
238000,0.0324,0.013523,0.002678,0.000431,0.001175
238100,0.0324,0.013523,0.002678,0.000431,0.000000
238200,0.0324,0.013523,0.002678,0.000431,0.001175
238300,0.0324,0.013523,0.002678,0.000431,0.000000
238400,0.0324,0.013523,0.002678,0.000431,0.001175
238500,0.0324,0.013523,0.002678,0.000431,0.000000
238600,0.0324,0.013523,0.002678,0.000431,0.001175
238700,0.0324,0.013523,0.002678,0.000431,0.001175
238800,0.0324,0.013523,0.002678,0.000431,0.000000
238900,0.0324,0.013523,0.002678,0.000431,0.001175
239000,0.0324,0.013523,0.002678,0.000431,0.001175
239100,0.0324,0.013523,0.002678,0.000431,0.000000
239200,0.0324,0.013523,0.002678,0.000431,0.001175
239300,0.0324,0.013523,0.002678,0.000431,0.001175
239400,0.0324,0.013523,0.002678,0.000431,0.000000
239500,0.0324,0.013523,0.002678,0.000431,0.001175
239600,0.0324,0.013523,0.002678,0.000431,0.001175
239700,0.0324,0.013523,0.002678,0.000431,0.000000
239800,0.0324,0.013523,0.002678,0.000431,0.000000
239900,0.0324,0.013523,0.002678,0.000431,0.001175
240000,0.0324,0.013523,0.002678,0.000431,0.001175
240100,0.0324,0.013523,0.002678,0.000431,0.001175
240200,0.0324,0.013523,0.002678,0.000431,0.000000
240300,0.0324,0.013523,0.002678,0.000431,0.001175
240400,0.0324,0.013523,0.002678,0.000431,0.000000
240500,0.0324,0.013523,0.002678,0.000431,0.001175
240600,0.0324,0.013523,0.002678,0.000431,0.001175
240700,0.0324,0.013523,0.002678,0.000431,0.000000
240800,0.0324,0.013523,0.002678,0.000431,0.001175
240900,0.0324,0.013523,0.002678,0.000431,0.001175
241000,0.0324,0.013523,0.002678,0.000431,0.000000
241100,0.0324,0.013523,0.002678,0.000431,0.001175
241200,0.0324,0.013523,0.002678,0.000431,0.001175
241300,0.0324,0.013523,0.002678,0.000431,0.000000
241400,0.0324,0.013523,0.002678,0.000431,0.001175
241500,0.0324,0.013523,0.002678,0.000431,0.001175
241600,0.0324,0.013523,0.002678,0.000431,0.000000
241700,0.0324,0.013523,0.002678,0.000431,0.001175
241800,0.0324,0.013523,0.002678,0.000431,0.001175
241900,0.0324,0.013523,0.002678,0.000431,0.000000
242000,0.0324,0.013523,0.002678,0.000431,0.001175
242100,0.0324,0.013523,0.002678,0.000431,0.001175
242200,0.0324,0.013523,0.002678,0.000431,0.000000
242300,0.0324,0.013523,0.002678,0.000431,0.002351
242400,0.0324,0.013523,0.002678,0.000431,0.000000
242500,0.0324,0.013523,0.002678,0.000431,0.000000
242600,0.0324,0.013523,0.002678,0.000431,0.000000
242700,0.0324,0.013523,0.002678,0.000431,0.002351
242800,0.0324,0.013523,0.002678,0.000431,0.000000
242900,0.0324,0.013523,0.002678,0.000431,0.001175
243000,0.0324,0.013523,0.002678,0.000431,0.001175
243100,0.0324,0.013523,0.002678,0.000431,0.000000
243200,0.0324,0.013523,0.002678,0.000431,0.001175
243300,0.0324,0.013523,0.002678,0.000431,0.001175
243400,0.0324,0.013523,0.002678,0.000431,0.000000
243500,0.0324,0.013523,0.002678,0.000431,0.001175
243600,0.0324,0.013523,0.002678,0.000431,0.001175
243700,0.0324,0.013523,0.002678,0.000431,0.000000
243800,0.0324,0.013523,0.002678,0.000431,0.001175
243900,0.0324,0.013523,0.002678,0.000431,0.001175
244000,0.0324,0.013523,0.002678,0.000431,0.000000
244100,0.0324,0.013523,0.002678,0.000431,0.001175
244200,0.0324,0.013523,0.002678,0.000431,0.001175
244300,0.0324,0.013523,0.002678,0.000431,0.000000
244400,0.0324,0.013523,0.002678,0.000431,0.001175
244500,0.0324,0.013523,0.002678,0.000431,0.000000
244600,0.0324,0.013523,0.002678,0.000431,0.001175
244700,0.0324,0.013523,0.002678,0.000431,0.000000
244800,0.0324,0.013523,0.002678,0.000431,0.001175
244900,0.0324,0.013523,0.002678,0.000431,0.001175
245000,0.0324,0.013523,0.002678,0.000431,0.000000
245100,0.0324,0.013523,0.002678,0.000431,0.002351
245200,0.0324,0.013523,0.002678,0.000431,0.000000
245300,0.0324,0.013523,0.002678,0.000431,0.000000
245400,0.0324,0.013523,0.002678,0.000431,0.001175
245500,0.0324,0.013523,0.002678,0.000431,0.001175
245600,0.0324,0.013523,0.002678,0.000431,0.000000
245700,0.0324,0.013523,0.002678,0.000431,0.001175
245800,0.0324,0.013523,0.002678,0.000431,0.001175
245900,0.0324,0.013523,0.002678,0.000431,0.000000
246000,0.0324,0.013523,0.002678,0.000431,0.001175
246100,0.0324,0.013523,0.002678,0.000431,0.001175
246200,0.0324,0.013523,0.002678,0.000431,0.000000
246300,0.0324,0.013523,0.002678,0.000431,0.001175
246400,0.0324,0.013523,0.002678,0.000431,0.001175
246500,0.0324,0.013523,0.002678,0.000431,0.000000
246600,0.0324,0.013523,0.002678,0.000431,0.001175
246700,0.0324,0.013523,0.002678,0.000431,0.001175
246800,0.0324,0.013523,0.002678,0.000431,0.000000
246900,0.0324,0.013523,0.002678,0.000431,0.001175
247000,0.0324,0.013523,0.002678,0.000431,0.001175
247100,0.0324,0.013523,0.002678,0.000431,0.000000
247200,0.0324,0.013523,0.002678,0.000431,0.001175
247300,0.0324,0.013523,0.002678,0.000431,0.001175
247400,0.0324,0.013523,0.002678,0.000431,0.000000
247500,0.0324,0.013523,0.002678,0.000431,0.001175
247600,0.0324,0.013523,0.002678,0.000431,0.001175
247700,0.0324,0.013523,0.002678,0.000431,0.000000
247800,0.0324,0.013523,0.002678,0.000431,0.001175
247900,0.0324,0.013523,0.002678,0.000431,0.001175
248000,0.0324,0.013523,0.002678,0.000431,0.000000
248100,0.0324,0.013523,0.002678,0.000431,0.000000
248200,0.0324,0.013523,0.002678,0.000431,0.002351
248300,0.0324,0.013523,0.002678,0.000431,0.000000
248400,0.0324,0.013523,0.002678,0.000431,0.001175
248500,0.0324,0.013523,0.002678,0.000431,0.001175
248600,0.0324,0.013523,0.002678,0.000431,0.000000
248700,0.0324,0.013523,0.002678,0.000431,0.001175
248800,0.0324,0.013523,0.002678,0.000431,0.000000
248900,0.0324,0.013523,0.002678,0.000431,0.001175
249000,0.0324,0.013523,0.002678,0.000431,0.000000
249100,0.0324,0.013523,0.002678,0.000431,0.001175
249200,0.0324,0.013523,0.002678,0.000431,0.001175
249300,0.0324,0.013523,0.002678,0.000431,0.000000
249400,0.0324,0.013523,0.002678,0.000431,0.001175
249500,0.0324,0.013523,0.002678,0.000431,0.001175
249600,0.0324,0.013523,0.002678,0.000431,0.000000
249700,0.0324,0.013523,0.002678,0.000431,0.001175
249800,0.0324,0.013523,0.002678,0.000431,0.001175
249900,0.0324,0.013523,0.002678,0.000431,0.000000
250000,0.0324,0.013523,0.002678,0.000431,0.001175
250100,0.0324,0.013523,0.002678,0.000431,0.001175
250200,0.0324,0.013523,0.002678,0.000431,0.000000
250300,0.0324,0.013523,0.002678,0.000431,0.001175
250400,0.0324,0.013523,0.002678,0.000431,0.001175
250500,0.0324,0.013523,0.002678,0.000431,0.000000
250600,0.0324,0.013523,0.002678,0.000431,0.002351
250700,0.0324,0.013523,0.002678,0.000431,0.000000
250800,0.0324,0.013523,0.002678,0.000431,0.000000
250900,0.0324,0.013523,0.002678,0.000431,0.001175
251000,0.0324,0.013523,0.002678,0.000431,0.001175
251100,0.0324,0.013523,0.002678,0.000431,0.000000
251200,0.0324,0.013523,0.002678,0.000431,0.001175
251300,0.0324,0.013523,0.002678,0.000431,0.001175
251400,0.0324,0.013523,0.002678,0.000431,0.000000
251500,0.0324,0.013523,0.002678,0.000431,0.001175
251600,0.0324,0.013523,0.002678,0.000431,0.001175
251700,0.0324,0.013523,0.002678,0.000431,0.000000
251800,0.0324,0.013523,0.002678,0.000431,0.001175
251900,0.0324,0.013523,0.002678,0.000431,0.001175
252000,0.0324,0.013523,0.002678,0.000431,0.000000
252100,0.0324,0.013523,0.002678,0.000431,0.001175
252200,0.0324,0.013523,0.002678,0.000431,0.001175
252300,0.0324,0.013523,0.002678,0.000431,0.000000
252400,0.0324,0.013523,0.002678,0.000431,0.001175
252500,0.0324,0.013523,0.002678,0.000431,0.001175
252600,0.0324,0.013523,0.002678,0.000431,0.000000
252700,0.0324,0.013523,0.002678,0.000431,0.001175
252800,0.0324,0.013523,0.002678,0.000431,0.001175
252900,0.0324,0.013523,0.002678,0.000431,0.000000
253000,0.0324,0.013523,0.002678,0.000431,0.001175
253100,0.0324,0.013523,0.002678,0.000431,0.001175
253200,0.0324,0.013523,0.002678,0.000431,0.000000
253300,0.0324,0.013523,0.002678,0.000431,0.001175
253400,0.0324,0.013523,0.002678,0.000431,0.001175
253500,0.0324,0.013523,0.002678,0.000431,0.000000
253600,0.0324,0.013523,0.002678,0.000431,0.000000
253700,0.0324,0.013523,0.002678,0.000431,0.001175
253800,0.0324,0.013523,0.002678,0.000431,0.001175
253900,0.0324,0.013523,0.002678,0.000431,0.000000
254000,0.0324,0.013523,0.002678,0.000431,0.001175
254100,0.0324,0.013523,0.002678,0.000431,0.001175
254200,0.0324,0.013523,0.002678,0.000431,0.000000
254300,0.0324,0.013523,0.002678,0.000431,0.001175
254400,0.0324,0.013523,0.002678,0.000431,0.001175
254500,0.0324,0.013523,0.002678,0.000431,0.000000
254600,0.0324,0.013523,0.002678,0.000431,0.001175
254700,0.0324,0.013523,0.002678,0.000431,0.001175
254800,0.0324,0.013523,0.002678,0.000431,0.000000
254900,0.0324,0.013523,0.002678,0.000431,0.001175
255000,0.0324,0.013523,0.002678,0.000431,0.001175
255100,0.0324,0.013523,0.002678,0.000431,0.000000
255200,0.0324,0.013523,0.002678,0.000431,0.001175
255300,0.0324,0.013523,0.002678,0.000431,0.001175
255400,0.0324,0.013523,0.002678,0.000431,0.000000
255500,0.0324,0.013523,0.002678,0.000431,0.001175
255600,0.0324,0.013523,0.002678,0.000431,0.001175
255700,0.0324,0.013523,0.002678,0.000431,0.000000
255800,0.0324,0.013523,0.002678,0.000431,0.001175
255900,0.0324,0.013523,0.002678,0.000431,0.001175
256000,0.0324,0.013523,0.002678,0.000431,0.000000
256100,0.0324,0.013523,0.002678,0.000431,0.000000
256200,0.0324,0.013523,0.002678,0.000431,0.000000
256300,0.0324,0.013523,0.002678,0.000431,0.001175
256400,0.0324,0.013523,0.002678,0.000431,0.000000
256500,0.0324,0.013523,0.002678,0.000431,0.001175
256600,0.0324,0.013523,0.002678,0.000431,0.000000
256700,0.0324,0.013523,0.002678,0.000431,0.001175
256800,0.0324,0.013523,0.002678,0.000431,0.000000
256900,0.0324,0.013523,0.002678,0.000431,0.000000
257000,0.0324,0.013523,0.002678,0.000431,0.000000
257100,0.0324,0.013523,0.002678,0.000431,0.000000
257200,0.0324,0.013523,0.002678,0.000431,0.000000
257300,0.0324,0.013523,0.002678,0.000431,0.001175
257400,0.0324,0.013523,0.002678,0.000431,0.000000
257500,0.0324,0.013523,0.002678,0.000431,0.000000
257600,0.0324,0.013523,0.002678,0.000431,0.001175
257700,0.0324,0.013523,0.002678,0.000431,0.000000
257800,0.0324,0.013523,0.002678,0.000431,0.000000
257900,0.0324,0.013523,0.002678,0.000431,0.001175
258000,0.0324,0.013523,0.002678,0.000431,0.000000
258100,0.0324,0.013523,0.002678,0.000431,0.001175
258200,0.0324,0.013523,0.002678,0.000431,0.000000
258300,0.0324,0.013523,0.002678,0.000431,0.000000
258400,0.0324,0.013523,0.002678,0.000431,0.000000
258500,0.0324,0.013523,0.002678,0.000431,0.000000
258600,0.0324,0.013523,0.002678,0.000431,0.001175
258700,0.0324,0.013523,0.002678,0.000431,0.000000
258800,0.0324,0.013523,0.002678,0.000431,0.000000
258900,0.0324,0.013523,0.002678,0.000431,0.001175
259000,0.0324,0.013523,0.002678,0.000431,0.000000
259100,0.0324,0.013523,0.002678,0.000431,0.000000
259200,0.0324,0.013523,0.002678,0.000431,0.001175
259300,0.0324,0.013523,0.002678,0.000431,0.000000
259400,0.0324,0.013523,0.002678,0.000431,0.001175
259500,0.0324,0.013523,0.002678,0.000431,0.000000
259600,0.0324,0.013523,0.002678,0.000431,0.000000
259700,0.0324,0.013523,0.002678,0.000431,0.000000
259800,0.0324,0.013523,0.002678,0.000431,0.000000
259900,0.0324,0.013523,0.002678,0.000431,0.000000
260000,0.0324,0.013523,0.002678,0.000431,0.001175
260100,0.0324,0.013523,0.002678,0.000431,0.000000
260200,0.0324,0.013523,0.002678,0.000431,0.000000
260300,0.0324,0.013523,0.002678,0.000431,0.001175
260400,0.0324,0.013523,0.002678,0.000431,0.000000
260500,0.0324,0.013523,0.002678,0.000431,0.000000
260600,0.0324,0.013523,0.002678,0.000431,0.001175
260700,0.0324,0.013523,0.002678,0.000431,0.000000
260800,0.0324,0.013523,0.002678,0.000431,0.001175
260900,0.0324,0.013523,0.002678,0.000431,0.000000
261000,0.0324,0.013523,0.002678,0.000431,0.000000
261100,0.0324,0.013523,0.002678,0.000431,0.000000
261200,0.0324,0.013523,0.002678,0.000431,0.000000
261300,0.0324,0.013523,0.002678,0.000431,0.001175
261400,0.0324,0.013523,0.002678,0.000431,0.000000
261500,0.0324,0.013523,0.002678,0.000431,0.000000
261600,0.0324,0.013523,0.002678,0.000431,0.001175
261700,0.0324,0.013523,0.002678,0.000431,0.000000
261800,0.0324,0.013523,0.002678,0.000431,0.000000
261900,0.0324,0.013523,0.002678,0.000431,0.001175
262000,0.0324,0.013523,0.002678,0.000431,0.000000
262100,0.0324,0.013523,0.002678,0.000431,0.001175
262200,0.0324,0.013523,0.002678,0.000431,0.000000
262300,0.0324,0.013523,0.002678,0.000431,0.000000
262400,0.0324,0.013523,0.002678,0.000431,0.000000
262500,0.0324,0.013523,0.002678,0.000431,0.000000
262600,0.0324,0.013523,0.002678,0.000431,0.000000
262700,0.0324,0.013523,0.002678,0.000431,0.001175
262800,0.0324,0.013523,0.002678,0.000431,0.000000
262900,0.0324,0.013523,0.002678,0.000431,0.000000
263000,0.0324,0.013523,0.002678,0.000431,0.001175
263100,0.0324,0.013523,0.002678,0.000431,0.000000
263200,0.0324,0.013523,0.002678,0.000431,0.000000
263300,0.0324,0.013523,0.002678,0.000431,0.001175
263400,0.0324,0.013523,0.002678,0.000431,0.000000
263500,0.0324,0.013523,0.002678,0.000431,0.001175
263600,0.0324,0.013523,0.002678,0.000431,0.000000
263700,0.0324,0.013523,0.002678,0.000431,0.000000
263800,0.0324,0.013523,0.002678,0.000431,0.000000
263900,0.0324,0.013523,0.002678,0.000431,0.000000
264000,0.0324,0.013523,0.002678,0.000431,0.001175
264100,0.0324,0.013523,0.002678,0.000431,0.000000
264200,0.0324,0.013523,0.002678,0.000431,0.000000
264300,0.0324,0.013523,0.002678,0.000431,0.001175
264400,0.0324,0.013523,0.002678,0.000431,0.000000
264500,0.0324,0.013523,0.002678,0.000431,0.000000
264600,0.0324,0.013523,0.002678,0.000431,0.001175
264700,0.0324,0.013523,0.002678,0.000431,0.000000
264800,0.0324,0.013523,0.002678,0.000431,0.001175
264900,0.0324,0.013523,0.002678,0.000431,0.000000
265000,0.0324,0.013523,0.002678,0.000431,0.000000
265100,0.0324,0.013523,0.002678,0.000431,0.000000
265200,0.0324,0.013523,0.002678,0.000431,0.000000
265300,0.0324,0.013523,0.002678,0.000431,0.001175
265400,0.0324,0.013523,0.002678,0.000431,0.000000
265500,0.0324,0.013523,0.002678,0.000431,0.001175
265600,0.0324,0.013523,0.002678,0.000431,0.000000
265700,0.0324,0.013523,0.002678,0.000431,0.000000
265800,0.0324,0.013523,0.002678,0.000431,0.001175
265900,0.0324,0.013523,0.002678,0.000431,0.000000
266000,0.0324,0.013523,0.002678,0.000431,0.001175
266100,0.0324,0.013523,0.002678,0.000431,0.000000
266200,0.0324,0.013523,0.002678,0.000431,0.000000
