Cycle,Area(mm^2),PeakDynamic(W),SubthresholdLeakage(W),GateLeakage(W),RunTimeDynamic(W)
1000000,0.0324,0.013523,0.002678,0.000431,0.003173
1001000,0.0324,0.013523,0.002678,0.000431,0.002703
1002000,0.0324,0.013523,0.002678,0.000431,0.003291
1003000,0.0324,0.013523,0.002678,0.000431,0.003056
1004000,0.0324,0.013523,0.002678,0.000431,0.002821
1005000,0.0324,0.013523,0.002678,0.000431,0.003408
1006000,0.0324,0.013523,0.002678,0.000431,0.003291
1007000,0.0324,0.013523,0.002678,0.000431,0.002586
1008000,0.0324,0.013523,0.002678,0.000431,0.003173
1009000,0.0324,0.013523,0.002678,0.000431,0.003056
1010000,0.0324,0.013523,0.002678,0.000431,0.002586
1011000,0.0324,0.013523,0.002678,0.000431,0.003526
1012000,0.0324,0.013523,0.002678,0.000431,0.003291
1013000,0.0324,0.013523,0.002678,0.000431,0.003056
1014000,0.0324,0.013523,0.002678,0.000431,0.002938
1015000,0.0324,0.013523,0.002678,0.000431,0.003173
1016000,0.0324,0.013523,0.002678,0.000431,0.003056
1017000,0.0324,0.013523,0.002678,0.000431,0.003173
1018000,0.0324,0.013523,0.002678,0.000431,0.003408
1019000,0.0324,0.013523,0.002678,0.000431,0.002703
1020000,0.0324,0.013523,0.002678,0.000431,0.003173
1021000,0.0324,0.013523,0.002678,0.000431,0.003173
1022000,0.0324,0.013523,0.002678,0.000431,0.002938
1023000,0.0324,0.013523,0.002678,0.000431,0.002821
1024000,0.0324,0.013523,0.002678,0.000431,0.003173
1025000,0.0324,0.013523,0.002678,0.000431,0.003878
1026000,0.0324,0.013523,0.002678,0.000431,0.002233
1027000,0.0324,0.013523,0.002678,0.000431,0.002586
1028000,0.0324,0.013523,0.002678,0.000431,0.003526
1029000,0.0324,0.013523,0.002678,0.000431,0.003173
1030000,0.0324,0.013523,0.002678,0.000431,0.002468
1031000,0.0324,0.013523,0.002678,0.000431,0.003643
1032000,0.0324,0.013523,0.002678,0.000431,0.001880
1033000,0.0324,0.013523,0.002678,0.000431,0.003408
1034000,0.0324,0.013523,0.002678,0.000431,0.003408
1035000,0.0324,0.013523,0.002678,0.000431,0.002468
1036000,0.0324,0.013523,0.002678,0.000431,0.003056
1037000,0.0324,0.013523,0.002678,0.000431,0.003291
1038000,0.0324,0.013523,0.002678,0.000431,0.002468
1039000,0.0324,0.013523,0.002678,0.000431,0.003291
1040000,0.0324,0.013523,0.002678,0.000431,0.003056
1041000,0.0324,0.013523,0.002678,0.000431,0.002938
1042000,0.0324,0.013523,0.002678,0.000431,0.002468
1043000,0.0324,0.013523,0.002678,0.000431,0.003291
1044000,0.0324,0.013523,0.002678,0.000431,0.002586
1045000,0.0324,0.013523,0.002678,0.000431,0.003056
1046000,0.0324,0.013523,0.002678,0.000431,0.003408
1047000,0.0324,0.013523,0.002678,0.000431,0.003056
1048000,0.0324,0.013523,0.002678,0.000431,0.002938
1049000,0.0324,0.013523,0.002678,0.000431,0.003056
1050000,0.0324,0.013523,0.002678,0.000431,0.002586
1051000,0.0324,0.013523,0.002678,0.000431,0.002821
1052000,0.0324,0.013523,0.002678,0.000431,0.002703
1053000,0.0324,0.013523,0.002678,0.000431,0.002938
1054000,0.0324,0.013523,0.002678,0.000431,0.002468
1055000,0.0324,0.013523,0.002678,0.000431,0.003056
1056000,0.0324,0.013523,0.002678,0.000431,0.002233
1057000,0.0324,0.013523,0.002678,0.000431,0.002116
1058000,0.0324,0.013523,0.002678,0.000431,0.003761
1059000,0.0324,0.013523,0.002678,0.000431,0.003408
1060000,0.0324,0.013523,0.002678,0.000431,0.002938
1061000,0.0324,0.013523,0.002678,0.000431,0.002468
1062000,0.0324,0.013523,0.002678,0.000431,0.003291
1063000,0.0324,0.013523,0.002678,0.000431,0.002703
1064000,0.0324,0.013523,0.002678,0.000431,0.002351
1065000,0.0324,0.013523,0.002678,0.000431,0.003761
1066000,0.0324,0.013523,0.002678,0.000431,0.002468
1067000,0.0324,0.013523,0.002678,0.000431,0.002351
1068000,0.0324,0.013523,0.002678,0.000431,0.002938
1069000,0.0324,0.013523,0.002678,0.000431,0.003291
1070000,0.0324,0.013523,0.002678,0.000431,0.002233
1071000,0.0324,0.013523,0.002678,0.000431,0.003526
1072000,0.0324,0.013523,0.002678,0.000431,0.003173
1073000,0.0324,0.013523,0.002678,0.000431,0.002116
1074000,0.0324,0.013523,0.002678,0.000431,0.003408
1075000,0.0324,0.013523,0.002678,0.000431,0.003173
1076000,0.0324,0.013523,0.002678,0.000431,0.002233
1077000,0.0324,0.013523,0.002678,0.000431,0.002821
1078000,0.0324,0.013523,0.002678,0.000431,0.002233
1079000,0.0324,0.013523,0.002678,0.000431,0.001998
1080000,0.0324,0.013523,0.002678,0.000431,0.002468
1081000,0.0324,0.013523,0.002678,0.000431,0.001880
1082000,0.0324,0.013523,0.002678,0.000431,0.002116
1083000,0.0324,0.013523,0.002678,0.000431,0.002468
1084000,0.0324,0.013523,0.002678,0.000431,0.002233
1085000,0.0324,0.013523,0.002678,0.000431,0.002351
1086000,0.0324,0.013523,0.002678,0.000431,0.002116
1087000,0.0324,0.013523,0.002678,0.000431,0.002468
1088000,0.0324,0.013523,0.002678,0.000431,0.002703
1089000,0.0324,0.013523,0.002678,0.000431,0.001763
1090000,0.0324,0.013523,0.002678,0.000431,0.002468
1091000,0.0324,0.013523,0.002678,0.000431,0.002116
1092000,0.0324,0.013523,0.002678,0.000431,0.001880
1093000,0.0324,0.013523,0.002678,0.000431,0.002116
1094000,0.0324,0.013523,0.002678,0.000431,0.002468
1095000,0.0324,0.013523,0.002678,0.000431,0.002586
1096000,0.0324,0.013523,0.002678,0.000431,0.001880
1097000,0.0324,0.013523,0.002678,0.000431,0.002586
1098000,0.0324,0.013523,0.002678,0.000431,0.002821
1099000,0.0324,0.013523,0.002678,0.000431,0.002116
1100000,0.0324,0.013523,0.002678,0.000431,0.003408
1101000,0.0324,0.013523,0.002678,0.000431,0.002468
1102000,0.0324,0.013523,0.002678,0.000431,0.002586
1103000,0.0324,0.013523,0.002678,0.000431,0.002938
1104000,0.0324,0.013523,0.002678,0.000431,0.002233
1105000,0.0324,0.013523,0.002678,0.000431,0.002233
1106000,0.0324,0.013523,0.002678,0.000431,0.002233
1107000,0.0324,0.013523,0.002678,0.000431,0.002821
1108000,0.0324,0.013523,0.002678,0.000431,0.002468
1109000,0.0324,0.013523,0.002678,0.000431,0.002703
1110000,0.0324,0.013523,0.002678,0.000431,0.002821
1111000,0.0324,0.013523,0.002678,0.000431,0.002468
1112000,0.0324,0.013523,0.002678,0.000431,0.002116
1113000,0.0324,0.013523,0.002678,0.000431,0.002116
1114000,0.0324,0.013523,0.002678,0.000431,0.002703
1115000,0.0324,0.013523,0.002678,0.000431,0.002703
1116000,0.0324,0.013523,0.002678,0.000431,0.002821
1117000,0.0324,0.013523,0.002678,0.000431,0.002703
1118000,0.0324,0.013523,0.002678,0.000431,0.003056
1119000,0.0324,0.013523,0.002678,0.000431,0.002586
1120000,0.0324,0.013523,0.002678,0.000431,0.001880
1121000,0.0324,0.013523,0.002678,0.000431,0.002116
1122000,0.0324,0.013523,0.002678,0.000431,0.001998
1123000,0.0324,0.013523,0.002678,0.000431,0.002468
1124000,0.0324,0.013523,0.002678,0.000431,0.002703
1125000,0.0324,0.013523,0.002678,0.000431,0.002351
1126000,0.0324,0.013523,0.002678,0.000431,0.003056
1127000,0.0324,0.013523,0.002678,0.000431,0.002703
1128000,0.0324,0.013523,0.002678,0.000431,0.002351
1129000,0.0324,0.013523,0.002678,0.000431,0.002468
1130000,0.0324,0.013523,0.002678,0.000431,0.001763
1131000,0.0324,0.013523,0.002678,0.000431,0.002468
1132000,0.0324,0.013523,0.002678,0.000431,0.002703
1133000,0.0324,0.013523,0.002678,0.000431,0.001998
1134000,0.0324,0.013523,0.002678,0.000431,0.001998
1135000,0.0324,0.013523,0.002678,0.000431,0.001763
1136000,0.0324,0.013523,0.002678,0.000431,0.001998
1137000,0.0324,0.013523,0.002678,0.000431,0.001763
1138000,0.0324,0.013523,0.002678,0.000431,0.001410
1139000,0.0324,0.013523,0.002678,0.000431,0.001880
1140000,0.0324,0.013523,0.002678,0.000431,0.001763
1141000,0.0324,0.013523,0.002678,0.000431,0.001998
1142000,0.0324,0.013523,0.002678,0.000431,0.001998
1143000,0.0324,0.013523,0.002678,0.000431,0.001880
1144000,0.0324,0.013523,0.002678,0.000431,0.001880
1145000,0.0324,0.013523,0.002678,0.000431,0.001998
1146000,0.0324,0.013523,0.002678,0.000431,0.001645
1147000,0.0324,0.013523,0.002678,0.000431,0.001410
1148000,0.0324,0.013523,0.002678,0.000431,0.001998
1149000,0.0324,0.013523,0.002678,0.000431,0.000940
1150000,0.0324,0.013523,0.002678,0.000431,0.000823
1151000,0.0324,0.013523,0.002678,0.000431,0.000823
1152000,0.0324,0.013523,0.002678,0.000431,0.000940
1153000,0.0324,0.013523,0.002678,0.000431,0.000940
1154000,0.0324,0.013523,0.002678,0.000431,0.000940
1155000,0.0324,0.013523,0.002678,0.000431,0.000823
1156000,0.0324,0.013523,0.002678,0.000431,0.000823
1157000,0.0324,0.013523,0.002678,0.000431,0.000940
1158000,0.0324,0.013523,0.002678,0.000431,0.001058
1159000,0.0324,0.013523,0.002678,0.000431,0.000940
1160000,0.0324,0.013523,0.002678,0.000431,0.000823
1161000,0.0324,0.013523,0.002678,0.000431,0.000705
1162000,0.0324,0.013523,0.002678,0.000431,0.001058
1163000,0.0324,0.013523,0.002678,0.000431,0.000588
1164000,0.0324,0.013523,0.002678,0.000431,0.000940
1165000,0.0324,0.013523,0.002678,0.000431,0.000823
1166000,0.0324,0.013523,0.002678,0.000431,0.000823
1167000,0.0324,0.013523,0.002678,0.000431,0.000705
1168000,0.0324,0.013523,0.002678,0.000431,0.000940
1169000,0.0324,0.013523,0.002678,0.000431,0.001058
1170000,0.0324,0.013523,0.002678,0.000431,0.000588
1171000,0.0324,0.013523,0.002678,0.000431,0.001175
1172000,0.0324,0.013523,0.002678,0.000431,0.000823
1173000,0.0324,0.013523,0.002678,0.000431,0.000823
1174000,0.0324,0.013523,0.002678,0.000431,0.000940
1175000,0.0324,0.013523,0.002678,0.000431,0.000940
1176000,0.0324,0.013523,0.002678,0.000431,0.000705
1177000,0.0324,0.013523,0.002678,0.000431,0.000940
1178000,0.0324,0.013523,0.002678,0.000431,0.000940
1179000,0.0324,0.013523,0.002678,0.000431,0.000940
1180000,0.0324,0.013523,0.002678,0.000431,0.000705
1181000,0.0324,0.013523,0.002678,0.000431,0.000940
1182000,0.0324,0.013523,0.002678,0.000431,0.000940
1183000,0.0324,0.013523,0.002678,0.000431,0.000470
1184000,0.0324,0.013523,0.002678,0.000431,0.000705
1185000,0.0324,0.013523,0.002678,0.000431,0.000940
1186000,0.0324,0.013523,0.002678,0.000431,0.000940
1187000,0.0324,0.013523,0.002678,0.000431,0.000940
1188000,0.0324,0.013523,0.002678,0.000431,0.000940
1189000,0.0324,0.013523,0.002678,0.000431,0.000940
1190000,0.0324,0.013523,0.002678,0.000431,0.000823
1191000,0.0324,0.013523,0.002678,0.000431,0.000823
1192000,0.0324,0.013523,0.002678,0.000431,0.000940
1193000,0.0324,0.013523,0.002678,0.000431,0.000940
1194000,0.0324,0.013523,0.002678,0.000431,0.000940
1195000,0.0324,0.013523,0.002678,0.000431,0.000705
1196000,0.0324,0.013523,0.002678,0.000431,0.000940
1197000,0.0324,0.013523,0.002678,0.000431,0.000940
1198000,0.0324,0.013523,0.002678,0.000431,0.000823
1199000,0.0324,0.013523,0.002678,0.000431,0.000823
1200000,0.0324,0.013523,0.002678,0.000431,0.000705
1201000,0.0324,0.013523,0.002678,0.000431,0.000940
1202000,0.0324,0.013523,0.002678,0.000431,0.000940
1203000,0.0324,0.013523,0.002678,0.000431,0.000940
1204000,0.0324,0.013523,0.002678,0.000431,0.000940
1205000,0.0324,0.013523,0.002678,0.000431,0.000940
1206000,0.0324,0.013523,0.002678,0.000431,0.000940
1207000,0.0324,0.013523,0.002678,0.000431,0.000940
1208000,0.0324,0.013523,0.002678,0.000431,0.000823
1209000,0.0324,0.013523,0.002678,0.000431,0.001058
1210000,0.0324,0.013523,0.002678,0.000431,0.000940
1211000,0.0324,0.013523,0.002678,0.000431,0.000470
1212000,0.0324,0.013523,0.002678,0.000431,0.000940
1213000,0.0324,0.013523,0.002678,0.000431,0.001058
1214000,0.0324,0.013523,0.002678,0.000431,0.000823
1215000,0.0324,0.013523,0.002678,0.000431,0.000940
1216000,0.0324,0.013523,0.002678,0.000431,0.000940
1217000,0.0324,0.013523,0.002678,0.000431,0.000705
1218000,0.0324,0.013523,0.002678,0.000431,0.001058
1219000,0.0324,0.013523,0.002678,0.000431,0.000940
1220000,0.0324,0.013523,0.002678,0.000431,0.000823
1221000,0.0324,0.013523,0.002678,0.000431,0.000705
1222000,0.0324,0.013523,0.002678,0.000431,0.000940
1223000,0.0324,0.013523,0.002678,0.000431,0.000823
1224000,0.0324,0.013523,0.002678,0.000431,0.000588
1225000,0.0324,0.013523,0.002678,0.000431,0.001058
1226000,0.0324,0.013523,0.002678,0.000431,0.000940
1227000,0.0324,0.013523,0.002678,0.000431,0.000588
1228000,0.0324,0.013523,0.002678,0.000431,0.000588
1229000,0.0324,0.013523,0.002678,0.000431,0.000823
1230000,0.0324,0.013523,0.002678,0.000431,0.000940
1231000,0.0324,0.013523,0.002678,0.000431,0.000940
1232000,0.0324,0.013523,0.002678,0.000431,0.000940
1233000,0.0324,0.013523,0.002678,0.000431,0.000705
1234000,0.0324,0.013523,0.002678,0.000431,0.000940
1235000,0.0324,0.013523,0.002678,0.000431,0.001175
1236000,0.0324,0.013523,0.002678,0.000431,0.000705
1237000,0.0324,0.013523,0.002678,0.000431,0.000940
1238000,0.0324,0.013523,0.002678,0.000431,0.000940
1239000,0.0324,0.013523,0.002678,0.000431,0.001058
1240000,0.0324,0.013523,0.002678,0.000431,0.000823
1241000,0.0324,0.013523,0.002678,0.000431,0.001175
1242000,0.0324,0.013523,0.002678,0.000431,0.000940
1243000,0.0324,0.013523,0.002678,0.000431,0.000940
1244000,0.0324,0.013523,0.002678,0.000431,0.001058
1245000,0.0324,0.013523,0.002678,0.000431,0.000823
1246000,0.0324,0.013523,0.002678,0.000431,0.001058
1247000,0.0324,0.013523,0.002678,0.000431,0.001058
1248000,0.0324,0.013523,0.002678,0.000431,0.000940
1249000,0.0324,0.013523,0.002678,0.000431,0.000823
1250000,0.0324,0.013523,0.002678,0.000431,0.000940
1251000,0.0324,0.013523,0.002678,0.000431,0.000823
1252000,0.0324,0.013523,0.002678,0.000431,0.000940
1253000,0.0324,0.013523,0.002678,0.000431,0.001175
1254000,0.0324,0.013523,0.002678,0.000431,0.000823
1255000,0.0324,0.013523,0.002678,0.000431,0.000823
1256000,0.0324,0.013523,0.002678,0.000431,0.000940
1257000,0.0324,0.013523,0.002678,0.000431,0.000823
1258000,0.0324,0.013523,0.002678,0.000431,0.000823
1259000,0.0324,0.013523,0.002678,0.000431,0.000940
1260000,0.0324,0.013523,0.002678,0.000431,0.000940
1261000,0.0324,0.013523,0.002678,0.000431,0.000705
1262000,0.0324,0.013523,0.002678,0.000431,0.000940
1263000,0.0324,0.013523,0.002678,0.000431,0.000940
1264000,0.0324,0.013523,0.002678,0.000431,0.001058
1265000,0.0324,0.013523,0.002678,0.000431,0.000940
1266000,0.0324,0.013523,0.002678,0.000431,0.000823
1267000,0.0324,0.013523,0.002678,0.000431,0.000705
1268000,0.0324,0.013523,0.002678,0.000431,0.000705
1269000,0.0324,0.013523,0.002678,0.000431,0.000705
1270000,0.0324,0.013523,0.002678,0.000431,0.001058
1271000,0.0324,0.013523,0.002678,0.000431,0.000823
1272000,0.0324,0.013523,0.002678,0.000431,0.000940
1273000,0.0324,0.013523,0.002678,0.000431,0.000823
1274000,0.0324,0.013523,0.002678,0.000431,0.001058
1275000,0.0324,0.013523,0.002678,0.000431,0.000940
1276000,0.0324,0.013523,0.002678,0.000431,0.000940
1277000,0.0324,0.013523,0.002678,0.000431,0.000705
1278000,0.0324,0.013523,0.002678,0.000431,0.000940
1279000,0.0324,0.013523,0.002678,0.000431,0.000705
1280000,0.0324,0.013523,0.002678,0.000431,0.001175
1281000,0.0324,0.013523,0.002678,0.000431,0.000940
1282000,0.0324,0.013523,0.002678,0.000431,0.000705
1283000,0.0324,0.013523,0.002678,0.000431,0.001058
1284000,0.0324,0.013523,0.002678,0.000431,0.001058
1285000,0.0324,0.013523,0.002678,0.000431,0.000940
1286000,0.0324,0.013523,0.002678,0.000431,0.000940
1287000,0.0324,0.013523,0.002678,0.000431,0.000823
1288000,0.0324,0.013523,0.002678,0.000431,0.000940
1289000,0.0324,0.013523,0.002678,0.000431,0.000823
1290000,0.0324,0.013523,0.002678,0.000431,0.000940
1291000,0.0324,0.013523,0.002678,0.000431,0.000940
1292000,0.0324,0.013523,0.002678,0.000431,0.000823
1293000,0.0324,0.013523,0.002678,0.000431,0.000823
1294000,0.0324,0.013523,0.002678,0.000431,0.000940
1295000,0.0324,0.013523,0.002678,0.000431,0.000940
1296000,0.0324,0.013523,0.002678,0.000431,0.000823
1297000,0.0324,0.013523,0.002678,0.000431,0.000823
1298000,0.0324,0.013523,0.002678,0.000431,0.000705
1299000,0.0324,0.013523,0.002678,0.000431,0.000705
1300000,0.0324,0.013523,0.002678,0.000431,0.000705
1301000,0.0324,0.013523,0.002678,0.000431,0.000940
1302000,0.0324,0.013523,0.002678,0.000431,0.000940
1303000,0.0324,0.013523,0.002678,0.000431,0.001058
1304000,0.0324,0.013523,0.002678,0.000431,0.000823
1305000,0.0324,0.013523,0.002678,0.000431,0.000823
1306000,0.0324,0.013523,0.002678,0.000431,0.000823
1307000,0.0324,0.013523,0.002678,0.000431,0.000940
1308000,0.0324,0.013523,0.002678,0.000431,0.001175
1309000,0.0324,0.013523,0.002678,0.000431,0.000705
1310000,0.0324,0.013523,0.002678,0.000431,0.000940
1311000,0.0324,0.013523,0.002678,0.000431,0.001058
1312000,0.0324,0.013523,0.002678,0.000431,0.000588
1313000,0.0324,0.013523,0.002678,0.000431,0.000705
1314000,0.0324,0.013523,0.002678,0.000431,0.000940
1315000,0.0324,0.013523,0.002678,0.000431,0.000705
1316000,0.0324,0.013523,0.002678,0.000431,0.000470
1317000,0.0324,0.013523,0.002678,0.000431,0.000940
1318000,0.0324,0.013523,0.002678,0.000431,0.000940
1319000,0.0324,0.013523,0.002678,0.000431,0.000940
1320000,0.0324,0.013523,0.002678,0.000431,0.000940
1321000,0.0324,0.013523,0.002678,0.000431,0.000940
1322000,0.0324,0.013523,0.002678,0.000431,0.000940
1323000,0.0324,0.013523,0.002678,0.000431,0.000705
1324000,0.0324,0.013523,0.002678,0.000431,0.000940
1325000,0.0324,0.013523,0.002678,0.000431,0.000940
1326000,0.0324,0.013523,0.002678,0.000431,0.000940
1327000,0.0324,0.013523,0.002678,0.000431,0.000705
1328000,0.0324,0.013523,0.002678,0.000431,0.000940
1329000,0.0324,0.013523,0.002678,0.000431,0.000940
1330000,0.0324,0.013523,0.002678,0.000431,0.000705
1331000,0.0324,0.013523,0.002678,0.000431,0.001058
1332000,0.0324,0.013523,0.002678,0.000431,0.000940
1333000,0.0324,0.013523,0.002678,0.000431,0.000705
1334000,0.0324,0.013523,0.002678,0.000431,0.001058
1335000,0.0324,0.013523,0.002678,0.000431,0.000940
1336000,0.0324,0.013523,0.002678,0.000431,0.000823
1337000,0.0324,0.013523,0.002678,0.000431,0.000940
1338000,0.0324,0.013523,0.002678,0.000431,0.001058
1339000,0.0324,0.013523,0.002678,0.000431,0.000940
1340000,0.0324,0.013523,0.002678,0.000431,0.000705
1341000,0.0324,0.013523,0.002678,0.000431,0.000940
1342000,0.0324,0.013523,0.002678,0.000431,0.000940
1343000,0.0324,0.013523,0.002678,0.000431,0.000823
1344000,0.0324,0.013523,0.002678,0.000431,0.001058
1345000,0.0324,0.013523,0.002678,0.000431,0.000940
1346000,0.0324,0.013523,0.002678,0.000431,0.000940
1347000,0.0324,0.013523,0.002678,0.000431,0.000823
1348000,0.0324,0.013523,0.002678,0.000431,0.000823
1349000,0.0324,0.013523,0.002678,0.000431,0.000940
1350000,0.0324,0.013523,0.002678,0.000431,0.000940
1351000,0.0324,0.013523,0.002678,0.000431,0.000705
1352000,0.0324,0.013523,0.002678,0.000431,0.000705
1353000,0.0324,0.013523,0.002678,0.000431,0.000940
1354000,0.0324,0.013523,0.002678,0.000431,0.000823
1355000,0.0324,0.013523,0.002678,0.000431,0.000823
1356000,0.0324,0.013523,0.002678,0.000431,0.000940
1357000,0.0324,0.013523,0.002678,0.000431,0.000705
1358000,0.0324,0.013523,0.002678,0.000431,0.000470
1359000,0.0324,0.013523,0.002678,0.000431,0.001058
1360000,0.0324,0.013523,0.002678,0.000431,0.000940
1361000,0.0324,0.013523,0.002678,0.000431,0.000823
1362000,0.0324,0.013523,0.002678,0.000431,0.000940
1363000,0.0324,0.013523,0.002678,0.000431,0.000940
1364000,0.0324,0.013523,0.002678,0.000431,0.000940
1365000,0.0324,0.013523,0.002678,0.000431,0.000940
1366000,0.0324,0.013523,0.002678,0.000431,0.000940
1367000,0.0324,0.013523,0.002678,0.000431,0.000940
1368000,0.0324,0.013523,0.002678,0.000431,0.000940
1369000,0.0324,0.013523,0.002678,0.000431,0.000940
1370000,0.0324,0.013523,0.002678,0.000431,0.000705
1371000,0.0324,0.013523,0.002678,0.000431,0.000705
1372000,0.0324,0.013523,0.002678,0.000431,0.000940
1373000,0.0324,0.013523,0.002678,0.000431,0.000940
1374000,0.0324,0.013523,0.002678,0.000431,0.000940
1375000,0.0324,0.013523,0.002678,0.000431,0.000705
1376000,0.0324,0.013523,0.002678,0.000431,0.000940
1377000,0.0324,0.013523,0.002678,0.000431,0.000940
1378000,0.0324,0.013523,0.002678,0.000431,0.000705
1379000,0.0324,0.013523,0.002678,0.000431,0.000470
1380000,0.0324,0.013523,0.002678,0.000431,0.000705
1381000,0.0324,0.013523,0.002678,0.000431,0.000823
1382000,0.0324,0.013523,0.002678,0.000431,0.000823
1383000,0.0324,0.013523,0.002678,0.000431,0.000940
1384000,0.0324,0.013523,0.002678,0.000431,0.000823
1385000,0.0324,0.013523,0.002678,0.000431,0.000823
1386000,0.0324,0.013523,0.002678,0.000431,0.000940
1387000,0.0324,0.013523,0.002678,0.000431,0.000823
1388000,0.0324,0.013523,0.002678,0.000431,0.000823
1389000,0.0324,0.013523,0.002678,0.000431,0.000940
1390000,0.0324,0.013523,0.002678,0.000431,0.000470
1391000,0.0324,0.013523,0.002678,0.000431,0.001058
1392000,0.0324,0.013523,0.002678,0.000431,0.000940
1393000,0.0324,0.013523,0.002678,0.000431,0.000823
1394000,0.0324,0.013523,0.002678,0.000431,0.000823
1395000,0.0324,0.013523,0.002678,0.000431,0.000940
1396000,0.0324,0.013523,0.002678,0.000431,0.000588
1397000,0.0324,0.013523,0.002678,0.000431,0.000940
1398000,0.0324,0.013523,0.002678,0.000431,0.000705
1399000,0.0324,0.013523,0.002678,0.000431,0.000940
1400000,0.0324,0.013523,0.002678,0.000431,0.000940
1401000,0.0324,0.013523,0.002678,0.000431,0.001058
1402000,0.0324,0.013523,0.002678,0.000431,0.000588
1403000,0.0324,0.013523,0.002678,0.000431,0.000940
1404000,0.0324,0.013523,0.002678,0.000431,0.001058
1405000,0.0324,0.013523,0.002678,0.000431,0.000588
1406000,0.0324,0.013523,0.002678,0.000431,0.001175
1407000,0.0324,0.013523,0.002678,0.000431,0.000705
1408000,0.0324,0.013523,0.002678,0.000431,0.000705
1409000,0.0324,0.013523,0.002678,0.000431,0.001175
1410000,0.0324,0.013523,0.002678,0.000431,0.000823
1411000,0.0324,0.013523,0.002678,0.000431,0.000823
1412000,0.0324,0.013523,0.002678,0.000431,0.000940
1413000,0.0324,0.013523,0.002678,0.000431,0.000940
1414000,0.0324,0.013523,0.002678,0.000431,0.000940
1415000,0.0324,0.013523,0.002678,0.000431,0.000823
1416000,0.0324,0.013523,0.002678,0.000431,0.000940
1417000,0.0324,0.013523,0.002678,0.000431,0.000588
1418000,0.0324,0.013523,0.002678,0.000431,0.000588
1419000,0.0324,0.013523,0.002678,0.000431,0.000940
1420000,0.0324,0.013523,0.002678,0.000431,0.000588
1421000,0.0324,0.013523,0.002678,0.000431,0.000940
1422000,0.0324,0.013523,0.002678,0.000431,0.000940
1423000,0.0324,0.013523,0.002678,0.000431,0.000940
1424000,0.0324,0.013523,0.002678,0.000431,0.001058
1425000,0.0324,0.013523,0.002678,0.000431,0.000588
1426000,0.0324,0.013523,0.002678,0.000431,0.000940
1427000,0.0324,0.013523,0.002678,0.000431,0.000940
1428000,0.0324,0.013523,0.002678,0.000431,0.000705
1429000,0.0324,0.013523,0.002678,0.000431,0.000940
1430000,0.0324,0.013523,0.002678,0.000431,0.000940
1431000,0.0324,0.013523,0.002678,0.000431,0.000823
1432000,0.0324,0.013523,0.002678,0.000431,0.000940
1433000,0.0324,0.013523,0.002678,0.000431,0.000940
1434000,0.0324,0.013523,0.002678,0.000431,0.000823
1435000,0.0324,0.013523,0.002678,0.000431,0.000940
1436000,0.0324,0.013523,0.002678,0.000431,0.000940
1437000,0.0324,0.013523,0.002678,0.000431,0.000470
1438000,0.0324,0.013523,0.002678,0.000431,0.000940
1439000,0.0324,0.013523,0.002678,0.000431,0.000705
1440000,0.0324,0.013523,0.002678,0.000431,0.000705
1441000,0.0324,0.013523,0.002678,0.000431,0.000940
1442000,0.0324,0.013523,0.002678,0.000431,0.000940
1443000,0.0324,0.013523,0.002678,0.000431,0.000705
1444000,0.0324,0.013523,0.002678,0.000431,0.000940
1445000,0.0324,0.013523,0.002678,0.000431,0.000705
1446000,0.0324,0.013523,0.002678,0.000431,0.000940
1447000,0.0324,0.013523,0.002678,0.000431,0.000940
1448000,0.0324,0.013523,0.002678,0.000431,0.000705
1449000,0.0324,0.013523,0.002678,0.000431,0.000940
1450000,0.0324,0.013523,0.002678,0.000431,0.000940
1451000,0.0324,0.013523,0.002678,0.000431,0.001058
1452000,0.0324,0.013523,0.002678,0.000431,0.001175
1453000,0.0324,0.013523,0.002678,0.000431,0.000940
1454000,0.0324,0.013523,0.002678,0.000431,0.001058
1455000,0.0324,0.013523,0.002678,0.000431,0.000940
1456000,0.0324,0.013523,0.002678,0.000431,0.000940
1457000,0.0324,0.013523,0.002678,0.000431,0.000940
1458000,0.0324,0.013523,0.002678,0.000431,0.000940
1459000,0.0324,0.013523,0.002678,0.000431,0.000940
1460000,0.0324,0.013523,0.002678,0.000431,0.001058
1461000,0.0324,0.013523,0.002678,0.000431,0.001058
1462000,0.0324,0.013523,0.002678,0.000431,0.001175
1463000,0.0324,0.013523,0.002678,0.000431,0.000823
1464000,0.0324,0.013523,0.002678,0.000431,0.001058
1465000,0.0324,0.013523,0.002678,0.000431,0.000940
1466000,0.0324,0.013523,0.002678,0.000431,0.000940
1467000,0.0324,0.013523,0.002678,0.000431,0.000940
1468000,0.0324,0.013523,0.002678,0.000431,0.000940
1469000,0.0324,0.013523,0.002678,0.000431,0.000940
1470000,0.0324,0.013523,0.002678,0.000431,0.001058
1471000,0.0324,0.013523,0.002678,0.000431,0.001058
1472000,0.0324,0.013523,0.002678,0.000431,0.000823
1473000,0.0324,0.013523,0.002678,0.000431,0.000823
1474000,0.0324,0.013523,0.002678,0.000431,0.000940
1475000,0.0324,0.013523,0.002678,0.000431,0.000940
1476000,0.0324,0.013523,0.002678,0.000431,0.000823
1477000,0.0324,0.013523,0.002678,0.000431,0.000823
1478000,0.0324,0.013523,0.002678,0.000431,0.000940
1479000,0.0324,0.013523,0.002678,0.000431,0.000940
1480000,0.0324,0.013523,0.002678,0.000431,0.000940
1481000,0.0324,0.013523,0.002678,0.000431,0.000940
1482000,0.0324,0.013523,0.002678,0.000431,0.000940
1483000,0.0324,0.013523,0.002678,0.000431,0.001175
1484000,0.0324,0.013523,0.002678,0.000431,0.000940
1485000,0.0324,0.013523,0.002678,0.000431,0.000470
1486000,0.0324,0.013523,0.002678,0.000431,0.001058
1487000,0.0324,0.013523,0.002678,0.000431,0.000940
1488000,0.0324,0.013523,0.002678,0.000431,0.000823
1489000,0.0324,0.013523,0.002678,0.000431,0.000940
1490000,0.0324,0.013523,0.002678,0.000431,0.000940
1491000,0.0324,0.013523,0.002678,0.000431,0.001058
1492000,0.0324,0.013523,0.002678,0.000431,0.000823
1493000,0.0324,0.013523,0.002678,0.000431,0.000940
1494000,0.0324,0.013523,0.002678,0.000431,0.000823
1495000,0.0324,0.013523,0.002678,0.000431,0.000823
1496000,0.0324,0.013523,0.002678,0.000431,0.000940
1497000,0.0324,0.013523,0.002678,0.000431,0.001058
1498000,0.0324,0.013523,0.002678,0.000431,0.000823
1499000,0.0324,0.013523,0.002678,0.000431,0.000705
1500000,0.0324,0.013523,0.002678,0.000431,0.001058
1501000,0.0324,0.013523,0.002678,0.000431,0.000940
1502000,0.0324,0.013523,0.002678,0.000431,0.000588
1503000,0.0324,0.013523,0.002678,0.000431,0.001058
1504000,0.0324,0.013523,0.002678,0.000431,0.000823
1505000,0.0324,0.013523,0.002678,0.000431,0.000940
1506000,0.0324,0.013523,0.002678,0.000431,0.000940
1507000,0.0324,0.013523,0.002678,0.000431,0.000823
1508000,0.0324,0.013523,0.002678,0.000431,0.000823
1509000,0.0324,0.013523,0.002678,0.000431,0.000940
1510000,0.0324,0.013523,0.002678,0.000431,0.000940
1511000,0.0324,0.013523,0.002678,0.000431,0.000823
1512000,0.0324,0.013523,0.002678,0.000431,0.000823
1513000,0.0324,0.013523,0.002678,0.000431,0.000940
1514000,0.0324,0.013523,0.002678,0.000431,0.000823
1515000,0.0324,0.013523,0.002678,0.000431,0.000823
1516000,0.0324,0.013523,0.002678,0.000431,0.000940
1517000,0.0324,0.013523,0.002678,0.000431,0.001175
1518000,0.0324,0.013523,0.002678,0.000431,0.000940
1519000,0.0324,0.013523,0.002678,0.000431,0.000940
1520000,0.0324,0.013523,0.002678,0.000431,0.000705
1521000,0.0324,0.013523,0.002678,0.000431,0.000823
1522000,0.0324,0.013523,0.002678,0.000431,0.000705
1523000,0.0324,0.013523,0.002678,0.000431,0.000823
1524000,0.0324,0.013523,0.002678,0.000431,0.000705
1525000,0.0324,0.013523,0.002678,0.000431,0.001058
1526000,0.0324,0.013523,0.002678,0.000431,0.000940
1527000,0.0324,0.013523,0.002678,0.000431,0.000823
1528000,0.0324,0.013523,0.002678,0.000431,0.000940
1529000,0.0324,0.013523,0.002678,0.000431,0.000940
1530000,0.0324,0.013523,0.002678,0.000431,0.000940
1531000,0.0324,0.013523,0.002678,0.000431,0.000705
1532000,0.0324,0.013523,0.002678,0.000431,0.000705
1533000,0.0324,0.013523,0.002678,0.000431,0.000940
1534000,0.0324,0.013523,0.002678,0.000431,0.000705
1535000,0.0324,0.013523,0.002678,0.000431,0.000940
1536000,0.0324,0.013523,0.002678,0.000431,0.000940
1537000,0.0324,0.013523,0.002678,0.000431,0.000940
1538000,0.0324,0.013523,0.002678,0.000431,0.000940
1539000,0.0324,0.013523,0.002678,0.000431,0.000940
1540000,0.0324,0.013523,0.002678,0.000431,0.000940
1541000,0.0324,0.013523,0.002678,0.000431,0.000823
1542000,0.0324,0.013523,0.002678,0.000431,0.000940
1543000,0.0324,0.013523,0.002678,0.000431,0.001058
1544000,0.0324,0.013523,0.002678,0.000431,0.000940
1545000,0.0324,0.013523,0.002678,0.000431,0.000940
1546000,0.0324,0.013523,0.002678,0.000431,0.000940
1547000,0.0324,0.013523,0.002678,0.000431,0.001058
1548000,0.0324,0.013523,0.002678,0.000431,0.000823
1549000,0.0324,0.013523,0.002678,0.000431,0.000705
1550000,0.0324,0.013523,0.002678,0.000431,0.001058
1551000,0.0324,0.013523,0.002678,0.000431,0.000940
1552000,0.0324,0.013523,0.002678,0.000431,0.000823
1553000,0.0324,0.013523,0.002678,0.000431,0.000940
1554000,0.0324,0.013523,0.002678,0.000431,0.001058
1555000,0.0324,0.013523,0.002678,0.000431,0.000823
1556000,0.0324,0.013523,0.002678,0.000431,0.000705
1557000,0.0324,0.013523,0.002678,0.000431,0.000705
1558000,0.0324,0.013523,0.002678,0.000431,0.000940
1559000,0.0324,0.013523,0.002678,0.000431,0.001058
1560000,0.0324,0.013523,0.002678,0.000431,0.000823
1561000,0.0324,0.013523,0.002678,0.000431,0.001058
1562000,0.0324,0.013523,0.002678,0.000431,0.000823
1563000,0.0324,0.013523,0.002678,0.000431,0.000940
1564000,0.0324,0.013523,0.002678,0.000431,0.000940
1565000,0.0324,0.013523,0.002678,0.000431,0.000823
1566000,0.0324,0.013523,0.002678,0.000431,0.000823
1567000,0.0324,0.013523,0.002678,0.000431,0.000940
1568000,0.0324,0.013523,0.002678,0.000431,0.000823
1569000,0.0324,0.013523,0.002678,0.000431,0.000823
1570000,0.0324,0.013523,0.002678,0.000431,0.000940
1571000,0.0324,0.013523,0.002678,0.000431,0.000940
1572000,0.0324,0.013523,0.002678,0.000431,0.000705
1573000,0.0324,0.013523,0.002678,0.000431,0.000823
1574000,0.0324,0.013523,0.002678,0.000431,0.000940
1575000,0.0324,0.013523,0.002678,0.000431,0.000823
1576000,0.0324,0.013523,0.002678,0.000431,0.000705
1577000,0.0324,0.013523,0.002678,0.000431,0.001058
1578000,0.0324,0.013523,0.002678,0.000431,0.000588
1579000,0.0324,0.013523,0.002678,0.000431,0.000823
1580000,0.0324,0.013523,0.002678,0.000431,0.001058
1581000,0.0324,0.013523,0.002678,0.000431,0.000940
1582000,0.0324,0.013523,0.002678,0.000431,0.000940
1583000,0.0324,0.013523,0.002678,0.000431,0.000940
1584000,0.0324,0.013523,0.002678,0.000431,0.000705
1585000,0.0324,0.013523,0.002678,0.000431,0.000823
1586000,0.0324,0.013523,0.002678,0.000431,0.000823
1587000,0.0324,0.013523,0.002678,0.000431,0.000588
1588000,0.0324,0.013523,0.002678,0.000431,0.001058
1589000,0.0324,0.013523,0.002678,0.000431,0.000940
1590000,0.0324,0.013523,0.002678,0.000431,0.000940
1591000,0.0324,0.013523,0.002678,0.000431,0.000705
1592000,0.0324,0.013523,0.002678,0.000431,0.001058
1593000,0.0324,0.013523,0.002678,0.000431,0.000940
1594000,0.0324,0.013523,0.002678,0.000431,0.000823
1595000,0.0324,0.013523,0.002678,0.000431,0.000705
1596000,0.0324,0.013523,0.002678,0.000431,0.001058
1597000,0.0324,0.013523,0.002678,0.000431,0.000940
1598000,0.0324,0.013523,0.002678,0.000431,0.000588
1599000,0.0324,0.013523,0.002678,0.000431,0.001175
1600000,0.0324,0.013523,0.002678,0.000431,0.000470
1601000,0.0324,0.013523,0.002678,0.000431,0.000940
1602000,0.0324,0.013523,0.002678,0.000431,0.000823
1603000,0.0324,0.013523,0.002678,0.000431,0.000823
1604000,0.0324,0.013523,0.002678,0.000431,0.000940
1605000,0.0324,0.013523,0.002678,0.000431,0.000940
1606000,0.0324,0.013523,0.002678,0.000431,0.000705
1607000,0.0324,0.013523,0.002678,0.000431,0.000940
1608000,0.0324,0.013523,0.002678,0.000431,0.000823
1609000,0.0324,0.013523,0.002678,0.000431,0.000823
1610000,0.0324,0.013523,0.002678,0.000431,0.001058
1611000,0.0324,0.013523,0.002678,0.000431,0.000940
1612000,0.0324,0.013523,0.002678,0.000431,0.000823
1613000,0.0324,0.013523,0.002678,0.000431,0.000940
1614000,0.0324,0.013523,0.002678,0.000431,0.000940
1615000,0.0324,0.013523,0.002678,0.000431,0.000940
1616000,0.0324,0.013523,0.002678,0.000431,0.000705
1617000,0.0324,0.013523,0.002678,0.000431,0.000940
1618000,0.0324,0.013523,0.002678,0.000431,0.000940
1619000,0.0324,0.013523,0.002678,0.000431,0.000940
1620000,0.0324,0.013523,0.002678,0.000431,0.000940
1621000,0.0324,0.013523,0.002678,0.000431,0.000705
1622000,0.0324,0.013523,0.002678,0.000431,0.000940
1623000,0.0324,0.013523,0.002678,0.000431,0.000940
1624000,0.0324,0.013523,0.002678,0.000431,0.000823
1625000,0.0324,0.013523,0.002678,0.000431,0.000940
1626000,0.0324,0.013523,0.002678,0.000431,0.000940
1627000,0.0324,0.013523,0.002678,0.000431,0.000823
1628000,0.0324,0.013523,0.002678,0.000431,0.000940
1629000,0.0324,0.013523,0.002678,0.000431,0.000940
1630000,0.0324,0.013523,0.002678,0.000431,0.000940
1631000,0.0324,0.013523,0.002678,0.000431,0.000940
1632000,0.0324,0.013523,0.002678,0.000431,0.001175
1633000,0.0324,0.013523,0.002678,0.000431,0.000940
1634000,0.0324,0.013523,0.002678,0.000431,0.000940
1635000,0.0324,0.013523,0.002678,0.000431,0.000940
1636000,0.0324,0.013523,0.002678,0.000431,0.000940
1637000,0.0324,0.013523,0.002678,0.000431,0.000940
1638000,0.0324,0.013523,0.002678,0.000431,0.001058
1639000,0.0324,0.013523,0.002678,0.000431,0.000823
1640000,0.0324,0.013523,0.002678,0.000431,0.000940
1641000,0.0324,0.013523,0.002678,0.000431,0.000940
1642000,0.0324,0.013523,0.002678,0.000431,0.000940
1643000,0.0324,0.013523,0.002678,0.000431,0.000940
1644000,0.0324,0.013523,0.002678,0.000431,0.000940
1645000,0.0324,0.013523,0.002678,0.000431,0.000940
1646000,0.0324,0.013523,0.002678,0.000431,0.000940
1647000,0.0324,0.013523,0.002678,0.000431,0.000705
1648000,0.0324,0.013523,0.002678,0.000431,0.001058
1649000,0.0324,0.013523,0.002678,0.000431,0.000588
1650000,0.0324,0.013523,0.002678,0.000431,0.000823
1651000,0.0324,0.013523,0.002678,0.000431,0.000823
1652000,0.0324,0.013523,0.002678,0.000431,0.000940
1653000,0.0324,0.013523,0.002678,0.000431,0.001175
1654000,0.0324,0.013523,0.002678,0.000431,0.000940
1655000,0.0324,0.013523,0.002678,0.000431,0.000823
1656000,0.0324,0.013523,0.002678,0.000431,0.000823
1657000,0.0324,0.013523,0.002678,0.000431,0.000940
1658000,0.0324,0.013523,0.002678,0.000431,0.000588
1659000,0.0324,0.013523,0.002678,0.000431,0.000940
1660000,0.0324,0.013523,0.002678,0.000431,0.000823
1661000,0.0324,0.013523,0.002678,0.000431,0.000940
1662000,0.0324,0.013523,0.002678,0.000431,0.000705
1663000,0.0324,0.013523,0.002678,0.000431,0.000940
1664000,0.0324,0.013523,0.002678,0.000431,0.000940
1665000,0.0324,0.013523,0.002678,0.000431,0.000940
1666000,0.0324,0.013523,0.002678,0.000431,0.000705
1667000,0.0324,0.013523,0.002678,0.000431,0.000940
1668000,0.0324,0.013523,0.002678,0.000431,0.000940
1669000,0.0324,0.013523,0.002678,0.000431,0.000823
1670000,0.0324,0.013523,0.002678,0.000431,0.000823
1671000,0.0324,0.013523,0.002678,0.000431,0.000940
1672000,0.0324,0.013523,0.002678,0.000431,0.000940
1673000,0.0324,0.013523,0.002678,0.000431,0.000940
1674000,0.0324,0.013523,0.002678,0.000431,0.001058
1675000,0.0324,0.013523,0.002678,0.000431,0.000940
1676000,0.0324,0.013523,0.002678,0.000431,0.000823
1677000,0.0324,0.013523,0.002678,0.000431,0.000940
1678000,0.0324,0.013523,0.002678,0.000431,0.000823
1679000,0.0324,0.013523,0.002678,0.000431,0.000823
1680000,0.0324,0.013523,0.002678,0.000431,0.000940
1681000,0.0324,0.013523,0.002678,0.000431,0.000940
1682000,0.0324,0.013523,0.002678,0.000431,0.000940
1683000,0.0324,0.013523,0.002678,0.000431,0.000705
1684000,0.0324,0.013523,0.002678,0.000431,0.000940
1685000,0.0324,0.013523,0.002678,0.000431,0.001175
1686000,0.0324,0.013523,0.002678,0.000431,0.000823
1687000,0.0324,0.013523,0.002678,0.000431,0.000823
1688000,0.0324,0.013523,0.002678,0.000431,0.000940
1689000,0.0324,0.013523,0.002678,0.000431,0.001058
1690000,0.0324,0.013523,0.002678,0.000431,0.000940
1691000,0.0324,0.013523,0.002678,0.000431,0.000823
1692000,0.0324,0.013523,0.002678,0.000431,0.000705
1693000,0.0324,0.013523,0.002678,0.000431,0.001058
1694000,0.0324,0.013523,0.002678,0.000431,0.000940
1695000,0.0324,0.013523,0.002678,0.000431,0.000823
1696000,0.0324,0.013523,0.002678,0.000431,0.000705
1697000,0.0324,0.013523,0.002678,0.000431,0.001058
1698000,0.0324,0.013523,0.002678,0.000431,0.000940
1699000,0.0324,0.013523,0.002678,0.000431,0.000705
1700000,0.0324,0.013523,0.002678,0.000431,0.000940
1701000,0.0324,0.013523,0.002678,0.000431,0.000940
1702000,0.0324,0.013523,0.002678,0.000431,0.000823
1703000,0.0324,0.013523,0.002678,0.000431,0.000705
1704000,0.0324,0.013523,0.002678,0.000431,0.001058
1705000,0.0324,0.013523,0.002678,0.000431,0.000940
1706000,0.0324,0.013523,0.002678,0.000431,0.000823
1707000,0.0324,0.013523,0.002678,0.000431,0.000940
1708000,0.0324,0.013523,0.002678,0.000431,0.000940
1709000,0.0324,0.013523,0.002678,0.000431,0.000823
1710000,0.0324,0.013523,0.002678,0.000431,0.000823
1711000,0.0324,0.013523,0.002678,0.000431,0.000940
1712000,0.0324,0.013523,0.002678,0.000431,0.000823
1713000,0.0324,0.013523,0.002678,0.000431,0.000823
1714000,0.0324,0.013523,0.002678,0.000431,0.000940
1715000,0.0324,0.013523,0.002678,0.000431,0.000940
1716000,0.0324,0.013523,0.002678,0.000431,0.000823
1717000,0.0324,0.013523,0.002678,0.000431,0.000588
1718000,0.0324,0.013523,0.002678,0.000431,0.000588
1719000,0.0324,0.013523,0.002678,0.000431,0.000823
1720000,0.0324,0.013523,0.002678,0.000431,0.000705
1721000,0.0324,0.013523,0.002678,0.000431,0.000940
1722000,0.0324,0.013523,0.002678,0.000431,0.001058
1723000,0.0324,0.013523,0.002678,0.000431,0.000823
1724000,0.0324,0.013523,0.002678,0.000431,0.000705
1725000,0.0324,0.013523,0.002678,0.000431,0.001175
1726000,0.0324,0.013523,0.002678,0.000431,0.000705
1727000,0.0324,0.013523,0.002678,0.000431,0.000940
1728000,0.0324,0.013523,0.002678,0.000431,0.001058
1729000,0.0324,0.013523,0.002678,0.000431,0.000940
1730000,0.0324,0.013523,0.002678,0.000431,0.000823
1731000,0.0324,0.013523,0.002678,0.000431,0.000940
1732000,0.0324,0.013523,0.002678,0.000431,0.000940
1733000,0.0324,0.013523,0.002678,0.000431,0.000940
1734000,0.0324,0.013523,0.002678,0.000431,0.000940
1735000,0.0324,0.013523,0.002678,0.000431,0.000705
1736000,0.0324,0.013523,0.002678,0.000431,0.000940
1737000,0.0324,0.013523,0.002678,0.000431,0.000940
1738000,0.0324,0.013523,0.002678,0.000431,0.000940
1739000,0.0324,0.013523,0.002678,0.000431,0.000940
1740000,0.0324,0.013523,0.002678,0.000431,0.000940
1741000,0.0324,0.013523,0.002678,0.000431,0.000940
1742000,0.0324,0.013523,0.002678,0.000431,0.000940
1743000,0.0324,0.013523,0.002678,0.000431,0.000940
1744000,0.0324,0.013523,0.002678,0.000431,0.000705
1745000,0.0324,0.013523,0.002678,0.000431,0.000940
1746000,0.0324,0.013523,0.002678,0.000431,0.000705
1747000,0.0324,0.013523,0.002678,0.000431,0.000940
1748000,0.0324,0.013523,0.002678,0.000431,0.001175
1749000,0.0324,0.013523,0.002678,0.000431,0.000940
1750000,0.0324,0.013523,0.002678,0.000431,0.000823
1751000,0.0324,0.013523,0.002678,0.000431,0.000823
1752000,0.0324,0.013523,0.002678,0.000431,0.000823
1753000,0.0324,0.013523,0.002678,0.000431,0.000823
1754000,0.0324,0.013523,0.002678,0.000431,0.000940
1755000,0.0324,0.013523,0.002678,0.000431,0.000940
1756000,0.0324,0.013523,0.002678,0.000431,0.000705
1757000,0.0324,0.013523,0.002678,0.000431,0.000940
1758000,0.0324,0.013523,0.002678,0.000431,0.000705
1759000,0.0324,0.013523,0.002678,0.000431,0.000940
1760000,0.0324,0.013523,0.002678,0.000431,0.001058
1761000,0.0324,0.013523,0.002678,0.000431,0.000940
1762000,0.0324,0.013523,0.002678,0.000431,0.000823
1763000,0.0324,0.013523,0.002678,0.000431,0.000823
1764000,0.0324,0.013523,0.002678,0.000431,0.001058
1765000,0.0324,0.013523,0.002678,0.000431,0.000705
1766000,0.0324,0.013523,0.002678,0.000431,0.001058
1767000,0.0324,0.013523,0.002678,0.000431,0.000940
1768000,0.0324,0.013523,0.002678,0.000431,0.000705
1769000,0.0324,0.013523,0.002678,0.000431,0.001058
1770000,0.0324,0.013523,0.002678,0.000431,0.000940
1771000,0.0324,0.013523,0.002678,0.000431,0.000705
1772000,0.0324,0.013523,0.002678,0.000431,0.000940
1773000,0.0324,0.013523,0.002678,0.000431,0.000705
1774000,0.0324,0.013523,0.002678,0.000431,0.000823
1775000,0.0324,0.013523,0.002678,0.000431,0.000588
1776000,0.0324,0.013523,0.002678,0.000431,0.000705
1777000,0.0324,0.013523,0.002678,0.000431,0.000705
1778000,0.0324,0.013523,0.002678,0.000431,0.000940
1779000,0.0324,0.013523,0.002678,0.000431,0.000940
1780000,0.0324,0.013523,0.002678,0.000431,0.000823
1781000,0.0324,0.013523,0.002678,0.000431,0.000823
1782000,0.0324,0.013523,0.002678,0.000431,0.000940
1783000,0.0324,0.013523,0.002678,0.000431,0.000823
1784000,0.0324,0.013523,0.002678,0.000431,0.000823
1785000,0.0324,0.013523,0.002678,0.000431,0.000940
1786000,0.0324,0.013523,0.002678,0.000431,0.000940
1787000,0.0324,0.013523,0.002678,0.000431,0.000823
1788000,0.0324,0.013523,0.002678,0.000431,0.000823
1789000,0.0324,0.013523,0.002678,0.000431,0.000940
1790000,0.0324,0.013523,0.002678,0.000431,0.000940
1791000,0.0324,0.013523,0.002678,0.000431,0.000940
1792000,0.0324,0.013523,0.002678,0.000431,0.000940
1793000,0.0324,0.013523,0.002678,0.000431,0.000940
1794000,0.0324,0.013523,0.002678,0.000431,0.000823
1795000,0.0324,0.013523,0.002678,0.000431,0.000588
1796000,0.0324,0.013523,0.002678,0.000431,0.000940
1797000,0.0324,0.013523,0.002678,0.000431,0.000940
1798000,0.0324,0.013523,0.002678,0.000431,0.000705
1799000,0.0324,0.013523,0.002678,0.000431,0.000705
1800000,0.0324,0.013523,0.002678,0.000431,0.000940
1801000,0.0324,0.013523,0.002678,0.000431,0.000940
1802000,0.0324,0.013523,0.002678,0.000431,0.000705
1803000,0.0324,0.013523,0.002678,0.000431,0.000940
1804000,0.0324,0.013523,0.002678,0.000431,0.000940
1805000,0.0324,0.013523,0.002678,0.000431,0.000705
1806000,0.0324,0.013523,0.002678,0.000431,0.000940
1807000,0.0324,0.013523,0.002678,0.000431,0.000705
1808000,0.0324,0.013523,0.002678,0.000431,0.000705
1809000,0.0324,0.013523,0.002678,0.000431,0.000940
1810000,0.0324,0.013523,0.002678,0.000431,0.000823
1811000,0.0324,0.013523,0.002678,0.000431,0.000823
1812000,0.0324,0.013523,0.002678,0.000431,0.000940
1813000,0.0324,0.013523,0.002678,0.000431,0.000705
1814000,0.0324,0.013523,0.002678,0.000431,0.000940
1815000,0.0324,0.013523,0.002678,0.000431,0.000940
1816000,0.0324,0.013523,0.002678,0.000431,0.000823
1817000,0.0324,0.013523,0.002678,0.000431,0.000823
1818000,0.0324,0.013523,0.002678,0.000431,0.000940
1819000,0.0324,0.013523,0.002678,0.000431,0.001175
1820000,0.0324,0.013523,0.002678,0.000431,0.000940
1821000,0.0324,0.013523,0.002678,0.000431,0.000823
1822000,0.0324,0.013523,0.002678,0.000431,0.001058
1823000,0.0324,0.013523,0.002678,0.000431,0.001058
1824000,0.0324,0.013523,0.002678,0.000431,0.000940
1825000,0.0324,0.013523,0.002678,0.000431,0.000823
1826000,0.0324,0.013523,0.002678,0.000431,0.001058
1827000,0.0324,0.013523,0.002678,0.000431,0.000823
1828000,0.0324,0.013523,0.002678,0.000431,0.000940
1829000,0.0324,0.013523,0.002678,0.000431,0.000705
1830000,0.0324,0.013523,0.002678,0.000431,0.000823
1831000,0.0324,0.013523,0.002678,0.000431,0.000588
1832000,0.0324,0.013523,0.002678,0.000431,0.000940
1833000,0.0324,0.013523,0.002678,0.000431,0.000705
1834000,0.0324,0.013523,0.002678,0.000431,0.000940
1835000,0.0324,0.013523,0.002678,0.000431,0.000940
1836000,0.0324,0.013523,0.002678,0.000431,0.000940
1837000,0.0324,0.013523,0.002678,0.000431,0.000705
1838000,0.0324,0.013523,0.002678,0.000431,0.000940
1839000,0.0324,0.013523,0.002678,0.000431,0.000940
1840000,0.0324,0.013523,0.002678,0.000431,0.000823
1841000,0.0324,0.013523,0.002678,0.000431,0.000705
1842000,0.0324,0.013523,0.002678,0.000431,0.001058
1843000,0.0324,0.013523,0.002678,0.000431,0.000940
1844000,0.0324,0.013523,0.002678,0.000431,0.000940
1845000,0.0324,0.013523,0.002678,0.000431,0.000705
1846000,0.0324,0.013523,0.002678,0.000431,0.000940
1847000,0.0324,0.013523,0.002678,0.000431,0.000940
1848000,0.0324,0.013523,0.002678,0.000431,0.000705
1849000,0.0324,0.013523,0.002678,0.000431,0.000940
1850000,0.0324,0.013523,0.002678,0.000431,0.000940
1851000,0.0324,0.013523,0.002678,0.000431,0.000940
1852000,0.0324,0.013523,0.002678,0.000431,0.000705
1853000,0.0324,0.013523,0.002678,0.000431,0.000940
1854000,0.0324,0.013523,0.002678,0.000431,0.000940
1855000,0.0324,0.013523,0.002678,0.000431,0.000940
1856000,0.0324,0.013523,0.002678,0.000431,0.000705
1857000,0.0324,0.013523,0.002678,0.000431,0.001058
1858000,0.0324,0.013523,0.002678,0.000431,0.000823
1859000,0.0324,0.013523,0.002678,0.000431,0.000705
1860000,0.0324,0.013523,0.002678,0.000431,0.001058
1861000,0.0324,0.013523,0.002678,0.000431,0.000940
1862000,0.0324,0.013523,0.002678,0.000431,0.000823
1863000,0.0324,0.013523,0.002678,0.000431,0.000705
1864000,0.0324,0.013523,0.002678,0.000431,0.001058
1865000,0.0324,0.013523,0.002678,0.000431,0.000940
1866000,0.0324,0.013523,0.002678,0.000431,0.000823
1867000,0.0324,0.013523,0.002678,0.000431,0.000705
1868000,0.0324,0.013523,0.002678,0.000431,0.001058
1869000,0.0324,0.013523,0.002678,0.000431,0.000940
1870000,0.0324,0.013523,0.002678,0.000431,0.000705
1871000,0.0324,0.013523,0.002678,0.000431,0.000940
1872000,0.0324,0.013523,0.002678,0.000431,0.000940
1873000,0.0324,0.013523,0.002678,0.000431,0.000823
1874000,0.0324,0.013523,0.002678,0.000431,0.000705
1875000,0.0324,0.013523,0.002678,0.000431,0.001058
1876000,0.0324,0.013523,0.002678,0.000431,0.000940
1877000,0.0324,0.013523,0.002678,0.000431,0.000588
1878000,0.0324,0.013523,0.002678,0.000431,0.000823
1879000,0.0324,0.013523,0.002678,0.000431,0.000823
1880000,0.0324,0.013523,0.002678,0.000431,0.000940
1881000,0.0324,0.013523,0.002678,0.000431,0.000823
1882000,0.0324,0.013523,0.002678,0.000431,0.000823
1883000,0.0324,0.013523,0.002678,0.000431,0.000940
1884000,0.0324,0.013523,0.002678,0.000431,0.000705
1885000,0.0324,0.013523,0.002678,0.000431,0.000940
1886000,0.0324,0.013523,0.002678,0.000431,0.000940
1887000,0.0324,0.013523,0.002678,0.000431,0.000705
1888000,0.0324,0.013523,0.002678,0.000431,0.000940
1889000,0.0324,0.013523,0.002678,0.000431,0.000940
1890000,0.0324,0.013523,0.002678,0.000431,0.000940
1891000,0.0324,0.013523,0.002678,0.000431,0.000705
1892000,0.0324,0.013523,0.002678,0.000431,0.001058
1893000,0.0324,0.013523,0.002678,0.000431,0.001058
1894000,0.0324,0.013523,0.002678,0.000431,0.000940
1895000,0.0324,0.013523,0.002678,0.000431,0.000705
1896000,0.0324,0.013523,0.002678,0.000431,0.000705
1897000,0.0324,0.013523,0.002678,0.000431,0.000940
1898000,0.0324,0.013523,0.002678,0.000431,0.001058
1899000,0.0324,0.013523,0.002678,0.000431,0.000823
1900000,0.0324,0.013523,0.002678,0.000431,0.000823
1901000,0.0324,0.013523,0.002678,0.000431,0.000823
1902000,0.0324,0.013523,0.002678,0.000431,0.000940
1903000,0.0324,0.013523,0.002678,0.000431,0.000940
1904000,0.0324,0.013523,0.002678,0.000431,0.001058
1905000,0.0324,0.013523,0.002678,0.000431,0.000940
1906000,0.0324,0.013523,0.002678,0.000431,0.000823
1907000,0.0324,0.013523,0.002678,0.000431,0.000705
1908000,0.0324,0.013523,0.002678,0.000431,0.001058
1909000,0.0324,0.013523,0.002678,0.000431,0.000823
1910000,0.0324,0.013523,0.002678,0.000431,0.000940
1911000,0.0324,0.013523,0.002678,0.000431,0.000705
1912000,0.0324,0.013523,0.002678,0.000431,0.000940
1913000,0.0324,0.013523,0.002678,0.000431,0.000940
1914000,0.0324,0.013523,0.002678,0.000431,0.000940
1915000,0.0324,0.013523,0.002678,0.000431,0.000705
1916000,0.0324,0.013523,0.002678,0.000431,0.000940
1917000,0.0324,0.013523,0.002678,0.000431,0.000588
1918000,0.0324,0.013523,0.002678,0.000431,0.000940
1919000,0.0324,0.013523,0.002678,0.000431,0.000588
1920000,0.0324,0.013523,0.002678,0.000431,0.000823
1921000,0.0324,0.013523,0.002678,0.000431,0.000823
1922000,0.0324,0.013523,0.002678,0.000431,0.000940
1923000,0.0324,0.013523,0.002678,0.000431,0.000940
1924000,0.0324,0.013523,0.002678,0.000431,0.000940
1925000,0.0324,0.013523,0.002678,0.000431,0.000940
1926000,0.0324,0.013523,0.002678,0.000431,0.001175
1927000,0.0324,0.013523,0.002678,0.000431,0.000940
1928000,0.0324,0.013523,0.002678,0.000431,0.000940
1929000,0.0324,0.013523,0.002678,0.000431,0.000705
1930000,0.0324,0.013523,0.002678,0.000431,0.000940
1931000,0.0324,0.013523,0.002678,0.000431,0.001058
1932000,0.0324,0.013523,0.002678,0.000431,0.000588
1933000,0.0324,0.013523,0.002678,0.000431,0.000940
1934000,0.0324,0.013523,0.002678,0.000431,0.001175
1935000,0.0324,0.013523,0.002678,0.000431,0.000940
1936000,0.0324,0.013523,0.002678,0.000431,0.001058
1937000,0.0324,0.013523,0.002678,0.000431,0.000823
1938000,0.0324,0.013523,0.002678,0.000431,0.000940
1939000,0.0324,0.013523,0.002678,0.000431,0.000940
1940000,0.0324,0.013523,0.002678,0.000431,0.001175
1941000,0.0324,0.013523,0.002678,0.000431,0.000705
1942000,0.0324,0.013523,0.002678,0.000431,0.000940
1943000,0.0324,0.013523,0.002678,0.000431,0.000940
1944000,0.0324,0.013523,0.002678,0.000431,0.001058
1945000,0.0324,0.013523,0.002678,0.000431,0.000823
1946000,0.0324,0.013523,0.002678,0.000431,0.000940
1947000,0.0324,0.013523,0.002678,0.000431,0.000705
1948000,0.0324,0.013523,0.002678,0.000431,0.000940
1949000,0.0324,0.013523,0.002678,0.000431,0.000940
1950000,0.0324,0.013523,0.002678,0.000431,0.000705
1951000,0.0324,0.013523,0.002678,0.000431,0.001058
1952000,0.0324,0.013523,0.002678,0.000431,0.001058
1953000,0.0324,0.013523,0.002678,0.000431,0.001175
1954000,0.0324,0.013523,0.002678,0.000431,0.000705
1955000,0.0324,0.013523,0.002678,0.000431,0.000705
1956000,0.0324,0.013523,0.002678,0.000431,0.000940
1957000,0.0324,0.013523,0.002678,0.000431,0.000705
1958000,0.0324,0.013523,0.002678,0.000431,0.000940
1959000,0.0324,0.013523,0.002678,0.000431,0.000940
1960000,0.0324,0.013523,0.002678,0.000431,0.000823
1961000,0.0324,0.013523,0.002678,0.000431,0.000940
1962000,0.0324,0.013523,0.002678,0.000431,0.000823
1963000,0.0324,0.013523,0.002678,0.000431,0.001058
1964000,0.0324,0.013523,0.002678,0.000431,0.000940
1965000,0.0324,0.013523,0.002678,0.000431,0.000823
1966000,0.0324,0.013523,0.002678,0.000431,0.000823
1967000,0.0324,0.013523,0.002678,0.000431,0.000588
1968000,0.0324,0.013523,0.002678,0.000431,0.000940
1969000,0.0324,0.013523,0.002678,0.000431,0.000940
1970000,0.0324,0.013523,0.002678,0.000431,0.000705
1971000,0.0324,0.013523,0.002678,0.000431,0.000705
1972000,0.0324,0.013523,0.002678,0.000431,0.000940
1973000,0.0324,0.013523,0.002678,0.000431,0.001058
1974000,0.0324,0.013523,0.002678,0.000431,0.001058
1975000,0.0324,0.013523,0.002678,0.000431,0.001058
1976000,0.0324,0.013523,0.002678,0.000431,0.000940
1977000,0.0324,0.013523,0.002678,0.000431,0.000823
1978000,0.0324,0.013523,0.002678,0.000431,0.000705
1979000,0.0324,0.013523,0.002678,0.000431,0.001058
1980000,0.0324,0.013523,0.002678,0.000431,0.000940
1981000,0.0324,0.013523,0.002678,0.000431,0.000705
1982000,0.0324,0.013523,0.002678,0.000431,0.000705
1983000,0.0324,0.013523,0.002678,0.000431,0.001058
1984000,0.0324,0.013523,0.002678,0.000431,0.000940
1985000,0.0324,0.013523,0.002678,0.000431,0.000940
1986000,0.0324,0.013523,0.002678,0.000431,0.000823
1987000,0.0324,0.013523,0.002678,0.000431,0.001058
1988000,0.0324,0.013523,0.002678,0.000431,0.000823
1989000,0.0324,0.013523,0.002678,0.000431,0.000823
1990000,0.0324,0.013523,0.002678,0.000431,0.000940
1991000,0.0324,0.013523,0.002678,0.000431,0.000470
1992000,0.0324,0.013523,0.002678,0.000431,0.001058
1993000,0.0324,0.013523,0.002678,0.000431,0.000940
1994000,0.0324,0.013523,0.002678,0.000431,0.000823
1995000,0.0324,0.013523,0.002678,0.000431,0.000940
1996000,0.0324,0.013523,0.002678,0.000431,0.000940
1997000,0.0324,0.013523,0.002678,0.000431,0.000940
1998000,0.0324,0.013523,0.002678,0.000431,0.000940
1999000,0.0324,0.013523,0.002678,0.000431,0.000705
