Cycle,Area(mm^2),PeakDynamic(W),SubthresholdLeakage(W),GateLeakage(W),RunTimeDynamic(W)
1000,0.0324,0.013523,0.002678,0.000431,0.202971
2000,0.0324,0.013523,0.002678,0.000431,0.000000
3000,0.0324,0.013523,0.002678,0.000431,0.000000
4000,0.0324,0.013523,0.002678,0.000431,0.000000
5000,0.0324,0.013523,0.002678,0.000431,0.000000
6000,0.0324,0.013523,0.002678,0.000431,1.463696
7000,0.0324,0.013523,0.002678,0.000431,0.961028
8000,0.0324,0.013523,0.002678,0.000431,0.560374
9000,0.0324,0.013523,0.002678,0.000431,0.455187
10000,0.0324,0.013523,0.002678,0.000431,0.355405
11000,0.0324,0.013523,0.002678,0.000431,0.327081
12000,0.0324,0.013523,0.002678,0.000431,0.325553
13000,0.0324,0.013523,0.002678,0.000431,0.363867
14000,0.0324,0.013523,0.002678,0.000431,0.399596
15000,0.0324,0.013523,0.002678,0.000431,0.543098
16000,0.0324,0.013523,0.002678,0.000431,0.642527
17000,0.0324,0.013523,0.002678,0.000431,0.462473
18000,0.0324,0.013523,0.002678,0.000431,0.478810
19000,0.0324,0.013523,0.002678,0.000431,0.419223
20000,0.0324,0.013523,0.002678,0.000431,0.385257
21000,0.0324,0.013523,0.002678,0.000431,0.412994
22000,0.0324,0.013523,0.002678,0.000431,0.374092
23000,0.0324,0.013523,0.002678,0.000431,0.424394
24000,0.0324,0.013523,0.002678,0.000431,0.437087
25000,0.0324,0.013523,0.002678,0.000431,0.421339
26000,0.0324,0.013523,0.002678,0.000431,0.433444
27000,0.0324,0.013523,0.002678,0.000431,0.476224
28000,0.0324,0.013523,0.002678,0.000431,0.525704
29000,0.0324,0.013523,0.002678,0.000431,0.455657
30000,0.0324,0.013523,0.002678,0.000431,0.457185
31000,0.0324,0.013523,0.002678,0.000431,0.457655
32000,0.0324,0.013523,0.002678,0.000431,0.562960
33000,0.0324,0.013523,0.002678,0.000431,0.444609
34000,0.0324,0.013523,0.002678,0.000431,0.443434
35000,0.0324,0.013523,0.002678,0.000431,0.503491
36000,0.0324,0.013523,0.002678,0.000431,0.442611
37000,0.0324,0.013523,0.002678,0.000431,0.430388
38000,0.0324,0.013523,0.002678,0.000431,0.496204
39000,0.0324,0.013523,0.002678,0.000431,0.500317
40000,0.0324,0.013523,0.002678,0.000431,0.493031
41000,0.0324,0.013523,0.002678,0.000431,0.552735
42000,0.0324,0.013523,0.002678,0.000431,0.503491
43000,0.0324,0.013523,0.002678,0.000431,0.460123
44000,0.0324,0.013523,0.002678,0.000431,0.443316
45000,0.0324,0.013523,0.002678,0.000431,0.445079
46000,0.0324,0.013523,0.002678,0.000431,0.385492
47000,0.0324,0.013523,0.002678,0.000431,0.431681
48000,0.0324,0.013523,0.002678,0.000431,0.485274
49000,0.0324,0.013523,0.002678,0.000431,0.436147
50000,0.0324,0.013523,0.002678,0.000431,0.433561
51000,0.0324,0.013523,0.002678,0.000431,0.443786
52000,0.0324,0.013523,0.002678,0.000431,0.460123
53000,0.0324,0.013523,0.002678,0.000431,0.434267
54000,0.0324,0.013523,0.002678,0.000431,0.478457
55000,0.0324,0.013523,0.002678,0.000431,0.450133
56000,0.0324,0.013523,0.002678,0.000431,0.443551
57000,0.0324,0.013523,0.002678,0.000431,0.424394
58000,0.0324,0.013523,0.002678,0.000431,0.360106
59000,0.0324,0.013523,0.002678,0.000431,0.386080
60000,0.0324,0.013523,0.002678,0.000431,0.442376
61000,0.0324,0.013523,0.002678,0.000431,0.468820
62000,0.0324,0.013523,0.002678,0.000431,0.436735
63000,0.0324,0.013523,0.002678,0.000431,0.539924
64000,0.0324,0.013523,0.002678,0.000431,0.495734
65000,0.0324,0.013523,0.002678,0.000431,0.466587
66000,0.0324,0.013523,0.002678,0.000431,0.416285
67000,0.0324,0.013523,0.002678,0.000431,0.431916
68000,0.0324,0.013523,0.002678,0.000431,0.427685
69000,0.0324,0.013523,0.002678,0.000431,0.446607
70000,0.0324,0.013523,0.002678,0.000431,0.417108
71000,0.0324,0.013523,0.002678,0.000431,0.394542
72000,0.0324,0.013523,0.002678,0.000431,0.430388
73000,0.0324,0.013523,0.002678,0.000431,0.424512
74000,0.0324,0.013523,0.002678,0.000431,0.474461
75000,0.0324,0.013523,0.002678,0.000431,0.446137
76000,0.0324,0.013523,0.002678,0.000431,0.417813
77000,0.0324,0.013523,0.002678,0.000431,0.372094
78000,0.0324,0.013523,0.002678,0.000431,0.404414
79000,0.0324,0.013523,0.002678,0.000431,0.405942
80000,0.0324,0.013523,0.002678,0.000431,0.400536
81000,0.0324,0.013523,0.002678,0.000431,0.424982
82000,0.0324,0.013523,0.002678,0.000431,0.424394
83000,0.0324,0.013523,0.002678,0.000431,0.427803
84000,0.0324,0.013523,0.002678,0.000431,0.521825
85000,0.0324,0.013523,0.002678,0.000431,0.455657
86000,0.0324,0.013523,0.002678,0.000431,0.465529
87000,0.0324,0.013523,0.002678,0.000431,0.460828
88000,0.0324,0.013523,0.002678,0.000431,0.451896
89000,0.0324,0.013523,0.002678,0.000431,0.439673
90000,0.0324,0.013523,0.002678,0.000431,0.349646
91000,0.0324,0.013523,0.002678,0.000431,0.470700
92000,0.0324,0.013523,0.002678,0.000431,0.425570
93000,0.0324,0.013523,0.002678,0.000431,0.512188
94000,0.0324,0.013523,0.002678,0.000431,0.429448
95000,0.0324,0.013523,0.002678,0.000431,0.514186
96000,0.0324,0.013523,0.002678,0.000431,0.429566
97000,0.0324,0.013523,0.002678,0.000431,0.408763
98000,0.0324,0.013523,0.002678,0.000431,0.385492
99000,0.0324,0.013523,0.002678,0.000431,0.372564
100000,0.0324,0.013523,0.002678,0.000431,0.412641
101000,0.0324,0.013523,0.002678,0.000431,0.445549
102000,0.0324,0.013523,0.002678,0.000431,0.471641
103000,0.0324,0.013523,0.002678,0.000431,0.459653
104000,0.0324,0.013523,0.002678,0.000431,0.487977
105000,0.0324,0.013523,0.002678,0.000431,0.404650
106000,0.0324,0.013523,0.002678,0.000431,0.460475
107000,0.0324,0.013523,0.002678,0.000431,0.429095
108000,0.0324,0.013523,0.002678,0.000431,0.366570
109000,0.0324,0.013523,0.002678,0.000431,0.409351
110000,0.0324,0.013523,0.002678,0.000431,0.429330
111000,0.0324,0.013523,0.002678,0.000431,0.473521
112000,0.0324,0.013523,0.002678,0.000431,0.418048
113000,0.0324,0.013523,0.002678,0.000431,0.374915
114000,0.0324,0.013523,0.002678,0.000431,0.423807
115000,0.0324,0.013523,0.002678,0.000431,0.386550
116000,0.0324,0.013523,0.002678,0.000431,0.394895
117000,0.0324,0.013523,0.002678,0.000431,0.446137
118000,0.0324,0.013523,0.002678,0.000431,0.440026
119000,0.0324,0.013523,0.002678,0.000431,0.458242
120000,0.0324,0.013523,0.002678,0.000431,0.434854
121000,0.0324,0.013523,0.002678,0.000431,0.430036
122000,0.0324,0.013523,0.002678,0.000431,0.422631
123000,0.0324,0.013523,0.002678,0.000431,0.406648
124000,0.0324,0.013523,0.002678,0.000431,0.425570
125000,0.0324,0.013523,0.002678,0.000431,0.412054
126000,0.0324,0.013523,0.002678,0.000431,0.423337
127000,0.0324,0.013523,0.002678,0.000431,0.380791
128000,0.0324,0.013523,0.002678,0.000431,0.376795
129000,0.0324,0.013523,0.002678,0.000431,0.480103
130000,0.0324,0.013523,0.002678,0.000431,0.391016
131000,0.0324,0.013523,0.002678,0.000431,0.401476
132000,0.0324,0.013523,0.002678,0.000431,0.467292
133000,0.0324,0.013523,0.002678,0.000431,0.409351
134000,0.0324,0.013523,0.002678,0.000431,0.429801
135000,0.0324,0.013523,0.002678,0.000431,0.459653
136000,0.0324,0.013523,0.002678,0.000431,0.440496
137000,0.0324,0.013523,0.002678,0.000431,0.391016
138000,0.0324,0.013523,0.002678,0.000431,0.396188
139000,0.0324,0.013523,0.002678,0.000431,0.401476
140000,0.0324,0.013523,0.002678,0.000431,0.370801
141000,0.0324,0.013523,0.002678,0.000431,0.418048
142000,0.0324,0.013523,0.002678,0.000431,0.379851
143000,0.0324,0.013523,0.002678,0.000431,0.370684
144000,0.0324,0.013523,0.002678,0.000431,0.433326
145000,0.0324,0.013523,0.002678,0.000431,0.380791
146000,0.0324,0.013523,0.002678,0.000431,0.507839
147000,0.0324,0.013523,0.002678,0.000431,0.479280
148000,0.0324,0.013523,0.002678,0.000431,0.444021
149000,0.0324,0.013523,0.002678,0.000431,0.479397
150000,0.0324,0.013523,0.002678,0.000431,0.448723
151000,0.0324,0.013523,0.002678,0.000431,0.387138
152000,0.0324,0.013523,0.002678,0.000431,0.457420
153000,0.0324,0.013523,0.002678,0.000431,0.373034
154000,0.0324,0.013523,0.002678,0.000431,0.397010
155000,0.0324,0.013523,0.002678,0.000431,0.383142
156000,0.0324,0.013523,0.002678,0.000431,0.458125
157000,0.0324,0.013523,0.002678,0.000431,0.515831
158000,0.0324,0.013523,0.002678,0.000431,0.418283
159000,0.0324,0.013523,0.002678,0.000431,0.387961
160000,0.0324,0.013523,0.002678,0.000431,0.377030
161000,0.0324,0.013523,0.002678,0.000431,0.400301
162000,0.0324,0.013523,0.002678,0.000431,0.405120
163000,0.0324,0.013523,0.002678,0.000431,0.442729
164000,0.0324,0.013523,0.002678,0.000431,0.434032
165000,0.0324,0.013523,0.002678,0.000431,0.403709
166000,0.0324,0.013523,0.002678,0.000431,0.345415
167000,0.0324,0.013523,0.002678,0.000431,0.383259
168000,0.0324,0.013523,0.002678,0.000431,0.343300
169000,0.0324,0.013523,0.002678,0.000431,0.362574
170000,0.0324,0.013523,0.002678,0.000431,0.359519
171000,0.0324,0.013523,0.002678,0.000431,0.417695
172000,0.0324,0.013523,0.002678,0.000431,0.486802
173000,0.0324,0.013523,0.002678,0.000431,0.494676
174000,0.0324,0.013523,0.002678,0.000431,0.356110
175000,0.0324,0.013523,0.002678,0.000431,0.330842
176000,0.0324,0.013523,0.002678,0.000431,0.375032
177000,0.0324,0.013523,0.002678,0.000431,0.435324
178000,0.0324,0.013523,0.002678,0.000431,0.403827
179000,0.0324,0.013523,0.002678,0.000431,0.411349
180000,0.0324,0.013523,0.002678,0.000431,0.444257
181000,0.0324,0.013523,0.002678,0.000431,0.481278
182000,0.0324,0.013523,0.002678,0.000431,0.397833
183000,0.0324,0.013523,0.002678,0.000431,0.392074
184000,0.0324,0.013523,0.002678,0.000431,0.369038
185000,0.0324,0.013523,0.002678,0.000431,0.409938
186000,0.0324,0.013523,0.002678,0.000431,0.421456
187000,0.0324,0.013523,0.002678,0.000431,0.407705
188000,0.0324,0.013523,0.002678,0.000431,0.469055
189000,0.0324,0.013523,0.002678,0.000431,0.422396
190000,0.0324,0.013523,0.002678,0.000431,0.425805
191000,0.0324,0.013523,0.002678,0.000431,0.414639
192000,0.0324,0.013523,0.002678,0.000431,0.392427
193000,0.0324,0.013523,0.002678,0.000431,0.414992
194000,0.0324,0.013523,0.002678,0.000431,0.388548
195000,0.0324,0.013523,0.002678,0.000431,0.432621
196000,0.0324,0.013523,0.002678,0.000431,0.434737
197000,0.0324,0.013523,0.002678,0.000431,0.438615
198000,0.0324,0.013523,0.002678,0.000431,0.377736
199000,0.0324,0.013523,0.002678,0.000431,0.368216
200000,0.0324,0.013523,0.002678,0.000431,0.393954
201000,0.0324,0.013523,0.002678,0.000431,0.456009
202000,0.0324,0.013523,0.002678,0.000431,0.388196
203000,0.0324,0.013523,0.002678,0.000431,0.403827
204000,0.0324,0.013523,0.002678,0.000431,0.425805
205000,0.0324,0.013523,0.002678,0.000431,0.397363
206000,0.0324,0.013523,0.002678,0.000431,0.361634
207000,0.0324,0.013523,0.002678,0.000431,0.346943
208000,0.0324,0.013523,0.002678,0.000431,0.410408
209000,0.0324,0.013523,0.002678,0.000431,0.478810
210000,0.0324,0.013523,0.002678,0.000431,0.443669
211000,0.0324,0.013523,0.002678,0.000431,0.438498
212000,0.0324,0.013523,0.002678,0.000431,0.456597
213000,0.0324,0.013523,0.002678,0.000431,0.392897
214000,0.0324,0.013523,0.002678,0.000431,0.466704
215000,0.0324,0.013523,0.002678,0.000431,0.433209
216000,0.0324,0.013523,0.002678,0.000431,0.462473
217000,0.0324,0.013523,0.002678,0.000431,0.491620
218000,0.0324,0.013523,0.002678,0.000431,0.367981
219000,0.0324,0.013523,0.002678,0.000431,0.354583
220000,0.0324,0.013523,0.002678,0.000431,0.414522
221000,0.0324,0.013523,0.002678,0.000431,0.481278
222000,0.0324,0.013523,0.002678,0.000431,0.486684
223000,0.0324,0.013523,0.002678,0.000431,0.433326
224000,0.0324,0.013523,0.002678,0.000431,0.441553
225000,0.0324,0.013523,0.002678,0.000431,0.398421
226000,0.0324,0.013523,0.002678,0.000431,0.458007
227000,0.0324,0.013523,0.002678,0.000431,0.430153
228000,0.0324,0.013523,0.002678,0.000431,0.353290
229000,0.0324,0.013523,0.002678,0.000431,0.348354
230000,0.0324,0.013523,0.002678,0.000431,0.346120
231000,0.0324,0.013523,0.002678,0.000431,0.371624
232000,0.0324,0.013523,0.002678,0.000431,0.439555
233000,0.0324,0.013523,0.002678,0.000431,0.477047
234000,0.0324,0.013523,0.002678,0.000431,0.459770
235000,0.0324,0.013523,0.002678,0.000431,0.501845
236000,0.0324,0.013523,0.002678,0.000431,0.398303
237000,0.0324,0.013523,0.002678,0.000431,0.372329
238000,0.0324,0.013523,0.002678,0.000431,0.428743
239000,0.0324,0.013523,0.002678,0.000431,0.348354
240000,0.0324,0.013523,0.002678,0.000431,0.381614
241000,0.0324,0.013523,0.002678,0.000431,0.452248
242000,0.0324,0.013523,0.002678,0.000431,0.452836
243000,0.0324,0.013523,0.002678,0.000431,0.459653
244000,0.0324,0.013523,0.002678,0.000431,0.419458
245000,0.0324,0.013523,0.002678,0.000431,0.409233
246000,0.0324,0.013523,0.002678,0.000431,0.333192
247000,0.0324,0.013523,0.002678,0.000431,0.378088
248000,0.0324,0.013523,0.002678,0.000431,0.316856
249000,0.0324,0.013523,0.002678,0.000431,0.347413
250000,0.0324,0.013523,0.002678,0.000431,0.316151
251000,0.0324,0.013523,0.002678,0.000431,0.364455
252000,0.0324,0.013523,0.002678,0.000431,0.370449
253000,0.0324,0.013523,0.002678,0.000431,0.400301
254000,0.0324,0.013523,0.002678,0.000431,0.403827
255000,0.0324,0.013523,0.002678,0.000431,0.450250
256000,0.0324,0.013523,0.002678,0.000431,0.424982
257000,0.0324,0.013523,0.002678,0.000431,0.422161
258000,0.0324,0.013523,0.002678,0.000431,0.463649
259000,0.0324,0.013523,0.002678,0.000431,0.439438
260000,0.0324,0.013523,0.002678,0.000431,0.426627
261000,0.0324,0.013523,0.002678,0.000431,0.421691
262000,0.0324,0.013523,0.002678,0.000431,0.394777
263000,0.0324,0.013523,0.002678,0.000431,0.407000
264000,0.0324,0.013523,0.002678,0.000431,0.367863
265000,0.0324,0.013523,0.002678,0.000431,0.400771
266000,0.0324,0.013523,0.002678,0.000431,0.353877
267000,0.0324,0.013523,0.002678,0.000431,0.401711
268000,0.0324,0.013523,0.002678,0.000431,0.368921
269000,0.0324,0.013523,0.002678,0.000431,0.349294
270000,0.0324,0.013523,0.002678,0.000431,0.332840
271000,0.0324,0.013523,0.002678,0.000431,0.415815
272000,0.0324,0.013523,0.002678,0.000431,0.422514
273000,0.0324,0.013523,0.002678,0.000431,0.423101
274000,0.0324,0.013523,0.002678,0.000431,0.473521
275000,0.0324,0.013523,0.002678,0.000431,0.460593
276000,0.0324,0.013523,0.002678,0.000431,0.450486
277000,0.0324,0.013523,0.002678,0.000431,0.424629
278000,0.0324,0.013523,0.002678,0.000431,0.343770
279000,0.0324,0.013523,0.002678,0.000431,0.385140
280000,0.0324,0.013523,0.002678,0.000431,0.408058
281000,0.0324,0.013523,0.002678,0.000431,0.511130
282000,0.0324,0.013523,0.002678,0.000431,0.519240
283000,0.0324,0.013523,0.002678,0.000431,0.424394
284000,0.0324,0.013523,0.002678,0.000431,0.411584
285000,0.0324,0.013523,0.002678,0.000431,0.401829
286000,0.0324,0.013523,0.002678,0.000431,0.381026
287000,0.0324,0.013523,0.002678,0.000431,0.341067
288000,0.0324,0.013523,0.002678,0.000431,0.403239
289000,0.0324,0.013523,0.002678,0.000431,0.457185
290000,0.0324,0.013523,0.002678,0.000431,0.383494
291000,0.0324,0.013523,0.002678,0.000431,0.432974
292000,0.0324,0.013523,0.002678,0.000431,0.414992
293000,0.0324,0.013523,0.002678,0.000431,0.457890
294000,0.0324,0.013523,0.002678,0.000431,0.353760
295000,0.0324,0.013523,0.002678,0.000431,0.347413
296000,0.0324,0.013523,0.002678,0.000431,0.413464
297000,0.0324,0.013523,0.002678,0.000431,0.438850
298000,0.0324,0.013523,0.002678,0.000431,0.377030
299000,0.0324,0.013523,0.002678,0.000431,0.361047
300000,0.0324,0.013523,0.002678,0.000431,0.364925
301000,0.0324,0.013523,0.002678,0.000431,0.432504
302000,0.0324,0.013523,0.002678,0.000431,0.426862
303000,0.0324,0.013523,0.002678,0.000431,0.388666
304000,0.0324,0.013523,0.002678,0.000431,0.384670
305000,0.0324,0.013523,0.002678,0.000431,0.367981
306000,0.0324,0.013523,0.002678,0.000431,0.371859
307000,0.0324,0.013523,0.002678,0.000431,0.445667
308000,0.0324,0.013523,0.002678,0.000431,0.420046
309000,0.0324,0.013523,0.002678,0.000431,0.411701
310000,0.0324,0.013523,0.002678,0.000431,0.424277
311000,0.0324,0.013523,0.002678,0.000431,0.374562
312000,0.0324,0.013523,0.002678,0.000431,0.409351
313000,0.0324,0.013523,0.002678,0.000431,0.386903
314000,0.0324,0.013523,0.002678,0.000431,0.385492
315000,0.0324,0.013523,0.002678,0.000431,0.404650
316000,0.0324,0.013523,0.002678,0.000431,0.431563
317000,0.0324,0.013523,0.002678,0.000431,0.432034
318000,0.0324,0.013523,0.002678,0.000431,0.415110
319000,0.0324,0.013523,0.002678,0.000431,0.416402
320000,0.0324,0.013523,0.002678,0.000431,0.388431
321000,0.0324,0.013523,0.002678,0.000431,0.381496
322000,0.0324,0.013523,0.002678,0.000431,0.372564
323000,0.0324,0.013523,0.002678,0.000431,0.376913
324000,0.0324,0.013523,0.002678,0.000431,0.390194
325000,0.0324,0.013523,0.002678,0.000431,0.453776
326000,0.0324,0.013523,0.002678,0.000431,0.454011
327000,0.0324,0.013523,0.002678,0.000431,0.443434
328000,0.0324,0.013523,0.002678,0.000431,0.437205
329000,0.0324,0.013523,0.002678,0.000431,0.417460
330000,0.0324,0.013523,0.002678,0.000431,0.394660
331000,0.0324,0.013523,0.002678,0.000431,0.379028
332000,0.0324,0.013523,0.002678,0.000431,0.394777
333000,0.0324,0.013523,0.002678,0.000431,0.363985
334000,0.0324,0.013523,0.002678,0.000431,0.395717
335000,0.0324,0.013523,0.002678,0.000431,0.403474
336000,0.0324,0.013523,0.002678,0.000431,0.374797
337000,0.0324,0.013523,0.002678,0.000431,0.352585
338000,0.0324,0.013523,0.002678,0.000431,0.354700
339000,0.0324,0.013523,0.002678,0.000431,0.349881
340000,0.0324,0.013523,0.002678,0.000431,0.354347
341000,0.0324,0.013523,0.002678,0.000431,0.402064
342000,0.0324,0.013523,0.002678,0.000431,0.470465
343000,0.0324,0.013523,0.002678,0.000431,0.410996
344000,0.0324,0.013523,0.002678,0.000431,0.420633
345000,0.0324,0.013523,0.002678,0.000431,0.429213
346000,0.0324,0.013523,0.002678,0.000431,0.439673
347000,0.0324,0.013523,0.002678,0.000431,0.454364
348000,0.0324,0.013523,0.002678,0.000431,0.436265
349000,0.0324,0.013523,0.002678,0.000431,0.378793
350000,0.0324,0.013523,0.002678,0.000431,0.330842
351000,0.0324,0.013523,0.002678,0.000431,0.357521
352000,0.0324,0.013523,0.002678,0.000431,0.350939
353000,0.0324,0.013523,0.002678,0.000431,0.380439
354000,0.0324,0.013523,0.002678,0.000431,0.404650
355000,0.0324,0.013523,0.002678,0.000431,0.360341
356000,0.0324,0.013523,0.002678,0.000431,0.338481
357000,0.0324,0.013523,0.002678,0.000431,0.341302
358000,0.0324,0.013523,0.002678,0.000431,0.324730
359000,0.0324,0.013523,0.002678,0.000431,0.367863
360000,0.0324,0.013523,0.002678,0.000431,0.380556
361000,0.0324,0.013523,0.002678,0.000431,0.399126
362000,0.0324,0.013523,0.002678,0.000431,0.382319
363000,0.0324,0.013523,0.002678,0.000431,0.385022
364000,0.0324,0.013523,0.002678,0.000431,0.444257
365000,0.0324,0.013523,0.002678,0.000431,0.400066
366000,0.0324,0.013523,0.002678,0.000431,0.378206
367000,0.0324,0.013523,0.002678,0.000431,0.391486
368000,0.0324,0.013523,0.002678,0.000431,0.372094
369000,0.0324,0.013523,0.002678,0.000431,0.388783
370000,0.0324,0.013523,0.002678,0.000431,0.356463
371000,0.0324,0.013523,0.002678,0.000431,0.383377
372000,0.0324,0.013523,0.002678,0.000431,0.357286
373000,0.0324,0.013523,0.002678,0.000431,0.351527
374000,0.0324,0.013523,0.002678,0.000431,0.371507
375000,0.0324,0.013523,0.002678,0.000431,0.375503
376000,0.0324,0.013523,0.002678,0.000431,0.306749
377000,0.0324,0.013523,0.002678,0.000431,0.252333
378000,0.0324,0.013523,0.002678,0.000431,0.216134
379000,0.0324,0.013523,0.002678,0.000431,0.183226
380000,0.0324,0.013523,0.002678,0.000431,0.156195
381000,0.0324,0.013523,0.002678,0.000431,0.136333
382000,0.0324,0.013523,0.002678,0.000431,0.121172
383000,0.0324,0.013523,0.002678,0.000431,0.107538
384000,0.0324,0.013523,0.002678,0.000431,0.093435
385000,0.0324,0.013523,0.002678,0.000431,0.082975
386000,0.0324,0.013523,0.002678,0.000431,0.073220
387000,0.0324,0.013523,0.002678,0.000431,0.069107
388000,0.0324,0.013523,0.002678,0.000431,0.066991
389000,0.0324,0.013523,0.002678,0.000431,0.060292
390000,0.0324,0.013523,0.002678,0.000431,0.054768
391000,0.0324,0.013523,0.002678,0.000431,0.051242
392000,0.0324,0.013523,0.002678,0.000431,0.045954
393000,0.0324,0.013523,0.002678,0.000431,0.039607
394000,0.0324,0.013523,0.002678,0.000431,0.038197
395000,0.0324,0.013523,0.002678,0.000431,0.033496
396000,0.0324,0.013523,0.002678,0.000431,0.029382
397000,0.0324,0.013523,0.002678,0.000431,0.027267
398000,0.0324,0.013523,0.002678,0.000431,0.026679
399000,0.0324,0.013523,0.002678,0.000431,0.024916
400000,0.0324,0.013523,0.002678,0.000431,0.025151
401000,0.0324,0.013523,0.002678,0.000431,0.024328
402000,0.0324,0.013523,0.002678,0.000431,0.024093
403000,0.0324,0.013523,0.002678,0.000431,0.022683
404000,0.0324,0.013523,0.002678,0.000431,0.023388
405000,0.0324,0.013523,0.002678,0.000431,0.021625
406000,0.0324,0.013523,0.002678,0.000431,0.021743
407000,0.0324,0.013523,0.002678,0.000431,0.021273
408000,0.0324,0.013523,0.002678,0.000431,0.020685
409000,0.0324,0.013523,0.002678,0.000431,0.020567
410000,0.0324,0.013523,0.002678,0.000431,0.019745
411000,0.0324,0.013523,0.002678,0.000431,0.019862
412000,0.0324,0.013523,0.002678,0.000431,0.019275
413000,0.0324,0.013523,0.002678,0.000431,0.019157
414000,0.0324,0.013523,0.002678,0.000431,0.019040
415000,0.0324,0.013523,0.002678,0.000431,0.018805
416000,0.0324,0.013523,0.002678,0.000431,0.018687
417000,0.0324,0.013523,0.002678,0.000431,0.016219
418000,0.0324,0.013523,0.002678,0.000431,0.015866
419000,0.0324,0.013523,0.002678,0.000431,0.015161
420000,0.0324,0.013523,0.002678,0.000431,0.015514
421000,0.0324,0.013523,0.002678,0.000431,0.014456
422000,0.0324,0.013523,0.002678,0.000431,0.014103
423000,0.0324,0.013523,0.002678,0.000431,0.014691
424000,0.0324,0.013523,0.002678,0.000431,0.012811
425000,0.0324,0.013523,0.002678,0.000431,0.012105
426000,0.0324,0.013523,0.002678,0.000431,0.010813
427000,0.0324,0.013523,0.002678,0.000431,0.010930
428000,0.0324,0.013523,0.002678,0.000431,0.011048
429000,0.0324,0.013523,0.002678,0.000431,0.010578
430000,0.0324,0.013523,0.002678,0.000431,0.011283
431000,0.0324,0.013523,0.002678,0.000431,0.010930
432000,0.0324,0.013523,0.002678,0.000431,0.011283
433000,0.0324,0.013523,0.002678,0.000431,0.010342
434000,0.0324,0.013523,0.002678,0.000431,0.010460
435000,0.0324,0.013523,0.002678,0.000431,0.010107
436000,0.0324,0.013523,0.002678,0.000431,0.010107
437000,0.0324,0.013523,0.002678,0.000431,0.009872
438000,0.0324,0.013523,0.002678,0.000431,0.009872
439000,0.0324,0.013523,0.002678,0.000431,0.009990
440000,0.0324,0.013523,0.002678,0.000431,0.009402
441000,0.0324,0.013523,0.002678,0.000431,0.008815
442000,0.0324,0.013523,0.002678,0.000431,0.008345
443000,0.0324,0.013523,0.002678,0.000431,0.007874
444000,0.0324,0.013523,0.002678,0.000431,0.008109
445000,0.0324,0.013523,0.002678,0.000431,0.008227
446000,0.0324,0.013523,0.002678,0.000431,0.008109
447000,0.0324,0.013523,0.002678,0.000431,0.007992
448000,0.0324,0.013523,0.002678,0.000431,0.007874
449000,0.0324,0.013523,0.002678,0.000431,0.007639
450000,0.0324,0.013523,0.002678,0.000431,0.007404
451000,0.0324,0.013523,0.002678,0.000431,0.007874
452000,0.0324,0.013523,0.002678,0.000431,0.007169
453000,0.0324,0.013523,0.002678,0.000431,0.007287
454000,0.0324,0.013523,0.002678,0.000431,0.006347
455000,0.0324,0.013523,0.002678,0.000431,0.007287
456000,0.0324,0.013523,0.002678,0.000431,0.006699
457000,0.0324,0.013523,0.002678,0.000431,0.006699
458000,0.0324,0.013523,0.002678,0.000431,0.006817
459000,0.0324,0.013523,0.002678,0.000431,0.006582
460000,0.0324,0.013523,0.002678,0.000431,0.006464
461000,0.0324,0.013523,0.002678,0.000431,0.006229
462000,0.0324,0.013523,0.002678,0.000431,0.005994
463000,0.0324,0.013523,0.002678,0.000431,0.006347
464000,0.0324,0.013523,0.002678,0.000431,0.006464
465000,0.0324,0.013523,0.002678,0.000431,0.005994
466000,0.0324,0.013523,0.002678,0.000431,0.006582
467000,0.0324,0.013523,0.002678,0.000431,0.006229
468000,0.0324,0.013523,0.002678,0.000431,0.005289
469000,0.0324,0.013523,0.002678,0.000431,0.004936
470000,0.0324,0.013523,0.002678,0.000431,0.005406
471000,0.0324,0.013523,0.002678,0.000431,0.005054
472000,0.0324,0.013523,0.002678,0.000431,0.004584
473000,0.0324,0.013523,0.002678,0.000431,0.005054
474000,0.0324,0.013523,0.002678,0.000431,0.004936
475000,0.0324,0.013523,0.002678,0.000431,0.004819
476000,0.0324,0.013523,0.002678,0.000431,0.004819
477000,0.0324,0.013523,0.002678,0.000431,0.005054
478000,0.0324,0.013523,0.002678,0.000431,0.004819
479000,0.0324,0.013523,0.002678,0.000431,0.004936
480000,0.0324,0.013523,0.002678,0.000431,0.004584
481000,0.0324,0.013523,0.002678,0.000431,0.005289
482000,0.0324,0.013523,0.002678,0.000431,0.005054
483000,0.0324,0.013523,0.002678,0.000431,0.004584
484000,0.0324,0.013523,0.002678,0.000431,0.005289
485000,0.0324,0.013523,0.002678,0.000431,0.004819
486000,0.0324,0.013523,0.002678,0.000431,0.004701
487000,0.0324,0.013523,0.002678,0.000431,0.005171
488000,0.0324,0.013523,0.002678,0.000431,0.004231
489000,0.0324,0.013523,0.002678,0.000431,0.004231
490000,0.0324,0.013523,0.002678,0.000431,0.003996
491000,0.0324,0.013523,0.002678,0.000431,0.004349
492000,0.0324,0.013523,0.002678,0.000431,0.004113
493000,0.0324,0.013523,0.002678,0.000431,0.004349
494000,0.0324,0.013523,0.002678,0.000431,0.004231
495000,0.0324,0.013523,0.002678,0.000431,0.004349
496000,0.0324,0.013523,0.002678,0.000431,0.004584
497000,0.0324,0.013523,0.002678,0.000431,0.004349
498000,0.0324,0.013523,0.002678,0.000431,0.003878
499000,0.0324,0.013523,0.002678,0.000431,0.004349
500000,0.0324,0.013523,0.002678,0.000431,0.004466
501000,0.0324,0.013523,0.002678,0.000431,0.004466
502000,0.0324,0.013523,0.002678,0.000431,0.004349
503000,0.0324,0.013523,0.002678,0.000431,0.004113
504000,0.0324,0.013523,0.002678,0.000431,0.004584
505000,0.0324,0.013523,0.002678,0.000431,0.004113
506000,0.0324,0.013523,0.002678,0.000431,0.004231
507000,0.0324,0.013523,0.002678,0.000431,0.004349
508000,0.0324,0.013523,0.002678,0.000431,0.004231
509000,0.0324,0.013523,0.002678,0.000431,0.004349
510000,0.0324,0.013523,0.002678,0.000431,0.004349
511000,0.0324,0.013523,0.002678,0.000431,0.004231
512000,0.0324,0.013523,0.002678,0.000431,0.004584
513000,0.0324,0.013523,0.002678,0.000431,0.004349
514000,0.0324,0.013523,0.002678,0.000431,0.004349
515000,0.0324,0.013523,0.002678,0.000431,0.004466
516000,0.0324,0.013523,0.002678,0.000431,0.004466
517000,0.0324,0.013523,0.002678,0.000431,0.004231
518000,0.0324,0.013523,0.002678,0.000431,0.004349
519000,0.0324,0.013523,0.002678,0.000431,0.004349
520000,0.0324,0.013523,0.002678,0.000431,0.004466
521000,0.0324,0.013523,0.002678,0.000431,0.004819
522000,0.0324,0.013523,0.002678,0.000431,0.004231
523000,0.0324,0.013523,0.002678,0.000431,0.003643
524000,0.0324,0.013523,0.002678,0.000431,0.003996
525000,0.0324,0.013523,0.002678,0.000431,0.003878
526000,0.0324,0.013523,0.002678,0.000431,0.003761
527000,0.0324,0.013523,0.002678,0.000431,0.003996
528000,0.0324,0.013523,0.002678,0.000431,0.003526
529000,0.0324,0.013523,0.002678,0.000431,0.003878
530000,0.0324,0.013523,0.002678,0.000431,0.003878
531000,0.0324,0.013523,0.002678,0.000431,0.003878
532000,0.0324,0.013523,0.002678,0.000431,0.003761
533000,0.0324,0.013523,0.002678,0.000431,0.002468
534000,0.0324,0.013523,0.002678,0.000431,0.002586
535000,0.0324,0.013523,0.002678,0.000431,0.002233
536000,0.0324,0.013523,0.002678,0.000431,0.002468
537000,0.0324,0.013523,0.002678,0.000431,0.002116
538000,0.0324,0.013523,0.002678,0.000431,0.002703
539000,0.0324,0.013523,0.002678,0.000431,0.002586
540000,0.0324,0.013523,0.002678,0.000431,0.002116
541000,0.0324,0.013523,0.002678,0.000431,0.002468
542000,0.0324,0.013523,0.002678,0.000431,0.002703
543000,0.0324,0.013523,0.002678,0.000431,0.002116
544000,0.0324,0.013523,0.002678,0.000431,0.002586
545000,0.0324,0.013523,0.002678,0.000431,0.002351
546000,0.0324,0.013523,0.002678,0.000431,0.002351
547000,0.0324,0.013523,0.002678,0.000431,0.002703
548000,0.0324,0.013523,0.002678,0.000431,0.002351
549000,0.0324,0.013523,0.002678,0.000431,0.002586
550000,0.0324,0.013523,0.002678,0.000431,0.002468
551000,0.0324,0.013523,0.002678,0.000431,0.002586
552000,0.0324,0.013523,0.002678,0.000431,0.002468
553000,0.0324,0.013523,0.002678,0.000431,0.002586
554000,0.0324,0.013523,0.002678,0.000431,0.002468
555000,0.0324,0.013523,0.002678,0.000431,0.002233
556000,0.0324,0.013523,0.002678,0.000431,0.002468
557000,0.0324,0.013523,0.002678,0.000431,0.002586
558000,0.0324,0.013523,0.002678,0.000431,0.002703
559000,0.0324,0.013523,0.002678,0.000431,0.002703
560000,0.0324,0.013523,0.002678,0.000431,0.002468
561000,0.0324,0.013523,0.002678,0.000431,0.002703
562000,0.0324,0.013523,0.002678,0.000431,0.002468
563000,0.0324,0.013523,0.002678,0.000431,0.002586
564000,0.0324,0.013523,0.002678,0.000431,0.002703
565000,0.0324,0.013523,0.002678,0.000431,0.002703
566000,0.0324,0.013523,0.002678,0.000431,0.002703
567000,0.0324,0.013523,0.002678,0.000431,0.002586
568000,0.0324,0.013523,0.002678,0.000431,0.002586
569000,0.0324,0.013523,0.002678,0.000431,0.002586
570000,0.0324,0.013523,0.002678,0.000431,0.001763
571000,0.0324,0.013523,0.002678,0.000431,0.001645
572000,0.0324,0.013523,0.002678,0.000431,0.001293
573000,0.0324,0.013523,0.002678,0.000431,0.001175
574000,0.0324,0.013523,0.002678,0.000431,0.001410
575000,0.0324,0.013523,0.002678,0.000431,0.001293
576000,0.0324,0.013523,0.002678,0.000431,0.001175
577000,0.0324,0.013523,0.002678,0.000431,0.001175
578000,0.0324,0.013523,0.002678,0.000431,0.001175
579000,0.0324,0.013523,0.002678,0.000431,0.001175
580000,0.0324,0.013523,0.002678,0.000431,0.001175
581000,0.0324,0.013523,0.002678,0.000431,0.001175
582000,0.0324,0.013523,0.002678,0.000431,0.001293
583000,0.0324,0.013523,0.002678,0.000431,0.001410
584000,0.0324,0.013523,0.002678,0.000431,0.001293
585000,0.0324,0.013523,0.002678,0.000431,0.001058
586000,0.0324,0.013523,0.002678,0.000431,0.001293
587000,0.0324,0.013523,0.002678,0.000431,0.001175
588000,0.0324,0.013523,0.002678,0.000431,0.001293
589000,0.0324,0.013523,0.002678,0.000431,0.001058
590000,0.0324,0.013523,0.002678,0.000431,0.001410
591000,0.0324,0.013523,0.002678,0.000431,0.001293
592000,0.0324,0.013523,0.002678,0.000431,0.001175
593000,0.0324,0.013523,0.002678,0.000431,0.001410
594000,0.0324,0.013523,0.002678,0.000431,0.001293
595000,0.0324,0.013523,0.002678,0.000431,0.001293
596000,0.0324,0.013523,0.002678,0.000431,0.001175
597000,0.0324,0.013523,0.002678,0.000431,0.001293
598000,0.0324,0.013523,0.002678,0.000431,0.000940
599000,0.0324,0.013523,0.002678,0.000431,0.001410
600000,0.0324,0.013523,0.002678,0.000431,0.001410
601000,0.0324,0.013523,0.002678,0.000431,0.000940
602000,0.0324,0.013523,0.002678,0.000431,0.000940
603000,0.0324,0.013523,0.002678,0.000431,0.001528
604000,0.0324,0.013523,0.002678,0.000431,0.001058
605000,0.0324,0.013523,0.002678,0.000431,0.001175
606000,0.0324,0.013523,0.002678,0.000431,0.001175
607000,0.0324,0.013523,0.002678,0.000431,0.000940
608000,0.0324,0.013523,0.002678,0.000431,0.001175
609000,0.0324,0.013523,0.002678,0.000431,0.001293
610000,0.0324,0.013523,0.002678,0.000431,0.001175
611000,0.0324,0.013523,0.002678,0.000431,0.001058
612000,0.0324,0.013523,0.002678,0.000431,0.001175
613000,0.0324,0.013523,0.002678,0.000431,0.001058
614000,0.0324,0.013523,0.002678,0.000431,0.001293
615000,0.0324,0.013523,0.002678,0.000431,0.001293
616000,0.0324,0.013523,0.002678,0.000431,0.001175
617000,0.0324,0.013523,0.002678,0.000431,0.001175
618000,0.0324,0.013523,0.002678,0.000431,0.001058
619000,0.0324,0.013523,0.002678,0.000431,0.001293
620000,0.0324,0.013523,0.002678,0.000431,0.001175
621000,0.0324,0.013523,0.002678,0.000431,0.001293
622000,0.0324,0.013523,0.002678,0.000431,0.001058
623000,0.0324,0.013523,0.002678,0.000431,0.001410
624000,0.0324,0.013523,0.002678,0.000431,0.001293
625000,0.0324,0.013523,0.002678,0.000431,0.000940
626000,0.0324,0.013523,0.002678,0.000431,0.001175
627000,0.0324,0.013523,0.002678,0.000431,0.001175
628000,0.0324,0.013523,0.002678,0.000431,0.001293
629000,0.0324,0.013523,0.002678,0.000431,0.001293
630000,0.0324,0.013523,0.002678,0.000431,0.001058
631000,0.0324,0.013523,0.002678,0.000431,0.001410
632000,0.0324,0.013523,0.002678,0.000431,0.001175
633000,0.0324,0.013523,0.002678,0.000431,0.001293
634000,0.0324,0.013523,0.002678,0.000431,0.001175
635000,0.0324,0.013523,0.002678,0.000431,0.001293
636000,0.0324,0.013523,0.002678,0.000431,0.001058
637000,0.0324,0.013523,0.002678,0.000431,0.001058
638000,0.0324,0.013523,0.002678,0.000431,0.001293
639000,0.0324,0.013523,0.002678,0.000431,0.001293
640000,0.0324,0.013523,0.002678,0.000431,0.001528
641000,0.0324,0.013523,0.002678,0.000431,0.001058
642000,0.0324,0.013523,0.002678,0.000431,0.001058
643000,0.0324,0.013523,0.002678,0.000431,0.001293
644000,0.0324,0.013523,0.002678,0.000431,0.001293
645000,0.0324,0.013523,0.002678,0.000431,0.001410
646000,0.0324,0.013523,0.002678,0.000431,0.001175
647000,0.0324,0.013523,0.002678,0.000431,0.001293
648000,0.0324,0.013523,0.002678,0.000431,0.001058
649000,0.0324,0.013523,0.002678,0.000431,0.001058
650000,0.0324,0.013523,0.002678,0.000431,0.001293
651000,0.0324,0.013523,0.002678,0.000431,0.001175
652000,0.0324,0.013523,0.002678,0.000431,0.001293
653000,0.0324,0.013523,0.002678,0.000431,0.001293
654000,0.0324,0.013523,0.002678,0.000431,0.001410
655000,0.0324,0.013523,0.002678,0.000431,0.001175
656000,0.0324,0.013523,0.002678,0.000431,0.001058
657000,0.0324,0.013523,0.002678,0.000431,0.001293
658000,0.0324,0.013523,0.002678,0.000431,0.001175
659000,0.0324,0.013523,0.002678,0.000431,0.001058
660000,0.0324,0.013523,0.002678,0.000431,0.001293
661000,0.0324,0.013523,0.002678,0.000431,0.001058
662000,0.0324,0.013523,0.002678,0.000431,0.001058
663000,0.0324,0.013523,0.002678,0.000431,0.001175
664000,0.0324,0.013523,0.002678,0.000431,0.001293
665000,0.0324,0.013523,0.002678,0.000431,0.001058
666000,0.0324,0.013523,0.002678,0.000431,0.001175
667000,0.0324,0.013523,0.002678,0.000431,0.001175
668000,0.0324,0.013523,0.002678,0.000431,0.001293
669000,0.0324,0.013523,0.002678,0.000431,0.001293
670000,0.0324,0.013523,0.002678,0.000431,0.001058
671000,0.0324,0.013523,0.002678,0.000431,0.001410
672000,0.0324,0.013523,0.002678,0.000431,0.001175
673000,0.0324,0.013523,0.002678,0.000431,0.001293
674000,0.0324,0.013523,0.002678,0.000431,0.001293
675000,0.0324,0.013523,0.002678,0.000431,0.001058
676000,0.0324,0.013523,0.002678,0.000431,0.000940
677000,0.0324,0.013523,0.002678,0.000431,0.001293
678000,0.0324,0.013523,0.002678,0.000431,0.001293
679000,0.0324,0.013523,0.002678,0.000431,0.001175
680000,0.0324,0.013523,0.002678,0.000431,0.001410
681000,0.0324,0.013523,0.002678,0.000431,0.001293
682000,0.0324,0.013523,0.002678,0.000431,0.001410
683000,0.0324,0.013523,0.002678,0.000431,0.001293
684000,0.0324,0.013523,0.002678,0.000431,0.001293
685000,0.0324,0.013523,0.002678,0.000431,0.001293
686000,0.0324,0.013523,0.002678,0.000431,0.001175
687000,0.0324,0.013523,0.002678,0.000431,0.001175
688000,0.0324,0.013523,0.002678,0.000431,0.001175
689000,0.0324,0.013523,0.002678,0.000431,0.001293
690000,0.0324,0.013523,0.002678,0.000431,0.001410
691000,0.0324,0.013523,0.002678,0.000431,0.001058
692000,0.0324,0.013523,0.002678,0.000431,0.001175
693000,0.0324,0.013523,0.002678,0.000431,0.001175
694000,0.0324,0.013523,0.002678,0.000431,0.001175
695000,0.0324,0.013523,0.002678,0.000431,0.001175
696000,0.0324,0.013523,0.002678,0.000431,0.001058
697000,0.0324,0.013523,0.002678,0.000431,0.001410
698000,0.0324,0.013523,0.002678,0.000431,0.001058
699000,0.0324,0.013523,0.002678,0.000431,0.001293
700000,0.0324,0.013523,0.002678,0.000431,0.001528
701000,0.0324,0.013523,0.002678,0.000431,0.001175
702000,0.0324,0.013523,0.002678,0.000431,0.001175
703000,0.0324,0.013523,0.002678,0.000431,0.001175
704000,0.0324,0.013523,0.002678,0.000431,0.001410
705000,0.0324,0.013523,0.002678,0.000431,0.000940
706000,0.0324,0.013523,0.002678,0.000431,0.001175
707000,0.0324,0.013523,0.002678,0.000431,0.001293
708000,0.0324,0.013523,0.002678,0.000431,0.001175
709000,0.0324,0.013523,0.002678,0.000431,0.001293
710000,0.0324,0.013523,0.002678,0.000431,0.001058
711000,0.0324,0.013523,0.002678,0.000431,0.001175
712000,0.0324,0.013523,0.002678,0.000431,0.001293
713000,0.0324,0.013523,0.002678,0.000431,0.001410
714000,0.0324,0.013523,0.002678,0.000431,0.001175
715000,0.0324,0.013523,0.002678,0.000431,0.001410
716000,0.0324,0.013523,0.002678,0.000431,0.001175
717000,0.0324,0.013523,0.002678,0.000431,0.001175
718000,0.0324,0.013523,0.002678,0.000431,0.000940
719000,0.0324,0.013523,0.002678,0.000431,0.001175
720000,0.0324,0.013523,0.002678,0.000431,0.001175
721000,0.0324,0.013523,0.002678,0.000431,0.001058
722000,0.0324,0.013523,0.002678,0.000431,0.001293
723000,0.0324,0.013523,0.002678,0.000431,0.001175
724000,0.0324,0.013523,0.002678,0.000431,0.001410
725000,0.0324,0.013523,0.002678,0.000431,0.001058
726000,0.0324,0.013523,0.002678,0.000431,0.001058
727000,0.0324,0.013523,0.002678,0.000431,0.001293
728000,0.0324,0.013523,0.002678,0.000431,0.001058
729000,0.0324,0.013523,0.002678,0.000431,0.001293
730000,0.0324,0.013523,0.002678,0.000431,0.001175
731000,0.0324,0.013523,0.002678,0.000431,0.001293
732000,0.0324,0.013523,0.002678,0.000431,0.000940
733000,0.0324,0.013523,0.002678,0.000431,0.001410
734000,0.0324,0.013523,0.002678,0.000431,0.001175
735000,0.0324,0.013523,0.002678,0.000431,0.001175
736000,0.0324,0.013523,0.002678,0.000431,0.001175
737000,0.0324,0.013523,0.002678,0.000431,0.001175
738000,0.0324,0.013523,0.002678,0.000431,0.001058
739000,0.0324,0.013523,0.002678,0.000431,0.001410
740000,0.0324,0.013523,0.002678,0.000431,0.001410
741000,0.0324,0.013523,0.002678,0.000431,0.001058
742000,0.0324,0.013523,0.002678,0.000431,0.001293
743000,0.0324,0.013523,0.002678,0.000431,0.001175
744000,0.0324,0.013523,0.002678,0.000431,0.001410
745000,0.0324,0.013523,0.002678,0.000431,0.001293
746000,0.0324,0.013523,0.002678,0.000431,0.001175
747000,0.0324,0.013523,0.002678,0.000431,0.001058
748000,0.0324,0.013523,0.002678,0.000431,0.001293
749000,0.0324,0.013523,0.002678,0.000431,0.001410
750000,0.0324,0.013523,0.002678,0.000431,0.000940
751000,0.0324,0.013523,0.002678,0.000431,0.001175
752000,0.0324,0.013523,0.002678,0.000431,0.001175
753000,0.0324,0.013523,0.002678,0.000431,0.001410
754000,0.0324,0.013523,0.002678,0.000431,0.001175
755000,0.0324,0.013523,0.002678,0.000431,0.001293
756000,0.0324,0.013523,0.002678,0.000431,0.001293
757000,0.0324,0.013523,0.002678,0.000431,0.001175
758000,0.0324,0.013523,0.002678,0.000431,0.001410
759000,0.0324,0.013523,0.002678,0.000431,0.001175
760000,0.0324,0.013523,0.002678,0.000431,0.000940
761000,0.0324,0.013523,0.002678,0.000431,0.000940
762000,0.0324,0.013523,0.002678,0.000431,0.001410
763000,0.0324,0.013523,0.002678,0.000431,0.000940
764000,0.0324,0.013523,0.002678,0.000431,0.001175
765000,0.0324,0.013523,0.002678,0.000431,0.001175
766000,0.0324,0.013523,0.002678,0.000431,0.001410
767000,0.0324,0.013523,0.002678,0.000431,0.001175
768000,0.0324,0.013523,0.002678,0.000431,0.001175
769000,0.0324,0.013523,0.002678,0.000431,0.001410
770000,0.0324,0.013523,0.002678,0.000431,0.001293
771000,0.0324,0.013523,0.002678,0.000431,0.001293
772000,0.0324,0.013523,0.002678,0.000431,0.001058
773000,0.0324,0.013523,0.002678,0.000431,0.001410
774000,0.0324,0.013523,0.002678,0.000431,0.001293
775000,0.0324,0.013523,0.002678,0.000431,0.001175
776000,0.0324,0.013523,0.002678,0.000431,0.000940
777000,0.0324,0.013523,0.002678,0.000431,0.001410
778000,0.0324,0.013523,0.002678,0.000431,0.001175
779000,0.0324,0.013523,0.002678,0.000431,0.001410
780000,0.0324,0.013523,0.002678,0.000431,0.000940
781000,0.0324,0.013523,0.002678,0.000431,0.001175
782000,0.0324,0.013523,0.002678,0.000431,0.001410
783000,0.0324,0.013523,0.002678,0.000431,0.001410
784000,0.0324,0.013523,0.002678,0.000431,0.000940
785000,0.0324,0.013523,0.002678,0.000431,0.001175
786000,0.0324,0.013523,0.002678,0.000431,0.001175
787000,0.0324,0.013523,0.002678,0.000431,0.001175
788000,0.0324,0.013523,0.002678,0.000431,0.001175
789000,0.0324,0.013523,0.002678,0.000431,0.001175
790000,0.0324,0.013523,0.002678,0.000431,0.001175
791000,0.0324,0.013523,0.002678,0.000431,0.000940
792000,0.0324,0.013523,0.002678,0.000431,0.001175
793000,0.0324,0.013523,0.002678,0.000431,0.001410
794000,0.0324,0.013523,0.002678,0.000431,0.000940
795000,0.0324,0.013523,0.002678,0.000431,0.000940
796000,0.0324,0.013523,0.002678,0.000431,0.001410
797000,0.0324,0.013523,0.002678,0.000431,0.001293
798000,0.0324,0.013523,0.002678,0.000431,0.001410
799000,0.0324,0.013523,0.002678,0.000431,0.001175
800000,0.0324,0.013523,0.002678,0.000431,0.001410
801000,0.0324,0.013523,0.002678,0.000431,0.001175
802000,0.0324,0.013523,0.002678,0.000431,0.001293
803000,0.0324,0.013523,0.002678,0.000431,0.001410
804000,0.0324,0.013523,0.002678,0.000431,0.001175
805000,0.0324,0.013523,0.002678,0.000431,0.000940
806000,0.0324,0.013523,0.002678,0.000431,0.001410
807000,0.0324,0.013523,0.002678,0.000431,0.001175
808000,0.0324,0.013523,0.002678,0.000431,0.000940
809000,0.0324,0.013523,0.002678,0.000431,0.001293
810000,0.0324,0.013523,0.002678,0.000431,0.001293
811000,0.0324,0.013523,0.002678,0.000431,0.001175
812000,0.0324,0.013523,0.002678,0.000431,0.000940
813000,0.0324,0.013523,0.002678,0.000431,0.001410
814000,0.0324,0.013523,0.002678,0.000431,0.001175
815000,0.0324,0.013523,0.002678,0.000431,0.001175
816000,0.0324,0.013523,0.002678,0.000431,0.000940
817000,0.0324,0.013523,0.002678,0.000431,0.001410
818000,0.0324,0.013523,0.002678,0.000431,0.000940
819000,0.0324,0.013523,0.002678,0.000431,0.001175
820000,0.0324,0.013523,0.002678,0.000431,0.001175
821000,0.0324,0.013523,0.002678,0.000431,0.001410
822000,0.0324,0.013523,0.002678,0.000431,0.000940
823000,0.0324,0.013523,0.002678,0.000431,0.000940
824000,0.0324,0.013523,0.002678,0.000431,0.001410
825000,0.0324,0.013523,0.002678,0.000431,0.001175
826000,0.0324,0.013523,0.002678,0.000431,0.001175
827000,0.0324,0.013523,0.002678,0.000431,0.000940
828000,0.0324,0.013523,0.002678,0.000431,0.000940
829000,0.0324,0.013523,0.002678,0.000431,0.001175
830000,0.0324,0.013523,0.002678,0.000431,0.001175
831000,0.0324,0.013523,0.002678,0.000431,0.001410
832000,0.0324,0.013523,0.002678,0.000431,0.000940
833000,0.0324,0.013523,0.002678,0.000431,0.001410
834000,0.0324,0.013523,0.002678,0.000431,0.001058
835000,0.0324,0.013523,0.002678,0.000431,0.001058
836000,0.0324,0.013523,0.002678,0.000431,0.001410
837000,0.0324,0.013523,0.002678,0.000431,0.001175
838000,0.0324,0.013523,0.002678,0.000431,0.001175
839000,0.0324,0.013523,0.002678,0.000431,0.001293
840000,0.0324,0.013523,0.002678,0.000431,0.001058
841000,0.0324,0.013523,0.002678,0.000431,0.001410
842000,0.0324,0.013523,0.002678,0.000431,0.000940
843000,0.0324,0.013523,0.002678,0.000431,0.001175
844000,0.0324,0.013523,0.002678,0.000431,0.001175
845000,0.0324,0.013523,0.002678,0.000431,0.001175
846000,0.0324,0.013523,0.002678,0.000431,0.001175
847000,0.0324,0.013523,0.002678,0.000431,0.001175
848000,0.0324,0.013523,0.002678,0.000431,0.001175
849000,0.0324,0.013523,0.002678,0.000431,0.001410
850000,0.0324,0.013523,0.002678,0.000431,0.001410
851000,0.0324,0.013523,0.002678,0.000431,0.001175
852000,0.0324,0.013523,0.002678,0.000431,0.001175
853000,0.0324,0.013523,0.002678,0.000431,0.001293
854000,0.0324,0.013523,0.002678,0.000431,0.001058
855000,0.0324,0.013523,0.002678,0.000431,0.001410
856000,0.0324,0.013523,0.002678,0.000431,0.001058
857000,0.0324,0.013523,0.002678,0.000431,0.001410
858000,0.0324,0.013523,0.002678,0.000431,0.001293
859000,0.0324,0.013523,0.002678,0.000431,0.001175
860000,0.0324,0.013523,0.002678,0.000431,0.001175
861000,0.0324,0.013523,0.002678,0.000431,0.001175
862000,0.0324,0.013523,0.002678,0.000431,0.001175
863000,0.0324,0.013523,0.002678,0.000431,0.000940
864000,0.0324,0.013523,0.002678,0.000431,0.001175
865000,0.0324,0.013523,0.002678,0.000431,0.001175
866000,0.0324,0.013523,0.002678,0.000431,0.001410
867000,0.0324,0.013523,0.002678,0.000431,0.001175
868000,0.0324,0.013523,0.002678,0.000431,0.000940
869000,0.0324,0.013523,0.002678,0.000431,0.001175
870000,0.0324,0.013523,0.002678,0.000431,0.001175
871000,0.0324,0.013523,0.002678,0.000431,0.001175
872000,0.0324,0.013523,0.002678,0.000431,0.001410
873000,0.0324,0.013523,0.002678,0.000431,0.000940
874000,0.0324,0.013523,0.002678,0.000431,0.000940
875000,0.0324,0.013523,0.002678,0.000431,0.001175
876000,0.0324,0.013523,0.002678,0.000431,0.001175
877000,0.0324,0.013523,0.002678,0.000431,0.001175
878000,0.0324,0.013523,0.002678,0.000431,0.001175
879000,0.0324,0.013523,0.002678,0.000431,0.001410
880000,0.0324,0.013523,0.002678,0.000431,0.001175
881000,0.0324,0.013523,0.002678,0.000431,0.001175
882000,0.0324,0.013523,0.002678,0.000431,0.001175
883000,0.0324,0.013523,0.002678,0.000431,0.001410
884000,0.0324,0.013523,0.002678,0.000431,0.001175
885000,0.0324,0.013523,0.002678,0.000431,0.000940
886000,0.0324,0.013523,0.002678,0.000431,0.001175
887000,0.0324,0.013523,0.002678,0.000431,0.001293
888000,0.0324,0.013523,0.002678,0.000431,0.001058
889000,0.0324,0.013523,0.002678,0.000431,0.000940
890000,0.0324,0.013523,0.002678,0.000431,0.001410
891000,0.0324,0.013523,0.002678,0.000431,0.001175
892000,0.0324,0.013523,0.002678,0.000431,0.001175
893000,0.0324,0.013523,0.002678,0.000431,0.001293
894000,0.0324,0.013523,0.002678,0.000431,0.001175
895000,0.0324,0.013523,0.002678,0.000431,0.001293
896000,0.0324,0.013523,0.002678,0.000431,0.001175
897000,0.0324,0.013523,0.002678,0.000431,0.001293
898000,0.0324,0.013523,0.002678,0.000431,0.001175
899000,0.0324,0.013523,0.002678,0.000431,0.001293
900000,0.0324,0.013523,0.002678,0.000431,0.001293
901000,0.0324,0.013523,0.002678,0.000431,0.001293
902000,0.0324,0.013523,0.002678,0.000431,0.001293
903000,0.0324,0.013523,0.002678,0.000431,0.001293
904000,0.0324,0.013523,0.002678,0.000431,0.001410
905000,0.0324,0.013523,0.002678,0.000431,0.001175
906000,0.0324,0.013523,0.002678,0.000431,0.000940
907000,0.0324,0.013523,0.002678,0.000431,0.001410
908000,0.0324,0.013523,0.002678,0.000431,0.001058
909000,0.0324,0.013523,0.002678,0.000431,0.001293
910000,0.0324,0.013523,0.002678,0.000431,0.001293
911000,0.0324,0.013523,0.002678,0.000431,0.001293
912000,0.0324,0.013523,0.002678,0.000431,0.001175
913000,0.0324,0.013523,0.002678,0.000431,0.001175
914000,0.0324,0.013523,0.002678,0.000431,0.001528
915000,0.0324,0.013523,0.002678,0.000431,0.001058
916000,0.0324,0.013523,0.002678,0.000431,0.001175
917000,0.0324,0.013523,0.002678,0.000431,0.001175
918000,0.0324,0.013523,0.002678,0.000431,0.001293
919000,0.0324,0.013523,0.002678,0.000431,0.001293
920000,0.0324,0.013523,0.002678,0.000431,0.001410
921000,0.0324,0.013523,0.002678,0.000431,0.001410
922000,0.0324,0.013523,0.002678,0.000431,0.001293
923000,0.0324,0.013523,0.002678,0.000431,0.001293
924000,0.0324,0.013523,0.002678,0.000431,0.001410
925000,0.0324,0.013523,0.002678,0.000431,0.000940
926000,0.0324,0.013523,0.002678,0.000431,0.001175
927000,0.0324,0.013523,0.002678,0.000431,0.001410
928000,0.0324,0.013523,0.002678,0.000431,0.001058
929000,0.0324,0.013523,0.002678,0.000431,0.001058
930000,0.0324,0.013523,0.002678,0.000431,0.001175
931000,0.0324,0.013523,0.002678,0.000431,0.000940
932000,0.0324,0.013523,0.002678,0.000431,0.001175
933000,0.0324,0.013523,0.002678,0.000431,0.001058
934000,0.0324,0.013523,0.002678,0.000431,0.001058
935000,0.0324,0.013523,0.002678,0.000431,0.001410
936000,0.0324,0.013523,0.002678,0.000431,0.000940
937000,0.0324,0.013523,0.002678,0.000431,0.001293
938000,0.0324,0.013523,0.002678,0.000431,0.001058
939000,0.0324,0.013523,0.002678,0.000431,0.001410
940000,0.0324,0.013523,0.002678,0.000431,0.001293
941000,0.0324,0.013523,0.002678,0.000431,0.001293
942000,0.0324,0.013523,0.002678,0.000431,0.001175
943000,0.0324,0.013523,0.002678,0.000431,0.001175
944000,0.0324,0.013523,0.002678,0.000431,0.001410
945000,0.0324,0.013523,0.002678,0.000431,0.000940
946000,0.0324,0.013523,0.002678,0.000431,0.001175
947000,0.0324,0.013523,0.002678,0.000431,0.000940
948000,0.0324,0.013523,0.002678,0.000431,0.001175
949000,0.0324,0.013523,0.002678,0.000431,0.000940
950000,0.0324,0.013523,0.002678,0.000431,0.001175
951000,0.0324,0.013523,0.002678,0.000431,0.001175
952000,0.0324,0.013523,0.002678,0.000431,0.001410
953000,0.0324,0.013523,0.002678,0.000431,0.001175
954000,0.0324,0.013523,0.002678,0.000431,0.001293
955000,0.0324,0.013523,0.002678,0.000431,0.001410
956000,0.0324,0.013523,0.002678,0.000431,0.001410
957000,0.0324,0.013523,0.002678,0.000431,0.001175
958000,0.0324,0.013523,0.002678,0.000431,0.001293
959000,0.0324,0.013523,0.002678,0.000431,0.001175
960000,0.0324,0.013523,0.002678,0.000431,0.001175
961000,0.0324,0.013523,0.002678,0.000431,0.001175
962000,0.0324,0.013523,0.002678,0.000431,0.001293
963000,0.0324,0.013523,0.002678,0.000431,0.001293
964000,0.0324,0.013523,0.002678,0.000431,0.001410
965000,0.0324,0.013523,0.002678,0.000431,0.001293
966000,0.0324,0.013523,0.002678,0.000431,0.001175
967000,0.0324,0.013523,0.002678,0.000431,0.001293
968000,0.0324,0.013523,0.002678,0.000431,0.001175
969000,0.0324,0.013523,0.002678,0.000431,0.001410
970000,0.0324,0.013523,0.002678,0.000431,0.000940
971000,0.0324,0.013523,0.002678,0.000431,0.001175
972000,0.0324,0.013523,0.002678,0.000431,0.001175
973000,0.0324,0.013523,0.002678,0.000431,0.001410
974000,0.0324,0.013523,0.002678,0.000431,0.001175
975000,0.0324,0.013523,0.002678,0.000431,0.001175
976000,0.0324,0.013523,0.002678,0.000431,0.001175
977000,0.0324,0.013523,0.002678,0.000431,0.001175
978000,0.0324,0.013523,0.002678,0.000431,0.001410
979000,0.0324,0.013523,0.002678,0.000431,0.001175
980000,0.0324,0.013523,0.002678,0.000431,0.001058
981000,0.0324,0.013523,0.002678,0.000431,0.001293
982000,0.0324,0.013523,0.002678,0.000431,0.001410
983000,0.0324,0.013523,0.002678,0.000431,0.001175
984000,0.0324,0.013523,0.002678,0.000431,0.001175
985000,0.0324,0.013523,0.002678,0.000431,0.001293
986000,0.0324,0.013523,0.002678,0.000431,0.001293
987000,0.0324,0.013523,0.002678,0.000431,0.001410
988000,0.0324,0.013523,0.002678,0.000431,0.001293
989000,0.0324,0.013523,0.002678,0.000431,0.001293
990000,0.0324,0.013523,0.002678,0.000431,0.001410
991000,0.0324,0.013523,0.002678,0.000431,0.001293
992000,0.0324,0.013523,0.002678,0.000431,0.001528
993000,0.0324,0.013523,0.002678,0.000431,0.001058
994000,0.0324,0.013523,0.002678,0.000431,0.001293
995000,0.0324,0.013523,0.002678,0.000431,0.001410
996000,0.0324,0.013523,0.002678,0.000431,0.001175
997000,0.0324,0.013523,0.002678,0.000431,0.001293
998000,0.0324,0.013523,0.002678,0.000431,0.001293
999000,0.0324,0.013523,0.002678,0.000431,0.001175
