Cycle,Area(mm^2),PeakDynamic(W),SubthresholdLeakage(W),GateLeakage(W),RunTimeDynamic(W)
100,0.0324,0.013523,0.002678,0.000431,0.250335
200,0.0324,0.013523,0.002678,0.000431,0.000000
300,0.0324,0.013523,0.002678,0.000431,0.000000
400,0.0324,0.013523,0.002678,0.000431,0.000000
500,0.0324,0.013523,0.002678,0.000431,0.000000
600,0.0324,0.013523,0.002678,0.000431,0.000000
700,0.0324,0.013523,0.002678,0.000431,0.000000
800,0.0324,0.013523,0.002678,0.000431,0.000000
900,0.0324,0.013523,0.002678,0.000431,0.000000
1000,0.0324,0.013523,0.002678,0.000431,0.000000
1100,0.0324,0.013523,0.002678,0.000431,0.000000
1200,0.0324,0.013523,0.002678,0.000431,0.000000
1300,0.0324,0.013523,0.002678,0.000431,0.000000
1400,0.0324,0.013523,0.002678,0.000431,0.000000
1500,0.0324,0.013523,0.002678,0.000431,0.000000
1600,0.0324,0.013523,0.002678,0.000431,0.000000
1700,0.0324,0.013523,0.002678,0.000431,0.000000
1800,0.0324,0.013523,0.002678,0.000431,0.000000
1900,0.0324,0.013523,0.002678,0.000431,0.000000
2000,0.0324,0.013523,0.002678,0.000431,0.000000
2100,0.0324,0.013523,0.002678,0.000431,0.000000
2200,0.0324,0.013523,0.002678,0.000431,0.000000
2300,0.0324,0.013523,0.002678,0.000431,0.000000
2400,0.0324,0.013523,0.002678,0.000431,0.000000
2500,0.0324,0.013523,0.002678,0.000431,0.000000
2600,0.0324,0.013523,0.002678,0.000431,0.000000
2700,0.0324,0.013523,0.002678,0.000431,0.000000
2800,0.0324,0.013523,0.002678,0.000431,0.000000
2900,0.0324,0.013523,0.002678,0.000431,0.000000
3000,0.0324,0.013523,0.002678,0.000431,0.000000
3100,0.0324,0.013523,0.002678,0.000431,0.000000
3200,0.0324,0.013523,0.002678,0.000431,0.000000
3300,0.0324,0.013523,0.002678,0.000431,0.000000
3400,0.0324,0.013523,0.002678,0.000431,0.000000
3500,0.0324,0.013523,0.002678,0.000431,0.000000
3600,0.0324,0.013523,0.002678,0.000431,0.000000
3700,0.0324,0.013523,0.002678,0.000431,0.000000
3800,0.0324,0.013523,0.002678,0.000431,0.000000
3900,0.0324,0.013523,0.002678,0.000431,0.000000
4000,0.0324,0.013523,0.002678,0.000431,0.000000
4100,0.0324,0.013523,0.002678,0.000431,0.000000
4200,0.0324,0.013523,0.002678,0.000431,0.000000
4300,0.0324,0.013523,0.002678,0.000431,0.000000
4400,0.0324,0.013523,0.002678,0.000431,0.000000
4500,0.0324,0.013523,0.002678,0.000431,0.000000
4600,0.0324,0.013523,0.002678,0.000431,0.000000
4700,0.0324,0.013523,0.002678,0.000431,0.000000
4800,0.0324,0.013523,0.002678,0.000431,0.000000
4900,0.0324,0.013523,0.002678,0.000431,0.000000
5000,0.0324,0.013523,0.002678,0.000431,0.000000
5100,0.0324,0.013523,0.002678,0.000431,0.000000
5200,0.0324,0.013523,0.002678,0.000431,0.029382
5300,0.0324,0.013523,0.002678,0.000431,0.000000
5400,0.0324,0.013523,0.002678,0.000431,0.159838
5500,0.0324,0.013523,0.002678,0.000431,0.783913
5600,0.0324,0.013523,0.002678,0.000431,0.111652
5700,0.0324,0.013523,0.002678,0.000431,1.961545
5800,0.0324,0.013523,0.002678,0.000431,2.892369
5900,0.0324,0.013523,0.002678,0.000431,2.878265
6000,0.0324,0.013523,0.002678,0.000431,1.049527
6100,0.0324,0.013523,0.002678,0.000431,1.493783
6200,0.0324,0.013523,0.002678,0.000431,1.315140
6300,0.0324,0.013523,0.002678,0.000431,0.799192
6400,0.0324,0.013523,0.002678,0.000431,0.706344
6500,0.0324,0.013523,0.002678,0.000431,0.845028
6600,0.0324,0.013523,0.002678,0.000431,1.105940
6700,0.0324,0.013523,0.002678,0.000431,0.888513
6800,0.0324,0.013523,0.002678,0.000431,0.910843
6900,0.0324,0.013523,0.002678,0.000431,0.890864
7000,0.0324,0.013523,0.002678,0.000431,0.874410
7100,0.0324,0.013523,0.002678,0.000431,1.114167
7200,0.0324,0.013523,0.002678,0.000431,0.902616
7300,0.0324,0.013523,0.002678,0.000431,0.739252
7400,0.0324,0.013523,0.002678,0.000431,0.862657
7500,0.0324,0.013523,0.002678,0.000431,0.649931
7600,0.0324,0.013523,0.002678,0.000431,0.760407
7700,0.0324,0.013523,0.002678,0.000431,0.973133
7800,0.0324,0.013523,0.002678,0.000431,0.964906
7900,0.0324,0.013523,0.002678,0.000431,0.854430
8000,0.0324,0.013523,0.002678,0.000431,0.593517
8100,0.0324,0.013523,0.002678,0.000431,0.602920
8200,0.0324,0.013523,0.002678,0.000431,0.751005
8300,0.0324,0.013523,0.002678,0.000431,0.631126
8400,0.0324,0.013523,0.002678,0.000431,0.740428
8500,0.0324,0.013523,0.002678,0.000431,0.634652
8600,0.0324,0.013523,0.002678,0.000431,0.672261
8700,0.0324,0.013523,0.002678,0.000431,0.766284
8800,0.0324,0.013523,0.002678,0.000431,0.624075
8900,0.0324,0.013523,0.002678,0.000431,0.679313
9000,0.0324,0.013523,0.002678,0.000431,0.540630
9100,0.0324,0.013523,0.002678,0.000431,0.553558
9200,0.0324,0.013523,0.002678,0.000431,0.570012
9300,0.0324,0.013523,0.002678,0.000431,0.644054
9400,0.0324,0.013523,0.002678,0.000431,0.678138
9500,0.0324,0.013523,0.002678,0.000431,0.612322
9600,0.0324,0.013523,0.002678,0.000431,0.713396
9700,0.0324,0.013523,0.002678,0.000431,0.637003
9800,0.0324,0.013523,0.002678,0.000431,0.709870
9900,0.0324,0.013523,0.002678,0.000431,0.535929
10000,0.0324,0.013523,0.002678,0.000431,0.633477
10100,0.0324,0.013523,0.002678,0.000431,0.656983
10200,0.0324,0.013523,0.002678,0.000431,0.619374
10300,0.0324,0.013523,0.002678,0.000431,0.494794
10400,0.0324,0.013523,0.002678,0.000431,0.558259
10500,0.0324,0.013523,0.002678,0.000431,0.466587
10600,0.0324,0.013523,0.002678,0.000431,0.410173
10700,0.0324,0.013523,0.002678,0.000431,0.437205
10800,0.0324,0.013523,0.002678,0.000431,0.398421
10900,0.0324,0.013523,0.002678,0.000431,0.511248
11000,0.0324,0.013523,0.002678,0.000431,0.538279
11100,0.0324,0.013523,0.002678,0.000431,0.520650
11200,0.0324,0.013523,0.002678,0.000431,0.557084
11300,0.0324,0.013523,0.002678,0.000431,0.552382
11400,0.0324,0.013523,0.002678,0.000431,0.615848
11500,0.0324,0.013523,0.002678,0.000431,0.585290
11600,0.0324,0.013523,0.002678,0.000431,0.565311
11700,0.0324,0.013523,0.002678,0.000431,0.577063
11800,0.0324,0.013523,0.002678,0.000431,0.611147
11900,0.0324,0.013523,0.002678,0.000431,0.581765
12000,0.0324,0.013523,0.002678,0.000431,0.637003
12100,0.0324,0.013523,0.002678,0.000431,0.629951
12200,0.0324,0.013523,0.002678,0.000431,0.699293
12300,0.0324,0.013523,0.002678,0.000431,0.721623
12400,0.0324,0.013523,0.002678,0.000431,0.711046
12500,0.0324,0.013523,0.002678,0.000431,0.646405
12600,0.0324,0.013523,0.002678,0.000431,0.839151
12700,0.0324,0.013523,0.002678,0.000431,0.734551
12800,0.0324,0.013523,0.002678,0.000431,0.676962
12900,0.0324,0.013523,0.002678,0.000431,0.739252
13000,0.0324,0.013523,0.002678,0.000431,0.773335
13100,0.0324,0.013523,0.002678,0.000431,0.759232
13200,0.0324,0.013523,0.002678,0.000431,0.706344
13300,0.0324,0.013523,0.002678,0.000431,0.725149
13400,0.0324,0.013523,0.002678,0.000431,0.680488
13500,0.0324,0.013523,0.002678,0.000431,0.723974
13600,0.0324,0.013523,0.002678,0.000431,0.715747
13700,0.0324,0.013523,0.002678,0.000431,0.801542
13800,0.0324,0.013523,0.002678,0.000431,0.726324
13900,0.0324,0.013523,0.002678,0.000431,0.800367
14000,0.0324,0.013523,0.002678,0.000431,0.684014
14100,0.0324,0.013523,0.002678,0.000431,0.694592
14200,0.0324,0.013523,0.002678,0.000431,0.735726
14300,0.0324,0.013523,0.002678,0.000431,0.628776
14400,0.0324,0.013523,0.002678,0.000431,0.692241
14500,0.0324,0.013523,0.002678,0.000431,0.568836
14600,0.0324,0.013523,0.002678,0.000431,0.716922
14700,0.0324,0.013523,0.002678,0.000431,0.626425
14800,0.0324,0.013523,0.002678,0.000431,0.681663
14900,0.0324,0.013523,0.002678,0.000431,0.660508
15000,0.0324,0.013523,0.002678,0.000431,0.735726
15100,0.0324,0.013523,0.002678,0.000431,0.679313
15200,0.0324,0.013523,0.002678,0.000431,0.732201
15300,0.0324,0.013523,0.002678,0.000431,0.584115
15400,0.0324,0.013523,0.002678,0.000431,0.523000
15500,0.0324,0.013523,0.002678,0.000431,0.658158
15600,0.0324,0.013523,0.002678,0.000431,0.520650
15700,0.0324,0.013523,0.002678,0.000431,0.575888
15800,0.0324,0.013523,0.002678,0.000431,0.585290
15900,0.0324,0.013523,0.002678,0.000431,0.674612
16000,0.0324,0.013523,0.002678,0.000431,0.484216
16100,0.0324,0.013523,0.002678,0.000431,0.597043
16200,0.0324,0.013523,0.002678,0.000431,0.580589
16300,0.0324,0.013523,0.002678,0.000431,0.564135
16400,0.0324,0.013523,0.002678,0.000431,0.597043
16500,0.0324,0.013523,0.002678,0.000431,0.633477
16600,0.0324,0.013523,0.002678,0.000431,0.619374
16700,0.0324,0.013523,0.002678,0.000431,0.537104
16800,0.0324,0.013523,0.002678,0.000431,0.602920
16900,0.0324,0.013523,0.002678,0.000431,0.481866
17000,0.0324,0.013523,0.002678,0.000431,0.544155
17100,0.0324,0.013523,0.002678,0.000431,0.611147
17200,0.0324,0.013523,0.002678,0.000431,0.553558
17300,0.0324,0.013523,0.002678,0.000431,0.597043
17400,0.0324,0.013523,0.002678,0.000431,0.585290
17500,0.0324,0.013523,0.002678,0.000431,0.480690
17600,0.0324,0.013523,0.002678,0.000431,0.551207
17700,0.0324,0.013523,0.002678,0.000431,0.474814
17800,0.0324,0.013523,0.002678,0.000431,0.530052
17900,0.0324,0.013523,0.002678,0.000431,0.486567
18000,0.0324,0.013523,0.002678,0.000431,0.454834
18100,0.0324,0.013523,0.002678,0.000431,0.467762
18200,0.0324,0.013523,0.002678,0.000431,0.551207
18300,0.0324,0.013523,0.002678,0.000431,0.550032
18400,0.0324,0.013523,0.002678,0.000431,0.585290
18500,0.0324,0.013523,0.002678,0.000431,0.515949
18600,0.0324,0.013523,0.002678,0.000431,0.499495
18700,0.0324,0.013523,0.002678,0.000431,0.471288
18800,0.0324,0.013523,0.002678,0.000431,0.452484
18900,0.0324,0.013523,0.002678,0.000431,0.527702
19000,0.0324,0.013523,0.002678,0.000431,0.453659
19100,0.0324,0.013523,0.002678,0.000431,0.539454
19200,0.0324,0.013523,0.002678,0.000431,0.459535
19300,0.0324,0.013523,0.002678,0.000431,0.458360
19400,0.0324,0.013523,0.002678,0.000431,0.392544
19500,0.0324,0.013523,0.002678,0.000431,0.461886
19600,0.0324,0.013523,0.002678,0.000431,0.378441
19700,0.0324,0.013523,0.002678,0.000431,0.475989
19800,0.0324,0.013523,0.002678,0.000431,0.393719
19900,0.0324,0.013523,0.002678,0.000431,0.492443
20000,0.0324,0.013523,0.002678,0.000431,0.420751
20100,0.0324,0.013523,0.002678,0.000431,0.453659
20200,0.0324,0.013523,0.002678,0.000431,0.398421
20300,0.0324,0.013523,0.002678,0.000431,0.372564
20400,0.0324,0.013523,0.002678,0.000431,0.452484
20500,0.0324,0.013523,0.002678,0.000431,0.357286
20600,0.0324,0.013523,0.002678,0.000431,0.532403
20700,0.0324,0.013523,0.002678,0.000431,0.343182
20800,0.0324,0.013523,0.002678,0.000431,0.477164
20900,0.0324,0.013523,0.002678,0.000431,0.413699
21000,0.0324,0.013523,0.002678,0.000431,0.427803
21100,0.0324,0.013523,0.002678,0.000431,0.410173
21200,0.0324,0.013523,0.002678,0.000431,0.336131
21300,0.0324,0.013523,0.002678,0.000431,0.423101
21400,0.0324,0.013523,0.002678,0.000431,0.370214
21500,0.0324,0.013523,0.002678,0.000431,0.378441
21600,0.0324,0.013523,0.002678,0.000431,0.363162
21700,0.0324,0.013523,0.002678,0.000431,0.338481
21800,0.0324,0.013523,0.002678,0.000431,0.358461
21900,0.0324,0.013523,0.002678,0.000431,0.376090
22000,0.0324,0.013523,0.002678,0.000431,0.363162
22100,0.0324,0.013523,0.002678,0.000431,0.336131
22200,0.0324,0.013523,0.002678,0.000431,0.352585
22300,0.0324,0.013523,0.002678,0.000431,0.407823
22400,0.0324,0.013523,0.002678,0.000431,0.292645
22500,0.0324,0.013523,0.002678,0.000431,0.383142
22600,0.0324,0.013523,0.002678,0.000431,0.371389
22700,0.0324,0.013523,0.002678,0.000431,0.319677
22800,0.0324,0.013523,0.002678,0.000431,0.334955
22900,0.0324,0.013523,0.002678,0.000431,0.345533
23000,0.0324,0.013523,0.002678,0.000431,0.352585
23100,0.0324,0.013523,0.002678,0.000431,0.302047
23200,0.0324,0.013523,0.002678,0.000431,0.370214
23300,0.0324,0.013523,0.002678,0.000431,0.313800
23400,0.0324,0.013523,0.002678,0.000431,0.280892
23500,0.0324,0.013523,0.002678,0.000431,0.337306
23600,0.0324,0.013523,0.002678,0.000431,0.292645
23700,0.0324,0.013523,0.002678,0.000431,0.306749
23800,0.0324,0.013523,0.002678,0.000431,0.324378
23900,0.0324,0.013523,0.002678,0.000431,0.266789
24000,0.0324,0.013523,0.002678,0.000431,0.318501
24100,0.0324,0.013523,0.002678,0.000431,0.296171
24200,0.0324,0.013523,0.002678,0.000431,0.311450
24300,0.0324,0.013523,0.002678,0.000431,0.258562
24400,0.0324,0.013523,0.002678,0.000431,0.297346
24500,0.0324,0.013523,0.002678,0.000431,0.277367
24600,0.0324,0.013523,0.002678,0.000431,0.305573
24700,0.0324,0.013523,0.002678,0.000431,0.275016
24800,0.0324,0.013523,0.002678,0.000431,0.319677
24900,0.0324,0.013523,0.002678,0.000431,0.276191
25000,0.0324,0.013523,0.002678,0.000431,0.286769
25100,0.0324,0.013523,0.002678,0.000431,0.264438
25200,0.0324,0.013523,0.002678,0.000431,0.260913
25300,0.0324,0.013523,0.002678,0.000431,0.267964
25400,0.0324,0.013523,0.002678,0.000431,0.218602
25500,0.0324,0.013523,0.002678,0.000431,0.240933
25600,0.0324,0.013523,0.002678,0.000431,0.253861
25700,0.0324,0.013523,0.002678,0.000431,0.245634
25800,0.0324,0.013523,0.002678,0.000431,0.251510
25900,0.0324,0.013523,0.002678,0.000431,0.199798
26000,0.0324,0.013523,0.002678,0.000431,0.235056
26100,0.0324,0.013523,0.002678,0.000431,0.197447
26200,0.0324,0.013523,0.002678,0.000431,0.245634
26300,0.0324,0.013523,0.002678,0.000431,0.212726
26400,0.0324,0.013523,0.002678,0.000431,0.264438
26500,0.0324,0.013523,0.002678,0.000431,0.252686
26600,0.0324,0.013523,0.002678,0.000431,0.193922
26700,0.0324,0.013523,0.002678,0.000431,0.206850
26800,0.0324,0.013523,0.002678,0.000431,0.198623
26900,0.0324,0.013523,0.002678,0.000431,0.189220
27000,0.0324,0.013523,0.002678,0.000431,0.200973
27100,0.0324,0.013523,0.002678,0.000431,0.212726
27200,0.0324,0.013523,0.002678,0.000431,0.225654
27300,0.0324,0.013523,0.002678,0.000431,0.192746
27400,0.0324,0.013523,0.002678,0.000431,0.216252
27500,0.0324,0.013523,0.002678,0.000431,0.168065
27600,0.0324,0.013523,0.002678,0.000431,0.199798
27700,0.0324,0.013523,0.002678,0.000431,0.179818
27800,0.0324,0.013523,0.002678,0.000431,0.202148
27900,0.0324,0.013523,0.002678,0.000431,0.193922
28000,0.0324,0.013523,0.002678,0.000431,0.176292
28100,0.0324,0.013523,0.002678,0.000431,0.185695
28200,0.0324,0.013523,0.002678,0.000431,0.168065
28300,0.0324,0.013523,0.002678,0.000431,0.164539
28400,0.0324,0.013523,0.002678,0.000431,0.176292
28500,0.0324,0.013523,0.002678,0.000431,0.161014
28600,0.0324,0.013523,0.002678,0.000431,0.176292
28700,0.0324,0.013523,0.002678,0.000431,0.177468
28800,0.0324,0.013523,0.002678,0.000431,0.155137
28900,0.0324,0.013523,0.002678,0.000431,0.153962
29000,0.0324,0.013523,0.002678,0.000431,0.163364
29100,0.0324,0.013523,0.002678,0.000431,0.145735
29200,0.0324,0.013523,0.002678,0.000431,0.163364
29300,0.0324,0.013523,0.002678,0.000431,0.139859
29400,0.0324,0.013523,0.002678,0.000431,0.145735
29500,0.0324,0.013523,0.002678,0.000431,0.146910
29600,0.0324,0.013523,0.002678,0.000431,0.129281
29700,0.0324,0.013523,0.002678,0.000431,0.139859
29800,0.0324,0.013523,0.002678,0.000431,0.137508
29900,0.0324,0.013523,0.002678,0.000431,0.129281
30000,0.0324,0.013523,0.002678,0.000431,0.155137
30100,0.0324,0.013523,0.002678,0.000431,0.123405
30200,0.0324,0.013523,0.002678,0.000431,0.128106
30300,0.0324,0.013523,0.002678,0.000431,0.125755
30400,0.0324,0.013523,0.002678,0.000431,0.118703
30500,0.0324,0.013523,0.002678,0.000431,0.122229
30600,0.0324,0.013523,0.002678,0.000431,0.124580
30700,0.0324,0.013523,0.002678,0.000431,0.121054
30800,0.0324,0.013523,0.002678,0.000431,0.115178
30900,0.0324,0.013523,0.002678,0.000431,0.098724
31000,0.0324,0.013523,0.002678,0.000431,0.112827
31100,0.0324,0.013523,0.002678,0.000431,0.125755
31200,0.0324,0.013523,0.002678,0.000431,0.101074
31300,0.0324,0.013523,0.002678,0.000431,0.110476
31400,0.0324,0.013523,0.002678,0.000431,0.118703
31500,0.0324,0.013523,0.002678,0.000431,0.089321
31600,0.0324,0.013523,0.002678,0.000431,0.108126
31700,0.0324,0.013523,0.002678,0.000431,0.094023
31800,0.0324,0.013523,0.002678,0.000431,0.094023
31900,0.0324,0.013523,0.002678,0.000431,0.092847
32000,0.0324,0.013523,0.002678,0.000431,0.114002
32100,0.0324,0.013523,0.002678,0.000431,0.084620
32200,0.0324,0.013523,0.002678,0.000431,0.105775
32300,0.0324,0.013523,0.002678,0.000431,0.095198
32400,0.0324,0.013523,0.002678,0.000431,0.066991
32500,0.0324,0.013523,0.002678,0.000431,0.129281
32600,0.0324,0.013523,0.002678,0.000431,0.088146
32700,0.0324,0.013523,0.002678,0.000431,0.094023
32800,0.0324,0.013523,0.002678,0.000431,0.088146
32900,0.0324,0.013523,0.002678,0.000431,0.075218
33000,0.0324,0.013523,0.002678,0.000431,0.089321
33100,0.0324,0.013523,0.002678,0.000431,0.076393
33200,0.0324,0.013523,0.002678,0.000431,0.095198
33300,0.0324,0.013523,0.002678,0.000431,0.078744
33400,0.0324,0.013523,0.002678,0.000431,0.076393
33500,0.0324,0.013523,0.002678,0.000431,0.075218
33600,0.0324,0.013523,0.002678,0.000431,0.088146
33700,0.0324,0.013523,0.002678,0.000431,0.062290
33800,0.0324,0.013523,0.002678,0.000431,0.076393
33900,0.0324,0.013523,0.002678,0.000431,0.076393
34000,0.0324,0.013523,0.002678,0.000431,0.085796
34100,0.0324,0.013523,0.002678,0.000431,0.074043
34200,0.0324,0.013523,0.002678,0.000431,0.062290
34300,0.0324,0.013523,0.002678,0.000431,0.068166
34400,0.0324,0.013523,0.002678,0.000431,0.065816
34500,0.0324,0.013523,0.002678,0.000431,0.072867
34600,0.0324,0.013523,0.002678,0.000431,0.063465
34700,0.0324,0.013523,0.002678,0.000431,0.051712
34800,0.0324,0.013523,0.002678,0.000431,0.071692
34900,0.0324,0.013523,0.002678,0.000431,0.049362
35000,0.0324,0.013523,0.002678,0.000431,0.066991
35100,0.0324,0.013523,0.002678,0.000431,0.051712
35200,0.0324,0.013523,0.002678,0.000431,0.064641
35300,0.0324,0.013523,0.002678,0.000431,0.050537
35400,0.0324,0.013523,0.002678,0.000431,0.050537
35500,0.0324,0.013523,0.002678,0.000431,0.055238
35600,0.0324,0.013523,0.002678,0.000431,0.068166
35700,0.0324,0.013523,0.002678,0.000431,0.048187
35800,0.0324,0.013523,0.002678,0.000431,0.055238
35900,0.0324,0.013523,0.002678,0.000431,0.048187
36000,0.0324,0.013523,0.002678,0.000431,0.062290
36100,0.0324,0.013523,0.002678,0.000431,0.042310
36200,0.0324,0.013523,0.002678,0.000431,0.051712
36300,0.0324,0.013523,0.002678,0.000431,0.056414
36400,0.0324,0.013523,0.002678,0.000431,0.039960
36500,0.0324,0.013523,0.002678,0.000431,0.041135
36600,0.0324,0.013523,0.002678,0.000431,0.052888
36700,0.0324,0.013523,0.002678,0.000431,0.037609
36800,0.0324,0.013523,0.002678,0.000431,0.039960
36900,0.0324,0.013523,0.002678,0.000431,0.042310
37000,0.0324,0.013523,0.002678,0.000431,0.039960
37100,0.0324,0.013523,0.002678,0.000431,0.034083
37200,0.0324,0.013523,0.002678,0.000431,0.034083
37300,0.0324,0.013523,0.002678,0.000431,0.045836
37400,0.0324,0.013523,0.002678,0.000431,0.039960
37500,0.0324,0.013523,0.002678,0.000431,0.032908
37600,0.0324,0.013523,0.002678,0.000431,0.044661
37700,0.0324,0.013523,0.002678,0.000431,0.036434
37800,0.0324,0.013523,0.002678,0.000431,0.035258
37900,0.0324,0.013523,0.002678,0.000431,0.039960
38000,0.0324,0.013523,0.002678,0.000431,0.032908
38100,0.0324,0.013523,0.002678,0.000431,0.035258
38200,0.0324,0.013523,0.002678,0.000431,0.023506
38300,0.0324,0.013523,0.002678,0.000431,0.028207
38400,0.0324,0.013523,0.002678,0.000431,0.031733
38500,0.0324,0.013523,0.002678,0.000431,0.031733
38600,0.0324,0.013523,0.002678,0.000431,0.037609
38700,0.0324,0.013523,0.002678,0.000431,0.022330
38800,0.0324,0.013523,0.002678,0.000431,0.037609
38900,0.0324,0.013523,0.002678,0.000431,0.027031
39000,0.0324,0.013523,0.002678,0.000431,0.036434
39100,0.0324,0.013523,0.002678,0.000431,0.024681
39200,0.0324,0.013523,0.002678,0.000431,0.032908
39300,0.0324,0.013523,0.002678,0.000431,0.028207
39400,0.0324,0.013523,0.002678,0.000431,0.021155
39500,0.0324,0.013523,0.002678,0.000431,0.032908
39600,0.0324,0.013523,0.002678,0.000431,0.021155
39700,0.0324,0.013523,0.002678,0.000431,0.030557
39800,0.0324,0.013523,0.002678,0.000431,0.024681
39900,0.0324,0.013523,0.002678,0.000431,0.025856
40000,0.0324,0.013523,0.002678,0.000431,0.025856
40100,0.0324,0.013523,0.002678,0.000431,0.022330
40200,0.0324,0.013523,0.002678,0.000431,0.023506
40300,0.0324,0.013523,0.002678,0.000431,0.021155
40400,0.0324,0.013523,0.002678,0.000431,0.022330
40500,0.0324,0.013523,0.002678,0.000431,0.021155
40600,0.0324,0.013523,0.002678,0.000431,0.027031
40700,0.0324,0.013523,0.002678,0.000431,0.023506
40800,0.0324,0.013523,0.002678,0.000431,0.017629
40900,0.0324,0.013523,0.002678,0.000431,0.029382
41000,0.0324,0.013523,0.002678,0.000431,0.017629
41100,0.0324,0.013523,0.002678,0.000431,0.017629
41200,0.0324,0.013523,0.002678,0.000431,0.014103
41300,0.0324,0.013523,0.002678,0.000431,0.023506
41400,0.0324,0.013523,0.002678,0.000431,0.016454
41500,0.0324,0.013523,0.002678,0.000431,0.015279
41600,0.0324,0.013523,0.002678,0.000431,0.017629
41700,0.0324,0.013523,0.002678,0.000431,0.016454
41800,0.0324,0.013523,0.002678,0.000431,0.016454
41900,0.0324,0.013523,0.002678,0.000431,0.014103
42000,0.0324,0.013523,0.002678,0.000431,0.015279
42100,0.0324,0.013523,0.002678,0.000431,0.010578
42200,0.0324,0.013523,0.002678,0.000431,0.014103
42300,0.0324,0.013523,0.002678,0.000431,0.015279
42400,0.0324,0.013523,0.002678,0.000431,0.008227
42500,0.0324,0.013523,0.002678,0.000431,0.010578
42600,0.0324,0.013523,0.002678,0.000431,0.008227
42700,0.0324,0.013523,0.002678,0.000431,0.014103
42800,0.0324,0.013523,0.002678,0.000431,0.010578
42900,0.0324,0.013523,0.002678,0.000431,0.015279
43000,0.0324,0.013523,0.002678,0.000431,0.010578
43100,0.0324,0.013523,0.002678,0.000431,0.008227
43200,0.0324,0.013523,0.002678,0.000431,0.014103
43300,0.0324,0.013523,0.002678,0.000431,0.008227
43400,0.0324,0.013523,0.002678,0.000431,0.014103
43500,0.0324,0.013523,0.002678,0.000431,0.005876
43600,0.0324,0.013523,0.002678,0.000431,0.011753
43700,0.0324,0.013523,0.002678,0.000431,0.010578
43800,0.0324,0.013523,0.002678,0.000431,0.014103
43900,0.0324,0.013523,0.002678,0.000431,0.004701
44000,0.0324,0.013523,0.002678,0.000431,0.014103
44100,0.0324,0.013523,0.002678,0.000431,0.008227
44200,0.0324,0.013523,0.002678,0.000431,0.005876
44300,0.0324,0.013523,0.002678,0.000431,0.010578
44400,0.0324,0.013523,0.002678,0.000431,0.007052
44500,0.0324,0.013523,0.002678,0.000431,0.014103
44600,0.0324,0.013523,0.002678,0.000431,0.003526
44700,0.0324,0.013523,0.002678,0.000431,0.009402
44800,0.0324,0.013523,0.002678,0.000431,0.008227
44900,0.0324,0.013523,0.002678,0.000431,0.008227
45000,0.0324,0.013523,0.002678,0.000431,0.007052
45100,0.0324,0.013523,0.002678,0.000431,0.007052
45200,0.0324,0.013523,0.002678,0.000431,0.005876
45300,0.0324,0.013523,0.002678,0.000431,0.010578
45400,0.0324,0.013523,0.002678,0.000431,0.001175
45500,0.0324,0.013523,0.002678,0.000431,0.007052
45600,0.0324,0.013523,0.002678,0.000431,0.009402
45700,0.0324,0.013523,0.002678,0.000431,0.003526
45800,0.0324,0.013523,0.002678,0.000431,0.010578
45900,0.0324,0.013523,0.002678,0.000431,0.005876
46000,0.0324,0.013523,0.002678,0.000431,0.009402
46100,0.0324,0.013523,0.002678,0.000431,0.002351
46200,0.0324,0.013523,0.002678,0.000431,0.008227
46300,0.0324,0.013523,0.002678,0.000431,0.004701
46400,0.0324,0.013523,0.002678,0.000431,0.003526
46500,0.0324,0.013523,0.002678,0.000431,0.007052
46600,0.0324,0.013523,0.002678,0.000431,0.003526
46700,0.0324,0.013523,0.002678,0.000431,0.007052
46800,0.0324,0.013523,0.002678,0.000431,0.003526
46900,0.0324,0.013523,0.002678,0.000431,0.004701
47000,0.0324,0.013523,0.002678,0.000431,0.007052
47100,0.0324,0.013523,0.002678,0.000431,0.001175
47200,0.0324,0.013523,0.002678,0.000431,0.007052
47300,0.0324,0.013523,0.002678,0.000431,0.002351
47400,0.0324,0.013523,0.002678,0.000431,0.003526
47500,0.0324,0.013523,0.002678,0.000431,0.004701
47600,0.0324,0.013523,0.002678,0.000431,0.005876
47700,0.0324,0.013523,0.002678,0.000431,0.003526
47800,0.0324,0.013523,0.002678,0.000431,0.003526
47900,0.0324,0.013523,0.002678,0.000431,0.005876
48000,0.0324,0.013523,0.002678,0.000431,0.002351
48100,0.0324,0.013523,0.002678,0.000431,0.007052
48200,0.0324,0.013523,0.002678,0.000431,0.001175
48300,0.0324,0.013523,0.002678,0.000431,0.005876
48400,0.0324,0.013523,0.002678,0.000431,0.007052
48500,0.0324,0.013523,0.002678,0.000431,0.003526
48600,0.0324,0.013523,0.002678,0.000431,0.001175
48700,0.0324,0.013523,0.002678,0.000431,0.002351
48800,0.0324,0.013523,0.002678,0.000431,0.005876
48900,0.0324,0.013523,0.002678,0.000431,0.004701
49000,0.0324,0.013523,0.002678,0.000431,0.002351
49100,0.0324,0.013523,0.002678,0.000431,0.007052
49200,0.0324,0.013523,0.002678,0.000431,0.003526
49300,0.0324,0.013523,0.002678,0.000431,0.003526
49400,0.0324,0.013523,0.002678,0.000431,0.002351
49500,0.0324,0.013523,0.002678,0.000431,0.001175
49600,0.0324,0.013523,0.002678,0.000431,0.002351
49700,0.0324,0.013523,0.002678,0.000431,0.003526
49800,0.0324,0.013523,0.002678,0.000431,0.002351
49900,0.0324,0.013523,0.002678,0.000431,0.002351
50000,0.0324,0.013523,0.002678,0.000431,0.004701
50100,0.0324,0.013523,0.002678,0.000431,0.003526
50200,0.0324,0.013523,0.002678,0.000431,0.002351
50300,0.0324,0.013523,0.002678,0.000431,0.002351
50400,0.0324,0.013523,0.002678,0.000431,0.002351
50500,0.0324,0.013523,0.002678,0.000431,0.003526
50600,0.0324,0.013523,0.002678,0.000431,0.004701
50700,0.0324,0.013523,0.002678,0.000431,0.001175
50800,0.0324,0.013523,0.002678,0.000431,0.005876
50900,0.0324,0.013523,0.002678,0.000431,0.002351
51000,0.0324,0.013523,0.002678,0.000431,0.002351
51100,0.0324,0.013523,0.002678,0.000431,0.002351
51200,0.0324,0.013523,0.002678,0.000431,0.003526
51300,0.0324,0.013523,0.002678,0.000431,0.004701
51400,0.0324,0.013523,0.002678,0.000431,0.001175
51500,0.0324,0.013523,0.002678,0.000431,0.002351
51600,0.0324,0.013523,0.002678,0.000431,0.005876
51700,0.0324,0.013523,0.002678,0.000431,0.001175
51800,0.0324,0.013523,0.002678,0.000431,0.003526
51900,0.0324,0.013523,0.002678,0.000431,0.001175
52000,0.0324,0.013523,0.002678,0.000431,0.002351
52100,0.0324,0.013523,0.002678,0.000431,0.002351
52200,0.0324,0.013523,0.002678,0.000431,0.001175
52300,0.0324,0.013523,0.002678,0.000431,0.003526
52400,0.0324,0.013523,0.002678,0.000431,0.001175
52500,0.0324,0.013523,0.002678,0.000431,0.004701
52600,0.0324,0.013523,0.002678,0.000431,0.002351
52700,0.0324,0.013523,0.002678,0.000431,0.001175
52800,0.0324,0.013523,0.002678,0.000431,0.002351
52900,0.0324,0.013523,0.002678,0.000431,0.004701
53000,0.0324,0.013523,0.002678,0.000431,0.002351
53100,0.0324,0.013523,0.002678,0.000431,0.003526
53200,0.0324,0.013523,0.002678,0.000431,0.002351
53300,0.0324,0.013523,0.002678,0.000431,0.002351
53400,0.0324,0.013523,0.002678,0.000431,0.000000
53500,0.0324,0.013523,0.002678,0.000431,0.003526
53600,0.0324,0.013523,0.002678,0.000431,0.001175
53700,0.0324,0.013523,0.002678,0.000431,0.001175
53800,0.0324,0.013523,0.002678,0.000431,0.003526
53900,0.0324,0.013523,0.002678,0.000431,0.000000
54000,0.0324,0.013523,0.002678,0.000431,0.001175
54100,0.0324,0.013523,0.002678,0.000431,0.001175
54200,0.0324,0.013523,0.002678,0.000431,0.002351
54300,0.0324,0.013523,0.002678,0.000431,0.000000
54400,0.0324,0.013523,0.002678,0.000431,0.000000
54500,0.0324,0.013523,0.002678,0.000431,0.000000
54600,0.0324,0.013523,0.002678,0.000431,0.004701
54700,0.0324,0.013523,0.002678,0.000431,0.000000
54800,0.0324,0.013523,0.002678,0.000431,0.002351
54900,0.0324,0.013523,0.002678,0.000431,0.000000
55000,0.0324,0.013523,0.002678,0.000431,0.002351
55100,0.0324,0.013523,0.002678,0.000431,0.000000
55200,0.0324,0.013523,0.002678,0.000431,0.002351
55300,0.0324,0.013523,0.002678,0.000431,0.001175
55400,0.0324,0.013523,0.002678,0.000431,0.000000
55500,0.0324,0.013523,0.002678,0.000431,0.002351
55600,0.0324,0.013523,0.002678,0.000431,0.000000
55700,0.0324,0.013523,0.002678,0.000431,0.001175
55800,0.0324,0.013523,0.002678,0.000431,0.002351
55900,0.0324,0.013523,0.002678,0.000431,0.000000
56000,0.0324,0.013523,0.002678,0.000431,0.001175
56100,0.0324,0.013523,0.002678,0.000431,0.001175
56200,0.0324,0.013523,0.002678,0.000431,0.000000
56300,0.0324,0.013523,0.002678,0.000431,0.001175
56400,0.0324,0.013523,0.002678,0.000431,0.000000
56500,0.0324,0.013523,0.002678,0.000431,0.002351
56600,0.0324,0.013523,0.002678,0.000431,0.001175
56700,0.0324,0.013523,0.002678,0.000431,0.002351
56800,0.0324,0.013523,0.002678,0.000431,0.001175
56900,0.0324,0.013523,0.002678,0.000431,0.000000
57000,0.0324,0.013523,0.002678,0.000431,0.001175
57100,0.0324,0.013523,0.002678,0.000431,0.001175
57200,0.0324,0.013523,0.002678,0.000431,0.000000
57300,0.0324,0.013523,0.002678,0.000431,0.001175
57400,0.0324,0.013523,0.002678,0.000431,0.002351
57500,0.0324,0.013523,0.002678,0.000431,0.000000
57600,0.0324,0.013523,0.002678,0.000431,0.001175
57700,0.0324,0.013523,0.002678,0.000431,0.001175
57800,0.0324,0.013523,0.002678,0.000431,0.002351
57900,0.0324,0.013523,0.002678,0.000431,0.000000
58000,0.0324,0.013523,0.002678,0.000431,0.001175
58100,0.0324,0.013523,0.002678,0.000431,0.002351
58200,0.0324,0.013523,0.002678,0.000431,0.000000
58300,0.0324,0.013523,0.002678,0.000431,0.001175
58400,0.0324,0.013523,0.002678,0.000431,0.001175
58500,0.0324,0.013523,0.002678,0.000431,0.000000
58600,0.0324,0.013523,0.002678,0.000431,0.000000
58700,0.0324,0.013523,0.002678,0.000431,0.000000
58800,0.0324,0.013523,0.002678,0.000431,0.001175
