Cycle,Area(mm^2),PeakDynamic(W),SubthresholdLeakage(W),GateLeakage(W),RunTimeDynamic(W)
2000000,0.0324,0.013523,0.002678,0.000431,0.281480
2001000,0.0324,0.013523,0.002678,0.000431,0.248102
2002000,0.0324,0.013523,0.002678,0.000431,0.221658
2003000,0.0324,0.013523,0.002678,0.000431,0.203559
2004000,0.0324,0.013523,0.002678,0.000431,0.209200
2005000,0.0324,0.013523,0.002678,0.000431,0.216017
2006000,0.0324,0.013523,0.002678,0.000431,0.208260
2007000,0.0324,0.013523,0.002678,0.000431,0.239052
2008000,0.0324,0.013523,0.002678,0.000431,0.241755
2009000,0.0324,0.013523,0.002678,0.000431,0.226242
2010000,0.0324,0.013523,0.002678,0.000431,0.235056
2011000,0.0324,0.013523,0.002678,0.000431,0.195332
2012000,0.0324,0.013523,0.002678,0.000431,0.190748
2013000,0.0324,0.013523,0.002678,0.000431,0.169006
2014000,0.0324,0.013523,0.002678,0.000431,0.184167
2015000,0.0324,0.013523,0.002678,0.000431,0.182404
2016000,0.0324,0.013523,0.002678,0.000431,0.192041
2017000,0.0324,0.013523,0.002678,0.000431,0.168770
2018000,0.0324,0.013523,0.002678,0.000431,0.148321
2019000,0.0324,0.013523,0.002678,0.000431,0.132102
2020000,0.0324,0.013523,0.002678,0.000431,0.150083
2021000,0.0324,0.013523,0.002678,0.000431,0.124462
2022000,0.0324,0.013523,0.002678,0.000431,0.114943
2023000,0.0324,0.013523,0.002678,0.000431,0.145735
2024000,0.0324,0.013523,0.002678,0.000431,0.121994
2025000,0.0324,0.013523,0.002678,0.000431,0.105893
2026000,0.0324,0.013523,0.002678,0.000431,0.110947
2027000,0.0324,0.013523,0.002678,0.000431,0.134217
2028000,0.0324,0.013523,0.002678,0.000431,0.128928
2029000,0.0324,0.013523,0.002678,0.000431,0.142444
2030000,0.0324,0.013523,0.002678,0.000431,0.120114
2031000,0.0324,0.013523,0.002678,0.000431,0.114237
2032000,0.0324,0.013523,0.002678,0.000431,0.096491
2033000,0.0324,0.013523,0.002678,0.000431,0.082740
2034000,0.0324,0.013523,0.002678,0.000431,0.091672
2035000,0.0324,0.013523,0.002678,0.000431,0.133630
2036000,0.0324,0.013523,0.002678,0.000431,0.117998
2037000,0.0324,0.013523,0.002678,0.000431,0.099664
2038000,0.0324,0.013523,0.002678,0.000431,0.117646
2039000,0.0324,0.013523,0.002678,0.000431,0.132807
2040000,0.0324,0.013523,0.002678,0.000431,0.102014
2041000,0.0324,0.013523,0.002678,0.000431,0.121524
2042000,0.0324,0.013523,0.002678,0.000431,0.123052
2043000,0.0324,0.013523,0.002678,0.000431,0.104012
2044000,0.0324,0.013523,0.002678,0.000431,0.112710
2045000,0.0324,0.013523,0.002678,0.000431,0.102837
2046000,0.0324,0.013523,0.002678,0.000431,0.084855
2047000,0.0324,0.013523,0.002678,0.000431,0.099194
2048000,0.0324,0.013523,0.002678,0.000431,0.092260
2049000,0.0324,0.013523,0.002678,0.000431,0.106716
2050000,0.0324,0.013523,0.002678,0.000431,0.133394
2051000,0.0324,0.013523,0.002678,0.000431,0.127283
2052000,0.0324,0.013523,0.002678,0.000431,0.131867
2053000,0.0324,0.013523,0.002678,0.000431,0.090732
2054000,0.0324,0.013523,0.002678,0.000431,0.089086
2055000,0.0324,0.013523,0.002678,0.000431,0.085913
2056000,0.0324,0.013523,0.002678,0.000431,0.096961
2057000,0.0324,0.013523,0.002678,0.000431,0.093552
2058000,0.0324,0.013523,0.002678,0.000431,0.068284
2059000,0.0324,0.013523,0.002678,0.000431,0.085443
2060000,0.0324,0.013523,0.002678,0.000431,0.083915
2061000,0.0324,0.013523,0.002678,0.000431,0.087558
2062000,0.0324,0.013523,0.002678,0.000431,0.068284
2063000,0.0324,0.013523,0.002678,0.000431,0.071692
2064000,0.0324,0.013523,0.002678,0.000431,0.069342
2065000,0.0324,0.013523,0.002678,0.000431,0.074865
2066000,0.0324,0.013523,0.002678,0.000431,0.089204
2067000,0.0324,0.013523,0.002678,0.000431,0.066286
2068000,0.0324,0.013523,0.002678,0.000431,0.061115
2069000,0.0324,0.013523,0.002678,0.000431,0.088381
2070000,0.0324,0.013523,0.002678,0.000431,0.058529
2071000,0.0324,0.013523,0.002678,0.000431,0.046776
2072000,0.0324,0.013523,0.002678,0.000431,0.068049
2073000,0.0324,0.013523,0.002678,0.000431,0.064405
2074000,0.0324,0.013523,0.002678,0.000431,0.066638
2075000,0.0324,0.013523,0.002678,0.000431,0.065463
2076000,0.0324,0.013523,0.002678,0.000431,0.057119
2077000,0.0324,0.013523,0.002678,0.000431,0.072280
2078000,0.0324,0.013523,0.002678,0.000431,0.053828
2079000,0.0324,0.013523,0.002678,0.000431,0.066638
2080000,0.0324,0.013523,0.002678,0.000431,0.067931
2081000,0.0324,0.013523,0.002678,0.000431,0.049832
2082000,0.0324,0.013523,0.002678,0.000431,0.072397
2083000,0.0324,0.013523,0.002678,0.000431,0.063465
2084000,0.0324,0.013523,0.002678,0.000431,0.052653
2085000,0.0324,0.013523,0.002678,0.000431,0.056414
2086000,0.0324,0.013523,0.002678,0.000431,0.065933
2087000,0.0324,0.013523,0.002678,0.000431,0.060292
2088000,0.0324,0.013523,0.002678,0.000431,0.058764
2089000,0.0324,0.013523,0.002678,0.000431,0.042075
2090000,0.0324,0.013523,0.002678,0.000431,0.042075
2091000,0.0324,0.013523,0.002678,0.000431,0.027737
2092000,0.0324,0.013523,0.002678,0.000431,0.042663
2093000,0.0324,0.013523,0.002678,0.000431,0.036551
2094000,0.0324,0.013523,0.002678,0.000431,0.048304
2095000,0.0324,0.013523,0.002678,0.000431,0.056178
2096000,0.0324,0.013523,0.002678,0.000431,0.054416
2097000,0.0324,0.013523,0.002678,0.000431,0.046424
2098000,0.0324,0.013523,0.002678,0.000431,0.070399
2099000,0.0324,0.013523,0.002678,0.000431,0.052418
2100000,0.0324,0.013523,0.002678,0.000431,0.042193
2101000,0.0324,0.013523,0.002678,0.000431,0.051712
2102000,0.0324,0.013523,0.002678,0.000431,0.050655
2103000,0.0324,0.013523,0.002678,0.000431,0.034553
2104000,0.0324,0.013523,0.002678,0.000431,0.034201
2105000,0.0324,0.013523,0.002678,0.000431,0.038197
2106000,0.0324,0.013523,0.002678,0.000431,0.043485
2107000,0.0324,0.013523,0.002678,0.000431,0.030087
2108000,0.0324,0.013523,0.002678,0.000431,0.037256
2109000,0.0324,0.013523,0.002678,0.000431,0.042193
2110000,0.0324,0.013523,0.002678,0.000431,0.032320
2111000,0.0324,0.013523,0.002678,0.000431,0.031145
2112000,0.0324,0.013523,0.002678,0.000431,0.031380
2113000,0.0324,0.013523,0.002678,0.000431,0.047011
2114000,0.0324,0.013523,0.002678,0.000431,0.042898
2115000,0.0324,0.013523,0.002678,0.000431,0.046306
2116000,0.0324,0.013523,0.002678,0.000431,0.051830
2117000,0.0324,0.013523,0.002678,0.000431,0.047716
2118000,0.0324,0.013523,0.002678,0.000431,0.045483
2119000,0.0324,0.013523,0.002678,0.000431,0.037139
2120000,0.0324,0.013523,0.002678,0.000431,0.039842
2121000,0.0324,0.013523,0.002678,0.000431,0.045131
2122000,0.0324,0.013523,0.002678,0.000431,0.039607
2123000,0.0324,0.013523,0.002678,0.000431,0.029265
2124000,0.0324,0.013523,0.002678,0.000431,0.032790
2125000,0.0324,0.013523,0.002678,0.000431,0.030557
2126000,0.0324,0.013523,0.002678,0.000431,0.029265
2127000,0.0324,0.013523,0.002678,0.000431,0.036434
2128000,0.0324,0.013523,0.002678,0.000431,0.038314
2129000,0.0324,0.013523,0.002678,0.000431,0.048422
2130000,0.0324,0.013523,0.002678,0.000431,0.038197
2131000,0.0324,0.013523,0.002678,0.000431,0.031145
2132000,0.0324,0.013523,0.002678,0.000431,0.033378
2133000,0.0324,0.013523,0.002678,0.000431,0.028912
2134000,0.0324,0.013523,0.002678,0.000431,0.024563
2135000,0.0324,0.013523,0.002678,0.000431,0.019157
2136000,0.0324,0.013523,0.002678,0.000431,0.027619
2137000,0.0324,0.013523,0.002678,0.000431,0.025269
2138000,0.0324,0.013523,0.002678,0.000431,0.022448
2139000,0.0324,0.013523,0.002678,0.000431,0.018805
2140000,0.0324,0.013523,0.002678,0.000431,0.024681
2141000,0.0324,0.013523,0.002678,0.000431,0.021860
2142000,0.0324,0.013523,0.002678,0.000431,0.019980
2143000,0.0324,0.013523,0.002678,0.000431,0.016924
2144000,0.0324,0.013523,0.002678,0.000431,0.024798
2145000,0.0324,0.013523,0.002678,0.000431,0.020097
2146000,0.0324,0.013523,0.002678,0.000431,0.020450
2147000,0.0324,0.013523,0.002678,0.000431,0.021155
2148000,0.0324,0.013523,0.002678,0.000431,0.016807
2149000,0.0324,0.013523,0.002678,0.000431,0.014221
2150000,0.0324,0.013523,0.002678,0.000431,0.011635
2151000,0.0324,0.013523,0.002678,0.000431,0.010813
2152000,0.0324,0.013523,0.002678,0.000431,0.013281
2153000,0.0324,0.013523,0.002678,0.000431,0.013516
2154000,0.0324,0.013523,0.002678,0.000431,0.011165
2155000,0.0324,0.013523,0.002678,0.000431,0.011048
2156000,0.0324,0.013523,0.002678,0.000431,0.014691
2157000,0.0324,0.013523,0.002678,0.000431,0.015161
2158000,0.0324,0.013523,0.002678,0.000431,0.013398
2159000,0.0324,0.013523,0.002678,0.000431,0.017747
2160000,0.0324,0.013523,0.002678,0.000431,0.013398
2161000,0.0324,0.013523,0.002678,0.000431,0.012576
2162000,0.0324,0.013523,0.002678,0.000431,0.010578
2163000,0.0324,0.013523,0.002678,0.000431,0.016689
2164000,0.0324,0.013523,0.002678,0.000431,0.011283
2165000,0.0324,0.013523,0.002678,0.000431,0.013751
2166000,0.0324,0.013523,0.002678,0.000431,0.013868
2167000,0.0324,0.013523,0.002678,0.000431,0.016101
2168000,0.0324,0.013523,0.002678,0.000431,0.010225
2169000,0.0324,0.013523,0.002678,0.000431,0.012576
2170000,0.0324,0.013523,0.002678,0.000431,0.009520
2171000,0.0324,0.013523,0.002678,0.000431,0.015396
2172000,0.0324,0.013523,0.002678,0.000431,0.017042
2173000,0.0324,0.013523,0.002678,0.000431,0.010578
2174000,0.0324,0.013523,0.002678,0.000431,0.012693
2175000,0.0324,0.013523,0.002678,0.000431,0.013281
2176000,0.0324,0.013523,0.002678,0.000431,0.012928
2177000,0.0324,0.013523,0.002678,0.000431,0.010930
2178000,0.0324,0.013523,0.002678,0.000431,0.010460
2179000,0.0324,0.013523,0.002678,0.000431,0.015631
2180000,0.0324,0.013523,0.002678,0.000431,0.021508
2181000,0.0324,0.013523,0.002678,0.000431,0.011988
2182000,0.0324,0.013523,0.002678,0.000431,0.013868
2183000,0.0324,0.013523,0.002678,0.000431,0.013163
2184000,0.0324,0.013523,0.002678,0.000431,0.011518
2185000,0.0324,0.013523,0.002678,0.000431,0.009285
2186000,0.0324,0.013523,0.002678,0.000431,0.011635
2187000,0.0324,0.013523,0.002678,0.000431,0.009285
2188000,0.0324,0.013523,0.002678,0.000431,0.007287
2189000,0.0324,0.013523,0.002678,0.000431,0.007522
2190000,0.0324,0.013523,0.002678,0.000431,0.003878
2191000,0.0324,0.013523,0.002678,0.000431,0.013398
2192000,0.0324,0.013523,0.002678,0.000431,0.005406
2193000,0.0324,0.013523,0.002678,0.000431,0.002468
2194000,0.0324,0.013523,0.002678,0.000431,0.002821
2195000,0.0324,0.013523,0.002678,0.000431,0.005876
2196000,0.0324,0.013523,0.002678,0.000431,0.002116
2197000,0.0324,0.013523,0.002678,0.000431,0.005524
2198000,0.0324,0.013523,0.002678,0.000431,0.004584
2199000,0.0324,0.013523,0.002678,0.000431,0.006699
2200000,0.0324,0.013523,0.002678,0.000431,0.006464
2201000,0.0324,0.013523,0.002678,0.000431,0.002351
2202000,0.0324,0.013523,0.002678,0.000431,0.000940
2203000,0.0324,0.013523,0.002678,0.000431,0.000823
2204000,0.0324,0.013523,0.002678,0.000431,0.001293
2205000,0.0324,0.013523,0.002678,0.000431,0.000940
2206000,0.0324,0.013523,0.002678,0.000431,0.001175
2207000,0.0324,0.013523,0.002678,0.000431,0.004349
2208000,0.0324,0.013523,0.002678,0.000431,0.000823
2209000,0.0324,0.013523,0.002678,0.000431,0.001175
2210000,0.0324,0.013523,0.002678,0.000431,0.004231
2211000,0.0324,0.013523,0.002678,0.000431,0.001058
2212000,0.0324,0.013523,0.002678,0.000431,0.002586
2213000,0.0324,0.013523,0.002678,0.000431,0.001293
2214000,0.0324,0.013523,0.002678,0.000431,0.000940
2215000,0.0324,0.013523,0.002678,0.000431,0.001058
2216000,0.0324,0.013523,0.002678,0.000431,0.001880
2217000,0.0324,0.013523,0.002678,0.000431,0.002351
2218000,0.0324,0.013523,0.002678,0.000431,0.001998
2219000,0.0324,0.013523,0.002678,0.000431,0.002703
2220000,0.0324,0.013523,0.002678,0.000431,0.003056
2221000,0.0324,0.013523,0.002678,0.000431,0.004936
2222000,0.0324,0.013523,0.002678,0.000431,0.008345
2223000,0.0324,0.013523,0.002678,0.000431,0.002821
2224000,0.0324,0.013523,0.002678,0.000431,0.001175
2225000,0.0324,0.013523,0.002678,0.000431,0.000823
2226000,0.0324,0.013523,0.002678,0.000431,0.000705
2227000,0.0324,0.013523,0.002678,0.000431,0.003643
2228000,0.0324,0.013523,0.002678,0.000431,0.002233
2229000,0.0324,0.013523,0.002678,0.000431,0.004466
2230000,0.0324,0.013523,0.002678,0.000431,0.003526
2231000,0.0324,0.013523,0.002678,0.000431,0.002233
2232000,0.0324,0.013523,0.002678,0.000431,0.000940
2233000,0.0324,0.013523,0.002678,0.000431,0.001763
2234000,0.0324,0.013523,0.002678,0.000431,0.001645
2235000,0.0324,0.013523,0.002678,0.000431,0.001293
2236000,0.0324,0.013523,0.002678,0.000431,0.004466
2237000,0.0324,0.013523,0.002678,0.000431,0.003526
2238000,0.0324,0.013523,0.002678,0.000431,0.001175
2239000,0.0324,0.013523,0.002678,0.000431,0.000823
2240000,0.0324,0.013523,0.002678,0.000431,0.005524
2241000,0.0324,0.013523,0.002678,0.000431,0.007639
2242000,0.0324,0.013523,0.002678,0.000431,0.008932
2243000,0.0324,0.013523,0.002678,0.000431,0.010342
2244000,0.0324,0.013523,0.002678,0.000431,0.012223
2245000,0.0324,0.013523,0.002678,0.000431,0.010460
2246000,0.0324,0.013523,0.002678,0.000431,0.008815
2247000,0.0324,0.013523,0.002678,0.000431,0.011165
2248000,0.0324,0.013523,0.002678,0.000431,0.010342
2249000,0.0324,0.013523,0.002678,0.000431,0.012105
2250000,0.0324,0.013523,0.002678,0.000431,0.008462
2251000,0.0324,0.013523,0.002678,0.000431,0.010578
2252000,0.0324,0.013523,0.002678,0.000431,0.012928
2253000,0.0324,0.013523,0.002678,0.000431,0.010342
2254000,0.0324,0.013523,0.002678,0.000431,0.008462
2255000,0.0324,0.013523,0.002678,0.000431,0.011753
2256000,0.0324,0.013523,0.002678,0.000431,0.011400
2257000,0.0324,0.013523,0.002678,0.000431,0.010460
2258000,0.0324,0.013523,0.002678,0.000431,0.008462
2259000,0.0324,0.013523,0.002678,0.000431,0.012223
2260000,0.0324,0.013523,0.002678,0.000431,0.011165
2261000,0.0324,0.013523,0.002678,0.000431,0.010225
2262000,0.0324,0.013523,0.002678,0.000431,0.008462
2263000,0.0324,0.013523,0.002678,0.000431,0.012105
2264000,0.0324,0.013523,0.002678,0.000431,0.009755
2265000,0.0324,0.013523,0.002678,0.000431,0.011753
2266000,0.0324,0.013523,0.002678,0.000431,0.008462
2267000,0.0324,0.013523,0.002678,0.000431,0.012340
2268000,0.0324,0.013523,0.002678,0.000431,0.011165
2269000,0.0324,0.013523,0.002678,0.000431,0.009872
2270000,0.0324,0.013523,0.002678,0.000431,0.008227
2271000,0.0324,0.013523,0.002678,0.000431,0.012693
2272000,0.0324,0.013523,0.002678,0.000431,0.011635
2273000,0.0324,0.013523,0.002678,0.000431,0.009285
2274000,0.0324,0.013523,0.002678,0.000431,0.002468
2275000,0.0324,0.013523,0.002678,0.000431,0.002351
2276000,0.0324,0.013523,0.002678,0.000431,0.000940
2277000,0.0324,0.013523,0.002678,0.000431,0.001528
2278000,0.0324,0.013523,0.002678,0.000431,0.001410
2279000,0.0324,0.013523,0.002678,0.000431,0.002468
2280000,0.0324,0.013523,0.002678,0.000431,0.002468
2281000,0.0324,0.013523,0.002678,0.000431,0.003056
2282000,0.0324,0.013523,0.002678,0.000431,0.002233
2283000,0.0324,0.013523,0.002678,0.000431,0.002703
2284000,0.0324,0.013523,0.002678,0.000431,0.002586
2285000,0.0324,0.013523,0.002678,0.000431,0.000823
2286000,0.0324,0.013523,0.002678,0.000431,0.001293
2287000,0.0324,0.013523,0.002678,0.000431,0.001175
2288000,0.0324,0.013523,0.002678,0.000431,0.001645
2289000,0.0324,0.013523,0.002678,0.000431,0.003408
2290000,0.0324,0.013523,0.002678,0.000431,0.002233
2291000,0.0324,0.013523,0.002678,0.000431,0.000823
2292000,0.0324,0.013523,0.002678,0.000431,0.001763
2293000,0.0324,0.013523,0.002678,0.000431,0.001645
2294000,0.0324,0.013523,0.002678,0.000431,0.011048
2295000,0.0324,0.013523,0.002678,0.000431,0.009872
2296000,0.0324,0.013523,0.002678,0.000431,0.011283
2297000,0.0324,0.013523,0.002678,0.000431,0.008462
2298000,0.0324,0.013523,0.002678,0.000431,0.002586
2299000,0.0324,0.013523,0.002678,0.000431,0.000940
2300000,0.0324,0.013523,0.002678,0.000431,0.001410
