Cycle,Area(mm^2),PeakDynamic(W),SubthresholdLeakage(W),GateLeakage(W),RunTimeDynamic(W)
16000000,0.0324,0.013523,0.002678,0.000431,0.000588
16001000,0.0324,0.013523,0.002678,0.000431,0.000588
16002000,0.0324,0.013523,0.002678,0.000431,0.001175
16003000,0.0324,0.013523,0.002678,0.000431,0.000705
16004000,0.0324,0.013523,0.002678,0.000431,0.000470
16005000,0.0324,0.013523,0.002678,0.000431,0.000705
16006000,0.0324,0.013523,0.002678,0.000431,0.001175
16007000,0.0324,0.013523,0.002678,0.000431,0.001058
16008000,0.0324,0.013523,0.002678,0.000431,0.001293
16009000,0.0324,0.013523,0.002678,0.000431,0.000940
16010000,0.0324,0.013523,0.002678,0.000431,0.001175
16011000,0.0324,0.013523,0.002678,0.000431,0.001175
16012000,0.0324,0.013523,0.002678,0.000431,0.000823
16013000,0.0324,0.013523,0.002678,0.000431,0.001058
16014000,0.0324,0.013523,0.002678,0.000431,0.001175
16015000,0.0324,0.013523,0.002678,0.000431,0.001293
16016000,0.0324,0.013523,0.002678,0.000431,0.000823
16017000,0.0324,0.013523,0.002678,0.000431,0.001058
16018000,0.0324,0.013523,0.002678,0.000431,0.001293
16019000,0.0324,0.013523,0.002678,0.000431,0.001175
16020000,0.0324,0.013523,0.002678,0.000431,0.000588
16021000,0.0324,0.013523,0.002678,0.000431,0.001058
16022000,0.0324,0.013523,0.002678,0.000431,0.000940
16023000,0.0324,0.013523,0.002678,0.000431,0.001175
16024000,0.0324,0.013523,0.002678,0.000431,0.001175
16025000,0.0324,0.013523,0.002678,0.000431,0.000705
16026000,0.0324,0.013523,0.002678,0.000431,0.001175
16027000,0.0324,0.013523,0.002678,0.000431,0.001175
16028000,0.0324,0.013523,0.002678,0.000431,0.000705
16029000,0.0324,0.013523,0.002678,0.000431,0.000705
16030000,0.0324,0.013523,0.002678,0.000431,0.001175
16031000,0.0324,0.013523,0.002678,0.000431,0.001175
16032000,0.0324,0.013523,0.002678,0.000431,0.001175
16033000,0.0324,0.013523,0.002678,0.000431,0.000940
16034000,0.0324,0.013523,0.002678,0.000431,0.001058
16035000,0.0324,0.013523,0.002678,0.000431,0.000588
16036000,0.0324,0.013523,0.002678,0.000431,0.000588
16037000,0.0324,0.013523,0.002678,0.000431,0.000823
16038000,0.0324,0.013523,0.002678,0.000431,0.001175
16039000,0.0324,0.013523,0.002678,0.000431,0.000705
16040000,0.0324,0.013523,0.002678,0.000431,0.001175
16041000,0.0324,0.013523,0.002678,0.000431,0.001175
16042000,0.0324,0.013523,0.002678,0.000431,0.001293
16043000,0.0324,0.013523,0.002678,0.000431,0.000823
16044000,0.0324,0.013523,0.002678,0.000431,0.001175
16045000,0.0324,0.013523,0.002678,0.000431,0.001175
16046000,0.0324,0.013523,0.002678,0.000431,0.000470
16047000,0.0324,0.013523,0.002678,0.000431,0.001410
16048000,0.0324,0.013523,0.002678,0.000431,0.001175
16049000,0.0324,0.013523,0.002678,0.000431,0.000823
16050000,0.0324,0.013523,0.002678,0.000431,0.001058
16051000,0.0324,0.013523,0.002678,0.000431,0.000705
16052000,0.0324,0.013523,0.002678,0.000431,0.001175
16053000,0.0324,0.013523,0.002678,0.000431,0.001175
16054000,0.0324,0.013523,0.002678,0.000431,0.000705
16055000,0.0324,0.013523,0.002678,0.000431,0.001175
16056000,0.0324,0.013523,0.002678,0.000431,0.000823
16057000,0.0324,0.013523,0.002678,0.000431,0.001410
16058000,0.0324,0.013523,0.002678,0.000431,0.001058
16059000,0.0324,0.013523,0.002678,0.000431,0.001175
16060000,0.0324,0.013523,0.002678,0.000431,0.001410
16061000,0.0324,0.013523,0.002678,0.000431,0.001058
16062000,0.0324,0.013523,0.002678,0.000431,0.000588
16063000,0.0324,0.013523,0.002678,0.000431,0.001293
16064000,0.0324,0.013523,0.002678,0.000431,0.000588
16065000,0.0324,0.013523,0.002678,0.000431,0.000470
16066000,0.0324,0.013523,0.002678,0.000431,0.001410
16067000,0.0324,0.013523,0.002678,0.000431,0.000470
16068000,0.0324,0.013523,0.002678,0.000431,0.000705
16069000,0.0324,0.013523,0.002678,0.000431,0.000705
16070000,0.0324,0.013523,0.002678,0.000431,0.001175
16071000,0.0324,0.013523,0.002678,0.000431,0.001175
16072000,0.0324,0.013523,0.002678,0.000431,0.000823
16073000,0.0324,0.013523,0.002678,0.000431,0.001058
16074000,0.0324,0.013523,0.002678,0.000431,0.001175
16075000,0.0324,0.013523,0.002678,0.000431,0.000705
16076000,0.0324,0.013523,0.002678,0.000431,0.001175
16077000,0.0324,0.013523,0.002678,0.000431,0.000705
16078000,0.0324,0.013523,0.002678,0.000431,0.000470
16079000,0.0324,0.013523,0.002678,0.000431,0.001293
16080000,0.0324,0.013523,0.002678,0.000431,0.000823
16081000,0.0324,0.013523,0.002678,0.000431,0.000940
16082000,0.0324,0.013523,0.002678,0.000431,0.001410
16083000,0.0324,0.013523,0.002678,0.000431,0.001175
16084000,0.0324,0.013523,0.002678,0.000431,0.000705
16085000,0.0324,0.013523,0.002678,0.000431,0.001175
16086000,0.0324,0.013523,0.002678,0.000431,0.000588
16087000,0.0324,0.013523,0.002678,0.000431,0.000588
16088000,0.0324,0.013523,0.002678,0.000431,0.001175
16089000,0.0324,0.013523,0.002678,0.000431,0.000588
16090000,0.0324,0.013523,0.002678,0.000431,0.000588
16091000,0.0324,0.013523,0.002678,0.000431,0.001058
16092000,0.0324,0.013523,0.002678,0.000431,0.000823
16093000,0.0324,0.013523,0.002678,0.000431,0.000705
16094000,0.0324,0.013523,0.002678,0.000431,0.001175
16095000,0.0324,0.013523,0.002678,0.000431,0.001175
16096000,0.0324,0.013523,0.002678,0.000431,0.001058
16097000,0.0324,0.013523,0.002678,0.000431,0.001058
16098000,0.0324,0.013523,0.002678,0.000431,0.000940
16099000,0.0324,0.013523,0.002678,0.000431,0.001410
16100000,0.0324,0.013523,0.002678,0.000431,0.000470
16101000,0.0324,0.013523,0.002678,0.000431,0.000823
16102000,0.0324,0.013523,0.002678,0.000431,0.001058
16103000,0.0324,0.013523,0.002678,0.000431,0.001175
16104000,0.0324,0.013523,0.002678,0.000431,0.001175
16105000,0.0324,0.013523,0.002678,0.000431,0.000705
16106000,0.0324,0.013523,0.002678,0.000431,0.001175
16107000,0.0324,0.013523,0.002678,0.000431,0.000823
16108000,0.0324,0.013523,0.002678,0.000431,0.000705
16109000,0.0324,0.013523,0.002678,0.000431,0.001058
16110000,0.0324,0.013523,0.002678,0.000431,0.000705
16111000,0.0324,0.013523,0.002678,0.000431,0.001175
16112000,0.0324,0.013523,0.002678,0.000431,0.001175
16113000,0.0324,0.013523,0.002678,0.000431,0.000940
16114000,0.0324,0.013523,0.002678,0.000431,0.001175
16115000,0.0324,0.013523,0.002678,0.000431,0.001175
16116000,0.0324,0.013523,0.002678,0.000431,0.001175
16117000,0.0324,0.013523,0.002678,0.000431,0.000705
16118000,0.0324,0.013523,0.002678,0.000431,0.001175
16119000,0.0324,0.013523,0.002678,0.000431,0.000705
16120000,0.0324,0.013523,0.002678,0.000431,0.000470
16121000,0.0324,0.013523,0.002678,0.000431,0.001058
16122000,0.0324,0.013523,0.002678,0.000431,0.001058
16123000,0.0324,0.013523,0.002678,0.000431,0.001058
16124000,0.0324,0.013523,0.002678,0.000431,0.000588
16125000,0.0324,0.013523,0.002678,0.000431,0.001175
16126000,0.0324,0.013523,0.002678,0.000431,0.001293
16127000,0.0324,0.013523,0.002678,0.000431,0.001293
16128000,0.0324,0.013523,0.002678,0.000431,0.000823
16129000,0.0324,0.013523,0.002678,0.000431,0.001293
16130000,0.0324,0.013523,0.002678,0.000431,0.001175
16131000,0.0324,0.013523,0.002678,0.000431,0.001293
16132000,0.0324,0.013523,0.002678,0.000431,0.001293
16133000,0.0324,0.013523,0.002678,0.000431,0.001175
16134000,0.0324,0.013523,0.002678,0.000431,0.001175
16135000,0.0324,0.013523,0.002678,0.000431,0.000470
16136000,0.0324,0.013523,0.002678,0.000431,0.001410
16137000,0.0324,0.013523,0.002678,0.000431,0.000705
16138000,0.0324,0.013523,0.002678,0.000431,0.001175
16139000,0.0324,0.013523,0.002678,0.000431,0.001175
16140000,0.0324,0.013523,0.002678,0.000431,0.001175
16141000,0.0324,0.013523,0.002678,0.000431,0.000705
16142000,0.0324,0.013523,0.002678,0.000431,0.001175
16143000,0.0324,0.013523,0.002678,0.000431,0.000588
16144000,0.0324,0.013523,0.002678,0.000431,0.000588
16145000,0.0324,0.013523,0.002678,0.000431,0.000588
16146000,0.0324,0.013523,0.002678,0.000431,0.000588
16147000,0.0324,0.013523,0.002678,0.000431,0.001058
16148000,0.0324,0.013523,0.002678,0.000431,0.000823
16149000,0.0324,0.013523,0.002678,0.000431,0.000823
16150000,0.0324,0.013523,0.002678,0.000431,0.001058
16151000,0.0324,0.013523,0.002678,0.000431,0.001175
16152000,0.0324,0.013523,0.002678,0.000431,0.001293
16153000,0.0324,0.013523,0.002678,0.000431,0.001293
16154000,0.0324,0.013523,0.002678,0.000431,0.001058
16155000,0.0324,0.013523,0.002678,0.000431,0.000823
16156000,0.0324,0.013523,0.002678,0.000431,0.000588
16157000,0.0324,0.013523,0.002678,0.000431,0.001058
16158000,0.0324,0.013523,0.002678,0.000431,0.000705
16159000,0.0324,0.013523,0.002678,0.000431,0.000705
16160000,0.0324,0.013523,0.002678,0.000431,0.001175
16161000,0.0324,0.013523,0.002678,0.000431,0.000705
16162000,0.0324,0.013523,0.002678,0.000431,0.000470
16163000,0.0324,0.013523,0.002678,0.000431,0.000705
16164000,0.0324,0.013523,0.002678,0.000431,0.001175
16165000,0.0324,0.013523,0.002678,0.000431,0.001175
16166000,0.0324,0.013523,0.002678,0.000431,0.001175
16167000,0.0324,0.013523,0.002678,0.000431,0.000705
16168000,0.0324,0.013523,0.002678,0.000431,0.000705
16169000,0.0324,0.013523,0.002678,0.000431,0.000470
16170000,0.0324,0.013523,0.002678,0.000431,0.001175
16171000,0.0324,0.013523,0.002678,0.000431,0.000940
16172000,0.0324,0.013523,0.002678,0.000431,0.001175
16173000,0.0324,0.013523,0.002678,0.000431,0.001175
16174000,0.0324,0.013523,0.002678,0.000431,0.001175
16175000,0.0324,0.013523,0.002678,0.000431,0.000705
16176000,0.0324,0.013523,0.002678,0.000431,0.000470
16177000,0.0324,0.013523,0.002678,0.000431,0.001410
16178000,0.0324,0.013523,0.002678,0.000431,0.000705
16179000,0.0324,0.013523,0.002678,0.000431,0.001058
16180000,0.0324,0.013523,0.002678,0.000431,0.000588
16181000,0.0324,0.013523,0.002678,0.000431,0.001175
16182000,0.0324,0.013523,0.002678,0.000431,0.000705
16183000,0.0324,0.013523,0.002678,0.000431,0.000470
16184000,0.0324,0.013523,0.002678,0.000431,0.000588
16185000,0.0324,0.013523,0.002678,0.000431,0.000588
16186000,0.0324,0.013523,0.002678,0.000431,0.000588
16187000,0.0324,0.013523,0.002678,0.000431,0.001058
16188000,0.0324,0.013523,0.002678,0.000431,0.000940
16189000,0.0324,0.013523,0.002678,0.000431,0.001058
16190000,0.0324,0.013523,0.002678,0.000431,0.000823
16191000,0.0324,0.013523,0.002678,0.000431,0.000940
16192000,0.0324,0.013523,0.002678,0.000431,0.001410
16193000,0.0324,0.013523,0.002678,0.000431,0.000470
16194000,0.0324,0.013523,0.002678,0.000431,0.000705
16195000,0.0324,0.013523,0.002678,0.000431,0.001175
16196000,0.0324,0.013523,0.002678,0.000431,0.000823
16197000,0.0324,0.013523,0.002678,0.000431,0.001175
16198000,0.0324,0.013523,0.002678,0.000431,0.001058
16199000,0.0324,0.013523,0.002678,0.000431,0.001293
16200000,0.0324,0.013523,0.002678,0.000431,0.000588
16201000,0.0324,0.013523,0.002678,0.000431,0.001175
16202000,0.0324,0.013523,0.002678,0.000431,0.000705
16203000,0.0324,0.013523,0.002678,0.000431,0.000705
16204000,0.0324,0.013523,0.002678,0.000431,0.001175
16205000,0.0324,0.013523,0.002678,0.000431,0.001175
16206000,0.0324,0.013523,0.002678,0.000431,0.001175
16207000,0.0324,0.013523,0.002678,0.000431,0.000823
16208000,0.0324,0.013523,0.002678,0.000431,0.001058
16209000,0.0324,0.013523,0.002678,0.000431,0.000470
16210000,0.0324,0.013523,0.002678,0.000431,0.001058
16211000,0.0324,0.013523,0.002678,0.000431,0.001058
16212000,0.0324,0.013523,0.002678,0.000431,0.001058
16213000,0.0324,0.013523,0.002678,0.000431,0.000588
16214000,0.0324,0.013523,0.002678,0.000431,0.001175
16215000,0.0324,0.013523,0.002678,0.000431,0.000588
16216000,0.0324,0.013523,0.002678,0.000431,0.001058
16217000,0.0324,0.013523,0.002678,0.000431,0.000705
16218000,0.0324,0.013523,0.002678,0.000431,0.000705
16219000,0.0324,0.013523,0.002678,0.000431,0.000470
16220000,0.0324,0.013523,0.002678,0.000431,0.001175
16221000,0.0324,0.013523,0.002678,0.000431,0.000940
16222000,0.0324,0.013523,0.002678,0.000431,0.000940
16223000,0.0324,0.013523,0.002678,0.000431,0.001293
16224000,0.0324,0.013523,0.002678,0.000431,0.001058
16225000,0.0324,0.013523,0.002678,0.000431,0.000940
16226000,0.0324,0.013523,0.002678,0.000431,0.001175
16227000,0.0324,0.013523,0.002678,0.000431,0.001175
16228000,0.0324,0.013523,0.002678,0.000431,0.001175
16229000,0.0324,0.013523,0.002678,0.000431,0.000823
16230000,0.0324,0.013523,0.002678,0.000431,0.001058
16231000,0.0324,0.013523,0.002678,0.000431,0.001293
16232000,0.0324,0.013523,0.002678,0.000431,0.001293
16233000,0.0324,0.013523,0.002678,0.000431,0.000705
16234000,0.0324,0.013523,0.002678,0.000431,0.001175
16235000,0.0324,0.013523,0.002678,0.000431,0.000705
16236000,0.0324,0.013523,0.002678,0.000431,0.001058
16237000,0.0324,0.013523,0.002678,0.000431,0.001293
16238000,0.0324,0.013523,0.002678,0.000431,0.001175
16239000,0.0324,0.013523,0.002678,0.000431,0.000705
16240000,0.0324,0.013523,0.002678,0.000431,0.001175
16241000,0.0324,0.013523,0.002678,0.000431,0.001175
16242000,0.0324,0.013523,0.002678,0.000431,0.000705
16243000,0.0324,0.013523,0.002678,0.000431,0.001175
16244000,0.0324,0.013523,0.002678,0.000431,0.000588
16245000,0.0324,0.013523,0.002678,0.000431,0.001058
16246000,0.0324,0.013523,0.002678,0.000431,0.001175
16247000,0.0324,0.013523,0.002678,0.000431,0.001058
16248000,0.0324,0.013523,0.002678,0.000431,0.001058
16249000,0.0324,0.013523,0.002678,0.000431,0.001175
16250000,0.0324,0.013523,0.002678,0.000431,0.001410
16251000,0.0324,0.013523,0.002678,0.000431,0.000470
16252000,0.0324,0.013523,0.002678,0.000431,0.000705
16253000,0.0324,0.013523,0.002678,0.000431,0.001175
16254000,0.0324,0.013523,0.002678,0.000431,0.001175
16255000,0.0324,0.013523,0.002678,0.000431,0.000823
16256000,0.0324,0.013523,0.002678,0.000431,0.001058
16257000,0.0324,0.013523,0.002678,0.000431,0.000588
16258000,0.0324,0.013523,0.002678,0.000431,0.000588
16259000,0.0324,0.013523,0.002678,0.000431,0.001175
16260000,0.0324,0.013523,0.002678,0.000431,0.000588
16261000,0.0324,0.013523,0.002678,0.000431,0.000940
16262000,0.0324,0.013523,0.002678,0.000431,0.000823
16263000,0.0324,0.013523,0.002678,0.000431,0.000588
16264000,0.0324,0.013523,0.002678,0.000431,0.001058
16265000,0.0324,0.013523,0.002678,0.000431,0.000823
16266000,0.0324,0.013523,0.002678,0.000431,0.000705
16267000,0.0324,0.013523,0.002678,0.000431,0.001058
16268000,0.0324,0.013523,0.002678,0.000431,0.001293
16269000,0.0324,0.013523,0.002678,0.000431,0.000588
16270000,0.0324,0.013523,0.002678,0.000431,0.000470
16271000,0.0324,0.013523,0.002678,0.000431,0.000705
16272000,0.0324,0.013523,0.002678,0.000431,0.000470
16273000,0.0324,0.013523,0.002678,0.000431,0.000705
16274000,0.0324,0.013523,0.002678,0.000431,0.000588
16275000,0.0324,0.013523,0.002678,0.000431,0.001058
16276000,0.0324,0.013523,0.002678,0.000431,0.000705
16277000,0.0324,0.013523,0.002678,0.000431,0.000588
16278000,0.0324,0.013523,0.002678,0.000431,0.000588
16279000,0.0324,0.013523,0.002678,0.000431,0.001175
16280000,0.0324,0.013523,0.002678,0.000431,0.000705
16281000,0.0324,0.013523,0.002678,0.000431,0.001175
16282000,0.0324,0.013523,0.002678,0.000431,0.001293
16283000,0.0324,0.013523,0.002678,0.000431,0.000588
16284000,0.0324,0.013523,0.002678,0.000431,0.000470
16285000,0.0324,0.013523,0.002678,0.000431,0.001410
16286000,0.0324,0.013523,0.002678,0.000431,0.001175
16287000,0.0324,0.013523,0.002678,0.000431,0.000588
16288000,0.0324,0.013523,0.002678,0.000431,0.001058
16289000,0.0324,0.013523,0.002678,0.000431,0.000705
16290000,0.0324,0.013523,0.002678,0.000431,0.001410
16291000,0.0324,0.013523,0.002678,0.000431,0.001175
16292000,0.0324,0.013523,0.002678,0.000431,0.001175
16293000,0.0324,0.013523,0.002678,0.000431,0.001175
16294000,0.0324,0.013523,0.002678,0.000431,0.000940
16295000,0.0324,0.013523,0.002678,0.000431,0.001175
16296000,0.0324,0.013523,0.002678,0.000431,0.001175
16297000,0.0324,0.013523,0.002678,0.000431,0.001175
16298000,0.0324,0.013523,0.002678,0.000431,0.000705
16299000,0.0324,0.013523,0.002678,0.000431,0.000705
16300000,0.0324,0.013523,0.002678,0.000431,0.001175
16301000,0.0324,0.013523,0.002678,0.000431,0.001175
16302000,0.0324,0.013523,0.002678,0.000431,0.000470
16303000,0.0324,0.013523,0.002678,0.000431,0.000823
16304000,0.0324,0.013523,0.002678,0.000431,0.001293
16305000,0.0324,0.013523,0.002678,0.000431,0.001175
16306000,0.0324,0.013523,0.002678,0.000431,0.001175
16307000,0.0324,0.013523,0.002678,0.000431,0.001175
16308000,0.0324,0.013523,0.002678,0.000431,0.000823
16309000,0.0324,0.013523,0.002678,0.000431,0.001058
16310000,0.0324,0.013523,0.002678,0.000431,0.000823
16311000,0.0324,0.013523,0.002678,0.000431,0.001058
16312000,0.0324,0.013523,0.002678,0.000431,0.001175
16313000,0.0324,0.013523,0.002678,0.000431,0.000705
16314000,0.0324,0.013523,0.002678,0.000431,0.001175
16315000,0.0324,0.013523,0.002678,0.000431,0.001175
16316000,0.0324,0.013523,0.002678,0.000431,0.001175
16317000,0.0324,0.013523,0.002678,0.000431,0.001175
16318000,0.0324,0.013523,0.002678,0.000431,0.000705
16319000,0.0324,0.013523,0.002678,0.000431,0.000588
16320000,0.0324,0.013523,0.002678,0.000431,0.001058
16321000,0.0324,0.013523,0.002678,0.000431,0.000940
16322000,0.0324,0.013523,0.002678,0.000431,0.001175
16323000,0.0324,0.013523,0.002678,0.000431,0.001175
16324000,0.0324,0.013523,0.002678,0.000431,0.001175
16325000,0.0324,0.013523,0.002678,0.000431,0.000705
16326000,0.0324,0.013523,0.002678,0.000431,0.000588
16327000,0.0324,0.013523,0.002678,0.000431,0.001293
16328000,0.0324,0.013523,0.002678,0.000431,0.000470
16329000,0.0324,0.013523,0.002678,0.000431,0.001293
16330000,0.0324,0.013523,0.002678,0.000431,0.000588
16331000,0.0324,0.013523,0.002678,0.000431,0.001175
16332000,0.0324,0.013523,0.002678,0.000431,0.000823
16333000,0.0324,0.013523,0.002678,0.000431,0.001410
16334000,0.0324,0.013523,0.002678,0.000431,0.001058
16335000,0.0324,0.013523,0.002678,0.000431,0.001175
16336000,0.0324,0.013523,0.002678,0.000431,0.000470
16337000,0.0324,0.013523,0.002678,0.000431,0.001293
16338000,0.0324,0.013523,0.002678,0.000431,0.001058
16339000,0.0324,0.013523,0.002678,0.000431,0.000705
16340000,0.0324,0.013523,0.002678,0.000431,0.000705
16341000,0.0324,0.013523,0.002678,0.000431,0.001175
16342000,0.0324,0.013523,0.002678,0.000431,0.001293
16343000,0.0324,0.013523,0.002678,0.000431,0.000823
16344000,0.0324,0.013523,0.002678,0.000431,0.001175
16345000,0.0324,0.013523,0.002678,0.000431,0.001175
16346000,0.0324,0.013523,0.002678,0.000431,0.001175
16347000,0.0324,0.013523,0.002678,0.000431,0.001293
16348000,0.0324,0.013523,0.002678,0.000431,0.001058
16349000,0.0324,0.013523,0.002678,0.000431,0.000705
16350000,0.0324,0.013523,0.002678,0.000431,0.001410
16351000,0.0324,0.013523,0.002678,0.000431,0.001175
16352000,0.0324,0.013523,0.002678,0.000431,0.000705
16353000,0.0324,0.013523,0.002678,0.000431,0.001175
16354000,0.0324,0.013523,0.002678,0.000431,0.001175
16355000,0.0324,0.013523,0.002678,0.000431,0.001175
16356000,0.0324,0.013523,0.002678,0.000431,0.000940
16357000,0.0324,0.013523,0.002678,0.000431,0.001175
16358000,0.0324,0.013523,0.002678,0.000431,0.001175
16359000,0.0324,0.013523,0.002678,0.000431,0.001175
16360000,0.0324,0.013523,0.002678,0.000431,0.001293
16361000,0.0324,0.013523,0.002678,0.000431,0.000588
16362000,0.0324,0.013523,0.002678,0.000431,0.000588
16363000,0.0324,0.013523,0.002678,0.000431,0.001058
16364000,0.0324,0.013523,0.002678,0.000431,0.000940
16365000,0.0324,0.013523,0.002678,0.000431,0.001175
16366000,0.0324,0.013523,0.002678,0.000431,0.001175
16367000,0.0324,0.013523,0.002678,0.000431,0.000470
16368000,0.0324,0.013523,0.002678,0.000431,0.001293
16369000,0.0324,0.013523,0.002678,0.000431,0.000588
16370000,0.0324,0.013523,0.002678,0.000431,0.001175
16371000,0.0324,0.013523,0.002678,0.000431,0.000705
16372000,0.0324,0.013523,0.002678,0.000431,0.000705
16373000,0.0324,0.013523,0.002678,0.000431,0.001175
16374000,0.0324,0.013523,0.002678,0.000431,0.001175
16375000,0.0324,0.013523,0.002678,0.000431,0.001410
16376000,0.0324,0.013523,0.002678,0.000431,0.001175
16377000,0.0324,0.013523,0.002678,0.000431,0.001175
16378000,0.0324,0.013523,0.002678,0.000431,0.001293
16379000,0.0324,0.013523,0.002678,0.000431,0.001058
16380000,0.0324,0.013523,0.002678,0.000431,0.000940
16381000,0.0324,0.013523,0.002678,0.000431,0.001175
16382000,0.0324,0.013523,0.002678,0.000431,0.001175
16383000,0.0324,0.013523,0.002678,0.000431,0.001058
16384000,0.0324,0.013523,0.002678,0.000431,0.000823
16385000,0.0324,0.013523,0.002678,0.000431,0.000588
16386000,0.0324,0.013523,0.002678,0.000431,0.001058
16387000,0.0324,0.013523,0.002678,0.000431,0.000940
16388000,0.0324,0.013523,0.002678,0.000431,0.001175
16389000,0.0324,0.013523,0.002678,0.000431,0.001175
16390000,0.0324,0.013523,0.002678,0.000431,0.001058
16391000,0.0324,0.013523,0.002678,0.000431,0.000823
16392000,0.0324,0.013523,0.002678,0.000431,0.001175
16393000,0.0324,0.013523,0.002678,0.000431,0.001293
16394000,0.0324,0.013523,0.002678,0.000431,0.001058
16395000,0.0324,0.013523,0.002678,0.000431,0.000940
16396000,0.0324,0.013523,0.002678,0.000431,0.001175
16397000,0.0324,0.013523,0.002678,0.000431,0.001175
16398000,0.0324,0.013523,0.002678,0.000431,0.001293
16399000,0.0324,0.013523,0.002678,0.000431,0.001058
16400000,0.0324,0.013523,0.002678,0.000431,0.000823
16401000,0.0324,0.013523,0.002678,0.000431,0.000588
16402000,0.0324,0.013523,0.002678,0.000431,0.000940
16403000,0.0324,0.013523,0.002678,0.000431,0.001293
16404000,0.0324,0.013523,0.002678,0.000431,0.000823
16405000,0.0324,0.013523,0.002678,0.000431,0.000823
16406000,0.0324,0.013523,0.002678,0.000431,0.001058
16407000,0.0324,0.013523,0.002678,0.000431,0.001410
16408000,0.0324,0.013523,0.002678,0.000431,0.001175
16409000,0.0324,0.013523,0.002678,0.000431,0.000705
16410000,0.0324,0.013523,0.002678,0.000431,0.001175
16411000,0.0324,0.013523,0.002678,0.000431,0.001175
16412000,0.0324,0.013523,0.002678,0.000431,0.001175
16413000,0.0324,0.013523,0.002678,0.000431,0.001058
16414000,0.0324,0.013523,0.002678,0.000431,0.000823
16415000,0.0324,0.013523,0.002678,0.000431,0.001293
16416000,0.0324,0.013523,0.002678,0.000431,0.001293
16417000,0.0324,0.013523,0.002678,0.000431,0.000823
16418000,0.0324,0.013523,0.002678,0.000431,0.001058
16419000,0.0324,0.013523,0.002678,0.000431,0.001175
16420000,0.0324,0.013523,0.002678,0.000431,0.001293
16421000,0.0324,0.013523,0.002678,0.000431,0.001293
16422000,0.0324,0.013523,0.002678,0.000431,0.001175
16423000,0.0324,0.013523,0.002678,0.000431,0.000823
16424000,0.0324,0.013523,0.002678,0.000431,0.001058
16425000,0.0324,0.013523,0.002678,0.000431,0.001175
16426000,0.0324,0.013523,0.002678,0.000431,0.001175
16427000,0.0324,0.013523,0.002678,0.000431,0.001175
16428000,0.0324,0.013523,0.002678,0.000431,0.001410
16429000,0.0324,0.013523,0.002678,0.000431,0.000705
16430000,0.0324,0.013523,0.002678,0.000431,0.000470
16431000,0.0324,0.013523,0.002678,0.000431,0.000705
16432000,0.0324,0.013523,0.002678,0.000431,0.001175
16433000,0.0324,0.013523,0.002678,0.000431,0.001175
16434000,0.0324,0.013523,0.002678,0.000431,0.001293
16435000,0.0324,0.013523,0.002678,0.000431,0.000823
16436000,0.0324,0.013523,0.002678,0.000431,0.001175
16437000,0.0324,0.013523,0.002678,0.000431,0.001175
16438000,0.0324,0.013523,0.002678,0.000431,0.000470
16439000,0.0324,0.013523,0.002678,0.000431,0.001410
16440000,0.0324,0.013523,0.002678,0.000431,0.000940
16441000,0.0324,0.013523,0.002678,0.000431,0.000940
16442000,0.0324,0.013523,0.002678,0.000431,0.001175
16443000,0.0324,0.013523,0.002678,0.000431,0.000705
16444000,0.0324,0.013523,0.002678,0.000431,0.001058
16445000,0.0324,0.013523,0.002678,0.000431,0.000823
16446000,0.0324,0.013523,0.002678,0.000431,0.001175
16447000,0.0324,0.013523,0.002678,0.000431,0.001175
16448000,0.0324,0.013523,0.002678,0.000431,0.001175
16449000,0.0324,0.013523,0.002678,0.000431,0.001293
16450000,0.0324,0.013523,0.002678,0.000431,0.001293
16451000,0.0324,0.013523,0.002678,0.000431,0.001175
16452000,0.0324,0.013523,0.002678,0.000431,0.001175
16453000,0.0324,0.013523,0.002678,0.000431,0.000705
16454000,0.0324,0.013523,0.002678,0.000431,0.001410
16455000,0.0324,0.013523,0.002678,0.000431,0.000940
16456000,0.0324,0.013523,0.002678,0.000431,0.001410
16457000,0.0324,0.013523,0.002678,0.000431,0.001175
16458000,0.0324,0.013523,0.002678,0.000431,0.000940
16459000,0.0324,0.013523,0.002678,0.000431,0.001175
16460000,0.0324,0.013523,0.002678,0.000431,0.001175
16461000,0.0324,0.013523,0.002678,0.000431,0.001175
16462000,0.0324,0.013523,0.002678,0.000431,0.001410
16463000,0.0324,0.013523,0.002678,0.000431,0.000940
16464000,0.0324,0.013523,0.002678,0.000431,0.001293
16465000,0.0324,0.013523,0.002678,0.000431,0.000823
16466000,0.0324,0.013523,0.002678,0.000431,0.001058
16467000,0.0324,0.013523,0.002678,0.000431,0.001293
16468000,0.0324,0.013523,0.002678,0.000431,0.000705
16469000,0.0324,0.013523,0.002678,0.000431,0.000705
16470000,0.0324,0.013523,0.002678,0.000431,0.001175
16471000,0.0324,0.013523,0.002678,0.000431,0.000470
16472000,0.0324,0.013523,0.002678,0.000431,0.001410
16473000,0.0324,0.013523,0.002678,0.000431,0.001175
16474000,0.0324,0.013523,0.002678,0.000431,0.001293
16475000,0.0324,0.013523,0.002678,0.000431,0.001058
16476000,0.0324,0.013523,0.002678,0.000431,0.000705
16477000,0.0324,0.013523,0.002678,0.000431,0.000823
16478000,0.0324,0.013523,0.002678,0.000431,0.001293
16479000,0.0324,0.013523,0.002678,0.000431,0.000940
16480000,0.0324,0.013523,0.002678,0.000431,0.000705
16481000,0.0324,0.013523,0.002678,0.000431,0.001175
16482000,0.0324,0.013523,0.002678,0.000431,0.001410
16483000,0.0324,0.013523,0.002678,0.000431,0.001175
16484000,0.0324,0.013523,0.002678,0.000431,0.000705
16485000,0.0324,0.013523,0.002678,0.000431,0.001175
16486000,0.0324,0.013523,0.002678,0.000431,0.001175
16487000,0.0324,0.013523,0.002678,0.000431,0.001293
16488000,0.0324,0.013523,0.002678,0.000431,0.001058
16489000,0.0324,0.013523,0.002678,0.000431,0.000940
16490000,0.0324,0.013523,0.002678,0.000431,0.001175
16491000,0.0324,0.013523,0.002678,0.000431,0.001175
16492000,0.0324,0.013523,0.002678,0.000431,0.000823
16493000,0.0324,0.013523,0.002678,0.000431,0.001058
16494000,0.0324,0.013523,0.002678,0.000431,0.001175
16495000,0.0324,0.013523,0.002678,0.000431,0.000705
16496000,0.0324,0.013523,0.002678,0.000431,0.001175
16497000,0.0324,0.013523,0.002678,0.000431,0.000588
16498000,0.0324,0.013523,0.002678,0.000431,0.001293
16499000,0.0324,0.013523,0.002678,0.000431,0.001175
16500000,0.0324,0.013523,0.002678,0.000431,0.000705
16501000,0.0324,0.013523,0.002678,0.000431,0.001175
16502000,0.0324,0.013523,0.002678,0.000431,0.001410
16503000,0.0324,0.013523,0.002678,0.000431,0.001175
16504000,0.0324,0.013523,0.002678,0.000431,0.001175
16505000,0.0324,0.013523,0.002678,0.000431,0.000705
16506000,0.0324,0.013523,0.002678,0.000431,0.001410
16507000,0.0324,0.013523,0.002678,0.000431,0.001175
16508000,0.0324,0.013523,0.002678,0.000431,0.001175
16509000,0.0324,0.013523,0.002678,0.000431,0.001175
16510000,0.0324,0.013523,0.002678,0.000431,0.001293
16511000,0.0324,0.013523,0.002678,0.000431,0.001058
16512000,0.0324,0.013523,0.002678,0.000431,0.001175
16513000,0.0324,0.013523,0.002678,0.000431,0.001410
16514000,0.0324,0.013523,0.002678,0.000431,0.001058
16515000,0.0324,0.013523,0.002678,0.000431,0.001058
16516000,0.0324,0.013523,0.002678,0.000431,0.001175
16517000,0.0324,0.013523,0.002678,0.000431,0.000705
16518000,0.0324,0.013523,0.002678,0.000431,0.001175
16519000,0.0324,0.013523,0.002678,0.000431,0.000823
16520000,0.0324,0.013523,0.002678,0.000431,0.001058
16521000,0.0324,0.013523,0.002678,0.000431,0.001175
16522000,0.0324,0.013523,0.002678,0.000431,0.001293
16523000,0.0324,0.013523,0.002678,0.000431,0.001058
16524000,0.0324,0.013523,0.002678,0.000431,0.000940
16525000,0.0324,0.013523,0.002678,0.000431,0.001175
16526000,0.0324,0.013523,0.002678,0.000431,0.001175
16527000,0.0324,0.013523,0.002678,0.000431,0.000470
16528000,0.0324,0.013523,0.002678,0.000431,0.001175
16529000,0.0324,0.013523,0.002678,0.000431,0.000823
16530000,0.0324,0.013523,0.002678,0.000431,0.001293
16531000,0.0324,0.013523,0.002678,0.000431,0.001175
16532000,0.0324,0.013523,0.002678,0.000431,0.001410
16533000,0.0324,0.013523,0.002678,0.000431,0.001175
16534000,0.0324,0.013523,0.002678,0.000431,0.001293
16535000,0.0324,0.013523,0.002678,0.000431,0.000588
16536000,0.0324,0.013523,0.002678,0.000431,0.000823
16537000,0.0324,0.013523,0.002678,0.000431,0.001058
16538000,0.0324,0.013523,0.002678,0.000431,0.001175
16539000,0.0324,0.013523,0.002678,0.000431,0.001175
16540000,0.0324,0.013523,0.002678,0.000431,0.001058
16541000,0.0324,0.013523,0.002678,0.000431,0.000823
16542000,0.0324,0.013523,0.002678,0.000431,0.000705
16543000,0.0324,0.013523,0.002678,0.000431,0.001058
16544000,0.0324,0.013523,0.002678,0.000431,0.000588
16545000,0.0324,0.013523,0.002678,0.000431,0.000823
16546000,0.0324,0.013523,0.002678,0.000431,0.001058
16547000,0.0324,0.013523,0.002678,0.000431,0.000705
16548000,0.0324,0.013523,0.002678,0.000431,0.000940
16549000,0.0324,0.013523,0.002678,0.000431,0.001293
16550000,0.0324,0.013523,0.002678,0.000431,0.001058
16551000,0.0324,0.013523,0.002678,0.000431,0.001175
16552000,0.0324,0.013523,0.002678,0.000431,0.000940
16553000,0.0324,0.013523,0.002678,0.000431,0.000705
16554000,0.0324,0.013523,0.002678,0.000431,0.001175
16555000,0.0324,0.013523,0.002678,0.000431,0.001175
16556000,0.0324,0.013523,0.002678,0.000431,0.000705
16557000,0.0324,0.013523,0.002678,0.000431,0.001175
16558000,0.0324,0.013523,0.002678,0.000431,0.001410
16559000,0.0324,0.013523,0.002678,0.000431,0.000940
16560000,0.0324,0.013523,0.002678,0.000431,0.001293
16561000,0.0324,0.013523,0.002678,0.000431,0.001058
16562000,0.0324,0.013523,0.002678,0.000431,0.000940
16563000,0.0324,0.013523,0.002678,0.000431,0.001175
16564000,0.0324,0.013523,0.002678,0.000431,0.001175
16565000,0.0324,0.013523,0.002678,0.000431,0.001293
16566000,0.0324,0.013523,0.002678,0.000431,0.001058
16567000,0.0324,0.013523,0.002678,0.000431,0.000940
16568000,0.0324,0.013523,0.002678,0.000431,0.001175
16569000,0.0324,0.013523,0.002678,0.000431,0.001175
16570000,0.0324,0.013523,0.002678,0.000431,0.000470
16571000,0.0324,0.013523,0.002678,0.000431,0.001293
16572000,0.0324,0.013523,0.002678,0.000431,0.000823
16573000,0.0324,0.013523,0.002678,0.000431,0.001175
16574000,0.0324,0.013523,0.002678,0.000431,0.001175
16575000,0.0324,0.013523,0.002678,0.000431,0.000470
16576000,0.0324,0.013523,0.002678,0.000431,0.001293
16577000,0.0324,0.013523,0.002678,0.000431,0.001058
16578000,0.0324,0.013523,0.002678,0.000431,0.000940
16579000,0.0324,0.013523,0.002678,0.000431,0.001175
16580000,0.0324,0.013523,0.002678,0.000431,0.001175
16581000,0.0324,0.013523,0.002678,0.000431,0.001175
16582000,0.0324,0.013523,0.002678,0.000431,0.000705
16583000,0.0324,0.013523,0.002678,0.000431,0.001175
16584000,0.0324,0.013523,0.002678,0.000431,0.001175
16585000,0.0324,0.013523,0.002678,0.000431,0.001410
16586000,0.0324,0.013523,0.002678,0.000431,0.000470
16587000,0.0324,0.013523,0.002678,0.000431,0.001293
16588000,0.0324,0.013523,0.002678,0.000431,0.000823
16589000,0.0324,0.013523,0.002678,0.000431,0.000940
16590000,0.0324,0.013523,0.002678,0.000431,0.000705
16591000,0.0324,0.013523,0.002678,0.000431,0.001175
16592000,0.0324,0.013523,0.002678,0.000431,0.001058
16593000,0.0324,0.013523,0.002678,0.000431,0.001293
16594000,0.0324,0.013523,0.002678,0.000431,0.000940
16595000,0.0324,0.013523,0.002678,0.000431,0.001175
16596000,0.0324,0.013523,0.002678,0.000431,0.001175
16597000,0.0324,0.013523,0.002678,0.000431,0.001175
16598000,0.0324,0.013523,0.002678,0.000431,0.001058
16599000,0.0324,0.013523,0.002678,0.000431,0.001058
16600000,0.0324,0.013523,0.002678,0.000431,0.001058
16601000,0.0324,0.013523,0.002678,0.000431,0.001058
16602000,0.0324,0.013523,0.002678,0.000431,0.000940
16603000,0.0324,0.013523,0.002678,0.000431,0.001175
16604000,0.0324,0.013523,0.002678,0.000431,0.001175
16605000,0.0324,0.013523,0.002678,0.000431,0.001175
16606000,0.0324,0.013523,0.002678,0.000431,0.000705
16607000,0.0324,0.013523,0.002678,0.000431,0.000940
16608000,0.0324,0.013523,0.002678,0.000431,0.000940
16609000,0.0324,0.013523,0.002678,0.000431,0.001175
16610000,0.0324,0.013523,0.002678,0.000431,0.001175
16611000,0.0324,0.013523,0.002678,0.000431,0.000588
16612000,0.0324,0.013523,0.002678,0.000431,0.000705
16613000,0.0324,0.013523,0.002678,0.000431,0.000588
16614000,0.0324,0.013523,0.002678,0.000431,0.001175
16615000,0.0324,0.013523,0.002678,0.000431,0.001293
16616000,0.0324,0.013523,0.002678,0.000431,0.000588
16617000,0.0324,0.013523,0.002678,0.000431,0.000705
16618000,0.0324,0.013523,0.002678,0.000431,0.001175
16619000,0.0324,0.013523,0.002678,0.000431,0.000705
16620000,0.0324,0.013523,0.002678,0.000431,0.001175
16621000,0.0324,0.013523,0.002678,0.000431,0.001175
16622000,0.0324,0.013523,0.002678,0.000431,0.000823
16623000,0.0324,0.013523,0.002678,0.000431,0.001058
16624000,0.0324,0.013523,0.002678,0.000431,0.001175
16625000,0.0324,0.013523,0.002678,0.000431,0.001293
16626000,0.0324,0.013523,0.002678,0.000431,0.001058
16627000,0.0324,0.013523,0.002678,0.000431,0.000705
16628000,0.0324,0.013523,0.002678,0.000431,0.000705
16629000,0.0324,0.013523,0.002678,0.000431,0.001175
16630000,0.0324,0.013523,0.002678,0.000431,0.001175
16631000,0.0324,0.013523,0.002678,0.000431,0.001175
16632000,0.0324,0.013523,0.002678,0.000431,0.001175
16633000,0.0324,0.013523,0.002678,0.000431,0.000705
16634000,0.0324,0.013523,0.002678,0.000431,0.001175
16635000,0.0324,0.013523,0.002678,0.000431,0.000940
16636000,0.0324,0.013523,0.002678,0.000431,0.001058
16637000,0.0324,0.013523,0.002678,0.000431,0.000588
16638000,0.0324,0.013523,0.002678,0.000431,0.001293
16639000,0.0324,0.013523,0.002678,0.000431,0.001293
16640000,0.0324,0.013523,0.002678,0.000431,0.001175
16641000,0.0324,0.013523,0.002678,0.000431,0.000823
16642000,0.0324,0.013523,0.002678,0.000431,0.001058
16643000,0.0324,0.013523,0.002678,0.000431,0.001410
16644000,0.0324,0.013523,0.002678,0.000431,0.001175
16645000,0.0324,0.013523,0.002678,0.000431,0.001175
16646000,0.0324,0.013523,0.002678,0.000431,0.000588
16647000,0.0324,0.013523,0.002678,0.000431,0.001058
16648000,0.0324,0.013523,0.002678,0.000431,0.000940
16649000,0.0324,0.013523,0.002678,0.000431,0.001058
16650000,0.0324,0.013523,0.002678,0.000431,0.000823
16651000,0.0324,0.013523,0.002678,0.000431,0.001175
16652000,0.0324,0.013523,0.002678,0.000431,0.001175
16653000,0.0324,0.013523,0.002678,0.000431,0.001175
16654000,0.0324,0.013523,0.002678,0.000431,0.001293
16655000,0.0324,0.013523,0.002678,0.000431,0.001058
16656000,0.0324,0.013523,0.002678,0.000431,0.000823
16657000,0.0324,0.013523,0.002678,0.000431,0.000588
16658000,0.0324,0.013523,0.002678,0.000431,0.001175
16659000,0.0324,0.013523,0.002678,0.000431,0.001293
16660000,0.0324,0.013523,0.002678,0.000431,0.001058
16661000,0.0324,0.013523,0.002678,0.000431,0.000705
16662000,0.0324,0.013523,0.002678,0.000431,0.000705
16663000,0.0324,0.013523,0.002678,0.000431,0.001175
16664000,0.0324,0.013523,0.002678,0.000431,0.001175
16665000,0.0324,0.013523,0.002678,0.000431,0.000940
16666000,0.0324,0.013523,0.002678,0.000431,0.001175
16667000,0.0324,0.013523,0.002678,0.000431,0.001175
16668000,0.0324,0.013523,0.002678,0.000431,0.000705
16669000,0.0324,0.013523,0.002678,0.000431,0.001175
16670000,0.0324,0.013523,0.002678,0.000431,0.001175
16671000,0.0324,0.013523,0.002678,0.000431,0.000470
16672000,0.0324,0.013523,0.002678,0.000431,0.001410
16673000,0.0324,0.013523,0.002678,0.000431,0.000705
16674000,0.0324,0.013523,0.002678,0.000431,0.001175
16675000,0.0324,0.013523,0.002678,0.000431,0.001175
16676000,0.0324,0.013523,0.002678,0.000431,0.001175
16677000,0.0324,0.013523,0.002678,0.000431,0.001058
16678000,0.0324,0.013523,0.002678,0.000431,0.001058
16679000,0.0324,0.013523,0.002678,0.000431,0.000940
16680000,0.0324,0.013523,0.002678,0.000431,0.001410
16681000,0.0324,0.013523,0.002678,0.000431,0.001175
16682000,0.0324,0.013523,0.002678,0.000431,0.000705
16683000,0.0324,0.013523,0.002678,0.000431,0.001175
16684000,0.0324,0.013523,0.002678,0.000431,0.001293
16685000,0.0324,0.013523,0.002678,0.000431,0.000588
16686000,0.0324,0.013523,0.002678,0.000431,0.000470
16687000,0.0324,0.013523,0.002678,0.000431,0.000588
16688000,0.0324,0.013523,0.002678,0.000431,0.000823
16689000,0.0324,0.013523,0.002678,0.000431,0.001175
16690000,0.0324,0.013523,0.002678,0.000431,0.001175
16691000,0.0324,0.013523,0.002678,0.000431,0.001058
16692000,0.0324,0.013523,0.002678,0.000431,0.001058
16693000,0.0324,0.013523,0.002678,0.000431,0.000940
16694000,0.0324,0.013523,0.002678,0.000431,0.000705
16695000,0.0324,0.013523,0.002678,0.000431,0.000470
16696000,0.0324,0.013523,0.002678,0.000431,0.001293
16697000,0.0324,0.013523,0.002678,0.000431,0.001058
16698000,0.0324,0.013523,0.002678,0.000431,0.000940
16699000,0.0324,0.013523,0.002678,0.000431,0.001175
16700000,0.0324,0.013523,0.002678,0.000431,0.001175
16701000,0.0324,0.013523,0.002678,0.000431,0.000705
16702000,0.0324,0.013523,0.002678,0.000431,0.001175
16703000,0.0324,0.013523,0.002678,0.000431,0.001293
16704000,0.0324,0.013523,0.002678,0.000431,0.001058
16705000,0.0324,0.013523,0.002678,0.000431,0.000940
16706000,0.0324,0.013523,0.002678,0.000431,0.001175
16707000,0.0324,0.013523,0.002678,0.000431,0.001175
16708000,0.0324,0.013523,0.002678,0.000431,0.001175
16709000,0.0324,0.013523,0.002678,0.000431,0.000940
16710000,0.0324,0.013523,0.002678,0.000431,0.000940
16711000,0.0324,0.013523,0.002678,0.000431,0.000705
16712000,0.0324,0.013523,0.002678,0.000431,0.000470
16713000,0.0324,0.013523,0.002678,0.000431,0.000705
16714000,0.0324,0.013523,0.002678,0.000431,0.001293
16715000,0.0324,0.013523,0.002678,0.000431,0.001058
16716000,0.0324,0.013523,0.002678,0.000431,0.000940
16717000,0.0324,0.013523,0.002678,0.000431,0.001175
16718000,0.0324,0.013523,0.002678,0.000431,0.001293
16719000,0.0324,0.013523,0.002678,0.000431,0.001293
16720000,0.0324,0.013523,0.002678,0.000431,0.001175
16721000,0.0324,0.013523,0.002678,0.000431,0.000588
16722000,0.0324,0.013523,0.002678,0.000431,0.000588
16723000,0.0324,0.013523,0.002678,0.000431,0.001175
16724000,0.0324,0.013523,0.002678,0.000431,0.001058
16725000,0.0324,0.013523,0.002678,0.000431,0.001058
16726000,0.0324,0.013523,0.002678,0.000431,0.001058
16727000,0.0324,0.013523,0.002678,0.000431,0.001058
16728000,0.0324,0.013523,0.002678,0.000431,0.001175
16729000,0.0324,0.013523,0.002678,0.000431,0.001528
16730000,0.0324,0.013523,0.002678,0.000431,0.001058
16731000,0.0324,0.013523,0.002678,0.000431,0.000940
16732000,0.0324,0.013523,0.002678,0.000431,0.001293
16733000,0.0324,0.013523,0.002678,0.000431,0.001293
16734000,0.0324,0.013523,0.002678,0.000431,0.001175
16735000,0.0324,0.013523,0.002678,0.000431,0.001175
16736000,0.0324,0.013523,0.002678,0.000431,0.000823
16737000,0.0324,0.013523,0.002678,0.000431,0.001058
16738000,0.0324,0.013523,0.002678,0.000431,0.001175
16739000,0.0324,0.013523,0.002678,0.000431,0.001293
16740000,0.0324,0.013523,0.002678,0.000431,0.000588
16741000,0.0324,0.013523,0.002678,0.000431,0.001175
16742000,0.0324,0.013523,0.002678,0.000431,0.001058
16743000,0.0324,0.013523,0.002678,0.000431,0.001058
16744000,0.0324,0.013523,0.002678,0.000431,0.000940
16745000,0.0324,0.013523,0.002678,0.000431,0.001410
16746000,0.0324,0.013523,0.002678,0.000431,0.000705
16747000,0.0324,0.013523,0.002678,0.000431,0.001175
16748000,0.0324,0.013523,0.002678,0.000431,0.000588
16749000,0.0324,0.013523,0.002678,0.000431,0.001058
16750000,0.0324,0.013523,0.002678,0.000431,0.001410
16751000,0.0324,0.013523,0.002678,0.000431,0.001410
16752000,0.0324,0.013523,0.002678,0.000431,0.000470
16753000,0.0324,0.013523,0.002678,0.000431,0.000705
16754000,0.0324,0.013523,0.002678,0.000431,0.001175
16755000,0.0324,0.013523,0.002678,0.000431,0.000588
16756000,0.0324,0.013523,0.002678,0.000431,0.001058
16757000,0.0324,0.013523,0.002678,0.000431,0.000705
16758000,0.0324,0.013523,0.002678,0.000431,0.001175
16759000,0.0324,0.013523,0.002678,0.000431,0.000940
16760000,0.0324,0.013523,0.002678,0.000431,0.001175
16761000,0.0324,0.013523,0.002678,0.000431,0.001175
16762000,0.0324,0.013523,0.002678,0.000431,0.001175
16763000,0.0324,0.013523,0.002678,0.000431,0.001175
16764000,0.0324,0.013523,0.002678,0.000431,0.000705
16765000,0.0324,0.013523,0.002678,0.000431,0.000705
16766000,0.0324,0.013523,0.002678,0.000431,0.001175
16767000,0.0324,0.013523,0.002678,0.000431,0.001293
16768000,0.0324,0.013523,0.002678,0.000431,0.001293
16769000,0.0324,0.013523,0.002678,0.000431,0.001293
16770000,0.0324,0.013523,0.002678,0.000431,0.001293
16771000,0.0324,0.013523,0.002678,0.000431,0.001175
16772000,0.0324,0.013523,0.002678,0.000431,0.001058
16773000,0.0324,0.013523,0.002678,0.000431,0.000823
16774000,0.0324,0.013523,0.002678,0.000431,0.000705
16775000,0.0324,0.013523,0.002678,0.000431,0.001175
16776000,0.0324,0.013523,0.002678,0.000431,0.001175
16777000,0.0324,0.013523,0.002678,0.000431,0.001058
16778000,0.0324,0.013523,0.002678,0.000431,0.000823
16779000,0.0324,0.013523,0.002678,0.000431,0.001293
16780000,0.0324,0.013523,0.002678,0.000431,0.000588
16781000,0.0324,0.013523,0.002678,0.000431,0.000823
16782000,0.0324,0.013523,0.002678,0.000431,0.001410
16783000,0.0324,0.013523,0.002678,0.000431,0.001058
16784000,0.0324,0.013523,0.002678,0.000431,0.001175
16785000,0.0324,0.013523,0.002678,0.000431,0.000705
16786000,0.0324,0.013523,0.002678,0.000431,0.001175
16787000,0.0324,0.013523,0.002678,0.000431,0.001175
16788000,0.0324,0.013523,0.002678,0.000431,0.001293
16789000,0.0324,0.013523,0.002678,0.000431,0.001058
16790000,0.0324,0.013523,0.002678,0.000431,0.000940
16791000,0.0324,0.013523,0.002678,0.000431,0.001175
16792000,0.0324,0.013523,0.002678,0.000431,0.001175
16793000,0.0324,0.013523,0.002678,0.000431,0.001410
16794000,0.0324,0.013523,0.002678,0.000431,0.001175
16795000,0.0324,0.013523,0.002678,0.000431,0.001175
16796000,0.0324,0.013523,0.002678,0.000431,0.001175
16797000,0.0324,0.013523,0.002678,0.000431,0.000705
16798000,0.0324,0.013523,0.002678,0.000431,0.001058
16799000,0.0324,0.013523,0.002678,0.000431,0.001058
16800000,0.0324,0.013523,0.002678,0.000431,0.000940
16801000,0.0324,0.013523,0.002678,0.000431,0.001410
16802000,0.0324,0.013523,0.002678,0.000431,0.001175
16803000,0.0324,0.013523,0.002678,0.000431,0.000823
16804000,0.0324,0.013523,0.002678,0.000431,0.001058
16805000,0.0324,0.013523,0.002678,0.000431,0.000705
16806000,0.0324,0.013523,0.002678,0.000431,0.001175
16807000,0.0324,0.013523,0.002678,0.000431,0.001175
16808000,0.0324,0.013523,0.002678,0.000431,0.001410
16809000,0.0324,0.013523,0.002678,0.000431,0.001175
16810000,0.0324,0.013523,0.002678,0.000431,0.000823
16811000,0.0324,0.013523,0.002678,0.000431,0.001058
16812000,0.0324,0.013523,0.002678,0.000431,0.001410
16813000,0.0324,0.013523,0.002678,0.000431,0.001175
16814000,0.0324,0.013523,0.002678,0.000431,0.001175
16815000,0.0324,0.013523,0.002678,0.000431,0.001293
16816000,0.0324,0.013523,0.002678,0.000431,0.000588
16817000,0.0324,0.013523,0.002678,0.000431,0.001293
16818000,0.0324,0.013523,0.002678,0.000431,0.000588
16819000,0.0324,0.013523,0.002678,0.000431,0.001410
16820000,0.0324,0.013523,0.002678,0.000431,0.001175
16821000,0.0324,0.013523,0.002678,0.000431,0.001175
16822000,0.0324,0.013523,0.002678,0.000431,0.001175
16823000,0.0324,0.013523,0.002678,0.000431,0.000940
16824000,0.0324,0.013523,0.002678,0.000431,0.001175
16825000,0.0324,0.013523,0.002678,0.000431,0.001293
16826000,0.0324,0.013523,0.002678,0.000431,0.001293
16827000,0.0324,0.013523,0.002678,0.000431,0.001175
16828000,0.0324,0.013523,0.002678,0.000431,0.001175
16829000,0.0324,0.013523,0.002678,0.000431,0.001175
16830000,0.0324,0.013523,0.002678,0.000431,0.001175
16831000,0.0324,0.013523,0.002678,0.000431,0.000940
16832000,0.0324,0.013523,0.002678,0.000431,0.001175
16833000,0.0324,0.013523,0.002678,0.000431,0.000940
16834000,0.0324,0.013523,0.002678,0.000431,0.000940
16835000,0.0324,0.013523,0.002678,0.000431,0.001175
16836000,0.0324,0.013523,0.002678,0.000431,0.001175
16837000,0.0324,0.013523,0.002678,0.000431,0.001175
16838000,0.0324,0.013523,0.002678,0.000431,0.001175
16839000,0.0324,0.013523,0.002678,0.000431,0.000705
16840000,0.0324,0.013523,0.002678,0.000431,0.000823
16841000,0.0324,0.013523,0.002678,0.000431,0.001058
16842000,0.0324,0.013523,0.002678,0.000431,0.001175
16843000,0.0324,0.013523,0.002678,0.000431,0.001175
16844000,0.0324,0.013523,0.002678,0.000431,0.000940
16845000,0.0324,0.013523,0.002678,0.000431,0.001175
16846000,0.0324,0.013523,0.002678,0.000431,0.001175
16847000,0.0324,0.013523,0.002678,0.000431,0.001175
16848000,0.0324,0.013523,0.002678,0.000431,0.001293
16849000,0.0324,0.013523,0.002678,0.000431,0.001293
16850000,0.0324,0.013523,0.002678,0.000431,0.001175
16851000,0.0324,0.013523,0.002678,0.000431,0.001410
16852000,0.0324,0.013523,0.002678,0.000431,0.001175
16853000,0.0324,0.013523,0.002678,0.000431,0.001175
16854000,0.0324,0.013523,0.002678,0.000431,0.001175
16855000,0.0324,0.013523,0.002678,0.000431,0.000940
16856000,0.0324,0.013523,0.002678,0.000431,0.001175
16857000,0.0324,0.013523,0.002678,0.000431,0.000705
16858000,0.0324,0.013523,0.002678,0.000431,0.001175
16859000,0.0324,0.013523,0.002678,0.000431,0.001175
16860000,0.0324,0.013523,0.002678,0.000431,0.001175
16861000,0.0324,0.013523,0.002678,0.000431,0.001175
16862000,0.0324,0.013523,0.002678,0.000431,0.001058
16863000,0.0324,0.013523,0.002678,0.000431,0.001058
16864000,0.0324,0.013523,0.002678,0.000431,0.001175
16865000,0.0324,0.013523,0.002678,0.000431,0.001293
16866000,0.0324,0.013523,0.002678,0.000431,0.001058
16867000,0.0324,0.013523,0.002678,0.000431,0.000940
16868000,0.0324,0.013523,0.002678,0.000431,0.001175
16869000,0.0324,0.013523,0.002678,0.000431,0.001175
16870000,0.0324,0.013523,0.002678,0.000431,0.001175
16871000,0.0324,0.013523,0.002678,0.000431,0.001175
16872000,0.0324,0.013523,0.002678,0.000431,0.000940
16873000,0.0324,0.013523,0.002678,0.000431,0.001058
16874000,0.0324,0.013523,0.002678,0.000431,0.001293
16875000,0.0324,0.013523,0.002678,0.000431,0.001058
16876000,0.0324,0.013523,0.002678,0.000431,0.000823
16877000,0.0324,0.013523,0.002678,0.000431,0.001175
16878000,0.0324,0.013523,0.002678,0.000431,0.001175
16879000,0.0324,0.013523,0.002678,0.000431,0.001175
16880000,0.0324,0.013523,0.002678,0.000431,0.000705
16881000,0.0324,0.013523,0.002678,0.000431,0.000705
16882000,0.0324,0.013523,0.002678,0.000431,0.001293
16883000,0.0324,0.013523,0.002678,0.000431,0.001293
16884000,0.0324,0.013523,0.002678,0.000431,0.000823
16885000,0.0324,0.013523,0.002678,0.000431,0.000588
16886000,0.0324,0.013523,0.002678,0.000431,0.000705
16887000,0.0324,0.013523,0.002678,0.000431,0.001175
16888000,0.0324,0.013523,0.002678,0.000431,0.000823
16889000,0.0324,0.013523,0.002678,0.000431,0.001058
16890000,0.0324,0.013523,0.002678,0.000431,0.001175
16891000,0.0324,0.013523,0.002678,0.000431,0.001410
16892000,0.0324,0.013523,0.002678,0.000431,0.001175
16893000,0.0324,0.013523,0.002678,0.000431,0.001175
16894000,0.0324,0.013523,0.002678,0.000431,0.000823
16895000,0.0324,0.013523,0.002678,0.000431,0.001058
16896000,0.0324,0.013523,0.002678,0.000431,0.000705
16897000,0.0324,0.013523,0.002678,0.000431,0.001175
16898000,0.0324,0.013523,0.002678,0.000431,0.001175
16899000,0.0324,0.013523,0.002678,0.000431,0.000823
16900000,0.0324,0.013523,0.002678,0.000431,0.001058
16901000,0.0324,0.013523,0.002678,0.000431,0.000705
16902000,0.0324,0.013523,0.002678,0.000431,0.001058
16903000,0.0324,0.013523,0.002678,0.000431,0.001175
16904000,0.0324,0.013523,0.002678,0.000431,0.001058
16905000,0.0324,0.013523,0.002678,0.000431,0.000940
16906000,0.0324,0.013523,0.002678,0.000431,0.001175
16907000,0.0324,0.013523,0.002678,0.000431,0.001293
16908000,0.0324,0.013523,0.002678,0.000431,0.001293
16909000,0.0324,0.013523,0.002678,0.000431,0.001175
16910000,0.0324,0.013523,0.002678,0.000431,0.001293
16911000,0.0324,0.013523,0.002678,0.000431,0.001058
16912000,0.0324,0.013523,0.002678,0.000431,0.001175
16913000,0.0324,0.013523,0.002678,0.000431,0.001645
16914000,0.0324,0.013523,0.002678,0.000431,0.000705
16915000,0.0324,0.013523,0.002678,0.000431,0.001058
16916000,0.0324,0.013523,0.002678,0.000431,0.000705
16917000,0.0324,0.013523,0.002678,0.000431,0.001058
16918000,0.0324,0.013523,0.002678,0.000431,0.001058
16919000,0.0324,0.013523,0.002678,0.000431,0.001058
16920000,0.0324,0.013523,0.002678,0.000431,0.000940
16921000,0.0324,0.013523,0.002678,0.000431,0.001293
16922000,0.0324,0.013523,0.002678,0.000431,0.001058
16923000,0.0324,0.013523,0.002678,0.000431,0.000823
16924000,0.0324,0.013523,0.002678,0.000431,0.001293
16925000,0.0324,0.013523,0.002678,0.000431,0.000588
16926000,0.0324,0.013523,0.002678,0.000431,0.001293
16927000,0.0324,0.013523,0.002678,0.000431,0.001175
16928000,0.0324,0.013523,0.002678,0.000431,0.001175
16929000,0.0324,0.013523,0.002678,0.000431,0.001293
16930000,0.0324,0.013523,0.002678,0.000431,0.001058
16931000,0.0324,0.013523,0.002678,0.000431,0.000940
16932000,0.0324,0.013523,0.002678,0.000431,0.001175
16933000,0.0324,0.013523,0.002678,0.000431,0.001175
16934000,0.0324,0.013523,0.002678,0.000431,0.001293
16935000,0.0324,0.013523,0.002678,0.000431,0.001058
16936000,0.0324,0.013523,0.002678,0.000431,0.000940
16937000,0.0324,0.013523,0.002678,0.000431,0.001175
16938000,0.0324,0.013523,0.002678,0.000431,0.001175
16939000,0.0324,0.013523,0.002678,0.000431,0.001175
16940000,0.0324,0.013523,0.002678,0.000431,0.001058
16941000,0.0324,0.013523,0.002678,0.000431,0.001058
16942000,0.0324,0.013523,0.002678,0.000431,0.001058
16943000,0.0324,0.013523,0.002678,0.000431,0.001058
16944000,0.0324,0.013523,0.002678,0.000431,0.001410
16945000,0.0324,0.013523,0.002678,0.000431,0.001175
16946000,0.0324,0.013523,0.002678,0.000431,0.000940
16947000,0.0324,0.013523,0.002678,0.000431,0.001175
16948000,0.0324,0.013523,0.002678,0.000431,0.001175
16949000,0.0324,0.013523,0.002678,0.000431,0.001175
16950000,0.0324,0.013523,0.002678,0.000431,0.001293
16951000,0.0324,0.013523,0.002678,0.000431,0.000588
16952000,0.0324,0.013523,0.002678,0.000431,0.000823
16953000,0.0324,0.013523,0.002678,0.000431,0.001058
16954000,0.0324,0.013523,0.002678,0.000431,0.001175
16955000,0.0324,0.013523,0.002678,0.000431,0.001293
16956000,0.0324,0.013523,0.002678,0.000431,0.001058
16957000,0.0324,0.013523,0.002678,0.000431,0.000940
16958000,0.0324,0.013523,0.002678,0.000431,0.001175
16959000,0.0324,0.013523,0.002678,0.000431,0.001175
16960000,0.0324,0.013523,0.002678,0.000431,0.001175
16961000,0.0324,0.013523,0.002678,0.000431,0.000823
16962000,0.0324,0.013523,0.002678,0.000431,0.001058
16963000,0.0324,0.013523,0.002678,0.000431,0.001410
16964000,0.0324,0.013523,0.002678,0.000431,0.001175
16965000,0.0324,0.013523,0.002678,0.000431,0.001175
16966000,0.0324,0.013523,0.002678,0.000431,0.000705
16967000,0.0324,0.013523,0.002678,0.000431,0.001175
16968000,0.0324,0.013523,0.002678,0.000431,0.001293
16969000,0.0324,0.013523,0.002678,0.000431,0.001293
16970000,0.0324,0.013523,0.002678,0.000431,0.001175
16971000,0.0324,0.013523,0.002678,0.000431,0.000705
16972000,0.0324,0.013523,0.002678,0.000431,0.001175
16973000,0.0324,0.013523,0.002678,0.000431,0.001293
16974000,0.0324,0.013523,0.002678,0.000431,0.000588
16975000,0.0324,0.013523,0.002678,0.000431,0.000588
16976000,0.0324,0.013523,0.002678,0.000431,0.000940
16977000,0.0324,0.013523,0.002678,0.000431,0.001058
16978000,0.0324,0.013523,0.002678,0.000431,0.001175
16979000,0.0324,0.013523,0.002678,0.000431,0.001175
16980000,0.0324,0.013523,0.002678,0.000431,0.000823
16981000,0.0324,0.013523,0.002678,0.000431,0.001175
16982000,0.0324,0.013523,0.002678,0.000431,0.001058
16983000,0.0324,0.013523,0.002678,0.000431,0.001293
16984000,0.0324,0.013523,0.002678,0.000431,0.001293
16985000,0.0324,0.013523,0.002678,0.000431,0.001175
16986000,0.0324,0.013523,0.002678,0.000431,0.001410
16987000,0.0324,0.013523,0.002678,0.000431,0.000940
16988000,0.0324,0.013523,0.002678,0.000431,0.000940
16989000,0.0324,0.013523,0.002678,0.000431,0.001175
16990000,0.0324,0.013523,0.002678,0.000431,0.000823
16991000,0.0324,0.013523,0.002678,0.000431,0.001175
16992000,0.0324,0.013523,0.002678,0.000431,0.001293
16993000,0.0324,0.013523,0.002678,0.000431,0.001175
16994000,0.0324,0.013523,0.002678,0.000431,0.001175
16995000,0.0324,0.013523,0.002678,0.000431,0.001175
16996000,0.0324,0.013523,0.002678,0.000431,0.000823
16997000,0.0324,0.013523,0.002678,0.000431,0.001058
16998000,0.0324,0.013523,0.002678,0.000431,0.001293
16999000,0.0324,0.013523,0.002678,0.000431,0.001058
