Cycle,Area(mm^2),PeakDynamic(W),SubthresholdLeakage(W),GateLeakage(W),RunTimeDynamic(W)
12000000,0.0324,0.013523,0.002678,0.000431,0.802835
12001000,0.0324,0.013523,0.002678,0.000431,0.821522
12002000,0.0324,0.013523,0.002678,0.000431,0.859601
12003000,0.0324,0.013523,0.002678,0.000431,0.808829
12004000,0.0324,0.013523,0.002678,0.000431,0.826811
12005000,0.0324,0.013523,0.002678,0.000431,0.823755
12006000,0.0324,0.013523,0.002678,0.000431,0.861717
12007000,0.0324,0.013523,0.002678,0.000431,0.882049
12008000,0.0324,0.013523,0.002678,0.000431,0.786381
12009000,0.0324,0.013523,0.002678,0.000431,0.858896
12010000,0.0324,0.013523,0.002678,0.000431,0.824108
12011000,0.0324,0.013523,0.002678,0.000431,0.825518
12012000,0.0324,0.013523,0.002678,0.000431,0.813060
12013000,0.0324,0.013523,0.002678,0.000431,0.789907
12014000,0.0324,0.013523,0.002678,0.000431,0.759585
12015000,0.0324,0.013523,0.002678,0.000431,0.761700
12016000,0.0324,0.013523,0.002678,0.000431,0.779917
12017000,0.0324,0.013523,0.002678,0.000431,0.704111
12018000,0.0324,0.013523,0.002678,0.000431,0.719978
12019000,0.0324,0.013523,0.002678,0.000431,0.697177
12020000,0.0324,0.013523,0.002678,0.000431,0.714101
12021000,0.0324,0.013523,0.002678,0.000431,0.693299
12022000,0.0324,0.013523,0.002678,0.000431,0.683426
12023000,0.0324,0.013523,0.002678,0.000431,0.676257
12024000,0.0324,0.013523,0.002678,0.000431,0.712456
12025000,0.0324,0.013523,0.002678,0.000431,0.687540
12026000,0.0324,0.013523,0.002678,0.000431,0.757352
12027000,0.0324,0.013523,0.002678,0.000431,0.706814
12028000,0.0324,0.013523,0.002678,0.000431,0.669793
12029000,0.0324,0.013523,0.002678,0.000431,0.703054
12030000,0.0324,0.013523,0.002678,0.000431,0.669323
12031000,0.0324,0.013523,0.002678,0.000431,0.662976
12032000,0.0324,0.013523,0.002678,0.000431,0.665210
12033000,0.0324,0.013523,0.002678,0.000431,0.651811
12034000,0.0324,0.013523,0.002678,0.000431,0.641351
12035000,0.0324,0.013523,0.002678,0.000431,0.622664
12036000,0.0324,0.013523,0.002678,0.000431,0.597748
12037000,0.0324,0.013523,0.002678,0.000431,0.575653
12038000,0.0324,0.013523,0.002678,0.000431,0.579179
12039000,0.0324,0.013523,0.002678,0.000431,0.555791
12040000,0.0324,0.013523,0.002678,0.000431,0.552382
12041000,0.0324,0.013523,0.002678,0.000431,0.512070
12042000,0.0324,0.013523,0.002678,0.000431,0.509720
12043000,0.0324,0.013523,0.002678,0.000431,0.508427
12044000,0.0324,0.013523,0.002678,0.000431,0.502433
12045000,0.0324,0.013523,0.002678,0.000431,0.496204
12046000,0.0324,0.013523,0.002678,0.000431,0.480690
12047000,0.0324,0.013523,0.002678,0.000431,0.466587
12048000,0.0324,0.013523,0.002678,0.000431,0.452601
12049000,0.0324,0.013523,0.002678,0.000431,0.438968
12050000,0.0324,0.013523,0.002678,0.000431,0.412759
12051000,0.0324,0.013523,0.002678,0.000431,0.413934
12052000,0.0324,0.013523,0.002678,0.000431,0.393954
12053000,0.0324,0.013523,0.002678,0.000431,0.380791
12054000,0.0324,0.013523,0.002678,0.000431,0.370449
12055000,0.0324,0.013523,0.002678,0.000431,0.360106
12056000,0.0324,0.013523,0.002678,0.000431,0.352114
12057000,0.0324,0.013523,0.002678,0.000431,0.343652
12058000,0.0324,0.013523,0.002678,0.000431,0.337776
12059000,0.0324,0.013523,0.002678,0.000431,0.325553
12060000,0.0324,0.013523,0.002678,0.000431,0.309569
12061000,0.0324,0.013523,0.002678,0.000431,0.290647
12062000,0.0324,0.013523,0.002678,0.000431,0.302518
12063000,0.0324,0.013523,0.002678,0.000431,0.336366
12064000,0.0324,0.013523,0.002678,0.000431,0.357873
12065000,0.0324,0.013523,0.002678,0.000431,0.338716
12066000,0.0324,0.013523,0.002678,0.000431,0.364572
12067000,0.0324,0.013523,0.002678,0.000431,0.405002
12068000,0.0324,0.013523,0.002678,0.000431,0.409116
12069000,0.0324,0.013523,0.002678,0.000431,0.406295
12070000,0.0324,0.013523,0.002678,0.000431,0.454952
12071000,0.0324,0.013523,0.002678,0.000431,0.482571
12072000,0.0324,0.013523,0.002678,0.000431,0.480103
12073000,0.0324,0.013523,0.002678,0.000431,0.460005
12074000,0.0324,0.013523,0.002678,0.000431,0.472933
12075000,0.0324,0.013523,0.002678,0.000431,0.501258
12076000,0.0324,0.013523,0.002678,0.000431,0.508897
12077000,0.0324,0.013523,0.002678,0.000431,0.509602
12078000,0.0324,0.013523,0.002678,0.000431,0.525704
12079000,0.0324,0.013523,0.002678,0.000431,0.564958
12080000,0.0324,0.013523,0.002678,0.000431,0.573185
12081000,0.0324,0.013523,0.002678,0.000431,0.576593
12082000,0.0324,0.013523,0.002678,0.000431,0.605740
12083000,0.0324,0.013523,0.002678,0.000431,0.597396
12084000,0.0324,0.013523,0.002678,0.000431,0.606563
12085000,0.0324,0.013523,0.002678,0.000431,0.645582
12086000,0.0324,0.013523,0.002678,0.000431,0.641586
12087000,0.0324,0.013523,0.002678,0.000431,0.634300
12088000,0.0324,0.013523,0.002678,0.000431,0.639471
12089000,0.0324,0.013523,0.002678,0.000431,0.666972
12090000,0.0324,0.013523,0.002678,0.000431,0.688010
12091000,0.0324,0.013523,0.002678,0.000431,0.673672
12092000,0.0324,0.013523,0.002678,0.000431,0.635357
12093000,0.0324,0.013523,0.002678,0.000431,0.615965
12094000,0.0324,0.013523,0.002678,0.000431,0.644642
12095000,0.0324,0.013523,0.002678,0.000431,0.654044
12096000,0.0324,0.013523,0.002678,0.000431,0.624192
12097000,0.0324,0.013523,0.002678,0.000431,0.627130
12098000,0.0324,0.013523,0.002678,0.000431,0.646758
12099000,0.0324,0.013523,0.002678,0.000431,0.634300
12100000,0.0324,0.013523,0.002678,0.000431,0.628776
12101000,0.0324,0.013523,0.002678,0.000431,0.625955
12102000,0.0324,0.013523,0.002678,0.000431,0.600922
12103000,0.0324,0.013523,0.002678,0.000431,0.580472
12104000,0.0324,0.013523,0.002678,0.000431,0.588816
12105000,0.0324,0.013523,0.002678,0.000431,0.613380
12106000,0.0324,0.013523,0.002678,0.000431,0.570599
12107000,0.0324,0.013523,0.002678,0.000431,0.557201
12108000,0.0324,0.013523,0.002678,0.000431,0.551442
12109000,0.0324,0.013523,0.002678,0.000431,0.538632
12110000,0.0324,0.013523,0.002678,0.000431,0.554263
12111000,0.0324,0.013523,0.002678,0.000431,0.534166
12112000,0.0324,0.013523,0.002678,0.000431,0.504078
12113000,0.0324,0.013523,0.002678,0.000431,0.534048
12114000,0.0324,0.013523,0.002678,0.000431,0.540982
12115000,0.0324,0.013523,0.002678,0.000431,0.506429
12116000,0.0324,0.013523,0.002678,0.000431,0.524176
12117000,0.0324,0.013523,0.002678,0.000431,0.487272
12118000,0.0324,0.013523,0.002678,0.000431,0.487154
12119000,0.0324,0.013523,0.002678,0.000431,0.505136
12120000,0.0324,0.013523,0.002678,0.000431,0.491150
12121000,0.0324,0.013523,0.002678,0.000431,0.456479
12122000,0.0324,0.013523,0.002678,0.000431,0.466939
12123000,0.0324,0.013523,0.002678,0.000431,0.458007
12124000,0.0324,0.013523,0.002678,0.000431,0.424864
12125000,0.0324,0.013523,0.002678,0.000431,0.436030
12126000,0.0324,0.013523,0.002678,0.000431,0.426040
12127000,0.0324,0.013523,0.002678,0.000431,0.454011
12128000,0.0324,0.013523,0.002678,0.000431,0.431799
12129000,0.0324,0.013523,0.002678,0.000431,0.417225
12130000,0.0324,0.013523,0.002678,0.000431,0.423924
12131000,0.0324,0.013523,0.002678,0.000431,0.430623
12132000,0.0324,0.013523,0.002678,0.000431,0.440966
12133000,0.0324,0.013523,0.002678,0.000431,0.421691
12134000,0.0324,0.013523,0.002678,0.000431,0.430623
12135000,0.0324,0.013523,0.002678,0.000431,0.428625
12136000,0.0324,0.013523,0.002678,0.000431,0.445902
12137000,0.0324,0.013523,0.002678,0.000431,0.451191
12138000,0.0324,0.013523,0.002678,0.000431,0.412289
12139000,0.0324,0.013523,0.002678,0.000431,0.408763
12140000,0.0324,0.013523,0.002678,0.000431,0.420516
12141000,0.0324,0.013523,0.002678,0.000431,0.416520
12142000,0.0324,0.013523,0.002678,0.000431,0.419341
12143000,0.0324,0.013523,0.002678,0.000431,0.422161
12144000,0.0324,0.013523,0.002678,0.000431,0.424629
12145000,0.0324,0.013523,0.002678,0.000431,0.424394
12146000,0.0324,0.013523,0.002678,0.000431,0.456597
12147000,0.0324,0.013523,0.002678,0.000431,0.494911
12148000,0.0324,0.013523,0.002678,0.000431,0.459535
12149000,0.0324,0.013523,0.002678,0.000431,0.512423
12150000,0.0324,0.013523,0.002678,0.000431,0.511248
12151000,0.0324,0.013523,0.002678,0.000431,0.547094
12152000,0.0324,0.013523,0.002678,0.000431,0.528407
12153000,0.0324,0.013523,0.002678,0.000431,0.607738
12154000,0.0324,0.013523,0.002678,0.000431,0.631596
12155000,0.0324,0.013523,0.002678,0.000431,0.618081
12156000,0.0324,0.013523,0.002678,0.000431,0.610089
12157000,0.0324,0.013523,0.002678,0.000431,0.635240
12158000,0.0324,0.013523,0.002678,0.000431,0.616670
12159000,0.0324,0.013523,0.002678,0.000431,0.601157
12160000,0.0324,0.013523,0.002678,0.000431,0.593165
12161000,0.0324,0.013523,0.002678,0.000431,0.613615
12162000,0.0324,0.013523,0.002678,0.000431,0.613380
12163000,0.0324,0.013523,0.002678,0.000431,0.571422
12164000,0.0324,0.013523,0.002678,0.000431,0.577063
12165000,0.0324,0.013523,0.002678,0.000431,0.563548
12166000,0.0324,0.013523,0.002678,0.000431,0.541687
12167000,0.0324,0.013523,0.002678,0.000431,0.536516
12168000,0.0324,0.013523,0.002678,0.000431,0.522883
12169000,0.0324,0.013523,0.002678,0.000431,0.522060
12170000,0.0324,0.013523,0.002678,0.000431,0.503138
12171000,0.0324,0.013523,0.002678,0.000431,0.520885
12172000,0.0324,0.013523,0.002678,0.000431,0.510542
12173000,0.0324,0.013523,0.002678,0.000431,0.539924
12174000,0.0324,0.013523,0.002678,0.000431,0.545918
12175000,0.0324,0.013523,0.002678,0.000431,0.529464
12176000,0.0324,0.013523,0.002678,0.000431,0.487977
12177000,0.0324,0.013523,0.002678,0.000431,0.488447
12178000,0.0324,0.013523,0.002678,0.000431,0.534871
12179000,0.0324,0.013523,0.002678,0.000431,0.503138
12180000,0.0324,0.013523,0.002678,0.000431,0.571069
12181000,0.0324,0.013523,0.002678,0.000431,0.620196
12182000,0.0324,0.013523,0.002678,0.000431,0.616083
12183000,0.0324,0.013523,0.002678,0.000431,0.607386
12184000,0.0324,0.013523,0.002678,0.000431,0.690596
12185000,0.0324,0.013523,0.002678,0.000431,0.646640
12186000,0.0324,0.013523,0.002678,0.000431,0.743601
12187000,0.0324,0.013523,0.002678,0.000431,0.743953
12188000,0.0324,0.013523,0.002678,0.000431,0.693064
12189000,0.0324,0.013523,0.002678,0.000431,0.711986
12190000,0.0324,0.013523,0.002678,0.000431,0.744659
12191000,0.0324,0.013523,0.002678,0.000431,0.765931
12192000,0.0324,0.013523,0.002678,0.000431,0.755119
12193000,0.0324,0.013523,0.002678,0.000431,0.730790
12194000,0.0324,0.013523,0.002678,0.000431,0.739722
12195000,0.0324,0.013523,0.002678,0.000431,0.738547
12196000,0.0324,0.013523,0.002678,0.000431,0.705874
12197000,0.0324,0.013523,0.002678,0.000431,0.685777
12198000,0.0324,0.013523,0.002678,0.000431,0.682134
12199000,0.0324,0.013523,0.002678,0.000431,0.712691
12200000,0.0324,0.013523,0.002678,0.000431,0.723151
12201000,0.0324,0.013523,0.002678,0.000431,0.740428
12202000,0.0324,0.013523,0.002678,0.000431,0.714454
12203000,0.0324,0.013523,0.002678,0.000431,0.689420
12204000,0.0324,0.013523,0.002678,0.000431,0.701526
12205000,0.0324,0.013523,0.002678,0.000431,0.718215
12206000,0.0324,0.013523,0.002678,0.000431,0.719155
12207000,0.0324,0.013523,0.002678,0.000431,0.746539
12208000,0.0324,0.013523,0.002678,0.000431,0.711986
12209000,0.0324,0.013523,0.002678,0.000431,0.684132
12210000,0.0324,0.013523,0.002678,0.000431,0.704111
12211000,0.0324,0.013523,0.002678,0.000431,0.709753
12212000,0.0324,0.013523,0.002678,0.000431,0.697060
12213000,0.0324,0.013523,0.002678,0.000431,0.675552
12214000,0.0324,0.013523,0.002678,0.000431,0.645582
12215000,0.0324,0.013523,0.002678,0.000431,0.659098
12216000,0.0324,0.013523,0.002678,0.000431,0.627483
12217000,0.0324,0.013523,0.002678,0.000431,0.638531
12218000,0.0324,0.013523,0.002678,0.000431,0.634770
12219000,0.0324,0.013523,0.002678,0.000431,0.608208
12220000,0.0324,0.013523,0.002678,0.000431,0.614790
12221000,0.0324,0.013523,0.002678,0.000431,0.611147
12222000,0.0324,0.013523,0.002678,0.000431,0.598336
12223000,0.0324,0.013523,0.002678,0.000431,0.615613
12224000,0.0324,0.013523,0.002678,0.000431,0.601157
12225000,0.0324,0.013523,0.002678,0.000431,0.571540
12226000,0.0324,0.013523,0.002678,0.000431,0.537809
12227000,0.0324,0.013523,0.002678,0.000431,0.557319
12228000,0.0324,0.013523,0.002678,0.000431,0.589639
12229000,0.0324,0.013523,0.002678,0.000431,0.577886
12230000,0.0324,0.013523,0.002678,0.000431,0.577886
12231000,0.0324,0.013523,0.002678,0.000431,0.575653
12232000,0.0324,0.013523,0.002678,0.000431,0.591284
12233000,0.0324,0.013523,0.002678,0.000431,0.578944
12234000,0.0324,0.013523,0.002678,0.000431,0.570129
12235000,0.0324,0.013523,0.002678,0.000431,0.555556
12236000,0.0324,0.013523,0.002678,0.000431,0.531815
12237000,0.0324,0.013523,0.002678,0.000431,0.592342
12238000,0.0324,0.013523,0.002678,0.000431,0.562020
12239000,0.0324,0.013523,0.002678,0.000431,0.532873
12240000,0.0324,0.013523,0.002678,0.000431,0.591402
12241000,0.0324,0.013523,0.002678,0.000431,0.634300
12242000,0.0324,0.013523,0.002678,0.000431,0.564723
12243000,0.0324,0.013523,0.002678,0.000431,0.601979
12244000,0.0324,0.013523,0.002678,0.000431,0.608091
12245000,0.0324,0.013523,0.002678,0.000431,0.591872
12246000,0.0324,0.013523,0.002678,0.000431,0.608914
12247000,0.0324,0.013523,0.002678,0.000431,0.636650
12248000,0.0324,0.013523,0.002678,0.000431,0.615025
12249000,0.0324,0.013523,0.002678,0.000431,0.612204
12250000,0.0324,0.013523,0.002678,0.000431,0.590344
12251000,0.0324,0.013523,0.002678,0.000431,0.577651
12252000,0.0324,0.013523,0.002678,0.000431,0.646640
12253000,0.0324,0.013523,0.002678,0.000431,0.588934
12254000,0.0324,0.013523,0.002678,0.000431,0.613380
12255000,0.0324,0.013523,0.002678,0.000431,0.658158
12256000,0.0324,0.013523,0.002678,0.000431,0.657688
12257000,0.0324,0.013523,0.002678,0.000431,0.678960
12258000,0.0324,0.013523,0.002678,0.000431,0.678138
12259000,0.0324,0.013523,0.002678,0.000431,0.632419
12260000,0.0324,0.013523,0.002678,0.000431,0.622782
12261000,0.0324,0.013523,0.002678,0.000431,0.631596
12262000,0.0324,0.013523,0.002678,0.000431,0.666620
12263000,0.0324,0.013523,0.002678,0.000431,0.639823
12264000,0.0324,0.013523,0.002678,0.000431,0.633712
12265000,0.0324,0.013523,0.002678,0.000431,0.652987
12266000,0.0324,0.013523,0.002678,0.000431,0.691418
12267000,0.0324,0.013523,0.002678,0.000431,0.685894
12268000,0.0324,0.013523,0.002678,0.000431,0.673201
12269000,0.0324,0.013523,0.002678,0.000431,0.641939
12270000,0.0324,0.013523,0.002678,0.000431,0.664387
12271000,0.0324,0.013523,0.002678,0.000431,0.648521
12272000,0.0324,0.013523,0.002678,0.000431,0.623252
12273000,0.0324,0.013523,0.002678,0.000431,0.621842
12274000,0.0324,0.013523,0.002678,0.000431,0.606563
12275000,0.0324,0.013523,0.002678,0.000431,0.621136
12276000,0.0324,0.013523,0.002678,0.000431,0.604918
12277000,0.0324,0.013523,0.002678,0.000431,0.645347
12278000,0.0324,0.013523,0.002678,0.000431,0.593165
12279000,0.0324,0.013523,0.002678,0.000431,0.630891
12280000,0.0324,0.013523,0.002678,0.000431,0.641351
12281000,0.0324,0.013523,0.002678,0.000431,0.642644
12282000,0.0324,0.013523,0.002678,0.000431,0.638531
12283000,0.0324,0.013523,0.002678,0.000431,0.613497
12284000,0.0324,0.013523,0.002678,0.000431,0.610206
12285000,0.0324,0.013523,0.002678,0.000431,0.597748
12286000,0.0324,0.013523,0.002678,0.000431,0.566721
12287000,0.0324,0.013523,0.002678,0.000431,0.569777
12288000,0.0324,0.013523,0.002678,0.000431,0.560374
12289000,0.0324,0.013523,0.002678,0.000431,0.568954
12290000,0.0324,0.013523,0.002678,0.000431,0.552382
12291000,0.0324,0.013523,0.002678,0.000431,0.549209
12292000,0.0324,0.013523,0.002678,0.000431,0.550620
12293000,0.0324,0.013523,0.002678,0.000431,0.559317
12294000,0.0324,0.013523,0.002678,0.000431,0.530287
12295000,0.0324,0.013523,0.002678,0.000431,0.512893
12296000,0.0324,0.013523,0.002678,0.000431,0.516066
12297000,0.0324,0.013523,0.002678,0.000431,0.538984
12298000,0.0324,0.013523,0.002678,0.000431,0.525586
12299000,0.0324,0.013523,0.002678,0.000431,0.548504
12300000,0.0324,0.013523,0.002678,0.000431,0.549914
12301000,0.0324,0.013523,0.002678,0.000431,0.511013
12302000,0.0324,0.013523,0.002678,0.000431,0.525704
12303000,0.0324,0.013523,0.002678,0.000431,0.562842
12304000,0.0324,0.013523,0.002678,0.000431,0.544861
12305000,0.0324,0.013523,0.002678,0.000431,0.584468
12306000,0.0324,0.013523,0.002678,0.000431,0.573420
12307000,0.0324,0.013523,0.002678,0.000431,0.525233
12308000,0.0324,0.013523,0.002678,0.000431,0.559082
12309000,0.0324,0.013523,0.002678,0.000431,0.565781
12310000,0.0324,0.013523,0.002678,0.000431,0.622194
12311000,0.0324,0.013523,0.002678,0.000431,0.640764
12312000,0.0324,0.013523,0.002678,0.000431,0.618316
12313000,0.0324,0.013523,0.002678,0.000431,0.652634
12314000,0.0324,0.013523,0.002678,0.000431,0.666972
12315000,0.0324,0.013523,0.002678,0.000431,0.629481
12316000,0.0324,0.013523,0.002678,0.000431,0.655455
12317000,0.0324,0.013523,0.002678,0.000431,0.682369
12318000,0.0324,0.013523,0.002678,0.000431,0.657335
12319000,0.0324,0.013523,0.002678,0.000431,0.644172
12320000,0.0324,0.013523,0.002678,0.000431,0.669793
12321000,0.0324,0.013523,0.002678,0.000431,0.651459
12322000,0.0324,0.013523,0.002678,0.000431,0.649343
12323000,0.0324,0.013523,0.002678,0.000431,0.631596
12324000,0.0324,0.013523,0.002678,0.000431,0.619021
12325000,0.0324,0.013523,0.002678,0.000431,0.639118
12326000,0.0324,0.013523,0.002678,0.000431,0.627718
12327000,0.0324,0.013523,0.002678,0.000431,0.610441
12328000,0.0324,0.013523,0.002678,0.000431,0.619726
12329000,0.0324,0.013523,0.002678,0.000431,0.618316
12330000,0.0324,0.013523,0.002678,0.000431,0.607151
12331000,0.0324,0.013523,0.002678,0.000431,0.619726
12332000,0.0324,0.013523,0.002678,0.000431,0.674259
12333000,0.0324,0.013523,0.002678,0.000431,0.635945
12334000,0.0324,0.013523,0.002678,0.000431,0.643819
12335000,0.0324,0.013523,0.002678,0.000431,0.659333
12336000,0.0324,0.013523,0.002678,0.000431,0.664504
12337000,0.0324,0.013523,0.002678,0.000431,0.667325
12338000,0.0324,0.013523,0.002678,0.000431,0.655102
12339000,0.0324,0.013523,0.002678,0.000431,0.680723
12340000,0.0324,0.013523,0.002678,0.000431,0.654279
12341000,0.0324,0.013523,0.002678,0.000431,0.657805
12342000,0.0324,0.013523,0.002678,0.000431,0.658393
12343000,0.0324,0.013523,0.002678,0.000431,0.623605
12344000,0.0324,0.013523,0.002678,0.000431,0.661214
12345000,0.0324,0.013523,0.002678,0.000431,0.641116
12346000,0.0324,0.013523,0.002678,0.000431,0.637825
12347000,0.0324,0.013523,0.002678,0.000431,0.657335
12348000,0.0324,0.013523,0.002678,0.000431,0.629011
12349000,0.0324,0.013523,0.002678,0.000431,0.619844
12350000,0.0324,0.013523,0.002678,0.000431,0.634652
12351000,0.0324,0.013523,0.002678,0.000431,0.603625
12352000,0.0324,0.013523,0.002678,0.000431,0.620196
12353000,0.0324,0.013523,0.002678,0.000431,0.620431
12354000,0.0324,0.013523,0.002678,0.000431,0.582235
12355000,0.0324,0.013523,0.002678,0.000431,0.606563
12356000,0.0324,0.013523,0.002678,0.000431,0.591284
12357000,0.0324,0.013523,0.002678,0.000431,0.599981
12358000,0.0324,0.013523,0.002678,0.000431,0.595398
12359000,0.0324,0.013523,0.002678,0.000431,0.578239
12360000,0.0324,0.013523,0.002678,0.000431,0.558729
12361000,0.0324,0.013523,0.002678,0.000431,0.580237
12362000,0.0324,0.013523,0.002678,0.000431,0.586701
12363000,0.0324,0.013523,0.002678,0.000431,0.586466
12364000,0.0324,0.013523,0.002678,0.000431,0.565076
12365000,0.0324,0.013523,0.002678,0.000431,0.568836
12366000,0.0324,0.013523,0.002678,0.000431,0.612322
12367000,0.0324,0.013523,0.002678,0.000431,0.605153
12368000,0.0324,0.013523,0.002678,0.000431,0.638531
12369000,0.0324,0.013523,0.002678,0.000431,0.606445
12370000,0.0324,0.013523,0.002678,0.000431,0.652281
12371000,0.0324,0.013523,0.002678,0.000431,0.634652
12372000,0.0324,0.013523,0.002678,0.000431,0.614555
12373000,0.0324,0.013523,0.002678,0.000431,0.658745
12374000,0.0324,0.013523,0.002678,0.000431,0.662741
12375000,0.0324,0.013523,0.002678,0.000431,0.675787
12376000,0.0324,0.013523,0.002678,0.000431,0.679313
12377000,0.0324,0.013523,0.002678,0.000431,0.689890
12378000,0.0324,0.013523,0.002678,0.000431,0.679195
12379000,0.0324,0.013523,0.002678,0.000431,0.677903
12380000,0.0324,0.013523,0.002678,0.000431,0.680723
12381000,0.0324,0.013523,0.002678,0.000431,0.639823
12382000,0.0324,0.013523,0.002678,0.000431,0.654397
12383000,0.0324,0.013523,0.002678,0.000431,0.670851
12384000,0.0324,0.013523,0.002678,0.000431,0.709048
12385000,0.0324,0.013523,0.002678,0.000431,0.657218
12386000,0.0324,0.013523,0.002678,0.000431,0.666385
12387000,0.0324,0.013523,0.002678,0.000431,0.616670
12388000,0.0324,0.013523,0.002678,0.000431,0.620314
12389000,0.0324,0.013523,0.002678,0.000431,0.621842
12390000,0.0324,0.013523,0.002678,0.000431,0.683309
12391000,0.0324,0.013523,0.002678,0.000431,0.660391
12392000,0.0324,0.013523,0.002678,0.000431,0.658040
12393000,0.0324,0.013523,0.002678,0.000431,0.704581
12394000,0.0324,0.013523,0.002678,0.000431,0.649696
12395000,0.0324,0.013523,0.002678,0.000431,0.629481
12396000,0.0324,0.013523,0.002678,0.000431,0.658981
12397000,0.0324,0.013523,0.002678,0.000431,0.621254
12398000,0.0324,0.013523,0.002678,0.000431,0.625838
12399000,0.0324,0.013523,0.002678,0.000431,0.669088
12400000,0.0324,0.013523,0.002678,0.000431,0.688480
12401000,0.0324,0.013523,0.002678,0.000431,0.665210
12402000,0.0324,0.013523,0.002678,0.000431,0.653692
12403000,0.0324,0.013523,0.002678,0.000431,0.650989
12404000,0.0324,0.013523,0.002678,0.000431,0.639941
12405000,0.0324,0.013523,0.002678,0.000431,0.654632
12406000,0.0324,0.013523,0.002678,0.000431,0.665680
12407000,0.0324,0.013523,0.002678,0.000431,0.693416
12408000,0.0324,0.013523,0.002678,0.000431,0.691536
12409000,0.0324,0.013523,0.002678,0.000431,0.651576
12410000,0.0324,0.013523,0.002678,0.000431,0.643232
12411000,0.0324,0.013523,0.002678,0.000431,0.641939
12412000,0.0324,0.013523,0.002678,0.000431,0.640176
12413000,0.0324,0.013523,0.002678,0.000431,0.610206
12414000,0.0324,0.013523,0.002678,0.000431,0.626543
12415000,0.0324,0.013523,0.002678,0.000431,0.619609
12416000,0.0324,0.013523,0.002678,0.000431,0.652281
12417000,0.0324,0.013523,0.002678,0.000431,0.667678
12418000,0.0324,0.013523,0.002678,0.000431,0.677550
12419000,0.0324,0.013523,0.002678,0.000431,0.662389
12420000,0.0324,0.013523,0.002678,0.000431,0.652987
12421000,0.0324,0.013523,0.002678,0.000431,0.665797
12422000,0.0324,0.013523,0.002678,0.000431,0.659333
12423000,0.0324,0.013523,0.002678,0.000431,0.630069
12424000,0.0324,0.013523,0.002678,0.000431,0.629716
12425000,0.0324,0.013523,0.002678,0.000431,0.606798
12426000,0.0324,0.013523,0.002678,0.000431,0.619491
12427000,0.0324,0.013523,0.002678,0.000431,0.668265
12428000,0.0324,0.013523,0.002678,0.000431,0.612087
12429000,0.0324,0.013523,0.002678,0.000431,0.624192
12430000,0.0324,0.013523,0.002678,0.000431,0.665445
12431000,0.0324,0.013523,0.002678,0.000431,0.691771
12432000,0.0324,0.013523,0.002678,0.000431,0.614907
12433000,0.0324,0.013523,0.002678,0.000431,0.632302
12434000,0.0324,0.013523,0.002678,0.000431,0.633594
12435000,0.0324,0.013523,0.002678,0.000431,0.582587
12436000,0.0324,0.013523,0.002678,0.000431,0.576946
12437000,0.0324,0.013523,0.002678,0.000431,0.554145
12438000,0.0324,0.013523,0.002678,0.000431,0.560609
12439000,0.0324,0.013523,0.002678,0.000431,0.600922
12440000,0.0324,0.013523,0.002678,0.000431,0.609619
12441000,0.0324,0.013523,0.002678,0.000431,0.569659
12442000,0.0324,0.013523,0.002678,0.000431,0.545801
12443000,0.0324,0.013523,0.002678,0.000431,0.547094
12444000,0.0324,0.013523,0.002678,0.000431,0.548504
12445000,0.0324,0.013523,0.002678,0.000431,0.576946
12446000,0.0324,0.013523,0.002678,0.000431,0.559082
12447000,0.0324,0.013523,0.002678,0.000431,0.596926
12448000,0.0324,0.013523,0.002678,0.000431,0.589991
12449000,0.0324,0.013523,0.002678,0.000431,0.552970
12450000,0.0324,0.013523,0.002678,0.000431,0.567191
12451000,0.0324,0.013523,0.002678,0.000431,0.575418
12452000,0.0324,0.013523,0.002678,0.000431,0.582000
12453000,0.0324,0.013523,0.002678,0.000431,0.588111
12454000,0.0324,0.013523,0.002678,0.000431,0.597866
12455000,0.0324,0.013523,0.002678,0.000431,0.547681
12456000,0.0324,0.013523,0.002678,0.000431,0.580472
12457000,0.0324,0.013523,0.002678,0.000431,0.580707
12458000,0.0324,0.013523,0.002678,0.000431,0.614437
12459000,0.0324,0.013523,0.002678,0.000431,0.599864
12460000,0.0324,0.013523,0.002678,0.000431,0.592812
12461000,0.0324,0.013523,0.002678,0.000431,0.600569
12462000,0.0324,0.013523,0.002678,0.000431,0.586936
12463000,0.0324,0.013523,0.002678,0.000431,0.584115
12464000,0.0324,0.013523,0.002678,0.000431,0.586701
12465000,0.0324,0.013523,0.002678,0.000431,0.578121
12466000,0.0324,0.013523,0.002678,0.000431,0.592695
12467000,0.0324,0.013523,0.002678,0.000431,0.585878
12468000,0.0324,0.013523,0.002678,0.000431,0.610911
12469000,0.0324,0.013523,0.002678,0.000431,0.553675
12470000,0.0324,0.013523,0.002678,0.000431,0.551795
12471000,0.0324,0.013523,0.002678,0.000431,0.621959
12472000,0.0324,0.013523,0.002678,0.000431,0.695062
12473000,0.0324,0.013523,0.002678,0.000431,0.648403
12474000,0.0324,0.013523,0.002678,0.000431,0.599629
12475000,0.0324,0.013523,0.002678,0.000431,0.626543
12476000,0.0324,0.013523,0.002678,0.000431,0.696002
12477000,0.0324,0.013523,0.002678,0.000431,0.725737
12478000,0.0324,0.013523,0.002678,0.000431,0.680136
12479000,0.0324,0.013523,0.002678,0.000431,0.666502
12480000,0.0324,0.013523,0.002678,0.000431,0.767342
12481000,0.0324,0.013523,0.002678,0.000431,0.795313
12482000,0.0324,0.013523,0.002678,0.000431,0.766519
12483000,0.0324,0.013523,0.002678,0.000431,0.788614
12484000,0.0324,0.013523,0.002678,0.000431,0.799074
12485000,0.0324,0.013523,0.002678,0.000431,0.780152
12486000,0.0324,0.013523,0.002678,0.000431,0.822462
12487000,0.0324,0.013523,0.002678,0.000431,0.798722
12488000,0.0324,0.013523,0.002678,0.000431,0.800837
12489000,0.0324,0.013523,0.002678,0.000431,0.768634
12490000,0.0324,0.013523,0.002678,0.000431,0.748655
12491000,0.0324,0.013523,0.002678,0.000431,0.754766
12492000,0.0324,0.013523,0.002678,0.000431,0.756881
12493000,0.0324,0.013523,0.002678,0.000431,0.753591
12494000,0.0324,0.013523,0.002678,0.000431,0.736314
12495000,0.0324,0.013523,0.002678,0.000431,0.700468
12496000,0.0324,0.013523,0.002678,0.000431,0.704111
12497000,0.0324,0.013523,0.002678,0.000431,0.685424
12498000,0.0324,0.013523,0.002678,0.000431,0.698352
12499000,0.0324,0.013523,0.002678,0.000431,0.761230
12500000,0.0324,0.013523,0.002678,0.000431,0.715982
12501000,0.0324,0.013523,0.002678,0.000431,0.705639
12502000,0.0324,0.013523,0.002678,0.000431,0.751593
12503000,0.0324,0.013523,0.002678,0.000431,0.725266
12504000,0.0324,0.013523,0.002678,0.000431,0.650754
12505000,0.0324,0.013523,0.002678,0.000431,0.683309
12506000,0.0324,0.013523,0.002678,0.000431,0.750770
12507000,0.0324,0.013523,0.002678,0.000431,0.709988
12508000,0.0324,0.013523,0.002678,0.000431,0.682839
12509000,0.0324,0.013523,0.002678,0.000431,0.686717
12510000,0.0324,0.013523,0.002678,0.000431,0.671439
12511000,0.0324,0.013523,0.002678,0.000431,0.670968
12512000,0.0324,0.013523,0.002678,0.000431,0.669205
12513000,0.0324,0.013523,0.002678,0.000431,0.658275
12514000,0.0324,0.013523,0.002678,0.000431,0.642997
12515000,0.0324,0.013523,0.002678,0.000431,0.679313
12516000,0.0324,0.013523,0.002678,0.000431,0.707990
12517000,0.0324,0.013523,0.002678,0.000431,0.705287
12518000,0.0324,0.013523,0.002678,0.000431,0.752886
12519000,0.0324,0.013523,0.002678,0.000431,0.745129
12520000,0.0324,0.013523,0.002678,0.000431,0.707402
12521000,0.0324,0.013523,0.002678,0.000431,0.710693
12522000,0.0324,0.013523,0.002678,0.000431,0.723739
12523000,0.0324,0.013523,0.002678,0.000431,0.711516
12524000,0.0324,0.013523,0.002678,0.000431,0.751005
12525000,0.0324,0.013523,0.002678,0.000431,0.765344
12526000,0.0324,0.013523,0.002678,0.000431,0.801542
12527000,0.0324,0.013523,0.002678,0.000431,0.824225
12528000,0.0324,0.013523,0.002678,0.000431,0.715864
12529000,0.0324,0.013523,0.002678,0.000431,0.697765
12530000,0.0324,0.013523,0.002678,0.000431,0.723739
12531000,0.0324,0.013523,0.002678,0.000431,0.683661
12532000,0.0324,0.013523,0.002678,0.000431,0.706814
12533000,0.0324,0.013523,0.002678,0.000431,0.747244
12534000,0.0324,0.013523,0.002678,0.000431,0.698117
12535000,0.0324,0.013523,0.002678,0.000431,0.658393
12536000,0.0324,0.013523,0.002678,0.000431,0.654867
12537000,0.0324,0.013523,0.002678,0.000431,0.645230
12538000,0.0324,0.013523,0.002678,0.000431,0.641234
12539000,0.0324,0.013523,0.002678,0.000431,0.624192
12540000,0.0324,0.013523,0.002678,0.000431,0.609031
12541000,0.0324,0.013523,0.002678,0.000431,0.597043
12542000,0.0324,0.013523,0.002678,0.000431,0.589639
12543000,0.0324,0.013523,0.002678,0.000431,0.555673
12544000,0.0324,0.013523,0.002678,0.000431,0.555086
12545000,0.0324,0.013523,0.002678,0.000431,0.568484
12546000,0.0324,0.013523,0.002678,0.000431,0.563078
12547000,0.0324,0.013523,0.002678,0.000431,0.539454
12548000,0.0324,0.013523,0.002678,0.000431,0.546859
12549000,0.0324,0.013523,0.002678,0.000431,0.517712
12550000,0.0324,0.013523,0.002678,0.000431,0.528877
12551000,0.0324,0.013523,0.002678,0.000431,0.520532
12552000,0.0324,0.013523,0.002678,0.000431,0.490445
12553000,0.0324,0.013523,0.002678,0.000431,0.496086
12554000,0.0324,0.013523,0.002678,0.000431,0.510190
12555000,0.0324,0.013523,0.002678,0.000431,0.503021
12556000,0.0324,0.013523,0.002678,0.000431,0.558141
12557000,0.0324,0.013523,0.002678,0.000431,0.556143
12558000,0.0324,0.013523,0.002678,0.000431,0.602097
12559000,0.0324,0.013523,0.002678,0.000431,0.588934
12560000,0.0324,0.013523,0.002678,0.000431,0.579179
12561000,0.0324,0.013523,0.002678,0.000431,0.595163
12562000,0.0324,0.013523,0.002678,0.000431,0.579531
12563000,0.0324,0.013523,0.002678,0.000431,0.571422
12564000,0.0324,0.013523,0.002678,0.000431,0.612557
12565000,0.0324,0.013523,0.002678,0.000431,0.623252
12566000,0.0324,0.013523,0.002678,0.000431,0.611969
12567000,0.0324,0.013523,0.002678,0.000431,0.589051
12568000,0.0324,0.013523,0.002678,0.000431,0.589404
12569000,0.0324,0.013523,0.002678,0.000431,0.601039
12570000,0.0324,0.013523,0.002678,0.000431,0.629598
12571000,0.0324,0.013523,0.002678,0.000431,0.590344
12572000,0.0324,0.013523,0.002678,0.000431,0.574948
12573000,0.0324,0.013523,0.002678,0.000431,0.622782
12574000,0.0324,0.013523,0.002678,0.000431,0.601274
12575000,0.0324,0.013523,0.002678,0.000431,0.609149
12576000,0.0324,0.013523,0.002678,0.000431,0.596456
12577000,0.0324,0.013523,0.002678,0.000431,0.635357
12578000,0.0324,0.013523,0.002678,0.000431,0.629716
12579000,0.0324,0.013523,0.002678,0.000431,0.632889
12580000,0.0324,0.013523,0.002678,0.000431,0.632302
12581000,0.0324,0.013523,0.002678,0.000431,0.631479
12582000,0.0324,0.013523,0.002678,0.000431,0.603507
12583000,0.0324,0.013523,0.002678,0.000431,0.614202
12584000,0.0324,0.013523,0.002678,0.000431,0.632184
12585000,0.0324,0.013523,0.002678,0.000431,0.596456
12586000,0.0324,0.013523,0.002678,0.000431,0.611382
12587000,0.0324,0.013523,0.002678,0.000431,0.608914
12588000,0.0324,0.013523,0.002678,0.000431,0.610794
12589000,0.0324,0.013523,0.002678,0.000431,0.598101
12590000,0.0324,0.013523,0.002678,0.000431,0.594105
12591000,0.0324,0.013523,0.002678,0.000431,0.595163
12592000,0.0324,0.013523,0.002678,0.000431,0.564488
12593000,0.0324,0.013523,0.002678,0.000431,0.565781
12594000,0.0324,0.013523,0.002678,0.000431,0.558494
12595000,0.0324,0.013523,0.002678,0.000431,0.519004
12596000,0.0324,0.013523,0.002678,0.000431,0.527466
12597000,0.0324,0.013523,0.002678,0.000431,0.516889
12598000,0.0324,0.013523,0.002678,0.000431,0.509132
12599000,0.0324,0.013523,0.002678,0.000431,0.490798
12600000,0.0324,0.013523,0.002678,0.000431,0.469290
12601000,0.0324,0.013523,0.002678,0.000431,0.492913
12602000,0.0324,0.013523,0.002678,0.000431,0.475637
12603000,0.0324,0.013523,0.002678,0.000431,0.454011
12604000,0.0324,0.013523,0.002678,0.000431,0.427803
12605000,0.0324,0.013523,0.002678,0.000431,0.425922
12606000,0.0324,0.013523,0.002678,0.000431,0.429095
12607000,0.0324,0.013523,0.002678,0.000431,0.421691
12608000,0.0324,0.013523,0.002678,0.000431,0.392427
12609000,0.0324,0.013523,0.002678,0.000431,0.382202
12610000,0.0324,0.013523,0.002678,0.000431,0.386550
12611000,0.0324,0.013523,0.002678,0.000431,0.372682
12612000,0.0324,0.013523,0.002678,0.000431,0.364807
12613000,0.0324,0.013523,0.002678,0.000431,0.382672
12614000,0.0324,0.013523,0.002678,0.000431,0.359049
12615000,0.0324,0.013523,0.002678,0.000431,0.356933
12616000,0.0324,0.013523,0.002678,0.000431,0.365160
12617000,0.0324,0.013523,0.002678,0.000431,0.353995
12618000,0.0324,0.013523,0.002678,0.000431,0.338246
12619000,0.0324,0.013523,0.002678,0.000431,0.327669
12620000,0.0324,0.013523,0.002678,0.000431,0.342007
12621000,0.0324,0.013523,0.002678,0.000431,0.362574
12622000,0.0324,0.013523,0.002678,0.000431,0.346356
12623000,0.0324,0.013523,0.002678,0.000431,0.404297
12624000,0.0324,0.013523,0.002678,0.000431,0.419105
12625000,0.0324,0.013523,0.002678,0.000431,0.385610
12626000,0.0324,0.013523,0.002678,0.000431,0.449780
12627000,0.0324,0.013523,0.002678,0.000431,0.422631
12628000,0.0324,0.013523,0.002678,0.000431,0.407000
12629000,0.0324,0.013523,0.002678,0.000431,0.409233
12630000,0.0324,0.013523,0.002678,0.000431,0.413699
12631000,0.0324,0.013523,0.002678,0.000431,0.426627
12632000,0.0324,0.013523,0.002678,0.000431,0.409116
12633000,0.0324,0.013523,0.002678,0.000431,0.388196
12634000,0.0324,0.013523,0.002678,0.000431,0.409351
12635000,0.0324,0.013523,0.002678,0.000431,0.394307
12636000,0.0324,0.013523,0.002678,0.000431,0.403004
12637000,0.0324,0.013523,0.002678,0.000431,0.401594
12638000,0.0324,0.013523,0.002678,0.000431,0.461768
12639000,0.0324,0.013523,0.002678,0.000431,0.481160
12640000,0.0324,0.013523,0.002678,0.000431,0.483393
12641000,0.0324,0.013523,0.002678,0.000431,0.489152
12642000,0.0324,0.013523,0.002678,0.000431,0.563195
12643000,0.0324,0.013523,0.002678,0.000431,0.617258
12644000,0.0324,0.013523,0.002678,0.000431,0.618903
12645000,0.0324,0.013523,0.002678,0.000431,0.642174
12646000,0.0324,0.013523,0.002678,0.000431,0.647698
12647000,0.0324,0.013523,0.002678,0.000431,0.664622
12648000,0.0324,0.013523,0.002678,0.000431,0.678373
12649000,0.0324,0.013523,0.002678,0.000431,0.649108
12650000,0.0324,0.013523,0.002678,0.000431,0.653809
12651000,0.0324,0.013523,0.002678,0.000431,0.628541
12652000,0.0324,0.013523,0.002678,0.000431,0.646405
12653000,0.0324,0.013523,0.002678,0.000431,0.643349
12654000,0.0324,0.013523,0.002678,0.000431,0.647698
12655000,0.0324,0.013523,0.002678,0.000431,0.670851
12656000,0.0324,0.013523,0.002678,0.000431,0.707755
12657000,0.0324,0.013523,0.002678,0.000431,0.711398
12658000,0.0324,0.013523,0.002678,0.000431,0.689068
12659000,0.0324,0.013523,0.002678,0.000431,0.711633
12660000,0.0324,0.013523,0.002678,0.000431,0.694944
12661000,0.0324,0.013523,0.002678,0.000431,0.730908
12662000,0.0324,0.013523,0.002678,0.000431,0.745599
12663000,0.0324,0.013523,0.002678,0.000431,0.758762
12664000,0.0324,0.013523,0.002678,0.000431,0.762640
12665000,0.0324,0.013523,0.002678,0.000431,0.764873
12666000,0.0324,0.013523,0.002678,0.000431,0.758174
12667000,0.0324,0.013523,0.002678,0.000431,0.788379
12668000,0.0324,0.013523,0.002678,0.000431,0.777684
12669000,0.0324,0.013523,0.002678,0.000431,0.795431
12670000,0.0324,0.013523,0.002678,0.000431,0.743131
12671000,0.0324,0.013523,0.002678,0.000431,0.770867
12672000,0.0324,0.013523,0.002678,0.000431,0.804128
12673000,0.0324,0.013523,0.002678,0.000431,0.781092
12674000,0.0324,0.013523,0.002678,0.000431,0.751005
12675000,0.0324,0.013523,0.002678,0.000431,0.762053
12676000,0.0324,0.013523,0.002678,0.000431,0.774511
12677000,0.0324,0.013523,0.002678,0.000431,0.756059
12678000,0.0324,0.013523,0.002678,0.000431,0.730438
12679000,0.0324,0.013523,0.002678,0.000431,0.730203
12680000,0.0324,0.013523,0.002678,0.000431,0.741603
12681000,0.0324,0.013523,0.002678,0.000431,0.750300
12682000,0.0324,0.013523,0.002678,0.000431,0.780152
12683000,0.0324,0.013523,0.002678,0.000431,0.788379
12684000,0.0324,0.013523,0.002678,0.000431,0.788262
12685000,0.0324,0.013523,0.002678,0.000431,0.723856
12686000,0.0324,0.013523,0.002678,0.000431,0.775686
12687000,0.0324,0.013523,0.002678,0.000431,0.725619
12688000,0.0324,0.013523,0.002678,0.000431,0.765696
12689000,0.0324,0.013523,0.002678,0.000431,0.720565
12690000,0.0324,0.013523,0.002678,0.000431,0.791082
12691000,0.0324,0.013523,0.002678,0.000431,0.768164
12692000,0.0324,0.013523,0.002678,0.000431,0.769810
12693000,0.0324,0.013523,0.002678,0.000431,0.799309
12694000,0.0324,0.013523,0.002678,0.000431,0.755824
12695000,0.0324,0.013523,0.002678,0.000431,0.755354
12696000,0.0324,0.013523,0.002678,0.000431,0.731025
12697000,0.0324,0.013523,0.002678,0.000431,0.753473
12698000,0.0324,0.013523,0.002678,0.000431,0.753121
12699000,0.0324,0.013523,0.002678,0.000431,0.751828
12700000,0.0324,0.013523,0.002678,0.000431,0.702113
12701000,0.0324,0.013523,0.002678,0.000431,0.721035
12702000,0.0324,0.013523,0.002678,0.000431,0.764403
12703000,0.0324,0.013523,0.002678,0.000431,0.731613
12704000,0.0324,0.013523,0.002678,0.000431,0.725854
12705000,0.0324,0.013523,0.002678,0.000431,0.722563
12706000,0.0324,0.013523,0.002678,0.000431,0.687305
12707000,0.0324,0.013523,0.002678,0.000431,0.712103
12708000,0.0324,0.013523,0.002678,0.000431,0.708930
12709000,0.0324,0.013523,0.002678,0.000431,0.685072
12710000,0.0324,0.013523,0.002678,0.000431,0.694239
12711000,0.0324,0.013523,0.002678,0.000431,0.682604
12712000,0.0324,0.013523,0.002678,0.000431,0.683074
12713000,0.0324,0.013523,0.002678,0.000431,0.674612
12714000,0.0324,0.013523,0.002678,0.000431,0.632419
12715000,0.0324,0.013523,0.002678,0.000431,0.639823
12716000,0.0324,0.013523,0.002678,0.000431,0.621254
12717000,0.0324,0.013523,0.002678,0.000431,0.630069
12718000,0.0324,0.013523,0.002678,0.000431,0.641116
12719000,0.0324,0.013523,0.002678,0.000431,0.640999
12720000,0.0324,0.013523,0.002678,0.000431,0.624427
12721000,0.0324,0.013523,0.002678,0.000431,0.596220
12722000,0.0324,0.013523,0.002678,0.000431,0.559787
12723000,0.0324,0.013523,0.002678,0.000431,0.551912
12724000,0.0324,0.013523,0.002678,0.000431,0.553205
12725000,0.0324,0.013523,0.002678,0.000431,0.545683
12726000,0.0324,0.013523,0.002678,0.000431,0.552147
12727000,0.0324,0.013523,0.002678,0.000431,0.550384
12728000,0.0324,0.013523,0.002678,0.000431,0.529464
12729000,0.0324,0.013523,0.002678,0.000431,0.554380
12730000,0.0324,0.013523,0.002678,0.000431,0.535458
12731000,0.0324,0.013523,0.002678,0.000431,0.566486
12732000,0.0324,0.013523,0.002678,0.000431,0.529582
12733000,0.0324,0.013523,0.002678,0.000431,0.522648
12734000,0.0324,0.013523,0.002678,0.000431,0.498319
12735000,0.0324,0.013523,0.002678,0.000431,0.484921
12736000,0.0324,0.013523,0.002678,0.000431,0.506429
12737000,0.0324,0.013523,0.002678,0.000431,0.569071
12738000,0.0324,0.013523,0.002678,0.000431,0.578239
12739000,0.0324,0.013523,0.002678,0.000431,0.534871
12740000,0.0324,0.013523,0.002678,0.000431,0.527466
12741000,0.0324,0.013523,0.002678,0.000431,0.557789
12742000,0.0324,0.013523,0.002678,0.000431,0.596220
12743000,0.0324,0.013523,0.002678,0.000431,0.690478
12744000,0.0324,0.013523,0.002678,0.000431,0.630186
12745000,0.0324,0.013523,0.002678,0.000431,0.625367
12746000,0.0324,0.013523,0.002678,0.000431,0.656865
12747000,0.0324,0.013523,0.002678,0.000431,0.666972
12748000,0.0324,0.013523,0.002678,0.000431,0.663094
12749000,0.0324,0.013523,0.002678,0.000431,0.714219
12750000,0.0324,0.013523,0.002678,0.000431,0.655690
12751000,0.0324,0.013523,0.002678,0.000431,0.648521
12752000,0.0324,0.013523,0.002678,0.000431,0.693181
12753000,0.0324,0.013523,0.002678,0.000431,0.645230
12754000,0.0324,0.013523,0.002678,0.000431,0.643937
12755000,0.0324,0.013523,0.002678,0.000431,0.637473
12756000,0.0324,0.013523,0.002678,0.000431,0.628423
12757000,0.0324,0.013523,0.002678,0.000431,0.614437
12758000,0.0324,0.013523,0.002678,0.000431,0.574830
12759000,0.0324,0.013523,0.002678,0.000431,0.567426
12760000,0.0324,0.013523,0.002678,0.000431,0.565311
12761000,0.0324,0.013523,0.002678,0.000431,0.550149
12762000,0.0324,0.013523,0.002678,0.000431,0.571540
12763000,0.0324,0.013523,0.002678,0.000431,0.591872
12764000,0.0324,0.013523,0.002678,0.000431,0.520885
12765000,0.0324,0.013523,0.002678,0.000431,0.516184
12766000,0.0324,0.013523,0.002678,0.000431,0.502551
12767000,0.0324,0.013523,0.002678,0.000431,0.530522
12768000,0.0324,0.013523,0.002678,0.000431,0.541217
12769000,0.0324,0.013523,0.002678,0.000431,0.494559
12770000,0.0324,0.013523,0.002678,0.000431,0.504666
12771000,0.0324,0.013523,0.002678,0.000431,0.548857
12772000,0.0324,0.013523,0.002678,0.000431,0.518182
12773000,0.0324,0.013523,0.002678,0.000431,0.492443
12774000,0.0324,0.013523,0.002678,0.000431,0.502786
12775000,0.0324,0.013523,0.002678,0.000431,0.528407
12776000,0.0324,0.013523,0.002678,0.000431,0.491033
12777000,0.0324,0.013523,0.002678,0.000431,0.507134
12778000,0.0324,0.013523,0.002678,0.000431,0.595633
12779000,0.0324,0.013523,0.002678,0.000431,0.638413
12780000,0.0324,0.013523,0.002678,0.000431,0.591989
12781000,0.0324,0.013523,0.002678,0.000431,0.626543
12782000,0.0324,0.013523,0.002678,0.000431,0.680488
12783000,0.0324,0.013523,0.002678,0.000431,0.672144
12784000,0.0324,0.013523,0.002678,0.000431,0.699998
12785000,0.0324,0.013523,0.002678,0.000431,0.743483
12786000,0.0324,0.013523,0.002678,0.000431,0.754531
12787000,0.0324,0.013523,0.002678,0.000431,0.805656
12788000,0.0324,0.013523,0.002678,0.000431,0.738547
12789000,0.0324,0.013523,0.002678,0.000431,0.819994
12790000,0.0324,0.013523,0.002678,0.000431,0.776979
12791000,0.0324,0.013523,0.002678,0.000431,0.779447
12792000,0.0324,0.013523,0.002678,0.000431,0.786028
12793000,0.0324,0.013523,0.002678,0.000431,0.829396
12794000,0.0324,0.013523,0.002678,0.000431,0.822697
12795000,0.0324,0.013523,0.002678,0.000431,0.883812
12796000,0.0324,0.013523,0.002678,0.000431,0.862422
12797000,0.0324,0.013523,0.002678,0.000431,0.802482
12798000,0.0324,0.013523,0.002678,0.000431,0.836448
12799000,0.0324,0.013523,0.002678,0.000431,0.835038
12800000,0.0324,0.013523,0.002678,0.000431,0.805773
12801000,0.0324,0.013523,0.002678,0.000431,0.824813
12802000,0.0324,0.013523,0.002678,0.000431,0.829514
12803000,0.0324,0.013523,0.002678,0.000431,0.859954
12804000,0.0324,0.013523,0.002678,0.000431,0.798369
12805000,0.0324,0.013523,0.002678,0.000431,0.837036
12806000,0.0324,0.013523,0.002678,0.000431,0.854547
12807000,0.0324,0.013523,0.002678,0.000431,0.822932
12808000,0.0324,0.013523,0.002678,0.000431,0.795196
12809000,0.0324,0.013523,0.002678,0.000431,0.814705
12810000,0.0324,0.013523,0.002678,0.000431,0.818231
12811000,0.0324,0.013523,0.002678,0.000431,0.788967
12812000,0.0324,0.013523,0.002678,0.000431,0.777566
12813000,0.0324,0.013523,0.002678,0.000431,0.761818
12814000,0.0324,0.013523,0.002678,0.000431,0.749712
12815000,0.0324,0.013523,0.002678,0.000431,0.761348
12816000,0.0324,0.013523,0.002678,0.000431,0.700938
12817000,0.0324,0.013523,0.002678,0.000431,0.688833
12818000,0.0324,0.013523,0.002678,0.000431,0.646287
12819000,0.0324,0.013523,0.002678,0.000431,0.672496
12820000,0.0324,0.013523,0.002678,0.000431,0.643349
12821000,0.0324,0.013523,0.002678,0.000431,0.621607
12822000,0.0324,0.013523,0.002678,0.000431,0.622312
12823000,0.0324,0.013523,0.002678,0.000431,0.599041
12824000,0.0324,0.013523,0.002678,0.000431,0.573538
12825000,0.0324,0.013523,0.002678,0.000431,0.548504
12826000,0.0324,0.013523,0.002678,0.000431,0.519122
12827000,0.0324,0.013523,0.002678,0.000431,0.499377
12828000,0.0324,0.013523,0.002678,0.000431,0.525469
12829000,0.0324,0.013523,0.002678,0.000431,0.499377
12830000,0.0324,0.013523,0.002678,0.000431,0.507134
12831000,0.0324,0.013523,0.002678,0.000431,0.531110
12832000,0.0324,0.013523,0.002678,0.000431,0.509015
12833000,0.0324,0.013523,0.002678,0.000431,0.540042
12834000,0.0324,0.013523,0.002678,0.000431,0.539924
12835000,0.0324,0.013523,0.002678,0.000431,0.550620
12836000,0.0324,0.013523,0.002678,0.000431,0.493031
12837000,0.0324,0.013523,0.002678,0.000431,0.510660
12838000,0.0324,0.013523,0.002678,0.000431,0.562137
12839000,0.0324,0.013523,0.002678,0.000431,0.526056
12840000,0.0324,0.013523,0.002678,0.000431,0.533931
12841000,0.0324,0.013523,0.002678,0.000431,0.547916
12842000,0.0324,0.013523,0.002678,0.000431,0.546153
12843000,0.0324,0.013523,0.002678,0.000431,0.549209
12844000,0.0324,0.013523,0.002678,0.000431,0.584703
12845000,0.0324,0.013523,0.002678,0.000431,0.587993
12846000,0.0324,0.013523,0.002678,0.000431,0.602567
12847000,0.0324,0.013523,0.002678,0.000431,0.580002
12848000,0.0324,0.013523,0.002678,0.000431,0.574243
12849000,0.0324,0.013523,0.002678,0.000431,0.615730
12850000,0.0324,0.013523,0.002678,0.000431,0.580589
12851000,0.0324,0.013523,0.002678,0.000431,0.615495
12852000,0.0324,0.013523,0.002678,0.000431,0.660508
12853000,0.0324,0.013523,0.002678,0.000431,0.662389
12854000,0.0324,0.013523,0.002678,0.000431,0.685542
12855000,0.0324,0.013523,0.002678,0.000431,0.715629
12856000,0.0324,0.013523,0.002678,0.000431,0.735491
12857000,0.0324,0.013523,0.002678,0.000431,0.756411
12858000,0.0324,0.013523,0.002678,0.000431,0.796959
12859000,0.0324,0.013523,0.002678,0.000431,0.791082
12860000,0.0324,0.013523,0.002678,0.000431,0.800602
12861000,0.0324,0.013523,0.002678,0.000431,0.834333
12862000,0.0324,0.013523,0.002678,0.000431,0.816586
12863000,0.0324,0.013523,0.002678,0.000431,0.841149
12864000,0.0324,0.013523,0.002678,0.000431,0.835978
12865000,0.0324,0.013523,0.002678,0.000431,0.821052
12866000,0.0324,0.013523,0.002678,0.000431,0.811180
12867000,0.0324,0.013523,0.002678,0.000431,0.809534
12868000,0.0324,0.013523,0.002678,0.000431,0.783443
12869000,0.0324,0.013523,0.002678,0.000431,0.756646
12870000,0.0324,0.013523,0.002678,0.000431,0.775686
12871000,0.0324,0.013523,0.002678,0.000431,0.753238
12872000,0.0324,0.013523,0.002678,0.000431,0.771573
12873000,0.0324,0.013523,0.002678,0.000431,0.801190
12874000,0.0324,0.013523,0.002678,0.000431,0.809769
12875000,0.0324,0.013523,0.002678,0.000431,0.760407
12876000,0.0324,0.013523,0.002678,0.000431,0.719272
12877000,0.0324,0.013523,0.002678,0.000431,0.708577
12878000,0.0324,0.013523,0.002678,0.000431,0.702936
12879000,0.0324,0.013523,0.002678,0.000431,0.733493
12880000,0.0324,0.013523,0.002678,0.000431,0.709988
12881000,0.0324,0.013523,0.002678,0.000431,0.698588
12882000,0.0324,0.013523,0.002678,0.000431,0.668148
12883000,0.0324,0.013523,0.002678,0.000431,0.697177
12884000,0.0324,0.013523,0.002678,0.000431,0.683191
12885000,0.0324,0.013523,0.002678,0.000431,0.651811
12886000,0.0324,0.013523,0.002678,0.000431,0.629481
12887000,0.0324,0.013523,0.002678,0.000431,0.609266
12888000,0.0324,0.013523,0.002678,0.000431,0.624545
12889000,0.0324,0.013523,0.002678,0.000431,0.609971
12890000,0.0324,0.013523,0.002678,0.000431,0.612909
12891000,0.0324,0.013523,0.002678,0.000431,0.614320
12892000,0.0324,0.013523,0.002678,0.000431,0.601039
12893000,0.0324,0.013523,0.002678,0.000431,0.632419
12894000,0.0324,0.013523,0.002678,0.000431,0.567426
12895000,0.0324,0.013523,0.002678,0.000431,0.564840
12896000,0.0324,0.013523,0.002678,0.000431,0.605505
12897000,0.0324,0.013523,0.002678,0.000431,0.551677
12898000,0.0324,0.013523,0.002678,0.000431,0.558376
12899000,0.0324,0.013523,0.002678,0.000431,0.572597
12900000,0.0324,0.013523,0.002678,0.000431,0.546506
12901000,0.0324,0.013523,0.002678,0.000431,0.558494
12902000,0.0324,0.013523,0.002678,0.000431,0.568836
12903000,0.0324,0.013523,0.002678,0.000431,0.526291
12904000,0.0324,0.013523,0.002678,0.000431,0.536281
12905000,0.0324,0.013523,0.002678,0.000431,0.541452
12906000,0.0324,0.013523,0.002678,0.000431,0.525586
12907000,0.0324,0.013523,0.002678,0.000431,0.518652
12908000,0.0324,0.013523,0.002678,0.000431,0.546036
12909000,0.0324,0.013523,0.002678,0.000431,0.534636
12910000,0.0324,0.013523,0.002678,0.000431,0.550620
12911000,0.0324,0.013523,0.002678,0.000431,0.566016
12912000,0.0324,0.013523,0.002678,0.000431,0.545801
12913000,0.0324,0.013523,0.002678,0.000431,0.523118
12914000,0.0324,0.013523,0.002678,0.000431,0.547681
12915000,0.0324,0.013523,0.002678,0.000431,0.513363
12916000,0.0324,0.013523,0.002678,0.000431,0.540865
12917000,0.0324,0.013523,0.002678,0.000431,0.548151
12918000,0.0324,0.013523,0.002678,0.000431,0.524058
12919000,0.0324,0.013523,0.002678,0.000431,0.533343
12920000,0.0324,0.013523,0.002678,0.000431,0.539689
12921000,0.0324,0.013523,0.002678,0.000431,0.511130
12922000,0.0324,0.013523,0.002678,0.000431,0.499965
12923000,0.0324,0.013523,0.002678,0.000431,0.483276
12924000,0.0324,0.013523,0.002678,0.000431,0.462356
12925000,0.0324,0.013523,0.002678,0.000431,0.448723
12926000,0.0324,0.013523,0.002678,0.000431,0.424864
12927000,0.0324,0.013523,0.002678,0.000431,0.408763
12928000,0.0324,0.013523,0.002678,0.000431,0.426862
12929000,0.0324,0.013523,0.002678,0.000431,0.443316
12930000,0.0324,0.013523,0.002678,0.000431,0.413229
12931000,0.0324,0.013523,0.002678,0.000431,0.406883
12932000,0.0324,0.013523,0.002678,0.000431,0.467762
12933000,0.0324,0.013523,0.002678,0.000431,0.509015
12934000,0.0324,0.013523,0.002678,0.000431,0.473756
12935000,0.0324,0.013523,0.002678,0.000431,0.476107
12936000,0.0324,0.013523,0.002678,0.000431,0.486449
12937000,0.0324,0.013523,0.002678,0.000431,0.511130
12938000,0.0324,0.013523,0.002678,0.000431,0.545566
12939000,0.0324,0.013523,0.002678,0.000431,0.565076
12940000,0.0324,0.013523,0.002678,0.000431,0.557554
12941000,0.0324,0.013523,0.002678,0.000431,0.533695
12942000,0.0324,0.013523,0.002678,0.000431,0.567544
12943000,0.0324,0.013523,0.002678,0.000431,0.581529
12944000,0.0324,0.013523,0.002678,0.000431,0.562372
12945000,0.0324,0.013523,0.002678,0.000431,0.551090
12946000,0.0324,0.013523,0.002678,0.000431,0.544743
12947000,0.0324,0.013523,0.002678,0.000431,0.545566
12948000,0.0324,0.013523,0.002678,0.000431,0.538044
12949000,0.0324,0.013523,0.002678,0.000431,0.523706
12950000,0.0324,0.013523,0.002678,0.000431,0.493266
12951000,0.0324,0.013523,0.002678,0.000431,0.548504
12952000,0.0324,0.013523,0.002678,0.000431,0.526526
12953000,0.0324,0.013523,0.002678,0.000431,0.475519
12954000,0.0324,0.013523,0.002678,0.000431,0.474579
12955000,0.0324,0.013523,0.002678,0.000431,0.508309
12956000,0.0324,0.013523,0.002678,0.000431,0.538162
12957000,0.0324,0.013523,0.002678,0.000431,0.494676
12958000,0.0324,0.013523,0.002678,0.000431,0.479633
12959000,0.0324,0.013523,0.002678,0.000431,0.486919
12960000,0.0324,0.013523,0.002678,0.000431,0.523118
12961000,0.0324,0.013523,0.002678,0.000431,0.519592
12962000,0.0324,0.013523,0.002678,0.000431,0.521120
12963000,0.0324,0.013523,0.002678,0.000431,0.516301
12964000,0.0324,0.013523,0.002678,0.000431,0.516536
12965000,0.0324,0.013523,0.002678,0.000431,0.510307
12966000,0.0324,0.013523,0.002678,0.000431,0.502668
12967000,0.0324,0.013523,0.002678,0.000431,0.509837
12968000,0.0324,0.013523,0.002678,0.000431,0.523823
12969000,0.0324,0.013523,0.002678,0.000431,0.504078
12970000,0.0324,0.013523,0.002678,0.000431,0.469525
12971000,0.0324,0.013523,0.002678,0.000431,0.487977
12972000,0.0324,0.013523,0.002678,0.000431,0.546859
12973000,0.0324,0.013523,0.002678,0.000431,0.539454
12974000,0.0324,0.013523,0.002678,0.000431,0.516184
12975000,0.0324,0.013523,0.002678,0.000431,0.506429
12976000,0.0324,0.013523,0.002678,0.000431,0.571069
12977000,0.0324,0.013523,0.002678,0.000431,0.629716
12978000,0.0324,0.013523,0.002678,0.000431,0.590579
12979000,0.0324,0.013523,0.002678,0.000431,0.585173
12980000,0.0324,0.013523,0.002678,0.000431,0.573538
12981000,0.0324,0.013523,0.002678,0.000431,0.638061
12982000,0.0324,0.013523,0.002678,0.000431,0.619256
12983000,0.0324,0.013523,0.002678,0.000431,0.612792
12984000,0.0324,0.013523,0.002678,0.000431,0.593635
12985000,0.0324,0.013523,0.002678,0.000431,0.589991
12986000,0.0324,0.013523,0.002678,0.000431,0.557789
12987000,0.0324,0.013523,0.002678,0.000431,0.595633
12988000,0.0324,0.013523,0.002678,0.000431,0.597043
12989000,0.0324,0.013523,0.002678,0.000431,0.551677
12990000,0.0324,0.013523,0.002678,0.000431,0.558729
12991000,0.0324,0.013523,0.002678,0.000431,0.552147
12992000,0.0324,0.013523,0.002678,0.000431,0.625485
12993000,0.0324,0.013523,0.002678,0.000431,0.642527
12994000,0.0324,0.013523,0.002678,0.000431,0.604682
12995000,0.0324,0.013523,0.002678,0.000431,0.561550
12996000,0.0324,0.013523,0.002678,0.000431,0.624545
12997000,0.0324,0.013523,0.002678,0.000431,0.639823
12998000,0.0324,0.013523,0.002678,0.000431,0.693299
12999000,0.0324,0.013523,0.002678,0.000431,0.674024
