Cycle,Area(mm^2),PeakDynamic(W),SubthresholdLeakage(W),GateLeakage(W),RunTimeDynamic(W)
15000000,0.0324,0.013523,0.002678,0.000431,0.020097
15001000,0.0324,0.013523,0.002678,0.000431,0.020097
15002000,0.0324,0.013523,0.002678,0.000431,0.018687
15003000,0.0324,0.013523,0.002678,0.000431,0.018922
15004000,0.0324,0.013523,0.002678,0.000431,0.018334
15005000,0.0324,0.013523,0.002678,0.000431,0.017864
15006000,0.0324,0.013523,0.002678,0.000431,0.018217
15007000,0.0324,0.013523,0.002678,0.000431,0.018099
15008000,0.0324,0.013523,0.002678,0.000431,0.017512
15009000,0.0324,0.013523,0.002678,0.000431,0.016924
15010000,0.0324,0.013523,0.002678,0.000431,0.015044
15011000,0.0324,0.013523,0.002678,0.000431,0.013868
15012000,0.0324,0.013523,0.002678,0.000431,0.014691
15013000,0.0324,0.013523,0.002678,0.000431,0.012928
15014000,0.0324,0.013523,0.002678,0.000431,0.013751
15015000,0.0324,0.013523,0.002678,0.000431,0.013633
15016000,0.0324,0.013523,0.002678,0.000431,0.011518
15017000,0.0324,0.013523,0.002678,0.000431,0.011870
15018000,0.0324,0.013523,0.002678,0.000431,0.012458
15019000,0.0324,0.013523,0.002678,0.000431,0.012105
15020000,0.0324,0.013523,0.002678,0.000431,0.011988
15021000,0.0324,0.013523,0.002678,0.000431,0.012105
15022000,0.0324,0.013523,0.002678,0.000431,0.011165
15023000,0.0324,0.013523,0.002678,0.000431,0.011988
15024000,0.0324,0.013523,0.002678,0.000431,0.011048
15025000,0.0324,0.013523,0.002678,0.000431,0.012223
15026000,0.0324,0.013523,0.002678,0.000431,0.012105
15027000,0.0324,0.013523,0.002678,0.000431,0.011988
15028000,0.0324,0.013523,0.002678,0.000431,0.011988
15029000,0.0324,0.013523,0.002678,0.000431,0.011048
15030000,0.0324,0.013523,0.002678,0.000431,0.012576
15031000,0.0324,0.013523,0.002678,0.000431,0.012458
15032000,0.0324,0.013523,0.002678,0.000431,0.011400
15033000,0.0324,0.013523,0.002678,0.000431,0.011518
15034000,0.0324,0.013523,0.002678,0.000431,0.011283
15035000,0.0324,0.013523,0.002678,0.000431,0.011283
15036000,0.0324,0.013523,0.002678,0.000431,0.011048
15037000,0.0324,0.013523,0.002678,0.000431,0.011048
15038000,0.0324,0.013523,0.002678,0.000431,0.010813
15039000,0.0324,0.013523,0.002678,0.000431,0.011518
15040000,0.0324,0.013523,0.002678,0.000431,0.011635
15041000,0.0324,0.013523,0.002678,0.000431,0.010342
15042000,0.0324,0.013523,0.002678,0.000431,0.007992
15043000,0.0324,0.013523,0.002678,0.000431,0.008227
15044000,0.0324,0.013523,0.002678,0.000431,0.007992
15045000,0.0324,0.013523,0.002678,0.000431,0.007992
15046000,0.0324,0.013523,0.002678,0.000431,0.008109
15047000,0.0324,0.013523,0.002678,0.000431,0.007522
15048000,0.0324,0.013523,0.002678,0.000431,0.007287
15049000,0.0324,0.013523,0.002678,0.000431,0.007287
15050000,0.0324,0.013523,0.002678,0.000431,0.006817
15051000,0.0324,0.013523,0.002678,0.000431,0.006934
15052000,0.0324,0.013523,0.002678,0.000431,0.006347
15053000,0.0324,0.013523,0.002678,0.000431,0.007404
15054000,0.0324,0.013523,0.002678,0.000431,0.006464
15055000,0.0324,0.013523,0.002678,0.000431,0.005759
15056000,0.0324,0.013523,0.002678,0.000431,0.005524
15057000,0.0324,0.013523,0.002678,0.000431,0.006817
15058000,0.0324,0.013523,0.002678,0.000431,0.006464
15059000,0.0324,0.013523,0.002678,0.000431,0.006934
15060000,0.0324,0.013523,0.002678,0.000431,0.005994
15061000,0.0324,0.013523,0.002678,0.000431,0.005876
15062000,0.0324,0.013523,0.002678,0.000431,0.006347
15063000,0.0324,0.013523,0.002678,0.000431,0.005876
15064000,0.0324,0.013523,0.002678,0.000431,0.006699
15065000,0.0324,0.013523,0.002678,0.000431,0.006111
15066000,0.0324,0.013523,0.002678,0.000431,0.006229
15067000,0.0324,0.013523,0.002678,0.000431,0.006934
15068000,0.0324,0.013523,0.002678,0.000431,0.006699
15069000,0.0324,0.013523,0.002678,0.000431,0.005994
15070000,0.0324,0.013523,0.002678,0.000431,0.005289
15071000,0.0324,0.013523,0.002678,0.000431,0.005054
15072000,0.0324,0.013523,0.002678,0.000431,0.004349
15073000,0.0324,0.013523,0.002678,0.000431,0.003878
15074000,0.0324,0.013523,0.002678,0.000431,0.003878
15075000,0.0324,0.013523,0.002678,0.000431,0.004231
15076000,0.0324,0.013523,0.002678,0.000431,0.004113
15077000,0.0324,0.013523,0.002678,0.000431,0.003996
15078000,0.0324,0.013523,0.002678,0.000431,0.003996
15079000,0.0324,0.013523,0.002678,0.000431,0.003761
15080000,0.0324,0.013523,0.002678,0.000431,0.004113
15081000,0.0324,0.013523,0.002678,0.000431,0.003996
15082000,0.0324,0.013523,0.002678,0.000431,0.003643
15083000,0.0324,0.013523,0.002678,0.000431,0.003408
15084000,0.0324,0.013523,0.002678,0.000431,0.003173
15085000,0.0324,0.013523,0.002678,0.000431,0.004231
15086000,0.0324,0.013523,0.002678,0.000431,0.004231
15087000,0.0324,0.013523,0.002678,0.000431,0.003643
15088000,0.0324,0.013523,0.002678,0.000431,0.004231
15089000,0.0324,0.013523,0.002678,0.000431,0.003526
15090000,0.0324,0.013523,0.002678,0.000431,0.004231
15091000,0.0324,0.013523,0.002678,0.000431,0.003878
15092000,0.0324,0.013523,0.002678,0.000431,0.003408
15093000,0.0324,0.013523,0.002678,0.000431,0.003761
15094000,0.0324,0.013523,0.002678,0.000431,0.003761
15095000,0.0324,0.013523,0.002678,0.000431,0.003526
15096000,0.0324,0.013523,0.002678,0.000431,0.003173
15097000,0.0324,0.013523,0.002678,0.000431,0.003526
15098000,0.0324,0.013523,0.002678,0.000431,0.004231
15099000,0.0324,0.013523,0.002678,0.000431,0.003996
15100000,0.0324,0.013523,0.002678,0.000431,0.003173
15101000,0.0324,0.013523,0.002678,0.000431,0.004113
15102000,0.0324,0.013523,0.002678,0.000431,0.004113
15103000,0.0324,0.013523,0.002678,0.000431,0.003526
15104000,0.0324,0.013523,0.002678,0.000431,0.004349
15105000,0.0324,0.013523,0.002678,0.000431,0.003173
15106000,0.0324,0.013523,0.002678,0.000431,0.003408
15107000,0.0324,0.013523,0.002678,0.000431,0.003643
15108000,0.0324,0.013523,0.002678,0.000431,0.004113
15109000,0.0324,0.013523,0.002678,0.000431,0.003996
15110000,0.0324,0.013523,0.002678,0.000431,0.003996
15111000,0.0324,0.013523,0.002678,0.000431,0.003291
15112000,0.0324,0.013523,0.002678,0.000431,0.003526
15113000,0.0324,0.013523,0.002678,0.000431,0.003291
15114000,0.0324,0.013523,0.002678,0.000431,0.004584
15115000,0.0324,0.013523,0.002678,0.000431,0.003643
15116000,0.0324,0.013523,0.002678,0.000431,0.004113
15117000,0.0324,0.013523,0.002678,0.000431,0.003526
15118000,0.0324,0.013523,0.002678,0.000431,0.003173
15119000,0.0324,0.013523,0.002678,0.000431,0.002938
15120000,0.0324,0.013523,0.002678,0.000431,0.003526
15121000,0.0324,0.013523,0.002678,0.000431,0.002586
15122000,0.0324,0.013523,0.002678,0.000431,0.003291
15123000,0.0324,0.013523,0.002678,0.000431,0.003173
15124000,0.0324,0.013523,0.002678,0.000431,0.003761
15125000,0.0324,0.013523,0.002678,0.000431,0.003056
15126000,0.0324,0.013523,0.002678,0.000431,0.002586
15127000,0.0324,0.013523,0.002678,0.000431,0.003056
15128000,0.0324,0.013523,0.002678,0.000431,0.003173
15129000,0.0324,0.013523,0.002678,0.000431,0.003291
15130000,0.0324,0.013523,0.002678,0.000431,0.002821
15131000,0.0324,0.013523,0.002678,0.000431,0.003291
15132000,0.0324,0.013523,0.002678,0.000431,0.003173
15133000,0.0324,0.013523,0.002678,0.000431,0.003526
15134000,0.0324,0.013523,0.002678,0.000431,0.002938
15135000,0.0324,0.013523,0.002678,0.000431,0.002821
15136000,0.0324,0.013523,0.002678,0.000431,0.003996
15137000,0.0324,0.013523,0.002678,0.000431,0.002586
15138000,0.0324,0.013523,0.002678,0.000431,0.003643
15139000,0.0324,0.013523,0.002678,0.000431,0.002703
15140000,0.0324,0.013523,0.002678,0.000431,0.002703
15141000,0.0324,0.013523,0.002678,0.000431,0.003173
15142000,0.0324,0.013523,0.002678,0.000431,0.002586
15143000,0.0324,0.013523,0.002678,0.000431,0.003173
15144000,0.0324,0.013523,0.002678,0.000431,0.002586
15145000,0.0324,0.013523,0.002678,0.000431,0.003173
15146000,0.0324,0.013523,0.002678,0.000431,0.002821
15147000,0.0324,0.013523,0.002678,0.000431,0.002938
15148000,0.0324,0.013523,0.002678,0.000431,0.003056
15149000,0.0324,0.013523,0.002678,0.000431,0.002586
15150000,0.0324,0.013523,0.002678,0.000431,0.003056
15151000,0.0324,0.013523,0.002678,0.000431,0.002821
15152000,0.0324,0.013523,0.002678,0.000431,0.002703
15153000,0.0324,0.013523,0.002678,0.000431,0.003173
15154000,0.0324,0.013523,0.002678,0.000431,0.002703
15155000,0.0324,0.013523,0.002678,0.000431,0.002938
15156000,0.0324,0.013523,0.002678,0.000431,0.002586
15157000,0.0324,0.013523,0.002678,0.000431,0.002703
15158000,0.0324,0.013523,0.002678,0.000431,0.003526
15159000,0.0324,0.013523,0.002678,0.000431,0.003643
15160000,0.0324,0.013523,0.002678,0.000431,0.003173
15161000,0.0324,0.013523,0.002678,0.000431,0.003173
15162000,0.0324,0.013523,0.002678,0.000431,0.002586
15163000,0.0324,0.013523,0.002678,0.000431,0.002468
15164000,0.0324,0.013523,0.002678,0.000431,0.002821
15165000,0.0324,0.013523,0.002678,0.000431,0.002938
15166000,0.0324,0.013523,0.002678,0.000431,0.002586
15167000,0.0324,0.013523,0.002678,0.000431,0.001998
15168000,0.0324,0.013523,0.002678,0.000431,0.002586
15169000,0.0324,0.013523,0.002678,0.000431,0.002233
15170000,0.0324,0.013523,0.002678,0.000431,0.002116
15171000,0.0324,0.013523,0.002678,0.000431,0.002468
15172000,0.0324,0.013523,0.002678,0.000431,0.001998
15173000,0.0324,0.013523,0.002678,0.000431,0.002233
15174000,0.0324,0.013523,0.002678,0.000431,0.002586
15175000,0.0324,0.013523,0.002678,0.000431,0.002233
15176000,0.0324,0.013523,0.002678,0.000431,0.003291
15177000,0.0324,0.013523,0.002678,0.000431,0.001880
15178000,0.0324,0.013523,0.002678,0.000431,0.002233
15179000,0.0324,0.013523,0.002678,0.000431,0.003173
15180000,0.0324,0.013523,0.002678,0.000431,0.002233
15181000,0.0324,0.013523,0.002678,0.000431,0.003526
15182000,0.0324,0.013523,0.002678,0.000431,0.002703
15183000,0.0324,0.013523,0.002678,0.000431,0.002586
15184000,0.0324,0.013523,0.002678,0.000431,0.002821
15185000,0.0324,0.013523,0.002678,0.000431,0.002703
15186000,0.0324,0.013523,0.002678,0.000431,0.002821
15187000,0.0324,0.013523,0.002678,0.000431,0.002821
15188000,0.0324,0.013523,0.002678,0.000431,0.002938
15189000,0.0324,0.013523,0.002678,0.000431,0.002351
15190000,0.0324,0.013523,0.002678,0.000431,0.002351
15191000,0.0324,0.013523,0.002678,0.000431,0.002468
15192000,0.0324,0.013523,0.002678,0.000431,0.002233
15193000,0.0324,0.013523,0.002678,0.000431,0.002116
15194000,0.0324,0.013523,0.002678,0.000431,0.002703
15195000,0.0324,0.013523,0.002678,0.000431,0.003173
15196000,0.0324,0.013523,0.002678,0.000431,0.002586
15197000,0.0324,0.013523,0.002678,0.000431,0.002821
15198000,0.0324,0.013523,0.002678,0.000431,0.001998
15199000,0.0324,0.013523,0.002678,0.000431,0.003173
15200000,0.0324,0.013523,0.002678,0.000431,0.002233
15201000,0.0324,0.013523,0.002678,0.000431,0.002233
15202000,0.0324,0.013523,0.002678,0.000431,0.002586
15203000,0.0324,0.013523,0.002678,0.000431,0.002586
15204000,0.0324,0.013523,0.002678,0.000431,0.003056
15205000,0.0324,0.013523,0.002678,0.000431,0.002703
15206000,0.0324,0.013523,0.002678,0.000431,0.002586
15207000,0.0324,0.013523,0.002678,0.000431,0.002938
15208000,0.0324,0.013523,0.002678,0.000431,0.002586
15209000,0.0324,0.013523,0.002678,0.000431,0.002468
15210000,0.0324,0.013523,0.002678,0.000431,0.002703
15211000,0.0324,0.013523,0.002678,0.000431,0.002586
15212000,0.0324,0.013523,0.002678,0.000431,0.003173
15213000,0.0324,0.013523,0.002678,0.000431,0.002703
15214000,0.0324,0.013523,0.002678,0.000431,0.002233
15215000,0.0324,0.013523,0.002678,0.000431,0.002703
15216000,0.0324,0.013523,0.002678,0.000431,0.002351
15217000,0.0324,0.013523,0.002678,0.000431,0.003056
15218000,0.0324,0.013523,0.002678,0.000431,0.002821
15219000,0.0324,0.013523,0.002678,0.000431,0.002468
15220000,0.0324,0.013523,0.002678,0.000431,0.002351
15221000,0.0324,0.013523,0.002678,0.000431,0.003173
15222000,0.0324,0.013523,0.002678,0.000431,0.002233
15223000,0.0324,0.013523,0.002678,0.000431,0.002233
15224000,0.0324,0.013523,0.002678,0.000431,0.003291
15225000,0.0324,0.013523,0.002678,0.000431,0.002821
15226000,0.0324,0.013523,0.002678,0.000431,0.002703
15227000,0.0324,0.013523,0.002678,0.000431,0.002351
15228000,0.0324,0.013523,0.002678,0.000431,0.002821
15229000,0.0324,0.013523,0.002678,0.000431,0.002233
15230000,0.0324,0.013523,0.002678,0.000431,0.002586
15231000,0.0324,0.013523,0.002678,0.000431,0.002938
15232000,0.0324,0.013523,0.002678,0.000431,0.002351
15233000,0.0324,0.013523,0.002678,0.000431,0.002703
15234000,0.0324,0.013523,0.002678,0.000431,0.002468
15235000,0.0324,0.013523,0.002678,0.000431,0.002703
15236000,0.0324,0.013523,0.002678,0.000431,0.003291
15237000,0.0324,0.013523,0.002678,0.000431,0.002703
15238000,0.0324,0.013523,0.002678,0.000431,0.002703
15239000,0.0324,0.013523,0.002678,0.000431,0.003526
15240000,0.0324,0.013523,0.002678,0.000431,0.002821
15241000,0.0324,0.013523,0.002678,0.000431,0.002351
15242000,0.0324,0.013523,0.002678,0.000431,0.003056
15243000,0.0324,0.013523,0.002678,0.000431,0.003056
15244000,0.0324,0.013523,0.002678,0.000431,0.002116
15245000,0.0324,0.013523,0.002678,0.000431,0.002586
15246000,0.0324,0.013523,0.002678,0.000431,0.002468
15247000,0.0324,0.013523,0.002678,0.000431,0.002821
15248000,0.0324,0.013523,0.002678,0.000431,0.002468
15249000,0.0324,0.013523,0.002678,0.000431,0.002468
15250000,0.0324,0.013523,0.002678,0.000431,0.003291
15251000,0.0324,0.013523,0.002678,0.000431,0.002586
15252000,0.0324,0.013523,0.002678,0.000431,0.002703
15253000,0.0324,0.013523,0.002678,0.000431,0.003056
15254000,0.0324,0.013523,0.002678,0.000431,0.002938
15255000,0.0324,0.013523,0.002678,0.000431,0.002351
15256000,0.0324,0.013523,0.002678,0.000431,0.002938
15257000,0.0324,0.013523,0.002678,0.000431,0.003056
15258000,0.0324,0.013523,0.002678,0.000431,0.002938
15259000,0.0324,0.013523,0.002678,0.000431,0.003056
15260000,0.0324,0.013523,0.002678,0.000431,0.001998
15261000,0.0324,0.013523,0.002678,0.000431,0.003173
15262000,0.0324,0.013523,0.002678,0.000431,0.003643
15263000,0.0324,0.013523,0.002678,0.000431,0.003291
15264000,0.0324,0.013523,0.002678,0.000431,0.003526
15265000,0.0324,0.013523,0.002678,0.000431,0.002468
15266000,0.0324,0.013523,0.002678,0.000431,0.003643
15267000,0.0324,0.013523,0.002678,0.000431,0.002821
15268000,0.0324,0.013523,0.002678,0.000431,0.003761
15269000,0.0324,0.013523,0.002678,0.000431,0.003408
15270000,0.0324,0.013523,0.002678,0.000431,0.003643
15271000,0.0324,0.013523,0.002678,0.000431,0.003996
15272000,0.0324,0.013523,0.002678,0.000431,0.003291
15273000,0.0324,0.013523,0.002678,0.000431,0.003643
15274000,0.0324,0.013523,0.002678,0.000431,0.004113
15275000,0.0324,0.013523,0.002678,0.000431,0.004349
15276000,0.0324,0.013523,0.002678,0.000431,0.004231
15277000,0.0324,0.013523,0.002678,0.000431,0.003761
15278000,0.0324,0.013523,0.002678,0.000431,0.003408
15279000,0.0324,0.013523,0.002678,0.000431,0.001763
15280000,0.0324,0.013523,0.002678,0.000431,0.002938
15281000,0.0324,0.013523,0.002678,0.000431,0.003291
15282000,0.0324,0.013523,0.002678,0.000431,0.003173
15283000,0.0324,0.013523,0.002678,0.000431,0.003291
15284000,0.0324,0.013523,0.002678,0.000431,0.001763
15285000,0.0324,0.013523,0.002678,0.000431,0.001410
15286000,0.0324,0.013523,0.002678,0.000431,0.001998
15287000,0.0324,0.013523,0.002678,0.000431,0.001058
15288000,0.0324,0.013523,0.002678,0.000431,0.001880
15289000,0.0324,0.013523,0.002678,0.000431,0.001175
15290000,0.0324,0.013523,0.002678,0.000431,0.001528
15291000,0.0324,0.013523,0.002678,0.000431,0.001410
15292000,0.0324,0.013523,0.002678,0.000431,0.001058
15293000,0.0324,0.013523,0.002678,0.000431,0.001880
15294000,0.0324,0.013523,0.002678,0.000431,0.001175
15295000,0.0324,0.013523,0.002678,0.000431,0.001293
15296000,0.0324,0.013523,0.002678,0.000431,0.000940
15297000,0.0324,0.013523,0.002678,0.000431,0.001058
15298000,0.0324,0.013523,0.002678,0.000431,0.001175
15299000,0.0324,0.013523,0.002678,0.000431,0.001175
15300000,0.0324,0.013523,0.002678,0.000431,0.001880
15301000,0.0324,0.013523,0.002678,0.000431,0.001410
15302000,0.0324,0.013523,0.002678,0.000431,0.001528
15303000,0.0324,0.013523,0.002678,0.000431,0.001763
15304000,0.0324,0.013523,0.002678,0.000431,0.001880
15305000,0.0324,0.013523,0.002678,0.000431,0.001293
15306000,0.0324,0.013523,0.002678,0.000431,0.001645
15307000,0.0324,0.013523,0.002678,0.000431,0.001175
15308000,0.0324,0.013523,0.002678,0.000431,0.001528
15309000,0.0324,0.013523,0.002678,0.000431,0.001763
15310000,0.0324,0.013523,0.002678,0.000431,0.001293
15311000,0.0324,0.013523,0.002678,0.000431,0.001293
15312000,0.0324,0.013523,0.002678,0.000431,0.001763
15313000,0.0324,0.013523,0.002678,0.000431,0.001058
15314000,0.0324,0.013523,0.002678,0.000431,0.001058
15315000,0.0324,0.013523,0.002678,0.000431,0.001293
15316000,0.0324,0.013523,0.002678,0.000431,0.001293
15317000,0.0324,0.013523,0.002678,0.000431,0.001763
15318000,0.0324,0.013523,0.002678,0.000431,0.001058
15319000,0.0324,0.013523,0.002678,0.000431,0.001293
15320000,0.0324,0.013523,0.002678,0.000431,0.001763
15321000,0.0324,0.013523,0.002678,0.000431,0.001645
15322000,0.0324,0.013523,0.002678,0.000431,0.001645
15323000,0.0324,0.013523,0.002678,0.000431,0.001410
15324000,0.0324,0.013523,0.002678,0.000431,0.001410
15325000,0.0324,0.013523,0.002678,0.000431,0.001645
15326000,0.0324,0.013523,0.002678,0.000431,0.001763
15327000,0.0324,0.013523,0.002678,0.000431,0.001293
15328000,0.0324,0.013523,0.002678,0.000431,0.001175
15329000,0.0324,0.013523,0.002678,0.000431,0.001880
15330000,0.0324,0.013523,0.002678,0.000431,0.001175
15331000,0.0324,0.013523,0.002678,0.000431,0.001645
15332000,0.0324,0.013523,0.002678,0.000431,0.001293
15333000,0.0324,0.013523,0.002678,0.000431,0.001763
15334000,0.0324,0.013523,0.002678,0.000431,0.001410
15335000,0.0324,0.013523,0.002678,0.000431,0.001880
15336000,0.0324,0.013523,0.002678,0.000431,0.001058
15337000,0.0324,0.013523,0.002678,0.000431,0.001175
15338000,0.0324,0.013523,0.002678,0.000431,0.001058
15339000,0.0324,0.013523,0.002678,0.000431,0.001645
15340000,0.0324,0.013523,0.002678,0.000431,0.001880
15341000,0.0324,0.013523,0.002678,0.000431,0.001645
15342000,0.0324,0.013523,0.002678,0.000431,0.001645
15343000,0.0324,0.013523,0.002678,0.000431,0.001293
15344000,0.0324,0.013523,0.002678,0.000431,0.001175
15345000,0.0324,0.013523,0.002678,0.000431,0.001763
15346000,0.0324,0.013523,0.002678,0.000431,0.001058
15347000,0.0324,0.013523,0.002678,0.000431,0.001528
15348000,0.0324,0.013523,0.002678,0.000431,0.001528
15349000,0.0324,0.013523,0.002678,0.000431,0.001058
15350000,0.0324,0.013523,0.002678,0.000431,0.001293
15351000,0.0324,0.013523,0.002678,0.000431,0.001528
15352000,0.0324,0.013523,0.002678,0.000431,0.001528
15353000,0.0324,0.013523,0.002678,0.000431,0.001763
15354000,0.0324,0.013523,0.002678,0.000431,0.001645
15355000,0.0324,0.013523,0.002678,0.000431,0.001410
15356000,0.0324,0.013523,0.002678,0.000431,0.001763
15357000,0.0324,0.013523,0.002678,0.000431,0.001058
15358000,0.0324,0.013523,0.002678,0.000431,0.001175
15359000,0.0324,0.013523,0.002678,0.000431,0.001175
15360000,0.0324,0.013523,0.002678,0.000431,0.001175
15361000,0.0324,0.013523,0.002678,0.000431,0.001645
15362000,0.0324,0.013523,0.002678,0.000431,0.001645
15363000,0.0324,0.013523,0.002678,0.000431,0.001763
15364000,0.0324,0.013523,0.002678,0.000431,0.001175
15365000,0.0324,0.013523,0.002678,0.000431,0.001058
15366000,0.0324,0.013523,0.002678,0.000431,0.001880
15367000,0.0324,0.013523,0.002678,0.000431,0.001645
15368000,0.0324,0.013523,0.002678,0.000431,0.001410
15369000,0.0324,0.013523,0.002678,0.000431,0.001880
15370000,0.0324,0.013523,0.002678,0.000431,0.001410
15371000,0.0324,0.013523,0.002678,0.000431,0.001645
15372000,0.0324,0.013523,0.002678,0.000431,0.001880
15373000,0.0324,0.013523,0.002678,0.000431,0.002116
15374000,0.0324,0.013523,0.002678,0.000431,0.001645
15375000,0.0324,0.013523,0.002678,0.000431,0.001645
15376000,0.0324,0.013523,0.002678,0.000431,0.001175
15377000,0.0324,0.013523,0.002678,0.000431,0.001058
15378000,0.0324,0.013523,0.002678,0.000431,0.001293
15379000,0.0324,0.013523,0.002678,0.000431,0.001645
15380000,0.0324,0.013523,0.002678,0.000431,0.001175
15381000,0.0324,0.013523,0.002678,0.000431,0.001175
15382000,0.0324,0.013523,0.002678,0.000431,0.001175
15383000,0.0324,0.013523,0.002678,0.000431,0.001998
15384000,0.0324,0.013523,0.002678,0.000431,0.001528
15385000,0.0324,0.013523,0.002678,0.000431,0.001880
15386000,0.0324,0.013523,0.002678,0.000431,0.001175
15387000,0.0324,0.013523,0.002678,0.000431,0.001645
15388000,0.0324,0.013523,0.002678,0.000431,0.001293
15389000,0.0324,0.013523,0.002678,0.000431,0.001763
15390000,0.0324,0.013523,0.002678,0.000431,0.001175
15391000,0.0324,0.013523,0.002678,0.000431,0.001410
15392000,0.0324,0.013523,0.002678,0.000431,0.001528
15393000,0.0324,0.013523,0.002678,0.000431,0.001175
15394000,0.0324,0.013523,0.002678,0.000431,0.001175
15395000,0.0324,0.013523,0.002678,0.000431,0.001528
15396000,0.0324,0.013523,0.002678,0.000431,0.001410
15397000,0.0324,0.013523,0.002678,0.000431,0.001880
15398000,0.0324,0.013523,0.002678,0.000431,0.001645
15399000,0.0324,0.013523,0.002678,0.000431,0.001058
15400000,0.0324,0.013523,0.002678,0.000431,0.001293
15401000,0.0324,0.013523,0.002678,0.000431,0.001645
15402000,0.0324,0.013523,0.002678,0.000431,0.001880
15403000,0.0324,0.013523,0.002678,0.000431,0.001175
15404000,0.0324,0.013523,0.002678,0.000431,0.001058
15405000,0.0324,0.013523,0.002678,0.000431,0.001175
15406000,0.0324,0.013523,0.002678,0.000431,0.001058
15407000,0.0324,0.013523,0.002678,0.000431,0.001175
15408000,0.0324,0.013523,0.002678,0.000431,0.001293
15409000,0.0324,0.013523,0.002678,0.000431,0.001763
15410000,0.0324,0.013523,0.002678,0.000431,0.001175
15411000,0.0324,0.013523,0.002678,0.000431,0.001763
15412000,0.0324,0.013523,0.002678,0.000431,0.001763
15413000,0.0324,0.013523,0.002678,0.000431,0.001763
15414000,0.0324,0.013523,0.002678,0.000431,0.001645
15415000,0.0324,0.013523,0.002678,0.000431,0.001410
15416000,0.0324,0.013523,0.002678,0.000431,0.001880
15417000,0.0324,0.013523,0.002678,0.000431,0.001763
15418000,0.0324,0.013523,0.002678,0.000431,0.001410
15419000,0.0324,0.013523,0.002678,0.000431,0.001763
15420000,0.0324,0.013523,0.002678,0.000431,0.000940
15421000,0.0324,0.013523,0.002678,0.000431,0.001058
15422000,0.0324,0.013523,0.002678,0.000431,0.001058
15423000,0.0324,0.013523,0.002678,0.000431,0.001293
15424000,0.0324,0.013523,0.002678,0.000431,0.001645
15425000,0.0324,0.013523,0.002678,0.000431,0.001293
15426000,0.0324,0.013523,0.002678,0.000431,0.001058
15427000,0.0324,0.013523,0.002678,0.000431,0.001880
15428000,0.0324,0.013523,0.002678,0.000431,0.001175
15429000,0.0324,0.013523,0.002678,0.000431,0.001058
15430000,0.0324,0.013523,0.002678,0.000431,0.001293
15431000,0.0324,0.013523,0.002678,0.000431,0.001175
15432000,0.0324,0.013523,0.002678,0.000431,0.001880
15433000,0.0324,0.013523,0.002678,0.000431,0.001645
15434000,0.0324,0.013523,0.002678,0.000431,0.001880
15435000,0.0324,0.013523,0.002678,0.000431,0.001645
15436000,0.0324,0.013523,0.002678,0.000431,0.001175
15437000,0.0324,0.013523,0.002678,0.000431,0.001998
15438000,0.0324,0.013523,0.002678,0.000431,0.001058
15439000,0.0324,0.013523,0.002678,0.000431,0.001410
15440000,0.0324,0.013523,0.002678,0.000431,0.001645
15441000,0.0324,0.013523,0.002678,0.000431,0.001293
15442000,0.0324,0.013523,0.002678,0.000431,0.001528
15443000,0.0324,0.013523,0.002678,0.000431,0.001645
15444000,0.0324,0.013523,0.002678,0.000431,0.001293
15445000,0.0324,0.013523,0.002678,0.000431,0.000940
15446000,0.0324,0.013523,0.002678,0.000431,0.001293
15447000,0.0324,0.013523,0.002678,0.000431,0.001763
15448000,0.0324,0.013523,0.002678,0.000431,0.001293
15449000,0.0324,0.013523,0.002678,0.000431,0.001763
15450000,0.0324,0.013523,0.002678,0.000431,0.001763
15451000,0.0324,0.013523,0.002678,0.000431,0.001998
15452000,0.0324,0.013523,0.002678,0.000431,0.001058
15453000,0.0324,0.013523,0.002678,0.000431,0.001880
15454000,0.0324,0.013523,0.002678,0.000431,0.001175
15455000,0.0324,0.013523,0.002678,0.000431,0.001645
15456000,0.0324,0.013523,0.002678,0.000431,0.001763
15457000,0.0324,0.013523,0.002678,0.000431,0.001763
15458000,0.0324,0.013523,0.002678,0.000431,0.001528
15459000,0.0324,0.013523,0.002678,0.000431,0.001998
15460000,0.0324,0.013523,0.002678,0.000431,0.001058
15461000,0.0324,0.013523,0.002678,0.000431,0.001293
15462000,0.0324,0.013523,0.002678,0.000431,0.001175
15463000,0.0324,0.013523,0.002678,0.000431,0.001645
15464000,0.0324,0.013523,0.002678,0.000431,0.001880
15465000,0.0324,0.013523,0.002678,0.000431,0.001763
15466000,0.0324,0.013523,0.002678,0.000431,0.001175
15467000,0.0324,0.013523,0.002678,0.000431,0.001058
15468000,0.0324,0.013523,0.002678,0.000431,0.001293
15469000,0.0324,0.013523,0.002678,0.000431,0.001763
15470000,0.0324,0.013523,0.002678,0.000431,0.000940
15471000,0.0324,0.013523,0.002678,0.000431,0.001293
15472000,0.0324,0.013523,0.002678,0.000431,0.001058
15473000,0.0324,0.013523,0.002678,0.000431,0.001175
15474000,0.0324,0.013523,0.002678,0.000431,0.000940
15475000,0.0324,0.013523,0.002678,0.000431,0.001763
15476000,0.0324,0.013523,0.002678,0.000431,0.001880
15477000,0.0324,0.013523,0.002678,0.000431,0.001880
15478000,0.0324,0.013523,0.002678,0.000431,0.001763
15479000,0.0324,0.013523,0.002678,0.000431,0.001528
15480000,0.0324,0.013523,0.002678,0.000431,0.001998
15481000,0.0324,0.013523,0.002678,0.000431,0.001645
15482000,0.0324,0.013523,0.002678,0.000431,0.001998
15483000,0.0324,0.013523,0.002678,0.000431,0.001410
15484000,0.0324,0.013523,0.002678,0.000431,0.001645
15485000,0.0324,0.013523,0.002678,0.000431,0.001293
15486000,0.0324,0.013523,0.002678,0.000431,0.001410
15487000,0.0324,0.013523,0.002678,0.000431,0.001763
15488000,0.0324,0.013523,0.002678,0.000431,0.001763
15489000,0.0324,0.013523,0.002678,0.000431,0.001293
15490000,0.0324,0.013523,0.002678,0.000431,0.001763
15491000,0.0324,0.013523,0.002678,0.000431,0.001528
15492000,0.0324,0.013523,0.002678,0.000431,0.002233
15493000,0.0324,0.013523,0.002678,0.000431,0.002116
15494000,0.0324,0.013523,0.002678,0.000431,0.001528
15495000,0.0324,0.013523,0.002678,0.000431,0.001293
15496000,0.0324,0.013523,0.002678,0.000431,0.002233
15497000,0.0324,0.013523,0.002678,0.000431,0.001528
15498000,0.0324,0.013523,0.002678,0.000431,0.001175
15499000,0.0324,0.013523,0.002678,0.000431,0.001998
15500000,0.0324,0.013523,0.002678,0.000431,0.002116
15501000,0.0324,0.013523,0.002678,0.000431,0.001998
15502000,0.0324,0.013523,0.002678,0.000431,0.001880
15503000,0.0324,0.013523,0.002678,0.000431,0.001645
15504000,0.0324,0.013523,0.002678,0.000431,0.001410
15505000,0.0324,0.013523,0.002678,0.000431,0.001175
15506000,0.0324,0.013523,0.002678,0.000431,0.001880
15507000,0.0324,0.013523,0.002678,0.000431,0.001645
15508000,0.0324,0.013523,0.002678,0.000431,0.001880
15509000,0.0324,0.013523,0.002678,0.000431,0.001880
15510000,0.0324,0.013523,0.002678,0.000431,0.001880
15511000,0.0324,0.013523,0.002678,0.000431,0.001293
15512000,0.0324,0.013523,0.002678,0.000431,0.001763
15513000,0.0324,0.013523,0.002678,0.000431,0.002468
15514000,0.0324,0.013523,0.002678,0.000431,0.001880
15515000,0.0324,0.013523,0.002678,0.000431,0.001058
15516000,0.0324,0.013523,0.002678,0.000431,0.001998
15517000,0.0324,0.013523,0.002678,0.000431,0.001763
15518000,0.0324,0.013523,0.002678,0.000431,0.001175
15519000,0.0324,0.013523,0.002678,0.000431,0.001998
15520000,0.0324,0.013523,0.002678,0.000431,0.001058
15521000,0.0324,0.013523,0.002678,0.000431,0.001293
15522000,0.0324,0.013523,0.002678,0.000431,0.001763
15523000,0.0324,0.013523,0.002678,0.000431,0.001880
15524000,0.0324,0.013523,0.002678,0.000431,0.001175
15525000,0.0324,0.013523,0.002678,0.000431,0.002116
15526000,0.0324,0.013523,0.002678,0.000431,0.001645
15527000,0.0324,0.013523,0.002678,0.000431,0.001880
15528000,0.0324,0.013523,0.002678,0.000431,0.001763
15529000,0.0324,0.013523,0.002678,0.000431,0.001293
15530000,0.0324,0.013523,0.002678,0.000431,0.001175
15531000,0.0324,0.013523,0.002678,0.000431,0.001880
15532000,0.0324,0.013523,0.002678,0.000431,0.001763
15533000,0.0324,0.013523,0.002678,0.000431,0.002351
15534000,0.0324,0.013523,0.002678,0.000431,0.001880
15535000,0.0324,0.013523,0.002678,0.000431,0.001645
15536000,0.0324,0.013523,0.002678,0.000431,0.001528
15537000,0.0324,0.013523,0.002678,0.000431,0.001410
15538000,0.0324,0.013523,0.002678,0.000431,0.002351
15539000,0.0324,0.013523,0.002678,0.000431,0.001293
15540000,0.0324,0.013523,0.002678,0.000431,0.001293
15541000,0.0324,0.013523,0.002678,0.000431,0.001645
15542000,0.0324,0.013523,0.002678,0.000431,0.001175
15543000,0.0324,0.013523,0.002678,0.000431,0.001528
15544000,0.0324,0.013523,0.002678,0.000431,0.001645
15545000,0.0324,0.013523,0.002678,0.000431,0.001293
15546000,0.0324,0.013523,0.002678,0.000431,0.001645
15547000,0.0324,0.013523,0.002678,0.000431,0.001880
15548000,0.0324,0.013523,0.002678,0.000431,0.001998
15549000,0.0324,0.013523,0.002678,0.000431,0.001058
15550000,0.0324,0.013523,0.002678,0.000431,0.001058
15551000,0.0324,0.013523,0.002678,0.000431,0.001645
15552000,0.0324,0.013523,0.002678,0.000431,0.001880
15553000,0.0324,0.013523,0.002678,0.000431,0.001528
15554000,0.0324,0.013523,0.002678,0.000431,0.001880
15555000,0.0324,0.013523,0.002678,0.000431,0.001763
15556000,0.0324,0.013523,0.002678,0.000431,0.001880
15557000,0.0324,0.013523,0.002678,0.000431,0.001880
15558000,0.0324,0.013523,0.002678,0.000431,0.002468
15559000,0.0324,0.013523,0.002678,0.000431,0.001880
15560000,0.0324,0.013523,0.002678,0.000431,0.001645
15561000,0.0324,0.013523,0.002678,0.000431,0.001763
15562000,0.0324,0.013523,0.002678,0.000431,0.002116
15563000,0.0324,0.013523,0.002678,0.000431,0.001293
15564000,0.0324,0.013523,0.002678,0.000431,0.001763
15565000,0.0324,0.013523,0.002678,0.000431,0.001058
15566000,0.0324,0.013523,0.002678,0.000431,0.001410
15567000,0.0324,0.013523,0.002678,0.000431,0.001645
15568000,0.0324,0.013523,0.002678,0.000431,0.001528
15569000,0.0324,0.013523,0.002678,0.000431,0.001645
15570000,0.0324,0.013523,0.002678,0.000431,0.001293
15571000,0.0324,0.013523,0.002678,0.000431,0.001880
15572000,0.0324,0.013523,0.002678,0.000431,0.001763
15573000,0.0324,0.013523,0.002678,0.000431,0.001763
15574000,0.0324,0.013523,0.002678,0.000431,0.001175
15575000,0.0324,0.013523,0.002678,0.000431,0.001410
15576000,0.0324,0.013523,0.002678,0.000431,0.001763
15577000,0.0324,0.013523,0.002678,0.000431,0.001880
15578000,0.0324,0.013523,0.002678,0.000431,0.001763
15579000,0.0324,0.013523,0.002678,0.000431,0.001410
15580000,0.0324,0.013523,0.002678,0.000431,0.001528
15581000,0.0324,0.013523,0.002678,0.000431,0.001998
15582000,0.0324,0.013523,0.002678,0.000431,0.001645
15583000,0.0324,0.013523,0.002678,0.000431,0.001410
15584000,0.0324,0.013523,0.002678,0.000431,0.001763
15585000,0.0324,0.013523,0.002678,0.000431,0.001175
15586000,0.0324,0.013523,0.002678,0.000431,0.001998
15587000,0.0324,0.013523,0.002678,0.000431,0.001645
15588000,0.0324,0.013523,0.002678,0.000431,0.001998
15589000,0.0324,0.013523,0.002678,0.000431,0.002468
15590000,0.0324,0.013523,0.002678,0.000431,0.001880
15591000,0.0324,0.013523,0.002678,0.000431,0.001175
15592000,0.0324,0.013523,0.002678,0.000431,0.001998
15593000,0.0324,0.013523,0.002678,0.000431,0.001763
15594000,0.0324,0.013523,0.002678,0.000431,0.001410
15595000,0.0324,0.013523,0.002678,0.000431,0.002116
15596000,0.0324,0.013523,0.002678,0.000431,0.001410
15597000,0.0324,0.013523,0.002678,0.000431,0.001410
15598000,0.0324,0.013523,0.002678,0.000431,0.001645
15599000,0.0324,0.013523,0.002678,0.000431,0.002586
15600000,0.0324,0.013523,0.002678,0.000431,0.001293
15601000,0.0324,0.013523,0.002678,0.000431,0.001058
15602000,0.0324,0.013523,0.002678,0.000431,0.001410
15603000,0.0324,0.013523,0.002678,0.000431,0.001645
15604000,0.0324,0.013523,0.002678,0.000431,0.001410
15605000,0.0324,0.013523,0.002678,0.000431,0.001763
15606000,0.0324,0.013523,0.002678,0.000431,0.001175
15607000,0.0324,0.013523,0.002678,0.000431,0.001645
15608000,0.0324,0.013523,0.002678,0.000431,0.002116
15609000,0.0324,0.013523,0.002678,0.000431,0.001998
15610000,0.0324,0.013523,0.002678,0.000431,0.002468
15611000,0.0324,0.013523,0.002678,0.000431,0.001293
15612000,0.0324,0.013523,0.002678,0.000431,0.002351
15613000,0.0324,0.013523,0.002678,0.000431,0.001880
15614000,0.0324,0.013523,0.002678,0.000431,0.001528
15615000,0.0324,0.013523,0.002678,0.000431,0.001645
15616000,0.0324,0.013523,0.002678,0.000431,0.001763
15617000,0.0324,0.013523,0.002678,0.000431,0.001293
15618000,0.0324,0.013523,0.002678,0.000431,0.002116
15619000,0.0324,0.013523,0.002678,0.000431,0.001528
15620000,0.0324,0.013523,0.002678,0.000431,0.001645
15621000,0.0324,0.013523,0.002678,0.000431,0.001880
15622000,0.0324,0.013523,0.002678,0.000431,0.001058
15623000,0.0324,0.013523,0.002678,0.000431,0.001058
15624000,0.0324,0.013523,0.002678,0.000431,0.001410
15625000,0.0324,0.013523,0.002678,0.000431,0.001645
15626000,0.0324,0.013523,0.002678,0.000431,0.001763
15627000,0.0324,0.013523,0.002678,0.000431,0.001175
15628000,0.0324,0.013523,0.002678,0.000431,0.001645
15629000,0.0324,0.013523,0.002678,0.000431,0.002116
15630000,0.0324,0.013523,0.002678,0.000431,0.000940
15631000,0.0324,0.013523,0.002678,0.000431,0.000823
15632000,0.0324,0.013523,0.002678,0.000431,0.001058
15633000,0.0324,0.013523,0.002678,0.000431,0.001175
15634000,0.0324,0.013523,0.002678,0.000431,0.000588
15635000,0.0324,0.013523,0.002678,0.000431,0.000823
15636000,0.0324,0.013523,0.002678,0.000431,0.001058
15637000,0.0324,0.013523,0.002678,0.000431,0.000823
15638000,0.0324,0.013523,0.002678,0.000431,0.001058
15639000,0.0324,0.013523,0.002678,0.000431,0.000940
15640000,0.0324,0.013523,0.002678,0.000431,0.001058
15641000,0.0324,0.013523,0.002678,0.000431,0.001058
15642000,0.0324,0.013523,0.002678,0.000431,0.000588
15643000,0.0324,0.013523,0.002678,0.000431,0.000823
15644000,0.0324,0.013523,0.002678,0.000431,0.001058
15645000,0.0324,0.013523,0.002678,0.000431,0.000705
15646000,0.0324,0.013523,0.002678,0.000431,0.001175
15647000,0.0324,0.013523,0.002678,0.000431,0.000588
15648000,0.0324,0.013523,0.002678,0.000431,0.000588
15649000,0.0324,0.013523,0.002678,0.000431,0.000470
15650000,0.0324,0.013523,0.002678,0.000431,0.000705
15651000,0.0324,0.013523,0.002678,0.000431,0.001175
15652000,0.0324,0.013523,0.002678,0.000431,0.000823
15653000,0.0324,0.013523,0.002678,0.000431,0.001058
15654000,0.0324,0.013523,0.002678,0.000431,0.000588
15655000,0.0324,0.013523,0.002678,0.000431,0.000588
15656000,0.0324,0.013523,0.002678,0.000431,0.001175
15657000,0.0324,0.013523,0.002678,0.000431,0.000705
15658000,0.0324,0.013523,0.002678,0.000431,0.000470
15659000,0.0324,0.013523,0.002678,0.000431,0.000588
15660000,0.0324,0.013523,0.002678,0.000431,0.000588
15661000,0.0324,0.013523,0.002678,0.000431,0.000705
15662000,0.0324,0.013523,0.002678,0.000431,0.000470
15663000,0.0324,0.013523,0.002678,0.000431,0.000588
15664000,0.0324,0.013523,0.002678,0.000431,0.000588
15665000,0.0324,0.013523,0.002678,0.000431,0.000588
15666000,0.0324,0.013523,0.002678,0.000431,0.000588
15667000,0.0324,0.013523,0.002678,0.000431,0.000588
15668000,0.0324,0.013523,0.002678,0.000431,0.001293
15669000,0.0324,0.013523,0.002678,0.000431,0.001175
15670000,0.0324,0.013523,0.002678,0.000431,0.000705
15671000,0.0324,0.013523,0.002678,0.000431,0.001175
15672000,0.0324,0.013523,0.002678,0.000431,0.000588
15673000,0.0324,0.013523,0.002678,0.000431,0.000588
15674000,0.0324,0.013523,0.002678,0.000431,0.001175
15675000,0.0324,0.013523,0.002678,0.000431,0.000705
15676000,0.0324,0.013523,0.002678,0.000431,0.000470
15677000,0.0324,0.013523,0.002678,0.000431,0.000705
15678000,0.0324,0.013523,0.002678,0.000431,0.000705
15679000,0.0324,0.013523,0.002678,0.000431,0.001058
15680000,0.0324,0.013523,0.002678,0.000431,0.000588
15681000,0.0324,0.013523,0.002678,0.000431,0.000705
15682000,0.0324,0.013523,0.002678,0.000431,0.001175
15683000,0.0324,0.013523,0.002678,0.000431,0.000588
15684000,0.0324,0.013523,0.002678,0.000431,0.001058
15685000,0.0324,0.013523,0.002678,0.000431,0.000705
15686000,0.0324,0.013523,0.002678,0.000431,0.000705
15687000,0.0324,0.013523,0.002678,0.000431,0.001175
15688000,0.0324,0.013523,0.002678,0.000431,0.001293
15689000,0.0324,0.013523,0.002678,0.000431,0.000588
15690000,0.0324,0.013523,0.002678,0.000431,0.000588
15691000,0.0324,0.013523,0.002678,0.000431,0.001058
15692000,0.0324,0.013523,0.002678,0.000431,0.000823
15693000,0.0324,0.013523,0.002678,0.000431,0.001293
15694000,0.0324,0.013523,0.002678,0.000431,0.001175
15695000,0.0324,0.013523,0.002678,0.000431,0.000705
15696000,0.0324,0.013523,0.002678,0.000431,0.001175
15697000,0.0324,0.013523,0.002678,0.000431,0.000588
15698000,0.0324,0.013523,0.002678,0.000431,0.001058
15699000,0.0324,0.013523,0.002678,0.000431,0.000823
15700000,0.0324,0.013523,0.002678,0.000431,0.000588
15701000,0.0324,0.013523,0.002678,0.000431,0.001175
15702000,0.0324,0.013523,0.002678,0.000431,0.001410
15703000,0.0324,0.013523,0.002678,0.000431,0.001175
15704000,0.0324,0.013523,0.002678,0.000431,0.000823
15705000,0.0324,0.013523,0.002678,0.000431,0.001058
15706000,0.0324,0.013523,0.002678,0.000431,0.001175
15707000,0.0324,0.013523,0.002678,0.000431,0.001175
15708000,0.0324,0.013523,0.002678,0.000431,0.000940
15709000,0.0324,0.013523,0.002678,0.000431,0.001175
15710000,0.0324,0.013523,0.002678,0.000431,0.001175
15711000,0.0324,0.013523,0.002678,0.000431,0.000470
15712000,0.0324,0.013523,0.002678,0.000431,0.001410
15713000,0.0324,0.013523,0.002678,0.000431,0.001175
15714000,0.0324,0.013523,0.002678,0.000431,0.000705
15715000,0.0324,0.013523,0.002678,0.000431,0.001175
15716000,0.0324,0.013523,0.002678,0.000431,0.001175
15717000,0.0324,0.013523,0.002678,0.000431,0.000705
15718000,0.0324,0.013523,0.002678,0.000431,0.000705
15719000,0.0324,0.013523,0.002678,0.000431,0.001058
15720000,0.0324,0.013523,0.002678,0.000431,0.000588
15721000,0.0324,0.013523,0.002678,0.000431,0.000705
15722000,0.0324,0.013523,0.002678,0.000431,0.001175
15723000,0.0324,0.013523,0.002678,0.000431,0.000588
15724000,0.0324,0.013523,0.002678,0.000431,0.001058
15725000,0.0324,0.013523,0.002678,0.000431,0.000940
15726000,0.0324,0.013523,0.002678,0.000431,0.001175
15727000,0.0324,0.013523,0.002678,0.000431,0.000470
15728000,0.0324,0.013523,0.002678,0.000431,0.001293
15729000,0.0324,0.013523,0.002678,0.000431,0.001058
15730000,0.0324,0.013523,0.002678,0.000431,0.000823
15731000,0.0324,0.013523,0.002678,0.000431,0.001058
15732000,0.0324,0.013523,0.002678,0.000431,0.000823
15733000,0.0324,0.013523,0.002678,0.000431,0.001058
15734000,0.0324,0.013523,0.002678,0.000431,0.000705
15735000,0.0324,0.013523,0.002678,0.000431,0.000705
15736000,0.0324,0.013523,0.002678,0.000431,0.001175
15737000,0.0324,0.013523,0.002678,0.000431,0.000588
15738000,0.0324,0.013523,0.002678,0.000431,0.000588
15739000,0.0324,0.013523,0.002678,0.000431,0.000705
15740000,0.0324,0.013523,0.002678,0.000431,0.001175
15741000,0.0324,0.013523,0.002678,0.000431,0.000705
15742000,0.0324,0.013523,0.002678,0.000431,0.001175
15743000,0.0324,0.013523,0.002678,0.000431,0.001175
15744000,0.0324,0.013523,0.002678,0.000431,0.001293
15745000,0.0324,0.013523,0.002678,0.000431,0.001058
15746000,0.0324,0.013523,0.002678,0.000431,0.000823
15747000,0.0324,0.013523,0.002678,0.000431,0.000588
15748000,0.0324,0.013523,0.002678,0.000431,0.001175
15749000,0.0324,0.013523,0.002678,0.000431,0.000588
15750000,0.0324,0.013523,0.002678,0.000431,0.000588
15751000,0.0324,0.013523,0.002678,0.000431,0.000470
15752000,0.0324,0.013523,0.002678,0.000431,0.000705
15753000,0.0324,0.013523,0.002678,0.000431,0.001175
15754000,0.0324,0.013523,0.002678,0.000431,0.000705
15755000,0.0324,0.013523,0.002678,0.000431,0.000470
15756000,0.0324,0.013523,0.002678,0.000431,0.001293
15757000,0.0324,0.013523,0.002678,0.000431,0.001058
15758000,0.0324,0.013523,0.002678,0.000431,0.000940
15759000,0.0324,0.013523,0.002678,0.000431,0.001058
15760000,0.0324,0.013523,0.002678,0.000431,0.000588
15761000,0.0324,0.013523,0.002678,0.000431,0.000705
15762000,0.0324,0.013523,0.002678,0.000431,0.001175
15763000,0.0324,0.013523,0.002678,0.000431,0.001175
15764000,0.0324,0.013523,0.002678,0.000431,0.001293
15765000,0.0324,0.013523,0.002678,0.000431,0.001293
15766000,0.0324,0.013523,0.002678,0.000431,0.001175
15767000,0.0324,0.013523,0.002678,0.000431,0.001058
15768000,0.0324,0.013523,0.002678,0.000431,0.001058
15769000,0.0324,0.013523,0.002678,0.000431,0.000940
15770000,0.0324,0.013523,0.002678,0.000431,0.000705
15771000,0.0324,0.013523,0.002678,0.000431,0.001175
15772000,0.0324,0.013523,0.002678,0.000431,0.000705
15773000,0.0324,0.013523,0.002678,0.000431,0.000470
15774000,0.0324,0.013523,0.002678,0.000431,0.001293
15775000,0.0324,0.013523,0.002678,0.000431,0.000588
15776000,0.0324,0.013523,0.002678,0.000431,0.001175
15777000,0.0324,0.013523,0.002678,0.000431,0.000705
15778000,0.0324,0.013523,0.002678,0.000431,0.001175
15779000,0.0324,0.013523,0.002678,0.000431,0.001175
15780000,0.0324,0.013523,0.002678,0.000431,0.000705
15781000,0.0324,0.013523,0.002678,0.000431,0.000588
15782000,0.0324,0.013523,0.002678,0.000431,0.000588
15783000,0.0324,0.013523,0.002678,0.000431,0.000470
15784000,0.0324,0.013523,0.002678,0.000431,0.001175
15785000,0.0324,0.013523,0.002678,0.000431,0.000940
15786000,0.0324,0.013523,0.002678,0.000431,0.001175
15787000,0.0324,0.013523,0.002678,0.000431,0.000940
15788000,0.0324,0.013523,0.002678,0.000431,0.000705
15789000,0.0324,0.013523,0.002678,0.000431,0.001410
15790000,0.0324,0.013523,0.002678,0.000431,0.001175
15791000,0.0324,0.013523,0.002678,0.000431,0.000823
15792000,0.0324,0.013523,0.002678,0.000431,0.001058
15793000,0.0324,0.013523,0.002678,0.000431,0.001175
15794000,0.0324,0.013523,0.002678,0.000431,0.001293
15795000,0.0324,0.013523,0.002678,0.000431,0.001058
15796000,0.0324,0.013523,0.002678,0.000431,0.000823
15797000,0.0324,0.013523,0.002678,0.000431,0.000588
15798000,0.0324,0.013523,0.002678,0.000431,0.001175
15799000,0.0324,0.013523,0.002678,0.000431,0.000588
15800000,0.0324,0.013523,0.002678,0.000431,0.000588
15801000,0.0324,0.013523,0.002678,0.000431,0.000470
15802000,0.0324,0.013523,0.002678,0.000431,0.000705
15803000,0.0324,0.013523,0.002678,0.000431,0.001175
15804000,0.0324,0.013523,0.002678,0.000431,0.001293
15805000,0.0324,0.013523,0.002678,0.000431,0.000588
15806000,0.0324,0.013523,0.002678,0.000431,0.001175
15807000,0.0324,0.013523,0.002678,0.000431,0.000588
15808000,0.0324,0.013523,0.002678,0.000431,0.000588
15809000,0.0324,0.013523,0.002678,0.000431,0.000588
15810000,0.0324,0.013523,0.002678,0.000431,0.000588
15811000,0.0324,0.013523,0.002678,0.000431,0.001293
15812000,0.0324,0.013523,0.002678,0.000431,0.000588
15813000,0.0324,0.013523,0.002678,0.000431,0.000470
15814000,0.0324,0.013523,0.002678,0.000431,0.001293
15815000,0.0324,0.013523,0.002678,0.000431,0.000588
15816000,0.0324,0.013523,0.002678,0.000431,0.001175
15817000,0.0324,0.013523,0.002678,0.000431,0.000705
15818000,0.0324,0.013523,0.002678,0.000431,0.001175
15819000,0.0324,0.013523,0.002678,0.000431,0.000823
15820000,0.0324,0.013523,0.002678,0.000431,0.001058
15821000,0.0324,0.013523,0.002678,0.000431,0.001175
15822000,0.0324,0.013523,0.002678,0.000431,0.001175
15823000,0.0324,0.013523,0.002678,0.000431,0.000940
15824000,0.0324,0.013523,0.002678,0.000431,0.000940
15825000,0.0324,0.013523,0.002678,0.000431,0.000705
15826000,0.0324,0.013523,0.002678,0.000431,0.000705
15827000,0.0324,0.013523,0.002678,0.000431,0.001175
15828000,0.0324,0.013523,0.002678,0.000431,0.001175
15829000,0.0324,0.013523,0.002678,0.000431,0.000705
15830000,0.0324,0.013523,0.002678,0.000431,0.001175
15831000,0.0324,0.013523,0.002678,0.000431,0.000588
15832000,0.0324,0.013523,0.002678,0.000431,0.000588
15833000,0.0324,0.013523,0.002678,0.000431,0.000470
15834000,0.0324,0.013523,0.002678,0.000431,0.000705
15835000,0.0324,0.013523,0.002678,0.000431,0.000470
15836000,0.0324,0.013523,0.002678,0.000431,0.000705
15837000,0.0324,0.013523,0.002678,0.000431,0.001410
15838000,0.0324,0.013523,0.002678,0.000431,0.000940
15839000,0.0324,0.013523,0.002678,0.000431,0.001293
15840000,0.0324,0.013523,0.002678,0.000431,0.000823
15841000,0.0324,0.013523,0.002678,0.000431,0.001058
15842000,0.0324,0.013523,0.002678,0.000431,0.000588
15843000,0.0324,0.013523,0.002678,0.000431,0.000940
15844000,0.0324,0.013523,0.002678,0.000431,0.000940
15845000,0.0324,0.013523,0.002678,0.000431,0.001175
15846000,0.0324,0.013523,0.002678,0.000431,0.000705
15847000,0.0324,0.013523,0.002678,0.000431,0.000705
15848000,0.0324,0.013523,0.002678,0.000431,0.001175
15849000,0.0324,0.013523,0.002678,0.000431,0.001175
15850000,0.0324,0.013523,0.002678,0.000431,0.001410
15851000,0.0324,0.013523,0.002678,0.000431,0.001175
15852000,0.0324,0.013523,0.002678,0.000431,0.001175
15853000,0.0324,0.013523,0.002678,0.000431,0.000705
15854000,0.0324,0.013523,0.002678,0.000431,0.001175
15855000,0.0324,0.013523,0.002678,0.000431,0.001410
15856000,0.0324,0.013523,0.002678,0.000431,0.001175
15857000,0.0324,0.013523,0.002678,0.000431,0.000705
15858000,0.0324,0.013523,0.002678,0.000431,0.001058
15859000,0.0324,0.013523,0.002678,0.000431,0.000940
15860000,0.0324,0.013523,0.002678,0.000431,0.001058
15861000,0.0324,0.013523,0.002678,0.000431,0.001175
15862000,0.0324,0.013523,0.002678,0.000431,0.000705
15863000,0.0324,0.013523,0.002678,0.000431,0.001058
15864000,0.0324,0.013523,0.002678,0.000431,0.000588
15865000,0.0324,0.013523,0.002678,0.000431,0.000588
15866000,0.0324,0.013523,0.002678,0.000431,0.000588
15867000,0.0324,0.013523,0.002678,0.000431,0.000470
15868000,0.0324,0.013523,0.002678,0.000431,0.001410
15869000,0.0324,0.013523,0.002678,0.000431,0.001175
15870000,0.0324,0.013523,0.002678,0.000431,0.000588
15871000,0.0324,0.013523,0.002678,0.000431,0.000588
15872000,0.0324,0.013523,0.002678,0.000431,0.001175
15873000,0.0324,0.013523,0.002678,0.000431,0.000823
15874000,0.0324,0.013523,0.002678,0.000431,0.001058
15875000,0.0324,0.013523,0.002678,0.000431,0.000705
15876000,0.0324,0.013523,0.002678,0.000431,0.001175
15877000,0.0324,0.013523,0.002678,0.000431,0.000470
15878000,0.0324,0.013523,0.002678,0.000431,0.000588
15879000,0.0324,0.013523,0.002678,0.000431,0.000588
15880000,0.0324,0.013523,0.002678,0.000431,0.000470
15881000,0.0324,0.013523,0.002678,0.000431,0.000705
15882000,0.0324,0.013523,0.002678,0.000431,0.000705
15883000,0.0324,0.013523,0.002678,0.000431,0.001058
15884000,0.0324,0.013523,0.002678,0.000431,0.000588
15885000,0.0324,0.013523,0.002678,0.000431,0.001175
15886000,0.0324,0.013523,0.002678,0.000431,0.000705
15887000,0.0324,0.013523,0.002678,0.000431,0.000705
15888000,0.0324,0.013523,0.002678,0.000431,0.001175
15889000,0.0324,0.013523,0.002678,0.000431,0.001175
15890000,0.0324,0.013523,0.002678,0.000431,0.000470
15891000,0.0324,0.013523,0.002678,0.000431,0.001293
15892000,0.0324,0.013523,0.002678,0.000431,0.000823
15893000,0.0324,0.013523,0.002678,0.000431,0.001175
15894000,0.0324,0.013523,0.002678,0.000431,0.001175
15895000,0.0324,0.013523,0.002678,0.000431,0.000470
15896000,0.0324,0.013523,0.002678,0.000431,0.000823
15897000,0.0324,0.013523,0.002678,0.000431,0.001058
15898000,0.0324,0.013523,0.002678,0.000431,0.001175
15899000,0.0324,0.013523,0.002678,0.000431,0.001293
15900000,0.0324,0.013523,0.002678,0.000431,0.001058
15901000,0.0324,0.013523,0.002678,0.000431,0.000705
15902000,0.0324,0.013523,0.002678,0.000431,0.001293
15903000,0.0324,0.013523,0.002678,0.000431,0.000823
15904000,0.0324,0.013523,0.002678,0.000431,0.001175
15905000,0.0324,0.013523,0.002678,0.000431,0.001175
15906000,0.0324,0.013523,0.002678,0.000431,0.001410
15907000,0.0324,0.013523,0.002678,0.000431,0.000470
15908000,0.0324,0.013523,0.002678,0.000431,0.001175
15909000,0.0324,0.013523,0.002678,0.000431,0.001410
15910000,0.0324,0.013523,0.002678,0.000431,0.000705
15911000,0.0324,0.013523,0.002678,0.000431,0.001175
15912000,0.0324,0.013523,0.002678,0.000431,0.000470
15913000,0.0324,0.013523,0.002678,0.000431,0.000705
15914000,0.0324,0.013523,0.002678,0.000431,0.000940
15915000,0.0324,0.013523,0.002678,0.000431,0.000705
15916000,0.0324,0.013523,0.002678,0.000431,0.001410
15917000,0.0324,0.013523,0.002678,0.000431,0.000705
15918000,0.0324,0.013523,0.002678,0.000431,0.001175
15919000,0.0324,0.013523,0.002678,0.000431,0.000705
15920000,0.0324,0.013523,0.002678,0.000431,0.000940
15921000,0.0324,0.013523,0.002678,0.000431,0.000705
15922000,0.0324,0.013523,0.002678,0.000431,0.000940
15923000,0.0324,0.013523,0.002678,0.000431,0.001058
15924000,0.0324,0.013523,0.002678,0.000431,0.001058
15925000,0.0324,0.013523,0.002678,0.000431,0.001175
15926000,0.0324,0.013523,0.002678,0.000431,0.000705
15927000,0.0324,0.013523,0.002678,0.000431,0.001175
15928000,0.0324,0.013523,0.002678,0.000431,0.000588
15929000,0.0324,0.013523,0.002678,0.000431,0.001058
15930000,0.0324,0.013523,0.002678,0.000431,0.000705
15931000,0.0324,0.013523,0.002678,0.000431,0.001058
15932000,0.0324,0.013523,0.002678,0.000431,0.001058
15933000,0.0324,0.013523,0.002678,0.000431,0.000940
15934000,0.0324,0.013523,0.002678,0.000431,0.001410
15935000,0.0324,0.013523,0.002678,0.000431,0.000588
15936000,0.0324,0.013523,0.002678,0.000431,0.000588
15937000,0.0324,0.013523,0.002678,0.000431,0.000470
15938000,0.0324,0.013523,0.002678,0.000431,0.000705
15939000,0.0324,0.013523,0.002678,0.000431,0.000470
15940000,0.0324,0.013523,0.002678,0.000431,0.001293
15941000,0.0324,0.013523,0.002678,0.000431,0.001058
15942000,0.0324,0.013523,0.002678,0.000431,0.000823
15943000,0.0324,0.013523,0.002678,0.000431,0.001293
15944000,0.0324,0.013523,0.002678,0.000431,0.001175
15945000,0.0324,0.013523,0.002678,0.000431,0.000588
15946000,0.0324,0.013523,0.002678,0.000431,0.000588
15947000,0.0324,0.013523,0.002678,0.000431,0.000470
15948000,0.0324,0.013523,0.002678,0.000431,0.001175
15949000,0.0324,0.013523,0.002678,0.000431,0.001175
15950000,0.0324,0.013523,0.002678,0.000431,0.000940
15951000,0.0324,0.013523,0.002678,0.000431,0.000705
15952000,0.0324,0.013523,0.002678,0.000431,0.001175
15953000,0.0324,0.013523,0.002678,0.000431,0.001175
15954000,0.0324,0.013523,0.002678,0.000431,0.000588
15955000,0.0324,0.013523,0.002678,0.000431,0.000588
15956000,0.0324,0.013523,0.002678,0.000431,0.000705
15957000,0.0324,0.013523,0.002678,0.000431,0.001058
15958000,0.0324,0.013523,0.002678,0.000431,0.000823
15959000,0.0324,0.013523,0.002678,0.000431,0.001175
15960000,0.0324,0.013523,0.002678,0.000431,0.001175
15961000,0.0324,0.013523,0.002678,0.000431,0.000588
15962000,0.0324,0.013523,0.002678,0.000431,0.000588
15963000,0.0324,0.013523,0.002678,0.000431,0.001175
15964000,0.0324,0.013523,0.002678,0.000431,0.001058
15965000,0.0324,0.013523,0.002678,0.000431,0.000823
15966000,0.0324,0.013523,0.002678,0.000431,0.000470
15967000,0.0324,0.013523,0.002678,0.000431,0.001058
15968000,0.0324,0.013523,0.002678,0.000431,0.001293
15969000,0.0324,0.013523,0.002678,0.000431,0.001058
15970000,0.0324,0.013523,0.002678,0.000431,0.001058
15971000,0.0324,0.013523,0.002678,0.000431,0.001175
15972000,0.0324,0.013523,0.002678,0.000431,0.000705
15973000,0.0324,0.013523,0.002678,0.000431,0.001175
15974000,0.0324,0.013523,0.002678,0.000431,0.000705
15975000,0.0324,0.013523,0.002678,0.000431,0.001175
15976000,0.0324,0.013523,0.002678,0.000431,0.000470
15977000,0.0324,0.013523,0.002678,0.000431,0.000588
15978000,0.0324,0.013523,0.002678,0.000431,0.000588
15979000,0.0324,0.013523,0.002678,0.000431,0.001175
15980000,0.0324,0.013523,0.002678,0.000431,0.000823
15981000,0.0324,0.013523,0.002678,0.000431,0.001058
15982000,0.0324,0.013523,0.002678,0.000431,0.001410
15983000,0.0324,0.013523,0.002678,0.000431,0.001175
15984000,0.0324,0.013523,0.002678,0.000431,0.001175
15985000,0.0324,0.013523,0.002678,0.000431,0.001058
15986000,0.0324,0.013523,0.002678,0.000431,0.000940
15987000,0.0324,0.013523,0.002678,0.000431,0.001058
15988000,0.0324,0.013523,0.002678,0.000431,0.001293
15989000,0.0324,0.013523,0.002678,0.000431,0.001293
15990000,0.0324,0.013523,0.002678,0.000431,0.001175
15991000,0.0324,0.013523,0.002678,0.000431,0.000705
15992000,0.0324,0.013523,0.002678,0.000431,0.000588
15993000,0.0324,0.013523,0.002678,0.000431,0.001058
15994000,0.0324,0.013523,0.002678,0.000431,0.001175
15995000,0.0324,0.013523,0.002678,0.000431,0.001528
15996000,0.0324,0.013523,0.002678,0.000431,0.001058
15997000,0.0324,0.013523,0.002678,0.000431,0.000940
15998000,0.0324,0.013523,0.002678,0.000431,0.001175
15999000,0.0324,0.013523,0.002678,0.000431,0.001175
