Cycle,Area(mm^2),PeakDynamic(W),SubthresholdLeakage(W),GateLeakage(W),RunTimeDynamic(W)
2000000,0.0324,0.013523,0.002678,0.000431,0.233999
2001000,0.0324,0.013523,0.002678,0.000431,0.228592
2002000,0.0324,0.013523,0.002678,0.000431,0.220013
2003000,0.0324,0.013523,0.002678,0.000431,0.222011
2004000,0.0324,0.013523,0.002678,0.000431,0.205322
2005000,0.0324,0.013523,0.002678,0.000431,0.208260
2006000,0.0324,0.013523,0.002678,0.000431,0.210023
2007000,0.0324,0.013523,0.002678,0.000431,0.199915
2008000,0.0324,0.013523,0.002678,0.000431,0.200856
2009000,0.0324,0.013523,0.002678,0.000431,0.196742
2010000,0.0324,0.013523,0.002678,0.000431,0.187340
2011000,0.0324,0.013523,0.002678,0.000431,0.190631
2012000,0.0324,0.013523,0.002678,0.000431,0.186282
2013000,0.0324,0.013523,0.002678,0.000431,0.183697
2014000,0.0324,0.013523,0.002678,0.000431,0.177938
2015000,0.0324,0.013523,0.002678,0.000431,0.172531
2016000,0.0324,0.013523,0.002678,0.000431,0.170416
2017000,0.0324,0.013523,0.002678,0.000431,0.166890
2018000,0.0324,0.013523,0.002678,0.000431,0.165832
2019000,0.0324,0.013523,0.002678,0.000431,0.163482
2020000,0.0324,0.013523,0.002678,0.000431,0.163247
2021000,0.0324,0.013523,0.002678,0.000431,0.160779
2022000,0.0324,0.013523,0.002678,0.000431,0.158310
2023000,0.0324,0.013523,0.002678,0.000431,0.149143
2024000,0.0324,0.013523,0.002678,0.000431,0.151376
2025000,0.0324,0.013523,0.002678,0.000431,0.143502
2026000,0.0324,0.013523,0.002678,0.000431,0.148791
2027000,0.0324,0.013523,0.002678,0.000431,0.141974
2028000,0.0324,0.013523,0.002678,0.000431,0.133277
2029000,0.0324,0.013523,0.002678,0.000431,0.135628
2030000,0.0324,0.013523,0.002678,0.000431,0.131632
2031000,0.0324,0.013523,0.002678,0.000431,0.126225
2032000,0.0324,0.013523,0.002678,0.000431,0.127871
2033000,0.0324,0.013523,0.002678,0.000431,0.122817
2034000,0.0324,0.013523,0.002678,0.000431,0.116118
2035000,0.0324,0.013523,0.002678,0.000431,0.121407
2036000,0.0324,0.013523,0.002678,0.000431,0.111182
2037000,0.0324,0.013523,0.002678,0.000431,0.113297
2038000,0.0324,0.013523,0.002678,0.000431,0.113297
2039000,0.0324,0.013523,0.002678,0.000431,0.106833
2040000,0.0324,0.013523,0.002678,0.000431,0.106010
2041000,0.0324,0.013523,0.002678,0.000431,0.106833
2042000,0.0324,0.013523,0.002678,0.000431,0.099429
2043000,0.0324,0.013523,0.002678,0.000431,0.099429
2044000,0.0324,0.013523,0.002678,0.000431,0.094728
2045000,0.0324,0.013523,0.002678,0.000431,0.094963
2046000,0.0324,0.013523,0.002678,0.000431,0.093317
2047000,0.0324,0.013523,0.002678,0.000431,0.082152
2048000,0.0324,0.013523,0.002678,0.000431,0.083680
2049000,0.0324,0.013523,0.002678,0.000431,0.079919
2050000,0.0324,0.013523,0.002678,0.000431,0.081094
2051000,0.0324,0.013523,0.002678,0.000431,0.078274
2052000,0.0324,0.013523,0.002678,0.000431,0.075453
2053000,0.0324,0.013523,0.002678,0.000431,0.070987
2054000,0.0324,0.013523,0.002678,0.000431,0.074043
2055000,0.0324,0.013523,0.002678,0.000431,0.071222
2056000,0.0324,0.013523,0.002678,0.000431,0.067814
2057000,0.0324,0.013523,0.002678,0.000431,0.067344
2058000,0.0324,0.013523,0.002678,0.000431,0.064758
2059000,0.0324,0.013523,0.002678,0.000431,0.064053
2060000,0.0324,0.013523,0.002678,0.000431,0.061585
2061000,0.0324,0.013523,0.002678,0.000431,0.062055
2062000,0.0324,0.013523,0.002678,0.000431,0.059352
2063000,0.0324,0.013523,0.002678,0.000431,0.057471
2064000,0.0324,0.013523,0.002678,0.000431,0.061115
2065000,0.0324,0.013523,0.002678,0.000431,0.059234
2066000,0.0324,0.013523,0.002678,0.000431,0.053123
2067000,0.0324,0.013523,0.002678,0.000431,0.051712
2068000,0.0324,0.013523,0.002678,0.000431,0.051242
2069000,0.0324,0.013523,0.002678,0.000431,0.050772
2070000,0.0324,0.013523,0.002678,0.000431,0.049949
2071000,0.0324,0.013523,0.002678,0.000431,0.049949
2072000,0.0324,0.013523,0.002678,0.000431,0.050302
2073000,0.0324,0.013523,0.002678,0.000431,0.050420
2074000,0.0324,0.013523,0.002678,0.000431,0.051360
2075000,0.0324,0.013523,0.002678,0.000431,0.047481
2076000,0.0324,0.013523,0.002678,0.000431,0.043250
2077000,0.0324,0.013523,0.002678,0.000431,0.041017
2078000,0.0324,0.013523,0.002678,0.000431,0.039372
2079000,0.0324,0.013523,0.002678,0.000431,0.037139
2080000,0.0324,0.013523,0.002678,0.000431,0.037491
2081000,0.0324,0.013523,0.002678,0.000431,0.039842
2082000,0.0324,0.013523,0.002678,0.000431,0.033143
2083000,0.0324,0.013523,0.002678,0.000431,0.036434
2084000,0.0324,0.013523,0.002678,0.000431,0.035258
2085000,0.0324,0.013523,0.002678,0.000431,0.034083
2086000,0.0324,0.013523,0.002678,0.000431,0.029617
2087000,0.0324,0.013523,0.002678,0.000431,0.030675
2088000,0.0324,0.013523,0.002678,0.000431,0.031027
2089000,0.0324,0.013523,0.002678,0.000431,0.029147
2090000,0.0324,0.013523,0.002678,0.000431,0.028559
2091000,0.0324,0.013523,0.002678,0.000431,0.029029
2092000,0.0324,0.013523,0.002678,0.000431,0.026561
2093000,0.0324,0.013523,0.002678,0.000431,0.025386
2094000,0.0324,0.013523,0.002678,0.000431,0.025856
2095000,0.0324,0.013523,0.002678,0.000431,0.024798
2096000,0.0324,0.013523,0.002678,0.000431,0.024916
2097000,0.0324,0.013523,0.002678,0.000431,0.024563
2098000,0.0324,0.013523,0.002678,0.000431,0.023623
2099000,0.0324,0.013523,0.002678,0.000431,0.022330
2100000,0.0324,0.013523,0.002678,0.000431,0.024211
2101000,0.0324,0.013523,0.002678,0.000431,0.023976
2102000,0.0324,0.013523,0.002678,0.000431,0.021155
2103000,0.0324,0.013523,0.002678,0.000431,0.022095
2104000,0.0324,0.013523,0.002678,0.000431,0.019392
2105000,0.0324,0.013523,0.002678,0.000431,0.017747
2106000,0.0324,0.013523,0.002678,0.000431,0.018334
2107000,0.0324,0.013523,0.002678,0.000431,0.018334
2108000,0.0324,0.013523,0.002678,0.000431,0.017394
2109000,0.0324,0.013523,0.002678,0.000431,0.018687
2110000,0.0324,0.013523,0.002678,0.000431,0.016807
2111000,0.0324,0.013523,0.002678,0.000431,0.016454
2112000,0.0324,0.013523,0.002678,0.000431,0.016101
2113000,0.0324,0.013523,0.002678,0.000431,0.015396
2114000,0.0324,0.013523,0.002678,0.000431,0.013751
2115000,0.0324,0.013523,0.002678,0.000431,0.013986
2116000,0.0324,0.013523,0.002678,0.000431,0.014809
2117000,0.0324,0.013523,0.002678,0.000431,0.015279
2118000,0.0324,0.013523,0.002678,0.000431,0.013751
2119000,0.0324,0.013523,0.002678,0.000431,0.015631
2120000,0.0324,0.013523,0.002678,0.000431,0.014338
2121000,0.0324,0.013523,0.002678,0.000431,0.014926
2122000,0.0324,0.013523,0.002678,0.000431,0.013516
2123000,0.0324,0.013523,0.002678,0.000431,0.014809
2124000,0.0324,0.013523,0.002678,0.000431,0.013751
2125000,0.0324,0.013523,0.002678,0.000431,0.012928
2126000,0.0324,0.013523,0.002678,0.000431,0.014573
2127000,0.0324,0.013523,0.002678,0.000431,0.013398
2128000,0.0324,0.013523,0.002678,0.000431,0.012693
2129000,0.0324,0.013523,0.002678,0.000431,0.013751
2130000,0.0324,0.013523,0.002678,0.000431,0.012576
2131000,0.0324,0.013523,0.002678,0.000431,0.011165
2132000,0.0324,0.013523,0.002678,0.000431,0.010460
2133000,0.0324,0.013523,0.002678,0.000431,0.010578
2134000,0.0324,0.013523,0.002678,0.000431,0.011400
2135000,0.0324,0.013523,0.002678,0.000431,0.010813
2136000,0.0324,0.013523,0.002678,0.000431,0.011400
2137000,0.0324,0.013523,0.002678,0.000431,0.011753
2138000,0.0324,0.013523,0.002678,0.000431,0.012105
2139000,0.0324,0.013523,0.002678,0.000431,0.011635
2140000,0.0324,0.013523,0.002678,0.000431,0.011870
2141000,0.0324,0.013523,0.002678,0.000431,0.010460
2142000,0.0324,0.013523,0.002678,0.000431,0.010225
2143000,0.0324,0.013523,0.002678,0.000431,0.009637
2144000,0.0324,0.013523,0.002678,0.000431,0.010107
2145000,0.0324,0.013523,0.002678,0.000431,0.009637
2146000,0.0324,0.013523,0.002678,0.000431,0.008462
2147000,0.0324,0.013523,0.002678,0.000431,0.008932
2148000,0.0324,0.013523,0.002678,0.000431,0.009402
2149000,0.0324,0.013523,0.002678,0.000431,0.009285
2150000,0.0324,0.013523,0.002678,0.000431,0.007757
2151000,0.0324,0.013523,0.002678,0.000431,0.007287
2152000,0.0324,0.013523,0.002678,0.000431,0.007287
2153000,0.0324,0.013523,0.002678,0.000431,0.007287
2154000,0.0324,0.013523,0.002678,0.000431,0.007639
2155000,0.0324,0.013523,0.002678,0.000431,0.007169
2156000,0.0324,0.013523,0.002678,0.000431,0.007169
2157000,0.0324,0.013523,0.002678,0.000431,0.007404
2158000,0.0324,0.013523,0.002678,0.000431,0.007639
2159000,0.0324,0.013523,0.002678,0.000431,0.007757
2160000,0.0324,0.013523,0.002678,0.000431,0.007992
2161000,0.0324,0.013523,0.002678,0.000431,0.007757
2162000,0.0324,0.013523,0.002678,0.000431,0.007169
2163000,0.0324,0.013523,0.002678,0.000431,0.005289
2164000,0.0324,0.013523,0.002678,0.000431,0.005641
2165000,0.0324,0.013523,0.002678,0.000431,0.005994
2166000,0.0324,0.013523,0.002678,0.000431,0.005524
2167000,0.0324,0.013523,0.002678,0.000431,0.005994
2168000,0.0324,0.013523,0.002678,0.000431,0.005524
2169000,0.0324,0.013523,0.002678,0.000431,0.005994
2170000,0.0324,0.013523,0.002678,0.000431,0.006111
2171000,0.0324,0.013523,0.002678,0.000431,0.005641
2172000,0.0324,0.013523,0.002678,0.000431,0.005994
2173000,0.0324,0.013523,0.002678,0.000431,0.005759
2174000,0.0324,0.013523,0.002678,0.000431,0.005171
2175000,0.0324,0.013523,0.002678,0.000431,0.005054
2176000,0.0324,0.013523,0.002678,0.000431,0.005171
2177000,0.0324,0.013523,0.002678,0.000431,0.005406
2178000,0.0324,0.013523,0.002678,0.000431,0.005994
2179000,0.0324,0.013523,0.002678,0.000431,0.005054
2180000,0.0324,0.013523,0.002678,0.000431,0.003526
2181000,0.0324,0.013523,0.002678,0.000431,0.003761
2182000,0.0324,0.013523,0.002678,0.000431,0.003878
2183000,0.0324,0.013523,0.002678,0.000431,0.003056
2184000,0.0324,0.013523,0.002678,0.000431,0.003643
2185000,0.0324,0.013523,0.002678,0.000431,0.003761
2186000,0.0324,0.013523,0.002678,0.000431,0.003291
2187000,0.0324,0.013523,0.002678,0.000431,0.003173
2188000,0.0324,0.013523,0.002678,0.000431,0.002586
2189000,0.0324,0.013523,0.002678,0.000431,0.002116
2190000,0.0324,0.013523,0.002678,0.000431,0.002233
2191000,0.0324,0.013523,0.002678,0.000431,0.002351
2192000,0.0324,0.013523,0.002678,0.000431,0.001410
2193000,0.0324,0.013523,0.002678,0.000431,0.000940
2194000,0.0324,0.013523,0.002678,0.000431,0.001410
2195000,0.0324,0.013523,0.002678,0.000431,0.000588
2196000,0.0324,0.013523,0.002678,0.000431,0.000705
2197000,0.0324,0.013523,0.002678,0.000431,0.000705
2198000,0.0324,0.013523,0.002678,0.000431,0.000705
2199000,0.0324,0.013523,0.002678,0.000431,0.000705
2200000,0.0324,0.013523,0.002678,0.000431,0.000470
2201000,0.0324,0.013523,0.002678,0.000431,0.000705
2202000,0.0324,0.013523,0.002678,0.000431,0.000705
2203000,0.0324,0.013523,0.002678,0.000431,0.000705
2204000,0.0324,0.013523,0.002678,0.000431,0.000470
2205000,0.0324,0.013523,0.002678,0.000431,0.000823
2206000,0.0324,0.013523,0.002678,0.000431,0.000705
2207000,0.0324,0.013523,0.002678,0.000431,0.000705
2208000,0.0324,0.013523,0.002678,0.000431,0.000705
2209000,0.0324,0.013523,0.002678,0.000431,0.000705
2210000,0.0324,0.013523,0.002678,0.000431,0.000823
2211000,0.0324,0.013523,0.002678,0.000431,0.000588
2212000,0.0324,0.013523,0.002678,0.000431,0.000705
2213000,0.0324,0.013523,0.002678,0.000431,0.000588
2214000,0.0324,0.013523,0.002678,0.000431,0.000705
2215000,0.0324,0.013523,0.002678,0.000431,0.000705
2216000,0.0324,0.013523,0.002678,0.000431,0.000588
2217000,0.0324,0.013523,0.002678,0.000431,0.000823
2218000,0.0324,0.013523,0.002678,0.000431,0.000705
2219000,0.0324,0.013523,0.002678,0.000431,0.000588
2220000,0.0324,0.013523,0.002678,0.000431,0.000588
2221000,0.0324,0.013523,0.002678,0.000431,0.000823
2222000,0.0324,0.013523,0.002678,0.000431,0.000705
2223000,0.0324,0.013523,0.002678,0.000431,0.000588
2224000,0.0324,0.013523,0.002678,0.000431,0.000588
2225000,0.0324,0.013523,0.002678,0.000431,0.000588
2226000,0.0324,0.013523,0.002678,0.000431,0.000705
2227000,0.0324,0.013523,0.002678,0.000431,0.000823
2228000,0.0324,0.013523,0.002678,0.000431,0.000705
2229000,0.0324,0.013523,0.002678,0.000431,0.000588
2230000,0.0324,0.013523,0.002678,0.000431,0.000823
2231000,0.0324,0.013523,0.002678,0.000431,0.000705
2232000,0.0324,0.013523,0.002678,0.000431,0.000588
2233000,0.0324,0.013523,0.002678,0.000431,0.001175
