Cycle,Area(mm^2),PeakDynamic(W),SubthresholdLeakage(W),GateLeakage(W),RunTimeDynamic(W)
1000,0.0324,0.013523,0.002678,0.000431,0.000588
2000,0.0324,0.013523,0.002678,0.000431,0.000000
3000,0.0324,0.013523,0.002678,0.000431,0.000000
4000,0.0324,0.013523,0.002678,0.000431,0.000000
5000,0.0324,0.013523,0.002678,0.000431,0.000000
6000,0.0324,0.013523,0.002678,0.000431,0.344475
7000,0.0324,0.013523,0.002678,0.000431,0.561550
8000,0.0324,0.013523,0.002678,0.000431,0.217545
9000,0.0324,0.013523,0.002678,0.000431,0.297464
10000,0.0324,0.013523,0.002678,0.000431,0.405825
11000,0.0324,0.013523,0.002678,0.000431,0.307571
12000,0.0324,0.013523,0.002678,0.000431,0.509955
13000,0.0324,0.013523,0.002678,0.000431,0.697765
14000,0.0324,0.013523,0.002678,0.000431,0.862069
15000,0.0324,0.013523,0.002678,0.000431,0.875350
16000,0.0324,0.013523,0.002678,0.000431,0.951156
17000,0.0324,0.013523,0.002678,0.000431,0.935172
18000,0.0324,0.013523,0.002678,0.000431,0.992173
19000,0.0324,0.013523,0.002678,0.000431,0.967139
20000,0.0324,0.013523,0.002678,0.000431,0.946807
21000,0.0324,0.013523,0.002678,0.000431,0.936465
22000,0.0324,0.013523,0.002678,0.000431,0.945632
23000,0.0324,0.013523,0.002678,0.000431,0.806361
24000,0.0324,0.013523,0.002678,0.000431,0.915780
25000,0.0324,0.013523,0.002678,0.000431,0.879934
26000,0.0324,0.013523,0.002678,0.000431,0.911196
27000,0.0324,0.013523,0.002678,0.000431,0.840091
28000,0.0324,0.013523,0.002678,0.000431,0.867711
29000,0.0324,0.013523,0.002678,0.000431,0.941988
30000,0.0324,0.013523,0.002678,0.000431,0.960558
31000,0.0324,0.013523,0.002678,0.000431,0.854077
32000,0.0324,0.013523,0.002678,0.000431,0.916720
33000,0.0324,0.013523,0.002678,0.000431,0.937170
34000,0.0324,0.013523,0.002678,0.000431,0.897210
35000,0.0324,0.013523,0.002678,0.000431,0.907905
36000,0.0324,0.013523,0.002678,0.000431,0.817761
37000,0.0324,0.013523,0.002678,0.000431,0.952331
38000,0.0324,0.013523,0.002678,0.000431,0.877583
39000,0.0324,0.013523,0.002678,0.000431,0.932939
40000,0.0324,0.013523,0.002678,0.000431,0.787439
41000,0.0324,0.013523,0.002678,0.000431,0.882402
42000,0.0324,0.013523,0.002678,0.000431,0.793198
43000,0.0324,0.013523,0.002678,0.000431,0.863244
44000,0.0324,0.013523,0.002678,0.000431,0.876995
45000,0.0324,0.013523,0.002678,0.000431,0.848671
46000,0.0324,0.013523,0.002678,0.000431,0.816703
47000,0.0324,0.013523,0.002678,0.000431,0.844205
48000,0.0324,0.013523,0.002678,0.000431,0.841619
49000,0.0324,0.013523,0.002678,0.000431,0.820699
50000,0.0324,0.013523,0.002678,0.000431,0.812355
51000,0.0324,0.013523,0.002678,0.000431,0.808241
52000,0.0324,0.013523,0.002678,0.000431,0.850551
53000,0.0324,0.013523,0.002678,0.000431,0.797194
54000,0.0324,0.013523,0.002678,0.000431,0.782033
55000,0.0324,0.013523,0.002678,0.000431,0.795548
56000,0.0324,0.013523,0.002678,0.000431,0.783795
57000,0.0324,0.013523,0.002678,0.000431,0.744306
58000,0.0324,0.013523,0.002678,0.000431,0.779799
59000,0.0324,0.013523,0.002678,0.000431,0.778154
60000,0.0324,0.013523,0.002678,0.000431,0.753708
61000,0.0324,0.013523,0.002678,0.000431,0.732788
62000,0.0324,0.013523,0.002678,0.000431,0.721976
63000,0.0324,0.013523,0.002678,0.000431,0.720565
64000,0.0324,0.013523,0.002678,0.000431,0.695297
65000,0.0324,0.013523,0.002678,0.000431,0.705404
66000,0.0324,0.013523,0.002678,0.000431,0.752533
67000,0.0324,0.013523,0.002678,0.000431,0.695532
68000,0.0324,0.013523,0.002678,0.000431,0.656865
69000,0.0324,0.013523,0.002678,0.000431,0.660508
70000,0.0324,0.013523,0.002678,0.000431,0.646640
71000,0.0324,0.013523,0.002678,0.000431,0.630186
72000,0.0324,0.013523,0.002678,0.000431,0.656747
73000,0.0324,0.013523,0.002678,0.000431,0.640881
74000,0.0324,0.013523,0.002678,0.000431,0.621019
75000,0.0324,0.013523,0.002678,0.000431,0.587993
76000,0.0324,0.013523,0.002678,0.000431,0.598101
77000,0.0324,0.013523,0.002678,0.000431,0.570129
78000,0.0324,0.013523,0.002678,0.000431,0.538632
79000,0.0324,0.013523,0.002678,0.000431,0.563783
80000,0.0324,0.013523,0.002678,0.000431,0.559199
81000,0.0324,0.013523,0.002678,0.000431,0.554145
82000,0.0324,0.013523,0.002678,0.000431,0.538044
83000,0.0324,0.013523,0.002678,0.000431,0.514421
84000,0.0324,0.013523,0.002678,0.000431,0.533108
85000,0.0324,0.013523,0.002678,0.000431,0.535223
86000,0.0324,0.013523,0.002678,0.000431,0.488682
87000,0.0324,0.013523,0.002678,0.000431,0.497614
88000,0.0324,0.013523,0.002678,0.000431,0.493971
89000,0.0324,0.013523,0.002678,0.000431,0.465647
90000,0.0324,0.013523,0.002678,0.000431,0.460593
91000,0.0324,0.013523,0.002678,0.000431,0.479985
92000,0.0324,0.013523,0.002678,0.000431,0.454952
93000,0.0324,0.013523,0.002678,0.000431,0.442964
94000,0.0324,0.013523,0.002678,0.000431,0.454599
95000,0.0324,0.013523,0.002678,0.000431,0.427097
96000,0.0324,0.013523,0.002678,0.000431,0.419105
97000,0.0324,0.013523,0.002678,0.000431,0.426510
98000,0.0324,0.013523,0.002678,0.000431,0.392192
99000,0.0324,0.013523,0.002678,0.000431,0.417578
100000,0.0324,0.013523,0.002678,0.000431,0.393249
101000,0.0324,0.013523,0.002678,0.000431,0.381261
102000,0.0324,0.013523,0.002678,0.000431,0.389841
103000,0.0324,0.013523,0.002678,0.000431,0.374797
104000,0.0324,0.013523,0.002678,0.000431,0.383024
105000,0.0324,0.013523,0.002678,0.000431,0.364220
106000,0.0324,0.013523,0.002678,0.000431,0.365513
107000,0.0324,0.013523,0.002678,0.000431,0.342125
108000,0.0324,0.013523,0.002678,0.000431,0.357403
109000,0.0324,0.013523,0.002678,0.000431,0.339186
110000,0.0324,0.013523,0.002678,0.000431,0.354583
111000,0.0324,0.013523,0.002678,0.000431,0.333192
112000,0.0324,0.013523,0.002678,0.000431,0.326258
113000,0.0324,0.013523,0.002678,0.000431,0.316033
114000,0.0324,0.013523,0.002678,0.000431,0.323203
115000,0.0324,0.013523,0.002678,0.000431,0.300637
116000,0.0324,0.013523,0.002678,0.000431,0.302282
117000,0.0324,0.013523,0.002678,0.000431,0.315916
118000,0.0324,0.013523,0.002678,0.000431,0.298522
119000,0.0324,0.013523,0.002678,0.000431,0.295231
120000,0.0324,0.013523,0.002678,0.000431,0.318149
121000,0.0324,0.013523,0.002678,0.000431,0.296289
122000,0.0324,0.013523,0.002678,0.000431,0.298639
123000,0.0324,0.013523,0.002678,0.000431,0.279012
124000,0.0324,0.013523,0.002678,0.000431,0.281245
125000,0.0324,0.013523,0.002678,0.000431,0.283478
126000,0.0324,0.013523,0.002678,0.000431,0.269727
127000,0.0324,0.013523,0.002678,0.000431,0.288884
128000,0.0324,0.013523,0.002678,0.000431,0.275956
129000,0.0324,0.013523,0.002678,0.000431,0.273958
130000,0.0324,0.013523,0.002678,0.000431,0.268317
131000,0.0324,0.013523,0.002678,0.000431,0.266436
132000,0.0324,0.013523,0.002678,0.000431,0.263381
133000,0.0324,0.013523,0.002678,0.000431,0.262205
134000,0.0324,0.013523,0.002678,0.000431,0.266084
135000,0.0324,0.013523,0.002678,0.000431,0.257622
136000,0.0324,0.013523,0.002678,0.000431,0.265261
137000,0.0324,0.013523,0.002678,0.000431,0.247867
138000,0.0324,0.013523,0.002678,0.000431,0.249512
139000,0.0324,0.013523,0.002678,0.000431,0.249865
140000,0.0324,0.013523,0.002678,0.000431,0.246927
141000,0.0324,0.013523,0.002678,0.000431,0.243636
142000,0.0324,0.013523,0.002678,0.000431,0.236702
143000,0.0324,0.013523,0.002678,0.000431,0.241873
144000,0.0324,0.013523,0.002678,0.000431,0.234586
145000,0.0324,0.013523,0.002678,0.000431,0.242343
146000,0.0324,0.013523,0.002678,0.000431,0.232118
147000,0.0324,0.013523,0.002678,0.000431,0.218955
148000,0.0324,0.013523,0.002678,0.000431,0.225537
149000,0.0324,0.013523,0.002678,0.000431,0.230003
150000,0.0324,0.013523,0.002678,0.000431,0.220365
151000,0.0324,0.013523,0.002678,0.000431,0.224714
152000,0.0324,0.013523,0.002678,0.000431,0.216369
153000,0.0324,0.013523,0.002678,0.000431,0.207320
154000,0.0324,0.013523,0.002678,0.000431,0.220600
155000,0.0324,0.013523,0.002678,0.000431,0.224714
156000,0.0324,0.013523,0.002678,0.000431,0.210375
157000,0.0324,0.013523,0.002678,0.000431,0.213666
158000,0.0324,0.013523,0.002678,0.000431,0.219190
159000,0.0324,0.013523,0.002678,0.000431,0.205909
160000,0.0324,0.013523,0.002678,0.000431,0.205792
161000,0.0324,0.013523,0.002678,0.000431,0.208377
162000,0.0324,0.013523,0.002678,0.000431,0.207790
163000,0.0324,0.013523,0.002678,0.000431,0.201678
164000,0.0324,0.013523,0.002678,0.000431,0.198505
165000,0.0324,0.013523,0.002678,0.000431,0.196272
166000,0.0324,0.013523,0.002678,0.000431,0.190513
167000,0.0324,0.013523,0.002678,0.000431,0.199445
168000,0.0324,0.013523,0.002678,0.000431,0.192864
169000,0.0324,0.013523,0.002678,0.000431,0.187105
170000,0.0324,0.013523,0.002678,0.000431,0.192276
171000,0.0324,0.013523,0.002678,0.000431,0.178055
172000,0.0324,0.013523,0.002678,0.000431,0.180171
173000,0.0324,0.013523,0.002678,0.000431,0.188045
174000,0.0324,0.013523,0.002678,0.000431,0.181228
175000,0.0324,0.013523,0.002678,0.000431,0.180993
176000,0.0324,0.013523,0.002678,0.000431,0.185577
177000,0.0324,0.013523,0.002678,0.000431,0.177468
178000,0.0324,0.013523,0.002678,0.000431,0.175235
179000,0.0324,0.013523,0.002678,0.000431,0.180876
180000,0.0324,0.013523,0.002678,0.000431,0.172061
181000,0.0324,0.013523,0.002678,0.000431,0.169358
182000,0.0324,0.013523,0.002678,0.000431,0.160896
183000,0.0324,0.013523,0.002678,0.000431,0.166302
184000,0.0324,0.013523,0.002678,0.000431,0.165597
185000,0.0324,0.013523,0.002678,0.000431,0.166890
186000,0.0324,0.013523,0.002678,0.000431,0.162541
187000,0.0324,0.013523,0.002678,0.000431,0.156783
188000,0.0324,0.013523,0.002678,0.000431,0.165480
189000,0.0324,0.013523,0.002678,0.000431,0.172414
190000,0.0324,0.013523,0.002678,0.000431,0.160191
191000,0.0324,0.013523,0.002678,0.000431,0.152552
192000,0.0324,0.013523,0.002678,0.000431,0.161719
193000,0.0324,0.013523,0.002678,0.000431,0.152669
194000,0.0324,0.013523,0.002678,0.000431,0.158075
195000,0.0324,0.013523,0.002678,0.000431,0.155490
196000,0.0324,0.013523,0.002678,0.000431,0.154315
197000,0.0324,0.013523,0.002678,0.000431,0.147263
198000,0.0324,0.013523,0.002678,0.000431,0.148203
199000,0.0324,0.013523,0.002678,0.000431,0.152552
200000,0.0324,0.013523,0.002678,0.000431,0.147733
201000,0.0324,0.013523,0.002678,0.000431,0.146088
202000,0.0324,0.013523,0.002678,0.000431,0.145617
203000,0.0324,0.013523,0.002678,0.000431,0.141386
204000,0.0324,0.013523,0.002678,0.000431,0.143972
205000,0.0324,0.013523,0.002678,0.000431,0.144207
206000,0.0324,0.013523,0.002678,0.000431,0.137861
207000,0.0324,0.013523,0.002678,0.000431,0.147850
208000,0.0324,0.013523,0.002678,0.000431,0.138566
209000,0.0324,0.013523,0.002678,0.000431,0.140681
210000,0.0324,0.013523,0.002678,0.000431,0.136450
211000,0.0324,0.013523,0.002678,0.000431,0.137743
212000,0.0324,0.013523,0.002678,0.000431,0.134335
213000,0.0324,0.013523,0.002678,0.000431,0.135980
214000,0.0324,0.013523,0.002678,0.000431,0.132102
215000,0.0324,0.013523,0.002678,0.000431,0.131514
216000,0.0324,0.013523,0.002678,0.000431,0.127283
217000,0.0324,0.013523,0.002678,0.000431,0.131514
218000,0.0324,0.013523,0.002678,0.000431,0.127283
219000,0.0324,0.013523,0.002678,0.000431,0.131397
220000,0.0324,0.013523,0.002678,0.000431,0.126695
221000,0.0324,0.013523,0.002678,0.000431,0.122934
222000,0.0324,0.013523,0.002678,0.000431,0.121172
223000,0.0324,0.013523,0.002678,0.000431,0.123522
224000,0.0324,0.013523,0.002678,0.000431,0.120584
225000,0.0324,0.013523,0.002678,0.000431,0.123405
226000,0.0324,0.013523,0.002678,0.000431,0.120701
227000,0.0324,0.013523,0.002678,0.000431,0.121289
228000,0.0324,0.013523,0.002678,0.000431,0.121759
229000,0.0324,0.013523,0.002678,0.000431,0.118468
230000,0.0324,0.013523,0.002678,0.000431,0.117528
231000,0.0324,0.013523,0.002678,0.000431,0.116705
232000,0.0324,0.013523,0.002678,0.000431,0.114943
233000,0.0324,0.013523,0.002678,0.000431,0.112710
234000,0.0324,0.013523,0.002678,0.000431,0.117646
235000,0.0324,0.013523,0.002678,0.000431,0.118821
236000,0.0324,0.013523,0.002678,0.000431,0.112239
237000,0.0324,0.013523,0.002678,0.000431,0.114825
238000,0.0324,0.013523,0.002678,0.000431,0.113650
239000,0.0324,0.013523,0.002678,0.000431,0.120114
240000,0.0324,0.013523,0.002678,0.000431,0.110359
241000,0.0324,0.013523,0.002678,0.000431,0.111064
242000,0.0324,0.013523,0.002678,0.000431,0.111534
243000,0.0324,0.013523,0.002678,0.000431,0.115413
244000,0.0324,0.013523,0.002678,0.000431,0.116588
245000,0.0324,0.013523,0.002678,0.000431,0.111299
246000,0.0324,0.013523,0.002678,0.000431,0.108596
247000,0.0324,0.013523,0.002678,0.000431,0.106598
248000,0.0324,0.013523,0.002678,0.000431,0.115060
249000,0.0324,0.013523,0.002678,0.000431,0.112239
250000,0.0324,0.013523,0.002678,0.000431,0.106245
251000,0.0324,0.013523,0.002678,0.000431,0.106245
252000,0.0324,0.013523,0.002678,0.000431,0.108126
253000,0.0324,0.013523,0.002678,0.000431,0.105188
254000,0.0324,0.013523,0.002678,0.000431,0.107773
255000,0.0324,0.013523,0.002678,0.000431,0.105070
256000,0.0324,0.013523,0.002678,0.000431,0.105423
257000,0.0324,0.013523,0.002678,0.000431,0.096961
258000,0.0324,0.013523,0.002678,0.000431,0.095315
259000,0.0324,0.013523,0.002678,0.000431,0.096961
260000,0.0324,0.013523,0.002678,0.000431,0.097078
261000,0.0324,0.013523,0.002678,0.000431,0.101662
262000,0.0324,0.013523,0.002678,0.000431,0.095903
263000,0.0324,0.013523,0.002678,0.000431,0.092965
264000,0.0324,0.013523,0.002678,0.000431,0.098606
265000,0.0324,0.013523,0.002678,0.000431,0.099311
266000,0.0324,0.013523,0.002678,0.000431,0.095433
267000,0.0324,0.013523,0.002678,0.000431,0.096021
268000,0.0324,0.013523,0.002678,0.000431,0.086618
269000,0.0324,0.013523,0.002678,0.000431,0.094610
270000,0.0324,0.013523,0.002678,0.000431,0.090967
271000,0.0324,0.013523,0.002678,0.000431,0.092260
272000,0.0324,0.013523,0.002678,0.000431,0.089909
273000,0.0324,0.013523,0.002678,0.000431,0.093670
274000,0.0324,0.013523,0.002678,0.000431,0.091084
275000,0.0324,0.013523,0.002678,0.000431,0.092025
276000,0.0324,0.013523,0.002678,0.000431,0.093670
277000,0.0324,0.013523,0.002678,0.000431,0.084738
278000,0.0324,0.013523,0.002678,0.000431,0.087323
279000,0.0324,0.013523,0.002678,0.000431,0.091554
280000,0.0324,0.013523,0.002678,0.000431,0.090497
281000,0.0324,0.013523,0.002678,0.000431,0.090144
282000,0.0324,0.013523,0.002678,0.000431,0.090849
283000,0.0324,0.013523,0.002678,0.000431,0.090262
284000,0.0324,0.013523,0.002678,0.000431,0.091319
285000,0.0324,0.013523,0.002678,0.000431,0.082387
286000,0.0324,0.013523,0.002678,0.000431,0.086383
287000,0.0324,0.013523,0.002678,0.000431,0.083798
288000,0.0324,0.013523,0.002678,0.000431,0.088146
289000,0.0324,0.013523,0.002678,0.000431,0.083092
290000,0.0324,0.013523,0.002678,0.000431,0.086736
291000,0.0324,0.013523,0.002678,0.000431,0.089439
292000,0.0324,0.013523,0.002678,0.000431,0.088969
293000,0.0324,0.013523,0.002678,0.000431,0.089674
294000,0.0324,0.013523,0.002678,0.000431,0.079802
295000,0.0324,0.013523,0.002678,0.000431,0.085913
296000,0.0324,0.013523,0.002678,0.000431,0.080742
297000,0.0324,0.013523,0.002678,0.000431,0.087206
298000,0.0324,0.013523,0.002678,0.000431,0.081565
299000,0.0324,0.013523,0.002678,0.000431,0.082975
300000,0.0324,0.013523,0.002678,0.000431,0.080272
301000,0.0324,0.013523,0.002678,0.000431,0.084620
302000,0.0324,0.013523,0.002678,0.000431,0.085561
303000,0.0324,0.013523,0.002678,0.000431,0.083563
304000,0.0324,0.013523,0.002678,0.000431,0.084738
305000,0.0324,0.013523,0.002678,0.000431,0.081447
306000,0.0324,0.013523,0.002678,0.000431,0.079919
307000,0.0324,0.013523,0.002678,0.000431,0.080977
308000,0.0324,0.013523,0.002678,0.000431,0.081682
309000,0.0324,0.013523,0.002678,0.000431,0.078626
310000,0.0324,0.013523,0.002678,0.000431,0.081094
311000,0.0324,0.013523,0.002678,0.000431,0.079802
312000,0.0324,0.013523,0.002678,0.000431,0.077216
313000,0.0324,0.013523,0.002678,0.000431,0.077804
314000,0.0324,0.013523,0.002678,0.000431,0.081212
315000,0.0324,0.013523,0.002678,0.000431,0.076158
316000,0.0324,0.013523,0.002678,0.000431,0.078861
317000,0.0324,0.013523,0.002678,0.000431,0.078039
318000,0.0324,0.013523,0.002678,0.000431,0.076511
319000,0.0324,0.013523,0.002678,0.000431,0.075806
320000,0.0324,0.013523,0.002678,0.000431,0.073808
321000,0.0324,0.013523,0.002678,0.000431,0.073455
322000,0.0324,0.013523,0.002678,0.000431,0.076746
323000,0.0324,0.013523,0.002678,0.000431,0.071222
324000,0.0324,0.013523,0.002678,0.000431,0.071575
325000,0.0324,0.013523,0.002678,0.000431,0.073573
326000,0.0324,0.013523,0.002678,0.000431,0.072397
327000,0.0324,0.013523,0.002678,0.000431,0.074160
328000,0.0324,0.013523,0.002678,0.000431,0.071810
329000,0.0324,0.013523,0.002678,0.000431,0.074160
330000,0.0324,0.013523,0.002678,0.000431,0.073808
331000,0.0324,0.013523,0.002678,0.000431,0.068872
332000,0.0324,0.013523,0.002678,0.000431,0.070752
333000,0.0324,0.013523,0.002678,0.000431,0.068401
334000,0.0324,0.013523,0.002678,0.000431,0.070282
335000,0.0324,0.013523,0.002678,0.000431,0.066874
336000,0.0324,0.013523,0.002678,0.000431,0.064993
337000,0.0324,0.013523,0.002678,0.000431,0.072045
338000,0.0324,0.013523,0.002678,0.000431,0.070987
339000,0.0324,0.013523,0.002678,0.000431,0.067109
340000,0.0324,0.013523,0.002678,0.000431,0.065933
341000,0.0324,0.013523,0.002678,0.000431,0.064993
342000,0.0324,0.013523,0.002678,0.000431,0.066051
343000,0.0324,0.013523,0.002678,0.000431,0.066756
344000,0.0324,0.013523,0.002678,0.000431,0.068754
345000,0.0324,0.013523,0.002678,0.000431,0.069694
346000,0.0324,0.013523,0.002678,0.000431,0.065698
347000,0.0324,0.013523,0.002678,0.000431,0.064758
348000,0.0324,0.013523,0.002678,0.000431,0.066051
349000,0.0324,0.013523,0.002678,0.000431,0.061820
350000,0.0324,0.013523,0.002678,0.000431,0.057354
351000,0.0324,0.013523,0.002678,0.000431,0.059822
352000,0.0324,0.013523,0.002678,0.000431,0.064876
353000,0.0324,0.013523,0.002678,0.000431,0.059822
354000,0.0324,0.013523,0.002678,0.000431,0.064993
355000,0.0324,0.013523,0.002678,0.000431,0.066286
356000,0.0324,0.013523,0.002678,0.000431,0.060645
357000,0.0324,0.013523,0.002678,0.000431,0.061350
358000,0.0324,0.013523,0.002678,0.000431,0.061585
359000,0.0324,0.013523,0.002678,0.000431,0.060880
360000,0.0324,0.013523,0.002678,0.000431,0.060174
361000,0.0324,0.013523,0.002678,0.000431,0.061115
362000,0.0324,0.013523,0.002678,0.000431,0.060762
363000,0.0324,0.013523,0.002678,0.000431,0.062055
364000,0.0324,0.013523,0.002678,0.000431,0.058999
365000,0.0324,0.013523,0.002678,0.000431,0.060527
366000,0.0324,0.013523,0.002678,0.000431,0.060762
367000,0.0324,0.013523,0.002678,0.000431,0.057941
368000,0.0324,0.013523,0.002678,0.000431,0.059234
369000,0.0324,0.013523,0.002678,0.000431,0.062290
370000,0.0324,0.013523,0.002678,0.000431,0.058764
371000,0.0324,0.013523,0.002678,0.000431,0.060997
372000,0.0324,0.013523,0.002678,0.000431,0.059352
373000,0.0324,0.013523,0.002678,0.000431,0.060527
374000,0.0324,0.013523,0.002678,0.000431,0.061467
375000,0.0324,0.013523,0.002678,0.000431,0.059822
376000,0.0324,0.013523,0.002678,0.000431,0.057119
377000,0.0324,0.013523,0.002678,0.000431,0.056178
378000,0.0324,0.013523,0.002678,0.000431,0.058176
379000,0.0324,0.013523,0.002678,0.000431,0.054533
380000,0.0324,0.013523,0.002678,0.000431,0.052888
381000,0.0324,0.013523,0.002678,0.000431,0.057941
382000,0.0324,0.013523,0.002678,0.000431,0.057354
383000,0.0324,0.013523,0.002678,0.000431,0.057471
384000,0.0324,0.013523,0.002678,0.000431,0.052770
385000,0.0324,0.013523,0.002678,0.000431,0.056296
386000,0.0324,0.013523,0.002678,0.000431,0.052535
387000,0.0324,0.013523,0.002678,0.000431,0.055943
388000,0.0324,0.013523,0.002678,0.000431,0.054886
389000,0.0324,0.013523,0.002678,0.000431,0.052183
390000,0.0324,0.013523,0.002678,0.000431,0.057001
391000,0.0324,0.013523,0.002678,0.000431,0.053710
392000,0.0324,0.013523,0.002678,0.000431,0.050302
393000,0.0324,0.013523,0.002678,0.000431,0.053593
394000,0.0324,0.013523,0.002678,0.000431,0.051477
395000,0.0324,0.013523,0.002678,0.000431,0.050890
396000,0.0324,0.013523,0.002678,0.000431,0.053123
397000,0.0324,0.013523,0.002678,0.000431,0.051830
398000,0.0324,0.013523,0.002678,0.000431,0.050772
399000,0.0324,0.013523,0.002678,0.000431,0.051712
400000,0.0324,0.013523,0.002678,0.000431,0.053240
401000,0.0324,0.013523,0.002678,0.000431,0.051712
402000,0.0324,0.013523,0.002678,0.000431,0.051830
403000,0.0324,0.013523,0.002678,0.000431,0.049949
404000,0.0324,0.013523,0.002678,0.000431,0.052300
405000,0.0324,0.013523,0.002678,0.000431,0.050185
406000,0.0324,0.013523,0.002678,0.000431,0.049479
407000,0.0324,0.013523,0.002678,0.000431,0.051007
408000,0.0324,0.013523,0.002678,0.000431,0.046894
409000,0.0324,0.013523,0.002678,0.000431,0.049244
410000,0.0324,0.013523,0.002678,0.000431,0.047011
411000,0.0324,0.013523,0.002678,0.000431,0.048187
412000,0.0324,0.013523,0.002678,0.000431,0.047246
413000,0.0324,0.013523,0.002678,0.000431,0.048892
414000,0.0324,0.013523,0.002678,0.000431,0.049362
415000,0.0324,0.013523,0.002678,0.000431,0.047364
416000,0.0324,0.013523,0.002678,0.000431,0.048069
417000,0.0324,0.013523,0.002678,0.000431,0.046071
418000,0.0324,0.013523,0.002678,0.000431,0.046541
419000,0.0324,0.013523,0.002678,0.000431,0.047246
420000,0.0324,0.013523,0.002678,0.000431,0.046776
421000,0.0324,0.013523,0.002678,0.000431,0.048892
422000,0.0324,0.013523,0.002678,0.000431,0.043603
423000,0.0324,0.013523,0.002678,0.000431,0.045836
424000,0.0324,0.013523,0.002678,0.000431,0.044073
425000,0.0324,0.013523,0.002678,0.000431,0.044426
426000,0.0324,0.013523,0.002678,0.000431,0.047011
427000,0.0324,0.013523,0.002678,0.000431,0.046071
428000,0.0324,0.013523,0.002678,0.000431,0.046424
429000,0.0324,0.013523,0.002678,0.000431,0.046424
430000,0.0324,0.013523,0.002678,0.000431,0.045718
431000,0.0324,0.013523,0.002678,0.000431,0.048774
432000,0.0324,0.013523,0.002678,0.000431,0.045601
433000,0.0324,0.013523,0.002678,0.000431,0.045131
434000,0.0324,0.013523,0.002678,0.000431,0.045366
435000,0.0324,0.013523,0.002678,0.000431,0.045836
436000,0.0324,0.013523,0.002678,0.000431,0.042428
437000,0.0324,0.013523,0.002678,0.000431,0.045836
438000,0.0324,0.013523,0.002678,0.000431,0.042193
439000,0.0324,0.013523,0.002678,0.000431,0.042310
440000,0.0324,0.013523,0.002678,0.000431,0.041017
441000,0.0324,0.013523,0.002678,0.000431,0.043603
442000,0.0324,0.013523,0.002678,0.000431,0.043133
443000,0.0324,0.013523,0.002678,0.000431,0.043368
444000,0.0324,0.013523,0.002678,0.000431,0.039725
445000,0.0324,0.013523,0.002678,0.000431,0.041487
446000,0.0324,0.013523,0.002678,0.000431,0.042310
447000,0.0324,0.013523,0.002678,0.000431,0.044308
448000,0.0324,0.013523,0.002678,0.000431,0.039489
449000,0.0324,0.013523,0.002678,0.000431,0.041252
450000,0.0324,0.013523,0.002678,0.000431,0.040077
451000,0.0324,0.013523,0.002678,0.000431,0.040312
452000,0.0324,0.013523,0.002678,0.000431,0.039019
453000,0.0324,0.013523,0.002678,0.000431,0.040312
454000,0.0324,0.013523,0.002678,0.000431,0.041017
455000,0.0324,0.013523,0.002678,0.000431,0.040430
456000,0.0324,0.013523,0.002678,0.000431,0.041017
457000,0.0324,0.013523,0.002678,0.000431,0.039960
458000,0.0324,0.013523,0.002678,0.000431,0.041723
459000,0.0324,0.013523,0.002678,0.000431,0.040430
460000,0.0324,0.013523,0.002678,0.000431,0.041487
461000,0.0324,0.013523,0.002678,0.000431,0.038784
462000,0.0324,0.013523,0.002678,0.000431,0.039254
463000,0.0324,0.013523,0.002678,0.000431,0.039019
464000,0.0324,0.013523,0.002678,0.000431,0.039960
465000,0.0324,0.013523,0.002678,0.000431,0.038902
466000,0.0324,0.013523,0.002678,0.000431,0.038314
467000,0.0324,0.013523,0.002678,0.000431,0.041252
468000,0.0324,0.013523,0.002678,0.000431,0.040195
469000,0.0324,0.013523,0.002678,0.000431,0.040077
470000,0.0324,0.013523,0.002678,0.000431,0.039137
471000,0.0324,0.013523,0.002678,0.000431,0.037256
472000,0.0324,0.013523,0.002678,0.000431,0.037139
473000,0.0324,0.013523,0.002678,0.000431,0.037256
474000,0.0324,0.013523,0.002678,0.000431,0.036199
475000,0.0324,0.013523,0.002678,0.000431,0.039254
476000,0.0324,0.013523,0.002678,0.000431,0.037021
477000,0.0324,0.013523,0.002678,0.000431,0.036081
478000,0.0324,0.013523,0.002678,0.000431,0.036669
479000,0.0324,0.013523,0.002678,0.000431,0.034788
480000,0.0324,0.013523,0.002678,0.000431,0.035141
481000,0.0324,0.013523,0.002678,0.000431,0.035494
482000,0.0324,0.013523,0.002678,0.000431,0.036081
483000,0.0324,0.013523,0.002678,0.000431,0.038549
484000,0.0324,0.013523,0.002678,0.000431,0.036081
485000,0.0324,0.013523,0.002678,0.000431,0.035729
486000,0.0324,0.013523,0.002678,0.000431,0.034201
487000,0.0324,0.013523,0.002678,0.000431,0.032673
488000,0.0324,0.013523,0.002678,0.000431,0.033143
489000,0.0324,0.013523,0.002678,0.000431,0.034553
490000,0.0324,0.013523,0.002678,0.000431,0.032908
491000,0.0324,0.013523,0.002678,0.000431,0.033496
492000,0.0324,0.013523,0.002678,0.000431,0.032673
493000,0.0324,0.013523,0.002678,0.000431,0.032908
494000,0.0324,0.013523,0.002678,0.000431,0.034201
495000,0.0324,0.013523,0.002678,0.000431,0.031850
496000,0.0324,0.013523,0.002678,0.000431,0.035141
497000,0.0324,0.013523,0.002678,0.000431,0.031733
498000,0.0324,0.013523,0.002678,0.000431,0.031968
499000,0.0324,0.013523,0.002678,0.000431,0.032908
500000,0.0324,0.013523,0.002678,0.000431,0.029852
501000,0.0324,0.013523,0.002678,0.000431,0.031733
502000,0.0324,0.013523,0.002678,0.000431,0.030675
503000,0.0324,0.013523,0.002678,0.000431,0.031027
504000,0.0324,0.013523,0.002678,0.000431,0.031027
505000,0.0324,0.013523,0.002678,0.000431,0.031615
506000,0.0324,0.013523,0.002678,0.000431,0.031733
507000,0.0324,0.013523,0.002678,0.000431,0.030910
508000,0.0324,0.013523,0.002678,0.000431,0.031027
509000,0.0324,0.013523,0.002678,0.000431,0.029500
510000,0.0324,0.013523,0.002678,0.000431,0.029617
511000,0.0324,0.013523,0.002678,0.000431,0.029147
512000,0.0324,0.013523,0.002678,0.000431,0.027619
513000,0.0324,0.013523,0.002678,0.000431,0.027972
514000,0.0324,0.013523,0.002678,0.000431,0.028442
515000,0.0324,0.013523,0.002678,0.000431,0.028207
516000,0.0324,0.013523,0.002678,0.000431,0.028442
517000,0.0324,0.013523,0.002678,0.000431,0.027031
518000,0.0324,0.013523,0.002678,0.000431,0.027267
519000,0.0324,0.013523,0.002678,0.000431,0.026796
520000,0.0324,0.013523,0.002678,0.000431,0.027267
521000,0.0324,0.013523,0.002678,0.000431,0.026679
522000,0.0324,0.013523,0.002678,0.000431,0.025974
523000,0.0324,0.013523,0.002678,0.000431,0.026679
524000,0.0324,0.013523,0.002678,0.000431,0.026796
525000,0.0324,0.013523,0.002678,0.000431,0.025856
526000,0.0324,0.013523,0.002678,0.000431,0.026091
527000,0.0324,0.013523,0.002678,0.000431,0.024916
528000,0.0324,0.013523,0.002678,0.000431,0.025856
529000,0.0324,0.013523,0.002678,0.000431,0.024446
530000,0.0324,0.013523,0.002678,0.000431,0.024916
531000,0.0324,0.013523,0.002678,0.000431,0.023623
532000,0.0324,0.013523,0.002678,0.000431,0.025856
533000,0.0324,0.013523,0.002678,0.000431,0.025739
534000,0.0324,0.013523,0.002678,0.000431,0.024681
535000,0.0324,0.013523,0.002678,0.000431,0.024916
536000,0.0324,0.013523,0.002678,0.000431,0.025504
537000,0.0324,0.013523,0.002678,0.000431,0.025034
538000,0.0324,0.013523,0.002678,0.000431,0.024093
539000,0.0324,0.013523,0.002678,0.000431,0.024446
540000,0.0324,0.013523,0.002678,0.000431,0.024093
541000,0.0324,0.013523,0.002678,0.000431,0.024798
542000,0.0324,0.013523,0.002678,0.000431,0.026091
543000,0.0324,0.013523,0.002678,0.000431,0.022800
544000,0.0324,0.013523,0.002678,0.000431,0.023388
545000,0.0324,0.013523,0.002678,0.000431,0.022918
546000,0.0324,0.013523,0.002678,0.000431,0.023858
547000,0.0324,0.013523,0.002678,0.000431,0.023271
548000,0.0324,0.013523,0.002678,0.000431,0.021978
549000,0.0324,0.013523,0.002678,0.000431,0.021860
550000,0.0324,0.013523,0.002678,0.000431,0.022330
551000,0.0324,0.013523,0.002678,0.000431,0.020920
552000,0.0324,0.013523,0.002678,0.000431,0.021743
553000,0.0324,0.013523,0.002678,0.000431,0.021390
554000,0.0324,0.013523,0.002678,0.000431,0.021743
555000,0.0324,0.013523,0.002678,0.000431,0.020332
556000,0.0324,0.013523,0.002678,0.000431,0.019862
557000,0.0324,0.013523,0.002678,0.000431,0.020920
558000,0.0324,0.013523,0.002678,0.000431,0.020332
559000,0.0324,0.013523,0.002678,0.000431,0.020450
560000,0.0324,0.013523,0.002678,0.000431,0.022330
561000,0.0324,0.013523,0.002678,0.000431,0.022330
562000,0.0324,0.013523,0.002678,0.000431,0.020450
563000,0.0324,0.013523,0.002678,0.000431,0.019275
564000,0.0324,0.013523,0.002678,0.000431,0.019745
565000,0.0324,0.013523,0.002678,0.000431,0.020920
566000,0.0324,0.013523,0.002678,0.000431,0.019745
567000,0.0324,0.013523,0.002678,0.000431,0.020332
568000,0.0324,0.013523,0.002678,0.000431,0.020802
569000,0.0324,0.013523,0.002678,0.000431,0.019392
570000,0.0324,0.013523,0.002678,0.000431,0.019040
571000,0.0324,0.013523,0.002678,0.000431,0.018099
572000,0.0324,0.013523,0.002678,0.000431,0.018569
573000,0.0324,0.013523,0.002678,0.000431,0.019275
574000,0.0324,0.013523,0.002678,0.000431,0.018805
575000,0.0324,0.013523,0.002678,0.000431,0.019275
576000,0.0324,0.013523,0.002678,0.000431,0.019157
577000,0.0324,0.013523,0.002678,0.000431,0.017277
578000,0.0324,0.013523,0.002678,0.000431,0.019157
579000,0.0324,0.013523,0.002678,0.000431,0.018687
580000,0.0324,0.013523,0.002678,0.000431,0.017982
581000,0.0324,0.013523,0.002678,0.000431,0.018687
582000,0.0324,0.013523,0.002678,0.000431,0.019157
583000,0.0324,0.013523,0.002678,0.000431,0.018334
584000,0.0324,0.013523,0.002678,0.000431,0.019392
585000,0.0324,0.013523,0.002678,0.000431,0.019157
586000,0.0324,0.013523,0.002678,0.000431,0.018452
587000,0.0324,0.013523,0.002678,0.000431,0.017864
588000,0.0324,0.013523,0.002678,0.000431,0.018922
589000,0.0324,0.013523,0.002678,0.000431,0.017864
590000,0.0324,0.013523,0.002678,0.000431,0.017042
591000,0.0324,0.013523,0.002678,0.000431,0.017042
592000,0.0324,0.013523,0.002678,0.000431,0.018569
593000,0.0324,0.013523,0.002678,0.000431,0.017159
594000,0.0324,0.013523,0.002678,0.000431,0.017394
595000,0.0324,0.013523,0.002678,0.000431,0.017864
596000,0.0324,0.013523,0.002678,0.000431,0.019040
597000,0.0324,0.013523,0.002678,0.000431,0.017512
598000,0.0324,0.013523,0.002678,0.000431,0.017277
599000,0.0324,0.013523,0.002678,0.000431,0.018334
600000,0.0324,0.013523,0.002678,0.000431,0.015749
601000,0.0324,0.013523,0.002678,0.000431,0.018099
602000,0.0324,0.013523,0.002678,0.000431,0.016219
603000,0.0324,0.013523,0.002678,0.000431,0.015161
604000,0.0324,0.013523,0.002678,0.000431,0.014573
605000,0.0324,0.013523,0.002678,0.000431,0.016571
606000,0.0324,0.013523,0.002678,0.000431,0.015161
607000,0.0324,0.013523,0.002678,0.000431,0.016219
608000,0.0324,0.013523,0.002678,0.000431,0.013633
609000,0.0324,0.013523,0.002678,0.000431,0.014221
610000,0.0324,0.013523,0.002678,0.000431,0.013398
611000,0.0324,0.013523,0.002678,0.000431,0.014691
612000,0.0324,0.013523,0.002678,0.000431,0.013868
613000,0.0324,0.013523,0.002678,0.000431,0.013398
614000,0.0324,0.013523,0.002678,0.000431,0.013633
615000,0.0324,0.013523,0.002678,0.000431,0.013163
616000,0.0324,0.013523,0.002678,0.000431,0.012340
617000,0.0324,0.013523,0.002678,0.000431,0.012928
618000,0.0324,0.013523,0.002678,0.000431,0.012693
619000,0.0324,0.013523,0.002678,0.000431,0.011165
620000,0.0324,0.013523,0.002678,0.000431,0.011753
621000,0.0324,0.013523,0.002678,0.000431,0.011518
622000,0.0324,0.013523,0.002678,0.000431,0.012105
623000,0.0324,0.013523,0.002678,0.000431,0.010578
624000,0.0324,0.013523,0.002678,0.000431,0.009755
625000,0.0324,0.013523,0.002678,0.000431,0.009520
626000,0.0324,0.013523,0.002678,0.000431,0.010107
627000,0.0324,0.013523,0.002678,0.000431,0.009285
628000,0.0324,0.013523,0.002678,0.000431,0.010225
629000,0.0324,0.013523,0.002678,0.000431,0.010342
630000,0.0324,0.013523,0.002678,0.000431,0.010225
631000,0.0324,0.013523,0.002678,0.000431,0.009402
632000,0.0324,0.013523,0.002678,0.000431,0.009755
633000,0.0324,0.013523,0.002678,0.000431,0.009755
634000,0.0324,0.013523,0.002678,0.000431,0.009050
635000,0.0324,0.013523,0.002678,0.000431,0.009990
636000,0.0324,0.013523,0.002678,0.000431,0.009167
637000,0.0324,0.013523,0.002678,0.000431,0.008932
638000,0.0324,0.013523,0.002678,0.000431,0.008932
639000,0.0324,0.013523,0.002678,0.000431,0.008462
640000,0.0324,0.013523,0.002678,0.000431,0.008580
641000,0.0324,0.013523,0.002678,0.000431,0.008697
642000,0.0324,0.013523,0.002678,0.000431,0.009285
643000,0.0324,0.013523,0.002678,0.000431,0.009050
644000,0.0324,0.013523,0.002678,0.000431,0.008109
645000,0.0324,0.013523,0.002678,0.000431,0.009167
646000,0.0324,0.013523,0.002678,0.000431,0.008932
647000,0.0324,0.013523,0.002678,0.000431,0.008932
648000,0.0324,0.013523,0.002678,0.000431,0.009285
649000,0.0324,0.013523,0.002678,0.000431,0.008815
650000,0.0324,0.013523,0.002678,0.000431,0.008580
651000,0.0324,0.013523,0.002678,0.000431,0.008227
652000,0.0324,0.013523,0.002678,0.000431,0.009167
653000,0.0324,0.013523,0.002678,0.000431,0.007992
654000,0.0324,0.013523,0.002678,0.000431,0.007169
655000,0.0324,0.013523,0.002678,0.000431,0.007757
656000,0.0324,0.013523,0.002678,0.000431,0.007287
657000,0.0324,0.013523,0.002678,0.000431,0.007992
658000,0.0324,0.013523,0.002678,0.000431,0.007992
659000,0.0324,0.013523,0.002678,0.000431,0.007522
660000,0.0324,0.013523,0.002678,0.000431,0.006582
661000,0.0324,0.013523,0.002678,0.000431,0.006934
662000,0.0324,0.013523,0.002678,0.000431,0.005994
663000,0.0324,0.013523,0.002678,0.000431,0.005876
664000,0.0324,0.013523,0.002678,0.000431,0.007404
665000,0.0324,0.013523,0.002678,0.000431,0.007639
666000,0.0324,0.013523,0.002678,0.000431,0.006699
667000,0.0324,0.013523,0.002678,0.000431,0.006699
668000,0.0324,0.013523,0.002678,0.000431,0.005994
669000,0.0324,0.013523,0.002678,0.000431,0.007992
670000,0.0324,0.013523,0.002678,0.000431,0.006817
671000,0.0324,0.013523,0.002678,0.000431,0.005524
672000,0.0324,0.013523,0.002678,0.000431,0.006934
673000,0.0324,0.013523,0.002678,0.000431,0.007287
674000,0.0324,0.013523,0.002678,0.000431,0.006934
675000,0.0324,0.013523,0.002678,0.000431,0.006464
676000,0.0324,0.013523,0.002678,0.000431,0.006699
677000,0.0324,0.013523,0.002678,0.000431,0.006464
678000,0.0324,0.013523,0.002678,0.000431,0.006229
679000,0.0324,0.013523,0.002678,0.000431,0.006347
680000,0.0324,0.013523,0.002678,0.000431,0.005876
681000,0.0324,0.013523,0.002678,0.000431,0.006111
682000,0.0324,0.013523,0.002678,0.000431,0.006582
683000,0.0324,0.013523,0.002678,0.000431,0.006817
684000,0.0324,0.013523,0.002678,0.000431,0.006347
685000,0.0324,0.013523,0.002678,0.000431,0.006229
686000,0.0324,0.013523,0.002678,0.000431,0.006229
687000,0.0324,0.013523,0.002678,0.000431,0.005289
688000,0.0324,0.013523,0.002678,0.000431,0.005406
689000,0.0324,0.013523,0.002678,0.000431,0.004701
690000,0.0324,0.013523,0.002678,0.000431,0.005054
691000,0.0324,0.013523,0.002678,0.000431,0.004936
692000,0.0324,0.013523,0.002678,0.000431,0.005994
693000,0.0324,0.013523,0.002678,0.000431,0.004936
694000,0.0324,0.013523,0.002678,0.000431,0.003761
695000,0.0324,0.013523,0.002678,0.000431,0.004231
696000,0.0324,0.013523,0.002678,0.000431,0.004819
697000,0.0324,0.013523,0.002678,0.000431,0.004349
698000,0.0324,0.013523,0.002678,0.000431,0.003526
699000,0.0324,0.013523,0.002678,0.000431,0.002703
700000,0.0324,0.013523,0.002678,0.000431,0.003408
701000,0.0324,0.013523,0.002678,0.000431,0.003056
702000,0.0324,0.013523,0.002678,0.000431,0.003173
703000,0.0324,0.013523,0.002678,0.000431,0.002938
704000,0.0324,0.013523,0.002678,0.000431,0.003408
705000,0.0324,0.013523,0.002678,0.000431,0.003526
706000,0.0324,0.013523,0.002678,0.000431,0.002938
707000,0.0324,0.013523,0.002678,0.000431,0.003173
708000,0.0324,0.013523,0.002678,0.000431,0.002821
709000,0.0324,0.013523,0.002678,0.000431,0.003291
710000,0.0324,0.013523,0.002678,0.000431,0.003291
711000,0.0324,0.013523,0.002678,0.000431,0.003526
712000,0.0324,0.013523,0.002678,0.000431,0.002821
713000,0.0324,0.013523,0.002678,0.000431,0.003408
714000,0.0324,0.013523,0.002678,0.000431,0.003173
715000,0.0324,0.013523,0.002678,0.000431,0.002821
716000,0.0324,0.013523,0.002678,0.000431,0.002938
717000,0.0324,0.013523,0.002678,0.000431,0.002938
718000,0.0324,0.013523,0.002678,0.000431,0.002351
719000,0.0324,0.013523,0.002678,0.000431,0.003408
720000,0.0324,0.013523,0.002678,0.000431,0.003761
721000,0.0324,0.013523,0.002678,0.000431,0.003056
722000,0.0324,0.013523,0.002678,0.000431,0.003408
723000,0.0324,0.013523,0.002678,0.000431,0.003526
724000,0.0324,0.013523,0.002678,0.000431,0.002586
725000,0.0324,0.013523,0.002678,0.000431,0.002233
726000,0.0324,0.013523,0.002678,0.000431,0.002938
727000,0.0324,0.013523,0.002678,0.000431,0.002116
728000,0.0324,0.013523,0.002678,0.000431,0.003761
729000,0.0324,0.013523,0.002678,0.000431,0.002938
730000,0.0324,0.013523,0.002678,0.000431,0.003526
731000,0.0324,0.013523,0.002678,0.000431,0.003408
732000,0.0324,0.013523,0.002678,0.000431,0.003526
733000,0.0324,0.013523,0.002678,0.000431,0.003056
734000,0.0324,0.013523,0.002678,0.000431,0.002938
735000,0.0324,0.013523,0.002678,0.000431,0.003526
736000,0.0324,0.013523,0.002678,0.000431,0.003056
737000,0.0324,0.013523,0.002678,0.000431,0.003173
738000,0.0324,0.013523,0.002678,0.000431,0.003056
739000,0.0324,0.013523,0.002678,0.000431,0.003408
740000,0.0324,0.013523,0.002678,0.000431,0.003526
741000,0.0324,0.013523,0.002678,0.000431,0.003408
742000,0.0324,0.013523,0.002678,0.000431,0.002703
743000,0.0324,0.013523,0.002678,0.000431,0.002821
744000,0.0324,0.013523,0.002678,0.000431,0.003761
745000,0.0324,0.013523,0.002678,0.000431,0.003173
746000,0.0324,0.013523,0.002678,0.000431,0.003526
747000,0.0324,0.013523,0.002678,0.000431,0.002586
748000,0.0324,0.013523,0.002678,0.000431,0.003643
749000,0.0324,0.013523,0.002678,0.000431,0.003291
750000,0.0324,0.013523,0.002678,0.000431,0.002703
751000,0.0324,0.013523,0.002678,0.000431,0.002938
752000,0.0324,0.013523,0.002678,0.000431,0.002938
753000,0.0324,0.013523,0.002678,0.000431,0.003878
754000,0.0324,0.013523,0.002678,0.000431,0.003291
755000,0.0324,0.013523,0.002678,0.000431,0.003291
756000,0.0324,0.013523,0.002678,0.000431,0.003056
757000,0.0324,0.013523,0.002678,0.000431,0.003878
758000,0.0324,0.013523,0.002678,0.000431,0.003291
759000,0.0324,0.013523,0.002678,0.000431,0.002703
760000,0.0324,0.013523,0.002678,0.000431,0.003173
761000,0.0324,0.013523,0.002678,0.000431,0.003408
762000,0.0324,0.013523,0.002678,0.000431,0.003408
763000,0.0324,0.013523,0.002678,0.000431,0.003526
764000,0.0324,0.013523,0.002678,0.000431,0.003291
765000,0.0324,0.013523,0.002678,0.000431,0.003291
766000,0.0324,0.013523,0.002678,0.000431,0.003643
767000,0.0324,0.013523,0.002678,0.000431,0.003526
768000,0.0324,0.013523,0.002678,0.000431,0.003173
769000,0.0324,0.013523,0.002678,0.000431,0.002468
770000,0.0324,0.013523,0.002678,0.000431,0.003526
771000,0.0324,0.013523,0.002678,0.000431,0.003878
772000,0.0324,0.013523,0.002678,0.000431,0.003526
773000,0.0324,0.013523,0.002678,0.000431,0.002821
774000,0.0324,0.013523,0.002678,0.000431,0.003291
775000,0.0324,0.013523,0.002678,0.000431,0.003291
776000,0.0324,0.013523,0.002678,0.000431,0.003291
777000,0.0324,0.013523,0.002678,0.000431,0.003291
778000,0.0324,0.013523,0.002678,0.000431,0.002703
779000,0.0324,0.013523,0.002678,0.000431,0.004113
780000,0.0324,0.013523,0.002678,0.000431,0.003056
781000,0.0324,0.013523,0.002678,0.000431,0.003408
782000,0.0324,0.013523,0.002678,0.000431,0.002586
783000,0.0324,0.013523,0.002678,0.000431,0.003878
784000,0.0324,0.013523,0.002678,0.000431,0.003173
785000,0.0324,0.013523,0.002678,0.000431,0.002468
786000,0.0324,0.013523,0.002678,0.000431,0.003173
787000,0.0324,0.013523,0.002678,0.000431,0.003291
788000,0.0324,0.013523,0.002678,0.000431,0.003526
789000,0.0324,0.013523,0.002678,0.000431,0.003526
790000,0.0324,0.013523,0.002678,0.000431,0.003408
791000,0.0324,0.013523,0.002678,0.000431,0.002468
792000,0.0324,0.013523,0.002678,0.000431,0.003526
793000,0.0324,0.013523,0.002678,0.000431,0.003056
794000,0.0324,0.013523,0.002678,0.000431,0.002703
795000,0.0324,0.013523,0.002678,0.000431,0.002938
796000,0.0324,0.013523,0.002678,0.000431,0.002703
797000,0.0324,0.013523,0.002678,0.000431,0.003173
798000,0.0324,0.013523,0.002678,0.000431,0.003291
799000,0.0324,0.013523,0.002678,0.000431,0.003173
800000,0.0324,0.013523,0.002678,0.000431,0.003056
801000,0.0324,0.013523,0.002678,0.000431,0.002821
802000,0.0324,0.013523,0.002678,0.000431,0.002938
803000,0.0324,0.013523,0.002678,0.000431,0.002351
804000,0.0324,0.013523,0.002678,0.000431,0.002586
805000,0.0324,0.013523,0.002678,0.000431,0.003173
806000,0.0324,0.013523,0.002678,0.000431,0.002938
807000,0.0324,0.013523,0.002678,0.000431,0.003408
808000,0.0324,0.013523,0.002678,0.000431,0.002703
809000,0.0324,0.013523,0.002678,0.000431,0.002938
810000,0.0324,0.013523,0.002678,0.000431,0.002703
811000,0.0324,0.013523,0.002678,0.000431,0.002586
812000,0.0324,0.013523,0.002678,0.000431,0.002468
813000,0.0324,0.013523,0.002678,0.000431,0.002586
814000,0.0324,0.013523,0.002678,0.000431,0.001763
815000,0.0324,0.013523,0.002678,0.000431,0.002586
816000,0.0324,0.013523,0.002678,0.000431,0.002586
817000,0.0324,0.013523,0.002678,0.000431,0.002351
818000,0.0324,0.013523,0.002678,0.000431,0.002821
819000,0.0324,0.013523,0.002678,0.000431,0.002351
820000,0.0324,0.013523,0.002678,0.000431,0.001763
821000,0.0324,0.013523,0.002678,0.000431,0.002703
822000,0.0324,0.013523,0.002678,0.000431,0.002351
823000,0.0324,0.013523,0.002678,0.000431,0.002703
824000,0.0324,0.013523,0.002678,0.000431,0.002468
825000,0.0324,0.013523,0.002678,0.000431,0.002233
826000,0.0324,0.013523,0.002678,0.000431,0.002821
827000,0.0324,0.013523,0.002678,0.000431,0.002703
828000,0.0324,0.013523,0.002678,0.000431,0.002821
829000,0.0324,0.013523,0.002678,0.000431,0.003173
830000,0.0324,0.013523,0.002678,0.000431,0.002468
831000,0.0324,0.013523,0.002678,0.000431,0.002468
832000,0.0324,0.013523,0.002678,0.000431,0.002703
833000,0.0324,0.013523,0.002678,0.000431,0.002821
834000,0.0324,0.013523,0.002678,0.000431,0.002468
835000,0.0324,0.013523,0.002678,0.000431,0.002938
836000,0.0324,0.013523,0.002678,0.000431,0.002586
837000,0.0324,0.013523,0.002678,0.000431,0.002468
838000,0.0324,0.013523,0.002678,0.000431,0.002233
839000,0.0324,0.013523,0.002678,0.000431,0.002586
840000,0.0324,0.013523,0.002678,0.000431,0.002703
841000,0.0324,0.013523,0.002678,0.000431,0.002703
842000,0.0324,0.013523,0.002678,0.000431,0.003056
843000,0.0324,0.013523,0.002678,0.000431,0.002468
844000,0.0324,0.013523,0.002678,0.000431,0.002233
845000,0.0324,0.013523,0.002678,0.000431,0.003056
846000,0.0324,0.013523,0.002678,0.000431,0.002351
847000,0.0324,0.013523,0.002678,0.000431,0.003408
848000,0.0324,0.013523,0.002678,0.000431,0.002468
849000,0.0324,0.013523,0.002678,0.000431,0.003056
850000,0.0324,0.013523,0.002678,0.000431,0.002233
851000,0.0324,0.013523,0.002678,0.000431,0.002233
852000,0.0324,0.013523,0.002678,0.000431,0.002703
853000,0.0324,0.013523,0.002678,0.000431,0.002233
854000,0.0324,0.013523,0.002678,0.000431,0.001998
855000,0.0324,0.013523,0.002678,0.000431,0.002116
856000,0.0324,0.013523,0.002678,0.000431,0.001880
857000,0.0324,0.013523,0.002678,0.000431,0.001998
858000,0.0324,0.013523,0.002678,0.000431,0.001998
859000,0.0324,0.013523,0.002678,0.000431,0.002351
860000,0.0324,0.013523,0.002678,0.000431,0.001998
861000,0.0324,0.013523,0.002678,0.000431,0.001998
862000,0.0324,0.013523,0.002678,0.000431,0.001880
863000,0.0324,0.013523,0.002678,0.000431,0.001763
864000,0.0324,0.013523,0.002678,0.000431,0.001410
865000,0.0324,0.013523,0.002678,0.000431,0.001175
866000,0.0324,0.013523,0.002678,0.000431,0.001175
867000,0.0324,0.013523,0.002678,0.000431,0.000940
868000,0.0324,0.013523,0.002678,0.000431,0.000940
869000,0.0324,0.013523,0.002678,0.000431,0.000940
870000,0.0324,0.013523,0.002678,0.000431,0.000940
871000,0.0324,0.013523,0.002678,0.000431,0.001175
872000,0.0324,0.013523,0.002678,0.000431,0.000940
873000,0.0324,0.013523,0.002678,0.000431,0.000823
874000,0.0324,0.013523,0.002678,0.000431,0.001058
875000,0.0324,0.013523,0.002678,0.000431,0.000940
876000,0.0324,0.013523,0.002678,0.000431,0.001058
877000,0.0324,0.013523,0.002678,0.000431,0.000940
878000,0.0324,0.013523,0.002678,0.000431,0.000940
879000,0.0324,0.013523,0.002678,0.000431,0.000823
880000,0.0324,0.013523,0.002678,0.000431,0.000940
881000,0.0324,0.013523,0.002678,0.000431,0.000940
882000,0.0324,0.013523,0.002678,0.000431,0.000470
883000,0.0324,0.013523,0.002678,0.000431,0.001175
884000,0.0324,0.013523,0.002678,0.000431,0.000940
885000,0.0324,0.013523,0.002678,0.000431,0.000940
886000,0.0324,0.013523,0.002678,0.000431,0.001058
887000,0.0324,0.013523,0.002678,0.000431,0.001058
888000,0.0324,0.013523,0.002678,0.000431,0.000823
889000,0.0324,0.013523,0.002678,0.000431,0.000940
890000,0.0324,0.013523,0.002678,0.000431,0.001293
891000,0.0324,0.013523,0.002678,0.000431,0.000940
892000,0.0324,0.013523,0.002678,0.000431,0.000940
893000,0.0324,0.013523,0.002678,0.000431,0.001175
894000,0.0324,0.013523,0.002678,0.000431,0.001175
895000,0.0324,0.013523,0.002678,0.000431,0.000940
896000,0.0324,0.013523,0.002678,0.000431,0.000940
897000,0.0324,0.013523,0.002678,0.000431,0.001175
898000,0.0324,0.013523,0.002678,0.000431,0.000940
899000,0.0324,0.013523,0.002678,0.000431,0.001175
900000,0.0324,0.013523,0.002678,0.000431,0.000940
901000,0.0324,0.013523,0.002678,0.000431,0.000940
902000,0.0324,0.013523,0.002678,0.000431,0.001058
903000,0.0324,0.013523,0.002678,0.000431,0.001058
904000,0.0324,0.013523,0.002678,0.000431,0.000940
905000,0.0324,0.013523,0.002678,0.000431,0.000940
906000,0.0324,0.013523,0.002678,0.000431,0.000940
907000,0.0324,0.013523,0.002678,0.000431,0.001058
908000,0.0324,0.013523,0.002678,0.000431,0.001058
909000,0.0324,0.013523,0.002678,0.000431,0.000940
910000,0.0324,0.013523,0.002678,0.000431,0.000940
911000,0.0324,0.013523,0.002678,0.000431,0.000940
912000,0.0324,0.013523,0.002678,0.000431,0.000940
913000,0.0324,0.013523,0.002678,0.000431,0.000940
914000,0.0324,0.013523,0.002678,0.000431,0.001175
915000,0.0324,0.013523,0.002678,0.000431,0.000940
916000,0.0324,0.013523,0.002678,0.000431,0.000940
917000,0.0324,0.013523,0.002678,0.000431,0.001058
918000,0.0324,0.013523,0.002678,0.000431,0.000940
919000,0.0324,0.013523,0.002678,0.000431,0.001058
920000,0.0324,0.013523,0.002678,0.000431,0.001175
921000,0.0324,0.013523,0.002678,0.000431,0.001175
922000,0.0324,0.013523,0.002678,0.000431,0.000940
923000,0.0324,0.013523,0.002678,0.000431,0.000823
924000,0.0324,0.013523,0.002678,0.000431,0.001175
925000,0.0324,0.013523,0.002678,0.000431,0.001058
926000,0.0324,0.013523,0.002678,0.000431,0.000940
927000,0.0324,0.013523,0.002678,0.000431,0.000940
928000,0.0324,0.013523,0.002678,0.000431,0.001175
929000,0.0324,0.013523,0.002678,0.000431,0.000940
930000,0.0324,0.013523,0.002678,0.000431,0.000940
931000,0.0324,0.013523,0.002678,0.000431,0.000705
932000,0.0324,0.013523,0.002678,0.000431,0.000940
933000,0.0324,0.013523,0.002678,0.000431,0.001175
934000,0.0324,0.013523,0.002678,0.000431,0.000940
935000,0.0324,0.013523,0.002678,0.000431,0.000823
936000,0.0324,0.013523,0.002678,0.000431,0.000940
937000,0.0324,0.013523,0.002678,0.000431,0.001175
938000,0.0324,0.013523,0.002678,0.000431,0.000940
939000,0.0324,0.013523,0.002678,0.000431,0.001175
940000,0.0324,0.013523,0.002678,0.000431,0.000823
941000,0.0324,0.013523,0.002678,0.000431,0.000940
942000,0.0324,0.013523,0.002678,0.000431,0.000705
943000,0.0324,0.013523,0.002678,0.000431,0.001175
944000,0.0324,0.013523,0.002678,0.000431,0.000940
945000,0.0324,0.013523,0.002678,0.000431,0.001058
946000,0.0324,0.013523,0.002678,0.000431,0.000940
947000,0.0324,0.013523,0.002678,0.000431,0.001058
948000,0.0324,0.013523,0.002678,0.000431,0.001058
949000,0.0324,0.013523,0.002678,0.000431,0.001175
950000,0.0324,0.013523,0.002678,0.000431,0.000940
951000,0.0324,0.013523,0.002678,0.000431,0.000940
952000,0.0324,0.013523,0.002678,0.000431,0.000940
953000,0.0324,0.013523,0.002678,0.000431,0.000940
954000,0.0324,0.013523,0.002678,0.000431,0.001058
955000,0.0324,0.013523,0.002678,0.000431,0.000940
956000,0.0324,0.013523,0.002678,0.000431,0.001058
957000,0.0324,0.013523,0.002678,0.000431,0.001058
958000,0.0324,0.013523,0.002678,0.000431,0.001058
959000,0.0324,0.013523,0.002678,0.000431,0.000823
960000,0.0324,0.013523,0.002678,0.000431,0.001058
961000,0.0324,0.013523,0.002678,0.000431,0.000823
962000,0.0324,0.013523,0.002678,0.000431,0.001058
963000,0.0324,0.013523,0.002678,0.000431,0.001058
964000,0.0324,0.013523,0.002678,0.000431,0.000940
965000,0.0324,0.013523,0.002678,0.000431,0.001175
966000,0.0324,0.013523,0.002678,0.000431,0.001175
967000,0.0324,0.013523,0.002678,0.000431,0.000705
968000,0.0324,0.013523,0.002678,0.000431,0.000940
969000,0.0324,0.013523,0.002678,0.000431,0.000940
970000,0.0324,0.013523,0.002678,0.000431,0.001058
971000,0.0324,0.013523,0.002678,0.000431,0.000823
972000,0.0324,0.013523,0.002678,0.000431,0.001293
973000,0.0324,0.013523,0.002678,0.000431,0.000823
974000,0.0324,0.013523,0.002678,0.000431,0.001058
975000,0.0324,0.013523,0.002678,0.000431,0.000940
976000,0.0324,0.013523,0.002678,0.000431,0.001058
977000,0.0324,0.013523,0.002678,0.000431,0.001058
978000,0.0324,0.013523,0.002678,0.000431,0.001058
979000,0.0324,0.013523,0.002678,0.000431,0.000940
980000,0.0324,0.013523,0.002678,0.000431,0.000705
981000,0.0324,0.013523,0.002678,0.000431,0.001175
982000,0.0324,0.013523,0.002678,0.000431,0.000940
983000,0.0324,0.013523,0.002678,0.000431,0.000940
984000,0.0324,0.013523,0.002678,0.000431,0.001058
985000,0.0324,0.013523,0.002678,0.000431,0.001058
986000,0.0324,0.013523,0.002678,0.000431,0.000705
987000,0.0324,0.013523,0.002678,0.000431,0.000940
988000,0.0324,0.013523,0.002678,0.000431,0.001058
989000,0.0324,0.013523,0.002678,0.000431,0.000823
990000,0.0324,0.013523,0.002678,0.000431,0.001058
991000,0.0324,0.013523,0.002678,0.000431,0.000823
992000,0.0324,0.013523,0.002678,0.000431,0.000940
993000,0.0324,0.013523,0.002678,0.000431,0.000940
994000,0.0324,0.013523,0.002678,0.000431,0.000940
995000,0.0324,0.013523,0.002678,0.000431,0.000940
996000,0.0324,0.013523,0.002678,0.000431,0.001058
997000,0.0324,0.013523,0.002678,0.000431,0.000823
998000,0.0324,0.013523,0.002678,0.000431,0.000940
999000,0.0324,0.013523,0.002678,0.000431,0.001058
