Cycle,Area(mm^2),PeakDynamic(W),SubthresholdLeakage(W),GateLeakage(W),RunTimeDynamic(W)
4000000,0.0324,0.013523,0.002678,0.000431,2.261712
4001000,0.0324,0.013523,0.002678,0.000431,2.291800
4002000,0.0324,0.013523,0.002678,0.000431,2.217287
4003000,0.0324,0.013523,0.002678,0.000431,2.228804
4004000,0.0324,0.013523,0.002678,0.000431,2.309194
4005000,0.0324,0.013523,0.002678,0.000431,2.244318
4006000,0.0324,0.013523,0.002678,0.000431,2.169570
4007000,0.0324,0.013523,0.002678,0.000431,2.268764
4008000,0.0324,0.013523,0.002678,0.000431,2.225984
4009000,0.0324,0.013523,0.002678,0.000431,2.238207
4010000,0.0324,0.013523,0.002678,0.000431,2.179090
4011000,0.0324,0.013523,0.002678,0.000431,2.250665
4012000,0.0324,0.013523,0.002678,0.000431,2.226689
4013000,0.0324,0.013523,0.002678,0.000431,2.198835
4014000,0.0324,0.013523,0.002678,0.000431,2.284278
4015000,0.0324,0.013523,0.002678,0.000431,2.219402
4016000,0.0324,0.013523,0.002678,0.000431,2.046283
4017000,0.0324,0.013523,0.002678,0.000431,2.246904
4018000,0.0324,0.013523,0.002678,0.000431,2.238442
4019000,0.0324,0.013523,0.002678,0.000431,2.230685
4020000,0.0324,0.013523,0.002678,0.000431,2.249607
4021000,0.0324,0.013523,0.002678,0.000431,2.029124
4022000,0.0324,0.013523,0.002678,0.000431,2.082952
4023000,0.0324,0.013523,0.002678,0.000431,2.146535
4024000,0.0324,0.013523,0.002678,0.000431,2.288861
4025000,0.0324,0.013523,0.002678,0.000431,2.200950
4026000,0.0324,0.013523,0.002678,0.000431,2.081189
4027000,0.0324,0.013523,0.002678,0.000431,2.110924
4028000,0.0324,0.013523,0.002678,0.000431,2.099523
4029000,0.0324,0.013523,0.002678,0.000431,2.049574
4030000,0.0324,0.013523,0.002678,0.000431,2.197072
4031000,0.0324,0.013523,0.002678,0.000431,2.123264
4032000,0.0324,0.013523,0.002678,0.000431,2.186259
4033000,0.0324,0.013523,0.002678,0.000431,2.214936
4034000,0.0324,0.013523,0.002678,0.000431,2.193664
4035000,0.0324,0.013523,0.002678,0.000431,2.274523
4036000,0.0324,0.013523,0.002678,0.000431,2.252310
4037000,0.0324,0.013523,0.002678,0.000431,2.218462
4038000,0.0324,0.013523,0.002678,0.000431,2.221988
4039000,0.0324,0.013523,0.002678,0.000431,2.219520
4040000,0.0324,0.013523,0.002678,0.000431,2.216111
4041000,0.0324,0.013523,0.002678,0.000431,2.136427
4042000,0.0324,0.013523,0.002678,0.000431,2.311309
4043000,0.0324,0.013523,0.002678,0.000431,2.249254
4044000,0.0324,0.013523,0.002678,0.000431,2.160403
4045000,0.0324,0.013523,0.002678,0.000431,2.196602
4046000,0.0324,0.013523,0.002678,0.000431,2.185672
4047000,0.0324,0.013523,0.002678,0.000431,2.214466
4048000,0.0324,0.013523,0.002678,0.000431,2.126555
4049000,0.0324,0.013523,0.002678,0.000431,2.148650
4050000,0.0324,0.013523,0.002678,0.000431,2.170628
4051000,0.0324,0.013523,0.002678,0.000431,2.177915
4052000,0.0324,0.013523,0.002678,0.000431,2.147357
4053000,0.0324,0.013523,0.002678,0.000431,2.256071
4054000,0.0324,0.013523,0.002678,0.000431,2.148298
4055000,0.0324,0.013523,0.002678,0.000431,2.181323
4056000,0.0324,0.013523,0.002678,0.000431,2.193664
4057000,0.0324,0.013523,0.002678,0.000431,2.132666
4058000,0.0324,0.013523,0.002678,0.000431,2.083892
4059000,0.0324,0.013523,0.002678,0.000431,2.148298
4060000,0.0324,0.013523,0.002678,0.000431,2.170158
4061000,0.0324,0.013523,0.002678,0.000431,2.005501
4062000,0.0324,0.013523,0.002678,0.000431,2.151706
4063000,0.0324,0.013523,0.002678,0.000431,2.192371
4064000,0.0324,0.013523,0.002678,0.000431,1.942858
4065000,0.0324,0.013523,0.002678,0.000431,1.934749
4066000,0.0324,0.013523,0.002678,0.000431,1.806056
4067000,0.0324,0.013523,0.002678,0.000431,1.964131
4068000,0.0324,0.013523,0.002678,0.000431,1.985991
4069000,0.0324,0.013523,0.002678,0.000431,2.039349
4070000,0.0324,0.013523,0.002678,0.000431,2.032650
4071000,0.0324,0.013523,0.002678,0.000431,2.013845
4072000,0.0324,0.013523,0.002678,0.000431,2.048986
4073000,0.0324,0.013523,0.002678,0.000431,1.932163
4074000,0.0324,0.013523,0.002678,0.000431,1.977412
4075000,0.0324,0.013523,0.002678,0.000431,1.963426
4076000,0.0324,0.013523,0.002678,0.000431,1.949440
4077000,0.0324,0.013523,0.002678,0.000431,1.992573
4078000,0.0324,0.013523,0.002678,0.000431,2.005031
4079000,0.0324,0.013523,0.002678,0.000431,1.968832
4080000,0.0324,0.013523,0.002678,0.000431,1.995393
4081000,0.0324,0.013523,0.002678,0.000431,2.040524
4082000,0.0324,0.013523,0.002678,0.000431,2.066381
4083000,0.0324,0.013523,0.002678,0.000431,2.059329
4084000,0.0324,0.013523,0.002678,0.000431,2.095527
4085000,0.0324,0.013523,0.002678,0.000431,2.117153
4086000,0.0324,0.013523,0.002678,0.000431,2.157465
4087000,0.0324,0.013523,0.002678,0.000431,2.072609
4088000,0.0324,0.013523,0.002678,0.000431,2.152294
4089000,0.0324,0.013523,0.002678,0.000431,2.130903
4090000,0.0324,0.013523,0.002678,0.000431,2.152176
4091000,0.0324,0.013523,0.002678,0.000431,2.115625
4092000,0.0324,0.013523,0.002678,0.000431,2.128435
4093000,0.0324,0.013523,0.002678,0.000431,2.032297
4094000,0.0324,0.013523,0.002678,0.000431,2.157347
4095000,0.0324,0.013523,0.002678,0.000431,2.136897
4096000,0.0324,0.013523,0.002678,0.000431,1.965541
4097000,0.0324,0.013523,0.002678,0.000431,2.098231
4098000,0.0324,0.013523,0.002678,0.000431,2.000330
4099000,0.0324,0.013523,0.002678,0.000431,1.975414
4100000,0.0324,0.013523,0.002678,0.000431,2.015021
4101000,0.0324,0.013523,0.002678,0.000431,1.966011
4102000,0.0324,0.013523,0.002678,0.000431,2.010085
4103000,0.0324,0.013523,0.002678,0.000431,2.010085
4104000,0.0324,0.013523,0.002678,0.000431,2.140188
4105000,0.0324,0.013523,0.002678,0.000431,1.988929
4106000,0.0324,0.013523,0.002678,0.000431,2.025363
4107000,0.0324,0.013523,0.002678,0.000431,2.169218
4108000,0.0324,0.013523,0.002678,0.000431,2.115625
4109000,0.0324,0.013523,0.002678,0.000431,2.055098
4110000,0.0324,0.013523,0.002678,0.000431,2.075783
4111000,0.0324,0.013523,0.002678,0.000431,2.067791
4112000,0.0324,0.013523,0.002678,0.000431,2.044638
4113000,0.0324,0.013523,0.002678,0.000431,2.017841
4114000,0.0324,0.013523,0.002678,0.000431,2.064853
4115000,0.0324,0.013523,0.002678,0.000431,2.097525
4116000,0.0324,0.013523,0.002678,0.000431,2.047929
4117000,0.0324,0.013523,0.002678,0.000431,2.081424
4118000,0.0324,0.013523,0.002678,0.000431,1.994923
4119000,0.0324,0.013523,0.002678,0.000431,2.002680
4120000,0.0324,0.013523,0.002678,0.000431,1.946267
4121000,0.0324,0.013523,0.002678,0.000431,1.965424
4122000,0.0324,0.013523,0.002678,0.000431,1.948030
4123000,0.0324,0.013523,0.002678,0.000431,1.897493
4124000,0.0324,0.013523,0.002678,0.000431,1.855888
4125000,0.0324,0.013523,0.002678,0.000431,1.765978
4126000,0.0324,0.013523,0.002678,0.000431,1.736596
4127000,0.0324,0.013523,0.002678,0.000431,1.715794
4128000,0.0324,0.013523,0.002678,0.000431,1.660673
4129000,0.0324,0.013523,0.002678,0.000431,1.715089
4130000,0.0324,0.013523,0.002678,0.000431,1.637873
4131000,0.0324,0.013523,0.002678,0.000431,1.673719
4132000,0.0324,0.013523,0.002678,0.000431,1.600851
4133000,0.0324,0.013523,0.002678,0.000431,1.649038
4134000,0.0324,0.013523,0.002678,0.000431,1.686764
4135000,0.0324,0.013523,0.002678,0.000431,1.677010
4136000,0.0324,0.013523,0.002678,0.000431,1.664552
4137000,0.0324,0.013523,0.002678,0.000431,1.816986
4138000,0.0324,0.013523,0.002678,0.000431,1.842607
4139000,0.0324,0.013523,0.002678,0.000431,1.886092
4140000,0.0324,0.013523,0.002678,0.000431,1.941095
4141000,0.0324,0.013523,0.002678,0.000431,2.105988
4142000,0.0324,0.013523,0.002678,0.000431,2.142421
4143000,0.0324,0.013523,0.002678,0.000431,2.164046
4144000,0.0324,0.013523,0.002678,0.000431,2.081777
4145000,0.0324,0.013523,0.002678,0.000431,2.031592
4146000,0.0324,0.013523,0.002678,0.000431,2.136192
4147000,0.0324,0.013523,0.002678,0.000431,2.032532
4148000,0.0324,0.013523,0.002678,0.000431,2.042287
4149000,0.0324,0.013523,0.002678,0.000431,1.894672
4150000,0.0324,0.013523,0.002678,0.000431,1.955081
4151000,0.0324,0.013523,0.002678,0.000431,1.996216
4152000,0.0324,0.013523,0.002678,0.000431,2.046283
4153000,0.0324,0.013523,0.002678,0.000431,2.078016
4154000,0.0324,0.013523,0.002678,0.000431,2.015373
4155000,0.0324,0.013523,0.002678,0.000431,2.026656
4156000,0.0324,0.013523,0.002678,0.000431,1.972593
4157000,0.0324,0.013523,0.002678,0.000431,2.047341
4158000,0.0324,0.013523,0.002678,0.000431,2.023953
4159000,0.0324,0.013523,0.002678,0.000431,2.006559
4160000,0.0324,0.013523,0.002678,0.000431,1.958490
4161000,0.0324,0.013523,0.002678,0.000431,1.849188
4162000,0.0324,0.013523,0.002678,0.000431,1.783255
4163000,0.0324,0.013523,0.002678,0.000431,1.757516
4164000,0.0324,0.013523,0.002678,0.000431,1.806878
4165000,0.0324,0.013523,0.002678,0.000431,1.817338
4166000,0.0324,0.013523,0.002678,0.000431,1.817103
4167000,0.0324,0.013523,0.002678,0.000431,1.820982
4168000,0.0324,0.013523,0.002678,0.000431,1.764921
4169000,0.0324,0.013523,0.002678,0.000431,1.776203
4170000,0.0324,0.013523,0.002678,0.000431,1.815810
4171000,0.0324,0.013523,0.002678,0.000431,1.817338
4172000,0.0324,0.013523,0.002678,0.000431,1.846133
4173000,0.0324,0.013523,0.002678,0.000431,1.809229
4174000,0.0324,0.013523,0.002678,0.000431,1.806291
4175000,0.0324,0.013523,0.002678,0.000431,1.885152
4176000,0.0324,0.013523,0.002678,0.000431,1.891499
4177000,0.0324,0.013523,0.002678,0.000431,1.888325
4178000,0.0324,0.013523,0.002678,0.000431,1.910891
4179000,0.0324,0.013523,0.002678,0.000431,1.867288
4180000,0.0324,0.013523,0.002678,0.000431,1.815575
4181000,0.0324,0.013523,0.002678,0.000431,1.731308
4182000,0.0324,0.013523,0.002678,0.000431,1.813225
4183000,0.0324,0.013523,0.002678,0.000431,1.832264
4184000,0.0324,0.013523,0.002678,0.000431,1.848601
4185000,0.0324,0.013523,0.002678,0.000431,1.859061
4186000,0.0324,0.013523,0.002678,0.000431,1.870108
4187000,0.0324,0.013523,0.002678,0.000431,1.825683
4188000,0.0324,0.013523,0.002678,0.000431,1.890441
4189000,0.0324,0.013523,0.002678,0.000431,1.830031
4190000,0.0324,0.013523,0.002678,0.000431,1.852479
4191000,0.0324,0.013523,0.002678,0.000431,1.797358
4192000,0.0324,0.013523,0.002678,0.000431,1.754108
4193000,0.0324,0.013523,0.002678,0.000431,1.709682
4194000,0.0324,0.013523,0.002678,0.000431,1.746116
4195000,0.0324,0.013523,0.002678,0.000431,1.643867
4196000,0.0324,0.013523,0.002678,0.000431,1.742003
4197000,0.0324,0.013523,0.002678,0.000431,1.733071
4198000,0.0324,0.013523,0.002678,0.000431,1.768917
4199000,0.0324,0.013523,0.002678,0.000431,1.860471
4200000,0.0324,0.013523,0.002678,0.000431,1.757751
4201000,0.0324,0.013523,0.002678,0.000431,1.823567
4202000,0.0324,0.013523,0.002678,0.000431,1.906542
4203000,0.0324,0.013523,0.002678,0.000431,1.832734
4204000,0.0324,0.013523,0.002678,0.000431,1.762453
4205000,0.0324,0.013523,0.002678,0.000431,1.784665
4206000,0.0324,0.013523,0.002678,0.000431,1.749525
4207000,0.0324,0.013523,0.002678,0.000431,1.678067
4208000,0.0324,0.013523,0.002678,0.000431,1.634582
4209000,0.0324,0.013523,0.002678,0.000431,1.570294
4210000,0.0324,0.013523,0.002678,0.000431,1.624945
4211000,0.0324,0.013523,0.002678,0.000431,1.671016
4212000,0.0324,0.013523,0.002678,0.000431,1.542910
4213000,0.0324,0.013523,0.002678,0.000431,1.486261
4214000,0.0324,0.013523,0.002678,0.000431,1.624945
4215000,0.0324,0.013523,0.002678,0.000431,1.531627
4216000,0.0324,0.013523,0.002678,0.000431,1.583457
4217000,0.0324,0.013523,0.002678,0.000431,1.675599
4218000,0.0324,0.013523,0.002678,0.000431,1.693699
4219000,0.0324,0.013523,0.002678,0.000431,1.729310
4220000,0.0324,0.013523,0.002678,0.000431,1.586395
4221000,0.0324,0.013523,0.002678,0.000431,1.816868
4222000,0.0324,0.013523,0.002678,0.000431,1.858826
4223000,0.0324,0.013523,0.002678,0.000431,1.741533
4224000,0.0324,0.013523,0.002678,0.000431,1.747762
4225000,0.0324,0.013523,0.002678,0.000431,1.824860
4226000,0.0324,0.013523,0.002678,0.000431,2.045108
4227000,0.0324,0.013523,0.002678,0.000431,2.033238
4228000,0.0324,0.013523,0.002678,0.000431,2.020074
4229000,0.0324,0.013523,0.002678,0.000431,2.086360
4230000,0.0324,0.013523,0.002678,0.000431,2.059916
4231000,0.0324,0.013523,0.002678,0.000431,2.026774
4232000,0.0324,0.013523,0.002678,0.000431,1.996334
4233000,0.0324,0.013523,0.002678,0.000431,1.989752
4234000,0.0324,0.013523,0.002678,0.000431,1.902546
4235000,0.0324,0.013523,0.002678,0.000431,1.998567
4236000,0.0324,0.013523,0.002678,0.000431,2.017841
4237000,0.0324,0.013523,0.002678,0.000431,1.950733
4238000,0.0324,0.013523,0.002678,0.000431,1.989282
4239000,0.0324,0.013523,0.002678,0.000431,2.042170
4240000,0.0324,0.013523,0.002678,0.000431,2.003033
4241000,0.0324,0.013523,0.002678,0.000431,1.933926
4242000,0.0324,0.013523,0.002678,0.000431,1.957314
4243000,0.0324,0.013523,0.002678,0.000431,1.893849
4244000,0.0324,0.013523,0.002678,0.000431,1.858708
4245000,0.0324,0.013523,0.002678,0.000431,1.863409
4246000,0.0324,0.013523,0.002678,0.000431,1.896787
4247000,0.0324,0.013523,0.002678,0.000431,1.871989
4248000,0.0324,0.013523,0.002678,0.000431,1.844370
4249000,0.0324,0.013523,0.002678,0.000431,1.876572
4250000,0.0324,0.013523,0.002678,0.000431,1.929578
4251000,0.0324,0.013523,0.002678,0.000431,1.902899
4252000,0.0324,0.013523,0.002678,0.000431,1.925229
4253000,0.0324,0.013523,0.002678,0.000431,1.928990
4254000,0.0324,0.013523,0.002678,0.000431,2.058976
4255000,0.0324,0.013523,0.002678,0.000431,2.006089
4256000,0.0324,0.013523,0.002678,0.000431,2.057566
4257000,0.0324,0.013523,0.002678,0.000431,2.090239
4258000,0.0324,0.013523,0.002678,0.000431,1.980115
4259000,0.0324,0.013523,0.002678,0.000431,1.865172
4260000,0.0324,0.013523,0.002678,0.000431,1.952026
4261000,0.0324,0.013523,0.002678,0.000431,2.084832
4262000,0.0324,0.013523,0.002678,0.000431,2.164399
4263000,0.0324,0.013523,0.002678,0.000431,2.159463
4264000,0.0324,0.013523,0.002678,0.000431,2.136075
4265000,0.0324,0.013523,0.002678,0.000431,2.128788
4266000,0.0324,0.013523,0.002678,0.000431,2.080954
4267000,0.0324,0.013523,0.002678,0.000431,2.065440
4268000,0.0324,0.013523,0.002678,0.000431,1.980467
4269000,0.0324,0.013523,0.002678,0.000431,1.958255
4270000,0.0324,0.013523,0.002678,0.000431,1.994688
4271000,0.0324,0.013523,0.002678,0.000431,1.984463
4272000,0.0324,0.013523,0.002678,0.000431,2.097643
4273000,0.0324,0.013523,0.002678,0.000431,2.041347
4274000,0.0324,0.013523,0.002678,0.000431,1.982935
4275000,0.0324,0.013523,0.002678,0.000431,2.054275
4276000,0.0324,0.013523,0.002678,0.000431,2.094470
4277000,0.0324,0.013523,0.002678,0.000431,2.081189
4278000,0.0324,0.013523,0.002678,0.000431,2.028301
4279000,0.0324,0.013523,0.002678,0.000431,2.102462
4280000,0.0324,0.013523,0.002678,0.000431,2.141716
4281000,0.0324,0.013523,0.002678,0.000431,2.162636
4282000,0.0324,0.013523,0.002678,0.000431,2.190020
4283000,0.0324,0.013523,0.002678,0.000431,2.099053
4284000,0.0324,0.013523,0.002678,0.000431,2.182968
4285000,0.0324,0.013523,0.002678,0.000431,2.212115
4286000,0.0324,0.013523,0.002678,0.000431,2.219872
4287000,0.0324,0.013523,0.002678,0.000431,2.195779
4288000,0.0324,0.013523,0.002678,0.000431,2.200715
4289000,0.0324,0.013523,0.002678,0.000431,2.242790
4290000,0.0324,0.013523,0.002678,0.000431,2.271585
4291000,0.0324,0.013523,0.002678,0.000431,2.236091
4292000,0.0324,0.013523,0.002678,0.000431,2.154762
4293000,0.0324,0.013523,0.002678,0.000431,2.096585
4294000,0.0324,0.013523,0.002678,0.000431,2.173096
4295000,0.0324,0.013523,0.002678,0.000431,2.167807
4296000,0.0324,0.013523,0.002678,0.000431,2.206827
4297000,0.0324,0.013523,0.002678,0.000431,2.221048
4298000,0.0324,0.013523,0.002678,0.000431,2.134782
4299000,0.0324,0.013523,0.002678,0.000431,2.027714
4300000,0.0324,0.013523,0.002678,0.000431,2.148533
4301000,0.0324,0.013523,0.002678,0.000431,2.120443
4302000,0.0324,0.013523,0.002678,0.000431,2.190843
4303000,0.0324,0.013523,0.002678,0.000431,2.082834
4304000,0.0324,0.013523,0.002678,0.000431,2.121501
4305000,0.0324,0.013523,0.002678,0.000431,2.063090
4306000,0.0324,0.013523,0.002678,0.000431,2.192136
4307000,0.0324,0.013523,0.002678,0.000431,2.056156
4308000,0.0324,0.013523,0.002678,0.000431,2.172744
4309000,0.0324,0.013523,0.002678,0.000431,1.962486
4310000,0.0324,0.013523,0.002678,0.000431,2.062267
4311000,0.0324,0.013523,0.002678,0.000431,2.206239
4312000,0.0324,0.013523,0.002678,0.000431,2.068614
4313000,0.0324,0.013523,0.002678,0.000431,2.194839
4314000,0.0324,0.013523,0.002678,0.000431,2.019252
4315000,0.0324,0.013523,0.002678,0.000431,1.997979
4316000,0.0324,0.013523,0.002678,0.000431,2.205416
4317000,0.0324,0.013523,0.002678,0.000431,2.143949
4318000,0.0324,0.013523,0.002678,0.000431,2.120679
4319000,0.0324,0.013523,0.002678,0.000431,2.135134
4320000,0.0324,0.013523,0.002678,0.000431,2.170863
4321000,0.0324,0.013523,0.002678,0.000431,2.113509
4322000,0.0324,0.013523,0.002678,0.000431,2.167572
4323000,0.0324,0.013523,0.002678,0.000431,2.138190
4324000,0.0324,0.013523,0.002678,0.000431,2.102109
4325000,0.0324,0.013523,0.002678,0.000431,2.156760
4326000,0.0324,0.013523,0.002678,0.000431,2.215524
4327000,0.0324,0.013523,0.002678,0.000431,2.205181
4328000,0.0324,0.013523,0.002678,0.000431,2.153351
4329000,0.0324,0.013523,0.002678,0.000431,2.049104
4330000,0.0324,0.013523,0.002678,0.000431,2.032180
4331000,0.0324,0.013523,0.002678,0.000431,2.047106
4332000,0.0324,0.013523,0.002678,0.000431,1.992573
4333000,0.0324,0.013523,0.002678,0.000431,2.097525
4334000,0.0324,0.013523,0.002678,0.000431,2.101756
4335000,0.0324,0.013523,0.002678,0.000431,2.028419
4336000,0.0324,0.013523,0.002678,0.000431,2.156290
4337000,0.0324,0.013523,0.002678,0.000431,2.209060
4338000,0.0324,0.013523,0.002678,0.000431,2.193546
4339000,0.0324,0.013523,0.002678,0.000431,2.094235
4340000,0.0324,0.013523,0.002678,0.000431,2.109278
4341000,0.0324,0.013523,0.002678,0.000431,2.144772
4342000,0.0324,0.013523,0.002678,0.000431,2.093647
4343000,0.0324,0.013523,0.002678,0.000431,2.226101
4344000,0.0324,0.013523,0.002678,0.000431,2.053452
4345000,0.0324,0.013523,0.002678,0.000431,2.109631
4346000,0.0324,0.013523,0.002678,0.000431,2.101521
4347000,0.0324,0.013523,0.002678,0.000431,2.082247
4348000,0.0324,0.013523,0.002678,0.000431,1.970830
4349000,0.0324,0.013523,0.002678,0.000431,2.122912
4350000,0.0324,0.013523,0.002678,0.000431,2.017371
4351000,0.0324,0.013523,0.002678,0.000431,2.150178
4352000,0.0324,0.013523,0.002678,0.000431,2.124557
4353000,0.0324,0.013523,0.002678,0.000431,2.080249
4354000,0.0324,0.013523,0.002678,0.000431,1.960253
4355000,0.0324,0.013523,0.002678,0.000431,2.172744
4356000,0.0324,0.013523,0.002678,0.000431,2.191901
4357000,0.0324,0.013523,0.002678,0.000431,2.193311
4358000,0.0324,0.013523,0.002678,0.000431,2.200010
4359000,0.0324,0.013523,0.002678,0.000431,2.288861
4360000,0.0324,0.013523,0.002678,0.000431,2.238794
4361000,0.0324,0.013523,0.002678,0.000431,2.241380
4362000,0.0324,0.013523,0.002678,0.000431,2.195544
4363000,0.0324,0.013523,0.002678,0.000431,2.109631
4364000,0.0324,0.013523,0.002678,0.000431,2.447877
4365000,0.0324,0.013523,0.002678,0.000431,2.279107
4366000,0.0324,0.013523,0.002678,0.000431,2.240557
4367000,0.0324,0.013523,0.002678,0.000431,2.209412
4368000,0.0324,0.013523,0.002678,0.000431,2.252310
4369000,0.0324,0.013523,0.002678,0.000431,2.356558
4370000,0.0324,0.013523,0.002678,0.000431,2.217757
4371000,0.0324,0.013523,0.002678,0.000431,2.255601
4372000,0.0324,0.013523,0.002678,0.000431,2.228452
4373000,0.0324,0.013523,0.002678,0.000431,2.190843
4374000,0.0324,0.013523,0.002678,0.000431,2.237502
4375000,0.0324,0.013523,0.002678,0.000431,2.227629
4376000,0.0324,0.013523,0.002678,0.000431,2.253368
4377000,0.0324,0.013523,0.002678,0.000431,2.210235
4378000,0.0324,0.013523,0.002678,0.000431,2.108926
4379000,0.0324,0.013523,0.002678,0.000431,2.082247
4380000,0.0324,0.013523,0.002678,0.000431,2.078603
4381000,0.0324,0.013523,0.002678,0.000431,2.132901
4382000,0.0324,0.013523,0.002678,0.000431,2.086830
4383000,0.0324,0.013523,0.002678,0.000431,2.066498
4384000,0.0324,0.013523,0.002678,0.000431,2.095527
4385000,0.0324,0.013523,0.002678,0.000431,1.965306
4386000,0.0324,0.013523,0.002678,0.000431,2.273348
4387000,0.0324,0.013523,0.002678,0.000431,1.985521
4388000,0.0324,0.013523,0.002678,0.000431,2.175447
4389000,0.0324,0.013523,0.002678,0.000431,2.094470
4390000,0.0324,0.013523,0.002678,0.000431,2.124792
4391000,0.0324,0.013523,0.002678,0.000431,2.112804
4392000,0.0324,0.013523,0.002678,0.000431,2.115390
4393000,0.0324,0.013523,0.002678,0.000431,2.198835
4394000,0.0324,0.013523,0.002678,0.000431,2.191783
4395000,0.0324,0.013523,0.002678,0.000431,2.190255
4396000,0.0324,0.013523,0.002678,0.000431,2.280517
4397000,0.0324,0.013523,0.002678,0.000431,2.167102
4398000,0.0324,0.013523,0.002678,0.000431,2.221870
4399000,0.0324,0.013523,0.002678,0.000431,2.160403
4400000,0.0324,0.013523,0.002678,0.000431,2.152529
4401000,0.0324,0.013523,0.002678,0.000431,2.180735
4402000,0.0324,0.013523,0.002678,0.000431,2.197424
4403000,0.0324,0.013523,0.002678,0.000431,2.090004
4404000,0.0324,0.013523,0.002678,0.000431,1.965189
4405000,0.0324,0.013523,0.002678,0.000431,2.187552
4406000,0.0324,0.013523,0.002678,0.000431,2.023130
4407000,0.0324,0.013523,0.002678,0.000431,2.064147
4408000,0.0324,0.013523,0.002678,0.000431,1.849188
4409000,0.0324,0.013523,0.002678,0.000431,1.855300
4410000,0.0324,0.013523,0.002678,0.000431,2.023600
4411000,0.0324,0.013523,0.002678,0.000431,1.864937
4412000,0.0324,0.013523,0.002678,0.000431,2.074255
4413000,0.0324,0.013523,0.002678,0.000431,2.008204
4414000,0.0324,0.013523,0.002678,0.000431,1.988694
4415000,0.0324,0.013523,0.002678,0.000431,2.140776
4416000,0.0324,0.013523,0.002678,0.000431,2.112216
4417000,0.0324,0.013523,0.002678,0.000431,2.068614
4418000,0.0324,0.013523,0.002678,0.000431,2.136075
4419000,0.0324,0.013523,0.002678,0.000431,2.050279
4420000,0.0324,0.013523,0.002678,0.000431,2.157582
4421000,0.0324,0.013523,0.002678,0.000431,2.008792
4422000,0.0324,0.013523,0.002678,0.000431,2.082364
4423000,0.0324,0.013523,0.002678,0.000431,2.104225
4424000,0.0324,0.013523,0.002678,0.000431,2.077076
4425000,0.0324,0.013523,0.002678,0.000431,2.138308
4426000,0.0324,0.013523,0.002678,0.000431,2.070612
4427000,0.0324,0.013523,0.002678,0.000431,2.137485
4428000,0.0324,0.013523,0.002678,0.000431,2.008322
4429000,0.0324,0.013523,0.002678,0.000431,1.910773
4430000,0.0324,0.013523,0.002678,0.000431,2.093530
4431000,0.0324,0.013523,0.002678,0.000431,2.156642
4432000,0.0324,0.013523,0.002678,0.000431,2.131844
4433000,0.0324,0.013523,0.002678,0.000431,1.993043
4434000,0.0324,0.013523,0.002678,0.000431,2.021367
4435000,0.0324,0.013523,0.002678,0.000431,2.111864
4436000,0.0324,0.013523,0.002678,0.000431,2.103754
4437000,0.0324,0.013523,0.002678,0.000431,2.074843
4438000,0.0324,0.013523,0.002678,0.000431,2.229275
4439000,0.0324,0.013523,0.002678,0.000431,2.202361
4440000,0.0324,0.013523,0.002678,0.000431,2.193428
4441000,0.0324,0.013523,0.002678,0.000431,2.237149
4442000,0.0324,0.013523,0.002678,0.000431,2.026656
4443000,0.0324,0.013523,0.002678,0.000431,2.100111
4444000,0.0324,0.013523,0.002678,0.000431,1.989752
4445000,0.0324,0.013523,0.002678,0.000431,1.937922
4446000,0.0324,0.013523,0.002678,0.000431,2.126202
4447000,0.0324,0.013523,0.002678,0.000431,2.007734
4448000,0.0324,0.013523,0.002678,0.000431,2.144889
4449000,0.0324,0.013523,0.002678,0.000431,1.906895
4450000,0.0324,0.013523,0.002678,0.000431,1.997979
4451000,0.0324,0.013523,0.002678,0.000431,2.136545
4452000,0.0324,0.013523,0.002678,0.000431,2.011847
4453000,0.0324,0.013523,0.002678,0.000431,2.064030
4454000,0.0324,0.013523,0.002678,0.000431,2.119151
4455000,0.0324,0.013523,0.002678,0.000431,2.179325
4456000,0.0324,0.013523,0.002678,0.000431,2.263240
4457000,0.0324,0.013523,0.002678,0.000431,2.087888
4458000,0.0324,0.013523,0.002678,0.000431,2.082717
4459000,0.0324,0.013523,0.002678,0.000431,2.152646
4460000,0.0324,0.013523,0.002678,0.000431,2.140423
4461000,0.0324,0.013523,0.002678,0.000431,2.132079
4462000,0.0324,0.013523,0.002678,0.000431,2.082717
4463000,0.0324,0.013523,0.002678,0.000431,2.004561
4464000,0.0324,0.013523,0.002678,0.000431,2.094587
4465000,0.0324,0.013523,0.002678,0.000431,2.156525
4466000,0.0324,0.013523,0.002678,0.000431,2.097761
4467000,0.0324,0.013523,0.002678,0.000431,2.165222
4468000,0.0324,0.013523,0.002678,0.000431,2.108221
4469000,0.0324,0.013523,0.002678,0.000431,2.053923
4470000,0.0324,0.013523,0.002678,0.000431,2.089063
4471000,0.0324,0.013523,0.002678,0.000431,1.963073
4472000,0.0324,0.013523,0.002678,0.000431,2.048046
4473000,0.0324,0.013523,0.002678,0.000431,2.088123
4474000,0.0324,0.013523,0.002678,0.000431,1.995276
4475000,0.0324,0.013523,0.002678,0.000431,2.021250
4476000,0.0324,0.013523,0.002678,0.000431,2.105988
4477000,0.0324,0.013523,0.002678,0.000431,1.904897
4478000,0.0324,0.013523,0.002678,0.000431,2.005501
4479000,0.0324,0.013523,0.002678,0.000431,1.934161
4480000,0.0324,0.013523,0.002678,0.000431,1.881156
4481000,0.0324,0.013523,0.002678,0.000431,1.876455
4482000,0.0324,0.013523,0.002678,0.000431,1.886327
4483000,0.0324,0.013523,0.002678,0.000431,1.987637
4484000,0.0324,0.013523,0.002678,0.000431,1.997627
4485000,0.0324,0.013523,0.002678,0.000431,1.929695
4486000,0.0324,0.013523,0.002678,0.000431,1.771737
4487000,0.0324,0.013523,0.002678,0.000431,1.674189
4488000,0.0324,0.013523,0.002678,0.000431,1.531627
4489000,0.0324,0.013523,0.002678,0.000431,1.559834
4490000,0.0324,0.013523,0.002678,0.000431,1.626825
4491000,0.0324,0.013523,0.002678,0.000431,1.830501
4492000,0.0324,0.013523,0.002678,0.000431,1.952378
4493000,0.0324,0.013523,0.002678,0.000431,1.909010
4494000,0.0324,0.013523,0.002678,0.000431,1.779024
4495000,0.0324,0.013523,0.002678,0.000431,1.735421
4496000,0.0324,0.013523,0.002678,0.000431,1.777026
4497000,0.0324,0.013523,0.002678,0.000431,1.843312
4498000,0.0324,0.013523,0.002678,0.000431,1.757869
4499000,0.0324,0.013523,0.002678,0.000431,1.857063
4500000,0.0324,0.013523,0.002678,0.000431,1.818749
4501000,0.0324,0.013523,0.002678,0.000431,1.805115
4502000,0.0324,0.013523,0.002678,0.000431,1.882566
4503000,0.0324,0.013523,0.002678,0.000431,1.824390
4504000,0.0324,0.013523,0.002678,0.000431,1.815458
4505000,0.0324,0.013523,0.002678,0.000431,1.916297
4506000,0.0324,0.013523,0.002678,0.000431,1.855182
4507000,0.0324,0.013523,0.002678,0.000431,1.859061
4508000,0.0324,0.013523,0.002678,0.000431,1.956844
4509000,0.0324,0.013523,0.002678,0.000431,1.921703
4510000,0.0324,0.013523,0.002678,0.000431,2.004091
4511000,0.0324,0.013523,0.002678,0.000431,1.946032
4512000,0.0324,0.013523,0.002678,0.000431,1.941213
4513000,0.0324,0.013523,0.002678,0.000431,2.013610
4514000,0.0324,0.013523,0.002678,0.000431,1.728134
4515000,0.0324,0.013523,0.002678,0.000431,1.919470
4516000,0.0324,0.013523,0.002678,0.000431,2.094587
4517000,0.0324,0.013523,0.002678,0.000431,1.920763
4518000,0.0324,0.013523,0.002678,0.000431,2.062032
4519000,0.0324,0.013523,0.002678,0.000431,2.007381
4520000,0.0324,0.013523,0.002678,0.000431,2.094117
4521000,0.0324,0.013523,0.002678,0.000431,2.136075
4522000,0.0324,0.013523,0.002678,0.000431,2.108456
4523000,0.0324,0.013523,0.002678,0.000431,2.333522
4524000,0.0324,0.013523,0.002678,0.000431,2.263945
4525000,0.0324,0.013523,0.002678,0.000431,2.186612
4526000,0.0324,0.013523,0.002678,0.000431,2.323415
4527000,0.0324,0.013523,0.002678,0.000431,2.101874
4528000,0.0324,0.013523,0.002678,0.000431,2.120914
4529000,0.0324,0.013523,0.002678,0.000431,2.310722
4530000,0.0324,0.013523,0.002678,0.000431,2.159463
4531000,0.0324,0.013523,0.002678,0.000431,2.232330
4532000,0.0324,0.013523,0.002678,0.000431,2.203888
4533000,0.0324,0.013523,0.002678,0.000431,2.171803
4534000,0.0324,0.013523,0.002678,0.000431,2.319654
4535000,0.0324,0.013523,0.002678,0.000431,2.060622
4536000,0.0324,0.013523,0.002678,0.000431,2.038761
4537000,0.0324,0.013523,0.002678,0.000431,2.185437
4538000,0.0324,0.013523,0.002678,0.000431,2.019369
4539000,0.0324,0.013523,0.002678,0.000431,2.133254
4540000,0.0324,0.013523,0.002678,0.000431,1.918765
4541000,0.0324,0.013523,0.002678,0.000431,2.091179
4542000,0.0324,0.013523,0.002678,0.000431,2.059916
4543000,0.0324,0.013523,0.002678,0.000431,1.942858
4544000,0.0324,0.013523,0.002678,0.000431,2.136310
4545000,0.0324,0.013523,0.002678,0.000431,2.201303
4546000,0.0324,0.013523,0.002678,0.000431,2.133019
4547000,0.0324,0.013523,0.002678,0.000431,2.152764
4548000,0.0324,0.013523,0.002678,0.000431,2.124087
4549000,0.0324,0.013523,0.002678,0.000431,2.053687
4550000,0.0324,0.013523,0.002678,0.000431,2.156055
4551000,0.0324,0.013523,0.002678,0.000431,2.090121
4552000,0.0324,0.013523,0.002678,0.000431,2.089298
4553000,0.0324,0.013523,0.002678,0.000431,2.214936
4554000,0.0324,0.013523,0.002678,0.000431,2.142069
4555000,0.0324,0.013523,0.002678,0.000431,2.248784
4556000,0.0324,0.013523,0.002678,0.000431,2.092707
4557000,0.0324,0.013523,0.002678,0.000431,2.009262
4558000,0.0324,0.013523,0.002678,0.000431,2.073550
4559000,0.0324,0.013523,0.002678,0.000431,1.930400
4560000,0.0324,0.013523,0.002678,0.000431,2.070376
4561000,0.0324,0.013523,0.002678,0.000431,1.919588
4562000,0.0324,0.013523,0.002678,0.000431,1.950498
4563000,0.0324,0.013523,0.002678,0.000431,2.031945
4564000,0.0324,0.013523,0.002678,0.000431,1.987872
4565000,0.0324,0.013523,0.002678,0.000431,1.911478
4566000,0.0324,0.013523,0.002678,0.000431,2.026186
4567000,0.0324,0.013523,0.002678,0.000431,1.891146
4568000,0.0324,0.013523,0.002678,0.000431,1.904897
4569000,0.0324,0.013523,0.002678,0.000431,1.683944
4570000,0.0324,0.013523,0.002678,0.000431,1.718850
4571000,0.0324,0.013523,0.002678,0.000431,1.903369
4572000,0.0324,0.013523,0.002678,0.000431,1.881626
4573000,0.0324,0.013523,0.002678,0.000431,1.842959
4574000,0.0324,0.013523,0.002678,0.000431,1.900313
4575000,0.0324,0.013523,0.002678,0.000431,1.950380
4576000,0.0324,0.013523,0.002678,0.000431,1.728957
4577000,0.0324,0.013523,0.002678,0.000431,1.724844
4578000,0.0324,0.013523,0.002678,0.000431,1.803000
4579000,0.0324,0.013523,0.002678,0.000431,1.831794
4580000,0.0324,0.013523,0.002678,0.000431,1.898080
4581000,0.0324,0.013523,0.002678,0.000431,1.847896
4582000,0.0324,0.013523,0.002678,0.000431,1.817103
4583000,0.0324,0.013523,0.002678,0.000431,1.834145
4584000,0.0324,0.013523,0.002678,0.000431,1.727077
4585000,0.0324,0.013523,0.002678,0.000431,1.849659
4586000,0.0324,0.013523,0.002678,0.000431,1.710975
4587000,0.0324,0.013523,0.002678,0.000431,1.720730
4588000,0.0324,0.013523,0.002678,0.000431,1.804058
4589000,0.0324,0.013523,0.002678,0.000431,1.802882
4590000,0.0324,0.013523,0.002678,0.000431,1.775028
4591000,0.0324,0.013523,0.002678,0.000431,1.698282
4592000,0.0324,0.013523,0.002678,0.000431,1.709800
4593000,0.0324,0.013523,0.002678,0.000431,1.777261
4594000,0.0324,0.013523,0.002678,0.000431,1.776203
4595000,0.0324,0.013523,0.002678,0.000431,1.719790
4596000,0.0324,0.013523,0.002678,0.000431,1.739417
4597000,0.0324,0.013523,0.002678,0.000431,1.798064
4598000,0.0324,0.013523,0.002678,0.000431,1.707920
4599000,0.0324,0.013523,0.002678,0.000431,1.722023
4600000,0.0324,0.013523,0.002678,0.000431,1.755048
4601000,0.0324,0.013523,0.002678,0.000431,1.769387
4602000,0.0324,0.013523,0.002678,0.000431,1.681241
4603000,0.0324,0.013523,0.002678,0.000431,1.712973
4604000,0.0324,0.013523,0.002678,0.000431,1.735656
4605000,0.0324,0.013523,0.002678,0.000431,1.718144
4606000,0.0324,0.013523,0.002678,0.000431,1.670193
4607000,0.0324,0.013523,0.002678,0.000431,1.752815
4608000,0.0324,0.013523,0.002678,0.000431,1.734951
4609000,0.0324,0.013523,0.002678,0.000431,1.732248
4610000,0.0324,0.013523,0.002678,0.000431,1.739300
4611000,0.0324,0.013523,0.002678,0.000431,1.775733
4612000,0.0324,0.013523,0.002678,0.000431,1.676304
4613000,0.0324,0.013523,0.002678,0.000431,1.700868
4614000,0.0324,0.013523,0.002678,0.000431,1.694756
4615000,0.0324,0.013523,0.002678,0.000431,1.743648
4616000,0.0324,0.013523,0.002678,0.000431,1.759632
4617000,0.0324,0.013523,0.002678,0.000431,1.718027
4618000,0.0324,0.013523,0.002678,0.000431,1.712033
4619000,0.0324,0.013523,0.002678,0.000431,1.812520
4620000,0.0324,0.013523,0.002678,0.000431,1.799827
4621000,0.0324,0.013523,0.002678,0.000431,1.847896
4622000,0.0324,0.013523,0.002678,0.000431,1.861881
4623000,0.0324,0.013523,0.002678,0.000431,1.877043
4624000,0.0324,0.013523,0.002678,0.000431,1.878688
4625000,0.0324,0.013523,0.002678,0.000431,1.838493
4626000,0.0324,0.013523,0.002678,0.000431,1.867640
4627000,0.0324,0.013523,0.002678,0.000431,1.954141
4628000,0.0324,0.013523,0.002678,0.000431,1.990692
4629000,0.0324,0.013523,0.002678,0.000431,2.004796
4630000,0.0324,0.013523,0.002678,0.000431,2.045108
4631000,0.0324,0.013523,0.002678,0.000431,2.008557
4632000,0.0324,0.013523,0.002678,0.000431,2.070024
4633000,0.0324,0.013523,0.002678,0.000431,2.047811
4634000,0.0324,0.013523,0.002678,0.000431,2.115625
4635000,0.0324,0.013523,0.002678,0.000431,2.070376
4636000,0.0324,0.013523,0.002678,0.000431,1.911596
4637000,0.0324,0.013523,0.002678,0.000431,2.141128
4638000,0.0324,0.013523,0.002678,0.000431,2.149943
4639000,0.0324,0.013523,0.002678,0.000431,2.209295
4640000,0.0324,0.013523,0.002678,0.000431,1.903251
4641000,0.0324,0.013523,0.002678,0.000431,1.984463
4642000,0.0324,0.013523,0.002678,0.000431,1.921468
4643000,0.0324,0.013523,0.002678,0.000431,2.088828
4644000,0.0324,0.013523,0.002678,0.000431,2.245964
4645000,0.0324,0.013523,0.002678,0.000431,2.078368
4646000,0.0324,0.013523,0.002678,0.000431,2.080954
4647000,0.0324,0.013523,0.002678,0.000431,2.120561
4648000,0.0324,0.013523,0.002678,0.000431,2.072492
4649000,0.0324,0.013523,0.002678,0.000431,1.967539
4650000,0.0324,0.013523,0.002678,0.000431,2.091296
4651000,0.0324,0.013523,0.002678,0.000431,2.007499
4652000,0.0324,0.013523,0.002678,0.000431,2.113744
4653000,0.0324,0.013523,0.002678,0.000431,2.058154
4654000,0.0324,0.013523,0.002678,0.000431,2.001975
4655000,0.0324,0.013523,0.002678,0.000431,2.197072
4656000,0.0324,0.013523,0.002678,0.000431,2.022190
4657000,0.0324,0.013523,0.002678,0.000431,2.265356
4658000,0.0324,0.013523,0.002678,0.000431,2.078838
4659000,0.0324,0.013523,0.002678,0.000431,2.285336
4660000,0.0324,0.013523,0.002678,0.000431,2.113509
4661000,0.0324,0.013523,0.002678,0.000431,2.070729
4662000,0.0324,0.013523,0.002678,0.000431,2.136310
4663000,0.0324,0.013523,0.002678,0.000431,2.108691
4664000,0.0324,0.013523,0.002678,0.000431,2.063795
4665000,0.0324,0.013523,0.002678,0.000431,2.139366
4666000,0.0324,0.013523,0.002678,0.000431,1.888795
4667000,0.0324,0.013523,0.002678,0.000431,1.966834
4668000,0.0324,0.013523,0.002678,0.000431,1.925934
4669000,0.0324,0.013523,0.002678,0.000431,2.064265
4670000,0.0324,0.013523,0.002678,0.000431,1.816281
4671000,0.0324,0.013523,0.002678,0.000431,2.098936
4672000,0.0324,0.013523,0.002678,0.000431,2.140776
4673000,0.0324,0.013523,0.002678,0.000431,2.166750
4674000,0.0324,0.013523,0.002678,0.000431,2.036998
4675000,0.0324,0.013523,0.002678,0.000431,2.088241
4676000,0.0324,0.013523,0.002678,0.000431,2.030182
4677000,0.0324,0.013523,0.002678,0.000431,1.933104
4678000,0.0324,0.013523,0.002678,0.000431,1.949205
4679000,0.0324,0.013523,0.002678,0.000431,2.065205
4680000,0.0324,0.013523,0.002678,0.000431,1.984581
4681000,0.0324,0.013523,0.002678,0.000431,1.926287
4682000,0.0324,0.013523,0.002678,0.000431,1.944504
4683000,0.0324,0.013523,0.002678,0.000431,1.809346
4684000,0.0324,0.013523,0.002678,0.000431,1.966246
4685000,0.0324,0.013523,0.002678,0.000431,1.684884
4686000,0.0324,0.013523,0.002678,0.000431,1.745764
4687000,0.0324,0.013523,0.002678,0.000431,1.685119
4688000,0.0324,0.013523,0.002678,0.000431,1.992220
4689000,0.0324,0.013523,0.002678,0.000431,1.818514
4690000,0.0324,0.013523,0.002678,0.000431,1.938510
4691000,0.0324,0.013523,0.002678,0.000431,1.974356
4692000,0.0324,0.013523,0.002678,0.000431,1.907012
4693000,0.0324,0.013523,0.002678,0.000431,1.945326
4694000,0.0324,0.013523,0.002678,0.000431,1.845663
4695000,0.0324,0.013523,0.002678,0.000431,1.883742
4696000,0.0324,0.013523,0.002678,0.000431,2.026303
4697000,0.0324,0.013523,0.002678,0.000431,2.023718
4698000,0.0324,0.013523,0.002678,0.000431,1.988342
4699000,0.0324,0.013523,0.002678,0.000431,1.984346
4700000,0.0324,0.013523,0.002678,0.000431,1.891969
4701000,0.0324,0.013523,0.002678,0.000431,1.783138
4702000,0.0324,0.013523,0.002678,0.000431,2.010672
4703000,0.0324,0.013523,0.002678,0.000431,1.890088
4704000,0.0324,0.013523,0.002678,0.000431,1.706979
4705000,0.0324,0.013523,0.002678,0.000431,1.930283
4706000,0.0324,0.013523,0.002678,0.000431,1.934866
4707000,0.0324,0.013523,0.002678,0.000431,1.907365
4708000,0.0324,0.013523,0.002678,0.000431,2.033473
4709000,0.0324,0.013523,0.002678,0.000431,1.748114
4710000,0.0324,0.013523,0.002678,0.000431,2.000682
4711000,0.0324,0.013523,0.002678,0.000431,1.921821
4712000,0.0324,0.013523,0.002678,0.000431,1.740710
4713000,0.0324,0.013523,0.002678,0.000431,1.864585
4714000,0.0324,0.013523,0.002678,0.000431,1.832147
4715000,0.0324,0.013523,0.002678,0.000431,1.914417
4716000,0.0324,0.013523,0.002678,0.000431,2.015608
4717000,0.0324,0.013523,0.002678,0.000431,2.035236
4718000,0.0324,0.013523,0.002678,0.000431,1.954259
4719000,0.0324,0.013523,0.002678,0.000431,2.122441
4720000,0.0324,0.013523,0.002678,0.000431,2.031710
4721000,0.0324,0.013523,0.002678,0.000431,2.127965
4722000,0.0324,0.013523,0.002678,0.000431,1.906895
4723000,0.0324,0.013523,0.002678,0.000431,1.993043
4724000,0.0324,0.013523,0.002678,0.000431,1.929813
4725000,0.0324,0.013523,0.002678,0.000431,2.029947
4726000,0.0324,0.013523,0.002678,0.000431,2.166162
4727000,0.0324,0.013523,0.002678,0.000431,1.955081
4728000,0.0324,0.013523,0.002678,0.000431,2.207179
4729000,0.0324,0.013523,0.002678,0.000431,1.967187
4730000,0.0324,0.013523,0.002678,0.000431,2.369603
4731000,0.0324,0.013523,0.002678,0.000431,2.075900
4732000,0.0324,0.013523,0.002678,0.000431,2.131726
4733000,0.0324,0.013523,0.002678,0.000431,1.789719
4734000,0.0324,0.013523,0.002678,0.000431,1.920763
4735000,0.0324,0.013523,0.002678,0.000431,2.103284
4736000,0.0324,0.013523,0.002678,0.000431,2.015726
4737000,0.0324,0.013523,0.002678,0.000431,2.107280
4738000,0.0324,0.013523,0.002678,0.000431,2.117505
4739000,0.0324,0.013523,0.002678,0.000431,2.082834
4740000,0.0324,0.013523,0.002678,0.000431,2.121854
4741000,0.0324,0.013523,0.002678,0.000431,2.056508
4742000,0.0324,0.013523,0.002678,0.000431,2.141011
4743000,0.0324,0.013523,0.002678,0.000431,2.074490
4744000,0.0324,0.013523,0.002678,0.000431,1.909480
4745000,0.0324,0.013523,0.002678,0.000431,2.033825
4746000,0.0324,0.013523,0.002678,0.000431,1.807701
4747000,0.0324,0.013523,0.002678,0.000431,1.902076
4748000,0.0324,0.013523,0.002678,0.000431,2.016313
4749000,0.0324,0.013523,0.002678,0.000431,1.756459
4750000,0.0324,0.013523,0.002678,0.000431,1.842959
4751000,0.0324,0.013523,0.002678,0.000431,1.765626
4752000,0.0324,0.013523,0.002678,0.000431,2.065440
4753000,0.0324,0.013523,0.002678,0.000431,2.012318
4754000,0.0324,0.013523,0.002678,0.000431,2.018899
4755000,0.0324,0.013523,0.002678,0.000431,2.111394
4756000,0.0324,0.013523,0.002678,0.000431,1.984816
4757000,0.0324,0.013523,0.002678,0.000431,2.032062
4758000,0.0324,0.013523,0.002678,0.000431,2.012435
4759000,0.0324,0.013523,0.002678,0.000431,1.947560
4760000,0.0324,0.013523,0.002678,0.000431,2.093412
4761000,0.0324,0.013523,0.002678,0.000431,1.922291
4762000,0.0324,0.013523,0.002678,0.000431,1.910303
4763000,0.0324,0.013523,0.002678,0.000431,1.938510
4764000,0.0324,0.013523,0.002678,0.000431,1.861294
4765000,0.0324,0.013523,0.002678,0.000431,1.960488
4766000,0.0324,0.013523,0.002678,0.000431,1.972123
4767000,0.0324,0.013523,0.002678,0.000431,1.922056
4768000,0.0324,0.013523,0.002678,0.000431,1.913594
4769000,0.0324,0.013523,0.002678,0.000431,1.903251
4770000,0.0324,0.013523,0.002678,0.000431,1.827211
4771000,0.0324,0.013523,0.002678,0.000431,1.757281
4772000,0.0324,0.013523,0.002678,0.000431,1.938745
4773000,0.0324,0.013523,0.002678,0.000431,1.736714
4774000,0.0324,0.013523,0.002678,0.000431,1.828268
4775000,0.0324,0.013523,0.002678,0.000431,1.884799
4776000,0.0324,0.013523,0.002678,0.000431,1.866348
4777000,0.0324,0.013523,0.002678,0.000431,1.754461
4778000,0.0324,0.013523,0.002678,0.000431,1.847073
4779000,0.0324,0.013523,0.002678,0.000431,1.837436
4780000,0.0324,0.013523,0.002678,0.000431,1.866465
4781000,0.0324,0.013523,0.002678,0.000431,1.703689
4782000,0.0324,0.013523,0.002678,0.000431,1.631291
4783000,0.0324,0.013523,0.002678,0.000431,1.665844
4784000,0.0324,0.013523,0.002678,0.000431,1.750700
4785000,0.0324,0.013523,0.002678,0.000431,1.815575
4786000,0.0324,0.013523,0.002678,0.000431,1.689585
4787000,0.0324,0.013523,0.002678,0.000431,1.733658
4788000,0.0324,0.013523,0.002678,0.000431,1.680065
4789000,0.0324,0.013523,0.002678,0.000431,1.747409
4790000,0.0324,0.013523,0.002678,0.000431,1.695814
4791000,0.0324,0.013523,0.002678,0.000431,1.734363
4792000,0.0324,0.013523,0.002678,0.000431,1.651859
4793000,0.0324,0.013523,0.002678,0.000431,1.610136
4794000,0.0324,0.013523,0.002678,0.000431,1.766566
4795000,0.0324,0.013523,0.002678,0.000431,1.727194
4796000,0.0324,0.013523,0.002678,0.000431,1.677362
4797000,0.0324,0.013523,0.002678,0.000431,1.918883
4798000,0.0324,0.013523,0.002678,0.000431,1.817808
4799000,0.0324,0.013523,0.002678,0.000431,1.818631
4800000,0.0324,0.013523,0.002678,0.000431,1.791247
4801000,0.0324,0.013523,0.002678,0.000431,1.915357
4802000,0.0324,0.013523,0.002678,0.000431,2.000447
4803000,0.0324,0.013523,0.002678,0.000431,2.054040
4804000,0.0324,0.013523,0.002678,0.000431,1.854125
4805000,0.0324,0.013523,0.002678,0.000431,1.988224
4806000,0.0324,0.013523,0.002678,0.000431,1.995041
4807000,0.0324,0.013523,0.002678,0.000431,2.045225
4808000,0.0324,0.013523,0.002678,0.000431,1.906190
4809000,0.0324,0.013523,0.002678,0.000431,2.038644
4810000,0.0324,0.013523,0.002678,0.000431,1.717439
4811000,0.0324,0.013523,0.002678,0.000431,2.051925
4812000,0.0324,0.013523,0.002678,0.000431,2.043110
4813000,0.0324,0.013523,0.002678,0.000431,1.958255
4814000,0.0324,0.013523,0.002678,0.000431,2.105400
4815000,0.0324,0.013523,0.002678,0.000431,2.153704
4816000,0.0324,0.013523,0.002678,0.000431,1.973768
4817000,0.0324,0.013523,0.002678,0.000431,1.992455
4818000,0.0324,0.013523,0.002678,0.000431,1.997744
4819000,0.0324,0.013523,0.002678,0.000431,1.804645
4820000,0.0324,0.013523,0.002678,0.000431,2.066733
4821000,0.0324,0.013523,0.002678,0.000431,1.902194
4822000,0.0324,0.013523,0.002678,0.000431,2.003738
4823000,0.0324,0.013523,0.002678,0.000431,1.991985
4824000,0.0324,0.013523,0.002678,0.000431,2.049221
4825000,0.0324,0.013523,0.002678,0.000431,1.833675
4826000,0.0324,0.013523,0.002678,0.000431,1.802060
4827000,0.0324,0.013523,0.002678,0.000431,1.720495
4828000,0.0324,0.013523,0.002678,0.000431,1.993160
4829000,0.0324,0.013523,0.002678,0.000431,2.091767
4830000,0.0324,0.013523,0.002678,0.000431,2.045578
4831000,0.0324,0.013523,0.002678,0.000431,2.003150
4832000,0.0324,0.013523,0.002678,0.000431,2.009732
4833000,0.0324,0.013523,0.002678,0.000431,1.937100
4834000,0.0324,0.013523,0.002678,0.000431,1.909833
4835000,0.0324,0.013523,0.002678,0.000431,2.104695
4836000,0.0324,0.013523,0.002678,0.000431,1.949793
4837000,0.0324,0.013523,0.002678,0.000431,2.085303
4838000,0.0324,0.013523,0.002678,0.000431,1.980350
4839000,0.0324,0.013523,0.002678,0.000431,1.989870
4840000,0.0324,0.013523,0.002678,0.000431,2.060739
4841000,0.0324,0.013523,0.002678,0.000431,1.936277
4842000,0.0324,0.013523,0.002678,0.000431,1.932046
4843000,0.0324,0.013523,0.002678,0.000431,1.856593
4844000,0.0324,0.013523,0.002678,0.000431,1.807701
4845000,0.0324,0.013523,0.002678,0.000431,2.004208
4846000,0.0324,0.013523,0.002678,0.000431,1.887855
4847000,0.0324,0.013523,0.002678,0.000431,1.926052
4848000,0.0324,0.013523,0.002678,0.000431,1.922173
4849000,0.0324,0.013523,0.002678,0.000431,1.916415
4850000,0.0324,0.013523,0.002678,0.000431,1.817456
4851000,0.0324,0.013523,0.002678,0.000431,1.754343
4852000,0.0324,0.013523,0.002678,0.000431,1.936277
4853000,0.0324,0.013523,0.002678,0.000431,1.887620
4854000,0.0324,0.013523,0.002678,0.000431,1.952966
4855000,0.0324,0.013523,0.002678,0.000431,1.754931
4856000,0.0324,0.013523,0.002678,0.000431,1.959782
4857000,0.0324,0.013523,0.002678,0.000431,1.931341
4858000,0.0324,0.013523,0.002678,0.000431,1.967892
4859000,0.0324,0.013523,0.002678,0.000431,1.897493
4860000,0.0324,0.013523,0.002678,0.000431,1.909480
4861000,0.0324,0.013523,0.002678,0.000431,1.882801
4862000,0.0324,0.013523,0.002678,0.000431,1.824272
4863000,0.0324,0.013523,0.002678,0.000431,1.802177
4864000,0.0324,0.013523,0.002678,0.000431,1.813695
4865000,0.0324,0.013523,0.002678,0.000431,1.865407
4866000,0.0324,0.013523,0.002678,0.000431,1.797123
4867000,0.0324,0.013523,0.002678,0.000431,1.819101
4868000,0.0324,0.013523,0.002678,0.000431,1.829561
4869000,0.0324,0.013523,0.002678,0.000431,1.818043
4870000,0.0324,0.013523,0.002678,0.000431,1.830031
4871000,0.0324,0.013523,0.002678,0.000431,1.816281
4872000,0.0324,0.013523,0.002678,0.000431,1.887620
4873000,0.0324,0.013523,0.002678,0.000431,1.689703
4874000,0.0324,0.013523,0.002678,0.000431,1.808289
4875000,0.0324,0.013523,0.002678,0.000431,1.703336
4876000,0.0324,0.013523,0.002678,0.000431,1.673014
4877000,0.0324,0.013523,0.002678,0.000431,1.763393
4878000,0.0324,0.013523,0.002678,0.000431,1.699340
4879000,0.0324,0.013523,0.002678,0.000431,1.836613
4880000,0.0324,0.013523,0.002678,0.000431,1.654679
4881000,0.0324,0.013523,0.002678,0.000431,1.740122
4882000,0.0324,0.013523,0.002678,0.000431,1.722493
4883000,0.0324,0.013523,0.002678,0.000431,1.827328
4884000,0.0324,0.013523,0.002678,0.000431,1.818749
4885000,0.0324,0.013523,0.002678,0.000431,1.721670
4886000,0.0324,0.013523,0.002678,0.000431,1.722611
4887000,0.0324,0.013523,0.002678,0.000431,1.622594
4888000,0.0324,0.013523,0.002678,0.000431,1.633172
4889000,0.0324,0.013523,0.002678,0.000431,1.659733
4890000,0.0324,0.013523,0.002678,0.000431,1.708507
4891000,0.0324,0.013523,0.002678,0.000431,1.745176
4892000,0.0324,0.013523,0.002678,0.000431,1.669370
4893000,0.0324,0.013523,0.002678,0.000431,1.788896
4894000,0.0324,0.013523,0.002678,0.000431,1.675834
4895000,0.0324,0.013523,0.002678,0.000431,1.812990
4896000,0.0324,0.013523,0.002678,0.000431,1.851774
4897000,0.0324,0.013523,0.002678,0.000431,1.874692
4898000,0.0324,0.013523,0.002678,0.000431,1.767154
4899000,0.0324,0.013523,0.002678,0.000431,1.803352
4900000,0.0324,0.013523,0.002678,0.000431,1.778554
4901000,0.0324,0.013523,0.002678,0.000431,1.793363
4902000,0.0324,0.013523,0.002678,0.000431,1.684649
4903000,0.0324,0.013523,0.002678,0.000431,1.623534
4904000,0.0324,0.013523,0.002678,0.000431,1.589804
4905000,0.0324,0.013523,0.002678,0.000431,1.680065
4906000,0.0324,0.013523,0.002678,0.000431,1.782315
4907000,0.0324,0.013523,0.002678,0.000431,1.728957
4908000,0.0324,0.013523,0.002678,0.000431,1.764451
4909000,0.0324,0.013523,0.002678,0.000431,1.753638
4910000,0.0324,0.013523,0.002678,0.000431,1.676304
4911000,0.0324,0.013523,0.002678,0.000431,1.655267
4912000,0.0324,0.013523,0.002678,0.000431,1.988342
4913000,0.0324,0.013523,0.002678,0.000431,1.894437
4914000,0.0324,0.013523,0.002678,0.000431,1.846603
4915000,0.0324,0.013523,0.002678,0.000431,1.904309
4916000,0.0324,0.013523,0.002678,0.000431,1.937217
4917000,0.0324,0.013523,0.002678,0.000431,2.051689
4918000,0.0324,0.013523,0.002678,0.000431,2.130081
4919000,0.0324,0.013523,0.002678,0.000431,2.051219
4920000,0.0324,0.013523,0.002678,0.000431,1.977177
4921000,0.0324,0.013523,0.002678,0.000431,2.248549
4922000,0.0324,0.013523,0.002678,0.000431,2.146770
4923000,0.0324,0.013523,0.002678,0.000431,2.291094
4924000,0.0324,0.013523,0.002678,0.000431,2.211293
4925000,0.0324,0.013523,0.002678,0.000431,2.270527
4926000,0.0324,0.013523,0.002678,0.000431,2.383824
4927000,0.0324,0.013523,0.002678,0.000431,2.359026
4928000,0.0324,0.013523,0.002678,0.000431,2.297323
4929000,0.0324,0.013523,0.002678,0.000431,2.188022
4930000,0.0324,0.013523,0.002678,0.000431,2.003503
4931000,0.0324,0.013523,0.002678,0.000431,2.201890
4932000,0.0324,0.013523,0.002678,0.000431,2.138778
4933000,0.0324,0.013523,0.002678,0.000431,2.196602
4934000,0.0324,0.013523,0.002678,0.000431,2.024188
4935000,0.0324,0.013523,0.002678,0.000431,1.960253
4936000,0.0324,0.013523,0.002678,0.000431,2.149120
4937000,0.0324,0.013523,0.002678,0.000431,2.010672
4938000,0.0324,0.013523,0.002678,0.000431,1.943211
4939000,0.0324,0.013523,0.002678,0.000431,2.083070
4940000,0.0324,0.013523,0.002678,0.000431,2.334697
4941000,0.0324,0.013523,0.002678,0.000431,2.111746
4942000,0.0324,0.013523,0.002678,0.000431,2.263358
4943000,0.0324,0.013523,0.002678,0.000431,2.105988
4944000,0.0324,0.013523,0.002678,0.000431,2.165574
4945000,0.0324,0.013523,0.002678,0.000431,2.123029
4946000,0.0324,0.013523,0.002678,0.000431,1.944504
4947000,0.0324,0.013523,0.002678,0.000431,2.070376
4948000,0.0324,0.013523,0.002678,0.000431,1.953906
4949000,0.0324,0.013523,0.002678,0.000431,2.000917
4950000,0.0324,0.013523,0.002678,0.000431,2.088946
4951000,0.0324,0.013523,0.002678,0.000431,2.129728
4952000,0.0324,0.013523,0.002678,0.000431,2.041347
4953000,0.0324,0.013523,0.002678,0.000431,2.021367
4954000,0.0324,0.013523,0.002678,0.000431,2.001387
4955000,0.0324,0.013523,0.002678,0.000431,1.905249
4956000,0.0324,0.013523,0.002678,0.000431,1.869403
4957000,0.0324,0.013523,0.002678,0.000431,1.810757
4958000,0.0324,0.013523,0.002678,0.000431,1.724373
4959000,0.0324,0.013523,0.002678,0.000431,1.954494
4960000,0.0324,0.013523,0.002678,0.000431,1.858473
4961000,0.0324,0.013523,0.002678,0.000431,1.998332
4962000,0.0324,0.013523,0.002678,0.000431,1.939215
4963000,0.0324,0.013523,0.002678,0.000431,1.943681
4964000,0.0324,0.013523,0.002678,0.000431,1.887150
4965000,0.0324,0.013523,0.002678,0.000431,1.888560
4966000,0.0324,0.013523,0.002678,0.000431,1.860824
4967000,0.0324,0.013523,0.002678,0.000431,1.894437
4968000,0.0324,0.013523,0.002678,0.000431,1.856123
4969000,0.0324,0.013523,0.002678,0.000431,1.915474
4970000,0.0324,0.013523,0.002678,0.000431,1.712151
4971000,0.0324,0.013523,0.002678,0.000431,1.578991
4972000,0.0324,0.013523,0.002678,0.000431,1.628941
4973000,0.0324,0.013523,0.002678,0.000431,1.688762
4974000,0.0324,0.013523,0.002678,0.000431,1.842489
4975000,0.0324,0.013523,0.002678,0.000431,1.931223
4976000,0.0324,0.013523,0.002678,0.000431,1.747291
4977000,0.0324,0.013523,0.002678,0.000431,1.679243
4978000,0.0324,0.013523,0.002678,0.000431,1.852127
4979000,0.0324,0.013523,0.002678,0.000431,1.651153
4980000,0.0324,0.013523,0.002678,0.000431,1.888208
4981000,0.0324,0.013523,0.002678,0.000431,1.898433
4982000,0.0324,0.013523,0.002678,0.000431,1.750230
4983000,0.0324,0.013523,0.002678,0.000431,1.720142
4984000,0.0324,0.013523,0.002678,0.000431,1.609196
4985000,0.0324,0.013523,0.002678,0.000431,1.880804
4986000,0.0324,0.013523,0.002678,0.000431,1.636110
4987000,0.0324,0.013523,0.002678,0.000431,1.805938
4988000,0.0324,0.013523,0.002678,0.000431,1.944269
4989000,0.0324,0.013523,0.002678,0.000431,1.914534
4990000,0.0324,0.013523,0.002678,0.000431,1.872224
4991000,0.0324,0.013523,0.002678,0.000431,1.980702
4992000,0.0324,0.013523,0.002678,0.000431,1.965306
4993000,0.0324,0.013523,0.002678,0.000431,2.004326
4994000,0.0324,0.013523,0.002678,0.000431,1.955786
4995000,0.0324,0.013523,0.002678,0.000431,1.869286
4996000,0.0324,0.013523,0.002678,0.000431,1.892086
4997000,0.0324,0.013523,0.002678,0.000431,2.051925
4998000,0.0324,0.013523,0.002678,0.000431,1.894789
4999000,0.0324,0.013523,0.002678,0.000431,1.810639
