Cycle,Area(mm^2),PeakDynamic(W),SubthresholdLeakage(W),GateLeakage(W),RunTimeDynamic(W)
9000000,0.0324,0.013523,0.002678,0.000431,2.022307
9001000,0.0324,0.013523,0.002678,0.000431,2.179090
9002000,0.0324,0.013523,0.002678,0.000431,2.105752
9003000,0.0324,0.013523,0.002678,0.000431,2.084362
9004000,0.0324,0.013523,0.002678,0.000431,2.158170
9005000,0.0324,0.013523,0.002678,0.000431,2.198482
9006000,0.0324,0.013523,0.002678,0.000431,2.211998
9007000,0.0324,0.013523,0.002678,0.000431,2.074020
9008000,0.0324,0.013523,0.002678,0.000431,1.964131
9009000,0.0324,0.013523,0.002678,0.000431,2.024658
9010000,0.0324,0.013523,0.002678,0.000431,1.843077
9011000,0.0324,0.013523,0.002678,0.000431,2.121384
9012000,0.0324,0.013523,0.002678,0.000431,2.046166
9013000,0.0324,0.013523,0.002678,0.000431,1.793363
9014000,0.0324,0.013523,0.002678,0.000431,2.269352
9015000,0.0324,0.013523,0.002678,0.000431,2.149943
9016000,0.0324,0.013523,0.002678,0.000431,2.212821
9017000,0.0324,0.013523,0.002678,0.000431,1.936042
9018000,0.0324,0.013523,0.002678,0.000431,2.158288
9019000,0.0324,0.013523,0.002678,0.000431,2.189080
9020000,0.0324,0.013523,0.002678,0.000431,2.198482
9021000,0.0324,0.013523,0.002678,0.000431,2.163811
9022000,0.0324,0.013523,0.002678,0.000431,2.221165
9023000,0.0324,0.013523,0.002678,0.000431,2.171216
9024000,0.0324,0.013523,0.002678,0.000431,2.205886
9025000,0.0324,0.013523,0.002678,0.000431,2.257011
9026000,0.0324,0.013523,0.002678,0.000431,2.172508
9027000,0.0324,0.013523,0.002678,0.000431,1.990575
9028000,0.0324,0.013523,0.002678,0.000431,2.205181
9029000,0.0324,0.013523,0.002678,0.000431,2.196602
9030000,0.0324,0.013523,0.002678,0.000431,2.206122
9031000,0.0324,0.013523,0.002678,0.000431,1.983406
9032000,0.0324,0.013523,0.002678,0.000431,2.191548
9033000,0.0324,0.013523,0.002678,0.000431,2.147592
9034000,0.0324,0.013523,0.002678,0.000431,2.175799
9035000,0.0324,0.013523,0.002678,0.000431,2.099288
9036000,0.0324,0.013523,0.002678,0.000431,2.194839
9037000,0.0324,0.013523,0.002678,0.000431,2.117153
9038000,0.0324,0.013523,0.002678,0.000431,2.267119
9039000,0.0324,0.013523,0.002678,0.000431,1.999860
9040000,0.0324,0.013523,0.002678,0.000431,2.017841
9041000,0.0324,0.013523,0.002678,0.000431,2.188022
9042000,0.0324,0.013523,0.002678,0.000431,2.166162
9043000,0.0324,0.013523,0.002678,0.000431,2.096938
9044000,0.0324,0.013523,0.002678,0.000431,2.249372
9045000,0.0324,0.013523,0.002678,0.000431,2.096820
9046000,0.0324,0.013523,0.002678,0.000431,1.942506
9047000,0.0324,0.013523,0.002678,0.000431,2.112099
9048000,0.0324,0.013523,0.002678,0.000431,2.241380
9049000,0.0324,0.013523,0.002678,0.000431,1.966482
9050000,0.0324,0.013523,0.002678,0.000431,2.235856
9051000,0.0324,0.013523,0.002678,0.000431,2.170628
9052000,0.0324,0.013523,0.002678,0.000431,2.301437
9053000,0.0324,0.013523,0.002678,0.000431,2.192958
9054000,0.0324,0.013523,0.002678,0.000431,2.285453
9055000,0.0324,0.013523,0.002678,0.000431,2.279577
9056000,0.0324,0.013523,0.002678,0.000431,2.154762
9057000,0.0324,0.013523,0.002678,0.000431,2.190725
9058000,0.0324,0.013523,0.002678,0.000431,2.110689
9059000,0.0324,0.013523,0.002678,0.000431,2.396517
9060000,0.0324,0.013523,0.002678,0.000431,2.201420
9061000,0.0324,0.013523,0.002678,0.000431,2.102814
9062000,0.0324,0.013523,0.002678,0.000431,2.143009
9063000,0.0324,0.013523,0.002678,0.000431,2.184261
9064000,0.0324,0.013523,0.002678,0.000431,2.120914
9065000,0.0324,0.013523,0.002678,0.000431,1.990457
9066000,0.0324,0.013523,0.002678,0.000431,2.101521
9067000,0.0324,0.013523,0.002678,0.000431,1.872459
9068000,0.0324,0.013523,0.002678,0.000431,1.882214
9069000,0.0324,0.013523,0.002678,0.000431,1.971653
9070000,0.0324,0.013523,0.002678,0.000431,2.017841
9071000,0.0324,0.013523,0.002678,0.000431,1.838493
9072000,0.0324,0.013523,0.002678,0.000431,2.107163
9073000,0.0324,0.013523,0.002678,0.000431,2.023953
9074000,0.0324,0.013523,0.002678,0.000431,2.021250
9075000,0.0324,0.013523,0.002678,0.000431,1.978234
9076000,0.0324,0.013523,0.002678,0.000431,1.965071
9077000,0.0324,0.013523,0.002678,0.000431,2.081072
9078000,0.0324,0.013523,0.002678,0.000431,2.167337
9079000,0.0324,0.013523,0.002678,0.000431,2.001858
9080000,0.0324,0.013523,0.002678,0.000431,1.979645
9081000,0.0324,0.013523,0.002678,0.000431,1.989987
9082000,0.0324,0.013523,0.002678,0.000431,1.907130
9083000,0.0324,0.013523,0.002678,0.000431,1.810639
9084000,0.0324,0.013523,0.002678,0.000431,2.279694
9085000,0.0324,0.013523,0.002678,0.000431,2.106458
9086000,0.0324,0.013523,0.002678,0.000431,2.201068
9087000,0.0324,0.013523,0.002678,0.000431,1.996099
9088000,0.0324,0.013523,0.002678,0.000431,2.087065
9089000,0.0324,0.013523,0.002678,0.000431,2.035941
9090000,0.0324,0.013523,0.002678,0.000431,2.010085
9091000,0.0324,0.013523,0.002678,0.000431,2.118210
9092000,0.0324,0.013523,0.002678,0.000431,2.172273
9093000,0.0324,0.013523,0.002678,0.000431,2.071082
9094000,0.0324,0.013523,0.002678,0.000431,2.206122
9095000,0.0324,0.013523,0.002678,0.000431,1.889971
9096000,0.0324,0.013523,0.002678,0.000431,2.218815
9097000,0.0324,0.013523,0.002678,0.000431,2.030299
9098000,0.0324,0.013523,0.002678,0.000431,1.981878
9099000,0.0324,0.013523,0.002678,0.000431,1.951085
9100000,0.0324,0.013523,0.002678,0.000431,1.963308
9101000,0.0324,0.013523,0.002678,0.000431,1.759397
9102000,0.0324,0.013523,0.002678,0.000431,1.859413
9103000,0.0324,0.013523,0.002678,0.000431,2.031240
9104000,0.0324,0.013523,0.002678,0.000431,1.797006
9105000,0.0324,0.013523,0.002678,0.000431,1.780669
9106000,0.0324,0.013523,0.002678,0.000431,1.867523
9107000,0.0324,0.013523,0.002678,0.000431,1.848836
9108000,0.0324,0.013523,0.002678,0.000431,2.133607
9109000,0.0324,0.013523,0.002678,0.000431,1.814870
9110000,0.0324,0.013523,0.002678,0.000431,1.982348
9111000,0.0324,0.013523,0.002678,0.000431,1.978234
9112000,0.0324,0.013523,0.002678,0.000431,1.980702
9113000,0.0324,0.013523,0.002678,0.000431,2.053100
9114000,0.0324,0.013523,0.002678,0.000431,2.002445
9115000,0.0324,0.013523,0.002678,0.000431,2.107868
9116000,0.0324,0.013523,0.002678,0.000431,2.102814
9117000,0.0324,0.013523,0.002678,0.000431,2.056626
9118000,0.0324,0.013523,0.002678,0.000431,1.678185
9119000,0.0324,0.013523,0.002678,0.000431,1.679125
9120000,0.0324,0.013523,0.002678,0.000431,2.031240
9121000,0.0324,0.013523,0.002678,0.000431,1.909715
9122000,0.0324,0.013523,0.002678,0.000431,1.889501
9123000,0.0324,0.013523,0.002678,0.000431,1.697577
9124000,0.0324,0.013523,0.002678,0.000431,1.651388
9125000,0.0324,0.013523,0.002678,0.000431,1.874692
9126000,0.0324,0.013523,0.002678,0.000431,1.971065
9127000,0.0324,0.013523,0.002678,0.000431,1.916415
9128000,0.0324,0.013523,0.002678,0.000431,1.863174
9129000,0.0324,0.013523,0.002678,0.000431,1.696989
9130000,0.0324,0.013523,0.002678,0.000431,2.078721
9131000,0.0324,0.013523,0.002678,0.000431,1.921938
9132000,0.0324,0.013523,0.002678,0.000431,1.862939
9133000,0.0324,0.013523,0.002678,0.000431,1.671016
9134000,0.0324,0.013523,0.002678,0.000431,1.888560
9135000,0.0324,0.013523,0.002678,0.000431,1.693934
9136000,0.0324,0.013523,0.002678,0.000431,1.768212
9137000,0.0324,0.013523,0.002678,0.000431,1.736949
9138000,0.0324,0.013523,0.002678,0.000431,1.777144
9139000,0.0324,0.013523,0.002678,0.000431,1.729192
9140000,0.0324,0.013523,0.002678,0.000431,1.734481
9141000,0.0324,0.013523,0.002678,0.000431,1.740005
9142000,0.0324,0.013523,0.002678,0.000431,1.805821
9143000,0.0324,0.013523,0.002678,0.000431,1.657382
9144000,0.0324,0.013523,0.002678,0.000431,1.532685
9145000,0.0324,0.013523,0.002678,0.000431,1.821569
9146000,0.0324,0.013523,0.002678,0.000431,1.776438
9147000,0.0324,0.013523,0.002678,0.000431,1.757869
9148000,0.0324,0.013523,0.002678,0.000431,1.669253
9149000,0.0324,0.013523,0.002678,0.000431,1.763628
9150000,0.0324,0.013523,0.002678,0.000431,1.821569
9151000,0.0324,0.013523,0.002678,0.000431,1.809111
9152000,0.0324,0.013523,0.002678,0.000431,1.867053
9153000,0.0324,0.013523,0.002678,0.000431,1.694169
9154000,0.0324,0.013523,0.002678,0.000431,1.687352
9155000,0.0324,0.013523,0.002678,0.000431,1.681241
9156000,0.0324,0.013523,0.002678,0.000431,1.580049
9157000,0.0324,0.013523,0.002678,0.000431,1.598736
9158000,0.0324,0.013523,0.002678,0.000431,1.617775
9159000,0.0324,0.013523,0.002678,0.000431,1.637638
9160000,0.0324,0.013523,0.002678,0.000431,1.741415
9161000,0.0324,0.013523,0.002678,0.000431,1.806526
9162000,0.0324,0.013523,0.002678,0.000431,1.798299
9163000,0.0324,0.013523,0.002678,0.000431,1.880098
9164000,0.0324,0.013523,0.002678,0.000431,1.674542
9165000,0.0324,0.013523,0.002678,0.000431,1.780434
9166000,0.0324,0.013523,0.002678,0.000431,1.636345
9167000,0.0324,0.013523,0.002678,0.000431,1.927697
9168000,0.0324,0.013523,0.002678,0.000431,1.769269
9169000,0.0324,0.013523,0.002678,0.000431,1.779142
9170000,0.0324,0.013523,0.002678,0.000431,1.744471
9171000,0.0324,0.013523,0.002678,0.000431,1.966717
9172000,0.0324,0.013523,0.002678,0.000431,1.989987
9173000,0.0324,0.013523,0.002678,0.000431,2.024658
9174000,0.0324,0.013523,0.002678,0.000431,1.971653
9175000,0.0324,0.013523,0.002678,0.000431,1.980350
9176000,0.0324,0.013523,0.002678,0.000431,2.007264
9177000,0.0324,0.013523,0.002678,0.000431,2.117858
9178000,0.0324,0.013523,0.002678,0.000431,1.939333
9179000,0.0324,0.013523,0.002678,0.000431,1.846368
9180000,0.0324,0.013523,0.002678,0.000431,1.897140
9181000,0.0324,0.013523,0.002678,0.000431,2.093059
9182000,0.0324,0.013523,0.002678,0.000431,2.029477
9183000,0.0324,0.013523,0.002678,0.000431,2.036528
9184000,0.0324,0.013523,0.002678,0.000431,1.910303
9185000,0.0324,0.013523,0.002678,0.000431,2.058976
9186000,0.0324,0.013523,0.002678,0.000431,2.158170
9187000,0.0324,0.013523,0.002678,0.000431,1.858943
9188000,0.0324,0.013523,0.002678,0.000431,1.970360
9189000,0.0324,0.013523,0.002678,0.000431,2.004678
9190000,0.0324,0.013523,0.002678,0.000431,2.041700
9191000,0.0324,0.013523,0.002678,0.000431,2.130668
9192000,0.0324,0.013523,0.002678,0.000431,1.999624
9193000,0.0324,0.013523,0.002678,0.000431,2.227864
9194000,0.0324,0.013523,0.002678,0.000431,2.222458
9195000,0.0324,0.013523,0.002678,0.000431,1.986579
9196000,0.0324,0.013523,0.002678,0.000431,2.183321
9197000,0.0324,0.013523,0.002678,0.000431,2.155819
9198000,0.0324,0.013523,0.002678,0.000431,1.991398
9199000,0.0324,0.013523,0.002678,0.000431,1.914417
9200000,0.0324,0.013523,0.002678,0.000431,2.155114
9201000,0.0324,0.013523,0.002678,0.000431,2.198835
9202000,0.0324,0.013523,0.002678,0.000431,2.084480
9203000,0.0324,0.013523,0.002678,0.000431,2.017254
9204000,0.0324,0.013523,0.002678,0.000431,2.188962
9205000,0.0324,0.013523,0.002678,0.000431,2.017019
9206000,0.0324,0.013523,0.002678,0.000431,2.093530
9207000,0.0324,0.013523,0.002678,0.000431,1.856828
9208000,0.0324,0.013523,0.002678,0.000431,2.128435
9209000,0.0324,0.013523,0.002678,0.000431,1.970360
9210000,0.0324,0.013523,0.002678,0.000431,2.053217
9211000,0.0324,0.013523,0.002678,0.000431,2.064030
9212000,0.0324,0.013523,0.002678,0.000431,2.032180
9213000,0.0324,0.013523,0.002678,0.000431,2.143714
9214000,0.0324,0.013523,0.002678,0.000431,1.933926
9215000,0.0324,0.013523,0.002678,0.000431,1.915357
9216000,0.0324,0.013523,0.002678,0.000431,1.939450
9217000,0.0324,0.013523,0.002678,0.000431,1.829796
9218000,0.0324,0.013523,0.002678,0.000431,1.939568
9219000,0.0324,0.013523,0.002678,0.000431,1.939097
9220000,0.0324,0.013523,0.002678,0.000431,1.994688
9221000,0.0324,0.013523,0.002678,0.000431,1.938745
9222000,0.0324,0.013523,0.002678,0.000431,1.899490
9223000,0.0324,0.013523,0.002678,0.000431,1.907247
9224000,0.0324,0.013523,0.002678,0.000431,1.963308
9225000,0.0324,0.013523,0.002678,0.000431,1.782785
9226000,0.0324,0.013523,0.002678,0.000431,1.699693
9227000,0.0324,0.013523,0.002678,0.000431,1.942741
9228000,0.0324,0.013523,0.002678,0.000431,1.801825
9229000,0.0324,0.013523,0.002678,0.000431,1.667490
9230000,0.0324,0.013523,0.002678,0.000431,1.758339
9231000,0.0324,0.013523,0.002678,0.000431,1.813225
9232000,0.0324,0.013523,0.002678,0.000431,1.675717
9233000,0.0324,0.013523,0.002678,0.000431,1.628118
9234000,0.0324,0.013523,0.002678,0.000431,1.784665
9235000,0.0324,0.013523,0.002678,0.000431,1.806761
9236000,0.0324,0.013523,0.002678,0.000431,1.845192
9237000,0.0324,0.013523,0.002678,0.000431,1.913006
9238000,0.0324,0.013523,0.002678,0.000431,1.965541
9239000,0.0324,0.013523,0.002678,0.000431,1.757399
9240000,0.0324,0.013523,0.002678,0.000431,1.627648
9241000,0.0324,0.013523,0.002678,0.000431,1.859413
9242000,0.0324,0.013523,0.002678,0.000431,1.982935
9243000,0.0324,0.013523,0.002678,0.000431,1.684061
9244000,0.0324,0.013523,0.002678,0.000431,2.024893
9245000,0.0324,0.013523,0.002678,0.000431,1.743883
9246000,0.0324,0.013523,0.002678,0.000431,1.912184
9247000,0.0324,0.013523,0.002678,0.000431,1.594035
9248000,0.0324,0.013523,0.002678,0.000431,1.879628
9249000,0.0324,0.013523,0.002678,0.000431,1.885152
9250000,0.0324,0.013523,0.002678,0.000431,1.877513
9251000,0.0324,0.013523,0.002678,0.000431,1.823097
9252000,0.0324,0.013523,0.002678,0.000431,1.847073
9253000,0.0324,0.013523,0.002678,0.000431,1.806291
9254000,0.0324,0.013523,0.002678,0.000431,1.770327
9255000,0.0324,0.013523,0.002678,0.000431,1.750465
9256000,0.0324,0.013523,0.002678,0.000431,1.768682
9257000,0.0324,0.013523,0.002678,0.000431,1.780199
9258000,0.0324,0.013523,0.002678,0.000431,1.876337
9259000,0.0324,0.013523,0.002678,0.000431,1.674542
9260000,0.0324,0.013523,0.002678,0.000431,1.843547
9261000,0.0324,0.013523,0.002678,0.000431,1.719085
9262000,0.0324,0.013523,0.002678,0.000431,1.897140
9263000,0.0324,0.013523,0.002678,0.000431,1.764686
9264000,0.0324,0.013523,0.002678,0.000431,1.958960
9265000,0.0324,0.013523,0.002678,0.000431,1.829561
9266000,0.0324,0.013523,0.002678,0.000431,1.768447
9267000,0.0324,0.013523,0.002678,0.000431,1.768329
9268000,0.0324,0.013523,0.002678,0.000431,1.603437
9269000,0.0324,0.013523,0.002678,0.000431,1.662201
9270000,0.0324,0.013523,0.002678,0.000431,1.857415
9271000,0.0324,0.013523,0.002678,0.000431,1.566181
9272000,0.0324,0.013523,0.002678,0.000431,1.751523
9273000,0.0324,0.013523,0.002678,0.000431,1.646570
9274000,0.0324,0.013523,0.002678,0.000431,1.800767
9275000,0.0324,0.013523,0.002678,0.000431,1.734363
9276000,0.0324,0.013523,0.002678,0.000431,1.955786
9277000,0.0324,0.013523,0.002678,0.000431,1.711093
9278000,0.0324,0.013523,0.002678,0.000431,1.578403
9279000,0.0324,0.013523,0.002678,0.000431,1.628118
9280000,0.0324,0.013523,0.002678,0.000431,1.624945
9281000,0.0324,0.013523,0.002678,0.000431,1.616600
9282000,0.0324,0.013523,0.002678,0.000431,1.801707
9283000,0.0324,0.013523,0.002678,0.000431,1.629998
9284000,0.0324,0.013523,0.002678,0.000431,1.583810
9285000,0.0324,0.013523,0.002678,0.000431,1.640576
9286000,0.0324,0.013523,0.002678,0.000431,1.629528
9287000,0.0324,0.013523,0.002678,0.000431,1.574408
9288000,0.0324,0.013523,0.002678,0.000431,1.534095
9289000,0.0324,0.013523,0.002678,0.000431,1.525633
9290000,0.0324,0.013523,0.002678,0.000431,1.405167
9291000,0.0324,0.013523,0.002678,0.000431,1.459582
9292000,0.0324,0.013523,0.002678,0.000431,1.498602
9293000,0.0324,0.013523,0.002678,0.000431,1.493313
9294000,0.0324,0.013523,0.002678,0.000431,1.454294
9295000,0.0324,0.013523,0.002678,0.000431,1.493901
9296000,0.0324,0.013523,0.002678,0.000431,1.530099
9297000,0.0324,0.013523,0.002678,0.000431,1.406930
9298000,0.0324,0.013523,0.002678,0.000431,1.528924
9299000,0.0324,0.013523,0.002678,0.000431,1.580166
9300000,0.0324,0.013523,0.002678,0.000431,1.375080
9301000,0.0324,0.013523,0.002678,0.000431,1.454294
9302000,0.0324,0.013523,0.002678,0.000431,1.454059
9303000,0.0324,0.013523,0.002678,0.000431,1.479210
9304000,0.0324,0.013523,0.002678,0.000431,1.459465
9305000,0.0324,0.013523,0.002678,0.000431,1.363797
9306000,0.0324,0.013523,0.002678,0.000431,1.428908
9307000,0.0324,0.013523,0.002678,0.000431,1.572762
9308000,0.0324,0.013523,0.002678,0.000431,1.480032
9309000,0.0324,0.013523,0.002678,0.000431,1.437840
9310000,0.0324,0.013523,0.002678,0.000431,1.585808
9311000,0.0324,0.013523,0.002678,0.000431,1.528807
9312000,0.0324,0.013523,0.002678,0.000431,1.417978
9313000,0.0324,0.013523,0.002678,0.000431,1.509767
9314000,0.0324,0.013523,0.002678,0.000431,1.502363
9315000,0.0324,0.013523,0.002678,0.000431,1.322427
9316000,0.0324,0.013523,0.002678,0.000431,1.676657
9317000,0.0324,0.013523,0.002678,0.000431,1.530452
9318000,0.0324,0.013523,0.002678,0.000431,1.393179
9319000,0.0324,0.013523,0.002678,0.000431,1.477094
9320000,0.0324,0.013523,0.002678,0.000431,1.424559
9321000,0.0324,0.013523,0.002678,0.000431,1.387185
9322000,0.0324,0.013523,0.002678,0.000431,1.464401
9323000,0.0324,0.013523,0.002678,0.000431,1.489317
9324000,0.0324,0.013523,0.002678,0.000431,1.360624
9325000,0.0324,0.013523,0.002678,0.000431,1.325483
9326000,0.0324,0.013523,0.002678,0.000431,1.338411
9327000,0.0324,0.013523,0.002678,0.000431,1.389301
9328000,0.0324,0.013523,0.002678,0.000431,1.256141
9329000,0.0324,0.013523,0.002678,0.000431,1.323837
9330000,0.0324,0.013523,0.002678,0.000431,1.277884
9331000,0.0324,0.013523,0.002678,0.000431,1.326776
9332000,0.0324,0.013523,0.002678,0.000431,1.187740
9333000,0.0324,0.013523,0.002678,0.000431,1.213126
9334000,0.0324,0.013523,0.002678,0.000431,1.378488
9335000,0.0324,0.013523,0.002678,0.000431,1.310909
9336000,0.0324,0.013523,0.002678,0.000431,1.280822
9337000,0.0324,0.013523,0.002678,0.000431,1.351809
9338000,0.0324,0.013523,0.002678,0.000431,1.310557
9339000,0.0324,0.013523,0.002678,0.000431,1.176105
9340000,0.0324,0.013523,0.002678,0.000431,1.262958
9341000,0.0324,0.013523,0.002678,0.000431,1.250500
9342000,0.0324,0.013523,0.002678,0.000431,1.194674
9343000,0.0324,0.013523,0.002678,0.000431,1.160121
9344000,0.0324,0.013523,0.002678,0.000431,1.154597
9345000,0.0324,0.013523,0.002678,0.000431,1.153187
9346000,0.0324,0.013523,0.002678,0.000431,1.236279
9347000,0.0324,0.013523,0.002678,0.000431,1.333005
9348000,0.0324,0.013523,0.002678,0.000431,1.226877
9349000,0.0324,0.013523,0.002678,0.000431,1.270010
9350000,0.0324,0.013523,0.002678,0.000431,1.187270
9351000,0.0324,0.013523,0.002678,0.000431,1.257081
9352000,0.0324,0.013523,0.002678,0.000431,1.345815
9353000,0.0324,0.013523,0.002678,0.000431,1.233693
9354000,0.0324,0.013523,0.002678,0.000431,1.384952
9355000,0.0324,0.013523,0.002678,0.000431,1.335590
9356000,0.0324,0.013523,0.002678,0.000431,1.276121
9357000,0.0324,0.013523,0.002678,0.000431,1.242861
9358000,0.0324,0.013523,0.002678,0.000431,1.375667
9359000,0.0324,0.013523,0.002678,0.000431,1.271537
9360000,0.0324,0.013523,0.002678,0.000431,1.199140
9361000,0.0324,0.013523,0.002678,0.000431,1.119221
9362000,0.0324,0.013523,0.002678,0.000431,1.172931
9363000,0.0324,0.013523,0.002678,0.000431,1.162941
9364000,0.0324,0.013523,0.002678,0.000431,1.371436
9365000,0.0324,0.013523,0.002678,0.000431,1.227817
9366000,0.0324,0.013523,0.002678,0.000431,1.139436
9367000,0.0324,0.013523,0.002678,0.000431,1.182804
9368000,0.0324,0.013523,0.002678,0.000431,1.181628
9369000,0.0324,0.013523,0.002678,0.000431,1.236396
9370000,0.0324,0.013523,0.002678,0.000431,1.253085
9371000,0.0324,0.013523,0.002678,0.000431,1.366735
9372000,0.0324,0.013523,0.002678,0.000431,1.224761
9373000,0.0324,0.013523,0.002678,0.000431,1.166702
9374000,0.0324,0.013523,0.002678,0.000431,1.273183
9375000,0.0324,0.013523,0.002678,0.000431,1.243448
9376000,0.0324,0.013523,0.002678,0.000431,1.150953
9377000,0.0324,0.013523,0.002678,0.000431,1.093365
9378000,0.0324,0.013523,0.002678,0.000431,1.116048
9379000,0.0324,0.013523,0.002678,0.000431,1.108878
9380000,0.0324,0.013523,0.002678,0.000431,1.107115
9381000,0.0324,0.013523,0.002678,0.000431,1.172226
9382000,0.0324,0.013523,0.002678,0.000431,1.223233
9383000,0.0324,0.013523,0.002678,0.000431,1.113815
9384000,0.0324,0.013523,0.002678,0.000431,1.097008
9385000,0.0324,0.013523,0.002678,0.000431,1.141551
9386000,0.0324,0.013523,0.002678,0.000431,1.092072
9387000,0.0324,0.013523,0.002678,0.000431,1.052935
9388000,0.0324,0.013523,0.002678,0.000431,1.187740
9389000,0.0324,0.013523,0.002678,0.000431,1.223938
9390000,0.0324,0.013523,0.002678,0.000431,1.303035
9391000,0.0324,0.013523,0.002678,0.000431,1.206309
9392000,0.0324,0.013523,0.002678,0.000431,1.299157
9393000,0.0324,0.013523,0.002678,0.000431,1.332535
9394000,0.0324,0.013523,0.002678,0.000431,1.176575
9395000,0.0324,0.013523,0.002678,0.000431,1.259667
9396000,0.0324,0.013523,0.002678,0.000431,1.231108
9397000,0.0324,0.013523,0.002678,0.000431,1.088781
9398000,0.0324,0.013523,0.002678,0.000431,1.114755
9399000,0.0324,0.013523,0.002678,0.000431,1.174929
9400000,0.0324,0.013523,0.002678,0.000431,1.248267
9401000,0.0324,0.013523,0.002678,0.000431,1.224761
9402000,0.0324,0.013523,0.002678,0.000431,1.233576
9403000,0.0324,0.013523,0.002678,0.000431,1.130269
9404000,0.0324,0.013523,0.002678,0.000431,1.133442
9405000,0.0324,0.013523,0.002678,0.000431,1.177397
9406000,0.0324,0.013523,0.002678,0.000431,1.127800
9407000,0.0324,0.013523,0.002678,0.000431,1.181041
9408000,0.0324,0.013523,0.002678,0.000431,1.181393
9409000,0.0324,0.013523,0.002678,0.000431,1.187035
9410000,0.0324,0.013523,0.002678,0.000431,1.200550
9411000,0.0324,0.013523,0.002678,0.000431,1.153187
9412000,0.0324,0.013523,0.002678,0.000431,1.174342
9413000,0.0324,0.013523,0.002678,0.000431,1.065393
9414000,0.0324,0.013523,0.002678,0.000431,1.117223
9415000,0.0324,0.013523,0.002678,0.000431,1.330654
9416000,0.0324,0.013523,0.002678,0.000431,1.295161
9417000,0.0324,0.013523,0.002678,0.000431,1.237102
9418000,0.0324,0.013523,0.002678,0.000431,1.251558
9419000,0.0324,0.013523,0.002678,0.000431,1.221470
9420000,0.0324,0.013523,0.002678,0.000431,1.268482
9421000,0.0324,0.013523,0.002678,0.000431,1.282232
9422000,0.0324,0.013523,0.002678,0.000431,1.302095
9423000,0.0324,0.013523,0.002678,0.000431,1.155067
9424000,0.0324,0.013523,0.002678,0.000431,1.265308
9425000,0.0324,0.013523,0.002678,0.000431,1.128976
9426000,0.0324,0.013523,0.002678,0.000431,1.281057
9427000,0.0324,0.013523,0.002678,0.000431,1.207602
9428000,0.0324,0.013523,0.002678,0.000431,1.128976
9429000,0.0324,0.013523,0.002678,0.000431,1.090662
9430000,0.0324,0.013523,0.002678,0.000431,1.285523
9431000,0.0324,0.013523,0.002678,0.000431,1.167172
9432000,0.0324,0.013523,0.002678,0.000431,1.257316
9433000,0.0324,0.013523,0.002678,0.000431,0.977012
9434000,0.0324,0.013523,0.002678,0.000431,1.099829
9435000,0.0324,0.013523,0.002678,0.000431,1.065158
9436000,0.0324,0.013523,0.002678,0.000431,1.256611
9437000,0.0324,0.013523,0.002678,0.000431,1.265191
9438000,0.0324,0.013523,0.002678,0.000431,1.058341
9439000,0.0324,0.013523,0.002678,0.000431,1.174459
9440000,0.0324,0.013523,0.002678,0.000431,1.305150
9441000,0.0324,0.013523,0.002678,0.000431,1.165527
9442000,0.0324,0.013523,0.002678,0.000431,1.305150
9443000,0.0324,0.013523,0.002678,0.000431,1.241098
9444000,0.0324,0.013523,0.002678,0.000431,1.316668
9445000,0.0324,0.013523,0.002678,0.000431,1.368968
9446000,0.0324,0.013523,0.002678,0.000431,1.487084
9447000,0.0324,0.013523,0.002678,0.000431,1.459582
9448000,0.0324,0.013523,0.002678,0.000431,1.418565
9449000,0.0324,0.013523,0.002678,0.000431,1.486849
9450000,0.0324,0.013523,0.002678,0.000431,1.441366
9451000,0.0324,0.013523,0.002678,0.000431,1.462051
9452000,0.0324,0.013523,0.002678,0.000431,1.402464
9453000,0.0324,0.013523,0.002678,0.000431,1.463814
9454000,0.0324,0.013523,0.002678,0.000431,1.324308
9455000,0.0324,0.013523,0.002678,0.000431,1.334180
9456000,0.0324,0.013523,0.002678,0.000431,1.232988
9457000,0.0324,0.013523,0.002678,0.000431,1.273770
9458000,0.0324,0.013523,0.002678,0.000431,1.401053
9459000,0.0324,0.013523,0.002678,0.000431,1.385657
9460000,0.0324,0.013523,0.002678,0.000431,1.182569
9461000,0.0324,0.013523,0.002678,0.000431,1.245564
9462000,0.0324,0.013523,0.002678,0.000431,1.429730
9463000,0.0324,0.013523,0.002678,0.000431,1.351809
9464000,0.0324,0.013523,0.002678,0.000431,1.342995
9465000,0.0324,0.013523,0.002678,0.000431,1.407753
9466000,0.0324,0.013523,0.002678,0.000431,1.444539
9467000,0.0324,0.013523,0.002678,0.000431,1.410691
9468000,0.0324,0.013523,0.002678,0.000431,1.375315
9469000,0.0324,0.013523,0.002678,0.000431,1.220765
9470000,0.0324,0.013523,0.002678,0.000431,1.381661
9471000,0.0324,0.013523,0.002678,0.000431,1.426675
9472000,0.0324,0.013523,0.002678,0.000431,1.439955
9473000,0.0324,0.013523,0.002678,0.000431,1.522460
9474000,0.0324,0.013523,0.002678,0.000431,1.503185
9475000,0.0324,0.013523,0.002678,0.000431,1.509532
9476000,0.0324,0.013523,0.002678,0.000431,1.459465
9477000,0.0324,0.013523,0.002678,0.000431,1.475096
9478000,0.0324,0.013523,0.002678,0.000431,1.452413
9479000,0.0324,0.013523,0.002678,0.000431,1.306208
9480000,0.0324,0.013523,0.002678,0.000431,1.304680
9481000,0.0324,0.013523,0.002678,0.000431,1.347461
9482000,0.0324,0.013523,0.002678,0.000431,1.279294
9483000,0.0324,0.013523,0.002678,0.000431,1.350869
9484000,0.0324,0.013523,0.002678,0.000431,1.320547
9485000,0.0324,0.013523,0.002678,0.000431,1.344287
9486000,0.0324,0.013523,0.002678,0.000431,1.484263
9487000,0.0324,0.013523,0.002678,0.000431,1.514351
9488000,0.0324,0.013523,0.002678,0.000431,1.424324
9489000,0.0324,0.013523,0.002678,0.000431,1.297981
9490000,0.0324,0.013523,0.002678,0.000431,1.300567
9491000,0.0324,0.013523,0.002678,0.000431,1.323720
9492000,0.0324,0.013523,0.002678,0.000431,1.446889
9493000,0.0324,0.013523,0.002678,0.000431,1.549021
9494000,0.0324,0.013523,0.002678,0.000431,1.499072
9495000,0.0324,0.013523,0.002678,0.000431,1.366265
9496000,0.0324,0.013523,0.002678,0.000431,1.343582
9497000,0.0324,0.013523,0.002678,0.000431,1.366500
9498000,0.0324,0.013523,0.002678,0.000431,1.386127
9499000,0.0324,0.013523,0.002678,0.000431,1.491198
9500000,0.0324,0.013523,0.002678,0.000431,1.531745
9501000,0.0324,0.013523,0.002678,0.000431,1.308441
9502000,0.0324,0.013523,0.002678,0.000431,1.320899
9503000,0.0324,0.013523,0.002678,0.000431,1.478152
9504000,0.0324,0.013523,0.002678,0.000431,1.395295
9505000,0.0324,0.013523,0.002678,0.000431,1.383072
9506000,0.0324,0.013523,0.002678,0.000431,1.338176
9507000,0.0324,0.013523,0.002678,0.000431,1.415392
9508000,0.0324,0.013523,0.002678,0.000431,1.435254
9509000,0.0324,0.013523,0.002678,0.000431,1.475214
9510000,0.0324,0.013523,0.002678,0.000431,1.361799
9511000,0.0324,0.013523,0.002678,0.000431,1.469220
9512000,0.0324,0.013523,0.002678,0.000431,1.443951
9513000,0.0324,0.013523,0.002678,0.000431,1.435137
9514000,0.0324,0.013523,0.002678,0.000431,1.341349
9515000,0.0324,0.013523,0.002678,0.000431,1.551137
9516000,0.0324,0.013523,0.002678,0.000431,1.478034
9517000,0.0324,0.013523,0.002678,0.000431,1.592154
9518000,0.0324,0.013523,0.002678,0.000431,1.432904
9519000,0.0324,0.013523,0.002678,0.000431,1.432669
9520000,0.0324,0.013523,0.002678,0.000431,1.520697
9521000,0.0324,0.013523,0.002678,0.000431,1.506006
9522000,0.0324,0.013523,0.002678,0.000431,1.453001
9523000,0.0324,0.013523,0.002678,0.000431,1.370379
9524000,0.0324,0.013523,0.002678,0.000431,1.318666
9525000,0.0324,0.013523,0.002678,0.000431,1.451238
9526000,0.0324,0.013523,0.002678,0.000431,1.372494
9527000,0.0324,0.013523,0.002678,0.000431,1.542792
9528000,0.0324,0.013523,0.002678,0.000431,1.380839
9529000,0.0324,0.013523,0.002678,0.000431,1.383659
9530000,0.0324,0.013523,0.002678,0.000431,1.378135
9531000,0.0324,0.013523,0.002678,0.000431,1.443246
9532000,0.0324,0.013523,0.002678,0.000431,1.229815
9533000,0.0324,0.013523,0.002678,0.000431,1.444891
9534000,0.0324,0.013523,0.002678,0.000431,1.307971
9535000,0.0324,0.013523,0.002678,0.000431,1.421151
9536000,0.0324,0.013523,0.002678,0.000431,1.663729
9537000,0.0324,0.013523,0.002678,0.000431,1.687940
9538000,0.0324,0.013523,0.002678,0.000431,1.463343
9539000,0.0324,0.013523,0.002678,0.000431,1.402464
9540000,0.0324,0.013523,0.002678,0.000431,1.538444
9541000,0.0324,0.013523,0.002678,0.000431,1.633054
9542000,0.0324,0.013523,0.002678,0.000431,1.565946
9543000,0.0324,0.013523,0.002678,0.000431,1.682651
9544000,0.0324,0.013523,0.002678,0.000431,1.598501
9545000,0.0324,0.013523,0.002678,0.000431,1.645747
9546000,0.0324,0.013523,0.002678,0.000431,1.686294
9547000,0.0324,0.013523,0.002678,0.000431,1.649978
9548000,0.0324,0.013523,0.002678,0.000431,1.615660
9549000,0.0324,0.013523,0.002678,0.000431,1.617658
9550000,0.0324,0.013523,0.002678,0.000431,1.622829
9551000,0.0324,0.013523,0.002678,0.000431,1.713326
9552000,0.0324,0.013523,0.002678,0.000431,1.735774
9553000,0.0324,0.013523,0.002678,0.000431,1.638225
9554000,0.0324,0.013523,0.002678,0.000431,1.645159
9555000,0.0324,0.013523,0.002678,0.000431,1.699928
9556000,0.0324,0.013523,0.002678,0.000431,1.553840
9557000,0.0324,0.013523,0.002678,0.000431,1.789602
9558000,0.0324,0.013523,0.002678,0.000431,1.641164
9559000,0.0324,0.013523,0.002678,0.000431,1.639753
9560000,0.0324,0.013523,0.002678,0.000431,1.472863
9561000,0.0324,0.013523,0.002678,0.000431,1.660908
9562000,0.0324,0.013523,0.002678,0.000431,1.558306
9563000,0.0324,0.013523,0.002678,0.000431,1.645159
9564000,0.0324,0.013523,0.002678,0.000431,1.619186
9565000,0.0324,0.013523,0.002678,0.000431,1.623417
9566000,0.0324,0.013523,0.002678,0.000431,1.648685
9567000,0.0324,0.013523,0.002678,0.000431,1.495781
9568000,0.0324,0.013523,0.002678,0.000431,1.626825
9569000,0.0324,0.013523,0.002678,0.000431,1.623652
9570000,0.0324,0.013523,0.002678,0.000431,1.688410
9571000,0.0324,0.013523,0.002678,0.000431,1.487437
9572000,0.0324,0.013523,0.002678,0.000431,1.437017
9573000,0.0324,0.013523,0.002678,0.000431,1.495194
9574000,0.0324,0.013523,0.002678,0.000431,1.467692
9575000,0.0324,0.013523,0.002678,0.000431,1.682886
9576000,0.0324,0.013523,0.002678,0.000431,1.552312
9577000,0.0324,0.013523,0.002678,0.000431,1.590391
9578000,0.0324,0.013523,0.002678,0.000431,1.660086
9579000,0.0324,0.013523,0.002678,0.000431,1.694639
9580000,0.0324,0.013523,0.002678,0.000431,1.701220
9581000,0.0324,0.013523,0.002678,0.000431,1.548786
9582000,0.0324,0.013523,0.002678,0.000431,1.550197
9583000,0.0324,0.013523,0.002678,0.000431,1.642809
9584000,0.0324,0.013523,0.002678,0.000431,1.699810
9585000,0.0324,0.013523,0.002678,0.000431,1.728957
9586000,0.0324,0.013523,0.002678,0.000431,1.680535
9587000,0.0324,0.013523,0.002678,0.000431,1.688292
9588000,0.0324,0.013523,0.002678,0.000431,1.883037
9589000,0.0324,0.013523,0.002678,0.000431,1.899726
9590000,0.0324,0.013523,0.002678,0.000431,1.854830
9591000,0.0324,0.013523,0.002678,0.000431,1.770562
9592000,0.0324,0.013523,0.002678,0.000431,1.677832
9593000,0.0324,0.013523,0.002678,0.000431,1.749172
9594000,0.0324,0.013523,0.002678,0.000431,1.739300
9595000,0.0324,0.013523,0.002678,0.000431,1.724491
9596000,0.0324,0.013523,0.002678,0.000431,1.810992
9597000,0.0324,0.013523,0.002678,0.000431,1.773970
9598000,0.0324,0.013523,0.002678,0.000431,1.723668
9599000,0.0324,0.013523,0.002678,0.000431,1.872812
9600000,0.0324,0.013523,0.002678,0.000431,1.827093
9601000,0.0324,0.013523,0.002678,0.000431,1.796771
9602000,0.0324,0.013523,0.002678,0.000431,1.684531
9603000,0.0324,0.013523,0.002678,0.000431,1.766449
9604000,0.0324,0.013523,0.002678,0.000431,1.801825
9605000,0.0324,0.013523,0.002678,0.000431,1.760337
9606000,0.0324,0.013523,0.002678,0.000431,1.713913
9607000,0.0324,0.013523,0.002678,0.000431,1.803940
9608000,0.0324,0.013523,0.002678,0.000431,1.911713
9609000,0.0324,0.013523,0.002678,0.000431,1.867993
9610000,0.0324,0.013523,0.002678,0.000431,1.800649
9611000,0.0324,0.013523,0.002678,0.000431,1.727429
9612000,0.0324,0.013523,0.002678,0.000431,1.717204
9613000,0.0324,0.013523,0.002678,0.000431,1.857768
9614000,0.0324,0.013523,0.002678,0.000431,1.737184
9615000,0.0324,0.013523,0.002678,0.000431,1.715559
9616000,0.0324,0.013523,0.002678,0.000431,1.765508
9617000,0.0324,0.013523,0.002678,0.000431,1.780905
9618000,0.0324,0.013523,0.002678,0.000431,1.811462
9619000,0.0324,0.013523,0.002678,0.000431,1.835085
9620000,0.0324,0.013523,0.002678,0.000431,1.670663
9621000,0.0324,0.013523,0.002678,0.000431,1.755048
9622000,0.0324,0.013523,0.002678,0.000431,1.820276
9623000,0.0324,0.013523,0.002678,0.000431,1.818866
9624000,0.0324,0.013523,0.002678,0.000431,1.679713
9625000,0.0324,0.013523,0.002678,0.000431,1.941566
9626000,0.0324,0.013523,0.002678,0.000431,1.807348
9627000,0.0324,0.013523,0.002678,0.000431,1.743883
9628000,0.0324,0.013523,0.002678,0.000431,1.943799
9629000,0.0324,0.013523,0.002678,0.000431,1.927110
9630000,0.0324,0.013523,0.002678,0.000431,1.912654
9631000,0.0324,0.013523,0.002678,0.000431,1.913476
9632000,0.0324,0.013523,0.002678,0.000431,1.891381
9633000,0.0324,0.013523,0.002678,0.000431,1.887620
9634000,0.0324,0.013523,0.002678,0.000431,1.917707
9635000,0.0324,0.013523,0.002678,0.000431,1.824978
9636000,0.0324,0.013523,0.002678,0.000431,1.794890
9637000,0.0324,0.013523,0.002678,0.000431,1.807819
9638000,0.0324,0.013523,0.002678,0.000431,1.828151
9639000,0.0324,0.013523,0.002678,0.000431,1.810992
9640000,0.0324,0.013523,0.002678,0.000431,1.807466
9641000,0.0324,0.013523,0.002678,0.000431,1.862822
9642000,0.0324,0.013523,0.002678,0.000431,1.736596
9643000,0.0324,0.013523,0.002678,0.000431,1.798769
9644000,0.0324,0.013523,0.002678,0.000431,1.646335
9645000,0.0324,0.013523,0.002678,0.000431,1.824390
9646000,0.0324,0.013523,0.002678,0.000431,1.852714
9647000,0.0324,0.013523,0.002678,0.000431,1.889971
9648000,0.0324,0.013523,0.002678,0.000431,1.512705
9649000,0.0324,0.013523,0.002678,0.000431,1.813577
9650000,0.0324,0.013523,0.002678,0.000431,1.565123
9651000,0.0324,0.013523,0.002678,0.000431,1.639401
9652000,0.0324,0.013523,0.002678,0.000431,1.818043
9653000,0.0324,0.013523,0.002678,0.000431,1.654092
9654000,0.0324,0.013523,0.002678,0.000431,1.851892
9655000,0.0324,0.013523,0.002678,0.000431,1.825448
9656000,0.0324,0.013523,0.002678,0.000431,1.879511
9657000,0.0324,0.013523,0.002678,0.000431,1.584162
9658000,0.0324,0.013523,0.002678,0.000431,1.553723
9659000,0.0324,0.013523,0.002678,0.000431,1.485321
9660000,0.0324,0.013523,0.002678,0.000431,1.802412
9661000,0.0324,0.013523,0.002678,0.000431,2.010672
9662000,0.0324,0.013523,0.002678,0.000431,1.861881
9663000,0.0324,0.013523,0.002678,0.000431,1.927462
9664000,0.0324,0.013523,0.002678,0.000431,1.980350
9665000,0.0324,0.013523,0.002678,0.000431,1.821804
9666000,0.0324,0.013523,0.002678,0.000431,1.760690
9667000,0.0324,0.013523,0.002678,0.000431,2.002798
9668000,0.0324,0.013523,0.002678,0.000431,2.113509
9669000,0.0324,0.013523,0.002678,0.000431,2.033238
9670000,0.0324,0.013523,0.002678,0.000431,2.146182
9671000,0.0324,0.013523,0.002678,0.000431,2.054510
9672000,0.0324,0.013523,0.002678,0.000431,1.883154
9673000,0.0324,0.013523,0.002678,0.000431,2.057096
9674000,0.0324,0.013523,0.002678,0.000431,2.300614
9675000,0.0324,0.013523,0.002678,0.000431,1.888678
9676000,0.0324,0.013523,0.002678,0.000431,2.137485
9677000,0.0324,0.013523,0.002678,0.000431,1.951438
9678000,0.0324,0.013523,0.002678,0.000431,1.789954
9679000,0.0324,0.013523,0.002678,0.000431,2.009027
9680000,0.0324,0.013523,0.002678,0.000431,2.048751
9681000,0.0324,0.013523,0.002678,0.000431,2.154292
9682000,0.0324,0.013523,0.002678,0.000431,2.074843
9683000,0.0324,0.013523,0.002678,0.000431,1.901841
9684000,0.0324,0.013523,0.002678,0.000431,1.911596
9685000,0.0324,0.013523,0.002678,0.000431,1.811932
9686000,0.0324,0.013523,0.002678,0.000431,2.171803
9687000,0.0324,0.013523,0.002678,0.000431,2.034178
9688000,0.0324,0.013523,0.002678,0.000431,2.019957
9689000,0.0324,0.013523,0.002678,0.000431,1.862234
9690000,0.0324,0.013523,0.002678,0.000431,2.034648
9691000,0.0324,0.013523,0.002678,0.000431,1.801002
9692000,0.0324,0.013523,0.002678,0.000431,1.835555
9693000,0.0324,0.013523,0.002678,0.000431,1.908305
9694000,0.0324,0.013523,0.002678,0.000431,1.945326
9695000,0.0324,0.013523,0.002678,0.000431,2.084950
9696000,0.0324,0.013523,0.002678,0.000431,1.955316
9697000,0.0324,0.013523,0.002678,0.000431,2.057448
9698000,0.0324,0.013523,0.002678,0.000431,1.883742
9699000,0.0324,0.013523,0.002678,0.000431,1.996569
9700000,0.0324,0.013523,0.002678,0.000431,1.856240
9701000,0.0324,0.013523,0.002678,0.000431,1.831089
9702000,0.0324,0.013523,0.002678,0.000431,2.227042
9703000,0.0324,0.013523,0.002678,0.000431,1.995864
9704000,0.0324,0.013523,0.002678,0.000431,1.951791
9705000,0.0324,0.013523,0.002678,0.000431,1.808641
9706000,0.0324,0.013523,0.002678,0.000431,2.032297
9707000,0.0324,0.013523,0.002678,0.000431,2.019722
9708000,0.0324,0.013523,0.002678,0.000431,1.997274
9709000,0.0324,0.013523,0.002678,0.000431,1.940743
9710000,0.0324,0.013523,0.002678,0.000431,2.053570
9711000,0.0324,0.013523,0.002678,0.000431,2.026068
9712000,0.0324,0.013523,0.002678,0.000431,1.773853
9713000,0.0324,0.013523,0.002678,0.000431,1.900666
9714000,0.0324,0.013523,0.002678,0.000431,2.017019
9715000,0.0324,0.013523,0.002678,0.000431,1.954024
9716000,0.0324,0.013523,0.002678,0.000431,2.110571
9717000,0.0324,0.013523,0.002678,0.000431,1.941566
9718000,0.0324,0.013523,0.002678,0.000431,2.041112
9719000,0.0324,0.013523,0.002678,0.000431,2.078016
9720000,0.0324,0.013523,0.002678,0.000431,2.008674
9721000,0.0324,0.013523,0.002678,0.000431,1.957197
9722000,0.0324,0.013523,0.002678,0.000431,2.000917
9723000,0.0324,0.013523,0.002678,0.000431,1.935807
9724000,0.0324,0.013523,0.002678,0.000431,2.180500
9725000,0.0324,0.013523,0.002678,0.000431,1.890793
9726000,0.0324,0.013523,0.002678,0.000431,1.985756
9727000,0.0324,0.013523,0.002678,0.000431,1.832147
9728000,0.0324,0.013523,0.002678,0.000431,1.756224
9729000,0.0324,0.013523,0.002678,0.000431,2.208590
9730000,0.0324,0.013523,0.002678,0.000431,2.170510
9731000,0.0324,0.013523,0.002678,0.000431,1.951908
9732000,0.0324,0.013523,0.002678,0.000431,2.104930
9733000,0.0324,0.013523,0.002678,0.000431,1.996921
9734000,0.0324,0.013523,0.002678,0.000431,2.187199
9735000,0.0324,0.013523,0.002678,0.000431,1.785136
9736000,0.0324,0.013523,0.002678,0.000431,1.951673
9737000,0.0324,0.013523,0.002678,0.000431,1.820276
9738000,0.0324,0.013523,0.002678,0.000431,2.106928
9739000,0.0324,0.013523,0.002678,0.000431,1.884564
9740000,0.0324,0.013523,0.002678,0.000431,1.983523
9741000,0.0324,0.013523,0.002678,0.000431,2.045578
9742000,0.0324,0.013523,0.002678,0.000431,1.921468
9743000,0.0324,0.013523,0.002678,0.000431,1.903486
9744000,0.0324,0.013523,0.002678,0.000431,1.920058
9745000,0.0324,0.013523,0.002678,0.000431,1.914182
9746000,0.0324,0.013523,0.002678,0.000431,1.940508
9747000,0.0324,0.013523,0.002678,0.000431,1.834145
9748000,0.0324,0.013523,0.002678,0.000431,1.979880
9749000,0.0324,0.013523,0.002678,0.000431,1.672779
9750000,0.0324,0.013523,0.002678,0.000431,1.764216
9751000,0.0324,0.013523,0.002678,0.000431,1.727664
9752000,0.0324,0.013523,0.002678,0.000431,1.803352
9753000,0.0324,0.013523,0.002678,0.000431,1.622947
9754000,0.0324,0.013523,0.002678,0.000431,1.576993
9755000,0.0324,0.013523,0.002678,0.000431,1.752698
9756000,0.0324,0.013523,0.002678,0.000431,1.699575
9757000,0.0324,0.013523,0.002678,0.000431,1.625180
9758000,0.0324,0.013523,0.002678,0.000431,1.731308
9759000,0.0324,0.013523,0.002678,0.000431,1.565475
9760000,0.0324,0.013523,0.002678,0.000431,1.616013
9761000,0.0324,0.013523,0.002678,0.000431,1.566533
9762000,0.0324,0.013523,0.002678,0.000431,1.753050
9763000,0.0324,0.013523,0.002678,0.000431,1.630233
9764000,0.0324,0.013523,0.002678,0.000431,1.629176
9765000,0.0324,0.013523,0.002678,0.000431,1.696754
9766000,0.0324,0.013523,0.002678,0.000431,1.653974
9767000,0.0324,0.013523,0.002678,0.000431,1.831442
9768000,0.0324,0.013523,0.002678,0.000431,1.666315
9769000,0.0324,0.013523,0.002678,0.000431,1.903134
9770000,0.0324,0.013523,0.002678,0.000431,1.828151
9771000,0.0324,0.013523,0.002678,0.000431,1.740710
9772000,0.0324,0.013523,0.002678,0.000431,1.646922
9773000,0.0324,0.013523,0.002678,0.000431,1.789484
9774000,0.0324,0.013523,0.002678,0.000431,1.710388
9775000,0.0324,0.013523,0.002678,0.000431,1.644924
9776000,0.0324,0.013523,0.002678,0.000431,1.933221
9777000,0.0324,0.013523,0.002678,0.000431,1.708037
9778000,0.0324,0.013523,0.002678,0.000431,1.778554
9779000,0.0324,0.013523,0.002678,0.000431,1.740005
9780000,0.0324,0.013523,0.002678,0.000431,1.677245
9781000,0.0324,0.013523,0.002678,0.000431,1.573702
9782000,0.0324,0.013523,0.002678,0.000431,1.672426
9783000,0.0324,0.013523,0.002678,0.000431,1.683004
9784000,0.0324,0.013523,0.002678,0.000431,1.887738
9785000,0.0324,0.013523,0.002678,0.000431,1.502950
9786000,0.0324,0.013523,0.002678,0.000431,1.674189
9787000,0.0324,0.013523,0.002678,0.000431,1.804058
9788000,0.0324,0.013523,0.002678,0.000431,1.656207
9789000,0.0324,0.013523,0.002678,0.000431,1.778789
9790000,0.0324,0.013523,0.002678,0.000431,1.651624
9791000,0.0324,0.013523,0.002678,0.000431,1.535153
9792000,0.0324,0.013523,0.002678,0.000431,1.678538
9793000,0.0324,0.013523,0.002678,0.000431,1.629176
9794000,0.0324,0.013523,0.002678,0.000431,1.675834
9795000,0.0324,0.013523,0.002678,0.000431,1.537034
9796000,0.0324,0.013523,0.002678,0.000431,1.600264
9797000,0.0324,0.013523,0.002678,0.000431,1.833792
9798000,0.0324,0.013523,0.002678,0.000431,1.659498
9799000,0.0324,0.013523,0.002678,0.000431,1.749525
9800000,0.0324,0.013523,0.002678,0.000431,1.713913
9801000,0.0324,0.013523,0.002678,0.000431,1.729075
9802000,0.0324,0.013523,0.002678,0.000431,1.750817
9803000,0.0324,0.013523,0.002678,0.000431,1.735421
9804000,0.0324,0.013523,0.002678,0.000431,1.722376
9805000,0.0324,0.013523,0.002678,0.000431,1.649155
9806000,0.0324,0.013523,0.002678,0.000431,1.614602
9807000,0.0324,0.013523,0.002678,0.000431,1.619891
9808000,0.0324,0.013523,0.002678,0.000431,1.696872
9809000,0.0324,0.013523,0.002678,0.000431,1.744588
9810000,0.0324,0.013523,0.002678,0.000431,1.728487
9811000,0.0324,0.013523,0.002678,0.000431,1.678185
9812000,0.0324,0.013523,0.002678,0.000431,1.594857
9813000,0.0324,0.013523,0.002678,0.000431,1.715089
9814000,0.0324,0.013523,0.002678,0.000431,1.802412
9815000,0.0324,0.013523,0.002678,0.000431,1.924524
9816000,0.0324,0.013523,0.002678,0.000431,1.868816
9817000,0.0324,0.013523,0.002678,0.000431,1.901606
9818000,0.0324,0.013523,0.002678,0.000431,1.897022
9819000,0.0324,0.013523,0.002678,0.000431,1.846250
9820000,0.0324,0.013523,0.002678,0.000431,1.940625
9821000,0.0324,0.013523,0.002678,0.000431,1.880333
9822000,0.0324,0.013523,0.002678,0.000431,1.856005
9823000,0.0324,0.013523,0.002678,0.000431,1.964601
9824000,0.0324,0.013523,0.002678,0.000431,1.809464
9825000,0.0324,0.013523,0.002678,0.000431,1.786663
9826000,0.0324,0.013523,0.002678,0.000431,1.725901
9827000,0.0324,0.013523,0.002678,0.000431,1.919235
9828000,0.0324,0.013523,0.002678,0.000431,1.749877
9829000,0.0324,0.013523,0.002678,0.000431,1.742003
9830000,0.0324,0.013523,0.002678,0.000431,1.763628
9831000,0.0324,0.013523,0.002678,0.000431,1.631996
9832000,0.0324,0.013523,0.002678,0.000431,1.859648
9833000,0.0324,0.013523,0.002678,0.000431,1.651976
9834000,0.0324,0.013523,0.002678,0.000431,1.857533
9835000,0.0324,0.013523,0.002678,0.000431,1.818161
9836000,0.0324,0.013523,0.002678,0.000431,1.702396
9837000,0.0324,0.013523,0.002678,0.000431,1.755871
9838000,0.0324,0.013523,0.002678,0.000431,1.769739
9839000,0.0324,0.013523,0.002678,0.000431,1.782197
9840000,0.0324,0.013523,0.002678,0.000431,1.854947
9841000,0.0324,0.013523,0.002678,0.000431,1.642574
9842000,0.0324,0.013523,0.002678,0.000431,1.691701
9843000,0.0324,0.013523,0.002678,0.000431,1.773618
9844000,0.0324,0.013523,0.002678,0.000431,1.872224
9845000,0.0324,0.013523,0.002678,0.000431,1.691348
9846000,0.0324,0.013523,0.002678,0.000431,1.779024
9847000,0.0324,0.013523,0.002678,0.000431,1.721200
9848000,0.0324,0.013523,0.002678,0.000431,1.718380
9849000,0.0324,0.013523,0.002678,0.000431,2.031357
9850000,0.0324,0.013523,0.002678,0.000431,1.811462
9851000,0.0324,0.013523,0.002678,0.000431,1.854595
9852000,0.0324,0.013523,0.002678,0.000431,1.912066
9853000,0.0324,0.013523,0.002678,0.000431,1.688880
9854000,0.0324,0.013523,0.002678,0.000431,1.823332
9855000,0.0324,0.013523,0.002678,0.000431,1.805938
9856000,0.0324,0.013523,0.002678,0.000431,1.865760
9857000,0.0324,0.013523,0.002678,0.000431,1.790424
9858000,0.0324,0.013523,0.002678,0.000431,1.958960
9859000,0.0324,0.013523,0.002678,0.000431,2.022190
9860000,0.0324,0.013523,0.002678,0.000431,1.905955
9861000,0.0324,0.013523,0.002678,0.000431,1.968597
9862000,0.0324,0.013523,0.002678,0.000431,1.931341
9863000,0.0324,0.013523,0.002678,0.000431,1.895847
9864000,0.0324,0.013523,0.002678,0.000431,1.719085
9865000,0.0324,0.013523,0.002678,0.000431,1.813812
9866000,0.0324,0.013523,0.002678,0.000431,1.639166
9867000,0.0324,0.013523,0.002678,0.000431,1.628823
9868000,0.0324,0.013523,0.002678,0.000431,1.853302
9869000,0.0324,0.013523,0.002678,0.000431,1.746939
9870000,0.0324,0.013523,0.002678,0.000431,1.876925
9871000,0.0324,0.013523,0.002678,0.000431,1.839786
9872000,0.0324,0.013523,0.002678,0.000431,1.924524
9873000,0.0324,0.013523,0.002678,0.000431,1.711563
9874000,0.0324,0.013523,0.002678,0.000431,1.865525
9875000,0.0324,0.013523,0.002678,0.000431,1.728252
9876000,0.0324,0.013523,0.002678,0.000431,1.886680
9877000,0.0324,0.013523,0.002678,0.000431,1.736831
9878000,0.0324,0.013523,0.002678,0.000431,1.759749
9879000,0.0324,0.013523,0.002678,0.000431,1.739770
9880000,0.0324,0.013523,0.002678,0.000431,1.859178
9881000,0.0324,0.013523,0.002678,0.000431,1.725431
9882000,0.0324,0.013523,0.002678,0.000431,1.730132
9883000,0.0324,0.013523,0.002678,0.000431,1.750465
9884000,0.0324,0.013523,0.002678,0.000431,1.844957
9885000,0.0324,0.013523,0.002678,0.000431,1.807466
9886000,0.0324,0.013523,0.002678,0.000431,1.832970
9887000,0.0324,0.013523,0.002678,0.000431,1.776203
9888000,0.0324,0.013523,0.002678,0.000431,1.806056
9889000,0.0324,0.013523,0.002678,0.000431,1.900901
9890000,0.0324,0.013523,0.002678,0.000431,1.829209
9891000,0.0324,0.013523,0.002678,0.000431,1.901136
9892000,0.0324,0.013523,0.002678,0.000431,1.845428
9893000,0.0324,0.013523,0.002678,0.000431,1.827446
9894000,0.0324,0.013523,0.002678,0.000431,1.805468
9895000,0.0324,0.013523,0.002678,0.000431,1.963543
9896000,0.0324,0.013523,0.002678,0.000431,1.910421
9897000,0.0324,0.013523,0.002678,0.000431,2.140306
9898000,0.0324,0.013523,0.002678,0.000431,1.911478
9899000,0.0324,0.013523,0.002678,0.000431,1.970242
9900000,0.0324,0.013523,0.002678,0.000431,2.067556
9901000,0.0324,0.013523,0.002678,0.000431,1.829091
9902000,0.0324,0.013523,0.002678,0.000431,1.896670
9903000,0.0324,0.013523,0.002678,0.000431,1.866348
9904000,0.0324,0.013523,0.002678,0.000431,1.882449
9905000,0.0324,0.013523,0.002678,0.000431,2.052630
9906000,0.0324,0.013523,0.002678,0.000431,1.810639
9907000,0.0324,0.013523,0.002678,0.000431,1.717087
9908000,0.0324,0.013523,0.002678,0.000431,1.936394
9909000,0.0324,0.013523,0.002678,0.000431,1.916885
9910000,0.0324,0.013523,0.002678,0.000431,1.884094
9911000,0.0324,0.013523,0.002678,0.000431,1.817808
9912000,0.0324,0.013523,0.002678,0.000431,1.829914
9913000,0.0324,0.013523,0.002678,0.000431,1.764216
9914000,0.0324,0.013523,0.002678,0.000431,1.797476
9915000,0.0324,0.013523,0.002678,0.000431,1.798181
9916000,0.0324,0.013523,0.002678,0.000431,1.819454
9917000,0.0324,0.013523,0.002678,0.000431,1.955669
9918000,0.0324,0.013523,0.002678,0.000431,1.887150
9919000,0.0324,0.013523,0.002678,0.000431,1.915709
9920000,0.0324,0.013523,0.002678,0.000431,1.871519
9921000,0.0324,0.013523,0.002678,0.000431,1.724256
9922000,0.0324,0.013523,0.002678,0.000431,1.704394
9923000,0.0324,0.013523,0.002678,0.000431,1.706862
9924000,0.0324,0.013523,0.002678,0.000431,1.803940
9925000,0.0324,0.013523,0.002678,0.000431,1.738007
9926000,0.0324,0.013523,0.002678,0.000431,1.965541
9927000,0.0324,0.013523,0.002678,0.000431,1.716029
9928000,0.0324,0.013523,0.002678,0.000431,1.910068
9929000,0.0324,0.013523,0.002678,0.000431,1.833322
9930000,0.0324,0.013523,0.002678,0.000431,1.753520
9931000,0.0324,0.013523,0.002678,0.000431,1.892674
9932000,0.0324,0.013523,0.002678,0.000431,1.988929
9933000,0.0324,0.013523,0.002678,0.000431,1.784665
9934000,0.0324,0.013523,0.002678,0.000431,1.909128
9935000,0.0324,0.013523,0.002678,0.000431,1.979057
9936000,0.0324,0.013523,0.002678,0.000431,1.935924
9937000,0.0324,0.013523,0.002678,0.000431,1.829091
9938000,0.0324,0.013523,0.002678,0.000431,1.729075
9939000,0.0324,0.013523,0.002678,0.000431,1.952966
9940000,0.0324,0.013523,0.002678,0.000431,1.951908
9941000,0.0324,0.013523,0.002678,0.000431,1.849071
9942000,0.0324,0.013523,0.002678,0.000431,1.809699
9943000,0.0324,0.013523,0.002678,0.000431,1.661966
9944000,0.0324,0.013523,0.002678,0.000431,1.908423
9945000,0.0324,0.013523,0.002678,0.000431,1.854830
9946000,0.0324,0.013523,0.002678,0.000431,2.035588
9947000,0.0324,0.013523,0.002678,0.000431,1.878453
9948000,0.0324,0.013523,0.002678,0.000431,1.936277
9949000,0.0324,0.013523,0.002678,0.000431,1.840256
9950000,0.0324,0.013523,0.002678,0.000431,1.787721
9951000,0.0324,0.013523,0.002678,0.000431,1.937335
9952000,0.0324,0.013523,0.002678,0.000431,1.870814
9953000,0.0324,0.013523,0.002678,0.000431,1.975296
9954000,0.0324,0.013523,0.002678,0.000431,1.972123
9955000,0.0324,0.013523,0.002678,0.000431,1.857063
9956000,0.0324,0.013523,0.002678,0.000431,1.869991
9957000,0.0324,0.013523,0.002678,0.000431,1.759514
9958000,0.0324,0.013523,0.002678,0.000431,1.737537
9959000,0.0324,0.013523,0.002678,0.000431,1.727782
9960000,0.0324,0.013523,0.002678,0.000431,1.796653
9961000,0.0324,0.013523,0.002678,0.000431,1.810874
9962000,0.0324,0.013523,0.002678,0.000431,1.902546
9963000,0.0324,0.013523,0.002678,0.000431,1.676892
9964000,0.0324,0.013523,0.002678,0.000431,1.683121
9965000,0.0324,0.013523,0.002678,0.000431,1.683826
9966000,0.0324,0.013523,0.002678,0.000431,1.921351
9967000,0.0324,0.013523,0.002678,0.000431,1.708742
9968000,0.0324,0.013523,0.002678,0.000431,1.857180
9969000,0.0324,0.013523,0.002678,0.000431,1.787134
9970000,0.0324,0.013523,0.002678,0.000431,1.920646
9971000,0.0324,0.013523,0.002678,0.000431,1.994453
9972000,0.0324,0.013523,0.002678,0.000431,1.817573
9973000,0.0324,0.013523,0.002678,0.000431,1.820982
9974000,0.0324,0.013523,0.002678,0.000431,1.782903
9975000,0.0324,0.013523,0.002678,0.000431,2.083540
9976000,0.0324,0.013523,0.002678,0.000431,1.896082
9977000,0.0324,0.013523,0.002678,0.000431,1.907130
9978000,0.0324,0.013523,0.002678,0.000431,2.047106
9979000,0.0324,0.013523,0.002678,0.000431,1.966952
9980000,0.0324,0.013523,0.002678,0.000431,1.876220
9981000,0.0324,0.013523,0.002678,0.000431,1.844957
9982000,0.0324,0.013523,0.002678,0.000431,1.935924
9983000,0.0324,0.013523,0.002678,0.000431,2.181911
9984000,0.0324,0.013523,0.002678,0.000431,1.893614
9985000,0.0324,0.013523,0.002678,0.000431,1.987637
9986000,0.0324,0.013523,0.002678,0.000431,1.847543
9987000,0.0324,0.013523,0.002678,0.000431,1.898198
9988000,0.0324,0.013523,0.002678,0.000431,1.828033
9989000,0.0324,0.013523,0.002678,0.000431,2.041347
9990000,0.0324,0.013523,0.002678,0.000431,1.912066
9991000,0.0324,0.013523,0.002678,0.000431,1.862469
9992000,0.0324,0.013523,0.002678,0.000431,1.903251
9993000,0.0324,0.013523,0.002678,0.000431,2.013845
9994000,0.0324,0.013523,0.002678,0.000431,1.912184
9995000,0.0324,0.013523,0.002678,0.000431,1.805233
9996000,0.0324,0.013523,0.002678,0.000431,1.860824
9997000,0.0324,0.013523,0.002678,0.000431,1.880804
9998000,0.0324,0.013523,0.002678,0.000431,1.809464
9999000,0.0324,0.013523,0.002678,0.000431,1.934161
