Cycle,Area(mm^2),PeakDynamic(W),SubthresholdLeakage(W),GateLeakage(W),RunTimeDynamic(W)
4000000,0.0324,0.013523,0.002678,0.000431,2.226571
4001000,0.0324,0.013523,0.002678,0.000431,2.134664
4002000,0.0324,0.013523,0.002678,0.000431,2.233858
4003000,0.0324,0.013523,0.002678,0.000431,2.266531
4004000,0.0324,0.013523,0.002678,0.000431,2.221753
4005000,0.0324,0.013523,0.002678,0.000431,2.181088
4006000,0.0324,0.013523,0.002678,0.000431,2.336225
4007000,0.0324,0.013523,0.002678,0.000431,2.313542
4008000,0.0324,0.013523,0.002678,0.000431,2.200950
4009000,0.0324,0.013523,0.002678,0.000431,2.262888
4010000,0.0324,0.013523,0.002678,0.000431,2.313542
4011000,0.0324,0.013523,0.002678,0.000431,2.194369
4012000,0.0324,0.013523,0.002678,0.000431,2.124910
4013000,0.0324,0.013523,0.002678,0.000431,2.162401
4014000,0.0324,0.013523,0.002678,0.000431,2.221518
4015000,0.0324,0.013523,0.002678,0.000431,1.996216
4016000,0.0324,0.013523,0.002678,0.000431,1.992455
4017000,0.0324,0.013523,0.002678,0.000431,2.002915
4018000,0.0324,0.013523,0.002678,0.000431,2.020192
4019000,0.0324,0.013523,0.002678,0.000431,2.119268
4020000,0.0324,0.013523,0.002678,0.000431,2.198130
4021000,0.0324,0.013523,0.002678,0.000431,2.149473
4022000,0.0324,0.013523,0.002678,0.000431,2.289802
4023000,0.0324,0.013523,0.002678,0.000431,2.267824
4024000,0.0324,0.013523,0.002678,0.000431,2.213056
4025000,0.0324,0.013523,0.002678,0.000431,2.209882
4026000,0.0324,0.013523,0.002678,0.000431,2.139366
4027000,0.0324,0.013523,0.002678,0.000431,1.909128
4028000,0.0324,0.013523,0.002678,0.000431,1.903604
4029000,0.0324,0.013523,0.002678,0.000431,1.838493
4030000,0.0324,0.013523,0.002678,0.000431,2.113627
4031000,0.0324,0.013523,0.002678,0.000431,2.019134
4032000,0.0324,0.013523,0.002678,0.000431,2.116212
4033000,0.0324,0.013523,0.002678,0.000431,1.920998
4034000,0.0324,0.013523,0.002678,0.000431,1.891969
4035000,0.0324,0.013523,0.002678,0.000431,1.879276
4036000,0.0324,0.013523,0.002678,0.000431,1.842372
4037000,0.0324,0.013523,0.002678,0.000431,1.896787
4038000,0.0324,0.013523,0.002678,0.000431,1.956609
4039000,0.0324,0.013523,0.002678,0.000431,1.961075
4040000,0.0324,0.013523,0.002678,0.000431,2.033825
4041000,0.0324,0.013523,0.002678,0.000431,2.040877
4042000,0.0324,0.013523,0.002678,0.000431,2.019369
4043000,0.0324,0.013523,0.002678,0.000431,2.035823
4044000,0.0324,0.013523,0.002678,0.000431,1.938040
4045000,0.0324,0.013523,0.002678,0.000431,1.868463
4046000,0.0324,0.013523,0.002678,0.000431,2.001622
4047000,0.0324,0.013523,0.002678,0.000431,1.866583
4048000,0.0324,0.013523,0.002678,0.000431,2.037939
4049000,0.0324,0.013523,0.002678,0.000431,1.914534
4050000,0.0324,0.013523,0.002678,0.000431,1.872341
4051000,0.0324,0.013523,0.002678,0.000431,2.028066
4052000,0.0324,0.013523,0.002678,0.000431,2.056978
4053000,0.0324,0.013523,0.002678,0.000431,2.038174
4054000,0.0324,0.013523,0.002678,0.000431,2.094587
4055000,0.0324,0.013523,0.002678,0.000431,1.983053
4056000,0.0324,0.013523,0.002678,0.000431,2.031592
4057000,0.0324,0.013523,0.002678,0.000431,1.987872
4058000,0.0324,0.013523,0.002678,0.000431,2.035706
4059000,0.0324,0.013523,0.002678,0.000431,2.021837
4060000,0.0324,0.013523,0.002678,0.000431,1.940155
4061000,0.0324,0.013523,0.002678,0.000431,1.997744
4062000,0.0324,0.013523,0.002678,0.000431,1.923701
4063000,0.0324,0.013523,0.002678,0.000431,1.825565
4064000,0.0324,0.013523,0.002678,0.000431,2.054158
4065000,0.0324,0.013523,0.002678,0.000431,1.794303
4066000,0.0324,0.013523,0.002678,0.000431,1.905249
4067000,0.0324,0.013523,0.002678,0.000431,1.835908
4068000,0.0324,0.013523,0.002678,0.000431,1.959077
4069000,0.0324,0.013523,0.002678,0.000431,2.008674
4070000,0.0324,0.013523,0.002678,0.000431,2.000095
4071000,0.0324,0.013523,0.002678,0.000431,2.119033
4072000,0.0324,0.013523,0.002678,0.000431,2.147828
4073000,0.0324,0.013523,0.002678,0.000431,2.166632
4074000,0.0324,0.013523,0.002678,0.000431,2.193193
4075000,0.0324,0.013523,0.002678,0.000431,2.201185
4076000,0.0324,0.013523,0.002678,0.000431,2.198600
4077000,0.0324,0.013523,0.002678,0.000431,2.191901
4078000,0.0324,0.013523,0.002678,0.000431,1.853537
4079000,0.0324,0.013523,0.002678,0.000431,2.112334
4080000,0.0324,0.013523,0.002678,0.000431,2.165104
4081000,0.0324,0.013523,0.002678,0.000431,2.030182
4082000,0.0324,0.013523,0.002678,0.000431,2.089181
4083000,0.0324,0.013523,0.002678,0.000431,2.160168
4084000,0.0324,0.013523,0.002678,0.000431,2.254543
4085000,0.0324,0.013523,0.002678,0.000431,2.220930
4086000,0.0324,0.013523,0.002678,0.000431,2.144654
4087000,0.0324,0.013523,0.002678,0.000431,2.268411
4088000,0.0324,0.013523,0.002678,0.000431,2.140423
4089000,0.0324,0.013523,0.002678,0.000431,2.186847
4090000,0.0324,0.013523,0.002678,0.000431,2.292152
4091000,0.0324,0.013523,0.002678,0.000431,2.333640
4092000,0.0324,0.013523,0.002678,0.000431,2.350799
4093000,0.0324,0.013523,0.002678,0.000431,2.426369
4094000,0.0324,0.013523,0.002678,0.000431,2.308959
4095000,0.0324,0.013523,0.002678,0.000431,2.408388
4096000,0.0324,0.013523,0.002678,0.000431,2.240910
4097000,0.0324,0.013523,0.002678,0.000431,2.446114
4098000,0.0324,0.013523,0.002678,0.000431,2.177797
4099000,0.0324,0.013523,0.002678,0.000431,2.111981
4100000,0.0324,0.013523,0.002678,0.000431,2.169100
4101000,0.0324,0.013523,0.002678,0.000431,2.308371
4102000,0.0324,0.013523,0.002678,0.000431,2.333522
4103000,0.0324,0.013523,0.002678,0.000431,2.256659
4104000,0.0324,0.013523,0.002678,0.000431,2.201068
4105000,0.0324,0.013523,0.002678,0.000431,2.315658
4106000,0.0324,0.013523,0.002678,0.000431,2.311074
4107000,0.0324,0.013523,0.002678,0.000431,2.425782
4108000,0.0324,0.013523,0.002678,0.000431,2.179795
4109000,0.0324,0.013523,0.002678,0.000431,2.238089
4110000,0.0324,0.013523,0.002678,0.000431,2.306726
4111000,0.0324,0.013523,0.002678,0.000431,2.226101
4112000,0.0324,0.013523,0.002678,0.000431,2.335520
4113000,0.0324,0.013523,0.002678,0.000431,2.297323
4114000,0.0324,0.013523,0.002678,0.000431,2.228804
4115000,0.0324,0.013523,0.002678,0.000431,2.314835
4116000,0.0324,0.013523,0.002678,0.000431,2.249489
4117000,0.0324,0.013523,0.002678,0.000431,2.286276
4118000,0.0324,0.013523,0.002678,0.000431,2.275111
4119000,0.0324,0.013523,0.002678,0.000431,2.122559
4120000,0.0324,0.013523,0.002678,0.000431,2.246316
4121000,0.0324,0.013523,0.002678,0.000431,2.090004
4122000,0.0324,0.013523,0.002678,0.000431,2.467974
4123000,0.0324,0.013523,0.002678,0.000431,2.193076
4124000,0.0324,0.013523,0.002678,0.000431,2.319771
4125000,0.0324,0.013523,0.002678,0.000431,2.145007
4126000,0.0324,0.013523,0.002678,0.000431,2.221635
4127000,0.0324,0.013523,0.002678,0.000431,2.303670
4128000,0.0324,0.013523,0.002678,0.000431,1.991398
4129000,0.0324,0.013523,0.002678,0.000431,2.192841
4130000,0.0324,0.013523,0.002678,0.000431,2.146652
4131000,0.0324,0.013523,0.002678,0.000431,2.175564
4132000,0.0324,0.013523,0.002678,0.000431,2.235856
4133000,0.0324,0.013523,0.002678,0.000431,2.189903
4134000,0.0324,0.013523,0.002678,0.000431,2.245141
4135000,0.0324,0.013523,0.002678,0.000431,2.043580
4136000,0.0324,0.013523,0.002678,0.000431,2.011377
4137000,0.0324,0.013523,0.002678,0.000431,2.029359
4138000,0.0324,0.013523,0.002678,0.000431,2.343982
4139000,0.0324,0.013523,0.002678,0.000431,2.093294
4140000,0.0324,0.013523,0.002678,0.000431,2.115507
4141000,0.0324,0.013523,0.002678,0.000431,2.151118
4142000,0.0324,0.013523,0.002678,0.000431,2.062737
4143000,0.0324,0.013523,0.002678,0.000431,2.046283
4144000,0.0324,0.013523,0.002678,0.000431,2.061327
4145000,0.0324,0.013523,0.002678,0.000431,2.102579
4146000,0.0324,0.013523,0.002678,0.000431,2.099994
4147000,0.0324,0.013523,0.002678,0.000431,2.140188
4148000,0.0324,0.013523,0.002678,0.000431,2.235386
4149000,0.0324,0.013523,0.002678,0.000431,2.082247
4150000,0.0324,0.013523,0.002678,0.000431,2.102227
4151000,0.0324,0.013523,0.002678,0.000431,2.080484
4152000,0.0324,0.013523,0.002678,0.000431,2.093294
4153000,0.0324,0.013523,0.002678,0.000431,2.165574
4154000,0.0324,0.013523,0.002678,0.000431,2.031827
4155000,0.0324,0.013523,0.002678,0.000431,2.147710
4156000,0.0324,0.013523,0.002678,0.000431,2.136310
4157000,0.0324,0.013523,0.002678,0.000431,2.076605
4158000,0.0324,0.013523,0.002678,0.000431,2.064147
4159000,0.0324,0.013523,0.002678,0.000431,2.155349
4160000,0.0324,0.013523,0.002678,0.000431,2.017489
4161000,0.0324,0.013523,0.002678,0.000431,2.140423
4162000,0.0324,0.013523,0.002678,0.000431,2.099641
4163000,0.0324,0.013523,0.002678,0.000431,2.017606
4164000,0.0324,0.013523,0.002678,0.000431,2.077781
4165000,0.0324,0.013523,0.002678,0.000431,2.035823
4166000,0.0324,0.013523,0.002678,0.000431,1.973768
4167000,0.0324,0.013523,0.002678,0.000431,1.968244
4168000,0.0324,0.013523,0.002678,0.000431,1.847778
4169000,0.0324,0.013523,0.002678,0.000431,1.928990
4170000,0.0324,0.013523,0.002678,0.000431,1.910421
4171000,0.0324,0.013523,0.002678,0.000431,1.938627
4172000,0.0324,0.013523,0.002678,0.000431,1.898668
4173000,0.0324,0.013523,0.002678,0.000431,1.969420
4174000,0.0324,0.013523,0.002678,0.000431,1.837671
4175000,0.0324,0.013523,0.002678,0.000431,1.900078
4176000,0.0324,0.013523,0.002678,0.000431,1.826623
4177000,0.0324,0.013523,0.002678,0.000431,1.867523
4178000,0.0324,0.013523,0.002678,0.000431,2.047458
4179000,0.0324,0.013523,0.002678,0.000431,1.853067
4180000,0.0324,0.013523,0.002678,0.000431,1.991985
4181000,0.0324,0.013523,0.002678,0.000431,1.879863
4182000,0.0324,0.013523,0.002678,0.000431,1.813577
4183000,0.0324,0.013523,0.002678,0.000431,1.947089
4184000,0.0324,0.013523,0.002678,0.000431,1.871284
4185000,0.0324,0.013523,0.002678,0.000431,1.945797
4186000,0.0324,0.013523,0.002678,0.000431,1.820629
4187000,0.0324,0.013523,0.002678,0.000431,1.791952
4188000,0.0324,0.013523,0.002678,0.000431,1.850129
4189000,0.0324,0.013523,0.002678,0.000431,1.820394
4190000,0.0324,0.013523,0.002678,0.000431,1.910068
4191000,0.0324,0.013523,0.002678,0.000431,1.788074
4192000,0.0324,0.013523,0.002678,0.000431,1.924994
4193000,0.0324,0.013523,0.002678,0.000431,1.860941
4194000,0.0324,0.013523,0.002678,0.000431,1.948617
4195000,0.0324,0.013523,0.002678,0.000431,1.985874
4196000,0.0324,0.013523,0.002678,0.000431,2.157465
4197000,0.0324,0.013523,0.002678,0.000431,2.080014
4198000,0.0324,0.013523,0.002678,0.000431,2.094705
4199000,0.0324,0.013523,0.002678,0.000431,2.070729
4200000,0.0324,0.013523,0.002678,0.000431,2.019957
4201000,0.0324,0.013523,0.002678,0.000431,2.096820
4202000,0.0324,0.013523,0.002678,0.000431,2.148650
4203000,0.0324,0.013523,0.002678,0.000431,2.253015
4204000,0.0324,0.013523,0.002678,0.000431,2.252780
4205000,0.0324,0.013523,0.002678,0.000431,2.195191
4206000,0.0324,0.013523,0.002678,0.000431,2.301437
4207000,0.0324,0.013523,0.002678,0.000431,2.205769
4208000,0.0324,0.013523,0.002678,0.000431,2.185554
4209000,0.0324,0.013523,0.002678,0.000431,2.255601
4210000,0.0324,0.013523,0.002678,0.000431,2.358085
4211000,0.0324,0.013523,0.002678,0.000431,2.083657
4212000,0.0324,0.013523,0.002678,0.000431,2.026186
4213000,0.0324,0.013523,0.002678,0.000431,2.080484
4214000,0.0324,0.013523,0.002678,0.000431,2.015491
4215000,0.0324,0.013523,0.002678,0.000431,1.805703
4216000,0.0324,0.013523,0.002678,0.000431,1.949322
4217000,0.0324,0.013523,0.002678,0.000431,1.984228
4218000,0.0324,0.013523,0.002678,0.000431,2.061797
4219000,0.0324,0.013523,0.002678,0.000431,2.090474
4220000,0.0324,0.013523,0.002678,0.000431,1.985756
4221000,0.0324,0.013523,0.002678,0.000431,1.946737
4222000,0.0324,0.013523,0.002678,0.000431,1.915944
4223000,0.0324,0.013523,0.002678,0.000431,1.955669
4224000,0.0324,0.013523,0.002678,0.000431,2.059094
4225000,0.0324,0.013523,0.002678,0.000431,2.033473
4226000,0.0324,0.013523,0.002678,0.000431,2.110219
4227000,0.0324,0.013523,0.002678,0.000431,2.133137
4228000,0.0324,0.013523,0.002678,0.000431,2.216582
4229000,0.0324,0.013523,0.002678,0.000431,2.148298
4230000,0.0324,0.013523,0.002678,0.000431,2.148298
4231000,0.0324,0.013523,0.002678,0.000431,2.103284
4232000,0.0324,0.013523,0.002678,0.000431,2.179443
4233000,0.0324,0.013523,0.002678,0.000431,2.060269
4234000,0.0324,0.013523,0.002678,0.000431,2.231273
4235000,0.0324,0.013523,0.002678,0.000431,2.105870
4236000,0.0324,0.013523,0.002678,0.000431,2.152646
4237000,0.0324,0.013523,0.002678,0.000431,2.129023
4238000,0.0324,0.013523,0.002678,0.000431,2.153939
4239000,0.0324,0.013523,0.002678,0.000431,1.951438
4240000,0.0324,0.013523,0.002678,0.000431,1.979292
4241000,0.0324,0.013523,0.002678,0.000431,1.957432
4242000,0.0324,0.013523,0.002678,0.000431,1.959430
4243000,0.0324,0.013523,0.002678,0.000431,2.134312
4244000,0.0324,0.013523,0.002678,0.000431,2.113039
4245000,0.0324,0.013523,0.002678,0.000431,2.293445
4246000,0.0324,0.013523,0.002678,0.000431,2.215876
4247000,0.0324,0.013523,0.002678,0.000431,2.200950
4248000,0.0324,0.013523,0.002678,0.000431,2.392991
4249000,0.0324,0.013523,0.002678,0.000431,2.209295
4250000,0.0324,0.013523,0.002678,0.000431,2.268647
4251000,0.0324,0.013523,0.002678,0.000431,2.299086
4252000,0.0324,0.013523,0.002678,0.000431,2.303787
4253000,0.0324,0.013523,0.002678,0.000431,2.260184
4254000,0.0324,0.013523,0.002678,0.000431,2.441060
4255000,0.0324,0.013523,0.002678,0.000431,2.318831
4256000,0.0324,0.013523,0.002678,0.000431,2.381591
4257000,0.0324,0.013523,0.002678,0.000431,2.246199
4258000,0.0324,0.013523,0.002678,0.000431,2.109161
4259000,0.0324,0.013523,0.002678,0.000431,2.123147
4260000,0.0324,0.013523,0.002678,0.000431,2.195426
4261000,0.0324,0.013523,0.002678,0.000431,2.116095
4262000,0.0324,0.013523,0.002678,0.000431,2.158993
4263000,0.0324,0.013523,0.002678,0.000431,2.279224
4264000,0.0324,0.013523,0.002678,0.000431,2.200715
4265000,0.0324,0.013523,0.002678,0.000431,2.263358
4266000,0.0324,0.013523,0.002678,0.000431,2.213643
4267000,0.0324,0.013523,0.002678,0.000431,2.241262
4268000,0.0324,0.013523,0.002678,0.000431,2.397692
4269000,0.0324,0.013523,0.002678,0.000431,2.278754
4270000,0.0324,0.013523,0.002678,0.000431,2.049809
4271000,0.0324,0.013523,0.002678,0.000431,2.146652
4272000,0.0324,0.013523,0.002678,0.000431,2.262065
4273000,0.0324,0.013523,0.002678,0.000431,2.169453
4274000,0.0324,0.013523,0.002678,0.000431,2.078133
4275000,0.0324,0.013523,0.002678,0.000431,2.113862
4276000,0.0324,0.013523,0.002678,0.000431,2.249019
4277000,0.0324,0.013523,0.002678,0.000431,2.166985
4278000,0.0324,0.013523,0.002678,0.000431,1.999507
4279000,0.0324,0.013523,0.002678,0.000431,2.096350
4280000,0.0324,0.013523,0.002678,0.000431,2.065323
4281000,0.0324,0.013523,0.002678,0.000431,2.072139
4282000,0.0324,0.013523,0.002678,0.000431,2.068378
4283000,0.0324,0.013523,0.002678,0.000431,2.079309
4284000,0.0324,0.013523,0.002678,0.000431,2.078133
4285000,0.0324,0.013523,0.002678,0.000431,2.103754
4286000,0.0324,0.013523,0.002678,0.000431,2.032885
4287000,0.0324,0.013523,0.002678,0.000431,2.076253
4288000,0.0324,0.013523,0.002678,0.000431,1.986579
4289000,0.0324,0.013523,0.002678,0.000431,2.033238
4290000,0.0324,0.013523,0.002678,0.000431,2.072845
4291000,0.0324,0.013523,0.002678,0.000431,1.895495
4292000,0.0324,0.013523,0.002678,0.000431,1.920411
4293000,0.0324,0.013523,0.002678,0.000431,1.997391
4294000,0.0324,0.013523,0.002678,0.000431,2.049692
4295000,0.0324,0.013523,0.002678,0.000431,2.020662
4296000,0.0324,0.013523,0.002678,0.000431,2.048516
4297000,0.0324,0.013523,0.002678,0.000431,2.083657
4298000,0.0324,0.013523,0.002678,0.000431,2.022542
4299000,0.0324,0.013523,0.002678,0.000431,1.959195
4300000,0.0324,0.013523,0.002678,0.000431,2.061797
4301000,0.0324,0.013523,0.002678,0.000431,2.109631
4302000,0.0324,0.013523,0.002678,0.000431,2.016549
4303000,0.0324,0.013523,0.002678,0.000431,1.971653
4304000,0.0324,0.013523,0.002678,0.000431,1.978352
4305000,0.0324,0.013523,0.002678,0.000431,1.946502
4306000,0.0324,0.013523,0.002678,0.000431,2.059094
4307000,0.0324,0.013523,0.002678,0.000431,2.094235
4308000,0.0324,0.013523,0.002678,0.000431,2.004443
4309000,0.0324,0.013523,0.002678,0.000431,2.087418
4310000,0.0324,0.013523,0.002678,0.000431,2.049574
4311000,0.0324,0.013523,0.002678,0.000431,1.972005
4312000,0.0324,0.013523,0.002678,0.000431,2.065675
4313000,0.0324,0.013523,0.002678,0.000431,1.942741
4314000,0.0324,0.013523,0.002678,0.000431,1.963426
4315000,0.0324,0.013523,0.002678,0.000431,1.928285
4316000,0.0324,0.013523,0.002678,0.000431,1.830384
4317000,0.0324,0.013523,0.002678,0.000431,1.816045
4318000,0.0324,0.013523,0.002678,0.000431,1.886210
4319000,0.0324,0.013523,0.002678,0.000431,1.897610
4320000,0.0324,0.013523,0.002678,0.000431,1.961780
4321000,0.0324,0.013523,0.002678,0.000431,1.901136
4322000,0.0324,0.013523,0.002678,0.000431,1.980585
4323000,0.0324,0.013523,0.002678,0.000431,1.918765
4324000,0.0324,0.013523,0.002678,0.000431,1.907600
4325000,0.0324,0.013523,0.002678,0.000431,1.801002
4326000,0.0324,0.013523,0.002678,0.000431,1.898550
4327000,0.0324,0.013523,0.002678,0.000431,1.913594
4328000,0.0324,0.013523,0.002678,0.000431,1.770797
4329000,0.0324,0.013523,0.002678,0.000431,1.817573
4330000,0.0324,0.013523,0.002678,0.000431,1.840844
4331000,0.0324,0.013523,0.002678,0.000431,1.830266
4332000,0.0324,0.013523,0.002678,0.000431,1.691466
4333000,0.0324,0.013523,0.002678,0.000431,1.743766
4334000,0.0324,0.013523,0.002678,0.000431,1.821569
4335000,0.0324,0.013523,0.002678,0.000431,1.872577
4336000,0.0324,0.013523,0.002678,0.000431,1.892674
4337000,0.0324,0.013523,0.002678,0.000431,1.850481
4338000,0.0324,0.013523,0.002678,0.000431,1.907247
4339000,0.0324,0.013523,0.002678,0.000431,1.893497
4340000,0.0324,0.013523,0.002678,0.000431,1.851069
4341000,0.0324,0.013523,0.002678,0.000431,1.832029
4342000,0.0324,0.013523,0.002678,0.000431,1.869873
4343000,0.0324,0.013523,0.002678,0.000431,1.853772
4344000,0.0324,0.013523,0.002678,0.000431,1.765508
4345000,0.0324,0.013523,0.002678,0.000431,1.662671
4346000,0.0324,0.013523,0.002678,0.000431,1.858003
4347000,0.0324,0.013523,0.002678,0.000431,1.741415
4348000,0.0324,0.013523,0.002678,0.000431,1.762805
4349000,0.0324,0.013523,0.002678,0.000431,1.935807
4350000,0.0324,0.013523,0.002678,0.000431,1.904309
4351000,0.0324,0.013523,0.002678,0.000431,1.849071
4352000,0.0324,0.013523,0.002678,0.000431,1.890676
4353000,0.0324,0.013523,0.002678,0.000431,1.914769
4354000,0.0324,0.013523,0.002678,0.000431,1.701103
4355000,0.0324,0.013523,0.002678,0.000431,1.777614
4356000,0.0324,0.013523,0.002678,0.000431,1.784195
4357000,0.0324,0.013523,0.002678,0.000431,1.845780
4358000,0.0324,0.013523,0.002678,0.000431,1.930871
4359000,0.0324,0.013523,0.002678,0.000431,1.877513
4360000,0.0324,0.013523,0.002678,0.000431,1.967069
4361000,0.0324,0.013523,0.002678,0.000431,1.948735
4362000,0.0324,0.013523,0.002678,0.000431,1.863644
4363000,0.0324,0.013523,0.002678,0.000431,1.957314
4364000,0.0324,0.013523,0.002678,0.000431,1.833440
4365000,0.0324,0.013523,0.002678,0.000431,1.840021
4366000,0.0324,0.013523,0.002678,0.000431,1.913124
4367000,0.0324,0.013523,0.002678,0.000431,2.059681
4368000,0.0324,0.013523,0.002678,0.000431,1.943446
4369000,0.0324,0.013523,0.002678,0.000431,2.048046
4370000,0.0324,0.013523,0.002678,0.000431,1.931928
4371000,0.0324,0.013523,0.002678,0.000431,1.877748
4372000,0.0324,0.013523,0.002678,0.000431,1.842137
4373000,0.0324,0.013523,0.002678,0.000431,1.826976
4374000,0.0324,0.013523,0.002678,0.000431,2.036998
4375000,0.0324,0.013523,0.002678,0.000431,2.063442
4376000,0.0324,0.013523,0.002678,0.000431,2.075195
4377000,0.0324,0.013523,0.002678,0.000431,1.893849
4378000,0.0324,0.013523,0.002678,0.000431,1.903721
4379000,0.0324,0.013523,0.002678,0.000431,2.008792
4380000,0.0324,0.013523,0.002678,0.000431,2.070847
4381000,0.0324,0.013523,0.002678,0.000431,2.070024
4382000,0.0324,0.013523,0.002678,0.000431,2.116800
4383000,0.0324,0.013523,0.002678,0.000431,2.085303
4384000,0.0324,0.013523,0.002678,0.000431,2.174977
4385000,0.0324,0.013523,0.002678,0.000431,2.083775
4386000,0.0324,0.013523,0.002678,0.000431,2.131021
4387000,0.0324,0.013523,0.002678,0.000431,1.905014
4388000,0.0324,0.013523,0.002678,0.000431,1.996921
4389000,0.0324,0.013523,0.002678,0.000431,2.105752
4390000,0.0324,0.013523,0.002678,0.000431,2.036881
4391000,0.0324,0.013523,0.002678,0.000431,2.021837
4392000,0.0324,0.013523,0.002678,0.000431,1.957902
4393000,0.0324,0.013523,0.002678,0.000431,2.009849
4394000,0.0324,0.013523,0.002678,0.000431,1.935924
4395000,0.0324,0.013523,0.002678,0.000431,2.170628
4396000,0.0324,0.013523,0.002678,0.000431,1.929460
4397000,0.0324,0.013523,0.002678,0.000431,2.017254
4398000,0.0324,0.013523,0.002678,0.000431,1.995511
4399000,0.0324,0.013523,0.002678,0.000431,1.906895
4400000,0.0324,0.013523,0.002678,0.000431,2.095527
4401000,0.0324,0.013523,0.002678,0.000431,1.995981
4402000,0.0324,0.013523,0.002678,0.000431,1.806761
4403000,0.0324,0.013523,0.002678,0.000431,2.017959
4404000,0.0324,0.013523,0.002678,0.000431,1.861529
4405000,0.0324,0.013523,0.002678,0.000431,2.015961
4406000,0.0324,0.013523,0.002678,0.000431,1.916885
4407000,0.0324,0.013523,0.002678,0.000431,2.092237
4408000,0.0324,0.013523,0.002678,0.000431,1.868816
4409000,0.0324,0.013523,0.002678,0.000431,1.870461
4410000,0.0324,0.013523,0.002678,0.000431,1.780082
4411000,0.0324,0.013523,0.002678,0.000431,1.898903
4412000,0.0324,0.013523,0.002678,0.000431,1.935689
4413000,0.0324,0.013523,0.002678,0.000431,1.950145
4414000,0.0324,0.013523,0.002678,0.000431,1.831794
4415000,0.0324,0.013523,0.002678,0.000431,1.913476
4416000,0.0324,0.013523,0.002678,0.000431,1.934631
4417000,0.0324,0.013523,0.002678,0.000431,1.986579
4418000,0.0324,0.013523,0.002678,0.000431,1.924759
4419000,0.0324,0.013523,0.002678,0.000431,1.979292
4420000,0.0324,0.013523,0.002678,0.000431,2.080719
4421000,0.0324,0.013523,0.002678,0.000431,1.824390
4422000,0.0324,0.013523,0.002678,0.000431,1.939450
4423000,0.0324,0.013523,0.002678,0.000431,1.964836
4424000,0.0324,0.013523,0.002678,0.000431,1.839904
4425000,0.0324,0.013523,0.002678,0.000431,1.903486
4426000,0.0324,0.013523,0.002678,0.000431,2.003856
4427000,0.0324,0.013523,0.002678,0.000431,2.036881
4428000,0.0324,0.013523,0.002678,0.000431,2.019134
4429000,0.0324,0.013523,0.002678,0.000431,2.147240
4430000,0.0324,0.013523,0.002678,0.000431,1.962015
4431000,0.0324,0.013523,0.002678,0.000431,1.941566
4432000,0.0324,0.013523,0.002678,0.000431,2.044168
4433000,0.0324,0.013523,0.002678,0.000431,1.917942
4434000,0.0324,0.013523,0.002678,0.000431,1.850951
4435000,0.0324,0.013523,0.002678,0.000431,1.718732
4436000,0.0324,0.013523,0.002678,0.000431,1.779847
4437000,0.0324,0.013523,0.002678,0.000431,2.017019
4438000,0.0324,0.013523,0.002678,0.000431,1.906190
4439000,0.0324,0.013523,0.002678,0.000431,2.095057
4440000,0.0324,0.013523,0.002678,0.000431,1.984346
4441000,0.0324,0.013523,0.002678,0.000431,2.011142
4442000,0.0324,0.013523,0.002678,0.000431,1.902429
4443000,0.0324,0.013523,0.002678,0.000431,1.796771
4444000,0.0324,0.013523,0.002678,0.000431,1.729780
4445000,0.0324,0.013523,0.002678,0.000431,1.478269
4446000,0.0324,0.013523,0.002678,0.000431,2.065205
4447000,0.0324,0.013523,0.002678,0.000431,1.906542
4448000,0.0324,0.013523,0.002678,0.000431,2.096585
4449000,0.0324,0.013523,0.002678,0.000431,1.780552
4450000,0.0324,0.013523,0.002678,0.000431,1.894907
4451000,0.0324,0.013523,0.002678,0.000431,1.946149
4452000,0.0324,0.013523,0.002678,0.000431,2.180148
4453000,0.0324,0.013523,0.002678,0.000431,2.005501
4454000,0.0324,0.013523,0.002678,0.000431,2.063442
4455000,0.0324,0.013523,0.002678,0.000431,1.973886
4456000,0.0324,0.013523,0.002678,0.000431,2.100229
4457000,0.0324,0.013523,0.002678,0.000431,1.828621
4458000,0.0324,0.013523,0.002678,0.000431,2.273348
4459000,0.0324,0.013523,0.002678,0.000431,2.139366
4460000,0.0324,0.013523,0.002678,0.000431,2.133254
4461000,0.0324,0.013523,0.002678,0.000431,1.939685
4462000,0.0324,0.013523,0.002678,0.000431,2.211175
4463000,0.0324,0.013523,0.002678,0.000431,2.036646
4464000,0.0324,0.013523,0.002678,0.000431,1.895142
4465000,0.0324,0.013523,0.002678,0.000431,2.083422
4466000,0.0324,0.013523,0.002678,0.000431,2.109278
4467000,0.0324,0.013523,0.002678,0.000431,1.984581
4468000,0.0324,0.013523,0.002678,0.000431,2.123147
4469000,0.0324,0.013523,0.002678,0.000431,1.872459
4470000,0.0324,0.013523,0.002678,0.000431,2.095880
4471000,0.0324,0.013523,0.002678,0.000431,1.977647
4472000,0.0324,0.013523,0.002678,0.000431,1.892556
4473000,0.0324,0.013523,0.002678,0.000431,1.871871
4474000,0.0324,0.013523,0.002678,0.000431,1.971418
4475000,0.0324,0.013523,0.002678,0.000431,2.107985
4476000,0.0324,0.013523,0.002678,0.000431,2.050279
4477000,0.0324,0.013523,0.002678,0.000431,1.917942
4478000,0.0324,0.013523,0.002678,0.000431,1.973651
4479000,0.0324,0.013523,0.002678,0.000431,1.969420
4480000,0.0324,0.013523,0.002678,0.000431,1.949910
4481000,0.0324,0.013523,0.002678,0.000431,2.017724
4482000,0.0324,0.013523,0.002678,0.000431,1.826270
4483000,0.0324,0.013523,0.002678,0.000431,1.869638
4484000,0.0324,0.013523,0.002678,0.000431,2.029712
4485000,0.0324,0.013523,0.002678,0.000431,2.069084
4486000,0.0324,0.013523,0.002678,0.000431,1.816868
4487000,0.0324,0.013523,0.002678,0.000431,1.819924
4488000,0.0324,0.013523,0.002678,0.000431,1.909010
4489000,0.0324,0.013523,0.002678,0.000431,1.911596
4490000,0.0324,0.013523,0.002678,0.000431,1.987637
4491000,0.0324,0.013523,0.002678,0.000431,1.895612
4492000,0.0324,0.013523,0.002678,0.000431,1.860236
4493000,0.0324,0.013523,0.002678,0.000431,1.687587
4494000,0.0324,0.013523,0.002678,0.000431,1.914534
4495000,0.0324,0.013523,0.002678,0.000431,1.962486
4496000,0.0324,0.013523,0.002678,0.000431,1.914064
4497000,0.0324,0.013523,0.002678,0.000431,2.010672
4498000,0.0324,0.013523,0.002678,0.000431,2.015961
4499000,0.0324,0.013523,0.002678,0.000431,1.919353
4500000,0.0324,0.013523,0.002678,0.000431,2.004913
4501000,0.0324,0.013523,0.002678,0.000431,1.920058
4502000,0.0324,0.013523,0.002678,0.000431,1.638813
4503000,0.0324,0.013523,0.002678,0.000431,1.903369
4504000,0.0324,0.013523,0.002678,0.000431,1.872341
4505000,0.0324,0.013523,0.002678,0.000431,1.860001
4506000,0.0324,0.013523,0.002678,0.000431,1.875985
4507000,0.0324,0.013523,0.002678,0.000431,1.627060
4508000,0.0324,0.013523,0.002678,0.000431,1.717557
4509000,0.0324,0.013523,0.002678,0.000431,1.602027
4510000,0.0324,0.013523,0.002678,0.000431,1.683004
4511000,0.0324,0.013523,0.002678,0.000431,1.869638
4512000,0.0324,0.013523,0.002678,0.000431,1.827916
4513000,0.0324,0.013523,0.002678,0.000431,1.941213
4514000,0.0324,0.013523,0.002678,0.000431,1.848131
4515000,0.0324,0.013523,0.002678,0.000431,1.896552
4516000,0.0324,0.013523,0.002678,0.000431,1.856593
4517000,0.0324,0.013523,0.002678,0.000431,1.750112
4518000,0.0324,0.013523,0.002678,0.000431,1.719907
4519000,0.0324,0.013523,0.002678,0.000431,1.753050
4520000,0.0324,0.013523,0.002678,0.000431,1.773853
4521000,0.0324,0.013523,0.002678,0.000431,1.751993
4522000,0.0324,0.013523,0.002678,0.000431,1.623299
4523000,0.0324,0.013523,0.002678,0.000431,1.666785
4524000,0.0324,0.013523,0.002678,0.000431,1.709095
4525000,0.0324,0.013523,0.002678,0.000431,1.774911
4526000,0.0324,0.013523,0.002678,0.000431,1.774676
4527000,0.0324,0.013523,0.002678,0.000431,1.710975
4528000,0.0324,0.013523,0.002678,0.000431,1.733893
4529000,0.0324,0.013523,0.002678,0.000431,1.738594
4530000,0.0324,0.013523,0.002678,0.000431,1.602027
4531000,0.0324,0.013523,0.002678,0.000431,1.548551
4532000,0.0324,0.013523,0.002678,0.000431,1.844840
4533000,0.0324,0.013523,0.002678,0.000431,1.830266
4534000,0.0324,0.013523,0.002678,0.000431,1.790659
4535000,0.0324,0.013523,0.002678,0.000431,1.857768
4536000,0.0324,0.013523,0.002678,0.000431,1.932163
4537000,0.0324,0.013523,0.002678,0.000431,1.936277
4538000,0.0324,0.013523,0.002678,0.000431,1.849306
4539000,0.0324,0.013523,0.002678,0.000431,1.909950
4540000,0.0324,0.013523,0.002678,0.000431,1.874222
4541000,0.0324,0.013523,0.002678,0.000431,1.749642
4542000,0.0324,0.013523,0.002678,0.000431,2.050514
4543000,0.0324,0.013523,0.002678,0.000431,1.862117
4544000,0.0324,0.013523,0.002678,0.000431,2.022660
4545000,0.0324,0.013523,0.002678,0.000431,1.803823
4546000,0.0324,0.013523,0.002678,0.000431,1.752228
4547000,0.0324,0.013523,0.002678,0.000431,1.831089
4548000,0.0324,0.013523,0.002678,0.000431,1.843547
4549000,0.0324,0.013523,0.002678,0.000431,1.925112
4550000,0.0324,0.013523,0.002678,0.000431,2.090826
4551000,0.0324,0.013523,0.002678,0.000431,1.980938
4552000,0.0324,0.013523,0.002678,0.000431,1.898903
4553000,0.0324,0.013523,0.002678,0.000431,1.977294
4554000,0.0324,0.013523,0.002678,0.000431,1.987872
4555000,0.0324,0.013523,0.002678,0.000431,1.889736
4556000,0.0324,0.013523,0.002678,0.000431,1.982935
4557000,0.0324,0.013523,0.002678,0.000431,1.904074
4558000,0.0324,0.013523,0.002678,0.000431,1.936629
4559000,0.0324,0.013523,0.002678,0.000431,1.902899
4560000,0.0324,0.013523,0.002678,0.000431,1.833675
4561000,0.0324,0.013523,0.002678,0.000431,1.873164
4562000,0.0324,0.013523,0.002678,0.000431,1.869638
4563000,0.0324,0.013523,0.002678,0.000431,1.885387
4564000,0.0324,0.013523,0.002678,0.000431,1.910891
4565000,0.0324,0.013523,0.002678,0.000431,1.947089
4566000,0.0324,0.013523,0.002678,0.000431,1.907717
4567000,0.0324,0.013523,0.002678,0.000431,1.755166
4568000,0.0324,0.013523,0.002678,0.000431,1.951320
4569000,0.0324,0.013523,0.002678,0.000431,1.818043
4570000,0.0324,0.013523,0.002678,0.000431,1.804645
4571000,0.0324,0.013523,0.002678,0.000431,1.928873
4572000,0.0324,0.013523,0.002678,0.000431,1.766214
4573000,0.0324,0.013523,0.002678,0.000431,1.771972
4574000,0.0324,0.013523,0.002678,0.000431,1.718497
4575000,0.0324,0.013523,0.002678,0.000431,1.928167
4576000,0.0324,0.013523,0.002678,0.000431,1.873164
4577000,0.0324,0.013523,0.002678,0.000431,1.800884
4578000,0.0324,0.013523,0.002678,0.000431,1.745881
4579000,0.0324,0.013523,0.002678,0.000431,1.731190
4580000,0.0324,0.013523,0.002678,0.000431,1.740710
4581000,0.0324,0.013523,0.002678,0.000431,1.795008
4582000,0.0324,0.013523,0.002678,0.000431,1.660203
4583000,0.0324,0.013523,0.002678,0.000431,1.772560
4584000,0.0324,0.013523,0.002678,0.000431,1.825800
4585000,0.0324,0.013523,0.002678,0.000431,1.849188
4586000,0.0324,0.013523,0.002678,0.000431,1.714736
4587000,0.0324,0.013523,0.002678,0.000431,2.011142
4588000,0.0324,0.013523,0.002678,0.000431,1.887385
4589000,0.0324,0.013523,0.002678,0.000431,1.929578
4590000,0.0324,0.013523,0.002678,0.000431,1.862469
4591000,0.0324,0.013523,0.002678,0.000431,1.849659
4592000,0.0324,0.013523,0.002678,0.000431,1.805938
4593000,0.0324,0.013523,0.002678,0.000431,1.972358
4594000,0.0324,0.013523,0.002678,0.000431,1.872106
4595000,0.0324,0.013523,0.002678,0.000431,1.847073
4596000,0.0324,0.013523,0.002678,0.000431,1.882684
4597000,0.0324,0.013523,0.002678,0.000431,1.901136
4598000,0.0324,0.013523,0.002678,0.000431,1.840374
4599000,0.0324,0.013523,0.002678,0.000431,1.684414
4600000,0.0324,0.013523,0.002678,0.000431,1.770092
4601000,0.0324,0.013523,0.002678,0.000431,1.789837
4602000,0.0324,0.013523,0.002678,0.000431,1.653151
4603000,0.0324,0.013523,0.002678,0.000431,1.678890
4604000,0.0324,0.013523,0.002678,0.000431,1.673601
4605000,0.0324,0.013523,0.002678,0.000431,1.702748
4606000,0.0324,0.013523,0.002678,0.000431,1.728605
4607000,0.0324,0.013523,0.002678,0.000431,1.893144
4608000,0.0324,0.013523,0.002678,0.000431,1.775028
4609000,0.0324,0.013523,0.002678,0.000431,1.772913
4610000,0.0324,0.013523,0.002678,0.000431,1.704159
4611000,0.0324,0.013523,0.002678,0.000431,1.776203
4612000,0.0324,0.013523,0.002678,0.000431,1.621771
4613000,0.0324,0.013523,0.002678,0.000431,1.653974
4614000,0.0324,0.013523,0.002678,0.000431,1.763745
4615000,0.0324,0.013523,0.002678,0.000431,1.691701
4616000,0.0324,0.013523,0.002678,0.000431,1.881509
4617000,0.0324,0.013523,0.002678,0.000431,1.798181
4618000,0.0324,0.013523,0.002678,0.000431,1.747174
4619000,0.0324,0.013523,0.002678,0.000431,1.804998
4620000,0.0324,0.013523,0.002678,0.000431,1.800767
4621000,0.0324,0.013523,0.002678,0.000431,1.876220
4622000,0.0324,0.013523,0.002678,0.000431,1.839199
4623000,0.0324,0.013523,0.002678,0.000431,1.732248
4624000,0.0324,0.013523,0.002678,0.000431,1.833675
4625000,0.0324,0.013523,0.002678,0.000431,1.747879
4626000,0.0324,0.013523,0.002678,0.000431,1.767389
4627000,0.0324,0.013523,0.002678,0.000431,1.713561
4628000,0.0324,0.013523,0.002678,0.000431,1.722258
4629000,0.0324,0.013523,0.002678,0.000431,1.683709
4630000,0.0324,0.013523,0.002678,0.000431,1.557366
4631000,0.0324,0.013523,0.002678,0.000431,1.769974
4632000,0.0324,0.013523,0.002678,0.000431,1.708272
4633000,0.0324,0.013523,0.002678,0.000431,1.723198
4634000,0.0324,0.013523,0.002678,0.000431,1.680065
4635000,0.0324,0.013523,0.002678,0.000431,1.551490
4636000,0.0324,0.013523,0.002678,0.000431,1.732600
4637000,0.0324,0.013523,0.002678,0.000431,1.893144
4638000,0.0324,0.013523,0.002678,0.000431,1.911948
4639000,0.0324,0.013523,0.002678,0.000431,1.857415
4640000,0.0324,0.013523,0.002678,0.000431,1.835908
4641000,0.0324,0.013523,0.002678,0.000431,1.608843
4642000,0.0324,0.013523,0.002678,0.000431,1.957197
4643000,0.0324,0.013523,0.002678,0.000431,1.926522
4644000,0.0324,0.013523,0.002678,0.000431,1.956727
4645000,0.0324,0.013523,0.002678,0.000431,2.164046
4646000,0.0324,0.013523,0.002678,0.000431,2.144889
4647000,0.0324,0.013523,0.002678,0.000431,2.115155
4648000,0.0324,0.013523,0.002678,0.000431,2.125967
4649000,0.0324,0.013523,0.002678,0.000431,2.230685
4650000,0.0324,0.013523,0.002678,0.000431,2.192018
4651000,0.0324,0.013523,0.002678,0.000431,2.062267
4652000,0.0324,0.013523,0.002678,0.000431,2.002915
4653000,0.0324,0.013523,0.002678,0.000431,2.003503
4654000,0.0324,0.013523,0.002678,0.000431,1.999624
4655000,0.0324,0.013523,0.002678,0.000431,2.260420
4656000,0.0324,0.013523,0.002678,0.000431,1.927697
4657000,0.0324,0.013523,0.002678,0.000431,2.166044
4658000,0.0324,0.013523,0.002678,0.000431,2.225044
4659000,0.0324,0.013523,0.002678,0.000431,2.083775
4660000,0.0324,0.013523,0.002678,0.000431,2.064030
4661000,0.0324,0.013523,0.002678,0.000431,2.017136
4662000,0.0324,0.013523,0.002678,0.000431,2.142069
4663000,0.0324,0.013523,0.002678,0.000431,1.990340
4664000,0.0324,0.013523,0.002678,0.000431,2.131609
4665000,0.0324,0.013523,0.002678,0.000431,2.231743
4666000,0.0324,0.013523,0.002678,0.000431,2.092354
4667000,0.0324,0.013523,0.002678,0.000431,2.139013
4668000,0.0324,0.013523,0.002678,0.000431,2.088006
4669000,0.0324,0.013523,0.002678,0.000431,2.090239
4670000,0.0324,0.013523,0.002678,0.000431,1.989752
4671000,0.0324,0.013523,0.002678,0.000431,2.058859
4672000,0.0324,0.013523,0.002678,0.000431,2.271702
4673000,0.0324,0.013523,0.002678,0.000431,2.111276
4674000,0.0324,0.013523,0.002678,0.000431,2.094000
4675000,0.0324,0.013523,0.002678,0.000431,2.077663
4676000,0.0324,0.013523,0.002678,0.000431,2.042052
4677000,0.0324,0.013523,0.002678,0.000431,2.064383
4678000,0.0324,0.013523,0.002678,0.000431,2.031005
4679000,0.0324,0.013523,0.002678,0.000431,1.893379
4680000,0.0324,0.013523,0.002678,0.000431,1.826505
4681000,0.0324,0.013523,0.002678,0.000431,1.958255
4682000,0.0324,0.013523,0.002678,0.000431,1.901488
4683000,0.0324,0.013523,0.002678,0.000431,1.977764
4684000,0.0324,0.013523,0.002678,0.000431,1.665022
4685000,0.0324,0.013523,0.002678,0.000431,1.763980
4686000,0.0324,0.013523,0.002678,0.000431,1.761277
4687000,0.0324,0.013523,0.002678,0.000431,1.790072
4688000,0.0324,0.013523,0.002678,0.000431,1.787839
4689000,0.0324,0.013523,0.002678,0.000431,1.797358
4690000,0.0324,0.013523,0.002678,0.000431,1.858708
4691000,0.0324,0.013523,0.002678,0.000431,2.081072
4692000,0.0324,0.013523,0.002678,0.000431,1.946972
4693000,0.0324,0.013523,0.002678,0.000431,1.906542
4694000,0.0324,0.013523,0.002678,0.000431,1.752580
4695000,0.0324,0.013523,0.002678,0.000431,1.771972
4696000,0.0324,0.013523,0.002678,0.000431,1.821099
4697000,0.0324,0.013523,0.002678,0.000431,1.872929
4698000,0.0324,0.013523,0.002678,0.000431,1.777144
4699000,0.0324,0.013523,0.002678,0.000431,1.763158
4700000,0.0324,0.013523,0.002678,0.000431,1.800532
4701000,0.0324,0.013523,0.002678,0.000431,1.906072
4702000,0.0324,0.013523,0.002678,0.000431,1.883154
4703000,0.0324,0.013523,0.002678,0.000431,1.697342
4704000,0.0324,0.013523,0.002678,0.000431,1.883154
4705000,0.0324,0.013523,0.002678,0.000431,1.937335
4706000,0.0324,0.013523,0.002678,0.000431,1.817573
4707000,0.0324,0.013523,0.002678,0.000431,1.901841
4708000,0.0324,0.013523,0.002678,0.000431,1.883272
4709000,0.0324,0.013523,0.002678,0.000431,1.852127
4710000,0.0324,0.013523,0.002678,0.000431,1.838258
4711000,0.0324,0.013523,0.002678,0.000431,1.608256
4712000,0.0324,0.013523,0.002678,0.000431,1.839434
4713000,0.0324,0.013523,0.002678,0.000431,1.735774
4714000,0.0324,0.013523,0.002678,0.000431,1.854830
4715000,0.0324,0.013523,0.002678,0.000431,1.845428
4716000,0.0324,0.013523,0.002678,0.000431,1.787486
4717000,0.0324,0.013523,0.002678,0.000431,1.967069
4718000,0.0324,0.013523,0.002678,0.000431,1.842254
4719000,0.0324,0.013523,0.002678,0.000431,1.996099
4720000,0.0324,0.013523,0.002678,0.000431,1.866818
4721000,0.0324,0.013523,0.002678,0.000431,1.908540
4722000,0.0324,0.013523,0.002678,0.000431,1.924642
4723000,0.0324,0.013523,0.002678,0.000431,1.989400
4724000,0.0324,0.013523,0.002678,0.000431,1.960605
4725000,0.0324,0.013523,0.002678,0.000431,1.684296
4726000,0.0324,0.013523,0.002678,0.000431,2.058976
4727000,0.0324,0.013523,0.002678,0.000431,1.774205
4728000,0.0324,0.013523,0.002678,0.000431,1.775028
4729000,0.0324,0.013523,0.002678,0.000431,1.629058
4730000,0.0324,0.013523,0.002678,0.000431,1.666197
4731000,0.0324,0.013523,0.002678,0.000431,1.926052
4732000,0.0324,0.013523,0.002678,0.000431,1.827328
4733000,0.0324,0.013523,0.002678,0.000431,1.924406
4734000,0.0324,0.013523,0.002678,0.000431,1.872694
4735000,0.0324,0.013523,0.002678,0.000431,1.945679
4736000,0.0324,0.013523,0.002678,0.000431,1.945091
4737000,0.0324,0.013523,0.002678,0.000431,1.819454
4738000,0.0324,0.013523,0.002678,0.000431,1.841079
4739000,0.0324,0.013523,0.002678,0.000431,1.775851
4740000,0.0324,0.013523,0.002678,0.000431,1.922761
4741000,0.0324,0.013523,0.002678,0.000431,2.065440
4742000,0.0324,0.013523,0.002678,0.000431,1.911478
4743000,0.0324,0.013523,0.002678,0.000431,1.982583
4744000,0.0324,0.013523,0.002678,0.000431,1.956022
4745000,0.0324,0.013523,0.002678,0.000431,2.018429
4746000,0.0324,0.013523,0.002678,0.000431,1.949205
4747000,0.0324,0.013523,0.002678,0.000431,2.130198
4748000,0.0324,0.013523,0.002678,0.000431,1.861881
4749000,0.0324,0.013523,0.002678,0.000431,1.868581
4750000,0.0324,0.013523,0.002678,0.000431,1.842137
4751000,0.0324,0.013523,0.002678,0.000431,1.821452
4752000,0.0324,0.013523,0.002678,0.000431,1.674777
4753000,0.0324,0.013523,0.002678,0.000431,2.080249
4754000,0.0324,0.013523,0.002678,0.000431,1.909833
4755000,0.0324,0.013523,0.002678,0.000431,2.036411
4756000,0.0324,0.013523,0.002678,0.000431,1.654797
4757000,0.0324,0.013523,0.002678,0.000431,1.788779
4758000,0.0324,0.013523,0.002678,0.000431,1.927697
4759000,0.0324,0.013523,0.002678,0.000431,1.835320
4760000,0.0324,0.013523,0.002678,0.000431,1.765156
4761000,0.0324,0.013523,0.002678,0.000431,1.768329
4762000,0.0324,0.013523,0.002678,0.000431,1.769034
4763000,0.0324,0.013523,0.002678,0.000431,1.821804
4764000,0.0324,0.013523,0.002678,0.000431,1.618716
4765000,0.0324,0.013523,0.002678,0.000431,1.735891
4766000,0.0324,0.013523,0.002678,0.000431,1.875397
4767000,0.0324,0.013523,0.002678,0.000431,1.835790
4768000,0.0324,0.013523,0.002678,0.000431,1.671603
4769000,0.0324,0.013523,0.002678,0.000431,1.514468
4770000,0.0324,0.013523,0.002678,0.000431,1.796066
4771000,0.0324,0.013523,0.002678,0.000431,1.898785
4772000,0.0324,0.013523,0.002678,0.000431,1.775263
4773000,0.0324,0.013523,0.002678,0.000431,1.887268
4774000,0.0324,0.013523,0.002678,0.000431,1.663964
4775000,0.0324,0.013523,0.002678,0.000431,1.903369
4776000,0.0324,0.013523,0.002678,0.000431,1.966246
4777000,0.0324,0.013523,0.002678,0.000431,1.907600
4778000,0.0324,0.013523,0.002678,0.000431,1.906777
4779000,0.0324,0.013523,0.002678,0.000431,1.912301
4780000,0.0324,0.013523,0.002678,0.000431,1.916179
4781000,0.0324,0.013523,0.002678,0.000431,1.742473
4782000,0.0324,0.013523,0.002678,0.000431,1.746586
4783000,0.0324,0.013523,0.002678,0.000431,1.748232
4784000,0.0324,0.013523,0.002678,0.000431,1.717909
4785000,0.0324,0.013523,0.002678,0.000431,1.873164
4786000,0.0324,0.013523,0.002678,0.000431,1.696049
4787000,0.0324,0.013523,0.002678,0.000431,1.775381
4788000,0.0324,0.013523,0.002678,0.000431,1.864937
4789000,0.0324,0.013523,0.002678,0.000431,1.740945
4790000,0.0324,0.013523,0.002678,0.000431,1.807583
4791000,0.0324,0.013523,0.002678,0.000431,1.734011
4792000,0.0324,0.013523,0.002678,0.000431,1.697812
4793000,0.0324,0.013523,0.002678,0.000431,1.646687
4794000,0.0324,0.013523,0.002678,0.000431,1.654092
4795000,0.0324,0.013523,0.002678,0.000431,1.743766
4796000,0.0324,0.013523,0.002678,0.000431,1.687352
4797000,0.0324,0.013523,0.002678,0.000431,1.855417
4798000,0.0324,0.013523,0.002678,0.000431,1.825683
4799000,0.0324,0.013523,0.002678,0.000431,1.892439
4800000,0.0324,0.013523,0.002678,0.000431,1.846368
4801000,0.0324,0.013523,0.002678,0.000431,2.002915
4802000,0.0324,0.013523,0.002678,0.000431,1.806408
4803000,0.0324,0.013523,0.002678,0.000431,1.926404
4804000,0.0324,0.013523,0.002678,0.000431,1.820394
4805000,0.0324,0.013523,0.002678,0.000431,1.893497
4806000,0.0324,0.013523,0.002678,0.000431,1.831207
4807000,0.0324,0.013523,0.002678,0.000431,1.824508
4808000,0.0324,0.013523,0.002678,0.000431,1.903369
4809000,0.0324,0.013523,0.002678,0.000431,1.855417
4810000,0.0324,0.013523,0.002678,0.000431,1.762453
4811000,0.0324,0.013523,0.002678,0.000431,1.832734
4812000,0.0324,0.013523,0.002678,0.000431,1.683826
4813000,0.0324,0.013523,0.002678,0.000431,1.643044
4814000,0.0324,0.013523,0.002678,0.000431,1.743413
4815000,0.0324,0.013523,0.002678,0.000431,1.834732
4816000,0.0324,0.013523,0.002678,0.000431,1.702161
4817000,0.0324,0.013523,0.002678,0.000431,1.796418
4818000,0.0324,0.013523,0.002678,0.000431,1.810404
4819000,0.0324,0.013523,0.002678,0.000431,1.787839
4820000,0.0324,0.013523,0.002678,0.000431,1.749642
4821000,0.0324,0.013523,0.002678,0.000431,1.655384
4822000,0.0324,0.013523,0.002678,0.000431,1.809346
4823000,0.0324,0.013523,0.002678,0.000431,1.748232
4824000,0.0324,0.013523,0.002678,0.000431,1.696167
4825000,0.0324,0.013523,0.002678,0.000431,1.680300
4826000,0.0324,0.013523,0.002678,0.000431,1.810522
4827000,0.0324,0.013523,0.002678,0.000431,1.825918
4828000,0.0324,0.013523,0.002678,0.000431,1.644572
4829000,0.0324,0.013523,0.002678,0.000431,1.891381
4830000,0.0324,0.013523,0.002678,0.000431,1.740122
4831000,0.0324,0.013523,0.002678,0.000431,1.805468
4832000,0.0324,0.013523,0.002678,0.000431,1.896200
4833000,0.0324,0.013523,0.002678,0.000431,1.846133
4834000,0.0324,0.013523,0.002678,0.000431,1.866583
4835000,0.0324,0.013523,0.002678,0.000431,1.917472
4836000,0.0324,0.013523,0.002678,0.000431,1.910891
4837000,0.0324,0.013523,0.002678,0.000431,1.915592
4838000,0.0324,0.013523,0.002678,0.000431,1.886210
4839000,0.0324,0.013523,0.002678,0.000431,1.962486
4840000,0.0324,0.013523,0.002678,0.000431,2.000800
4841000,0.0324,0.013523,0.002678,0.000431,1.899138
4842000,0.0324,0.013523,0.002678,0.000431,1.883154
4843000,0.0324,0.013523,0.002678,0.000431,1.892204
4844000,0.0324,0.013523,0.002678,0.000431,1.880804
4845000,0.0324,0.013523,0.002678,0.000431,1.777966
4846000,0.0324,0.013523,0.002678,0.000431,1.698517
4847000,0.0324,0.013523,0.002678,0.000431,1.700163
4848000,0.0324,0.013523,0.002678,0.000431,1.931106
4849000,0.0324,0.013523,0.002678,0.000431,1.797241
4850000,0.0324,0.013523,0.002678,0.000431,1.840256
4851000,0.0324,0.013523,0.002678,0.000431,1.797946
4852000,0.0324,0.013523,0.002678,0.000431,1.867523
4853000,0.0324,0.013523,0.002678,0.000431,1.807701
4854000,0.0324,0.013523,0.002678,0.000431,1.720378
4855000,0.0324,0.013523,0.002678,0.000431,1.737302
4856000,0.0324,0.013523,0.002678,0.000431,1.753991
4857000,0.0324,0.013523,0.002678,0.000431,1.559011
4858000,0.0324,0.013523,0.002678,0.000431,1.609078
4859000,0.0324,0.013523,0.002678,0.000431,1.653739
4860000,0.0324,0.013523,0.002678,0.000431,1.792422
4861000,0.0324,0.013523,0.002678,0.000431,1.669958
4862000,0.0324,0.013523,0.002678,0.000431,1.865525
4863000,0.0324,0.013523,0.002678,0.000431,1.826388
4864000,0.0324,0.013523,0.002678,0.000431,1.885857
4865000,0.0324,0.013523,0.002678,0.000431,1.964601
4866000,0.0324,0.013523,0.002678,0.000431,1.799709
4867000,0.0324,0.013523,0.002678,0.000431,1.850011
4868000,0.0324,0.013523,0.002678,0.000431,1.909833
4869000,0.0324,0.013523,0.002678,0.000431,1.926875
4870000,0.0324,0.013523,0.002678,0.000431,1.770680
4871000,0.0324,0.013523,0.002678,0.000431,1.830384
4872000,0.0324,0.013523,0.002678,0.000431,1.764098
4873000,0.0324,0.013523,0.002678,0.000431,1.438192
4874000,0.0324,0.013523,0.002678,0.000431,1.779612
4875000,0.0324,0.013523,0.002678,0.000431,1.724256
4876000,0.0324,0.013523,0.002678,0.000431,1.722023
4877000,0.0324,0.013523,0.002678,0.000431,1.855888
4878000,0.0324,0.013523,0.002678,0.000431,1.894202
4879000,0.0324,0.013523,0.002678,0.000431,1.752345
4880000,0.0324,0.013523,0.002678,0.000431,1.920646
4881000,0.0324,0.013523,0.002678,0.000431,1.960135
4882000,0.0324,0.013523,0.002678,0.000431,1.880686
4883000,0.0324,0.013523,0.002678,0.000431,1.998684
4884000,0.0324,0.013523,0.002678,0.000431,1.796536
4885000,0.0324,0.013523,0.002678,0.000431,1.866935
4886000,0.0324,0.013523,0.002678,0.000431,1.955434
4887000,0.0324,0.013523,0.002678,0.000431,1.808759
4888000,0.0324,0.013523,0.002678,0.000431,1.825330
4889000,0.0324,0.013523,0.002678,0.000431,1.882801
4890000,0.0324,0.013523,0.002678,0.000431,1.945326
4891000,0.0324,0.013523,0.002678,0.000431,1.988577
4892000,0.0324,0.013523,0.002678,0.000431,1.953083
4893000,0.0324,0.013523,0.002678,0.000431,1.941683
4894000,0.0324,0.013523,0.002678,0.000431,1.897963
4895000,0.0324,0.013523,0.002678,0.000431,1.920175
4896000,0.0324,0.013523,0.002678,0.000431,1.895142
4897000,0.0324,0.013523,0.002678,0.000431,1.924171
4898000,0.0324,0.013523,0.002678,0.000431,1.863174
4899000,0.0324,0.013523,0.002678,0.000431,2.015726
4900000,0.0324,0.013523,0.002678,0.000431,2.032415
4901000,0.0324,0.013523,0.002678,0.000431,1.857180
4902000,0.0324,0.013523,0.002678,0.000431,1.717674
4903000,0.0324,0.013523,0.002678,0.000431,1.761042
4904000,0.0324,0.013523,0.002678,0.000431,1.993866
4905000,0.0324,0.013523,0.002678,0.000431,1.898785
4906000,0.0324,0.013523,0.002678,0.000431,1.855417
4907000,0.0324,0.013523,0.002678,0.000431,1.920646
4908000,0.0324,0.013523,0.002678,0.000431,1.895847
4909000,0.0324,0.013523,0.002678,0.000431,1.891851
4910000,0.0324,0.013523,0.002678,0.000431,1.903839
4911000,0.0324,0.013523,0.002678,0.000431,2.062855
4912000,0.0324,0.013523,0.002678,0.000431,1.989517
4913000,0.0324,0.013523,0.002678,0.000431,2.093294
4914000,0.0324,0.013523,0.002678,0.000431,2.069906
4915000,0.0324,0.013523,0.002678,0.000431,1.861294
4916000,0.0324,0.013523,0.002678,0.000431,1.908188
4917000,0.0324,0.013523,0.002678,0.000431,1.825448
4918000,0.0324,0.013523,0.002678,0.000431,1.732953
4919000,0.0324,0.013523,0.002678,0.000431,2.057331
4920000,0.0324,0.013523,0.002678,0.000431,1.849776
4921000,0.0324,0.013523,0.002678,0.000431,2.082012
4922000,0.0324,0.013523,0.002678,0.000431,2.052395
4923000,0.0324,0.013523,0.002678,0.000431,1.987989
4924000,0.0324,0.013523,0.002678,0.000431,2.059211
4925000,0.0324,0.013523,0.002678,0.000431,2.071199
4926000,0.0324,0.013523,0.002678,0.000431,2.025833
4927000,0.0324,0.013523,0.002678,0.000431,2.091532
4928000,0.0324,0.013523,0.002678,0.000431,2.109278
4929000,0.0324,0.013523,0.002678,0.000431,2.139601
4930000,0.0324,0.013523,0.002678,0.000431,2.066028
4931000,0.0324,0.013523,0.002678,0.000431,2.012435
4932000,0.0324,0.013523,0.002678,0.000431,2.021720
4933000,0.0324,0.013523,0.002678,0.000431,2.081424
4934000,0.0324,0.013523,0.002678,0.000431,1.944621
4935000,0.0324,0.013523,0.002678,0.000431,1.922526
4936000,0.0324,0.013523,0.002678,0.000431,2.073080
4937000,0.0324,0.013523,0.002678,0.000431,1.895730
4938000,0.0324,0.013523,0.002678,0.000431,1.856945
4939000,0.0324,0.013523,0.002678,0.000431,1.951555
4940000,0.0324,0.013523,0.002678,0.000431,2.038761
4941000,0.0324,0.013523,0.002678,0.000431,1.942271
4942000,0.0324,0.013523,0.002678,0.000431,2.142421
4943000,0.0324,0.013523,0.002678,0.000431,2.030299
4944000,0.0324,0.013523,0.002678,0.000431,1.996216
4945000,0.0324,0.013523,0.002678,0.000431,2.026656
4946000,0.0324,0.013523,0.002678,0.000431,2.144419
4947000,0.0324,0.013523,0.002678,0.000431,2.029242
4948000,0.0324,0.013523,0.002678,0.000431,1.987872
4949000,0.0324,0.013523,0.002678,0.000431,1.856828
4950000,0.0324,0.013523,0.002678,0.000431,2.076723
4951000,0.0324,0.013523,0.002678,0.000431,1.932163
4952000,0.0324,0.013523,0.002678,0.000431,1.726136
4953000,0.0324,0.013523,0.002678,0.000431,2.111041
4954000,0.0324,0.013523,0.002678,0.000431,1.975649
4955000,0.0324,0.013523,0.002678,0.000431,1.915357
4956000,0.0324,0.013523,0.002678,0.000431,1.716029
4957000,0.0324,0.013523,0.002678,0.000431,1.843782
4958000,0.0324,0.013523,0.002678,0.000431,1.865642
4959000,0.0324,0.013523,0.002678,0.000431,2.072139
4960000,0.0324,0.013523,0.002678,0.000431,1.948852
4961000,0.0324,0.013523,0.002678,0.000431,1.887150
4962000,0.0324,0.013523,0.002678,0.000431,1.933221
4963000,0.0324,0.013523,0.002678,0.000431,1.775851
4964000,0.0324,0.013523,0.002678,0.000431,1.978234
4965000,0.0324,0.013523,0.002678,0.000431,1.811814
4966000,0.0324,0.013523,0.002678,0.000431,1.820276
4967000,0.0324,0.013523,0.002678,0.000431,1.907247
4968000,0.0324,0.013523,0.002678,0.000431,2.006794
4969000,0.0324,0.013523,0.002678,0.000431,1.908070
4970000,0.0324,0.013523,0.002678,0.000431,1.996334
4971000,0.0324,0.013523,0.002678,0.000431,1.956962
4972000,0.0324,0.013523,0.002678,0.000431,2.012553
4973000,0.0324,0.013523,0.002678,0.000431,2.061679
4974000,0.0324,0.013523,0.002678,0.000431,1.867993
4975000,0.0324,0.013523,0.002678,0.000431,1.885622
4976000,0.0324,0.013523,0.002678,0.000431,2.038761
4977000,0.0324,0.013523,0.002678,0.000431,2.062267
4978000,0.0324,0.013523,0.002678,0.000431,2.129258
4979000,0.0324,0.013523,0.002678,0.000431,1.920763
4980000,0.0324,0.013523,0.002678,0.000431,1.943916
4981000,0.0324,0.013523,0.002678,0.000431,1.936982
4982000,0.0324,0.013523,0.002678,0.000431,1.890793
4983000,0.0324,0.013523,0.002678,0.000431,1.770209
4984000,0.0324,0.013523,0.002678,0.000431,1.878688
4985000,0.0324,0.013523,0.002678,0.000431,1.719437
4986000,0.0324,0.013523,0.002678,0.000431,1.997744
4987000,0.0324,0.013523,0.002678,0.000431,1.870226
4988000,0.0324,0.013523,0.002678,0.000431,1.766096
4989000,0.0324,0.013523,0.002678,0.000431,1.598266
4990000,0.0324,0.013523,0.002678,0.000431,1.917942
4991000,0.0324,0.013523,0.002678,0.000431,1.946502
4992000,0.0324,0.013523,0.002678,0.000431,1.933926
4993000,0.0324,0.013523,0.002678,0.000431,1.875397
4994000,0.0324,0.013523,0.002678,0.000431,1.840491
4995000,0.0324,0.013523,0.002678,0.000431,1.713326
4996000,0.0324,0.013523,0.002678,0.000431,1.819924
4997000,0.0324,0.013523,0.002678,0.000431,1.796183
4998000,0.0324,0.013523,0.002678,0.000431,1.867758
4999000,0.0324,0.013523,0.002678,0.000431,1.770797
