Cycle,Area(mm^2),PeakDynamic(W),SubthresholdLeakage(W),GateLeakage(W),RunTimeDynamic(W)
9000000,0.0324,0.013523,0.002678,0.000431,1.546201
9001000,0.0324,0.013523,0.002678,0.000431,1.382602
9002000,0.0324,0.013523,0.002678,0.000431,1.484381
9003000,0.0324,0.013523,0.002678,0.000431,1.468632
9004000,0.0324,0.013523,0.002678,0.000431,1.533625
9005000,0.0324,0.013523,0.002678,0.000431,1.721553
9006000,0.0324,0.013523,0.002678,0.000431,1.488612
9007000,0.0324,0.013523,0.002678,0.000431,1.489435
9008000,0.0324,0.013523,0.002678,0.000431,1.486379
9009000,0.0324,0.013523,0.002678,0.000431,1.486967
9010000,0.0324,0.013523,0.002678,0.000431,1.539737
9011000,0.0324,0.013523,0.002678,0.000431,1.615425
9012000,0.0324,0.013523,0.002678,0.000431,1.539032
9013000,0.0324,0.013523,0.002678,0.000431,1.527984
9014000,0.0324,0.013523,0.002678,0.000431,1.528101
9015000,0.0324,0.013523,0.002678,0.000431,1.586278
9016000,0.0324,0.013523,0.002678,0.000431,1.606610
9017000,0.0324,0.013523,0.002678,0.000431,1.516231
9018000,0.0324,0.013523,0.002678,0.000431,1.723786
9019000,0.0324,0.013523,0.002678,0.000431,1.545143
9020000,0.0324,0.013523,0.002678,0.000431,1.413629
9021000,0.0324,0.013523,0.002678,0.000431,1.570882
9022000,0.0324,0.013523,0.002678,0.000431,1.676422
9023000,0.0324,0.013523,0.002678,0.000431,1.685002
9024000,0.0324,0.013523,0.002678,0.000431,1.623299
9025000,0.0324,0.013523,0.002678,0.000431,1.510590
9026000,0.0324,0.013523,0.002678,0.000431,1.632937
9027000,0.0324,0.013523,0.002678,0.000431,1.522225
9028000,0.0324,0.013523,0.002678,0.000431,1.453354
9029000,0.0324,0.013523,0.002678,0.000431,1.632702
9030000,0.0324,0.013523,0.002678,0.000431,1.577581
9031000,0.0324,0.013523,0.002678,0.000431,1.475566
9032000,0.0324,0.013523,0.002678,0.000431,1.644924
9033000,0.0324,0.013523,0.002678,0.000431,1.532567
9034000,0.0324,0.013523,0.002678,0.000431,1.556543
9035000,0.0324,0.013523,0.002678,0.000431,1.607786
9036000,0.0324,0.013523,0.002678,0.000431,1.461345
9037000,0.0324,0.013523,0.002678,0.000431,1.435019
9038000,0.0324,0.013523,0.002678,0.000431,1.510355
9039000,0.0324,0.013523,0.002678,0.000431,1.420328
9040000,0.0324,0.013523,0.002678,0.000431,1.484734
9041000,0.0324,0.013523,0.002678,0.000431,1.495311
9042000,0.0324,0.013523,0.002678,0.000431,1.549962
9043000,0.0324,0.013523,0.002678,0.000431,1.495664
9044000,0.0324,0.013523,0.002678,0.000431,1.450063
9045000,0.0324,0.013523,0.002678,0.000431,1.512118
9046000,0.0324,0.013523,0.002678,0.000431,1.360859
9047000,0.0324,0.013523,0.002678,0.000431,1.586983
9048000,0.0324,0.013523,0.002678,0.000431,1.414922
9049000,0.0324,0.013523,0.002678,0.000431,1.366853
9050000,0.0324,0.013523,0.002678,0.000431,1.442776
9051000,0.0324,0.013523,0.002678,0.000431,1.441366
9052000,0.0324,0.013523,0.002678,0.000431,1.503656
9053000,0.0324,0.013523,0.002678,0.000431,1.520697
9054000,0.0324,0.013523,0.002678,0.000431,1.350986
9055000,0.0324,0.013523,0.002678,0.000431,1.489787
9056000,0.0324,0.013523,0.002678,0.000431,1.498484
9057000,0.0324,0.013523,0.002678,0.000431,1.481913
9058000,0.0324,0.013523,0.002678,0.000431,1.411396
9059000,0.0324,0.013523,0.002678,0.000431,1.379428
9060000,0.0324,0.013523,0.002678,0.000431,1.226642
9061000,0.0324,0.013523,0.002678,0.000431,1.443129
9062000,0.0324,0.013523,0.002678,0.000431,1.419975
9063000,0.0324,0.013523,0.002678,0.000431,1.234046
9064000,0.0324,0.013523,0.002678,0.000431,1.310439
9065000,0.0324,0.013523,0.002678,0.000431,1.422444
9066000,0.0324,0.013523,0.002678,0.000431,1.228875
9067000,0.0324,0.013523,0.002678,0.000431,1.150601
9068000,0.0324,0.013523,0.002678,0.000431,1.354042
9069000,0.0324,0.013523,0.002678,0.000431,1.440896
9070000,0.0324,0.013523,0.002678,0.000431,1.391299
9071000,0.0324,0.013523,0.002678,0.000431,1.238277
9072000,0.0324,0.013523,0.002678,0.000431,1.304093
9073000,0.0324,0.013523,0.002678,0.000431,1.482265
9074000,0.0324,0.013523,0.002678,0.000431,1.377665
9075000,0.0324,0.013523,0.002678,0.000431,1.408928
9076000,0.0324,0.013523,0.002678,0.000431,1.510942
9077000,0.0324,0.013523,0.002678,0.000431,1.400701
9078000,0.0324,0.013523,0.002678,0.000431,1.402229
9079000,0.0324,0.013523,0.002678,0.000431,1.379546
9080000,0.0324,0.013523,0.002678,0.000431,1.378135
9081000,0.0324,0.013523,0.002678,0.000431,1.430788
9082000,0.0324,0.013523,0.002678,0.000431,1.442776
9083000,0.0324,0.013523,0.002678,0.000431,1.443129
9084000,0.0324,0.013523,0.002678,0.000431,1.432198
9085000,0.0324,0.013523,0.002678,0.000431,1.401289
9086000,0.0324,0.013523,0.002678,0.000431,1.386127
9087000,0.0324,0.013523,0.002678,0.000431,1.421621
9088000,0.0324,0.013523,0.002678,0.000431,1.474391
9089000,0.0324,0.013523,0.002678,0.000431,1.469690
9090000,0.0324,0.013523,0.002678,0.000431,1.469925
9091000,0.0324,0.013523,0.002678,0.000431,1.410338
9092000,0.0324,0.013523,0.002678,0.000431,1.627530
9093000,0.0324,0.013523,0.002678,0.000431,1.445714
9094000,0.0324,0.013523,0.002678,0.000431,1.457585
9095000,0.0324,0.013523,0.002678,0.000431,1.393649
9096000,0.0324,0.013523,0.002678,0.000431,1.525633
9097000,0.0324,0.013523,0.002678,0.000431,1.605082
9098000,0.0324,0.013523,0.002678,0.000431,1.334533
9099000,0.0324,0.013523,0.002678,0.000431,1.407518
9100000,0.0324,0.013523,0.002678,0.000431,1.310792
9101000,0.0324,0.013523,0.002678,0.000431,1.556191
9102000,0.0324,0.013523,0.002678,0.000431,1.430083
9103000,0.0324,0.013523,0.002678,0.000431,1.396235
9104000,0.0324,0.013523,0.002678,0.000431,1.517406
9105000,0.0324,0.013523,0.002678,0.000431,1.463461
9106000,0.0324,0.013523,0.002678,0.000431,1.396117
9107000,0.0324,0.013523,0.002678,0.000431,1.536916
9108000,0.0324,0.013523,0.002678,0.000431,1.459935
9109000,0.0324,0.013523,0.002678,0.000431,1.471688
9110000,0.0324,0.013523,0.002678,0.000431,1.530687
9111000,0.0324,0.013523,0.002678,0.000431,1.447595
9112000,0.0324,0.013523,0.002678,0.000431,1.186212
9113000,0.0324,0.013523,0.002678,0.000431,1.270010
9114000,0.0324,0.013523,0.002678,0.000431,1.421621
9115000,0.0324,0.013523,0.002678,0.000431,1.353102
9116000,0.0324,0.013523,0.002678,0.000431,1.602379
9117000,0.0324,0.013523,0.002678,0.000431,1.416097
9118000,0.0324,0.013523,0.002678,0.000431,1.375902
9119000,0.0324,0.013523,0.002678,0.000431,1.465929
9120000,0.0324,0.013523,0.002678,0.000431,1.448652
9121000,0.0324,0.013523,0.002678,0.000431,1.515996
9122000,0.0324,0.013523,0.002678,0.000431,1.455234
9123000,0.0324,0.013523,0.002678,0.000431,1.448300
9124000,0.0324,0.013523,0.002678,0.000431,1.333945
9125000,0.0324,0.013523,0.002678,0.000431,1.381191
9126000,0.0324,0.013523,0.002678,0.000431,1.581459
9127000,0.0324,0.013523,0.002678,0.000431,1.439720
9128000,0.0324,0.013523,0.002678,0.000431,1.352867
9129000,0.0324,0.013523,0.002678,0.000431,1.404814
9130000,0.0324,0.013523,0.002678,0.000431,1.612839
9131000,0.0324,0.013523,0.002678,0.000431,1.383072
9132000,0.0324,0.013523,0.002678,0.000431,1.427145
9133000,0.0324,0.013523,0.002678,0.000431,1.369438
9134000,0.0324,0.013523,0.002678,0.000431,1.286581
9135000,0.0324,0.013523,0.002678,0.000431,1.437370
9136000,0.0324,0.013523,0.002678,0.000431,1.351574
9137000,0.0324,0.013523,0.002678,0.000431,1.422914
9138000,0.0324,0.013523,0.002678,0.000431,1.336413
9139000,0.0324,0.013523,0.002678,0.000431,1.399055
9140000,0.0324,0.013523,0.002678,0.000431,1.525751
9141000,0.0324,0.013523,0.002678,0.000431,1.351809
9142000,0.0324,0.013523,0.002678,0.000431,1.461580
9143000,0.0324,0.013523,0.002678,0.000431,1.460170
9144000,0.0324,0.013523,0.002678,0.000431,1.214654
9145000,0.0324,0.013523,0.002678,0.000431,1.457232
9146000,0.0324,0.013523,0.002678,0.000431,1.469337
9147000,0.0324,0.013523,0.002678,0.000431,1.345933
9148000,0.0324,0.013523,0.002678,0.000431,1.427145
9149000,0.0324,0.013523,0.002678,0.000431,1.452413
9150000,0.0324,0.013523,0.002678,0.000431,1.477212
9151000,0.0324,0.013523,0.002678,0.000431,1.393532
9152000,0.0324,0.013523,0.002678,0.000431,1.374962
9153000,0.0324,0.013523,0.002678,0.000431,1.512940
9154000,0.0324,0.013523,0.002678,0.000431,1.511883
9155000,0.0324,0.013523,0.002678,0.000431,1.492490
9156000,0.0324,0.013523,0.002678,0.000431,1.624004
9157000,0.0324,0.013523,0.002678,0.000431,1.351104
9158000,0.0324,0.013523,0.002678,0.000431,1.406577
9159000,0.0324,0.013523,0.002678,0.000431,1.453941
9160000,0.0324,0.013523,0.002678,0.000431,1.267424
9161000,0.0324,0.013523,0.002678,0.000431,1.431611
9162000,0.0324,0.013523,0.002678,0.000431,1.480150
9163000,0.0324,0.013523,0.002678,0.000431,1.263075
9164000,0.0324,0.013523,0.002678,0.000431,1.606728
9165000,0.0324,0.013523,0.002678,0.000431,1.477447
9166000,0.0324,0.013523,0.002678,0.000431,1.409163
9167000,0.0324,0.013523,0.002678,0.000431,1.488729
9168000,0.0324,0.013523,0.002678,0.000431,1.611546
9169000,0.0324,0.013523,0.002678,0.000431,1.504126
9170000,0.0324,0.013523,0.002678,0.000431,1.672309
9171000,0.0324,0.013523,0.002678,0.000431,1.547729
9172000,0.0324,0.013523,0.002678,0.000431,1.587336
9173000,0.0324,0.013523,0.002678,0.000431,1.531745
9174000,0.0324,0.013523,0.002678,0.000431,1.477447
9175000,0.0324,0.013523,0.002678,0.000431,1.584750
9176000,0.0324,0.013523,0.002678,0.000431,1.463108
9177000,0.0324,0.013523,0.002678,0.000431,1.578168
9178000,0.0324,0.013523,0.002678,0.000431,1.567826
9179000,0.0324,0.013523,0.002678,0.000431,1.470395
9180000,0.0324,0.013523,0.002678,0.000431,1.638108
9181000,0.0324,0.013523,0.002678,0.000431,1.526339
9182000,0.0324,0.013523,0.002678,0.000431,1.644454
9183000,0.0324,0.013523,0.002678,0.000431,1.524576
9184000,0.0324,0.013523,0.002678,0.000431,1.588746
9185000,0.0324,0.013523,0.002678,0.000431,1.671838
9186000,0.0324,0.013523,0.002678,0.000431,1.636697
9187000,0.0324,0.013523,0.002678,0.000431,1.635287
9188000,0.0324,0.013523,0.002678,0.000431,1.702396
9189000,0.0324,0.013523,0.002678,0.000431,1.649391
9190000,0.0324,0.013523,0.002678,0.000431,1.748584
9191000,0.0324,0.013523,0.002678,0.000431,1.806878
9192000,0.0324,0.013523,0.002678,0.000431,1.721083
9193000,0.0324,0.013523,0.002678,0.000431,1.526103
9194000,0.0324,0.013523,0.002678,0.000431,1.625062
9195000,0.0324,0.013523,0.002678,0.000431,1.573937
9196000,0.0324,0.013523,0.002678,0.000431,1.530922
9197000,0.0324,0.013523,0.002678,0.000431,1.610371
9198000,0.0324,0.013523,0.002678,0.000431,1.564300
9199000,0.0324,0.013523,0.002678,0.000431,1.473333
9200000,0.0324,0.013523,0.002678,0.000431,1.541265
9201000,0.0324,0.013523,0.002678,0.000431,1.627178
9202000,0.0324,0.013523,0.002678,0.000431,1.865172
9203000,0.0324,0.013523,0.002678,0.000431,1.715324
9204000,0.0324,0.013523,0.002678,0.000431,1.794303
9205000,0.0324,0.013523,0.002678,0.000431,1.699458
9206000,0.0324,0.013523,0.002678,0.000431,1.607080
9207000,0.0324,0.013523,0.002678,0.000431,1.786428
9208000,0.0324,0.013523,0.002678,0.000431,1.764921
9209000,0.0324,0.013523,0.002678,0.000431,1.652916
9210000,0.0324,0.013523,0.002678,0.000431,1.777849
9211000,0.0324,0.013523,0.002678,0.000431,1.846603
9212000,0.0324,0.013523,0.002678,0.000431,1.775616
9213000,0.0324,0.013523,0.002678,0.000431,2.021367
9214000,0.0324,0.013523,0.002678,0.000431,1.853419
9215000,0.0324,0.013523,0.002678,0.000431,1.728840
9216000,0.0324,0.013523,0.002678,0.000431,1.838258
9217000,0.0324,0.013523,0.002678,0.000431,1.919118
9218000,0.0324,0.013523,0.002678,0.000431,1.885270
9219000,0.0324,0.013523,0.002678,0.000431,1.796653
9220000,0.0324,0.013523,0.002678,0.000431,2.025598
9221000,0.0324,0.013523,0.002678,0.000431,1.802882
9222000,0.0324,0.013523,0.002678,0.000431,1.767506
9223000,0.0324,0.013523,0.002678,0.000431,1.703453
9224000,0.0324,0.013523,0.002678,0.000431,1.687940
9225000,0.0324,0.013523,0.002678,0.000431,1.892556
9226000,0.0324,0.013523,0.002678,0.000431,1.774793
9227000,0.0324,0.013523,0.002678,0.000431,1.704511
9228000,0.0324,0.013523,0.002678,0.000431,1.782432
9229000,0.0324,0.013523,0.002678,0.000431,1.769974
9230000,0.0324,0.013523,0.002678,0.000431,1.892204
9231000,0.0324,0.013523,0.002678,0.000431,1.953083
9232000,0.0324,0.013523,0.002678,0.000431,1.921821
9233000,0.0324,0.013523,0.002678,0.000431,1.853772
9234000,0.0324,0.013523,0.002678,0.000431,1.809229
9235000,0.0324,0.013523,0.002678,0.000431,1.707567
9236000,0.0324,0.013523,0.002678,0.000431,1.801590
9237000,0.0324,0.013523,0.002678,0.000431,1.954259
9238000,0.0324,0.013523,0.002678,0.000431,1.802412
9239000,0.0324,0.013523,0.002678,0.000431,1.774676
9240000,0.0324,0.013523,0.002678,0.000431,1.776556
9241000,0.0324,0.013523,0.002678,0.000431,1.710505
9242000,0.0324,0.013523,0.002678,0.000431,1.569119
9243000,0.0324,0.013523,0.002678,0.000431,1.373669
9244000,0.0324,0.013523,0.002678,0.000431,1.418800
9245000,0.0324,0.013523,0.002678,0.000431,1.780434
9246000,0.0324,0.013523,0.002678,0.000431,1.591919
9247000,0.0324,0.013523,0.002678,0.000431,1.869991
9248000,0.0324,0.013523,0.002678,0.000431,1.857298
9249000,0.0324,0.013523,0.002678,0.000431,1.765626
9250000,0.0324,0.013523,0.002678,0.000431,1.738947
9251000,0.0324,0.013523,0.002678,0.000431,1.873282
9252000,0.0324,0.013523,0.002678,0.000431,1.782550
9253000,0.0324,0.013523,0.002678,0.000431,1.776791
9254000,0.0324,0.013523,0.002678,0.000431,1.625062
9255000,0.0324,0.013523,0.002678,0.000431,1.767036
9256000,0.0324,0.013523,0.002678,0.000431,1.652211
9257000,0.0324,0.013523,0.002678,0.000431,1.662906
9258000,0.0324,0.013523,0.002678,0.000431,1.595328
9259000,0.0324,0.013523,0.002678,0.000431,1.533625
9260000,0.0324,0.013523,0.002678,0.000431,1.594505
9261000,0.0324,0.013523,0.002678,0.000431,1.684766
9262000,0.0324,0.013523,0.002678,0.000431,1.578639
9263000,0.0324,0.013523,0.002678,0.000431,1.530217
9264000,0.0324,0.013523,0.002678,0.000431,1.383189
9265000,0.0324,0.013523,0.002678,0.000431,1.453471
9266000,0.0324,0.013523,0.002678,0.000431,1.578639
9267000,0.0324,0.013523,0.002678,0.000431,1.684179
9268000,0.0324,0.013523,0.002678,0.000431,1.565828
9269000,0.0324,0.013523,0.002678,0.000431,1.610959
9270000,0.0324,0.013523,0.002678,0.000431,1.658675
9271000,0.0324,0.013523,0.002678,0.000431,1.702396
9272000,0.0324,0.013523,0.002678,0.000431,1.519639
9273000,0.0324,0.013523,0.002678,0.000431,1.550549
9274000,0.0324,0.013523,0.002678,0.000431,1.679830
9275000,0.0324,0.013523,0.002678,0.000431,1.716852
9276000,0.0324,0.013523,0.002678,0.000431,1.672426
9277000,0.0324,0.013523,0.002678,0.000431,1.740827
9278000,0.0324,0.013523,0.002678,0.000431,1.823332
9279000,0.0324,0.013523,0.002678,0.000431,1.795713
9280000,0.0324,0.013523,0.002678,0.000431,1.839904
9281000,0.0324,0.013523,0.002678,0.000431,1.747291
9282000,0.0324,0.013523,0.002678,0.000431,1.704159
9283000,0.0324,0.013523,0.002678,0.000431,1.735069
9284000,0.0324,0.013523,0.002678,0.000431,1.794303
9285000,0.0324,0.013523,0.002678,0.000431,1.795008
9286000,0.0324,0.013523,0.002678,0.000431,1.598501
9287000,0.0324,0.013523,0.002678,0.000431,1.816045
9288000,0.0324,0.013523,0.002678,0.000431,1.814753
9289000,0.0324,0.013523,0.002678,0.000431,1.801002
9290000,0.0324,0.013523,0.002678,0.000431,1.728134
9291000,0.0324,0.013523,0.002678,0.000431,1.716029
9292000,0.0324,0.013523,0.002678,0.000431,1.880451
9293000,0.0324,0.013523,0.002678,0.000431,1.808994
9294000,0.0324,0.013523,0.002678,0.000431,1.961428
9295000,0.0324,0.013523,0.002678,0.000431,1.760690
9296000,0.0324,0.013523,0.002678,0.000431,1.806878
9297000,0.0324,0.013523,0.002678,0.000431,1.807466
9298000,0.0324,0.013523,0.002678,0.000431,1.739652
9299000,0.0324,0.013523,0.002678,0.000431,1.888913
9300000,0.0324,0.013523,0.002678,0.000431,1.680183
9301000,0.0324,0.013523,0.002678,0.000431,1.912536
9302000,0.0324,0.013523,0.002678,0.000431,1.804880
9303000,0.0324,0.013523,0.002678,0.000431,1.883507
9304000,0.0324,0.013523,0.002678,0.000431,1.767036
9305000,0.0324,0.013523,0.002678,0.000431,1.854712
9306000,0.0324,0.013523,0.002678,0.000431,1.784430
9307000,0.0324,0.013523,0.002678,0.000431,1.877513
9308000,0.0324,0.013523,0.002678,0.000431,1.708037
9309000,0.0324,0.013523,0.002678,0.000431,1.762453
9310000,0.0324,0.013523,0.002678,0.000431,1.816633
9311000,0.0324,0.013523,0.002678,0.000431,1.851657
9312000,0.0324,0.013523,0.002678,0.000431,1.853302
9313000,0.0324,0.013523,0.002678,0.000431,1.748467
9314000,0.0324,0.013523,0.002678,0.000431,1.687117
9315000,0.0324,0.013523,0.002678,0.000431,1.869638
9316000,0.0324,0.013523,0.002678,0.000431,1.979057
9317000,0.0324,0.013523,0.002678,0.000431,1.834497
9318000,0.0324,0.013523,0.002678,0.000431,1.976824
9319000,0.0324,0.013523,0.002678,0.000431,1.866465
9320000,0.0324,0.013523,0.002678,0.000431,1.906190
9321000,0.0324,0.013523,0.002678,0.000431,1.940390
9322000,0.0324,0.013523,0.002678,0.000431,1.720613
9323000,0.0324,0.013523,0.002678,0.000431,1.824860
9324000,0.0324,0.013523,0.002678,0.000431,1.738594
9325000,0.0324,0.013523,0.002678,0.000431,1.744353
9326000,0.0324,0.013523,0.002678,0.000431,2.005618
9327000,0.0324,0.013523,0.002678,0.000431,1.883742
9328000,0.0324,0.013523,0.002678,0.000431,1.731073
9329000,0.0324,0.013523,0.002678,0.000431,2.074607
9330000,0.0324,0.013523,0.002678,0.000431,1.881274
9331000,0.0324,0.013523,0.002678,0.000431,1.912419
9332000,0.0324,0.013523,0.002678,0.000431,1.894907
9333000,0.0324,0.013523,0.002678,0.000431,1.856710
9334000,0.0324,0.013523,0.002678,0.000431,1.729427
9335000,0.0324,0.013523,0.002678,0.000431,2.002093
9336000,0.0324,0.013523,0.002678,0.000431,1.902429
9337000,0.0324,0.013523,0.002678,0.000431,1.957197
9338000,0.0324,0.013523,0.002678,0.000431,1.941918
9339000,0.0324,0.013523,0.002678,0.000431,2.069554
9340000,0.0324,0.013523,0.002678,0.000431,1.999507
9341000,0.0324,0.013523,0.002678,0.000431,1.800062
9342000,0.0324,0.013523,0.002678,0.000431,1.937922
9343000,0.0324,0.013523,0.002678,0.000431,1.926875
9344000,0.0324,0.013523,0.002678,0.000431,1.978352
9345000,0.0324,0.013523,0.002678,0.000431,2.029829
9346000,0.0324,0.013523,0.002678,0.000431,2.140306
9347000,0.0324,0.013523,0.002678,0.000431,2.178385
9348000,0.0324,0.013523,0.002678,0.000431,1.912654
9349000,0.0324,0.013523,0.002678,0.000431,2.035941
9350000,0.0324,0.013523,0.002678,0.000431,2.057213
9351000,0.0324,0.013523,0.002678,0.000431,1.943916
9352000,0.0324,0.013523,0.002678,0.000431,1.919235
9353000,0.0324,0.013523,0.002678,0.000431,1.853419
9354000,0.0324,0.013523,0.002678,0.000431,1.935807
9355000,0.0324,0.013523,0.002678,0.000431,2.119268
9356000,0.0324,0.013523,0.002678,0.000431,1.782785
9357000,0.0324,0.013523,0.002678,0.000431,1.973886
9358000,0.0324,0.013523,0.002678,0.000431,1.953553
9359000,0.0324,0.013523,0.002678,0.000431,1.967069
9360000,0.0324,0.013523,0.002678,0.000431,1.991985
9361000,0.0324,0.013523,0.002678,0.000431,1.817573
9362000,0.0324,0.013523,0.002678,0.000431,1.726842
9363000,0.0324,0.013523,0.002678,0.000431,1.796066
9364000,0.0324,0.013523,0.002678,0.000431,1.996921
9365000,0.0324,0.013523,0.002678,0.000431,1.921586
9366000,0.0324,0.013523,0.002678,0.000431,1.767389
9367000,0.0324,0.013523,0.002678,0.000431,1.904897
9368000,0.0324,0.013523,0.002678,0.000431,2.011260
9369000,0.0324,0.013523,0.002678,0.000431,2.022190
9370000,0.0324,0.013523,0.002678,0.000431,2.044990
9371000,0.0324,0.013523,0.002678,0.000431,1.747762
9372000,0.0324,0.013523,0.002678,0.000431,1.954141
9373000,0.0324,0.013523,0.002678,0.000431,1.966834
9374000,0.0324,0.013523,0.002678,0.000431,2.030064
9375000,0.0324,0.013523,0.002678,0.000431,2.035706
9376000,0.0324,0.013523,0.002678,0.000431,1.967187
9377000,0.0324,0.013523,0.002678,0.000431,1.990810
9378000,0.0324,0.013523,0.002678,0.000431,2.092237
9379000,0.0324,0.013523,0.002678,0.000431,2.052630
9380000,0.0324,0.013523,0.002678,0.000431,1.906895
9381000,0.0324,0.013523,0.002678,0.000431,1.829914
9382000,0.0324,0.013523,0.002678,0.000431,1.943328
9383000,0.0324,0.013523,0.002678,0.000431,1.917942
9384000,0.0324,0.013523,0.002678,0.000431,2.066263
9385000,0.0324,0.013523,0.002678,0.000431,1.790542
9386000,0.0324,0.013523,0.002678,0.000431,1.965306
9387000,0.0324,0.013523,0.002678,0.000431,1.979645
9388000,0.0324,0.013523,0.002678,0.000431,2.047223
9389000,0.0324,0.013523,0.002678,0.000431,2.051807
9390000,0.0324,0.013523,0.002678,0.000431,2.105282
9391000,0.0324,0.013523,0.002678,0.000431,1.984933
9392000,0.0324,0.013523,0.002678,0.000431,1.971535
9393000,0.0324,0.013523,0.002678,0.000431,2.048399
9394000,0.0324,0.013523,0.002678,0.000431,1.922879
9395000,0.0324,0.013523,0.002678,0.000431,1.962956
9396000,0.0324,0.013523,0.002678,0.000431,2.101286
9397000,0.0324,0.013523,0.002678,0.000431,2.027714
9398000,0.0324,0.013523,0.002678,0.000431,2.171803
9399000,0.0324,0.013523,0.002678,0.000431,1.994101
9400000,0.0324,0.013523,0.002678,0.000431,1.715441
9401000,0.0324,0.013523,0.002678,0.000431,1.749172
9402000,0.0324,0.013523,0.002678,0.000431,2.058154
9403000,0.0324,0.013523,0.002678,0.000431,1.810169
9404000,0.0324,0.013523,0.002678,0.000431,2.054510
9405000,0.0324,0.013523,0.002678,0.000431,1.959430
9406000,0.0324,0.013523,0.002678,0.000431,1.971888
9407000,0.0324,0.013523,0.002678,0.000431,1.915592
9408000,0.0324,0.013523,0.002678,0.000431,1.880333
9409000,0.0324,0.013523,0.002678,0.000431,2.015373
9410000,0.0324,0.013523,0.002678,0.000431,1.854947
9411000,0.0324,0.013523,0.002678,0.000431,2.081659
9412000,0.0324,0.013523,0.002678,0.000431,2.007499
9413000,0.0324,0.013523,0.002678,0.000431,1.985521
9414000,0.0324,0.013523,0.002678,0.000431,1.905367
9415000,0.0324,0.013523,0.002678,0.000431,1.833087
9416000,0.0324,0.013523,0.002678,0.000431,1.921703
9417000,0.0324,0.013523,0.002678,0.000431,1.800649
9418000,0.0324,0.013523,0.002678,0.000431,1.952848
9419000,0.0324,0.013523,0.002678,0.000431,2.162519
9420000,0.0324,0.013523,0.002678,0.000431,2.095880
9421000,0.0324,0.013523,0.002678,0.000431,1.886797
9422000,0.0324,0.013523,0.002678,0.000431,1.951438
9423000,0.0324,0.013523,0.002678,0.000431,1.816986
9424000,0.0324,0.013523,0.002678,0.000431,2.013963
9425000,0.0324,0.013523,0.002678,0.000431,1.845545
9426000,0.0324,0.013523,0.002678,0.000431,1.985051
9427000,0.0324,0.013523,0.002678,0.000431,1.607668
9428000,0.0324,0.013523,0.002678,0.000431,2.021485
9429000,0.0324,0.013523,0.002678,0.000431,1.932281
9430000,0.0324,0.013523,0.002678,0.000431,1.725549
9431000,0.0324,0.013523,0.002678,0.000431,1.781022
9432000,0.0324,0.013523,0.002678,0.000431,2.038174
9433000,0.0324,0.013523,0.002678,0.000431,1.784901
9434000,0.0324,0.013523,0.002678,0.000431,1.580754
9435000,0.0324,0.013523,0.002678,0.000431,1.810639
9436000,0.0324,0.013523,0.002678,0.000431,1.714736
9437000,0.0324,0.013523,0.002678,0.000431,1.576876
9438000,0.0324,0.013523,0.002678,0.000431,1.634464
9439000,0.0324,0.013523,0.002678,0.000431,1.563477
9440000,0.0324,0.013523,0.002678,0.000431,1.587688
9441000,0.0324,0.013523,0.002678,0.000431,1.723081
9442000,0.0324,0.013523,0.002678,0.000431,1.689350
9443000,0.0324,0.013523,0.002678,0.000431,1.631644
9444000,0.0324,0.013523,0.002678,0.000431,1.662436
9445000,0.0324,0.013523,0.002678,0.000431,1.631056
9446000,0.0324,0.013523,0.002678,0.000431,1.537151
9447000,0.0324,0.013523,0.002678,0.000431,1.626120
9448000,0.0324,0.013523,0.002678,0.000431,1.708625
9449000,0.0324,0.013523,0.002678,0.000431,1.663141
9450000,0.0324,0.013523,0.002678,0.000431,1.827681
9451000,0.0324,0.013523,0.002678,0.000431,1.698282
9452000,0.0324,0.013523,0.002678,0.000431,1.619656
9453000,0.0324,0.013523,0.002678,0.000431,1.659851
9454000,0.0324,0.013523,0.002678,0.000431,2.013845
9455000,0.0324,0.013523,0.002678,0.000431,1.744706
9456000,0.0324,0.013523,0.002678,0.000431,1.988577
9457000,0.0324,0.013523,0.002678,0.000431,1.858826
9458000,0.0324,0.013523,0.002678,0.000431,2.011612
9459000,0.0324,0.013523,0.002678,0.000431,1.924054
9460000,0.0324,0.013523,0.002678,0.000431,1.641751
9461000,0.0324,0.013523,0.002678,0.000431,1.861646
9462000,0.0324,0.013523,0.002678,0.000431,1.682651
9463000,0.0324,0.013523,0.002678,0.000431,1.700398
9464000,0.0324,0.013523,0.002678,0.000431,1.606140
9465000,0.0324,0.013523,0.002678,0.000431,1.868816
9466000,0.0324,0.013523,0.002678,0.000431,1.751523
9467000,0.0324,0.013523,0.002678,0.000431,1.811814
9468000,0.0324,0.013523,0.002678,0.000431,1.981290
9469000,0.0324,0.013523,0.002678,0.000431,1.766214
9470000,0.0324,0.013523,0.002678,0.000431,1.816868
9471000,0.0324,0.013523,0.002678,0.000431,1.664199
9472000,0.0324,0.013523,0.002678,0.000431,1.880804
9473000,0.0324,0.013523,0.002678,0.000431,1.680065
9474000,0.0324,0.013523,0.002678,0.000431,1.594622
9475000,0.0324,0.013523,0.002678,0.000431,1.673366
9476000,0.0324,0.013523,0.002678,0.000431,1.573820
9477000,0.0324,0.013523,0.002678,0.000431,1.707567
9478000,0.0324,0.013523,0.002678,0.000431,1.739535
9479000,0.0324,0.013523,0.002678,0.000431,1.680065
9480000,0.0324,0.013523,0.002678,0.000431,1.739887
9481000,0.0324,0.013523,0.002678,0.000431,1.627178
9482000,0.0324,0.013523,0.002678,0.000431,1.673131
9483000,0.0324,0.013523,0.002678,0.000431,1.460758
9484000,0.0324,0.013523,0.002678,0.000431,1.606493
9485000,0.0324,0.013523,0.002678,0.000431,1.618951
9486000,0.0324,0.013523,0.002678,0.000431,1.712386
9487000,0.0324,0.013523,0.002678,0.000431,1.742003
9488000,0.0324,0.013523,0.002678,0.000431,1.703689
9489000,0.0324,0.013523,0.002678,0.000431,1.688998
9490000,0.0324,0.013523,0.002678,0.000431,1.755401
9491000,0.0324,0.013523,0.002678,0.000431,1.787486
9492000,0.0324,0.013523,0.002678,0.000431,1.881861
9493000,0.0324,0.013523,0.002678,0.000431,1.690878
9494000,0.0324,0.013523,0.002678,0.000431,1.660673
9495000,0.0324,0.013523,0.002678,0.000431,1.658440
9496000,0.0324,0.013523,0.002678,0.000431,1.593212
9497000,0.0324,0.013523,0.002678,0.000431,1.466047
9498000,0.0324,0.013523,0.002678,0.000431,1.666315
9499000,0.0324,0.013523,0.002678,0.000431,1.738242
9500000,0.0324,0.013523,0.002678,0.000431,1.701103
9501000,0.0324,0.013523,0.002678,0.000431,1.802882
9502000,0.0324,0.013523,0.002678,0.000431,1.808876
9503000,0.0324,0.013523,0.002678,0.000431,1.849894
9504000,0.0324,0.013523,0.002678,0.000431,1.863292
9505000,0.0324,0.013523,0.002678,0.000431,1.813930
9506000,0.0324,0.013523,0.002678,0.000431,1.887620
9507000,0.0324,0.013523,0.002678,0.000431,1.940625
9508000,0.0324,0.013523,0.002678,0.000431,1.776321
9509000,0.0324,0.013523,0.002678,0.000431,1.672191
9510000,0.0324,0.013523,0.002678,0.000431,1.913829
9511000,0.0324,0.013523,0.002678,0.000431,1.981173
9512000,0.0324,0.013523,0.002678,0.000431,1.746704
9513000,0.0324,0.013523,0.002678,0.000431,1.832382
9514000,0.0324,0.013523,0.002678,0.000431,1.841079
9515000,0.0324,0.013523,0.002678,0.000431,1.819101
9516000,0.0324,0.013523,0.002678,0.000431,1.762805
9517000,0.0324,0.013523,0.002678,0.000431,1.684414
9518000,0.0324,0.013523,0.002678,0.000431,1.733893
9519000,0.0324,0.013523,0.002678,0.000431,1.802295
9520000,0.0324,0.013523,0.002678,0.000431,1.815575
9521000,0.0324,0.013523,0.002678,0.000431,1.665844
9522000,0.0324,0.013523,0.002678,0.000431,1.637168
9523000,0.0324,0.013523,0.002678,0.000431,1.754343
9524000,0.0324,0.013523,0.002678,0.000431,1.716969
9525000,0.0324,0.013523,0.002678,0.000431,1.728487
9526000,0.0324,0.013523,0.002678,0.000431,1.680888
9527000,0.0324,0.013523,0.002678,0.000431,1.618246
9528000,0.0324,0.013523,0.002678,0.000431,1.722258
9529000,0.0324,0.013523,0.002678,0.000431,1.750817
9530000,0.0324,0.013523,0.002678,0.000431,1.761042
9531000,0.0324,0.013523,0.002678,0.000431,1.848836
9532000,0.0324,0.013523,0.002678,0.000431,1.727782
9533000,0.0324,0.013523,0.002678,0.000431,1.831442
9534000,0.0324,0.013523,0.002678,0.000431,1.713561
9535000,0.0324,0.013523,0.002678,0.000431,1.624475
9536000,0.0324,0.013523,0.002678,0.000431,1.709095
9537000,0.0324,0.013523,0.002678,0.000431,1.809699
9538000,0.0324,0.013523,0.002678,0.000431,1.723316
9539000,0.0324,0.013523,0.002678,0.000431,1.793363
9540000,0.0324,0.013523,0.002678,0.000431,1.679713
9541000,0.0324,0.013523,0.002678,0.000431,1.645865
9542000,0.0324,0.013523,0.002678,0.000431,1.740357
9543000,0.0324,0.013523,0.002678,0.000431,1.693111
9544000,0.0324,0.013523,0.002678,0.000431,1.751170
9545000,0.0324,0.013523,0.002678,0.000431,1.637638
9546000,0.0324,0.013523,0.002678,0.000431,1.897140
9547000,0.0324,0.013523,0.002678,0.000431,1.870696
9548000,0.0324,0.013523,0.002678,0.000431,1.805468
9549000,0.0324,0.013523,0.002678,0.000431,1.818161
9550000,0.0324,0.013523,0.002678,0.000431,1.693464
9551000,0.0324,0.013523,0.002678,0.000431,1.634464
9552000,0.0324,0.013523,0.002678,0.000431,1.803470
9553000,0.0324,0.013523,0.002678,0.000431,1.661026
9554000,0.0324,0.013523,0.002678,0.000431,1.707332
9555000,0.0324,0.013523,0.002678,0.000431,1.749877
9556000,0.0324,0.013523,0.002678,0.000431,1.806291
9557000,0.0324,0.013523,0.002678,0.000431,1.856123
9558000,0.0324,0.013523,0.002678,0.000431,1.818749
9559000,0.0324,0.013523,0.002678,0.000431,1.677950
9560000,0.0324,0.013523,0.002678,0.000431,1.589451
9561000,0.0324,0.013523,0.002678,0.000431,1.742708
9562000,0.0324,0.013523,0.002678,0.000431,2.008792
9563000,0.0324,0.013523,0.002678,0.000431,1.733423
9564000,0.0324,0.013523,0.002678,0.000431,2.015608
9565000,0.0324,0.013523,0.002678,0.000431,1.833792
9566000,0.0324,0.013523,0.002678,0.000431,1.618598
9567000,0.0324,0.013523,0.002678,0.000431,1.964954
9568000,0.0324,0.013523,0.002678,0.000431,1.974238
9569000,0.0324,0.013523,0.002678,0.000431,1.944621
9570000,0.0324,0.013523,0.002678,0.000431,1.819101
9571000,0.0324,0.013523,0.002678,0.000431,1.867875
9572000,0.0324,0.013523,0.002678,0.000431,1.645865
9573000,0.0324,0.013523,0.002678,0.000431,2.069789
9574000,0.0324,0.013523,0.002678,0.000431,1.791717
9575000,0.0324,0.013523,0.002678,0.000431,1.969890
9576000,0.0324,0.013523,0.002678,0.000431,1.969772
9577000,0.0324,0.013523,0.002678,0.000431,2.115977
9578000,0.0324,0.013523,0.002678,0.000431,1.992808
9579000,0.0324,0.013523,0.002678,0.000431,1.966717
9580000,0.0324,0.013523,0.002678,0.000431,1.961780
9581000,0.0324,0.013523,0.002678,0.000431,1.836143
9582000,0.0324,0.013523,0.002678,0.000431,1.912184
9583000,0.0324,0.013523,0.002678,0.000431,2.011612
9584000,0.0324,0.013523,0.002678,0.000431,1.998214
9585000,0.0324,0.013523,0.002678,0.000431,2.006441
9586000,0.0324,0.013523,0.002678,0.000431,2.106693
9587000,0.0324,0.013523,0.002678,0.000431,2.140188
9588000,0.0324,0.013523,0.002678,0.000431,2.155937
9589000,0.0324,0.013523,0.002678,0.000431,1.991162
9590000,0.0324,0.013523,0.002678,0.000431,2.069671
9591000,0.0324,0.013523,0.002678,0.000431,1.976589
9592000,0.0324,0.013523,0.002678,0.000431,2.227042
9593000,0.0324,0.013523,0.002678,0.000431,1.842842
9594000,0.0324,0.013523,0.002678,0.000431,2.021602
9595000,0.0324,0.013523,0.002678,0.000431,2.014080
9596000,0.0324,0.013523,0.002678,0.000431,1.915474
9597000,0.0324,0.013523,0.002678,0.000431,1.991045
9598000,0.0324,0.013523,0.002678,0.000431,1.891381
9599000,0.0324,0.013523,0.002678,0.000431,1.784783
9600000,0.0324,0.013523,0.002678,0.000431,1.786076
9601000,0.0324,0.013523,0.002678,0.000431,1.698635
9602000,0.0324,0.013523,0.002678,0.000431,1.906660
9603000,0.0324,0.013523,0.002678,0.000431,1.897728
9604000,0.0324,0.013523,0.002678,0.000431,1.922173
9605000,0.0324,0.013523,0.002678,0.000431,1.863762
9606000,0.0324,0.013523,0.002678,0.000431,1.890911
9607000,0.0324,0.013523,0.002678,0.000431,1.614602
9608000,0.0324,0.013523,0.002678,0.000431,1.868228
9609000,0.0324,0.013523,0.002678,0.000431,1.881274
9610000,0.0324,0.013523,0.002678,0.000431,1.832617
9611000,0.0324,0.013523,0.002678,0.000431,1.936629
9612000,0.0324,0.013523,0.002678,0.000431,1.861764
9613000,0.0324,0.013523,0.002678,0.000431,1.852832
9614000,0.0324,0.013523,0.002678,0.000431,1.894319
9615000,0.0324,0.013523,0.002678,0.000431,1.664199
9616000,0.0324,0.013523,0.002678,0.000431,1.725549
9617000,0.0324,0.013523,0.002678,0.000431,1.669253
9618000,0.0324,0.013523,0.002678,0.000431,1.761277
9619000,0.0324,0.013523,0.002678,0.000431,1.784783
9620000,0.0324,0.013523,0.002678,0.000431,1.683004
9621000,0.0324,0.013523,0.002678,0.000431,1.674189
9622000,0.0324,0.013523,0.002678,0.000431,1.572645
9623000,0.0324,0.013523,0.002678,0.000431,1.818631
9624000,0.0324,0.013523,0.002678,0.000431,1.714854
9625000,0.0324,0.013523,0.002678,0.000431,1.863879
9626000,0.0324,0.013523,0.002678,0.000431,1.700163
9627000,0.0324,0.013523,0.002678,0.000431,1.564770
9628000,0.0324,0.013523,0.002678,0.000431,1.632819
9629000,0.0324,0.013523,0.002678,0.000431,1.654444
9630000,0.0324,0.013523,0.002678,0.000431,1.820864
9631000,0.0324,0.013523,0.002678,0.000431,1.743413
9632000,0.0324,0.013523,0.002678,0.000431,1.735421
9633000,0.0324,0.013523,0.002678,0.000431,1.845192
9634000,0.0324,0.013523,0.002678,0.000431,1.690408
9635000,0.0324,0.013523,0.002678,0.000431,1.874457
9636000,0.0324,0.013523,0.002678,0.000431,1.958372
9637000,0.0324,0.013523,0.002678,0.000431,1.772443
9638000,0.0324,0.013523,0.002678,0.000431,1.675834
9639000,0.0324,0.013523,0.002678,0.000431,1.716147
9640000,0.0324,0.013523,0.002678,0.000431,1.899608
9641000,0.0324,0.013523,0.002678,0.000431,2.008909
9642000,0.0324,0.013523,0.002678,0.000431,1.849541
9643000,0.0324,0.013523,0.002678,0.000431,1.887385
9644000,0.0324,0.013523,0.002678,0.000431,2.029712
9645000,0.0324,0.013523,0.002678,0.000431,1.729780
9646000,0.0324,0.013523,0.002678,0.000431,1.761630
9647000,0.0324,0.013523,0.002678,0.000431,1.885505
9648000,0.0324,0.013523,0.002678,0.000431,2.127495
9649000,0.0324,0.013523,0.002678,0.000431,1.799827
9650000,0.0324,0.013523,0.002678,0.000431,1.701691
9651000,0.0324,0.013523,0.002678,0.000431,1.961310
9652000,0.0324,0.013523,0.002678,0.000431,1.701691
9653000,0.0324,0.013523,0.002678,0.000431,1.834380
9654000,0.0324,0.013523,0.002678,0.000431,1.971653
9655000,0.0324,0.013523,0.002678,0.000431,1.869873
9656000,0.0324,0.013523,0.002678,0.000431,1.758457
9657000,0.0324,0.013523,0.002678,0.000431,1.787486
9658000,0.0324,0.013523,0.002678,0.000431,1.857768
9659000,0.0324,0.013523,0.002678,0.000431,2.046753
9660000,0.0324,0.013523,0.002678,0.000431,1.862117
9661000,0.0324,0.013523,0.002678,0.000431,1.844487
9662000,0.0324,0.013523,0.002678,0.000431,1.888678
9663000,0.0324,0.013523,0.002678,0.000431,2.268294
9664000,0.0324,0.013523,0.002678,0.000431,2.072022
9665000,0.0324,0.013523,0.002678,0.000431,2.109513
9666000,0.0324,0.013523,0.002678,0.000431,1.919353
9667000,0.0324,0.013523,0.002678,0.000431,1.967774
9668000,0.0324,0.013523,0.002678,0.000431,1.898785
9669000,0.0324,0.013523,0.002678,0.000431,1.800767
9670000,0.0324,0.013523,0.002678,0.000431,1.993160
9671000,0.0324,0.013523,0.002678,0.000431,1.940038
9672000,0.0324,0.013523,0.002678,0.000431,1.884917
9673000,0.0324,0.013523,0.002678,0.000431,2.038644
9674000,0.0324,0.013523,0.002678,0.000431,2.078603
9675000,0.0324,0.013523,0.002678,0.000431,1.994218
9676000,0.0324,0.013523,0.002678,0.000431,2.013258
9677000,0.0324,0.013523,0.002678,0.000431,1.867170
9678000,0.0324,0.013523,0.002678,0.000431,1.894202
9679000,0.0324,0.013523,0.002678,0.000431,2.214936
9680000,0.0324,0.013523,0.002678,0.000431,1.956844
9681000,0.0324,0.013523,0.002678,0.000431,1.868581
9682000,0.0324,0.013523,0.002678,0.000431,1.992220
9683000,0.0324,0.013523,0.002678,0.000431,2.090474
9684000,0.0324,0.013523,0.002678,0.000431,2.075900
9685000,0.0324,0.013523,0.002678,0.000431,2.046753
9686000,0.0324,0.013523,0.002678,0.000431,2.196484
9687000,0.0324,0.013523,0.002678,0.000431,1.794185
9688000,0.0324,0.013523,0.002678,0.000431,1.913829
9689000,0.0324,0.013523,0.002678,0.000431,2.085303
9690000,0.0324,0.013523,0.002678,0.000431,2.059094
9691000,0.0324,0.013523,0.002678,0.000431,1.916179
9692000,0.0324,0.013523,0.002678,0.000431,1.667725
9693000,0.0324,0.013523,0.002678,0.000431,2.093765
9694000,0.0324,0.013523,0.002678,0.000431,1.783608
9695000,0.0324,0.013523,0.002678,0.000431,1.888913
9696000,0.0324,0.013523,0.002678,0.000431,1.757399
9697000,0.0324,0.013523,0.002678,0.000431,1.880686
9698000,0.0324,0.013523,0.002678,0.000431,2.003033
9699000,0.0324,0.013523,0.002678,0.000431,1.833205
9700000,0.0324,0.013523,0.002678,0.000431,1.878218
9701000,0.0324,0.013523,0.002678,0.000431,1.854125
9702000,0.0324,0.013523,0.002678,0.000431,1.772443
9703000,0.0324,0.013523,0.002678,0.000431,1.815223
9704000,0.0324,0.013523,0.002678,0.000431,1.834497
9705000,0.0324,0.013523,0.002678,0.000431,1.706274
9706000,0.0324,0.013523,0.002678,0.000431,1.896905
9707000,0.0324,0.013523,0.002678,0.000431,1.826153
9708000,0.0324,0.013523,0.002678,0.000431,1.917825
9709000,0.0324,0.013523,0.002678,0.000431,1.782785
9710000,0.0324,0.013523,0.002678,0.000431,1.796653
9711000,0.0324,0.013523,0.002678,0.000431,1.726019
9712000,0.0324,0.013523,0.002678,0.000431,1.716029
9713000,0.0324,0.013523,0.002678,0.000431,1.887032
9714000,0.0324,0.013523,0.002678,0.000431,1.917707
9715000,0.0324,0.013523,0.002678,0.000431,1.934749
9716000,0.0324,0.013523,0.002678,0.000431,1.795713
9717000,0.0324,0.013523,0.002678,0.000431,1.980938
9718000,0.0324,0.013523,0.002678,0.000431,1.858943
9719000,0.0324,0.013523,0.002678,0.000431,1.767154
9720000,0.0324,0.013523,0.002678,0.000431,1.767976
9721000,0.0324,0.013523,0.002678,0.000431,1.843077
9722000,0.0324,0.013523,0.002678,0.000431,1.801119
9723000,0.0324,0.013523,0.002678,0.000431,1.900196
9724000,0.0324,0.013523,0.002678,0.000431,1.802295
9725000,0.0324,0.013523,0.002678,0.000431,1.745294
9726000,0.0324,0.013523,0.002678,0.000431,1.778789
9727000,0.0324,0.013523,0.002678,0.000431,1.678185
9728000,0.0324,0.013523,0.002678,0.000431,1.795125
9729000,0.0324,0.013523,0.002678,0.000431,1.658793
9730000,0.0324,0.013523,0.002678,0.000431,1.620831
9731000,0.0324,0.013523,0.002678,0.000431,1.764686
9732000,0.0324,0.013523,0.002678,0.000431,1.683709
9733000,0.0324,0.013523,0.002678,0.000431,1.741650
9734000,0.0324,0.013523,0.002678,0.000431,1.743060
9735000,0.0324,0.013523,0.002678,0.000431,1.725901
9736000,0.0324,0.013523,0.002678,0.000431,1.676422
9737000,0.0324,0.013523,0.002678,0.000431,1.687000
9738000,0.0324,0.013523,0.002678,0.000431,1.863762
9739000,0.0324,0.013523,0.002678,0.000431,1.747409
9740000,0.0324,0.013523,0.002678,0.000431,1.759162
9741000,0.0324,0.013523,0.002678,0.000431,1.603202
9742000,0.0324,0.013523,0.002678,0.000431,1.727194
9743000,0.0324,0.013523,0.002678,0.000431,1.744823
9744000,0.0324,0.013523,0.002678,0.000431,1.787016
9745000,0.0324,0.013523,0.002678,0.000431,1.667960
9746000,0.0324,0.013523,0.002678,0.000431,1.665257
9747000,0.0324,0.013523,0.002678,0.000431,1.645747
9748000,0.0324,0.013523,0.002678,0.000431,1.826623
9749000,0.0324,0.013523,0.002678,0.000431,1.658323
9750000,0.0324,0.013523,0.002678,0.000431,1.706274
9751000,0.0324,0.013523,0.002678,0.000431,1.914652
9752000,0.0324,0.013523,0.002678,0.000431,1.709918
9753000,0.0324,0.013523,0.002678,0.000431,1.781257
9754000,0.0324,0.013523,0.002678,0.000431,1.662201
9755000,0.0324,0.013523,0.002678,0.000431,1.718027
9756000,0.0324,0.013523,0.002678,0.000431,1.636462
9757000,0.0324,0.013523,0.002678,0.000431,1.870108
9758000,0.0324,0.013523,0.002678,0.000431,1.623769
9759000,0.0324,0.013523,0.002678,0.000431,1.749525
9760000,0.0324,0.013523,0.002678,0.000431,1.548904
9761000,0.0324,0.013523,0.002678,0.000431,1.647510
9762000,0.0324,0.013523,0.002678,0.000431,1.707332
9763000,0.0324,0.013523,0.002678,0.000431,1.519052
9764000,0.0324,0.013523,0.002678,0.000431,1.679713
9765000,0.0324,0.013523,0.002678,0.000431,1.649508
9766000,0.0324,0.013523,0.002678,0.000431,1.564770
9767000,0.0324,0.013523,0.002678,0.000431,1.585808
9768000,0.0324,0.013523,0.002678,0.000431,1.591449
9769000,0.0324,0.013523,0.002678,0.000431,1.734128
9770000,0.0324,0.013523,0.002678,0.000431,1.647275
9771000,0.0324,0.013523,0.002678,0.000431,1.755636
9772000,0.0324,0.013523,0.002678,0.000431,1.873634
9773000,0.0324,0.013523,0.002678,0.000431,1.893497
9774000,0.0324,0.013523,0.002678,0.000431,1.848718
9775000,0.0324,0.013523,0.002678,0.000431,1.885622
9776000,0.0324,0.013523,0.002678,0.000431,1.685707
9777000,0.0324,0.013523,0.002678,0.000431,1.868110
9778000,0.0324,0.013523,0.002678,0.000431,1.897493
9779000,0.0324,0.013523,0.002678,0.000431,1.878218
9780000,0.0324,0.013523,0.002678,0.000431,1.859061
9781000,0.0324,0.013523,0.002678,0.000431,1.859766
9782000,0.0324,0.013523,0.002678,0.000431,1.797711
9783000,0.0324,0.013523,0.002678,0.000431,1.661848
9784000,0.0324,0.013523,0.002678,0.000431,1.947207
9785000,0.0324,0.013523,0.002678,0.000431,1.788544
9786000,0.0324,0.013523,0.002678,0.000431,1.599324
9787000,0.0324,0.013523,0.002678,0.000431,1.759749
9788000,0.0324,0.013523,0.002678,0.000431,1.865407
9789000,0.0324,0.013523,0.002678,0.000431,1.729662
9790000,0.0324,0.013523,0.002678,0.000431,1.816751
9791000,0.0324,0.013523,0.002678,0.000431,1.987284
9792000,0.0324,0.013523,0.002678,0.000431,1.956609
9793000,0.0324,0.013523,0.002678,0.000431,1.913946
9794000,0.0324,0.013523,0.002678,0.000431,1.975414
9795000,0.0324,0.013523,0.002678,0.000431,2.101404
9796000,0.0324,0.013523,0.002678,0.000431,1.910656
9797000,0.0324,0.013523,0.002678,0.000431,1.940038
9798000,0.0324,0.013523,0.002678,0.000431,1.792305
9799000,0.0324,0.013523,0.002678,0.000431,1.939450
9800000,0.0324,0.013523,0.002678,0.000431,1.819336
9801000,0.0324,0.013523,0.002678,0.000431,1.758809
9802000,0.0324,0.013523,0.002678,0.000431,1.773148
9803000,0.0324,0.013523,0.002678,0.000431,1.823920
9804000,0.0324,0.013523,0.002678,0.000431,1.730250
9805000,0.0324,0.013523,0.002678,0.000431,1.884917
9806000,0.0324,0.013523,0.002678,0.000431,1.788191
9807000,0.0324,0.013523,0.002678,0.000431,1.851539
9808000,0.0324,0.013523,0.002678,0.000431,1.679243
9809000,0.0324,0.013523,0.002678,0.000431,1.714149
9810000,0.0324,0.013523,0.002678,0.000431,1.684531
9811000,0.0324,0.013523,0.002678,0.000431,1.856828
9812000,0.0324,0.013523,0.002678,0.000431,1.819454
9813000,0.0324,0.013523,0.002678,0.000431,1.725196
9814000,0.0324,0.013523,0.002678,0.000431,1.789132
9815000,0.0324,0.013523,0.002678,0.000431,2.059094
9816000,0.0324,0.013523,0.002678,0.000431,1.745646
9817000,0.0324,0.013523,0.002678,0.000431,1.973651
9818000,0.0324,0.013523,0.002678,0.000431,2.038409
9819000,0.0324,0.013523,0.002678,0.000431,1.974003
9820000,0.0324,0.013523,0.002678,0.000431,1.852714
9821000,0.0324,0.013523,0.002678,0.000431,1.780552
9822000,0.0324,0.013523,0.002678,0.000431,1.933221
9823000,0.0324,0.013523,0.002678,0.000431,1.966364
9824000,0.0324,0.013523,0.002678,0.000431,1.987637
9825000,0.0324,0.013523,0.002678,0.000431,1.985404
9826000,0.0324,0.013523,0.002678,0.000431,1.804763
9827000,0.0324,0.013523,0.002678,0.000431,1.951555
9828000,0.0324,0.013523,0.002678,0.000431,1.948500
9829000,0.0324,0.013523,0.002678,0.000431,2.012905
9830000,0.0324,0.013523,0.002678,0.000431,1.867170
9831000,0.0324,0.013523,0.002678,0.000431,1.989752
9832000,0.0324,0.013523,0.002678,0.000431,1.766214
9833000,0.0324,0.013523,0.002678,0.000431,2.129258
9834000,0.0324,0.013523,0.002678,0.000431,1.944269
9835000,0.0324,0.013523,0.002678,0.000431,1.958137
9836000,0.0324,0.013523,0.002678,0.000431,1.792892
9837000,0.0324,0.013523,0.002678,0.000431,1.740240
9838000,0.0324,0.013523,0.002678,0.000431,1.896200
9839000,0.0324,0.013523,0.002678,0.000431,2.155349
9840000,0.0324,0.013523,0.002678,0.000431,1.938392
9841000,0.0324,0.013523,0.002678,0.000431,1.966246
9842000,0.0324,0.013523,0.002678,0.000431,1.906072
9843000,0.0324,0.013523,0.002678,0.000431,1.948617
9844000,0.0324,0.013523,0.002678,0.000431,1.894554
9845000,0.0324,0.013523,0.002678,0.000431,2.225161
9846000,0.0324,0.013523,0.002678,0.000431,1.896082
9847000,0.0324,0.013523,0.002678,0.000431,1.743531
9848000,0.0324,0.013523,0.002678,0.000431,1.934396
9849000,0.0324,0.013523,0.002678,0.000431,1.864467
9850000,0.0324,0.013523,0.002678,0.000431,1.892086
9851000,0.0324,0.013523,0.002678,0.000431,1.809699
9852000,0.0324,0.013523,0.002678,0.000431,2.061797
9853000,0.0324,0.013523,0.002678,0.000431,1.767036
9854000,0.0324,0.013523,0.002678,0.000431,1.882566
9855000,0.0324,0.013523,0.002678,0.000431,1.818279
9856000,0.0324,0.013523,0.002678,0.000431,1.585690
9857000,0.0324,0.013523,0.002678,0.000431,1.781845
9858000,0.0324,0.013523,0.002678,0.000431,1.674071
9859000,0.0324,0.013523,0.002678,0.000431,1.880921
9860000,0.0324,0.013523,0.002678,0.000431,1.656677
9861000,0.0324,0.013523,0.002678,0.000431,1.700868
9862000,0.0324,0.013523,0.002678,0.000431,1.555485
9863000,0.0324,0.013523,0.002678,0.000431,1.816633
9864000,0.0324,0.013523,0.002678,0.000431,1.782903
9865000,0.0324,0.013523,0.002678,0.000431,1.761630
9866000,0.0324,0.013523,0.002678,0.000431,1.816163
9867000,0.0324,0.013523,0.002678,0.000431,1.861059
9868000,0.0324,0.013523,0.002678,0.000431,1.934984
9869000,0.0324,0.013523,0.002678,0.000431,1.623064
9870000,0.0324,0.013523,0.002678,0.000431,1.782080
9871000,0.0324,0.013523,0.002678,0.000431,1.596033
9872000,0.0324,0.013523,0.002678,0.000431,1.784783
9873000,0.0324,0.013523,0.002678,0.000431,1.714736
9874000,0.0324,0.013523,0.002678,0.000431,1.603437
9875000,0.0324,0.013523,0.002678,0.000431,1.532920
9876000,0.0324,0.013523,0.002678,0.000431,1.544203
9877000,0.0324,0.013523,0.002678,0.000431,1.604377
9878000,0.0324,0.013523,0.002678,0.000431,1.648568
9879000,0.0324,0.013523,0.002678,0.000431,1.671133
9880000,0.0324,0.013523,0.002678,0.000431,1.616365
9881000,0.0324,0.013523,0.002678,0.000431,1.540207
9882000,0.0324,0.013523,0.002678,0.000431,1.618951
9883000,0.0324,0.013523,0.002678,0.000431,1.640928
9884000,0.0324,0.013523,0.002678,0.000431,1.515056
9885000,0.0324,0.013523,0.002678,0.000431,1.715324
9886000,0.0324,0.013523,0.002678,0.000431,1.373669
9887000,0.0324,0.013523,0.002678,0.000431,1.533743
9888000,0.0324,0.013523,0.002678,0.000431,1.593095
9889000,0.0324,0.013523,0.002678,0.000431,1.455939
9890000,0.0324,0.013523,0.002678,0.000431,1.415274
9891000,0.0324,0.013523,0.002678,0.000431,1.437840
9892000,0.0324,0.013523,0.002678,0.000431,1.349694
9893000,0.0324,0.013523,0.002678,0.000431,1.442893
9894000,0.0324,0.013523,0.002678,0.000431,1.656207
9895000,0.0324,0.013523,0.002678,0.000431,1.380721
9896000,0.0324,0.013523,0.002678,0.000431,1.442071
9897000,0.0324,0.013523,0.002678,0.000431,1.392356
9898000,0.0324,0.013523,0.002678,0.000431,1.399173
9899000,0.0324,0.013523,0.002678,0.000431,1.427850
9900000,0.0324,0.013523,0.002678,0.000431,1.307148
9901000,0.0324,0.013523,0.002678,0.000431,1.406225
9902000,0.0324,0.013523,0.002678,0.000431,1.472393
9903000,0.0324,0.013523,0.002678,0.000431,1.332299
9904000,0.0324,0.013523,0.002678,0.000431,1.564183
9905000,0.0324,0.013523,0.002678,0.000431,1.364855
9906000,0.0324,0.013523,0.002678,0.000431,1.374962
9907000,0.0324,0.013523,0.002678,0.000431,1.423501
9908000,0.0324,0.013523,0.002678,0.000431,1.296336
9909000,0.0324,0.013523,0.002678,0.000431,1.241450
9910000,0.0324,0.013523,0.002678,0.000431,1.250617
9911000,0.0324,0.013523,0.002678,0.000431,1.116165
9912000,0.0324,0.013523,0.002678,0.000431,1.041770
9913000,0.0324,0.013523,0.002678,0.000431,1.212421
9914000,0.0324,0.013523,0.002678,0.000431,1.145430
9915000,0.0324,0.013523,0.002678,0.000431,1.133677
9916000,0.0324,0.013523,0.002678,0.000431,1.126508
9917000,0.0324,0.013523,0.002678,0.000431,1.264486
9918000,0.0324,0.013523,0.002678,0.000431,1.093600
9919000,0.0324,0.013523,0.002678,0.000431,1.285053
9920000,0.0324,0.013523,0.002678,0.000431,1.400466
9921000,0.0324,0.013523,0.002678,0.000431,1.301742
9922000,0.0324,0.013523,0.002678,0.000431,1.212891
9923000,0.0324,0.013523,0.002678,0.000431,1.315846
9924000,0.0324,0.013523,0.002678,0.000431,1.264603
9925000,0.0324,0.013523,0.002678,0.000431,1.239922
9926000,0.0324,0.013523,0.002678,0.000431,1.180571
9927000,0.0324,0.013523,0.002678,0.000431,1.315493
9928000,0.0324,0.013523,0.002678,0.000431,1.268129
9929000,0.0324,0.013523,0.002678,0.000431,1.171638
9930000,0.0324,0.013523,0.002678,0.000431,1.135557
9931000,0.0324,0.013523,0.002678,0.000431,1.289167
9932000,0.0324,0.013523,0.002678,0.000431,1.349811
9933000,0.0324,0.013523,0.002678,0.000431,1.304680
9934000,0.0324,0.013523,0.002678,0.000431,1.263663
9935000,0.0324,0.013523,0.002678,0.000431,1.198082
9936000,0.0324,0.013523,0.002678,0.000431,1.309499
9937000,0.0324,0.013523,0.002678,0.000431,1.118163
9938000,0.0324,0.013523,0.002678,0.000431,1.305738
9939000,0.0324,0.013523,0.002678,0.000431,1.217004
9940000,0.0324,0.013523,0.002678,0.000431,1.296336
9941000,0.0324,0.013523,0.002678,0.000431,1.223586
9942000,0.0324,0.013523,0.002678,0.000431,1.266014
9943000,0.0324,0.013523,0.002678,0.000431,1.306091
9944000,0.0324,0.013523,0.002678,0.000431,1.167172
9945000,0.0324,0.013523,0.002678,0.000431,1.316433
9946000,0.0324,0.013523,0.002678,0.000431,1.264838
9947000,0.0324,0.013523,0.002678,0.000431,1.323015
9948000,0.0324,0.013523,0.002678,0.000431,1.260842
9949000,0.0324,0.013523,0.002678,0.000431,1.187975
9950000,0.0324,0.013523,0.002678,0.000431,1.250030
9951000,0.0324,0.013523,0.002678,0.000431,1.199140
9952000,0.0324,0.013523,0.002678,0.000431,1.241920
9953000,0.0324,0.013523,0.002678,0.000431,1.368616
9954000,0.0324,0.013523,0.002678,0.000431,1.309146
9955000,0.0324,0.013523,0.002678,0.000431,1.236984
9956000,0.0324,0.013523,0.002678,0.000431,1.340644
9957000,0.0324,0.013523,0.002678,0.000431,1.157182
9958000,0.0324,0.013523,0.002678,0.000431,1.253673
9959000,0.0324,0.013523,0.002678,0.000431,1.351339
9960000,0.0324,0.013523,0.002678,0.000431,1.291870
9961000,0.0324,0.013523,0.002678,0.000431,1.268012
9962000,0.0324,0.013523,0.002678,0.000431,1.281410
9963000,0.0324,0.013523,0.002678,0.000431,1.253556
9964000,0.0324,0.013523,0.002678,0.000431,1.259197
9965000,0.0324,0.013523,0.002678,0.000431,1.138731
9966000,0.0324,0.013523,0.002678,0.000431,1.298569
9967000,0.0324,0.013523,0.002678,0.000431,1.320664
9968000,0.0324,0.013523,0.002678,0.000431,1.208190
9969000,0.0324,0.013523,0.002678,0.000431,1.344287
9970000,0.0324,0.013523,0.002678,0.000431,1.307854
9971000,0.0324,0.013523,0.002678,0.000431,1.212656
9972000,0.0324,0.013523,0.002678,0.000431,1.239100
9973000,0.0324,0.013523,0.002678,0.000431,1.220648
9974000,0.0324,0.013523,0.002678,0.000431,1.213126
9975000,0.0324,0.013523,0.002678,0.000431,1.263663
9976000,0.0324,0.013523,0.002678,0.000431,1.215359
9977000,0.0324,0.013523,0.002678,0.000431,1.204781
9978000,0.0324,0.013523,0.002678,0.000431,1.221118
9979000,0.0324,0.013523,0.002678,0.000431,1.245681
9980000,0.0324,0.013523,0.002678,0.000431,1.086548
9981000,0.0324,0.013523,0.002678,0.000431,1.206427
9982000,0.0324,0.013523,0.002678,0.000431,1.187152
9983000,0.0324,0.013523,0.002678,0.000431,1.212186
9984000,0.0324,0.013523,0.002678,0.000431,1.197025
9985000,0.0324,0.013523,0.002678,0.000431,1.299862
9986000,0.0324,0.013523,0.002678,0.000431,1.225819
9987000,0.0324,0.013523,0.002678,0.000431,1.221118
9988000,0.0324,0.013523,0.002678,0.000431,1.108526
9989000,0.0324,0.013523,0.002678,0.000431,1.231343
9990000,0.0324,0.013523,0.002678,0.000431,1.292457
9991000,0.0324,0.013523,0.002678,0.000431,1.159533
9992000,0.0324,0.013523,0.002678,0.000431,1.275181
9993000,0.0324,0.013523,0.002678,0.000431,1.406812
9994000,0.0324,0.013523,0.002678,0.000431,1.212656
9995000,0.0324,0.013523,0.002678,0.000431,1.356980
9996000,0.0324,0.013523,0.002678,0.000431,1.203136
9997000,0.0324,0.013523,0.002678,0.000431,1.198082
9998000,0.0324,0.013523,0.002678,0.000431,1.302565
9999000,0.0324,0.013523,0.002678,0.000431,1.149191
