Cycle,Area(mm^2),PeakDynamic(W),SubthresholdLeakage(W),GateLeakage(W),RunTimeDynamic(W)
7000000,0.0324,0.013523,0.002678,0.000431,1.141199
7001000,0.0324,0.013523,0.002678,0.000431,1.180100
7002000,0.0324,0.013523,0.002678,0.000431,1.063160
7003000,0.0324,0.013523,0.002678,0.000431,0.933996
7004000,0.0324,0.013523,0.002678,0.000431,1.111934
7005000,0.0324,0.013523,0.002678,0.000431,1.238747
7006000,0.0324,0.013523,0.002678,0.000431,1.230167
7007000,0.0324,0.013523,0.002678,0.000431,0.810827
7008000,0.0324,0.013523,0.002678,0.000431,1.101474
7009000,0.0324,0.013523,0.002678,0.000431,1.125920
7010000,0.0324,0.013523,0.002678,0.000431,1.120866
7011000,0.0324,0.013523,0.002678,0.000431,0.912724
7012000,0.0324,0.013523,0.002678,0.000431,1.158005
7013000,0.0324,0.013523,0.002678,0.000431,1.074678
7014000,0.0324,0.013523,0.002678,0.000431,1.097713
7015000,0.0324,0.013523,0.002678,0.000431,1.195849
7016000,0.0324,0.013523,0.002678,0.000431,0.939873
7017000,0.0324,0.013523,0.002678,0.000431,1.036716
7018000,0.0324,0.013523,0.002678,0.000431,1.072210
7019000,0.0324,0.013523,0.002678,0.000431,0.997227
7020000,0.0324,0.013523,0.002678,0.000431,0.942341
7021000,0.0324,0.013523,0.002678,0.000431,1.143667
7022000,0.0324,0.013523,0.002678,0.000431,1.117340
7023000,0.0324,0.013523,0.002678,0.000431,0.940225
7024000,0.0324,0.013523,0.002678,0.000431,1.033895
7025000,0.0324,0.013523,0.002678,0.000431,1.207955
7026000,0.0324,0.013523,0.002678,0.000431,1.211716
7027000,0.0324,0.013523,0.002678,0.000431,0.947865
7028000,0.0324,0.013523,0.002678,0.000431,0.988647
7029000,0.0324,0.013523,0.002678,0.000431,0.982771
7030000,0.0324,0.013523,0.002678,0.000431,1.118516
7031000,0.0324,0.013523,0.002678,0.000431,1.045766
7032000,0.0324,0.013523,0.002678,0.000431,1.076676
7033000,0.0324,0.013523,0.002678,0.000431,1.186094
7034000,0.0324,0.013523,0.002678,0.000431,1.188210
7035000,0.0324,0.013523,0.002678,0.000431,1.072562
7036000,0.0324,0.013523,0.002678,0.000431,0.832570
7037000,0.0324,0.013523,0.002678,0.000431,1.191618
7038000,0.0324,0.013523,0.002678,0.000431,1.119809
7039000,0.0324,0.013523,0.002678,0.000431,1.145547
7040000,0.0324,0.013523,0.002678,0.000431,0.993466
7041000,0.0324,0.013523,0.002678,0.000431,1.119221
7042000,0.0324,0.013523,0.002678,0.000431,1.088428
7043000,0.0324,0.013523,0.002678,0.000431,1.140141
7044000,0.0324,0.013523,0.002678,0.000431,1.029429
7045000,0.0324,0.013523,0.002678,0.000431,1.054345
7046000,0.0324,0.013523,0.002678,0.000431,1.171874
7047000,0.0324,0.013523,0.002678,0.000431,1.177515
7048000,0.0324,0.013523,0.002678,0.000431,0.912136
7049000,0.0324,0.013523,0.002678,0.000431,1.047999
7050000,0.0324,0.013523,0.002678,0.000431,1.123687
7051000,0.0324,0.013523,0.002678,0.000431,1.211716
7052000,0.0324,0.013523,0.002678,0.000431,1.031427
7053000,0.0324,0.013523,0.002678,0.000431,1.153304
7054000,0.0324,0.013523,0.002678,0.000431,1.225231
7055000,0.0324,0.013523,0.002678,0.000431,1.252968
7056000,0.0324,0.013523,0.002678,0.000431,1.133324
7057000,0.0324,0.013523,0.002678,0.000431,0.957150
7058000,0.0324,0.013523,0.002678,0.000431,1.066686
7059000,0.0324,0.013523,0.002678,0.000431,1.181863
7060000,0.0324,0.013523,0.002678,0.000431,1.104295
7061000,0.0324,0.013523,0.002678,0.000431,0.890981
7062000,0.0324,0.013523,0.002678,0.000431,1.150836
7063000,0.0324,0.013523,0.002678,0.000431,1.213949
7064000,0.0324,0.013523,0.002678,0.000431,1.090779
7065000,0.0324,0.013523,0.002678,0.000431,0.886045
7066000,0.0324,0.013523,0.002678,0.000431,1.123804
7067000,0.0324,0.013523,0.002678,0.000431,1.115342
7068000,0.0324,0.013523,0.002678,0.000431,1.056108
7069000,0.0324,0.013523,0.002678,0.000431,0.970900
7070000,0.0324,0.013523,0.002678,0.000431,0.945632
7071000,0.0324,0.013523,0.002678,0.000431,1.143549
7072000,0.0324,0.013523,0.002678,0.000431,1.299039
7073000,0.0324,0.013523,0.002678,0.000431,1.144254
7074000,0.0324,0.013523,0.002678,0.000431,1.057636
7075000,0.0324,0.013523,0.002678,0.000431,1.050937
7076000,0.0324,0.013523,0.002678,0.000431,1.138848
7077000,0.0324,0.013523,0.002678,0.000431,1.202313
7078000,0.0324,0.013523,0.002678,0.000431,1.185389
7079000,0.0324,0.013523,0.002678,0.000431,1.145547
7080000,0.0324,0.013523,0.002678,0.000431,1.138025
7081000,0.0324,0.013523,0.002678,0.000431,1.186212
7082000,0.0324,0.013523,0.002678,0.000431,1.210188
7083000,0.0324,0.013523,0.002678,0.000431,1.262135
7084000,0.0324,0.013523,0.002678,0.000431,1.089251
7085000,0.0324,0.013523,0.002678,0.000431,1.023788
7086000,0.0324,0.013523,0.002678,0.000431,1.246386
7087000,0.0324,0.013523,0.002678,0.000431,1.187857
7088000,0.0324,0.013523,0.002678,0.000431,1.312202
7089000,0.0324,0.013523,0.002678,0.000431,1.260607
7090000,0.0324,0.013523,0.002678,0.000431,1.054110
7091000,0.0324,0.013523,0.002678,0.000431,1.187152
7092000,0.0324,0.013523,0.002678,0.000431,1.293868
7093000,0.0324,0.013523,0.002678,0.000431,1.336413
7094000,0.0324,0.013523,0.002678,0.000431,1.154009
7095000,0.0324,0.013523,0.002678,0.000431,1.149778
7096000,0.0324,0.013523,0.002678,0.000431,1.066921
7097000,0.0324,0.013523,0.002678,0.000431,1.249677
7098000,0.0324,0.013523,0.002678,0.000431,1.229227
7099000,0.0324,0.013523,0.002678,0.000431,1.177750
7100000,0.0324,0.013523,0.002678,0.000431,1.247209
7101000,0.0324,0.013523,0.002678,0.000431,1.152246
7102000,0.0324,0.013523,0.002678,0.000431,1.078321
7103000,0.0324,0.013523,0.002678,0.000431,1.164704
7104000,0.0324,0.013523,0.002678,0.000431,1.088781
7105000,0.0324,0.013523,0.002678,0.000431,1.142844
7106000,0.0324,0.013523,0.002678,0.000431,1.263781
7107000,0.0324,0.013523,0.002678,0.000431,1.195379
7108000,0.0324,0.013523,0.002678,0.000431,1.177632
7109000,0.0324,0.013523,0.002678,0.000431,1.160121
7110000,0.0324,0.013523,0.002678,0.000431,1.159063
7111000,0.0324,0.013523,0.002678,0.000431,1.025433
7112000,0.0324,0.013523,0.002678,0.000431,1.195732
7113000,0.0324,0.013523,0.002678,0.000431,1.157653
7114000,0.0324,0.013523,0.002678,0.000431,1.334415
7115000,0.0324,0.013523,0.002678,0.000431,1.262253
7116000,0.0324,0.013523,0.002678,0.000431,1.267777
7117000,0.0324,0.013523,0.002678,0.000431,1.303505
7118000,0.0324,0.013523,0.002678,0.000431,1.150718
7119000,0.0324,0.013523,0.002678,0.000431,1.296101
7120000,0.0324,0.013523,0.002678,0.000431,1.112639
7121000,0.0324,0.013523,0.002678,0.000431,1.308559
7122000,0.0324,0.013523,0.002678,0.000431,1.235691
7123000,0.0324,0.013523,0.002678,0.000431,1.349459
7124000,0.0324,0.013523,0.002678,0.000431,1.252263
7125000,0.0324,0.013523,0.002678,0.000431,1.064923
7126000,0.0324,0.013523,0.002678,0.000431,1.201608
7127000,0.0324,0.013523,0.002678,0.000431,1.120984
7128000,0.0324,0.013523,0.002678,0.000431,1.298099
7129000,0.0324,0.013523,0.002678,0.000431,1.205016
7130000,0.0324,0.013523,0.002678,0.000431,1.348401
7131000,0.0324,0.013523,0.002678,0.000431,1.258139
7132000,0.0324,0.013523,0.002678,0.000431,1.202313
7133000,0.0324,0.013523,0.002678,0.000431,1.178103
7134000,0.0324,0.013523,0.002678,0.000431,1.403051
7135000,0.0324,0.013523,0.002678,0.000431,1.172226
7136000,0.0324,0.013523,0.002678,0.000431,1.184449
7137000,0.0324,0.013523,0.002678,0.000431,1.308794
7138000,0.0324,0.013523,0.002678,0.000431,1.324778
7139000,0.0324,0.013523,0.002678,0.000431,1.111934
7140000,0.0324,0.013523,0.002678,0.000431,1.314435
7141000,0.0324,0.013523,0.002678,0.000431,1.366383
7142000,0.0324,0.013523,0.002678,0.000431,1.451003
7143000,0.0324,0.013523,0.002678,0.000431,1.311027
7144000,0.0324,0.013523,0.002678,0.000431,1.383307
7145000,0.0324,0.013523,0.002678,0.000431,1.305738
7146000,0.0324,0.013523,0.002678,0.000431,1.229697
7147000,0.0324,0.013523,0.002678,0.000431,1.205839
7148000,0.0324,0.013523,0.002678,0.000431,1.471453
7149000,0.0324,0.013523,0.002678,0.000431,1.348166
7150000,0.0324,0.013523,0.002678,0.000431,1.386715
7151000,0.0324,0.013523,0.002678,0.000431,1.289049
7152000,0.0324,0.013523,0.002678,0.000431,1.181393
7153000,0.0324,0.013523,0.002678,0.000431,1.463814
7154000,0.0324,0.013523,0.002678,0.000431,1.437605
7155000,0.0324,0.013523,0.002678,0.000431,1.454529
7156000,0.0324,0.013523,0.002678,0.000431,1.440190
7157000,0.0324,0.013523,0.002678,0.000431,1.333475
7158000,0.0324,0.013523,0.002678,0.000431,1.360976
7159000,0.0324,0.013523,0.002678,0.000431,1.314670
7160000,0.0324,0.013523,0.002678,0.000431,1.468867
7161000,0.0324,0.013523,0.002678,0.000431,1.370379
7162000,0.0324,0.013523,0.002678,0.000431,1.500717
7163000,0.0324,0.013523,0.002678,0.000431,1.423971
7164000,0.0324,0.013523,0.002678,0.000431,1.410338
7165000,0.0324,0.013523,0.002678,0.000431,1.425147
7166000,0.0324,0.013523,0.002678,0.000431,1.293398
7167000,0.0324,0.013523,0.002678,0.000431,1.299627
7168000,0.0324,0.013523,0.002678,0.000431,1.425029
7169000,0.0324,0.013523,0.002678,0.000431,1.382719
7170000,0.0324,0.013523,0.002678,0.000431,1.441953
7171000,0.0324,0.013523,0.002678,0.000431,1.424794
7172000,0.0324,0.013523,0.002678,0.000431,1.345933
7173000,0.0324,0.013523,0.002678,0.000431,1.484851
7174000,0.0324,0.013523,0.002678,0.000431,1.479210
7175000,0.0324,0.013523,0.002678,0.000431,1.364032
7176000,0.0324,0.013523,0.002678,0.000431,1.391064
7177000,0.0324,0.013523,0.002678,0.000431,1.386950
7178000,0.0324,0.013523,0.002678,0.000431,1.345698
7179000,0.0324,0.013523,0.002678,0.000431,1.439955
7180000,0.0324,0.013523,0.002678,0.000431,1.439485
7181000,0.0324,0.013523,0.002678,0.000431,1.381896
7182000,0.0324,0.013523,0.002678,0.000431,1.337001
7183000,0.0324,0.013523,0.002678,0.000431,1.340644
7184000,0.0324,0.013523,0.002678,0.000431,1.521755
7185000,0.0324,0.013523,0.002678,0.000431,1.684414
7186000,0.0324,0.013523,0.002678,0.000431,1.363680
7187000,0.0324,0.013523,0.002678,0.000431,1.423854
7188000,0.0324,0.013523,0.002678,0.000431,1.469102
7189000,0.0324,0.013523,0.002678,0.000431,1.331829
7190000,0.0324,0.013523,0.002678,0.000431,1.553252
7191000,0.0324,0.013523,0.002678,0.000431,1.373082
7192000,0.0324,0.013523,0.002678,0.000431,1.405284
7193000,0.0324,0.013523,0.002678,0.000431,1.555133
7194000,0.0324,0.013523,0.002678,0.000431,1.639988
7195000,0.0324,0.013523,0.002678,0.000431,1.588041
7196000,0.0324,0.013523,0.002678,0.000431,1.538796
7197000,0.0324,0.013523,0.002678,0.000431,1.451356
7198000,0.0324,0.013523,0.002678,0.000431,1.550549
7199000,0.0324,0.013523,0.002678,0.000431,1.499660
7200000,0.0324,0.013523,0.002678,0.000431,1.402229
7201000,0.0324,0.013523,0.002678,0.000431,1.667020
7202000,0.0324,0.013523,0.002678,0.000431,1.411278
7203000,0.0324,0.013523,0.002678,0.000431,1.471453
7204000,0.0324,0.013523,0.002678,0.000431,1.523988
7205000,0.0324,0.013523,0.002678,0.000431,1.676304
7206000,0.0324,0.013523,0.002678,0.000431,1.577698
7207000,0.0324,0.013523,0.002678,0.000431,1.793010
7208000,0.0324,0.013523,0.002678,0.000431,1.722376
7209000,0.0324,0.013523,0.002678,0.000431,1.674894
7210000,0.0324,0.013523,0.002678,0.000431,1.807466
7211000,0.0324,0.013523,0.002678,0.000431,1.621889
7212000,0.0324,0.013523,0.002678,0.000431,1.710858
7213000,0.0324,0.013523,0.002678,0.000431,1.622006
7214000,0.0324,0.013523,0.002678,0.000431,1.689115
7215000,0.0324,0.013523,0.002678,0.000431,1.689468
7216000,0.0324,0.013523,0.002678,0.000431,1.747174
7217000,0.0324,0.013523,0.002678,0.000431,1.559011
7218000,0.0324,0.013523,0.002678,0.000431,1.825565
7219000,0.0324,0.013523,0.002678,0.000431,1.890441
7220000,0.0324,0.013523,0.002678,0.000431,1.731190
7221000,0.0324,0.013523,0.002678,0.000431,1.823332
7222000,0.0324,0.013523,0.002678,0.000431,2.148298
7223000,0.0324,0.013523,0.002678,0.000431,1.958842
7224000,0.0324,0.013523,0.002678,0.000431,1.842019
7225000,0.0324,0.013523,0.002678,0.000431,2.110806
7226000,0.0324,0.013523,0.002678,0.000431,2.045813
7227000,0.0324,0.013523,0.002678,0.000431,1.738359
7228000,0.0324,0.013523,0.002678,0.000431,1.734128
7229000,0.0324,0.013523,0.002678,0.000431,1.901488
7230000,0.0324,0.013523,0.002678,0.000431,2.232565
7231000,0.0324,0.013523,0.002678,0.000431,1.921703
7232000,0.0324,0.013523,0.002678,0.000431,1.928755
7233000,0.0324,0.013523,0.002678,0.000431,1.840021
7234000,0.0324,0.013523,0.002678,0.000431,1.907012
7235000,0.0324,0.013523,0.002678,0.000431,1.834850
7236000,0.0324,0.013523,0.002678,0.000431,1.938980
7237000,0.0324,0.013523,0.002678,0.000431,1.881861
7238000,0.0324,0.013523,0.002678,0.000431,1.835085
7239000,0.0324,0.013523,0.002678,0.000431,1.982935
7240000,0.0324,0.013523,0.002678,0.000431,1.879628
7241000,0.0324,0.013523,0.002678,0.000431,1.913946
7242000,0.0324,0.013523,0.002678,0.000431,1.811579
7243000,0.0324,0.013523,0.002678,0.000431,1.912419
7244000,0.0324,0.013523,0.002678,0.000431,1.885035
7245000,0.0324,0.013523,0.002678,0.000431,1.914652
7246000,0.0324,0.013523,0.002678,0.000431,2.084245
7247000,0.0324,0.013523,0.002678,0.000431,2.127730
7248000,0.0324,0.013523,0.002678,0.000431,2.168865
7249000,0.0324,0.013523,0.002678,0.000431,2.039819
7250000,0.0324,0.013523,0.002678,0.000431,2.100934
7251000,0.0324,0.013523,0.002678,0.000431,1.951673
7252000,0.0324,0.013523,0.002678,0.000431,1.920998
7253000,0.0324,0.013523,0.002678,0.000431,1.918883
7254000,0.0324,0.013523,0.002678,0.000431,1.999624
7255000,0.0324,0.013523,0.002678,0.000431,1.910538
7256000,0.0324,0.013523,0.002678,0.000431,2.026421
7257000,0.0324,0.013523,0.002678,0.000431,2.029477
7258000,0.0324,0.013523,0.002678,0.000431,2.084832
7259000,0.0324,0.013523,0.002678,0.000431,2.103049
7260000,0.0324,0.013523,0.002678,0.000431,2.101404
7261000,0.0324,0.013523,0.002678,0.000431,1.997391
7262000,0.0324,0.013523,0.002678,0.000431,2.003856
7263000,0.0324,0.013523,0.002678,0.000431,2.010437
7264000,0.0324,0.013523,0.002678,0.000431,2.099994
7265000,0.0324,0.013523,0.002678,0.000431,1.947089
7266000,0.0324,0.013523,0.002678,0.000431,1.955904
7267000,0.0324,0.013523,0.002678,0.000431,2.115507
7268000,0.0324,0.013523,0.002678,0.000431,2.103402
7269000,0.0324,0.013523,0.002678,0.000431,2.053452
7270000,0.0324,0.013523,0.002678,0.000431,2.062620
7271000,0.0324,0.013523,0.002678,0.000431,2.089769
7272000,0.0324,0.013523,0.002678,0.000431,2.030534
7273000,0.0324,0.013523,0.002678,0.000431,2.055685
7274000,0.0324,0.013523,0.002678,0.000431,2.041229
7275000,0.0324,0.013523,0.002678,0.000431,2.116330
7276000,0.0324,0.013523,0.002678,0.000431,2.050514
7277000,0.0324,0.013523,0.002678,0.000431,1.989517
7278000,0.0324,0.013523,0.002678,0.000431,1.948382
7279000,0.0324,0.013523,0.002678,0.000431,2.039819
7280000,0.0324,0.013523,0.002678,0.000431,1.962721
7281000,0.0324,0.013523,0.002678,0.000431,1.926992
7282000,0.0324,0.013523,0.002678,0.000431,1.974238
7283000,0.0324,0.013523,0.002678,0.000431,1.924289
7284000,0.0324,0.013523,0.002678,0.000431,1.962368
7285000,0.0324,0.013523,0.002678,0.000431,1.887150
7286000,0.0324,0.013523,0.002678,0.000431,1.808759
7287000,0.0324,0.013523,0.002678,0.000431,1.940625
7288000,0.0324,0.013523,0.002678,0.000431,1.847190
7289000,0.0324,0.013523,0.002678,0.000431,1.877865
7290000,0.0324,0.013523,0.002678,0.000431,1.877395
7291000,0.0324,0.013523,0.002678,0.000431,1.864702
7292000,0.0324,0.013523,0.002678,0.000431,1.812167
7293000,0.0324,0.013523,0.002678,0.000431,1.774205
7294000,0.0324,0.013523,0.002678,0.000431,1.803940
7295000,0.0324,0.013523,0.002678,0.000431,1.823685
7296000,0.0324,0.013523,0.002678,0.000431,1.696049
7297000,0.0324,0.013523,0.002678,0.000431,1.706744
7298000,0.0324,0.013523,0.002678,0.000431,1.737419
7299000,0.0324,0.013523,0.002678,0.000431,1.709447
7300000,0.0324,0.013523,0.002678,0.000431,1.762335
7301000,0.0324,0.013523,0.002678,0.000431,1.669488
7302000,0.0324,0.013523,0.002678,0.000431,1.587336
7303000,0.0324,0.013523,0.002678,0.000431,1.643044
7304000,0.0324,0.013523,0.002678,0.000431,1.695344
7305000,0.0324,0.013523,0.002678,0.000431,1.761042
7306000,0.0324,0.013523,0.002678,0.000431,1.723198
7307000,0.0324,0.013523,0.002678,0.000431,1.738712
7308000,0.0324,0.013523,0.002678,0.000431,1.729192
7309000,0.0324,0.013523,0.002678,0.000431,1.871519
7310000,0.0324,0.013523,0.002678,0.000431,1.848953
7311000,0.0324,0.013523,0.002678,0.000431,1.873752
7312000,0.0324,0.013523,0.002678,0.000431,1.861999
7313000,0.0324,0.013523,0.002678,0.000431,1.855535
7314000,0.0324,0.013523,0.002678,0.000431,1.877160
7315000,0.0324,0.013523,0.002678,0.000431,1.910303
7316000,0.0324,0.013523,0.002678,0.000431,1.865172
7317000,0.0324,0.013523,0.002678,0.000431,1.947795
7318000,0.0324,0.013523,0.002678,0.000431,1.975179
7319000,0.0324,0.013523,0.002678,0.000431,1.928873
7320000,0.0324,0.013523,0.002678,0.000431,1.924406
7321000,0.0324,0.013523,0.002678,0.000431,1.938275
7322000,0.0324,0.013523,0.002678,0.000431,1.998684
7323000,0.0324,0.013523,0.002678,0.000431,2.027596
7324000,0.0324,0.013523,0.002678,0.000431,2.108338
7325000,0.0324,0.013523,0.002678,0.000431,1.969772
7326000,0.0324,0.013523,0.002678,0.000431,2.051454
7327000,0.0324,0.013523,0.002678,0.000431,1.995276
7328000,0.0324,0.013523,0.002678,0.000431,1.968950
7329000,0.0324,0.013523,0.002678,0.000431,1.989517
7330000,0.0324,0.013523,0.002678,0.000431,1.974591
7331000,0.0324,0.013523,0.002678,0.000431,1.989987
7332000,0.0324,0.013523,0.002678,0.000431,2.080601
7333000,0.0324,0.013523,0.002678,0.000431,2.104225
7334000,0.0324,0.013523,0.002678,0.000431,2.065088
7335000,0.0324,0.013523,0.002678,0.000431,1.997039
7336000,0.0324,0.013523,0.002678,0.000431,1.920646
7337000,0.0324,0.013523,0.002678,0.000431,2.014198
7338000,0.0324,0.013523,0.002678,0.000431,2.036646
7339000,0.0324,0.013523,0.002678,0.000431,2.131139
7340000,0.0324,0.013523,0.002678,0.000431,2.117858
7341000,0.0324,0.013523,0.002678,0.000431,2.218109
7342000,0.0324,0.013523,0.002678,0.000431,2.119621
7343000,0.0324,0.013523,0.002678,0.000431,2.033590
7344000,0.0324,0.013523,0.002678,0.000431,2.116565
7345000,0.0324,0.013523,0.002678,0.000431,2.088828
7346000,0.0324,0.013523,0.002678,0.000431,2.096350
7347000,0.0324,0.013523,0.002678,0.000431,2.018664
7348000,0.0324,0.013523,0.002678,0.000431,1.969772
7349000,0.0324,0.013523,0.002678,0.000431,2.086008
7350000,0.0324,0.013523,0.002678,0.000431,2.098701
7351000,0.0324,0.013523,0.002678,0.000431,2.095527
7352000,0.0324,0.013523,0.002678,0.000431,2.152646
7353000,0.0324,0.013523,0.002678,0.000431,2.021367
7354000,0.0324,0.013523,0.002678,0.000431,2.106575
7355000,0.0324,0.013523,0.002678,0.000431,1.984816
7356000,0.0324,0.013523,0.002678,0.000431,2.023835
7357000,0.0324,0.013523,0.002678,0.000431,1.922526
7358000,0.0324,0.013523,0.002678,0.000431,2.084480
7359000,0.0324,0.013523,0.002678,0.000431,2.015373
7360000,0.0324,0.013523,0.002678,0.000431,1.879746
7361000,0.0324,0.013523,0.002678,0.000431,1.898903
7362000,0.0324,0.013523,0.002678,0.000431,1.995158
7363000,0.0324,0.013523,0.002678,0.000431,1.922644
7364000,0.0324,0.013523,0.002678,0.000431,1.901371
7365000,0.0324,0.013523,0.002678,0.000431,1.875985
7366000,0.0324,0.013523,0.002678,0.000431,1.729192
7367000,0.0324,0.013523,0.002678,0.000431,1.773030
7368000,0.0324,0.013523,0.002678,0.000431,1.762688
7369000,0.0324,0.013523,0.002678,0.000431,1.750935
7370000,0.0324,0.013523,0.002678,0.000431,1.737419
7371000,0.0324,0.013523,0.002678,0.000431,1.612722
7372000,0.0324,0.013523,0.002678,0.000431,1.639518
7373000,0.0324,0.013523,0.002678,0.000431,1.606493
7374000,0.0324,0.013523,0.002678,0.000431,1.677245
7375000,0.0324,0.013523,0.002678,0.000431,1.757281
7376000,0.0324,0.013523,0.002678,0.000431,1.571704
7377000,0.0324,0.013523,0.002678,0.000431,1.653269
7378000,0.0324,0.013523,0.002678,0.000431,1.658793
7379000,0.0324,0.013523,0.002678,0.000431,1.651153
7380000,0.0324,0.013523,0.002678,0.000431,1.620714
7381000,0.0324,0.013523,0.002678,0.000431,1.726724
7382000,0.0324,0.013523,0.002678,0.000431,1.637168
7383000,0.0324,0.013523,0.002678,0.000431,1.745294
7384000,0.0324,0.013523,0.002678,0.000431,1.743178
7385000,0.0324,0.013523,0.002678,0.000431,1.735186
7386000,0.0324,0.013523,0.002678,0.000431,1.717674
7387000,0.0324,0.013523,0.002678,0.000431,1.709212
7388000,0.0324,0.013523,0.002678,0.000431,1.618128
7389000,0.0324,0.013523,0.002678,0.000431,1.687470
7390000,0.0324,0.013523,0.002678,0.000431,1.654914
7391000,0.0324,0.013523,0.002678,0.000431,1.610606
7392000,0.0324,0.013523,0.002678,0.000431,1.582399
7393000,0.0324,0.013523,0.002678,0.000431,1.647863
7394000,0.0324,0.013523,0.002678,0.000431,1.590744
7395000,0.0324,0.013523,0.002678,0.000431,1.592859
7396000,0.0324,0.013523,0.002678,0.000431,1.537739
7397000,0.0324,0.013523,0.002678,0.000431,1.603319
7398000,0.0324,0.013523,0.002678,0.000431,1.636697
7399000,0.0324,0.013523,0.002678,0.000431,1.651859
7400000,0.0324,0.013523,0.002678,0.000431,1.757987
7401000,0.0324,0.013523,0.002678,0.000431,1.768212
7402000,0.0324,0.013523,0.002678,0.000431,1.756106
7403000,0.0324,0.013523,0.002678,0.000431,1.739417
7404000,0.0324,0.013523,0.002678,0.000431,1.656325
7405000,0.0324,0.013523,0.002678,0.000431,1.676540
7406000,0.0324,0.013523,0.002678,0.000431,1.745764
7407000,0.0324,0.013523,0.002678,0.000431,1.799356
7408000,0.0324,0.013523,0.002678,0.000431,1.764803
7409000,0.0324,0.013523,0.002678,0.000431,1.761747
7410000,0.0324,0.013523,0.002678,0.000431,1.903604
7411000,0.0324,0.013523,0.002678,0.000431,2.001152
7412000,0.0324,0.013523,0.002678,0.000431,2.060034
7413000,0.0324,0.013523,0.002678,0.000431,2.040172
7414000,0.0324,0.013523,0.002678,0.000431,2.133372
7415000,0.0324,0.013523,0.002678,0.000431,2.310957
7416000,0.0324,0.013523,0.002678,0.000431,2.276521
7417000,0.0324,0.013523,0.002678,0.000431,2.355265
7418000,0.0324,0.013523,0.002678,0.000431,2.397810
7419000,0.0324,0.013523,0.002678,0.000431,2.461158
7420000,0.0324,0.013523,0.002678,0.000431,2.411796
7421000,0.0324,0.013523,0.002678,0.000431,2.469737
7422000,0.0324,0.013523,0.002678,0.000431,2.413794
7423000,0.0324,0.013523,0.002678,0.000431,2.370778
7424000,0.0324,0.013523,0.002678,0.000431,2.389818
7425000,0.0324,0.013523,0.002678,0.000431,2.379358
7426000,0.0324,0.013523,0.002678,0.000431,2.371249
7427000,0.0324,0.013523,0.002678,0.000431,2.449170
7428000,0.0324,0.013523,0.002678,0.000431,2.391111
7429000,0.0324,0.013523,0.002678,0.000431,2.412501
7430000,0.0324,0.013523,0.002678,0.000431,2.511460
7431000,0.0324,0.013523,0.002678,0.000431,2.511577
7432000,0.0324,0.013523,0.002678,0.000431,2.626755
7433000,0.0324,0.013523,0.002678,0.000431,2.661543
7434000,0.0324,0.013523,0.002678,0.000431,2.646147
7435000,0.0324,0.013523,0.002678,0.000431,2.639448
7436000,0.0324,0.013523,0.002678,0.000431,2.813037
7437000,0.0324,0.013523,0.002678,0.000431,2.918342
7438000,0.0324,0.013523,0.002678,0.000431,2.865220
7439000,0.0324,0.013523,0.002678,0.000431,2.801167
7440000,0.0324,0.013523,0.002678,0.000431,2.917520
7441000,0.0324,0.013523,0.002678,0.000431,3.047153
7442000,0.0324,0.013523,0.002678,0.000431,3.063137
7443000,0.0324,0.013523,0.002678,0.000431,3.077240
7444000,0.0324,0.013523,0.002678,0.000431,3.177374
7445000,0.0324,0.013523,0.002678,0.000431,3.201820
7446000,0.0324,0.013523,0.002678,0.000431,3.196649
7447000,0.0324,0.013523,0.002678,0.000431,3.343677
7448000,0.0324,0.013523,0.002678,0.000431,3.293962
7449000,0.0324,0.013523,0.002678,0.000431,3.321581
7450000,0.0324,0.013523,0.002678,0.000431,3.231907
7451000,0.0324,0.013523,0.002678,0.000431,3.144467
7452000,0.0324,0.013523,0.002678,0.000431,3.329103
7453000,0.0324,0.013523,0.002678,0.000431,3.391393
7454000,0.0324,0.013523,0.002678,0.000431,3.415016
7455000,0.0324,0.013523,0.002678,0.000431,3.256001
7456000,0.0324,0.013523,0.002678,0.000431,3.316293
7457000,0.0324,0.013523,0.002678,0.000431,3.334745
7458000,0.0324,0.013523,0.002678,0.000431,3.448277
7459000,0.0324,0.013523,0.002678,0.000431,3.470490
7460000,0.0324,0.013523,0.002678,0.000431,3.419247
7461000,0.0324,0.013523,0.002678,0.000431,3.377407
7462000,0.0324,0.013523,0.002678,0.000431,3.471783
7463000,0.0324,0.013523,0.002678,0.000431,3.517736
7464000,0.0324,0.013523,0.002678,0.000431,3.445691
7465000,0.0324,0.013523,0.002678,0.000431,3.495758
7466000,0.0324,0.013523,0.002678,0.000431,3.479774
7467000,0.0324,0.013523,0.002678,0.000431,3.490940
7468000,0.0324,0.013523,0.002678,0.000431,3.449452
7469000,0.0324,0.013523,0.002678,0.000431,3.512330
7470000,0.0324,0.013523,0.002678,0.000431,3.518441
7471000,0.0324,0.013523,0.002678,0.000431,3.561809
7472000,0.0324,0.013523,0.002678,0.000431,3.540301
7473000,0.0324,0.013523,0.002678,0.000431,3.488472
7474000,0.0324,0.013523,0.002678,0.000431,3.427357
7475000,0.0324,0.013523,0.002678,0.000431,3.454623
7476000,0.0324,0.013523,0.002678,0.000431,3.491527
7477000,0.0324,0.013523,0.002678,0.000431,3.294080
7478000,0.0324,0.013523,0.002678,0.000431,3.286793
7479000,0.0324,0.013523,0.002678,0.000431,3.286558
7480000,0.0324,0.013523,0.002678,0.000431,3.469432
7481000,0.0324,0.013523,0.002678,0.000431,3.374939
7482000,0.0324,0.013523,0.002678,0.000431,3.431940
7483000,0.0324,0.013523,0.002678,0.000431,3.466964
7484000,0.0324,0.013523,0.002678,0.000431,3.447689
7485000,0.0324,0.013523,0.002678,0.000431,3.292905
7486000,0.0324,0.013523,0.002678,0.000431,3.347320
7487000,0.0324,0.013523,0.002678,0.000431,3.365537
7488000,0.0324,0.013523,0.002678,0.000431,3.311357
7489000,0.0324,0.013523,0.002678,0.000431,3.315470
7490000,0.0324,0.013523,0.002678,0.000431,3.263993
7491000,0.0324,0.013523,0.002678,0.000431,3.300191
7492000,0.0324,0.013523,0.002678,0.000431,3.291377
7493000,0.0324,0.013523,0.002678,0.000431,3.347203
7494000,0.0324,0.013523,0.002678,0.000431,3.394684
7495000,0.0324,0.013523,0.002678,0.000431,3.445574
7496000,0.0324,0.013523,0.002678,0.000431,3.421128
7497000,0.0324,0.013523,0.002678,0.000431,3.468962
7498000,0.0324,0.013523,0.002678,0.000431,3.480715
7499000,0.0324,0.013523,0.002678,0.000431,3.420070
7500000,0.0324,0.013523,0.002678,0.000431,3.451920
7501000,0.0324,0.013523,0.002678,0.000431,3.484593
7502000,0.0324,0.013523,0.002678,0.000431,3.408317
7503000,0.0324,0.013523,0.002678,0.000431,3.440873
7504000,0.0324,0.013523,0.002678,0.000431,3.440285
7505000,0.0324,0.013523,0.002678,0.000431,3.255061
7506000,0.0324,0.013523,0.002678,0.000431,3.298781
7507000,0.0324,0.013523,0.002678,0.000431,3.353667
7508000,0.0324,0.013523,0.002678,0.000431,3.467787
7509000,0.0324,0.013523,0.002678,0.000431,3.471547
7510000,0.0324,0.013523,0.002678,0.000431,3.299604
7511000,0.0324,0.013523,0.002678,0.000431,3.411020
7512000,0.0324,0.013523,0.002678,0.000431,3.384694
7513000,0.0324,0.013523,0.002678,0.000431,3.429120
7514000,0.0324,0.013523,0.002678,0.000431,3.458032
7515000,0.0324,0.013523,0.002678,0.000431,3.304892
7516000,0.0324,0.013523,0.002678,0.000431,3.127660
7517000,0.0324,0.013523,0.002678,0.000431,3.271397
7518000,0.0324,0.013523,0.002678,0.000431,3.365067
7519000,0.0324,0.013523,0.002678,0.000431,3.546765
7520000,0.0324,0.013523,0.002678,0.000431,3.498344
7521000,0.0324,0.013523,0.002678,0.000431,3.444633
7522000,0.0324,0.013523,0.002678,0.000431,3.333099
7523000,0.0324,0.013523,0.002678,0.000431,3.265756
7524000,0.0324,0.013523,0.002678,0.000431,3.073244
7525000,0.0324,0.013523,0.002678,0.000431,3.374352
7526000,0.0324,0.013523,0.002678,0.000431,3.327105
7527000,0.0324,0.013523,0.002678,0.000431,3.299956
7528000,0.0324,0.013523,0.002678,0.000431,3.218039
7529000,0.0324,0.013523,0.002678,0.000431,3.342737
7530000,0.0324,0.013523,0.002678,0.000431,3.259762
7531000,0.0324,0.013523,0.002678,0.000431,3.318996
7532000,0.0324,0.013523,0.002678,0.000431,3.406437
7533000,0.0324,0.013523,0.002678,0.000431,3.397975
7534000,0.0324,0.013523,0.002678,0.000431,3.323815
7535000,0.0324,0.013523,0.002678,0.000431,3.365184
7536000,0.0324,0.013523,0.002678,0.000431,3.337095
7537000,0.0324,0.013523,0.002678,0.000431,3.480245
7538000,0.0324,0.013523,0.002678,0.000431,3.442753
7539000,0.0324,0.013523,0.002678,0.000431,3.412431
7540000,0.0324,0.013523,0.002678,0.000431,3.483418
7541000,0.0324,0.013523,0.002678,0.000431,3.381756
7542000,0.0324,0.013523,0.002678,0.000431,3.448982
7543000,0.0324,0.013523,0.002678,0.000431,3.467434
7544000,0.0324,0.013523,0.002678,0.000431,3.393274
7545000,0.0324,0.013523,0.002678,0.000431,3.452860
7546000,0.0324,0.013523,0.002678,0.000431,3.497404
7547000,0.0324,0.013523,0.002678,0.000431,3.364009
7548000,0.0324,0.013523,0.002678,0.000431,3.363892
7549000,0.0324,0.013523,0.002678,0.000431,3.438405
7550000,0.0324,0.013523,0.002678,0.000431,3.435231
7551000,0.0324,0.013523,0.002678,0.000431,3.501517
7552000,0.0324,0.013523,0.002678,0.000431,3.423596
7553000,0.0324,0.013523,0.002678,0.000431,3.436171
7554000,0.0324,0.013523,0.002678,0.000431,3.517618
7555000,0.0324,0.013523,0.002678,0.000431,3.512447
7556000,0.0324,0.013523,0.002678,0.000431,3.393039
7557000,0.0324,0.013523,0.002678,0.000431,3.478364
7558000,0.0324,0.013523,0.002678,0.000431,3.474133
7559000,0.0324,0.013523,0.002678,0.000431,3.474603
7560000,0.0324,0.013523,0.002678,0.000431,3.484828
7561000,0.0324,0.013523,0.002678,0.000431,3.400560
7562000,0.0324,0.013523,0.002678,0.000431,3.399855
7563000,0.0324,0.013523,0.002678,0.000431,3.345087
7564000,0.0324,0.013523,0.002678,0.000431,3.394214
7565000,0.0324,0.013523,0.002678,0.000431,3.401618
7566000,0.0324,0.013523,0.002678,0.000431,3.202996
7567000,0.0324,0.013523,0.002678,0.000431,3.214161
7568000,0.0324,0.013523,0.002678,0.000431,3.371648
7569000,0.0324,0.013523,0.002678,0.000431,3.289496
7570000,0.0324,0.013523,0.002678,0.000431,3.250830
7571000,0.0324,0.013523,0.002678,0.000431,3.283855
7572000,0.0324,0.013523,0.002678,0.000431,3.357780
7573000,0.0324,0.013523,0.002678,0.000431,3.228147
7574000,0.0324,0.013523,0.002678,0.000431,3.262582
7575000,0.0324,0.013523,0.002678,0.000431,3.248596
7576000,0.0324,0.013523,0.002678,0.000431,3.218509
7577000,0.0324,0.013523,0.002678,0.000431,3.282092
7578000,0.0324,0.013523,0.002678,0.000431,3.251887
7579000,0.0324,0.013523,0.002678,0.000431,3.236256
7580000,0.0324,0.013523,0.002678,0.000431,3.308888
7581000,0.0324,0.013523,0.002678,0.000431,3.286558
7582000,0.0324,0.013523,0.002678,0.000431,3.239899
7583000,0.0324,0.013523,0.002678,0.000431,3.172556
7584000,0.0324,0.013523,0.002678,0.000431,3.195944
7585000,0.0324,0.013523,0.002678,0.000431,3.136945
7586000,0.0324,0.013523,0.002678,0.000431,3.205111
7587000,0.0324,0.013523,0.002678,0.000431,3.206169
7588000,0.0324,0.013523,0.002678,0.000431,3.149638
7589000,0.0324,0.013523,0.002678,0.000431,3.069131
7590000,0.0324,0.013523,0.002678,0.000431,3.062314
7591000,0.0324,0.013523,0.002678,0.000431,3.125074
7592000,0.0324,0.013523,0.002678,0.000431,3.081589
7593000,0.0324,0.013523,0.002678,0.000431,3.020004
7594000,0.0324,0.013523,0.002678,0.000431,3.092166
7595000,0.0324,0.013523,0.002678,0.000431,3.138120
7596000,0.0324,0.013523,0.002678,0.000431,3.032580
7597000,0.0324,0.013523,0.002678,0.000431,3.031639
7598000,0.0324,0.013523,0.002678,0.000431,3.026233
7599000,0.0324,0.013523,0.002678,0.000431,2.981337
7600000,0.0324,0.013523,0.002678,0.000431,2.872624
7601000,0.0324,0.013523,0.002678,0.000431,2.939615
7602000,0.0324,0.013523,0.002678,0.000431,2.983453
7603000,0.0324,0.013523,0.002678,0.000431,2.960065
7604000,0.0324,0.013523,0.002678,0.000431,2.879676
7605000,0.0324,0.013523,0.002678,0.000431,3.020474
7606000,0.0324,0.013523,0.002678,0.000431,2.951133
7607000,0.0324,0.013523,0.002678,0.000431,2.882731
7608000,0.0324,0.013523,0.002678,0.000431,2.873682
7609000,0.0324,0.013523,0.002678,0.000431,3.020592
7610000,0.0324,0.013523,0.002678,0.000431,2.959477
7611000,0.0324,0.013523,0.002678,0.000431,2.876855
7612000,0.0324,0.013523,0.002678,0.000431,2.950075
7613000,0.0324,0.013523,0.002678,0.000431,2.947137
7614000,0.0324,0.013523,0.002678,0.000431,2.993208
7615000,0.0324,0.013523,0.002678,0.000431,2.933268
7616000,0.0324,0.013523,0.002678,0.000431,2.787298
7617000,0.0324,0.013523,0.002678,0.000431,2.708907
7618000,0.0324,0.013523,0.002678,0.000431,2.811274
7619000,0.0324,0.013523,0.002678,0.000431,2.675529
7620000,0.0324,0.013523,0.002678,0.000431,2.637685
7621000,0.0324,0.013523,0.002678,0.000431,2.774723
7622000,0.0324,0.013523,0.002678,0.000431,2.650496
7623000,0.0324,0.013523,0.002678,0.000431,2.718192
7624000,0.0324,0.013523,0.002678,0.000431,2.705851
7625000,0.0324,0.013523,0.002678,0.000431,2.646265
7626000,0.0324,0.013523,0.002678,0.000431,2.535788
7627000,0.0324,0.013523,0.002678,0.000431,2.576100
7628000,0.0324,0.013523,0.002678,0.000431,2.514163
7629000,0.0324,0.013523,0.002678,0.000431,2.460570
7630000,0.0324,0.013523,0.002678,0.000431,2.410385
7631000,0.0324,0.013523,0.002678,0.000431,2.326118
7632000,0.0324,0.013523,0.002678,0.000431,2.327176
7633000,0.0324,0.013523,0.002678,0.000431,2.317421
7634000,0.0324,0.013523,0.002678,0.000431,2.261712
7635000,0.0324,0.013523,0.002678,0.000431,2.197659
7636000,0.0324,0.013523,0.002678,0.000431,2.162519
7637000,0.0324,0.013523,0.002678,0.000431,2.138190
7638000,0.0324,0.013523,0.002678,0.000431,2.099171
7639000,0.0324,0.013523,0.002678,0.000431,2.177797
7640000,0.0324,0.013523,0.002678,0.000431,2.077781
7641000,0.0324,0.013523,0.002678,0.000431,2.067673
7642000,0.0324,0.013523,0.002678,0.000431,2.034413
7643000,0.0324,0.013523,0.002678,0.000431,2.010555
7644000,0.0324,0.013523,0.002678,0.000431,2.023013
7645000,0.0324,0.013523,0.002678,0.000431,1.918060
7646000,0.0324,0.013523,0.002678,0.000431,2.082247
7647000,0.0324,0.013523,0.002678,0.000431,2.074255
7648000,0.0324,0.013523,0.002678,0.000431,2.010672
7649000,0.0324,0.013523,0.002678,0.000431,2.013258
7650000,0.0324,0.013523,0.002678,0.000431,2.009849
7651000,0.0324,0.013523,0.002678,0.000431,2.018429
7652000,0.0324,0.013523,0.002678,0.000431,1.970007
7653000,0.0324,0.013523,0.002678,0.000431,1.960370
7654000,0.0324,0.013523,0.002678,0.000431,1.930048
7655000,0.0324,0.013523,0.002678,0.000431,1.888560
7656000,0.0324,0.013523,0.002678,0.000431,1.889501
7657000,0.0324,0.013523,0.002678,0.000431,1.901724
7658000,0.0324,0.013523,0.002678,0.000431,1.934044
7659000,0.0324,0.013523,0.002678,0.000431,1.930871
7660000,0.0324,0.013523,0.002678,0.000431,2.046401
7661000,0.0324,0.013523,0.002678,0.000431,2.076958
7662000,0.0324,0.013523,0.002678,0.000431,1.996216
7663000,0.0324,0.013523,0.002678,0.000431,2.156995
7664000,0.0324,0.013523,0.002678,0.000431,2.126437
7665000,0.0324,0.013523,0.002678,0.000431,2.051337
7666000,0.0324,0.013523,0.002678,0.000431,2.042640
7667000,0.0324,0.013523,0.002678,0.000431,1.995629
7668000,0.0324,0.013523,0.002678,0.000431,1.941095
7669000,0.0324,0.013523,0.002678,0.000431,1.896082
7670000,0.0324,0.013523,0.002678,0.000431,1.819454
7671000,0.0324,0.013523,0.002678,0.000431,1.771502
7672000,0.0324,0.013523,0.002678,0.000431,1.829561
7673000,0.0324,0.013523,0.002678,0.000431,1.799004
7674000,0.0324,0.013523,0.002678,0.000431,1.754813
7675000,0.0324,0.013523,0.002678,0.000431,1.724256
7676000,0.0324,0.013523,0.002678,0.000431,1.713796
7677000,0.0324,0.013523,0.002678,0.000431,1.533625
7678000,0.0324,0.013523,0.002678,0.000431,1.631879
7679000,0.0324,0.013523,0.002678,0.000431,1.685707
7680000,0.0324,0.013523,0.002678,0.000431,1.662671
7681000,0.0324,0.013523,0.002678,0.000431,1.611194
7682000,0.0324,0.013523,0.002678,0.000431,1.679125
7683000,0.0324,0.013523,0.002678,0.000431,1.773735
7684000,0.0324,0.013523,0.002678,0.000431,1.748702
7685000,0.0324,0.013523,0.002678,0.000431,1.709330
7686000,0.0324,0.013523,0.002678,0.000431,1.707920
7687000,0.0324,0.013523,0.002678,0.000431,1.650918
7688000,0.0324,0.013523,0.002678,0.000431,1.617423
7689000,0.0324,0.013523,0.002678,0.000431,1.668313
7690000,0.0324,0.013523,0.002678,0.000431,1.709330
7691000,0.0324,0.013523,0.002678,0.000431,1.691583
7692000,0.0324,0.013523,0.002678,0.000431,1.713091
7693000,0.0324,0.013523,0.002678,0.000431,1.802060
7694000,0.0324,0.013523,0.002678,0.000431,1.825095
7695000,0.0324,0.013523,0.002678,0.000431,1.861294
7696000,0.0324,0.013523,0.002678,0.000431,1.883624
7697000,0.0324,0.013523,0.002678,0.000431,1.816398
7698000,0.0324,0.013523,0.002678,0.000431,1.803823
7699000,0.0324,0.013523,0.002678,0.000431,1.802765
7700000,0.0324,0.013523,0.002678,0.000431,1.773265
7701000,0.0324,0.013523,0.002678,0.000431,1.682181
7702000,0.0324,0.013523,0.002678,0.000431,1.677480
7703000,0.0324,0.013523,0.002678,0.000431,1.712268
7704000,0.0324,0.013523,0.002678,0.000431,1.710153
7705000,0.0324,0.013523,0.002678,0.000431,1.733893
7706000,0.0324,0.013523,0.002678,0.000431,1.785371
7707000,0.0324,0.013523,0.002678,0.000431,1.792422
7708000,0.0324,0.013523,0.002678,0.000431,1.725314
7709000,0.0324,0.013523,0.002678,0.000431,1.785606
7710000,0.0324,0.013523,0.002678,0.000431,1.848366
7711000,0.0324,0.013523,0.002678,0.000431,1.870343
7712000,0.0324,0.013523,0.002678,0.000431,1.874575
7713000,0.0324,0.013523,0.002678,0.000431,1.912419
7714000,0.0324,0.013523,0.002678,0.000431,1.956022
7715000,0.0324,0.013523,0.002678,0.000431,1.985756
7716000,0.0324,0.013523,0.002678,0.000431,2.028301
7717000,0.0324,0.013523,0.002678,0.000431,2.077193
7718000,0.0324,0.013523,0.002678,0.000431,2.054510
7719000,0.0324,0.013523,0.002678,0.000431,2.130668
7720000,0.0324,0.013523,0.002678,0.000431,2.216934
7721000,0.0324,0.013523,0.002678,0.000431,2.179795
7722000,0.0324,0.013523,0.002678,0.000431,2.205886
7723000,0.0324,0.013523,0.002678,0.000431,2.339516
7724000,0.0324,0.013523,0.002678,0.000431,2.291917
7725000,0.0324,0.013523,0.002678,0.000431,2.271702
7726000,0.0324,0.013523,0.002678,0.000431,2.349858
7727000,0.0324,0.013523,0.002678,0.000431,2.388525
7728000,0.0324,0.013523,0.002678,0.000431,2.300967
7729000,0.0324,0.013523,0.002678,0.000431,2.231625
7730000,0.0324,0.013523,0.002678,0.000431,2.314600
7731000,0.0324,0.013523,0.002678,0.000431,2.265473
7732000,0.0324,0.013523,0.002678,0.000431,2.224456
7733000,0.0324,0.013523,0.002678,0.000431,2.287098
7734000,0.0324,0.013523,0.002678,0.000431,2.297088
7735000,0.0324,0.013523,0.002678,0.000431,2.344100
7736000,0.0324,0.013523,0.002678,0.000431,2.298616
7737000,0.0324,0.013523,0.002678,0.000431,2.279459
7738000,0.0324,0.013523,0.002678,0.000431,2.326588
7739000,0.0324,0.013523,0.002678,0.000431,2.319889
7740000,0.0324,0.013523,0.002678,0.000431,2.383236
7741000,0.0324,0.013523,0.002678,0.000431,2.369721
7742000,0.0324,0.013523,0.002678,0.000431,2.451520
7743000,0.0324,0.013523,0.002678,0.000431,2.489364
7744000,0.0324,0.013523,0.002678,0.000431,2.419435
7745000,0.0324,0.013523,0.002678,0.000431,2.441766
7746000,0.0324,0.013523,0.002678,0.000431,2.522037
7747000,0.0324,0.013523,0.002678,0.000431,2.529206
7748000,0.0324,0.013523,0.002678,0.000431,2.457162
7749000,0.0324,0.013523,0.002678,0.000431,2.568226
7750000,0.0324,0.013523,0.002678,0.000431,2.543427
7751000,0.0324,0.013523,0.002678,0.000431,2.558353
7752000,0.0324,0.013523,0.002678,0.000431,2.504996
7753000,0.0324,0.013523,0.002678,0.000431,2.562937
7754000,0.0324,0.013523,0.002678,0.000431,2.713373
7755000,0.0324,0.013523,0.002678,0.000431,2.670945
7756000,0.0324,0.013523,0.002678,0.000431,2.666832
7757000,0.0324,0.013523,0.002678,0.000431,2.586208
7758000,0.0324,0.013523,0.002678,0.000431,2.621466
7759000,0.0324,0.013523,0.002678,0.000431,2.645677
7760000,0.0324,0.013523,0.002678,0.000431,2.496181
7761000,0.0324,0.013523,0.002678,0.000431,2.476554
7762000,0.0324,0.013523,0.002678,0.000431,2.477964
7763000,0.0324,0.013523,0.002678,0.000431,2.582329
7764000,0.0324,0.013523,0.002678,0.000431,2.512517
7765000,0.0324,0.013523,0.002678,0.000431,2.414969
7766000,0.0324,0.013523,0.002678,0.000431,2.517454
7767000,0.0324,0.013523,0.002678,0.000431,2.505113
7768000,0.0324,0.013523,0.002678,0.000431,2.446114
7769000,0.0324,0.013523,0.002678,0.000431,2.383707
7770000,0.0324,0.013523,0.002678,0.000431,2.387938
7771000,0.0324,0.013523,0.002678,0.000431,2.349506
7772000,0.0324,0.013523,0.002678,0.000431,2.355970
7773000,0.0324,0.013523,0.002678,0.000431,2.377478
7774000,0.0324,0.013523,0.002678,0.000431,2.310487
7775000,0.0324,0.013523,0.002678,0.000431,2.403804
7776000,0.0324,0.013523,0.002678,0.000431,2.426604
7777000,0.0324,0.013523,0.002678,0.000431,2.475261
7778000,0.0324,0.013523,0.002678,0.000431,2.420375
7779000,0.0324,0.013523,0.002678,0.000431,2.375362
7780000,0.0324,0.013523,0.002678,0.000431,2.352562
7781000,0.0324,0.013523,0.002678,0.000431,2.389113
7782000,0.0324,0.013523,0.002678,0.000431,2.432598
7783000,0.0324,0.013523,0.002678,0.000431,2.297323
7784000,0.0324,0.013523,0.002678,0.000431,2.267471
7785000,0.0324,0.013523,0.002678,0.000431,2.322474
7786000,0.0324,0.013523,0.002678,0.000431,2.320711
7787000,0.0324,0.013523,0.002678,0.000431,2.393226
7788000,0.0324,0.013523,0.002678,0.000431,2.409328
7789000,0.0324,0.013523,0.002678,0.000431,2.274640
7790000,0.0324,0.013523,0.002678,0.000431,2.408740
7791000,0.0324,0.013523,0.002678,0.000431,2.385822
7792000,0.0324,0.013523,0.002678,0.000431,2.441178
7793000,0.0324,0.013523,0.002678,0.000431,2.442941
7794000,0.0324,0.013523,0.002678,0.000431,2.449170
7795000,0.0324,0.013523,0.002678,0.000431,2.395577
7796000,0.0324,0.013523,0.002678,0.000431,2.341632
7797000,0.0324,0.013523,0.002678,0.000431,2.337871
7798000,0.0324,0.013523,0.002678,0.000431,2.229157
7799000,0.0324,0.013523,0.002678,0.000431,2.406154
7800000,0.0324,0.013523,0.002678,0.000431,2.545778
7801000,0.0324,0.013523,0.002678,0.000431,2.578686
7802000,0.0324,0.013523,0.002678,0.000431,2.508522
7803000,0.0324,0.013523,0.002678,0.000431,2.674706
7804000,0.0324,0.013523,0.002678,0.000431,2.732295
7805000,0.0324,0.013523,0.002678,0.000431,2.614179
7806000,0.0324,0.013523,0.002678,0.000431,2.861929
7807000,0.0324,0.013523,0.002678,0.000431,2.833722
7808000,0.0324,0.013523,0.002678,0.000431,2.838541
7809000,0.0324,0.013523,0.002678,0.000431,2.834897
7810000,0.0324,0.013523,0.002678,0.000431,2.849236
7811000,0.0324,0.013523,0.002678,0.000431,2.905062
7812000,0.0324,0.013523,0.002678,0.000431,3.031052
7813000,0.0324,0.013523,0.002678,0.000431,2.958890
7814000,0.0324,0.013523,0.002678,0.000431,3.072774
7815000,0.0324,0.013523,0.002678,0.000431,3.039161
7816000,0.0324,0.013523,0.002678,0.000431,2.945491
7817000,0.0324,0.013523,0.002678,0.000431,2.872859
7818000,0.0324,0.013523,0.002678,0.000431,2.986861
7819000,0.0324,0.013523,0.002678,0.000431,2.978869
7820000,0.0324,0.013523,0.002678,0.000431,2.917402
7821000,0.0324,0.013523,0.002678,0.000431,2.843124
7822000,0.0324,0.013523,0.002678,0.000431,2.807866
7823000,0.0324,0.013523,0.002678,0.000431,2.839246
7824000,0.0324,0.013523,0.002678,0.000431,2.721012
7825000,0.0324,0.013523,0.002678,0.000431,2.672708
7826000,0.0324,0.013523,0.002678,0.000431,2.660368
7827000,0.0324,0.013523,0.002678,0.000431,2.613944
7828000,0.0324,0.013523,0.002678,0.000431,2.590439
7829000,0.0324,0.013523,0.002678,0.000431,2.632984
7830000,0.0324,0.013523,0.002678,0.000431,2.589969
7831000,0.0324,0.013523,0.002678,0.000431,2.532380
7832000,0.0324,0.013523,0.002678,0.000431,2.420728
7833000,0.0324,0.013523,0.002678,0.000431,2.547893
7834000,0.0324,0.013523,0.002678,0.000431,2.552595
7835000,0.0324,0.013523,0.002678,0.000431,2.376185
7836000,0.0324,0.013523,0.002678,0.000431,2.542252
7837000,0.0324,0.013523,0.002678,0.000431,2.577628
7838000,0.0324,0.013523,0.002678,0.000431,2.497239
7839000,0.0324,0.013523,0.002678,0.000431,2.576923
7840000,0.0324,0.013523,0.002678,0.000431,2.578098
7841000,0.0324,0.013523,0.002678,0.000431,2.527091
7842000,0.0324,0.013523,0.002678,0.000431,2.460805
7843000,0.0324,0.013523,0.002678,0.000431,2.640623
7844000,0.0324,0.013523,0.002678,0.000431,2.500059
7845000,0.0324,0.013523,0.002678,0.000431,2.392756
7846000,0.0324,0.013523,0.002678,0.000431,2.607010
7847000,0.0324,0.013523,0.002678,0.000431,2.554240
7848000,0.0324,0.013523,0.002678,0.000431,2.422726
7849000,0.0324,0.013523,0.002678,0.000431,2.459395
7850000,0.0324,0.013523,0.002678,0.000431,2.645442
7851000,0.0324,0.013523,0.002678,0.000431,2.512753
7852000,0.0324,0.013523,0.002678,0.000431,2.486896
7853000,0.0324,0.013523,0.002678,0.000431,2.542840
7854000,0.0324,0.013523,0.002678,0.000431,2.453048
7855000,0.0324,0.013523,0.002678,0.000431,2.531675
7856000,0.0324,0.013523,0.002678,0.000431,2.418142
7857000,0.0324,0.013523,0.002678,0.000431,2.421668
7858000,0.0324,0.013523,0.002678,0.000431,2.421316
7859000,0.0324,0.013523,0.002678,0.000431,2.517219
7860000,0.0324,0.013523,0.002678,0.000431,2.460688
7861000,0.0324,0.013523,0.002678,0.000431,2.389701
7862000,0.0324,0.013523,0.002678,0.000431,2.348801
7863000,0.0324,0.013523,0.002678,0.000431,2.345040
7864000,0.0324,0.013523,0.002678,0.000431,2.389113
7865000,0.0324,0.013523,0.002678,0.000431,2.191195
7866000,0.0324,0.013523,0.002678,0.000431,2.241733
7867000,0.0324,0.013523,0.002678,0.000431,2.305433
7868000,0.0324,0.013523,0.002678,0.000431,2.233741
7869000,0.0324,0.013523,0.002678,0.000431,2.314365
7870000,0.0324,0.013523,0.002678,0.000431,2.320006
7871000,0.0324,0.013523,0.002678,0.000431,2.193781
7872000,0.0324,0.013523,0.002678,0.000431,2.314365
7873000,0.0324,0.013523,0.002678,0.000431,2.205651
7874000,0.0324,0.013523,0.002678,0.000431,2.258422
7875000,0.0324,0.013523,0.002678,0.000431,2.172626
7876000,0.0324,0.013523,0.002678,0.000431,2.181676
7877000,0.0324,0.013523,0.002678,0.000431,2.213056
7878000,0.0324,0.013523,0.002678,0.000431,2.170863
7879000,0.0324,0.013523,0.002678,0.000431,2.239970
7880000,0.0324,0.013523,0.002678,0.000431,2.177680
7881000,0.0324,0.013523,0.002678,0.000431,2.357498
7882000,0.0324,0.013523,0.002678,0.000431,2.189433
7883000,0.0324,0.013523,0.002678,0.000431,2.274523
7884000,0.0324,0.013523,0.002678,0.000431,2.216111
7885000,0.0324,0.013523,0.002678,0.000431,2.190373
7886000,0.0324,0.013523,0.002678,0.000431,2.230097
7887000,0.0324,0.013523,0.002678,0.000431,2.143126
7888000,0.0324,0.013523,0.002678,0.000431,2.251252
7889000,0.0324,0.013523,0.002678,0.000431,2.203183
7890000,0.0324,0.013523,0.002678,0.000431,2.229627
7891000,0.0324,0.013523,0.002678,0.000431,2.140423
7892000,0.0324,0.013523,0.002678,0.000431,2.099288
7893000,0.0324,0.013523,0.002678,0.000431,1.989987
7894000,0.0324,0.013523,0.002678,0.000431,2.107045
7895000,0.0324,0.013523,0.002678,0.000431,2.102227
7896000,0.0324,0.013523,0.002678,0.000431,2.232095
7897000,0.0324,0.013523,0.002678,0.000431,2.184614
7898000,0.0324,0.013523,0.002678,0.000431,2.093177
7899000,0.0324,0.013523,0.002678,0.000431,2.087065
7900000,0.0324,0.013523,0.002678,0.000431,2.121149
7901000,0.0324,0.013523,0.002678,0.000431,2.149708
7902000,0.0324,0.013523,0.002678,0.000431,2.096820
7903000,0.0324,0.013523,0.002678,0.000431,2.136897
7904000,0.0324,0.013523,0.002678,0.000431,2.194721
7905000,0.0324,0.013523,0.002678,0.000431,2.143009
7906000,0.0324,0.013523,0.002678,0.000431,2.125145
7907000,0.0324,0.013523,0.002678,0.000431,2.114802
7908000,0.0324,0.013523,0.002678,0.000431,2.050632
7909000,0.0324,0.013523,0.002678,0.000431,2.058976
7910000,0.0324,0.013523,0.002678,0.000431,1.972475
7911000,0.0324,0.013523,0.002678,0.000431,2.002093
7912000,0.0324,0.013523,0.002678,0.000431,1.885270
7913000,0.0324,0.013523,0.002678,0.000431,1.886445
7914000,0.0324,0.013523,0.002678,0.000431,1.958725
7915000,0.0324,0.013523,0.002678,0.000431,1.913829
7916000,0.0324,0.013523,0.002678,0.000431,2.017489
7917000,0.0324,0.013523,0.002678,0.000431,1.894554
7918000,0.0324,0.013523,0.002678,0.000431,1.994806
7919000,0.0324,0.013523,0.002678,0.000431,1.971888
7920000,0.0324,0.013523,0.002678,0.000431,1.902076
7921000,0.0324,0.013523,0.002678,0.000431,1.765626
7922000,0.0324,0.013523,0.002678,0.000431,1.849306
7923000,0.0324,0.013523,0.002678,0.000431,1.712386
7924000,0.0324,0.013523,0.002678,0.000431,1.811227
7925000,0.0324,0.013523,0.002678,0.000431,1.911831
7926000,0.0324,0.013523,0.002678,0.000431,1.845545
7927000,0.0324,0.013523,0.002678,0.000431,1.754226
7928000,0.0324,0.013523,0.002678,0.000431,1.798886
7929000,0.0324,0.013523,0.002678,0.000431,1.930753
7930000,0.0324,0.013523,0.002678,0.000431,2.054040
7931000,0.0324,0.013523,0.002678,0.000431,1.935454
7932000,0.0324,0.013523,0.002678,0.000431,2.009262
7933000,0.0324,0.013523,0.002678,0.000431,2.033473
7934000,0.0324,0.013523,0.002678,0.000431,2.068261
7935000,0.0324,0.013523,0.002678,0.000431,2.062502
7936000,0.0324,0.013523,0.002678,0.000431,2.040877
7937000,0.0324,0.013523,0.002678,0.000431,2.002210
7938000,0.0324,0.013523,0.002678,0.000431,2.042052
7939000,0.0324,0.013523,0.002678,0.000431,1.991868
7940000,0.0324,0.013523,0.002678,0.000431,1.963896
7941000,0.0324,0.013523,0.002678,0.000431,1.975179
7942000,0.0324,0.013523,0.002678,0.000431,1.964719
7943000,0.0324,0.013523,0.002678,0.000431,1.855652
7944000,0.0324,0.013523,0.002678,0.000431,1.968480
7945000,0.0324,0.013523,0.002678,0.000431,1.982465
7946000,0.0324,0.013523,0.002678,0.000431,1.910421
7947000,0.0324,0.013523,0.002678,0.000431,1.977764
7948000,0.0324,0.013523,0.002678,0.000431,1.989987
7949000,0.0324,0.013523,0.002678,0.000431,1.958255
7950000,0.0324,0.013523,0.002678,0.000431,2.064500
7951000,0.0324,0.013523,0.002678,0.000431,1.952731
7952000,0.0324,0.013523,0.002678,0.000431,1.883507
7953000,0.0324,0.013523,0.002678,0.000431,2.036528
7954000,0.0324,0.013523,0.002678,0.000431,2.039349
7955000,0.0324,0.013523,0.002678,0.000431,1.987284
7956000,0.0324,0.013523,0.002678,0.000431,1.977764
7957000,0.0324,0.013523,0.002678,0.000431,1.998802
7958000,0.0324,0.013523,0.002678,0.000431,2.002915
7959000,0.0324,0.013523,0.002678,0.000431,1.979880
7960000,0.0324,0.013523,0.002678,0.000431,1.887855
7961000,0.0324,0.013523,0.002678,0.000431,1.792775
7962000,0.0324,0.013523,0.002678,0.000431,1.923936
7963000,0.0324,0.013523,0.002678,0.000431,2.011025
7964000,0.0324,0.013523,0.002678,0.000431,2.089651
7965000,0.0324,0.013523,0.002678,0.000431,2.031945
7966000,0.0324,0.013523,0.002678,0.000431,2.019369
7967000,0.0324,0.013523,0.002678,0.000431,2.000682
7968000,0.0324,0.013523,0.002678,0.000431,1.977059
7969000,0.0324,0.013523,0.002678,0.000431,1.997627
7970000,0.0324,0.013523,0.002678,0.000431,1.914652
7971000,0.0324,0.013523,0.002678,0.000431,1.988107
7972000,0.0324,0.013523,0.002678,0.000431,1.969067
7973000,0.0324,0.013523,0.002678,0.000431,1.972005
7974000,0.0324,0.013523,0.002678,0.000431,1.952026
7975000,0.0324,0.013523,0.002678,0.000431,2.030417
7976000,0.0324,0.013523,0.002678,0.000431,1.992103
7977000,0.0324,0.013523,0.002678,0.000431,1.924759
7978000,0.0324,0.013523,0.002678,0.000431,2.001387
7979000,0.0324,0.013523,0.002678,0.000431,2.048046
7980000,0.0324,0.013523,0.002678,0.000431,2.063090
7981000,0.0324,0.013523,0.002678,0.000431,2.091179
7982000,0.0324,0.013523,0.002678,0.000431,2.149355
7983000,0.0324,0.013523,0.002678,0.000431,2.205534
7984000,0.0324,0.013523,0.002678,0.000431,2.258422
7985000,0.0324,0.013523,0.002678,0.000431,2.230920
7986000,0.0324,0.013523,0.002678,0.000431,2.366900
7987000,0.0324,0.013523,0.002678,0.000431,2.328233
7988000,0.0324,0.013523,0.002678,0.000431,2.430835
7989000,0.0324,0.013523,0.002678,0.000431,2.257599
7990000,0.0324,0.013523,0.002678,0.000431,2.268529
7991000,0.0324,0.013523,0.002678,0.000431,2.266296
7992000,0.0324,0.013523,0.002678,0.000431,2.152411
7993000,0.0324,0.013523,0.002678,0.000431,2.199775
7994000,0.0324,0.013523,0.002678,0.000431,2.389230
7995000,0.0324,0.013523,0.002678,0.000431,2.302377
7996000,0.0324,0.013523,0.002678,0.000431,2.199305
7997000,0.0324,0.013523,0.002678,0.000431,2.217404
7998000,0.0324,0.013523,0.002678,0.000431,2.316598
7999000,0.0324,0.013523,0.002678,0.000431,2.383119
