Cycle,Area(mm^2),PeakDynamic(W),SubthresholdLeakage(W),GateLeakage(W),RunTimeDynamic(W)
1000,0.0324,0.013523,0.002678,0.000431,0.000000
2000,0.0324,0.013523,0.002678,0.000431,0.000000
3000,0.0324,0.013523,0.002678,0.000431,0.000000
4000,0.0324,0.013523,0.002678,0.000431,0.000000
5000,0.0324,0.013523,0.002678,0.000431,0.000000
6000,0.0324,0.013523,0.002678,0.000431,0.616435
7000,0.0324,0.013523,0.002678,0.000431,0.939873
8000,0.0324,0.013523,0.002678,0.000431,0.347648
9000,0.0324,0.013523,0.002678,0.000431,1.021790
10000,0.0324,0.013523,0.002678,0.000431,1.302212
11000,0.0324,0.013523,0.002678,0.000431,1.358743
12000,0.0324,0.013523,0.002678,0.000431,1.386245
13000,0.0324,0.013523,0.002678,0.000431,1.517289
14000,0.0324,0.013523,0.002678,0.000431,1.417742
15000,0.0324,0.013523,0.002678,0.000431,1.545378
16000,0.0324,0.013523,0.002678,0.000431,1.570647
17000,0.0324,0.013523,0.002678,0.000431,1.388595
18000,0.0324,0.013523,0.002678,0.000431,1.379546
19000,0.0324,0.013523,0.002678,0.000431,1.337236
20000,0.0324,0.013523,0.002678,0.000431,1.392239
21000,0.0324,0.013523,0.002678,0.000431,1.367558
22000,0.0324,0.013523,0.002678,0.000431,1.337471
23000,0.0324,0.013523,0.002678,0.000431,1.288932
24000,0.0324,0.013523,0.002678,0.000431,1.272243
25000,0.0324,0.013523,0.002678,0.000431,1.211598
26000,0.0324,0.013523,0.002678,0.000431,1.176927
27000,0.0324,0.013523,0.002678,0.000431,1.151306
28000,0.0324,0.013523,0.002678,0.000431,1.017794
29000,0.0324,0.013523,0.002678,0.000431,0.924947
30000,0.0324,0.013523,0.002678,0.000431,0.938463
31000,0.0324,0.013523,0.002678,0.000431,0.873822
32000,0.0324,0.013523,0.002678,0.000431,0.860189
33000,0.0324,0.013523,0.002678,0.000431,0.844087
34000,0.0324,0.013523,0.002678,0.000431,0.741955
35000,0.0324,0.013523,0.002678,0.000431,0.765108
36000,0.0324,0.013523,0.002678,0.000431,0.698000
37000,0.0324,0.013523,0.002678,0.000431,0.591167
38000,0.0324,0.013523,0.002678,0.000431,0.519004
39000,0.0324,0.013523,0.002678,0.000431,0.472463
40000,0.0324,0.013523,0.002678,0.000431,0.468702
41000,0.0324,0.013523,0.002678,0.000431,0.443316
42000,0.0324,0.013523,0.002678,0.000431,0.416990
43000,0.0324,0.013523,0.002678,0.000431,0.404179
44000,0.0324,0.013523,0.002678,0.000431,0.391721
45000,0.0324,0.013523,0.002678,0.000431,0.355523
46000,0.0324,0.013523,0.002678,0.000431,0.354583
47000,0.0324,0.013523,0.002678,0.000431,0.329549
48000,0.0324,0.013523,0.002678,0.000431,0.302282
49000,0.0324,0.013523,0.002678,0.000431,0.319559
50000,0.0324,0.013523,0.002678,0.000431,0.297111
51000,0.0324,0.013523,0.002678,0.000431,0.272900
52000,0.0324,0.013523,0.002678,0.000431,0.240345
53000,0.0324,0.013523,0.002678,0.000431,0.243518
54000,0.0324,0.013523,0.002678,0.000431,0.215782
55000,0.0324,0.013523,0.002678,0.000431,0.184637
56000,0.0324,0.013523,0.002678,0.000431,0.186165
57000,0.0324,0.013523,0.002678,0.000431,0.214136
58000,0.0324,0.013523,0.002678,0.000431,0.227887
59000,0.0324,0.013523,0.002678,0.000431,0.187575
60000,0.0324,0.013523,0.002678,0.000431,0.185695
61000,0.0324,0.013523,0.002678,0.000431,0.193686
62000,0.0324,0.013523,0.002678,0.000431,0.195214
63000,0.0324,0.013523,0.002678,0.000431,0.166537
64000,0.0324,0.013523,0.002678,0.000431,0.155490
65000,0.0324,0.013523,0.002678,0.000431,0.163364
66000,0.0324,0.013523,0.002678,0.000431,0.160543
67000,0.0324,0.013523,0.002678,0.000431,0.159368
68000,0.0324,0.013523,0.002678,0.000431,0.151611
69000,0.0324,0.013523,0.002678,0.000431,0.151611
70000,0.0324,0.013523,0.002678,0.000431,0.144795
71000,0.0324,0.013523,0.002678,0.000431,0.146675
72000,0.0324,0.013523,0.002678,0.000431,0.140681
73000,0.0324,0.013523,0.002678,0.000431,0.142444
74000,0.0324,0.013523,0.002678,0.000431,0.142679
75000,0.0324,0.013523,0.002678,0.000431,0.136098
76000,0.0324,0.013523,0.002678,0.000431,0.139153
77000,0.0324,0.013523,0.002678,0.000431,0.133630
78000,0.0324,0.013523,0.002678,0.000431,0.132689
79000,0.0324,0.013523,0.002678,0.000431,0.145030
80000,0.0324,0.013523,0.002678,0.000431,0.129046
81000,0.0324,0.013523,0.002678,0.000431,0.131397
82000,0.0324,0.013523,0.002678,0.000431,0.118233
83000,0.0324,0.013523,0.002678,0.000431,0.136333
84000,0.0324,0.013523,0.002678,0.000431,0.132924
85000,0.0324,0.013523,0.002678,0.000431,0.125403
86000,0.0324,0.013523,0.002678,0.000431,0.116823
87000,0.0324,0.013523,0.002678,0.000431,0.119644
88000,0.0324,0.013523,0.002678,0.000431,0.123170
89000,0.0324,0.013523,0.002678,0.000431,0.129046
90000,0.0324,0.013523,0.002678,0.000431,0.116470
91000,0.0324,0.013523,0.002678,0.000431,0.107773
92000,0.0324,0.013523,0.002678,0.000431,0.118821
93000,0.0324,0.013523,0.002678,0.000431,0.111299
94000,0.0324,0.013523,0.002678,0.000431,0.116588
95000,0.0324,0.013523,0.002678,0.000431,0.117176
96000,0.0324,0.013523,0.002678,0.000431,0.106598
97000,0.0324,0.013523,0.002678,0.000431,0.109301
98000,0.0324,0.013523,0.002678,0.000431,0.107538
99000,0.0324,0.013523,0.002678,0.000431,0.109301
100000,0.0324,0.013523,0.002678,0.000431,0.111299
101000,0.0324,0.013523,0.002678,0.000431,0.102485
102000,0.0324,0.013523,0.002678,0.000431,0.105188
103000,0.0324,0.013523,0.002678,0.000431,0.109184
104000,0.0324,0.013523,0.002678,0.000431,0.102837
105000,0.0324,0.013523,0.002678,0.000431,0.104600
106000,0.0324,0.013523,0.002678,0.000431,0.096256
107000,0.0324,0.013523,0.002678,0.000431,0.103660
108000,0.0324,0.013523,0.002678,0.000431,0.095668
109000,0.0324,0.013523,0.002678,0.000431,0.101779
110000,0.0324,0.013523,0.002678,0.000431,0.097548
111000,0.0324,0.013523,0.002678,0.000431,0.098489
112000,0.0324,0.013523,0.002678,0.000431,0.091907
113000,0.0324,0.013523,0.002678,0.000431,0.095668
114000,0.0324,0.013523,0.002678,0.000431,0.091907
115000,0.0324,0.013523,0.002678,0.000431,0.096843
116000,0.0324,0.013523,0.002678,0.000431,0.091202
117000,0.0324,0.013523,0.002678,0.000431,0.087206
118000,0.0324,0.013523,0.002678,0.000431,0.090497
119000,0.0324,0.013523,0.002678,0.000431,0.094610
120000,0.0324,0.013523,0.002678,0.000431,0.092495
121000,0.0324,0.013523,0.002678,0.000431,0.082035
122000,0.0324,0.013523,0.002678,0.000431,0.087558
123000,0.0324,0.013523,0.002678,0.000431,0.088851
124000,0.0324,0.013523,0.002678,0.000431,0.089204
125000,0.0324,0.013523,0.002678,0.000431,0.086618
126000,0.0324,0.013523,0.002678,0.000431,0.080742
127000,0.0324,0.013523,0.002678,0.000431,0.081447
128000,0.0324,0.013523,0.002678,0.000431,0.086148
129000,0.0324,0.013523,0.002678,0.000431,0.084620
130000,0.0324,0.013523,0.002678,0.000431,0.084620
131000,0.0324,0.013523,0.002678,0.000431,0.075571
132000,0.0324,0.013523,0.002678,0.000431,0.081917
133000,0.0324,0.013523,0.002678,0.000431,0.079214
134000,0.0324,0.013523,0.002678,0.000431,0.077921
135000,0.0324,0.013523,0.002678,0.000431,0.080507
136000,0.0324,0.013523,0.002678,0.000431,0.078391
137000,0.0324,0.013523,0.002678,0.000431,0.071222
138000,0.0324,0.013523,0.002678,0.000431,0.079919
139000,0.0324,0.013523,0.002678,0.000431,0.075688
140000,0.0324,0.013523,0.002678,0.000431,0.077451
141000,0.0324,0.013523,0.002678,0.000431,0.075806
142000,0.0324,0.013523,0.002678,0.000431,0.074160
143000,0.0324,0.013523,0.002678,0.000431,0.072162
144000,0.0324,0.013523,0.002678,0.000431,0.073808
145000,0.0324,0.013523,0.002678,0.000431,0.072162
146000,0.0324,0.013523,0.002678,0.000431,0.072632
147000,0.0324,0.013523,0.002678,0.000431,0.073690
148000,0.0324,0.013523,0.002678,0.000431,0.073808
149000,0.0324,0.013523,0.002678,0.000431,0.067696
150000,0.0324,0.013523,0.002678,0.000431,0.070282
151000,0.0324,0.013523,0.002678,0.000431,0.071692
152000,0.0324,0.013523,0.002678,0.000431,0.073103
153000,0.0324,0.013523,0.002678,0.000431,0.071457
154000,0.0324,0.013523,0.002678,0.000431,0.064053
155000,0.0324,0.013523,0.002678,0.000431,0.068401
156000,0.0324,0.013523,0.002678,0.000431,0.074748
157000,0.0324,0.013523,0.002678,0.000431,0.069459
158000,0.0324,0.013523,0.002678,0.000431,0.063348
159000,0.0324,0.013523,0.002678,0.000431,0.066991
160000,0.0324,0.013523,0.002678,0.000431,0.066403
161000,0.0324,0.013523,0.002678,0.000431,0.066756
162000,0.0324,0.013523,0.002678,0.000431,0.069577
163000,0.0324,0.013523,0.002678,0.000431,0.066756
164000,0.0324,0.013523,0.002678,0.000431,0.063700
165000,0.0324,0.013523,0.002678,0.000431,0.064876
166000,0.0324,0.013523,0.002678,0.000431,0.062878
167000,0.0324,0.013523,0.002678,0.000431,0.068636
168000,0.0324,0.013523,0.002678,0.000431,0.064288
169000,0.0324,0.013523,0.002678,0.000431,0.063818
170000,0.0324,0.013523,0.002678,0.000431,0.058999
171000,0.0324,0.013523,0.002678,0.000431,0.066756
172000,0.0324,0.013523,0.002678,0.000431,0.063113
173000,0.0324,0.013523,0.002678,0.000431,0.060527
174000,0.0324,0.013523,0.002678,0.000431,0.061350
175000,0.0324,0.013523,0.002678,0.000431,0.063348
176000,0.0324,0.013523,0.002678,0.000431,0.062290
177000,0.0324,0.013523,0.002678,0.000431,0.062172
178000,0.0324,0.013523,0.002678,0.000431,0.061585
179000,0.0324,0.013523,0.002678,0.000431,0.058294
180000,0.0324,0.013523,0.002678,0.000431,0.062995
181000,0.0324,0.013523,0.002678,0.000431,0.064758
182000,0.0324,0.013523,0.002678,0.000431,0.055591
183000,0.0324,0.013523,0.002678,0.000431,0.055238
184000,0.0324,0.013523,0.002678,0.000431,0.058412
185000,0.0324,0.013523,0.002678,0.000431,0.061585
186000,0.0324,0.013523,0.002678,0.000431,0.061467
187000,0.0324,0.013523,0.002678,0.000431,0.055121
188000,0.0324,0.013523,0.002678,0.000431,0.056531
189000,0.0324,0.013523,0.002678,0.000431,0.054298
190000,0.0324,0.013523,0.002678,0.000431,0.061467
191000,0.0324,0.013523,0.002678,0.000431,0.057471
192000,0.0324,0.013523,0.002678,0.000431,0.055591
193000,0.0324,0.013523,0.002678,0.000431,0.053710
194000,0.0324,0.013523,0.002678,0.000431,0.054533
195000,0.0324,0.013523,0.002678,0.000431,0.056531
196000,0.0324,0.013523,0.002678,0.000431,0.055943
197000,0.0324,0.013523,0.002678,0.000431,0.054063
198000,0.0324,0.013523,0.002678,0.000431,0.053828
199000,0.0324,0.013523,0.002678,0.000431,0.055121
200000,0.0324,0.013523,0.002678,0.000431,0.055591
201000,0.0324,0.013523,0.002678,0.000431,0.051830
202000,0.0324,0.013523,0.002678,0.000431,0.053710
203000,0.0324,0.013523,0.002678,0.000431,0.053475
204000,0.0324,0.013523,0.002678,0.000431,0.051242
205000,0.0324,0.013523,0.002678,0.000431,0.051360
206000,0.0324,0.013523,0.002678,0.000431,0.050420
207000,0.0324,0.013523,0.002678,0.000431,0.052535
208000,0.0324,0.013523,0.002678,0.000431,0.050420
209000,0.0324,0.013523,0.002678,0.000431,0.050420
210000,0.0324,0.013523,0.002678,0.000431,0.050890
211000,0.0324,0.013523,0.002678,0.000431,0.050772
212000,0.0324,0.013523,0.002678,0.000431,0.049127
213000,0.0324,0.013523,0.002678,0.000431,0.048892
214000,0.0324,0.013523,0.002678,0.000431,0.048187
215000,0.0324,0.013523,0.002678,0.000431,0.049127
216000,0.0324,0.013523,0.002678,0.000431,0.047246
217000,0.0324,0.013523,0.002678,0.000431,0.045131
218000,0.0324,0.013523,0.002678,0.000431,0.047834
219000,0.0324,0.013523,0.002678,0.000431,0.044778
220000,0.0324,0.013523,0.002678,0.000431,0.045601
221000,0.0324,0.013523,0.002678,0.000431,0.045718
222000,0.0324,0.013523,0.002678,0.000431,0.043485
223000,0.0324,0.013523,0.002678,0.000431,0.041370
224000,0.0324,0.013523,0.002678,0.000431,0.045836
225000,0.0324,0.013523,0.002678,0.000431,0.047716
226000,0.0324,0.013523,0.002678,0.000431,0.039725
227000,0.0324,0.013523,0.002678,0.000431,0.042545
228000,0.0324,0.013523,0.002678,0.000431,0.042898
229000,0.0324,0.013523,0.002678,0.000431,0.045601
230000,0.0324,0.013523,0.002678,0.000431,0.041252
231000,0.0324,0.013523,0.002678,0.000431,0.039725
232000,0.0324,0.013523,0.002678,0.000431,0.039607
233000,0.0324,0.013523,0.002678,0.000431,0.043133
234000,0.0324,0.013523,0.002678,0.000431,0.039725
235000,0.0324,0.013523,0.002678,0.000431,0.039137
236000,0.0324,0.013523,0.002678,0.000431,0.042193
237000,0.0324,0.013523,0.002678,0.000431,0.040430
238000,0.0324,0.013523,0.002678,0.000431,0.039372
239000,0.0324,0.013523,0.002678,0.000431,0.039725
240000,0.0324,0.013523,0.002678,0.000431,0.038432
241000,0.0324,0.013523,0.002678,0.000431,0.041840
242000,0.0324,0.013523,0.002678,0.000431,0.042075
243000,0.0324,0.013523,0.002678,0.000431,0.035964
244000,0.0324,0.013523,0.002678,0.000431,0.038197
245000,0.0324,0.013523,0.002678,0.000431,0.037609
246000,0.0324,0.013523,0.002678,0.000431,0.041252
247000,0.0324,0.013523,0.002678,0.000431,0.038432
248000,0.0324,0.013523,0.002678,0.000431,0.037256
249000,0.0324,0.013523,0.002678,0.000431,0.038314
250000,0.0324,0.013523,0.002678,0.000431,0.038549
251000,0.0324,0.013523,0.002678,0.000431,0.038549
252000,0.0324,0.013523,0.002678,0.000431,0.038079
253000,0.0324,0.013523,0.002678,0.000431,0.037374
254000,0.0324,0.013523,0.002678,0.000431,0.037256
255000,0.0324,0.013523,0.002678,0.000431,0.037962
256000,0.0324,0.013523,0.002678,0.000431,0.035729
257000,0.0324,0.013523,0.002678,0.000431,0.038784
258000,0.0324,0.013523,0.002678,0.000431,0.035611
259000,0.0324,0.013523,0.002678,0.000431,0.039019
260000,0.0324,0.013523,0.002678,0.000431,0.034788
261000,0.0324,0.013523,0.002678,0.000431,0.037491
262000,0.0324,0.013523,0.002678,0.000431,0.032085
263000,0.0324,0.013523,0.002678,0.000431,0.040195
264000,0.0324,0.013523,0.002678,0.000431,0.035846
265000,0.0324,0.013523,0.002678,0.000431,0.035141
266000,0.0324,0.013523,0.002678,0.000431,0.035846
267000,0.0324,0.013523,0.002678,0.000431,0.033848
268000,0.0324,0.013523,0.002678,0.000431,0.036081
269000,0.0324,0.013523,0.002678,0.000431,0.036081
270000,0.0324,0.013523,0.002678,0.000431,0.034436
271000,0.0324,0.013523,0.002678,0.000431,0.035846
272000,0.0324,0.013523,0.002678,0.000431,0.035964
273000,0.0324,0.013523,0.002678,0.000431,0.032790
274000,0.0324,0.013523,0.002678,0.000431,0.034788
275000,0.0324,0.013523,0.002678,0.000431,0.035729
276000,0.0324,0.013523,0.002678,0.000431,0.035729
277000,0.0324,0.013523,0.002678,0.000431,0.033260
278000,0.0324,0.013523,0.002678,0.000431,0.032555
279000,0.0324,0.013523,0.002678,0.000431,0.033496
280000,0.0324,0.013523,0.002678,0.000431,0.036199
281000,0.0324,0.013523,0.002678,0.000431,0.032908
282000,0.0324,0.013523,0.002678,0.000431,0.033260
283000,0.0324,0.013523,0.002678,0.000431,0.034201
284000,0.0324,0.013523,0.002678,0.000431,0.032438
285000,0.0324,0.013523,0.002678,0.000431,0.033378
286000,0.0324,0.013523,0.002678,0.000431,0.033496
287000,0.0324,0.013523,0.002678,0.000431,0.028677
288000,0.0324,0.013523,0.002678,0.000431,0.031850
289000,0.0324,0.013523,0.002678,0.000431,0.030557
290000,0.0324,0.013523,0.002678,0.000431,0.031145
291000,0.0324,0.013523,0.002678,0.000431,0.030675
292000,0.0324,0.013523,0.002678,0.000431,0.031027
293000,0.0324,0.013523,0.002678,0.000431,0.031850
294000,0.0324,0.013523,0.002678,0.000431,0.031498
295000,0.0324,0.013523,0.002678,0.000431,0.029382
296000,0.0324,0.013523,0.002678,0.000431,0.028794
297000,0.0324,0.013523,0.002678,0.000431,0.030440
298000,0.0324,0.013523,0.002678,0.000431,0.029382
299000,0.0324,0.013523,0.002678,0.000431,0.030440
300000,0.0324,0.013523,0.002678,0.000431,0.027972
301000,0.0324,0.013523,0.002678,0.000431,0.028794
302000,0.0324,0.013523,0.002678,0.000431,0.030440
303000,0.0324,0.013523,0.002678,0.000431,0.031262
304000,0.0324,0.013523,0.002678,0.000431,0.028794
305000,0.0324,0.013523,0.002678,0.000431,0.027149
306000,0.0324,0.013523,0.002678,0.000431,0.028442
307000,0.0324,0.013523,0.002678,0.000431,0.028794
308000,0.0324,0.013523,0.002678,0.000431,0.027737
309000,0.0324,0.013523,0.002678,0.000431,0.028559
310000,0.0324,0.013523,0.002678,0.000431,0.026091
311000,0.0324,0.013523,0.002678,0.000431,0.026914
312000,0.0324,0.013523,0.002678,0.000431,0.027737
313000,0.0324,0.013523,0.002678,0.000431,0.027149
314000,0.0324,0.013523,0.002678,0.000431,0.027384
315000,0.0324,0.013523,0.002678,0.000431,0.027619
316000,0.0324,0.013523,0.002678,0.000431,0.026209
317000,0.0324,0.013523,0.002678,0.000431,0.026091
318000,0.0324,0.013523,0.002678,0.000431,0.025034
319000,0.0324,0.013523,0.002678,0.000431,0.028794
320000,0.0324,0.013523,0.002678,0.000431,0.026444
321000,0.0324,0.013523,0.002678,0.000431,0.027031
322000,0.0324,0.013523,0.002678,0.000431,0.024093
323000,0.0324,0.013523,0.002678,0.000431,0.027502
324000,0.0324,0.013523,0.002678,0.000431,0.027737
325000,0.0324,0.013523,0.002678,0.000431,0.025974
326000,0.0324,0.013523,0.002678,0.000431,0.021625
327000,0.0324,0.013523,0.002678,0.000431,0.026444
328000,0.0324,0.013523,0.002678,0.000431,0.024446
329000,0.0324,0.013523,0.002678,0.000431,0.024916
330000,0.0324,0.013523,0.002678,0.000431,0.021743
331000,0.0324,0.013523,0.002678,0.000431,0.025856
332000,0.0324,0.013523,0.002678,0.000431,0.023623
333000,0.0324,0.013523,0.002678,0.000431,0.023623
334000,0.0324,0.013523,0.002678,0.000431,0.020802
335000,0.0324,0.013523,0.002678,0.000431,0.025269
336000,0.0324,0.013523,0.002678,0.000431,0.023623
337000,0.0324,0.013523,0.002678,0.000431,0.022683
338000,0.0324,0.013523,0.002678,0.000431,0.025739
339000,0.0324,0.013523,0.002678,0.000431,0.021860
340000,0.0324,0.013523,0.002678,0.000431,0.022095
341000,0.0324,0.013523,0.002678,0.000431,0.025621
342000,0.0324,0.013523,0.002678,0.000431,0.023623
343000,0.0324,0.013523,0.002678,0.000431,0.022565
344000,0.0324,0.013523,0.002678,0.000431,0.022095
345000,0.0324,0.013523,0.002678,0.000431,0.022800
346000,0.0324,0.013523,0.002678,0.000431,0.020332
347000,0.0324,0.013523,0.002678,0.000431,0.021743
348000,0.0324,0.013523,0.002678,0.000431,0.021743
349000,0.0324,0.013523,0.002678,0.000431,0.022330
350000,0.0324,0.013523,0.002678,0.000431,0.020215
351000,0.0324,0.013523,0.002678,0.000431,0.020332
352000,0.0324,0.013523,0.002678,0.000431,0.022213
353000,0.0324,0.013523,0.002678,0.000431,0.021625
354000,0.0324,0.013523,0.002678,0.000431,0.021273
355000,0.0324,0.013523,0.002678,0.000431,0.018922
356000,0.0324,0.013523,0.002678,0.000431,0.018922
357000,0.0324,0.013523,0.002678,0.000431,0.020685
358000,0.0324,0.013523,0.002678,0.000431,0.019745
359000,0.0324,0.013523,0.002678,0.000431,0.017629
360000,0.0324,0.013523,0.002678,0.000431,0.019980
361000,0.0324,0.013523,0.002678,0.000431,0.019980
362000,0.0324,0.013523,0.002678,0.000431,0.018805
363000,0.0324,0.013523,0.002678,0.000431,0.019157
364000,0.0324,0.013523,0.002678,0.000431,0.019627
365000,0.0324,0.013523,0.002678,0.000431,0.020215
366000,0.0324,0.013523,0.002678,0.000431,0.018805
367000,0.0324,0.013523,0.002678,0.000431,0.018922
368000,0.0324,0.013523,0.002678,0.000431,0.017747
369000,0.0324,0.013523,0.002678,0.000431,0.020920
370000,0.0324,0.013523,0.002678,0.000431,0.020450
371000,0.0324,0.013523,0.002678,0.000431,0.018569
372000,0.0324,0.013523,0.002678,0.000431,0.017159
373000,0.0324,0.013523,0.002678,0.000431,0.020920
374000,0.0324,0.013523,0.002678,0.000431,0.019980
375000,0.0324,0.013523,0.002678,0.000431,0.015866
376000,0.0324,0.013523,0.002678,0.000431,0.016571
377000,0.0324,0.013523,0.002678,0.000431,0.018687
378000,0.0324,0.013523,0.002678,0.000431,0.018334
379000,0.0324,0.013523,0.002678,0.000431,0.017159
380000,0.0324,0.013523,0.002678,0.000431,0.016101
381000,0.0324,0.013523,0.002678,0.000431,0.017159
382000,0.0324,0.013523,0.002678,0.000431,0.016571
383000,0.0324,0.013523,0.002678,0.000431,0.017159
384000,0.0324,0.013523,0.002678,0.000431,0.014456
385000,0.0324,0.013523,0.002678,0.000431,0.017747
386000,0.0324,0.013523,0.002678,0.000431,0.014103
387000,0.0324,0.013523,0.002678,0.000431,0.015866
388000,0.0324,0.013523,0.002678,0.000431,0.013516
389000,0.0324,0.013523,0.002678,0.000431,0.017042
390000,0.0324,0.013523,0.002678,0.000431,0.014573
391000,0.0324,0.013523,0.002678,0.000431,0.014809
392000,0.0324,0.013523,0.002678,0.000431,0.014926
393000,0.0324,0.013523,0.002678,0.000431,0.014809
394000,0.0324,0.013523,0.002678,0.000431,0.014456
395000,0.0324,0.013523,0.002678,0.000431,0.014926
396000,0.0324,0.013523,0.002678,0.000431,0.017159
397000,0.0324,0.013523,0.002678,0.000431,0.014573
398000,0.0324,0.013523,0.002678,0.000431,0.015279
399000,0.0324,0.013523,0.002678,0.000431,0.014573
400000,0.0324,0.013523,0.002678,0.000431,0.016571
401000,0.0324,0.013523,0.002678,0.000431,0.013986
402000,0.0324,0.013523,0.002678,0.000431,0.014926
403000,0.0324,0.013523,0.002678,0.000431,0.013516
404000,0.0324,0.013523,0.002678,0.000431,0.014221
405000,0.0324,0.013523,0.002678,0.000431,0.013751
406000,0.0324,0.013523,0.002678,0.000431,0.015279
407000,0.0324,0.013523,0.002678,0.000431,0.013281
408000,0.0324,0.013523,0.002678,0.000431,0.013398
409000,0.0324,0.013523,0.002678,0.000431,0.012811
410000,0.0324,0.013523,0.002678,0.000431,0.013516
411000,0.0324,0.013523,0.002678,0.000431,0.012811
412000,0.0324,0.013523,0.002678,0.000431,0.013751
413000,0.0324,0.013523,0.002678,0.000431,0.013281
414000,0.0324,0.013523,0.002678,0.000431,0.013281
415000,0.0324,0.013523,0.002678,0.000431,0.011988
416000,0.0324,0.013523,0.002678,0.000431,0.012576
417000,0.0324,0.013523,0.002678,0.000431,0.011988
418000,0.0324,0.013523,0.002678,0.000431,0.012458
419000,0.0324,0.013523,0.002678,0.000431,0.010695
420000,0.0324,0.013523,0.002678,0.000431,0.012340
421000,0.0324,0.013523,0.002678,0.000431,0.012223
422000,0.0324,0.013523,0.002678,0.000431,0.010578
423000,0.0324,0.013523,0.002678,0.000431,0.012105
424000,0.0324,0.013523,0.002678,0.000431,0.010460
425000,0.0324,0.013523,0.002678,0.000431,0.011283
426000,0.0324,0.013523,0.002678,0.000431,0.009755
427000,0.0324,0.013523,0.002678,0.000431,0.011283
428000,0.0324,0.013523,0.002678,0.000431,0.009050
429000,0.0324,0.013523,0.002678,0.000431,0.009872
430000,0.0324,0.013523,0.002678,0.000431,0.010342
431000,0.0324,0.013523,0.002678,0.000431,0.011635
432000,0.0324,0.013523,0.002678,0.000431,0.009637
433000,0.0324,0.013523,0.002678,0.000431,0.009872
434000,0.0324,0.013523,0.002678,0.000431,0.010342
435000,0.0324,0.013523,0.002678,0.000431,0.010695
436000,0.0324,0.013523,0.002678,0.000431,0.010460
437000,0.0324,0.013523,0.002678,0.000431,0.008932
438000,0.0324,0.013523,0.002678,0.000431,0.010578
439000,0.0324,0.013523,0.002678,0.000431,0.010107
440000,0.0324,0.013523,0.002678,0.000431,0.010695
441000,0.0324,0.013523,0.002678,0.000431,0.008580
442000,0.0324,0.013523,0.002678,0.000431,0.009050
443000,0.0324,0.013523,0.002678,0.000431,0.008932
444000,0.0324,0.013523,0.002678,0.000431,0.009872
445000,0.0324,0.013523,0.002678,0.000431,0.009637
446000,0.0324,0.013523,0.002678,0.000431,0.009167
447000,0.0324,0.013523,0.002678,0.000431,0.008227
448000,0.0324,0.013523,0.002678,0.000431,0.009872
449000,0.0324,0.013523,0.002678,0.000431,0.009755
450000,0.0324,0.013523,0.002678,0.000431,0.008109
451000,0.0324,0.013523,0.002678,0.000431,0.009402
452000,0.0324,0.013523,0.002678,0.000431,0.009285
453000,0.0324,0.013523,0.002678,0.000431,0.009872
454000,0.0324,0.013523,0.002678,0.000431,0.008227
455000,0.0324,0.013523,0.002678,0.000431,0.008815
456000,0.0324,0.013523,0.002678,0.000431,0.009285
457000,0.0324,0.013523,0.002678,0.000431,0.009050
458000,0.0324,0.013523,0.002678,0.000431,0.007404
459000,0.0324,0.013523,0.002678,0.000431,0.009520
460000,0.0324,0.013523,0.002678,0.000431,0.008109
461000,0.0324,0.013523,0.002678,0.000431,0.009050
462000,0.0324,0.013523,0.002678,0.000431,0.009402
463000,0.0324,0.013523,0.002678,0.000431,0.008462
464000,0.0324,0.013523,0.002678,0.000431,0.008580
465000,0.0324,0.013523,0.002678,0.000431,0.008815
466000,0.0324,0.013523,0.002678,0.000431,0.006817
467000,0.0324,0.013523,0.002678,0.000431,0.007757
468000,0.0324,0.013523,0.002678,0.000431,0.007874
469000,0.0324,0.013523,0.002678,0.000431,0.006699
470000,0.0324,0.013523,0.002678,0.000431,0.008697
471000,0.0324,0.013523,0.002678,0.000431,0.007404
472000,0.0324,0.013523,0.002678,0.000431,0.006817
473000,0.0324,0.013523,0.002678,0.000431,0.007522
474000,0.0324,0.013523,0.002678,0.000431,0.007874
475000,0.0324,0.013523,0.002678,0.000431,0.006464
476000,0.0324,0.013523,0.002678,0.000431,0.007052
477000,0.0324,0.013523,0.002678,0.000431,0.007052
478000,0.0324,0.013523,0.002678,0.000431,0.008345
479000,0.0324,0.013523,0.002678,0.000431,0.006111
480000,0.0324,0.013523,0.002678,0.000431,0.007874
481000,0.0324,0.013523,0.002678,0.000431,0.007522
482000,0.0324,0.013523,0.002678,0.000431,0.006699
483000,0.0324,0.013523,0.002678,0.000431,0.006934
484000,0.0324,0.013523,0.002678,0.000431,0.007522
485000,0.0324,0.013523,0.002678,0.000431,0.007404
486000,0.0324,0.013523,0.002678,0.000431,0.005641
487000,0.0324,0.013523,0.002678,0.000431,0.005876
488000,0.0324,0.013523,0.002678,0.000431,0.007052
489000,0.0324,0.013523,0.002678,0.000431,0.006464
490000,0.0324,0.013523,0.002678,0.000431,0.005876
491000,0.0324,0.013523,0.002678,0.000431,0.006582
492000,0.0324,0.013523,0.002678,0.000431,0.006229
493000,0.0324,0.013523,0.002678,0.000431,0.006111
494000,0.0324,0.013523,0.002678,0.000431,0.006582
495000,0.0324,0.013523,0.002678,0.000431,0.005641
496000,0.0324,0.013523,0.002678,0.000431,0.008109
497000,0.0324,0.013523,0.002678,0.000431,0.006111
498000,0.0324,0.013523,0.002678,0.000431,0.006347
499000,0.0324,0.013523,0.002678,0.000431,0.005759
500000,0.0324,0.013523,0.002678,0.000431,0.005406
501000,0.0324,0.013523,0.002678,0.000431,0.005994
502000,0.0324,0.013523,0.002678,0.000431,0.005289
503000,0.0324,0.013523,0.002678,0.000431,0.005406
504000,0.0324,0.013523,0.002678,0.000431,0.004936
505000,0.0324,0.013523,0.002678,0.000431,0.006347
506000,0.0324,0.013523,0.002678,0.000431,0.004819
507000,0.0324,0.013523,0.002678,0.000431,0.006582
508000,0.0324,0.013523,0.002678,0.000431,0.005054
509000,0.0324,0.013523,0.002678,0.000431,0.005641
510000,0.0324,0.013523,0.002678,0.000431,0.005524
511000,0.0324,0.013523,0.002678,0.000431,0.005171
512000,0.0324,0.013523,0.002678,0.000431,0.005641
513000,0.0324,0.013523,0.002678,0.000431,0.006229
514000,0.0324,0.013523,0.002678,0.000431,0.004584
515000,0.0324,0.013523,0.002678,0.000431,0.005994
516000,0.0324,0.013523,0.002678,0.000431,0.004819
517000,0.0324,0.013523,0.002678,0.000431,0.005406
518000,0.0324,0.013523,0.002678,0.000431,0.005759
519000,0.0324,0.013523,0.002678,0.000431,0.004113
520000,0.0324,0.013523,0.002678,0.000431,0.003996
521000,0.0324,0.013523,0.002678,0.000431,0.005524
522000,0.0324,0.013523,0.002678,0.000431,0.004701
523000,0.0324,0.013523,0.002678,0.000431,0.003643
524000,0.0324,0.013523,0.002678,0.000431,0.004466
525000,0.0324,0.013523,0.002678,0.000431,0.006111
526000,0.0324,0.013523,0.002678,0.000431,0.003878
527000,0.0324,0.013523,0.002678,0.000431,0.003643
528000,0.0324,0.013523,0.002678,0.000431,0.005759
529000,0.0324,0.013523,0.002678,0.000431,0.004701
530000,0.0324,0.013523,0.002678,0.000431,0.004231
531000,0.0324,0.013523,0.002678,0.000431,0.004231
532000,0.0324,0.013523,0.002678,0.000431,0.005876
533000,0.0324,0.013523,0.002678,0.000431,0.003056
534000,0.0324,0.013523,0.002678,0.000431,0.003761
535000,0.0324,0.013523,0.002678,0.000431,0.005406
536000,0.0324,0.013523,0.002678,0.000431,0.004231
537000,0.0324,0.013523,0.002678,0.000431,0.004113
538000,0.0324,0.013523,0.002678,0.000431,0.003996
539000,0.0324,0.013523,0.002678,0.000431,0.004936
540000,0.0324,0.013523,0.002678,0.000431,0.003291
541000,0.0324,0.013523,0.002678,0.000431,0.003408
542000,0.0324,0.013523,0.002678,0.000431,0.005171
543000,0.0324,0.013523,0.002678,0.000431,0.003996
544000,0.0324,0.013523,0.002678,0.000431,0.003173
545000,0.0324,0.013523,0.002678,0.000431,0.003996
546000,0.0324,0.013523,0.002678,0.000431,0.004584
547000,0.0324,0.013523,0.002678,0.000431,0.003056
548000,0.0324,0.013523,0.002678,0.000431,0.003761
549000,0.0324,0.013523,0.002678,0.000431,0.004231
550000,0.0324,0.013523,0.002678,0.000431,0.004819
551000,0.0324,0.013523,0.002678,0.000431,0.003056
552000,0.0324,0.013523,0.002678,0.000431,0.003996
553000,0.0324,0.013523,0.002678,0.000431,0.005054
554000,0.0324,0.013523,0.002678,0.000431,0.003173
555000,0.0324,0.013523,0.002678,0.000431,0.003408
556000,0.0324,0.013523,0.002678,0.000431,0.004819
557000,0.0324,0.013523,0.002678,0.000431,0.003761
558000,0.0324,0.013523,0.002678,0.000431,0.002821
559000,0.0324,0.013523,0.002678,0.000431,0.003878
560000,0.0324,0.013523,0.002678,0.000431,0.004701
561000,0.0324,0.013523,0.002678,0.000431,0.003056
562000,0.0324,0.013523,0.002678,0.000431,0.004113
563000,0.0324,0.013523,0.002678,0.000431,0.004584
564000,0.0324,0.013523,0.002678,0.000431,0.002586
565000,0.0324,0.013523,0.002678,0.000431,0.002938
566000,0.0324,0.013523,0.002678,0.000431,0.003408
567000,0.0324,0.013523,0.002678,0.000431,0.002938
568000,0.0324,0.013523,0.002678,0.000431,0.002233
569000,0.0324,0.013523,0.002678,0.000431,0.002116
570000,0.0324,0.013523,0.002678,0.000431,0.003526
571000,0.0324,0.013523,0.002678,0.000431,0.001998
572000,0.0324,0.013523,0.002678,0.000431,0.002468
573000,0.0324,0.013523,0.002678,0.000431,0.002586
574000,0.0324,0.013523,0.002678,0.000431,0.003761
575000,0.0324,0.013523,0.002678,0.000431,0.001763
576000,0.0324,0.013523,0.002678,0.000431,0.002116
577000,0.0324,0.013523,0.002678,0.000431,0.002938
578000,0.0324,0.013523,0.002678,0.000431,0.002586
579000,0.0324,0.013523,0.002678,0.000431,0.001998
580000,0.0324,0.013523,0.002678,0.000431,0.001998
581000,0.0324,0.013523,0.002678,0.000431,0.002233
582000,0.0324,0.013523,0.002678,0.000431,0.001293
583000,0.0324,0.013523,0.002678,0.000431,0.002116
584000,0.0324,0.013523,0.002678,0.000431,0.002351
585000,0.0324,0.013523,0.002678,0.000431,0.001528
586000,0.0324,0.013523,0.002678,0.000431,0.001880
587000,0.0324,0.013523,0.002678,0.000431,0.002586
588000,0.0324,0.013523,0.002678,0.000431,0.001528
589000,0.0324,0.013523,0.002678,0.000431,0.001880
590000,0.0324,0.013523,0.002678,0.000431,0.001763
591000,0.0324,0.013523,0.002678,0.000431,0.002233
592000,0.0324,0.013523,0.002678,0.000431,0.001410
593000,0.0324,0.013523,0.002678,0.000431,0.002586
594000,0.0324,0.013523,0.002678,0.000431,0.001410
595000,0.0324,0.013523,0.002678,0.000431,0.001880
596000,0.0324,0.013523,0.002678,0.000431,0.002116
597000,0.0324,0.013523,0.002678,0.000431,0.002351
598000,0.0324,0.013523,0.002678,0.000431,0.001058
599000,0.0324,0.013523,0.002678,0.000431,0.002468
600000,0.0324,0.013523,0.002678,0.000431,0.001880
601000,0.0324,0.013523,0.002678,0.000431,0.001880
602000,0.0324,0.013523,0.002678,0.000431,0.001998
603000,0.0324,0.013523,0.002678,0.000431,0.001880
604000,0.0324,0.013523,0.002678,0.000431,0.001410
605000,0.0324,0.013523,0.002678,0.000431,0.002586
606000,0.0324,0.013523,0.002678,0.000431,0.001528
607000,0.0324,0.013523,0.002678,0.000431,0.001763
608000,0.0324,0.013523,0.002678,0.000431,0.002351
609000,0.0324,0.013523,0.002678,0.000431,0.001763
610000,0.0324,0.013523,0.002678,0.000431,0.001528
611000,0.0324,0.013523,0.002678,0.000431,0.002233
612000,0.0324,0.013523,0.002678,0.000431,0.001410
613000,0.0324,0.013523,0.002678,0.000431,0.002468
614000,0.0324,0.013523,0.002678,0.000431,0.001528
615000,0.0324,0.013523,0.002678,0.000431,0.002468
616000,0.0324,0.013523,0.002678,0.000431,0.001410
617000,0.0324,0.013523,0.002678,0.000431,0.002116
618000,0.0324,0.013523,0.002678,0.000431,0.001645
619000,0.0324,0.013523,0.002678,0.000431,0.001528
620000,0.0324,0.013523,0.002678,0.000431,0.002468
621000,0.0324,0.013523,0.002678,0.000431,0.001763
622000,0.0324,0.013523,0.002678,0.000431,0.002586
623000,0.0324,0.013523,0.002678,0.000431,0.001058
624000,0.0324,0.013523,0.002678,0.000431,0.001998
625000,0.0324,0.013523,0.002678,0.000431,0.000940
626000,0.0324,0.013523,0.002678,0.000431,0.001645
627000,0.0324,0.013523,0.002678,0.000431,0.001175
628000,0.0324,0.013523,0.002678,0.000431,0.001058
629000,0.0324,0.013523,0.002678,0.000431,0.001880
630000,0.0324,0.013523,0.002678,0.000431,0.001058
631000,0.0324,0.013523,0.002678,0.000431,0.001880
632000,0.0324,0.013523,0.002678,0.000431,0.001058
633000,0.0324,0.013523,0.002678,0.000431,0.001645
634000,0.0324,0.013523,0.002678,0.000431,0.001410
635000,0.0324,0.013523,0.002678,0.000431,0.001645
636000,0.0324,0.013523,0.002678,0.000431,0.001175
637000,0.0324,0.013523,0.002678,0.000431,0.001175
638000,0.0324,0.013523,0.002678,0.000431,0.001880
639000,0.0324,0.013523,0.002678,0.000431,0.000940
640000,0.0324,0.013523,0.002678,0.000431,0.001998
641000,0.0324,0.013523,0.002678,0.000431,0.000940
642000,0.0324,0.013523,0.002678,0.000431,0.001763
643000,0.0324,0.013523,0.002678,0.000431,0.001410
644000,0.0324,0.013523,0.002678,0.000431,0.001528
645000,0.0324,0.013523,0.002678,0.000431,0.001175
646000,0.0324,0.013523,0.002678,0.000431,0.001058
647000,0.0324,0.013523,0.002678,0.000431,0.001528
648000,0.0324,0.013523,0.002678,0.000431,0.000940
649000,0.0324,0.013523,0.002678,0.000431,0.001528
650000,0.0324,0.013523,0.002678,0.000431,0.001058
651000,0.0324,0.013523,0.002678,0.000431,0.001293
652000,0.0324,0.013523,0.002678,0.000431,0.001175
653000,0.0324,0.013523,0.002678,0.000431,0.001175
654000,0.0324,0.013523,0.002678,0.000431,0.001528
655000,0.0324,0.013523,0.002678,0.000431,0.001058
656000,0.0324,0.013523,0.002678,0.000431,0.001410
657000,0.0324,0.013523,0.002678,0.000431,0.000940
658000,0.0324,0.013523,0.002678,0.000431,0.001410
659000,0.0324,0.013523,0.002678,0.000431,0.001528
660000,0.0324,0.013523,0.002678,0.000431,0.001058
661000,0.0324,0.013523,0.002678,0.000431,0.000588
662000,0.0324,0.013523,0.002678,0.000431,0.000588
663000,0.0324,0.013523,0.002678,0.000431,0.000940
664000,0.0324,0.013523,0.002678,0.000431,0.000705
665000,0.0324,0.013523,0.002678,0.000431,0.000940
666000,0.0324,0.013523,0.002678,0.000431,0.000823
667000,0.0324,0.013523,0.002678,0.000431,0.000940
668000,0.0324,0.013523,0.002678,0.000431,0.000705
669000,0.0324,0.013523,0.002678,0.000431,0.000940
670000,0.0324,0.013523,0.002678,0.000431,0.000588
671000,0.0324,0.013523,0.002678,0.000431,0.000705
672000,0.0324,0.013523,0.002678,0.000431,0.000823
673000,0.0324,0.013523,0.002678,0.000431,0.000588
674000,0.0324,0.013523,0.002678,0.000431,0.000940
675000,0.0324,0.013523,0.002678,0.000431,0.000470
676000,0.0324,0.013523,0.002678,0.000431,0.000940
677000,0.0324,0.013523,0.002678,0.000431,0.000588
678000,0.0324,0.013523,0.002678,0.000431,0.001058
679000,0.0324,0.013523,0.002678,0.000431,0.000470
680000,0.0324,0.013523,0.002678,0.000431,0.000705
681000,0.0324,0.013523,0.002678,0.000431,0.000823
682000,0.0324,0.013523,0.002678,0.000431,0.000588
683000,0.0324,0.013523,0.002678,0.000431,0.000940
684000,0.0324,0.013523,0.002678,0.000431,0.000470
685000,0.0324,0.013523,0.002678,0.000431,0.000940
686000,0.0324,0.013523,0.002678,0.000431,0.000470
687000,0.0324,0.013523,0.002678,0.000431,0.000940
688000,0.0324,0.013523,0.002678,0.000431,0.000470
689000,0.0324,0.013523,0.002678,0.000431,0.000940
690000,0.0324,0.013523,0.002678,0.000431,0.000470
691000,0.0324,0.013523,0.002678,0.000431,0.000940
692000,0.0324,0.013523,0.002678,0.000431,0.000470
693000,0.0324,0.013523,0.002678,0.000431,0.000940
694000,0.0324,0.013523,0.002678,0.000431,0.000353
695000,0.0324,0.013523,0.002678,0.000431,0.000823
696000,0.0324,0.013523,0.002678,0.000431,0.000588
697000,0.0324,0.013523,0.002678,0.000431,0.000823
698000,0.0324,0.013523,0.002678,0.000431,0.000588
699000,0.0324,0.013523,0.002678,0.000431,0.000823
700000,0.0324,0.013523,0.002678,0.000431,0.000588
701000,0.0324,0.013523,0.002678,0.000431,0.000823
702000,0.0324,0.013523,0.002678,0.000431,0.000588
703000,0.0324,0.013523,0.002678,0.000431,0.000823
704000,0.0324,0.013523,0.002678,0.000431,0.000588
705000,0.0324,0.013523,0.002678,0.000431,0.000823
706000,0.0324,0.013523,0.002678,0.000431,0.000588
707000,0.0324,0.013523,0.002678,0.000431,0.000823
708000,0.0324,0.013523,0.002678,0.000431,0.000588
709000,0.0324,0.013523,0.002678,0.000431,0.000823
710000,0.0324,0.013523,0.002678,0.000431,0.000588
711000,0.0324,0.013523,0.002678,0.000431,0.000588
712000,0.0324,0.013523,0.002678,0.000431,0.000705
713000,0.0324,0.013523,0.002678,0.000431,0.000705
714000,0.0324,0.013523,0.002678,0.000431,0.000705
715000,0.0324,0.013523,0.002678,0.000431,0.000470
716000,0.0324,0.013523,0.002678,0.000431,0.000823
717000,0.0324,0.013523,0.002678,0.000431,0.000588
718000,0.0324,0.013523,0.002678,0.000431,0.000823
719000,0.0324,0.013523,0.002678,0.000431,0.000588
720000,0.0324,0.013523,0.002678,0.000431,0.000823
721000,0.0324,0.013523,0.002678,0.000431,0.000588
722000,0.0324,0.013523,0.002678,0.000431,0.000823
723000,0.0324,0.013523,0.002678,0.000431,0.000470
724000,0.0324,0.013523,0.002678,0.000431,0.000470
725000,0.0324,0.013523,0.002678,0.000431,0.000470
726000,0.0324,0.013523,0.002678,0.000431,0.000470
727000,0.0324,0.013523,0.002678,0.000431,0.000470
728000,0.0324,0.013523,0.002678,0.000431,0.000470
729000,0.0324,0.013523,0.002678,0.000431,0.000470
730000,0.0324,0.013523,0.002678,0.000431,0.000470
731000,0.0324,0.013523,0.002678,0.000431,0.000470
732000,0.0324,0.013523,0.002678,0.000431,0.000470
733000,0.0324,0.013523,0.002678,0.000431,0.000470
734000,0.0324,0.013523,0.002678,0.000431,0.000353
735000,0.0324,0.013523,0.002678,0.000431,0.000470
736000,0.0324,0.013523,0.002678,0.000431,0.000470
737000,0.0324,0.013523,0.002678,0.000431,0.000470
738000,0.0324,0.013523,0.002678,0.000431,0.000470
739000,0.0324,0.013523,0.002678,0.000431,0.000470
740000,0.0324,0.013523,0.002678,0.000431,0.000470
741000,0.0324,0.013523,0.002678,0.000431,0.000470
742000,0.0324,0.013523,0.002678,0.000431,0.000470
743000,0.0324,0.013523,0.002678,0.000431,0.000470
744000,0.0324,0.013523,0.002678,0.000431,0.000470
745000,0.0324,0.013523,0.002678,0.000431,0.000470
746000,0.0324,0.013523,0.002678,0.000431,0.000470
747000,0.0324,0.013523,0.002678,0.000431,0.000470
748000,0.0324,0.013523,0.002678,0.000431,0.000470
749000,0.0324,0.013523,0.002678,0.000431,0.000470
750000,0.0324,0.013523,0.002678,0.000431,0.000470
751000,0.0324,0.013523,0.002678,0.000431,0.000470
752000,0.0324,0.013523,0.002678,0.000431,0.000470
753000,0.0324,0.013523,0.002678,0.000431,0.000470
754000,0.0324,0.013523,0.002678,0.000431,0.000470
755000,0.0324,0.013523,0.002678,0.000431,0.000470
756000,0.0324,0.013523,0.002678,0.000431,0.000353
757000,0.0324,0.013523,0.002678,0.000431,0.000470
758000,0.0324,0.013523,0.002678,0.000431,0.000470
759000,0.0324,0.013523,0.002678,0.000431,0.000470
760000,0.0324,0.013523,0.002678,0.000431,0.000470
761000,0.0324,0.013523,0.002678,0.000431,0.000470
762000,0.0324,0.013523,0.002678,0.000431,0.000470
763000,0.0324,0.013523,0.002678,0.000431,0.000470
764000,0.0324,0.013523,0.002678,0.000431,0.000470
765000,0.0324,0.013523,0.002678,0.000431,0.000470
766000,0.0324,0.013523,0.002678,0.000431,0.000470
767000,0.0324,0.013523,0.002678,0.000431,0.000470
768000,0.0324,0.013523,0.002678,0.000431,0.000470
769000,0.0324,0.013523,0.002678,0.000431,0.000470
770000,0.0324,0.013523,0.002678,0.000431,0.000470
771000,0.0324,0.013523,0.002678,0.000431,0.000470
772000,0.0324,0.013523,0.002678,0.000431,0.000470
773000,0.0324,0.013523,0.002678,0.000431,0.000470
774000,0.0324,0.013523,0.002678,0.000431,0.000470
775000,0.0324,0.013523,0.002678,0.000431,0.000470
776000,0.0324,0.013523,0.002678,0.000431,0.000353
777000,0.0324,0.013523,0.002678,0.000431,0.000470
778000,0.0324,0.013523,0.002678,0.000431,0.000470
779000,0.0324,0.013523,0.002678,0.000431,0.000353
780000,0.0324,0.013523,0.002678,0.000431,0.000470
781000,0.0324,0.013523,0.002678,0.000431,0.000470
782000,0.0324,0.013523,0.002678,0.000431,0.000470
783000,0.0324,0.013523,0.002678,0.000431,0.000470
784000,0.0324,0.013523,0.002678,0.000431,0.000470
785000,0.0324,0.013523,0.002678,0.000431,0.000470
786000,0.0324,0.013523,0.002678,0.000431,0.000470
787000,0.0324,0.013523,0.002678,0.000431,0.000470
788000,0.0324,0.013523,0.002678,0.000431,0.000470
789000,0.0324,0.013523,0.002678,0.000431,0.000470
790000,0.0324,0.013523,0.002678,0.000431,0.000470
791000,0.0324,0.013523,0.002678,0.000431,0.000470
792000,0.0324,0.013523,0.002678,0.000431,0.000470
793000,0.0324,0.013523,0.002678,0.000431,0.000470
794000,0.0324,0.013523,0.002678,0.000431,0.000470
795000,0.0324,0.013523,0.002678,0.000431,0.000470
796000,0.0324,0.013523,0.002678,0.000431,0.000470
797000,0.0324,0.013523,0.002678,0.000431,0.000470
798000,0.0324,0.013523,0.002678,0.000431,0.000353
799000,0.0324,0.013523,0.002678,0.000431,0.000470
800000,0.0324,0.013523,0.002678,0.000431,0.000470
801000,0.0324,0.013523,0.002678,0.000431,0.000470
802000,0.0324,0.013523,0.002678,0.000431,0.000470
803000,0.0324,0.013523,0.002678,0.000431,0.000470
804000,0.0324,0.013523,0.002678,0.000431,0.000470
805000,0.0324,0.013523,0.002678,0.000431,0.000470
806000,0.0324,0.013523,0.002678,0.000431,0.000470
807000,0.0324,0.013523,0.002678,0.000431,0.000470
808000,0.0324,0.013523,0.002678,0.000431,0.000470
809000,0.0324,0.013523,0.002678,0.000431,0.000470
810000,0.0324,0.013523,0.002678,0.000431,0.000470
811000,0.0324,0.013523,0.002678,0.000431,0.000470
812000,0.0324,0.013523,0.002678,0.000431,0.000470
813000,0.0324,0.013523,0.002678,0.000431,0.000470
814000,0.0324,0.013523,0.002678,0.000431,0.000470
815000,0.0324,0.013523,0.002678,0.000431,0.000470
816000,0.0324,0.013523,0.002678,0.000431,0.000470
817000,0.0324,0.013523,0.002678,0.000431,0.000470
818000,0.0324,0.013523,0.002678,0.000431,0.000705
819000,0.0324,0.013523,0.002678,0.000431,0.000470
820000,0.0324,0.013523,0.002678,0.000431,0.000353
821000,0.0324,0.013523,0.002678,0.000431,0.000470
822000,0.0324,0.013523,0.002678,0.000431,0.000470
823000,0.0324,0.013523,0.002678,0.000431,0.000470
824000,0.0324,0.013523,0.002678,0.000431,0.000705
825000,0.0324,0.013523,0.002678,0.000431,0.000470
826000,0.0324,0.013523,0.002678,0.000431,0.000470
827000,0.0324,0.013523,0.002678,0.000431,0.000470
828000,0.0324,0.013523,0.002678,0.000431,0.000353
829000,0.0324,0.013523,0.002678,0.000431,0.000470
830000,0.0324,0.013523,0.002678,0.000431,0.000470
831000,0.0324,0.013523,0.002678,0.000431,0.000470
832000,0.0324,0.013523,0.002678,0.000431,0.000353
833000,0.0324,0.013523,0.002678,0.000431,0.000470
834000,0.0324,0.013523,0.002678,0.000431,0.000470
835000,0.0324,0.013523,0.002678,0.000431,0.000470
836000,0.0324,0.013523,0.002678,0.000431,0.000470
837000,0.0324,0.013523,0.002678,0.000431,0.000470
838000,0.0324,0.013523,0.002678,0.000431,0.000470
839000,0.0324,0.013523,0.002678,0.000431,0.000470
840000,0.0324,0.013523,0.002678,0.000431,0.000470
841000,0.0324,0.013523,0.002678,0.000431,0.000470
842000,0.0324,0.013523,0.002678,0.000431,0.000470
843000,0.0324,0.013523,0.002678,0.000431,0.000470
844000,0.0324,0.013523,0.002678,0.000431,0.000470
845000,0.0324,0.013523,0.002678,0.000431,0.000470
846000,0.0324,0.013523,0.002678,0.000431,0.000470
847000,0.0324,0.013523,0.002678,0.000431,0.000470
848000,0.0324,0.013523,0.002678,0.000431,0.000470
849000,0.0324,0.013523,0.002678,0.000431,0.000470
850000,0.0324,0.013523,0.002678,0.000431,0.000470
851000,0.0324,0.013523,0.002678,0.000431,0.000470
852000,0.0324,0.013523,0.002678,0.000431,0.000470
853000,0.0324,0.013523,0.002678,0.000431,0.000470
854000,0.0324,0.013523,0.002678,0.000431,0.000353
855000,0.0324,0.013523,0.002678,0.000431,0.000470
856000,0.0324,0.013523,0.002678,0.000431,0.000470
857000,0.0324,0.013523,0.002678,0.000431,0.000470
858000,0.0324,0.013523,0.002678,0.000431,0.000470
859000,0.0324,0.013523,0.002678,0.000431,0.000470
860000,0.0324,0.013523,0.002678,0.000431,0.000470
861000,0.0324,0.013523,0.002678,0.000431,0.000470
862000,0.0324,0.013523,0.002678,0.000431,0.000470
863000,0.0324,0.013523,0.002678,0.000431,0.000470
864000,0.0324,0.013523,0.002678,0.000431,0.000470
865000,0.0324,0.013523,0.002678,0.000431,0.000470
866000,0.0324,0.013523,0.002678,0.000431,0.000470
867000,0.0324,0.013523,0.002678,0.000431,0.000470
868000,0.0324,0.013523,0.002678,0.000431,0.000470
869000,0.0324,0.013523,0.002678,0.000431,0.000470
870000,0.0324,0.013523,0.002678,0.000431,0.000470
871000,0.0324,0.013523,0.002678,0.000431,0.000470
872000,0.0324,0.013523,0.002678,0.000431,0.000470
873000,0.0324,0.013523,0.002678,0.000431,0.000470
874000,0.0324,0.013523,0.002678,0.000431,0.000470
875000,0.0324,0.013523,0.002678,0.000431,0.000470
876000,0.0324,0.013523,0.002678,0.000431,0.000470
877000,0.0324,0.013523,0.002678,0.000431,0.000470
878000,0.0324,0.013523,0.002678,0.000431,0.000353
879000,0.0324,0.013523,0.002678,0.000431,0.000470
880000,0.0324,0.013523,0.002678,0.000431,0.000470
881000,0.0324,0.013523,0.002678,0.000431,0.000470
882000,0.0324,0.013523,0.002678,0.000431,0.000470
883000,0.0324,0.013523,0.002678,0.000431,0.000470
884000,0.0324,0.013523,0.002678,0.000431,0.000470
885000,0.0324,0.013523,0.002678,0.000431,0.000470
886000,0.0324,0.013523,0.002678,0.000431,0.000470
887000,0.0324,0.013523,0.002678,0.000431,0.000470
888000,0.0324,0.013523,0.002678,0.000431,0.000470
889000,0.0324,0.013523,0.002678,0.000431,0.000470
890000,0.0324,0.013523,0.002678,0.000431,0.000353
891000,0.0324,0.013523,0.002678,0.000431,0.000470
892000,0.0324,0.013523,0.002678,0.000431,0.000353
893000,0.0324,0.013523,0.002678,0.000431,0.000235
894000,0.0324,0.013523,0.002678,0.000431,0.000353
895000,0.0324,0.013523,0.002678,0.000431,0.000470
896000,0.0324,0.013523,0.002678,0.000431,0.000118
897000,0.0324,0.013523,0.002678,0.000431,0.000353
898000,0.0324,0.013523,0.002678,0.000431,0.000470
899000,0.0324,0.013523,0.002678,0.000431,0.000353
900000,0.0324,0.013523,0.002678,0.000431,0.000235
901000,0.0324,0.013523,0.002678,0.000431,0.000353
902000,0.0324,0.013523,0.002678,0.000431,0.000470
903000,0.0324,0.013523,0.002678,0.000431,0.000118
904000,0.0324,0.013523,0.002678,0.000431,0.000353
905000,0.0324,0.013523,0.002678,0.000431,0.000470
906000,0.0324,0.013523,0.002678,0.000431,0.000353
907000,0.0324,0.013523,0.002678,0.000431,0.000235
908000,0.0324,0.013523,0.002678,0.000431,0.000353
909000,0.0324,0.013523,0.002678,0.000431,0.000470
910000,0.0324,0.013523,0.002678,0.000431,0.000118
911000,0.0324,0.013523,0.002678,0.000431,0.000353
912000,0.0324,0.013523,0.002678,0.000431,0.000470
913000,0.0324,0.013523,0.002678,0.000431,0.000353
914000,0.0324,0.013523,0.002678,0.000431,0.000235
915000,0.0324,0.013523,0.002678,0.000431,0.000353
916000,0.0324,0.013523,0.002678,0.000431,0.000353
917000,0.0324,0.013523,0.002678,0.000431,0.000235
918000,0.0324,0.013523,0.002678,0.000431,0.000353
919000,0.0324,0.013523,0.002678,0.000431,0.000470
920000,0.0324,0.013523,0.002678,0.000431,0.000353
921000,0.0324,0.013523,0.002678,0.000431,0.000235
922000,0.0324,0.013523,0.002678,0.000431,0.000353
923000,0.0324,0.013523,0.002678,0.000431,0.000353
924000,0.0324,0.013523,0.002678,0.000431,0.000235
925000,0.0324,0.013523,0.002678,0.000431,0.000353
926000,0.0324,0.013523,0.002678,0.000431,0.000470
927000,0.0324,0.013523,0.002678,0.000431,0.000353
928000,0.0324,0.013523,0.002678,0.000431,0.000235
929000,0.0324,0.013523,0.002678,0.000431,0.000353
930000,0.0324,0.013523,0.002678,0.000431,0.000353
