Cycle,Area(mm^2),PeakDynamic(W),SubthresholdLeakage(W),GateLeakage(W),RunTimeDynamic(W)
100,0.0324,0.013523,0.002678,0.000431,0.002351
200,0.0324,0.013523,0.002678,0.000431,0.000000
300,0.0324,0.013523,0.002678,0.000431,0.000000
400,0.0324,0.013523,0.002678,0.000431,0.000000
500,0.0324,0.013523,0.002678,0.000431,0.000000
600,0.0324,0.013523,0.002678,0.000431,0.000000
700,0.0324,0.013523,0.002678,0.000431,0.000000
800,0.0324,0.013523,0.002678,0.000431,0.000000
900,0.0324,0.013523,0.002678,0.000431,0.000000
1000,0.0324,0.013523,0.002678,0.000431,0.000000
1100,0.0324,0.013523,0.002678,0.000431,0.000000
1200,0.0324,0.013523,0.002678,0.000431,0.000000
1300,0.0324,0.013523,0.002678,0.000431,0.000000
1400,0.0324,0.013523,0.002678,0.000431,0.000000
1500,0.0324,0.013523,0.002678,0.000431,0.000000
1600,0.0324,0.013523,0.002678,0.000431,0.000000
1700,0.0324,0.013523,0.002678,0.000431,0.000000
1800,0.0324,0.013523,0.002678,0.000431,0.000000
1900,0.0324,0.013523,0.002678,0.000431,0.000000
2000,0.0324,0.013523,0.002678,0.000431,0.000000
2100,0.0324,0.013523,0.002678,0.000431,0.000000
2200,0.0324,0.013523,0.002678,0.000431,0.000000
2300,0.0324,0.013523,0.002678,0.000431,0.000000
2400,0.0324,0.013523,0.002678,0.000431,0.000000
2500,0.0324,0.013523,0.002678,0.000431,0.000000
2600,0.0324,0.013523,0.002678,0.000431,0.000000
2700,0.0324,0.013523,0.002678,0.000431,0.000000
2800,0.0324,0.013523,0.002678,0.000431,0.000000
2900,0.0324,0.013523,0.002678,0.000431,0.000000
3000,0.0324,0.013523,0.002678,0.000431,0.000000
3100,0.0324,0.013523,0.002678,0.000431,0.000000
3200,0.0324,0.013523,0.002678,0.000431,0.000000
3300,0.0324,0.013523,0.002678,0.000431,0.000000
3400,0.0324,0.013523,0.002678,0.000431,0.000000
3500,0.0324,0.013523,0.002678,0.000431,0.000000
3600,0.0324,0.013523,0.002678,0.000431,0.000000
3700,0.0324,0.013523,0.002678,0.000431,0.000000
3800,0.0324,0.013523,0.002678,0.000431,0.000000
3900,0.0324,0.013523,0.002678,0.000431,0.000000
4000,0.0324,0.013523,0.002678,0.000431,0.000000
4100,0.0324,0.013523,0.002678,0.000431,0.000000
4200,0.0324,0.013523,0.002678,0.000431,0.000000
4300,0.0324,0.013523,0.002678,0.000431,0.000000
4400,0.0324,0.013523,0.002678,0.000431,0.000000
4500,0.0324,0.013523,0.002678,0.000431,0.000000
4600,0.0324,0.013523,0.002678,0.000431,0.000000
4700,0.0324,0.013523,0.002678,0.000431,0.000000
4800,0.0324,0.013523,0.002678,0.000431,0.000000
4900,0.0324,0.013523,0.002678,0.000431,0.000000
5000,0.0324,0.013523,0.002678,0.000431,0.000000
5100,0.0324,0.013523,0.002678,0.000431,0.000000
5200,0.0324,0.013523,0.002678,0.000431,0.005876
5300,0.0324,0.013523,0.002678,0.000431,0.000000
5400,0.0324,0.013523,0.002678,0.000431,0.062290
5500,0.0324,0.013523,0.002678,0.000431,0.101074
5600,0.0324,0.013523,0.002678,0.000431,0.061115
5700,0.0324,0.013523,0.002678,0.000431,0.396070
5800,0.0324,0.013523,0.002678,0.000431,0.478340
5900,0.0324,0.013523,0.002678,0.000431,0.611147
6000,0.0324,0.013523,0.002678,0.000431,0.544155
6100,0.0324,0.013523,0.002678,0.000431,0.465412
6200,0.0324,0.013523,0.002678,0.000431,0.472463
6300,0.0324,0.013523,0.002678,0.000431,0.391369
6400,0.0324,0.013523,0.002678,0.000431,0.273841
6500,0.0324,0.013523,0.002678,0.000431,0.424277
6600,0.0324,0.013523,0.002678,0.000431,0.440731
6700,0.0324,0.013523,0.002678,0.000431,0.326728
6800,0.0324,0.013523,0.002678,0.000431,0.331429
6900,0.0324,0.013523,0.002678,0.000431,0.501845
7000,0.0324,0.013523,0.002678,0.000431,0.294996
7100,0.0324,0.013523,0.002678,0.000431,0.243283
7200,0.0324,0.013523,0.002678,0.000431,0.170416
7300,0.0324,0.013523,0.002678,0.000431,0.128106
7400,0.0324,0.013523,0.002678,0.000431,0.050537
7500,0.0324,0.013523,0.002678,0.000431,0.084620
7600,0.0324,0.013523,0.002678,0.000431,0.125755
7700,0.0324,0.013523,0.002678,0.000431,0.110476
7800,0.0324,0.013523,0.002678,0.000431,0.153962
7900,0.0324,0.013523,0.002678,0.000431,0.153962
8000,0.0324,0.013523,0.002678,0.000431,0.062290
8100,0.0324,0.013523,0.002678,0.000431,0.103425
8200,0.0324,0.013523,0.002678,0.000431,0.076393
8300,0.0324,0.013523,0.002678,0.000431,0.064641
8400,0.0324,0.013523,0.002678,0.000431,0.082270
8500,0.0324,0.013523,0.002678,0.000431,0.068166
8600,0.0324,0.013523,0.002678,0.000431,0.071692
8700,0.0324,0.013523,0.002678,0.000431,0.115178
8800,0.0324,0.013523,0.002678,0.000431,0.108126
8900,0.0324,0.013523,0.002678,0.000431,0.101074
9000,0.0324,0.013523,0.002678,0.000431,0.180993
9100,0.0324,0.013523,0.002678,0.000431,0.052888
9200,0.0324,0.013523,0.002678,0.000431,0.145735
9300,0.0324,0.013523,0.002678,0.000431,0.063465
9400,0.0324,0.013523,0.002678,0.000431,0.129281
9500,0.0324,0.013523,0.002678,0.000431,0.061115
9600,0.0324,0.013523,0.002678,0.000431,0.110476
9700,0.0324,0.013523,0.002678,0.000431,0.142209
9800,0.0324,0.013523,0.002678,0.000431,0.103425
9900,0.0324,0.013523,0.002678,0.000431,0.126930
10000,0.0324,0.013523,0.002678,0.000431,0.123405
10100,0.0324,0.013523,0.002678,0.000431,0.099899
10200,0.0324,0.013523,0.002678,0.000431,0.138683
10300,0.0324,0.013523,0.002678,0.000431,0.096373
10400,0.0324,0.013523,0.002678,0.000431,0.143384
10500,0.0324,0.013523,0.002678,0.000431,0.122229
10600,0.0324,0.013523,0.002678,0.000431,0.159838
10700,0.0324,0.013523,0.002678,0.000431,0.163364
10800,0.0324,0.013523,0.002678,0.000431,0.184519
10900,0.0324,0.013523,0.002678,0.000431,0.130456
11000,0.0324,0.013523,0.002678,0.000431,0.119879
11100,0.0324,0.013523,0.002678,0.000431,0.130456
11200,0.0324,0.013523,0.002678,0.000431,0.091672
11300,0.0324,0.013523,0.002678,0.000431,0.155137
11400,0.0324,0.013523,0.002678,0.000431,0.145735
11500,0.0324,0.013523,0.002678,0.000431,0.111652
11600,0.0324,0.013523,0.002678,0.000431,0.142209
11700,0.0324,0.013523,0.002678,0.000431,0.052888
11800,0.0324,0.013523,0.002678,0.000431,0.158663
11900,0.0324,0.013523,0.002678,0.000431,0.091672
12000,0.0324,0.013523,0.002678,0.000431,0.152787
12100,0.0324,0.013523,0.002678,0.000431,0.105775
12200,0.0324,0.013523,0.002678,0.000431,0.125755
12300,0.0324,0.013523,0.002678,0.000431,0.104600
12400,0.0324,0.013523,0.002678,0.000431,0.114002
12500,0.0324,0.013523,0.002678,0.000431,0.137508
12600,0.0324,0.013523,0.002678,0.000431,0.092847
12700,0.0324,0.013523,0.002678,0.000431,0.111652
12800,0.0324,0.013523,0.002678,0.000431,0.090497
12900,0.0324,0.013523,0.002678,0.000431,0.098724
13000,0.0324,0.013523,0.002678,0.000431,0.068166
13100,0.0324,0.013523,0.002678,0.000431,0.099899
13200,0.0324,0.013523,0.002678,0.000431,0.070517
13300,0.0324,0.013523,0.002678,0.000431,0.126930
13400,0.0324,0.013523,0.002678,0.000431,0.090497
13500,0.0324,0.013523,0.002678,0.000431,0.089321
13600,0.0324,0.013523,0.002678,0.000431,0.078744
13700,0.0324,0.013523,0.002678,0.000431,0.078744
13800,0.0324,0.013523,0.002678,0.000431,0.076393
13900,0.0324,0.013523,0.002678,0.000431,0.130456
14000,0.0324,0.013523,0.002678,0.000431,0.095198
14100,0.0324,0.013523,0.002678,0.000431,0.130456
14200,0.0324,0.013523,0.002678,0.000431,0.068166
14300,0.0324,0.013523,0.002678,0.000431,0.095198
14400,0.0324,0.013523,0.002678,0.000431,0.084620
14500,0.0324,0.013523,0.002678,0.000431,0.110476
14600,0.0324,0.013523,0.002678,0.000431,0.070517
14700,0.0324,0.013523,0.002678,0.000431,0.090497
14800,0.0324,0.013523,0.002678,0.000431,0.059939
14900,0.0324,0.013523,0.002678,0.000431,0.076393
15000,0.0324,0.013523,0.002678,0.000431,0.071692
15100,0.0324,0.013523,0.002678,0.000431,0.085796
15200,0.0324,0.013523,0.002678,0.000431,0.078744
15300,0.0324,0.013523,0.002678,0.000431,0.047011
15400,0.0324,0.013523,0.002678,0.000431,0.076393
15500,0.0324,0.013523,0.002678,0.000431,0.063465
15600,0.0324,0.013523,0.002678,0.000431,0.070517
15700,0.0324,0.013523,0.002678,0.000431,0.074043
15800,0.0324,0.013523,0.002678,0.000431,0.054063
15900,0.0324,0.013523,0.002678,0.000431,0.089321
16000,0.0324,0.013523,0.002678,0.000431,0.037609
16100,0.0324,0.013523,0.002678,0.000431,0.074043
16200,0.0324,0.013523,0.002678,0.000431,0.063465
16300,0.0324,0.013523,0.002678,0.000431,0.058764
16400,0.0324,0.013523,0.002678,0.000431,0.094023
16500,0.0324,0.013523,0.002678,0.000431,0.058764
16600,0.0324,0.013523,0.002678,0.000431,0.101074
16700,0.0324,0.013523,0.002678,0.000431,0.044661
16800,0.0324,0.013523,0.002678,0.000431,0.076393
16900,0.0324,0.013523,0.002678,0.000431,0.052888
17000,0.0324,0.013523,0.002678,0.000431,0.063465
17100,0.0324,0.013523,0.002678,0.000431,0.058764
17200,0.0324,0.013523,0.002678,0.000431,0.082270
17300,0.0324,0.013523,0.002678,0.000431,0.032908
17400,0.0324,0.013523,0.002678,0.000431,0.058764
17500,0.0324,0.013523,0.002678,0.000431,0.043485
17600,0.0324,0.013523,0.002678,0.000431,0.068166
17700,0.0324,0.013523,0.002678,0.000431,0.075218
17800,0.0324,0.013523,0.002678,0.000431,0.048187
17900,0.0324,0.013523,0.002678,0.000431,0.077569
18000,0.0324,0.013523,0.002678,0.000431,0.051712
18100,0.0324,0.013523,0.002678,0.000431,0.075218
18200,0.0324,0.013523,0.002678,0.000431,0.054063
18300,0.0324,0.013523,0.002678,0.000431,0.056414
18400,0.0324,0.013523,0.002678,0.000431,0.072867
18500,0.0324,0.013523,0.002678,0.000431,0.042310
18600,0.0324,0.013523,0.002678,0.000431,0.057589
18700,0.0324,0.013523,0.002678,0.000431,0.034083
18800,0.0324,0.013523,0.002678,0.000431,0.065816
18900,0.0324,0.013523,0.002678,0.000431,0.027031
19000,0.0324,0.013523,0.002678,0.000431,0.043485
19100,0.0324,0.013523,0.002678,0.000431,0.070517
19200,0.0324,0.013523,0.002678,0.000431,0.038784
19300,0.0324,0.013523,0.002678,0.000431,0.049362
19400,0.0324,0.013523,0.002678,0.000431,0.047011
19500,0.0324,0.013523,0.002678,0.000431,0.047011
19600,0.0324,0.013523,0.002678,0.000431,0.045836
19700,0.0324,0.013523,0.002678,0.000431,0.050537
19800,0.0324,0.013523,0.002678,0.000431,0.052888
19900,0.0324,0.013523,0.002678,0.000431,0.054063
20000,0.0324,0.013523,0.002678,0.000431,0.048187
20100,0.0324,0.013523,0.002678,0.000431,0.055238
20200,0.0324,0.013523,0.002678,0.000431,0.042310
20300,0.0324,0.013523,0.002678,0.000431,0.049362
20400,0.0324,0.013523,0.002678,0.000431,0.034083
20500,0.0324,0.013523,0.002678,0.000431,0.044661
20600,0.0324,0.013523,0.002678,0.000431,0.037609
20700,0.0324,0.013523,0.002678,0.000431,0.032908
20800,0.0324,0.013523,0.002678,0.000431,0.032908
20900,0.0324,0.013523,0.002678,0.000431,0.036434
21000,0.0324,0.013523,0.002678,0.000431,0.031733
21100,0.0324,0.013523,0.002678,0.000431,0.039960
21200,0.0324,0.013523,0.002678,0.000431,0.030557
21300,0.0324,0.013523,0.002678,0.000431,0.044661
21400,0.0324,0.013523,0.002678,0.000431,0.039960
21500,0.0324,0.013523,0.002678,0.000431,0.028207
21600,0.0324,0.013523,0.002678,0.000431,0.047011
21700,0.0324,0.013523,0.002678,0.000431,0.018805
21800,0.0324,0.013523,0.002678,0.000431,0.045836
21900,0.0324,0.013523,0.002678,0.000431,0.031733
22000,0.0324,0.013523,0.002678,0.000431,0.048187
22100,0.0324,0.013523,0.002678,0.000431,0.041135
22200,0.0324,0.013523,0.002678,0.000431,0.025856
22300,0.0324,0.013523,0.002678,0.000431,0.049362
22400,0.0324,0.013523,0.002678,0.000431,0.029382
22500,0.0324,0.013523,0.002678,0.000431,0.038784
22600,0.0324,0.013523,0.002678,0.000431,0.041135
22700,0.0324,0.013523,0.002678,0.000431,0.036434
22800,0.0324,0.013523,0.002678,0.000431,0.037609
22900,0.0324,0.013523,0.002678,0.000431,0.029382
23000,0.0324,0.013523,0.002678,0.000431,0.045836
23100,0.0324,0.013523,0.002678,0.000431,0.032908
23200,0.0324,0.013523,0.002678,0.000431,0.038784
23300,0.0324,0.013523,0.002678,0.000431,0.029382
23400,0.0324,0.013523,0.002678,0.000431,0.044661
23500,0.0324,0.013523,0.002678,0.000431,0.027031
23600,0.0324,0.013523,0.002678,0.000431,0.035258
23700,0.0324,0.013523,0.002678,0.000431,0.037609
23800,0.0324,0.013523,0.002678,0.000431,0.025856
23900,0.0324,0.013523,0.002678,0.000431,0.034083
24000,0.0324,0.013523,0.002678,0.000431,0.024681
24100,0.0324,0.013523,0.002678,0.000431,0.038784
24200,0.0324,0.013523,0.002678,0.000431,0.021155
24300,0.0324,0.013523,0.002678,0.000431,0.027031
24400,0.0324,0.013523,0.002678,0.000431,0.035258
24500,0.0324,0.013523,0.002678,0.000431,0.014103
24600,0.0324,0.013523,0.002678,0.000431,0.034083
24700,0.0324,0.013523,0.002678,0.000431,0.018805
24800,0.0324,0.013523,0.002678,0.000431,0.029382
24900,0.0324,0.013523,0.002678,0.000431,0.027031
25000,0.0324,0.013523,0.002678,0.000431,0.025856
25100,0.0324,0.013523,0.002678,0.000431,0.024681
25200,0.0324,0.013523,0.002678,0.000431,0.015279
25300,0.0324,0.013523,0.002678,0.000431,0.022330
25400,0.0324,0.013523,0.002678,0.000431,0.027031
25500,0.0324,0.013523,0.002678,0.000431,0.016454
25600,0.0324,0.013523,0.002678,0.000431,0.029382
25700,0.0324,0.013523,0.002678,0.000431,0.018805
25800,0.0324,0.013523,0.002678,0.000431,0.032908
25900,0.0324,0.013523,0.002678,0.000431,0.016454
26000,0.0324,0.013523,0.002678,0.000431,0.028207
26100,0.0324,0.013523,0.002678,0.000431,0.019980
26200,0.0324,0.013523,0.002678,0.000431,0.015279
26300,0.0324,0.013523,0.002678,0.000431,0.019980
26400,0.0324,0.013523,0.002678,0.000431,0.022330
26500,0.0324,0.013523,0.002678,0.000431,0.010578
26600,0.0324,0.013523,0.002678,0.000431,0.023506
26700,0.0324,0.013523,0.002678,0.000431,0.009402
26800,0.0324,0.013523,0.002678,0.000431,0.030557
26900,0.0324,0.013523,0.002678,0.000431,0.014103
27000,0.0324,0.013523,0.002678,0.000431,0.018805
27100,0.0324,0.013523,0.002678,0.000431,0.019980
27200,0.0324,0.013523,0.002678,0.000431,0.017629
27300,0.0324,0.013523,0.002678,0.000431,0.019980
27400,0.0324,0.013523,0.002678,0.000431,0.022330
27500,0.0324,0.013523,0.002678,0.000431,0.015279
27600,0.0324,0.013523,0.002678,0.000431,0.016454
27700,0.0324,0.013523,0.002678,0.000431,0.017629
27800,0.0324,0.013523,0.002678,0.000431,0.022330
27900,0.0324,0.013523,0.002678,0.000431,0.009402
28000,0.0324,0.013523,0.002678,0.000431,0.025856
28100,0.0324,0.013523,0.002678,0.000431,0.003526
28200,0.0324,0.013523,0.002678,0.000431,0.011753
28300,0.0324,0.013523,0.002678,0.000431,0.005876
28400,0.0324,0.013523,0.002678,0.000431,0.021155
28500,0.0324,0.013523,0.002678,0.000431,0.011753
28600,0.0324,0.013523,0.002678,0.000431,0.011753
28700,0.0324,0.013523,0.002678,0.000431,0.018805
28800,0.0324,0.013523,0.002678,0.000431,0.011753
28900,0.0324,0.013523,0.002678,0.000431,0.012928
29000,0.0324,0.013523,0.002678,0.000431,0.010578
29100,0.0324,0.013523,0.002678,0.000431,0.011753
29200,0.0324,0.013523,0.002678,0.000431,0.009402
29300,0.0324,0.013523,0.002678,0.000431,0.011753
29400,0.0324,0.013523,0.002678,0.000431,0.007052
29500,0.0324,0.013523,0.002678,0.000431,0.014103
29600,0.0324,0.013523,0.002678,0.000431,0.008227
29700,0.0324,0.013523,0.002678,0.000431,0.016454
29800,0.0324,0.013523,0.002678,0.000431,0.008227
29900,0.0324,0.013523,0.002678,0.000431,0.008227
30000,0.0324,0.013523,0.002678,0.000431,0.009402
30100,0.0324,0.013523,0.002678,0.000431,0.009402
30200,0.0324,0.013523,0.002678,0.000431,0.011753
30300,0.0324,0.013523,0.002678,0.000431,0.007052
30400,0.0324,0.013523,0.002678,0.000431,0.008227
30500,0.0324,0.013523,0.002678,0.000431,0.007052
30600,0.0324,0.013523,0.002678,0.000431,0.005876
30700,0.0324,0.013523,0.002678,0.000431,0.010578
30800,0.0324,0.013523,0.002678,0.000431,0.005876
30900,0.0324,0.013523,0.002678,0.000431,0.007052
31000,0.0324,0.013523,0.002678,0.000431,0.005876
31100,0.0324,0.013523,0.002678,0.000431,0.005876
31200,0.0324,0.013523,0.002678,0.000431,0.010578
31300,0.0324,0.013523,0.002678,0.000431,0.004701
31400,0.0324,0.013523,0.002678,0.000431,0.005876
31500,0.0324,0.013523,0.002678,0.000431,0.007052
31600,0.0324,0.013523,0.002678,0.000431,0.003526
31700,0.0324,0.013523,0.002678,0.000431,0.008227
31800,0.0324,0.013523,0.002678,0.000431,0.001175
31900,0.0324,0.013523,0.002678,0.000431,0.008227
32000,0.0324,0.013523,0.002678,0.000431,0.003526
32100,0.0324,0.013523,0.002678,0.000431,0.008227
32200,0.0324,0.013523,0.002678,0.000431,0.002351
32300,0.0324,0.013523,0.002678,0.000431,0.007052
32400,0.0324,0.013523,0.002678,0.000431,0.003526
32500,0.0324,0.013523,0.002678,0.000431,0.003526
32600,0.0324,0.013523,0.002678,0.000431,0.004701
32700,0.0324,0.013523,0.002678,0.000431,0.008227
32800,0.0324,0.013523,0.002678,0.000431,0.004701
32900,0.0324,0.013523,0.002678,0.000431,0.008227
33000,0.0324,0.013523,0.002678,0.000431,0.001175
33100,0.0324,0.013523,0.002678,0.000431,0.005876
33200,0.0324,0.013523,0.002678,0.000431,0.004701
33300,0.0324,0.013523,0.002678,0.000431,0.005876
33400,0.0324,0.013523,0.002678,0.000431,0.002351
33500,0.0324,0.013523,0.002678,0.000431,0.005876
33600,0.0324,0.013523,0.002678,0.000431,0.005876
33700,0.0324,0.013523,0.002678,0.000431,0.001175
33800,0.0324,0.013523,0.002678,0.000431,0.008227
33900,0.0324,0.013523,0.002678,0.000431,0.003526
34000,0.0324,0.013523,0.002678,0.000431,0.005876
34100,0.0324,0.013523,0.002678,0.000431,0.005876
34200,0.0324,0.013523,0.002678,0.000431,0.001175
34300,0.0324,0.013523,0.002678,0.000431,0.008227
34400,0.0324,0.013523,0.002678,0.000431,0.002351
34500,0.0324,0.013523,0.002678,0.000431,0.002351
34600,0.0324,0.013523,0.002678,0.000431,0.004701
34700,0.0324,0.013523,0.002678,0.000431,0.003526
34800,0.0324,0.013523,0.002678,0.000431,0.003526
34900,0.0324,0.013523,0.002678,0.000431,0.002351
35000,0.0324,0.013523,0.002678,0.000431,0.003526
35100,0.0324,0.013523,0.002678,0.000431,0.003526
35200,0.0324,0.013523,0.002678,0.000431,0.001175
35300,0.0324,0.013523,0.002678,0.000431,0.003526
35400,0.0324,0.013523,0.002678,0.000431,0.003526
35500,0.0324,0.013523,0.002678,0.000431,0.002351
35600,0.0324,0.013523,0.002678,0.000431,0.002351
35700,0.0324,0.013523,0.002678,0.000431,0.001175
35800,0.0324,0.013523,0.002678,0.000431,0.002351
35900,0.0324,0.013523,0.002678,0.000431,0.002351
36000,0.0324,0.013523,0.002678,0.000431,0.002351
36100,0.0324,0.013523,0.002678,0.000431,0.001175
36200,0.0324,0.013523,0.002678,0.000431,0.002351
36300,0.0324,0.013523,0.002678,0.000431,0.002351
36400,0.0324,0.013523,0.002678,0.000431,0.001175
36500,0.0324,0.013523,0.002678,0.000431,0.002351
36600,0.0324,0.013523,0.002678,0.000431,0.001175
36700,0.0324,0.013523,0.002678,0.000431,0.002351
36800,0.0324,0.013523,0.002678,0.000431,0.001175
36900,0.0324,0.013523,0.002678,0.000431,0.001175
37000,0.0324,0.013523,0.002678,0.000431,0.002351
37100,0.0324,0.013523,0.002678,0.000431,0.001175
37200,0.0324,0.013523,0.002678,0.000431,0.003526
37300,0.0324,0.013523,0.002678,0.000431,0.001175
37400,0.0324,0.013523,0.002678,0.000431,0.001175
37500,0.0324,0.013523,0.002678,0.000431,0.002351
37600,0.0324,0.013523,0.002678,0.000431,0.001175
37700,0.0324,0.013523,0.002678,0.000431,0.000000
37800,0.0324,0.013523,0.002678,0.000431,0.002351
37900,0.0324,0.013523,0.002678,0.000431,0.002351
38000,0.0324,0.013523,0.002678,0.000431,0.001175
38100,0.0324,0.013523,0.002678,0.000431,0.001175
38200,0.0324,0.013523,0.002678,0.000431,0.002351
38300,0.0324,0.013523,0.002678,0.000431,0.001175
38400,0.0324,0.013523,0.002678,0.000431,0.004701
38500,0.0324,0.013523,0.002678,0.000431,0.001175
38600,0.0324,0.013523,0.002678,0.000431,0.003526
38700,0.0324,0.013523,0.002678,0.000431,0.001175
38800,0.0324,0.013523,0.002678,0.000431,0.002351
38900,0.0324,0.013523,0.002678,0.000431,0.002351
39000,0.0324,0.013523,0.002678,0.000431,0.003526
39100,0.0324,0.013523,0.002678,0.000431,0.001175
39200,0.0324,0.013523,0.002678,0.000431,0.002351
39300,0.0324,0.013523,0.002678,0.000431,0.000000
39400,0.0324,0.013523,0.002678,0.000431,0.002351
39500,0.0324,0.013523,0.002678,0.000431,0.001175
39600,0.0324,0.013523,0.002678,0.000431,0.000000
39700,0.0324,0.013523,0.002678,0.000431,0.000000
39800,0.0324,0.013523,0.002678,0.000431,0.000000
39900,0.0324,0.013523,0.002678,0.000431,0.002351
40000,0.0324,0.013523,0.002678,0.000431,0.001175
40100,0.0324,0.013523,0.002678,0.000431,0.001175
40200,0.0324,0.013523,0.002678,0.000431,0.002351
40300,0.0324,0.013523,0.002678,0.000431,0.000000
40400,0.0324,0.013523,0.002678,0.000431,0.002351
40500,0.0324,0.013523,0.002678,0.000431,0.001175
40600,0.0324,0.013523,0.002678,0.000431,0.000000
40700,0.0324,0.013523,0.002678,0.000431,0.001175
40800,0.0324,0.013523,0.002678,0.000431,0.001175
40900,0.0324,0.013523,0.002678,0.000431,0.002351
41000,0.0324,0.013523,0.002678,0.000431,0.001175
41100,0.0324,0.013523,0.002678,0.000431,0.002351
41200,0.0324,0.013523,0.002678,0.000431,0.000000
41300,0.0324,0.013523,0.002678,0.000431,0.000000
41400,0.0324,0.013523,0.002678,0.000431,0.001175
41500,0.0324,0.013523,0.002678,0.000431,0.002351
41600,0.0324,0.013523,0.002678,0.000431,0.001175
41700,0.0324,0.013523,0.002678,0.000431,0.002351
41800,0.0324,0.013523,0.002678,0.000431,0.001175
41900,0.0324,0.013523,0.002678,0.000431,0.002351
42000,0.0324,0.013523,0.002678,0.000431,0.001175
42100,0.0324,0.013523,0.002678,0.000431,0.002351
42200,0.0324,0.013523,0.002678,0.000431,0.001175
42300,0.0324,0.013523,0.002678,0.000431,0.002351
42400,0.0324,0.013523,0.002678,0.000431,0.001175
42500,0.0324,0.013523,0.002678,0.000431,0.003526
42600,0.0324,0.013523,0.002678,0.000431,0.000000
42700,0.0324,0.013523,0.002678,0.000431,0.002351
42800,0.0324,0.013523,0.002678,0.000431,0.000000
42900,0.0324,0.013523,0.002678,0.000431,0.000000
43000,0.0324,0.013523,0.002678,0.000431,0.001175
43100,0.0324,0.013523,0.002678,0.000431,0.000000
43200,0.0324,0.013523,0.002678,0.000431,0.001175
43300,0.0324,0.013523,0.002678,0.000431,0.001175
43400,0.0324,0.013523,0.002678,0.000431,0.000000
43500,0.0324,0.013523,0.002678,0.000431,0.000000
43600,0.0324,0.013523,0.002678,0.000431,0.002351
43700,0.0324,0.013523,0.002678,0.000431,0.000000
43800,0.0324,0.013523,0.002678,0.000431,0.001175
43900,0.0324,0.013523,0.002678,0.000431,0.000000
44000,0.0324,0.013523,0.002678,0.000431,0.001175
44100,0.0324,0.013523,0.002678,0.000431,0.000000
44200,0.0324,0.013523,0.002678,0.000431,0.001175
44300,0.0324,0.013523,0.002678,0.000431,0.000000
44400,0.0324,0.013523,0.002678,0.000431,0.000000
44500,0.0324,0.013523,0.002678,0.000431,0.001175
44600,0.0324,0.013523,0.002678,0.000431,0.000000
44700,0.0324,0.013523,0.002678,0.000431,0.001175
44800,0.0324,0.013523,0.002678,0.000431,0.001175
44900,0.0324,0.013523,0.002678,0.000431,0.000000
45000,0.0324,0.013523,0.002678,0.000431,0.001175
45100,0.0324,0.013523,0.002678,0.000431,0.000000
45200,0.0324,0.013523,0.002678,0.000431,0.001175
45300,0.0324,0.013523,0.002678,0.000431,0.000000
45400,0.0324,0.013523,0.002678,0.000431,0.001175
45500,0.0324,0.013523,0.002678,0.000431,0.001175
45600,0.0324,0.013523,0.002678,0.000431,0.000000
45700,0.0324,0.013523,0.002678,0.000431,0.001175
45800,0.0324,0.013523,0.002678,0.000431,0.000000
45900,0.0324,0.013523,0.002678,0.000431,0.001175
46000,0.0324,0.013523,0.002678,0.000431,0.000000
