Cycle,Area(mm^2),PeakDynamic(W),SubthresholdLeakage(W),GateLeakage(W),RunTimeDynamic(W)
1000,0.0324,0.013523,0.002678,0.000431,0.000000
2000,0.0324,0.013523,0.002678,0.000431,0.000000
3000,0.0324,0.013523,0.002678,0.000431,0.000000
4000,0.0324,0.013523,0.002678,0.000431,0.000000
5000,0.0324,0.013523,0.002678,0.000431,0.000000
6000,0.0324,0.013523,0.002678,0.000431,0.616435
7000,0.0324,0.013523,0.002678,0.000431,0.939873
8000,0.0324,0.013523,0.002678,0.000431,0.347648
9000,0.0324,0.013523,0.002678,0.000431,1.021790
10000,0.0324,0.013523,0.002678,0.000431,1.302212
11000,0.0324,0.013523,0.002678,0.000431,1.023200
12000,0.0324,0.013523,0.002678,0.000431,0.977012
13000,0.0324,0.013523,0.002678,0.000431,1.288697
14000,0.0324,0.013523,0.002678,0.000431,1.387773
15000,0.0324,0.013523,0.002678,0.000431,1.516231
16000,0.0324,0.013523,0.002678,0.000431,1.551137
17000,0.0324,0.013523,0.002678,0.000431,1.449475
18000,0.0324,0.013523,0.002678,0.000431,1.366618
19000,0.0324,0.013523,0.002678,0.000431,1.359919
20000,0.0324,0.013523,0.002678,0.000431,1.407988
21000,0.0324,0.013523,0.002678,0.000431,1.342172
22000,0.0324,0.013523,0.002678,0.000431,1.315493
23000,0.0324,0.013523,0.002678,0.000431,1.265779
24000,0.0324,0.013523,0.002678,0.000431,1.250500
25000,0.0324,0.013523,0.002678,0.000431,1.178455
26000,0.0324,0.013523,0.002678,0.000431,1.179160
27000,0.0324,0.013523,0.002678,0.000431,1.132619
28000,0.0324,0.013523,0.002678,0.000431,0.989940
29000,0.0324,0.013523,0.002678,0.000431,0.889218
30000,0.0324,0.013523,0.002678,0.000431,0.900618
31000,0.0324,0.013523,0.002678,0.000431,0.819406
32000,0.0324,0.013523,0.002678,0.000431,0.823755
33000,0.0324,0.013523,0.002678,0.000431,0.798604
34000,0.0324,0.013523,0.002678,0.000431,0.727382
35000,0.0324,0.013523,0.002678,0.000431,0.725972
36000,0.0324,0.013523,0.002678,0.000431,0.670851
37000,0.0324,0.013523,0.002678,0.000431,0.559082
38000,0.0324,0.013523,0.002678,0.000431,0.494794
39000,0.0324,0.013523,0.002678,0.000431,0.457890
40000,0.0324,0.013523,0.002678,0.000431,0.462591
41000,0.0324,0.013523,0.002678,0.000431,0.429801
42000,0.0324,0.013523,0.002678,0.000431,0.410879
43000,0.0324,0.013523,0.002678,0.000431,0.393484
44000,0.0324,0.013523,0.002678,0.000431,0.397010
45000,0.0324,0.013523,0.002678,0.000431,0.348001
46000,0.0324,0.013523,0.002678,0.000431,0.335896
47000,0.0324,0.013523,0.002678,0.000431,0.335425
48000,0.0324,0.013523,0.002678,0.000431,0.298757
49000,0.0324,0.013523,0.002678,0.000431,0.298757
50000,0.0324,0.013523,0.002678,0.000431,0.293938
51000,0.0324,0.013523,0.002678,0.000431,0.234939
52000,0.0324,0.013523,0.002678,0.000431,0.243753
53000,0.0324,0.013523,0.002678,0.000431,0.233881
54000,0.0324,0.013523,0.002678,0.000431,0.214019
55000,0.0324,0.013523,0.002678,0.000431,0.184049
56000,0.0324,0.013523,0.002678,0.000431,0.194392
57000,0.0324,0.013523,0.002678,0.000431,0.209200
58000,0.0324,0.013523,0.002678,0.000431,0.198623
59000,0.0324,0.013523,0.002678,0.000431,0.169006
60000,0.0324,0.013523,0.002678,0.000431,0.200268
61000,0.0324,0.013523,0.002678,0.000431,0.180758
62000,0.0324,0.013523,0.002678,0.000431,0.183344
63000,0.0324,0.013523,0.002678,0.000431,0.161014
64000,0.0324,0.013523,0.002678,0.000431,0.155137
65000,0.0324,0.013523,0.002678,0.000431,0.171004
66000,0.0324,0.013523,0.002678,0.000431,0.154315
67000,0.0324,0.013523,0.002678,0.000431,0.165597
68000,0.0324,0.013523,0.002678,0.000431,0.148673
69000,0.0324,0.013523,0.002678,0.000431,0.154315
70000,0.0324,0.013523,0.002678,0.000431,0.141504
71000,0.0324,0.013523,0.002678,0.000431,0.146440
72000,0.0324,0.013523,0.002678,0.000431,0.143619
73000,0.0324,0.013523,0.002678,0.000431,0.141857
74000,0.0324,0.013523,0.002678,0.000431,0.140094
75000,0.0324,0.013523,0.002678,0.000431,0.141034
76000,0.0324,0.013523,0.002678,0.000431,0.137390
77000,0.0324,0.013523,0.002678,0.000431,0.135040
78000,0.0324,0.013523,0.002678,0.000431,0.137273
79000,0.0324,0.013523,0.002678,0.000431,0.146793
80000,0.0324,0.013523,0.002678,0.000431,0.123405
81000,0.0324,0.013523,0.002678,0.000431,0.126343
82000,0.0324,0.013523,0.002678,0.000431,0.126695
83000,0.0324,0.013523,0.002678,0.000431,0.141151
84000,0.0324,0.013523,0.002678,0.000431,0.126225
85000,0.0324,0.013523,0.002678,0.000431,0.126225
86000,0.0324,0.013523,0.002678,0.000431,0.114355
87000,0.0324,0.013523,0.002678,0.000431,0.122347
88000,0.0324,0.013523,0.002678,0.000431,0.128341
89000,0.0324,0.013523,0.002678,0.000431,0.122112
90000,0.0324,0.013523,0.002678,0.000431,0.111652
91000,0.0324,0.013523,0.002678,0.000431,0.113650
92000,0.0324,0.013523,0.002678,0.000431,0.119996
93000,0.0324,0.013523,0.002678,0.000431,0.112945
94000,0.0324,0.013523,0.002678,0.000431,0.116823
95000,0.0324,0.013523,0.002678,0.000431,0.108596
96000,0.0324,0.013523,0.002678,0.000431,0.110359
97000,0.0324,0.013523,0.002678,0.000431,0.105070
98000,0.0324,0.013523,0.002678,0.000431,0.111064
99000,0.0324,0.013523,0.002678,0.000431,0.113415
100000,0.0324,0.013523,0.002678,0.000431,0.106716
101000,0.0324,0.013523,0.002678,0.000431,0.102602
102000,0.0324,0.013523,0.002678,0.000431,0.108831
103000,0.0324,0.013523,0.002678,0.000431,0.101309
104000,0.0324,0.013523,0.002678,0.000431,0.107773
105000,0.0324,0.013523,0.002678,0.000431,0.101544
106000,0.0324,0.013523,0.002678,0.000431,0.099781
107000,0.0324,0.013523,0.002678,0.000431,0.099429
108000,0.0324,0.013523,0.002678,0.000431,0.094610
109000,0.0324,0.013523,0.002678,0.000431,0.100839
110000,0.0324,0.013523,0.002678,0.000431,0.098489
111000,0.0324,0.013523,0.002678,0.000431,0.096373
112000,0.0324,0.013523,0.002678,0.000431,0.094023
113000,0.0324,0.013523,0.002678,0.000431,0.088616
114000,0.0324,0.013523,0.002678,0.000431,0.095668
115000,0.0324,0.013523,0.002678,0.000431,0.098606
116000,0.0324,0.013523,0.002678,0.000431,0.084268
117000,0.0324,0.013523,0.002678,0.000431,0.090614
118000,0.0324,0.013523,0.002678,0.000431,0.086971
119000,0.0324,0.013523,0.002678,0.000431,0.098136
120000,0.0324,0.013523,0.002678,0.000431,0.087441
121000,0.0324,0.013523,0.002678,0.000431,0.081447
122000,0.0324,0.013523,0.002678,0.000431,0.089086
123000,0.0324,0.013523,0.002678,0.000431,0.089086
124000,0.0324,0.013523,0.002678,0.000431,0.086383
125000,0.0324,0.013523,0.002678,0.000431,0.086736
126000,0.0324,0.013523,0.002678,0.000431,0.081330
127000,0.0324,0.013523,0.002678,0.000431,0.078509
128000,0.0324,0.013523,0.002678,0.000431,0.086031
129000,0.0324,0.013523,0.002678,0.000431,0.088029
130000,0.0324,0.013523,0.002678,0.000431,0.077098
131000,0.0324,0.013523,0.002678,0.000431,0.079449
132000,0.0324,0.013523,0.002678,0.000431,0.079449
133000,0.0324,0.013523,0.002678,0.000431,0.078274
134000,0.0324,0.013523,0.002678,0.000431,0.078039
135000,0.0324,0.013523,0.002678,0.000431,0.079684
136000,0.0324,0.013523,0.002678,0.000431,0.075218
137000,0.0324,0.013523,0.002678,0.000431,0.074395
138000,0.0324,0.013523,0.002678,0.000431,0.078391
139000,0.0324,0.013523,0.002678,0.000431,0.071105
140000,0.0324,0.013523,0.002678,0.000431,0.074513
141000,0.0324,0.013523,0.002678,0.000431,0.079332
142000,0.0324,0.013523,0.002678,0.000431,0.073455
143000,0.0324,0.013523,0.002678,0.000431,0.071575
144000,0.0324,0.013523,0.002678,0.000431,0.071340
145000,0.0324,0.013523,0.002678,0.000431,0.075336
146000,0.0324,0.013523,0.002678,0.000431,0.070399
147000,0.0324,0.013523,0.002678,0.000431,0.074043
148000,0.0324,0.013523,0.002678,0.000431,0.071575
149000,0.0324,0.013523,0.002678,0.000431,0.066051
150000,0.0324,0.013523,0.002678,0.000431,0.069577
151000,0.0324,0.013523,0.002678,0.000431,0.073455
152000,0.0324,0.013523,0.002678,0.000431,0.071340
153000,0.0324,0.013523,0.002678,0.000431,0.068401
154000,0.0324,0.013523,0.002678,0.000431,0.064288
155000,0.0324,0.013523,0.002678,0.000431,0.070634
156000,0.0324,0.013523,0.002678,0.000431,0.069577
157000,0.0324,0.013523,0.002678,0.000431,0.067814
158000,0.0324,0.013523,0.002678,0.000431,0.066756
159000,0.0324,0.013523,0.002678,0.000431,0.064170
160000,0.0324,0.013523,0.002678,0.000431,0.067814
161000,0.0324,0.013523,0.002678,0.000431,0.065463
162000,0.0324,0.013523,0.002678,0.000431,0.067344
163000,0.0324,0.013523,0.002678,0.000431,0.066168
164000,0.0324,0.013523,0.002678,0.000431,0.062643
165000,0.0324,0.013523,0.002678,0.000431,0.065698
166000,0.0324,0.013523,0.002678,0.000431,0.064405
167000,0.0324,0.013523,0.002678,0.000431,0.064876
168000,0.0324,0.013523,0.002678,0.000431,0.063818
169000,0.0324,0.013523,0.002678,0.000431,0.062407
170000,0.0324,0.013523,0.002678,0.000431,0.062643
171000,0.0324,0.013523,0.002678,0.000431,0.063700
172000,0.0324,0.013523,0.002678,0.000431,0.061937
173000,0.0324,0.013523,0.002678,0.000431,0.059469
174000,0.0324,0.013523,0.002678,0.000431,0.061585
175000,0.0324,0.013523,0.002678,0.000431,0.062290
176000,0.0324,0.013523,0.002678,0.000431,0.061937
177000,0.0324,0.013523,0.002678,0.000431,0.058882
178000,0.0324,0.013523,0.002678,0.000431,0.059587
179000,0.0324,0.013523,0.002678,0.000431,0.059469
180000,0.0324,0.013523,0.002678,0.000431,0.059469
181000,0.0324,0.013523,0.002678,0.000431,0.063348
182000,0.0324,0.013523,0.002678,0.000431,0.055003
183000,0.0324,0.013523,0.002678,0.000431,0.052653
184000,0.0324,0.013523,0.002678,0.000431,0.061232
185000,0.0324,0.013523,0.002678,0.000431,0.058294
186000,0.0324,0.013523,0.002678,0.000431,0.058059
187000,0.0324,0.013523,0.002678,0.000431,0.054298
188000,0.0324,0.013523,0.002678,0.000431,0.057236
189000,0.0324,0.013523,0.002678,0.000431,0.054886
190000,0.0324,0.013523,0.002678,0.000431,0.056766
191000,0.0324,0.013523,0.002678,0.000431,0.055003
192000,0.0324,0.013523,0.002678,0.000431,0.055591
193000,0.0324,0.013523,0.002678,0.000431,0.052535
194000,0.0324,0.013523,0.002678,0.000431,0.056414
195000,0.0324,0.013523,0.002678,0.000431,0.051125
196000,0.0324,0.013523,0.002678,0.000431,0.056649
197000,0.0324,0.013523,0.002678,0.000431,0.052300
198000,0.0324,0.013523,0.002678,0.000431,0.051830
199000,0.0324,0.013523,0.002678,0.000431,0.054533
200000,0.0324,0.013523,0.002678,0.000431,0.055003
201000,0.0324,0.013523,0.002678,0.000431,0.050067
202000,0.0324,0.013523,0.002678,0.000431,0.049714
203000,0.0324,0.013523,0.002678,0.000431,0.051595
204000,0.0324,0.013523,0.002678,0.000431,0.052770
205000,0.0324,0.013523,0.002678,0.000431,0.052300
206000,0.0324,0.013523,0.002678,0.000431,0.047716
207000,0.0324,0.013523,0.002678,0.000431,0.049479
208000,0.0324,0.013523,0.002678,0.000431,0.048892
209000,0.0324,0.013523,0.002678,0.000431,0.051477
210000,0.0324,0.013523,0.002678,0.000431,0.047246
211000,0.0324,0.013523,0.002678,0.000431,0.050537
212000,0.0324,0.013523,0.002678,0.000431,0.045836
213000,0.0324,0.013523,0.002678,0.000431,0.048657
214000,0.0324,0.013523,0.002678,0.000431,0.047246
215000,0.0324,0.013523,0.002678,0.000431,0.048304
216000,0.0324,0.013523,0.002678,0.000431,0.043956
217000,0.0324,0.013523,0.002678,0.000431,0.043368
218000,0.0324,0.013523,0.002678,0.000431,0.046071
219000,0.0324,0.013523,0.002678,0.000431,0.045601
220000,0.0324,0.013523,0.002678,0.000431,0.042898
221000,0.0324,0.013523,0.002678,0.000431,0.044426
222000,0.0324,0.013523,0.002678,0.000431,0.042428
223000,0.0324,0.013523,0.002678,0.000431,0.040547
224000,0.0324,0.013523,0.002678,0.000431,0.046659
225000,0.0324,0.013523,0.002678,0.000431,0.043956
226000,0.0324,0.013523,0.002678,0.000431,0.040900
227000,0.0324,0.013523,0.002678,0.000431,0.039489
228000,0.0324,0.013523,0.002678,0.000431,0.041017
229000,0.0324,0.013523,0.002678,0.000431,0.043368
230000,0.0324,0.013523,0.002678,0.000431,0.043485
231000,0.0324,0.013523,0.002678,0.000431,0.037609
232000,0.0324,0.013523,0.002678,0.000431,0.038314
233000,0.0324,0.013523,0.002678,0.000431,0.041252
234000,0.0324,0.013523,0.002678,0.000431,0.039842
235000,0.0324,0.013523,0.002678,0.000431,0.038432
236000,0.0324,0.013523,0.002678,0.000431,0.040312
237000,0.0324,0.013523,0.002678,0.000431,0.039372
238000,0.0324,0.013523,0.002678,0.000431,0.041135
239000,0.0324,0.013523,0.002678,0.000431,0.038549
240000,0.0324,0.013523,0.002678,0.000431,0.035258
241000,0.0324,0.013523,0.002678,0.000431,0.040665
242000,0.0324,0.013523,0.002678,0.000431,0.038549
243000,0.0324,0.013523,0.002678,0.000431,0.038314
244000,0.0324,0.013523,0.002678,0.000431,0.034788
245000,0.0324,0.013523,0.002678,0.000431,0.034788
246000,0.0324,0.013523,0.002678,0.000431,0.040665
247000,0.0324,0.013523,0.002678,0.000431,0.038549
248000,0.0324,0.013523,0.002678,0.000431,0.035376
249000,0.0324,0.013523,0.002678,0.000431,0.034788
250000,0.0324,0.013523,0.002678,0.000431,0.039137
251000,0.0324,0.013523,0.002678,0.000431,0.035729
252000,0.0324,0.013523,0.002678,0.000431,0.037844
253000,0.0324,0.013523,0.002678,0.000431,0.036316
254000,0.0324,0.013523,0.002678,0.000431,0.035611
255000,0.0324,0.013523,0.002678,0.000431,0.037139
256000,0.0324,0.013523,0.002678,0.000431,0.033613
257000,0.0324,0.013523,0.002678,0.000431,0.037727
258000,0.0324,0.013523,0.002678,0.000431,0.036786
259000,0.0324,0.013523,0.002678,0.000431,0.035376
260000,0.0324,0.013523,0.002678,0.000431,0.036551
261000,0.0324,0.013523,0.002678,0.000431,0.033966
262000,0.0324,0.013523,0.002678,0.000431,0.032908
263000,0.0324,0.013523,0.002678,0.000431,0.037844
264000,0.0324,0.013523,0.002678,0.000431,0.033731
265000,0.0324,0.013523,0.002678,0.000431,0.034553
266000,0.0324,0.013523,0.002678,0.000431,0.032203
267000,0.0324,0.013523,0.002678,0.000431,0.034788
268000,0.0324,0.013523,0.002678,0.000431,0.035494
269000,0.0324,0.013523,0.002678,0.000431,0.033496
270000,0.0324,0.013523,0.002678,0.000431,0.032438
271000,0.0324,0.013523,0.002678,0.000431,0.036434
272000,0.0324,0.013523,0.002678,0.000431,0.032555
273000,0.0324,0.013523,0.002678,0.000431,0.029970
274000,0.0324,0.013523,0.002678,0.000431,0.035376
275000,0.0324,0.013523,0.002678,0.000431,0.033260
276000,0.0324,0.013523,0.002678,0.000431,0.034201
277000,0.0324,0.013523,0.002678,0.000431,0.031262
278000,0.0324,0.013523,0.002678,0.000431,0.031615
279000,0.0324,0.013523,0.002678,0.000431,0.032320
280000,0.0324,0.013523,0.002678,0.000431,0.034083
281000,0.0324,0.013523,0.002678,0.000431,0.031850
282000,0.0324,0.013523,0.002678,0.000431,0.030675
283000,0.0324,0.013523,0.002678,0.000431,0.031262
284000,0.0324,0.013523,0.002678,0.000431,0.031615
285000,0.0324,0.013523,0.002678,0.000431,0.033143
286000,0.0324,0.013523,0.002678,0.000431,0.029265
287000,0.0324,0.013523,0.002678,0.000431,0.028442
288000,0.0324,0.013523,0.002678,0.000431,0.031380
289000,0.0324,0.013523,0.002678,0.000431,0.029852
290000,0.0324,0.013523,0.002678,0.000431,0.027972
291000,0.0324,0.013523,0.002678,0.000431,0.031968
292000,0.0324,0.013523,0.002678,0.000431,0.028912
293000,0.0324,0.013523,0.002678,0.000431,0.030440
294000,0.0324,0.013523,0.002678,0.000431,0.027972
295000,0.0324,0.013523,0.002678,0.000431,0.029382
296000,0.0324,0.013523,0.002678,0.000431,0.029500
297000,0.0324,0.013523,0.002678,0.000431,0.028442
298000,0.0324,0.013523,0.002678,0.000431,0.028559
299000,0.0324,0.013523,0.002678,0.000431,0.027149
300000,0.0324,0.013523,0.002678,0.000431,0.027972
301000,0.0324,0.013523,0.002678,0.000431,0.030087
302000,0.0324,0.013523,0.002678,0.000431,0.027619
303000,0.0324,0.013523,0.002678,0.000431,0.028677
304000,0.0324,0.013523,0.002678,0.000431,0.025739
305000,0.0324,0.013523,0.002678,0.000431,0.028794
306000,0.0324,0.013523,0.002678,0.000431,0.026209
307000,0.0324,0.013523,0.002678,0.000431,0.026561
308000,0.0324,0.013523,0.002678,0.000431,0.028207
309000,0.0324,0.013523,0.002678,0.000431,0.027031
310000,0.0324,0.013523,0.002678,0.000431,0.025269
311000,0.0324,0.013523,0.002678,0.000431,0.024916
312000,0.0324,0.013523,0.002678,0.000431,0.025269
313000,0.0324,0.013523,0.002678,0.000431,0.027502
314000,0.0324,0.013523,0.002678,0.000431,0.026914
315000,0.0324,0.013523,0.002678,0.000431,0.025504
316000,0.0324,0.013523,0.002678,0.000431,0.024328
317000,0.0324,0.013523,0.002678,0.000431,0.023271
318000,0.0324,0.013523,0.002678,0.000431,0.026796
319000,0.0324,0.013523,0.002678,0.000431,0.026209
320000,0.0324,0.013523,0.002678,0.000431,0.024916
321000,0.0324,0.013523,0.002678,0.000431,0.024681
322000,0.0324,0.013523,0.002678,0.000431,0.026796
323000,0.0324,0.013523,0.002678,0.000431,0.023388
324000,0.0324,0.013523,0.002678,0.000431,0.024446
325000,0.0324,0.013523,0.002678,0.000431,0.024093
326000,0.0324,0.013523,0.002678,0.000431,0.025386
327000,0.0324,0.013523,0.002678,0.000431,0.023623
328000,0.0324,0.013523,0.002678,0.000431,0.023741
329000,0.0324,0.013523,0.002678,0.000431,0.024211
330000,0.0324,0.013523,0.002678,0.000431,0.023858
331000,0.0324,0.013523,0.002678,0.000431,0.020802
332000,0.0324,0.013523,0.002678,0.000431,0.024211
333000,0.0324,0.013523,0.002678,0.000431,0.022800
334000,0.0324,0.013523,0.002678,0.000431,0.022448
335000,0.0324,0.013523,0.002678,0.000431,0.022918
336000,0.0324,0.013523,0.002678,0.000431,0.022918
337000,0.0324,0.013523,0.002678,0.000431,0.023388
338000,0.0324,0.013523,0.002678,0.000431,0.021625
339000,0.0324,0.013523,0.002678,0.000431,0.022095
340000,0.0324,0.013523,0.002678,0.000431,0.024563
341000,0.0324,0.013523,0.002678,0.000431,0.021155
342000,0.0324,0.013523,0.002678,0.000431,0.022448
343000,0.0324,0.013523,0.002678,0.000431,0.021038
344000,0.0324,0.013523,0.002678,0.000431,0.022330
345000,0.0324,0.013523,0.002678,0.000431,0.021978
346000,0.0324,0.013523,0.002678,0.000431,0.020450
347000,0.0324,0.013523,0.002678,0.000431,0.021038
348000,0.0324,0.013523,0.002678,0.000431,0.021273
349000,0.0324,0.013523,0.002678,0.000431,0.019627
350000,0.0324,0.013523,0.002678,0.000431,0.020802
351000,0.0324,0.013523,0.002678,0.000431,0.021273
352000,0.0324,0.013523,0.002678,0.000431,0.020332
353000,0.0324,0.013523,0.002678,0.000431,0.021390
354000,0.0324,0.013523,0.002678,0.000431,0.019627
355000,0.0324,0.013523,0.002678,0.000431,0.019157
356000,0.0324,0.013523,0.002678,0.000431,0.019510
357000,0.0324,0.013523,0.002678,0.000431,0.018569
358000,0.0324,0.013523,0.002678,0.000431,0.019627
359000,0.0324,0.013523,0.002678,0.000431,0.019275
360000,0.0324,0.013523,0.002678,0.000431,0.016571
361000,0.0324,0.013523,0.002678,0.000431,0.020450
362000,0.0324,0.013523,0.002678,0.000431,0.017982
363000,0.0324,0.013523,0.002678,0.000431,0.019510
364000,0.0324,0.013523,0.002678,0.000431,0.018217
365000,0.0324,0.013523,0.002678,0.000431,0.018922
366000,0.0324,0.013523,0.002678,0.000431,0.017394
367000,0.0324,0.013523,0.002678,0.000431,0.018452
368000,0.0324,0.013523,0.002678,0.000431,0.017277
369000,0.0324,0.013523,0.002678,0.000431,0.019392
370000,0.0324,0.013523,0.002678,0.000431,0.015866
371000,0.0324,0.013523,0.002678,0.000431,0.018569
372000,0.0324,0.013523,0.002678,0.000431,0.018217
373000,0.0324,0.013523,0.002678,0.000431,0.018334
374000,0.0324,0.013523,0.002678,0.000431,0.018334
375000,0.0324,0.013523,0.002678,0.000431,0.017982
376000,0.0324,0.013523,0.002678,0.000431,0.016219
377000,0.0324,0.013523,0.002678,0.000431,0.016571
378000,0.0324,0.013523,0.002678,0.000431,0.016807
379000,0.0324,0.013523,0.002678,0.000431,0.017629
380000,0.0324,0.013523,0.002678,0.000431,0.015984
381000,0.0324,0.013523,0.002678,0.000431,0.015984
382000,0.0324,0.013523,0.002678,0.000431,0.017159
383000,0.0324,0.013523,0.002678,0.000431,0.014103
384000,0.0324,0.013523,0.002678,0.000431,0.015631
385000,0.0324,0.013523,0.002678,0.000431,0.015514
386000,0.0324,0.013523,0.002678,0.000431,0.015514
387000,0.0324,0.013523,0.002678,0.000431,0.012693
388000,0.0324,0.013523,0.002678,0.000431,0.015396
389000,0.0324,0.013523,0.002678,0.000431,0.015161
390000,0.0324,0.013523,0.002678,0.000431,0.014691
391000,0.0324,0.013523,0.002678,0.000431,0.013986
392000,0.0324,0.013523,0.002678,0.000431,0.013986
393000,0.0324,0.013523,0.002678,0.000431,0.014809
394000,0.0324,0.013523,0.002678,0.000431,0.014691
395000,0.0324,0.013523,0.002678,0.000431,0.014573
396000,0.0324,0.013523,0.002678,0.000431,0.015514
397000,0.0324,0.013523,0.002678,0.000431,0.013986
398000,0.0324,0.013523,0.002678,0.000431,0.014573
399000,0.0324,0.013523,0.002678,0.000431,0.015396
400000,0.0324,0.013523,0.002678,0.000431,0.013633
401000,0.0324,0.013523,0.002678,0.000431,0.013633
402000,0.0324,0.013523,0.002678,0.000431,0.014456
403000,0.0324,0.013523,0.002678,0.000431,0.012811
404000,0.0324,0.013523,0.002678,0.000431,0.014221
405000,0.0324,0.013523,0.002678,0.000431,0.013046
406000,0.0324,0.013523,0.002678,0.000431,0.015279
407000,0.0324,0.013523,0.002678,0.000431,0.012693
408000,0.0324,0.013523,0.002678,0.000431,0.011753
409000,0.0324,0.013523,0.002678,0.000431,0.012928
410000,0.0324,0.013523,0.002678,0.000431,0.013751
411000,0.0324,0.013523,0.002678,0.000431,0.012340
412000,0.0324,0.013523,0.002678,0.000431,0.012223
413000,0.0324,0.013523,0.002678,0.000431,0.012693
414000,0.0324,0.013523,0.002678,0.000431,0.013046
415000,0.0324,0.013523,0.002678,0.000431,0.012458
416000,0.0324,0.013523,0.002678,0.000431,0.011283
417000,0.0324,0.013523,0.002678,0.000431,0.010813
418000,0.0324,0.013523,0.002678,0.000431,0.011400
419000,0.0324,0.013523,0.002678,0.000431,0.011165
420000,0.0324,0.013523,0.002678,0.000431,0.011283
421000,0.0324,0.013523,0.002678,0.000431,0.010695
422000,0.0324,0.013523,0.002678,0.000431,0.011048
423000,0.0324,0.013523,0.002678,0.000431,0.010578
424000,0.0324,0.013523,0.002678,0.000431,0.010578
425000,0.0324,0.013523,0.002678,0.000431,0.010813
426000,0.0324,0.013523,0.002678,0.000431,0.009402
427000,0.0324,0.013523,0.002678,0.000431,0.009637
428000,0.0324,0.013523,0.002678,0.000431,0.009050
429000,0.0324,0.013523,0.002678,0.000431,0.009520
430000,0.0324,0.013523,0.002678,0.000431,0.009872
431000,0.0324,0.013523,0.002678,0.000431,0.009637
432000,0.0324,0.013523,0.002678,0.000431,0.007992
433000,0.0324,0.013523,0.002678,0.000431,0.009637
434000,0.0324,0.013523,0.002678,0.000431,0.010813
435000,0.0324,0.013523,0.002678,0.000431,0.009872
436000,0.0324,0.013523,0.002678,0.000431,0.007874
437000,0.0324,0.013523,0.002678,0.000431,0.009755
438000,0.0324,0.013523,0.002678,0.000431,0.009167
439000,0.0324,0.013523,0.002678,0.000431,0.009285
440000,0.0324,0.013523,0.002678,0.000431,0.006934
441000,0.0324,0.013523,0.002678,0.000431,0.009285
442000,0.0324,0.013523,0.002678,0.000431,0.008815
443000,0.0324,0.013523,0.002678,0.000431,0.008932
444000,0.0324,0.013523,0.002678,0.000431,0.007874
445000,0.0324,0.013523,0.002678,0.000431,0.008815
446000,0.0324,0.013523,0.002678,0.000431,0.009520
447000,0.0324,0.013523,0.002678,0.000431,0.008932
448000,0.0324,0.013523,0.002678,0.000431,0.006934
449000,0.0324,0.013523,0.002678,0.000431,0.008932
450000,0.0324,0.013523,0.002678,0.000431,0.008462
451000,0.0324,0.013523,0.002678,0.000431,0.009402
452000,0.0324,0.013523,0.002678,0.000431,0.007404
453000,0.0324,0.013523,0.002678,0.000431,0.008345
454000,0.0324,0.013523,0.002678,0.000431,0.009520
455000,0.0324,0.013523,0.002678,0.000431,0.008580
456000,0.0324,0.013523,0.002678,0.000431,0.007404
457000,0.0324,0.013523,0.002678,0.000431,0.007639
458000,0.0324,0.013523,0.002678,0.000431,0.009050
459000,0.0324,0.013523,0.002678,0.000431,0.007287
460000,0.0324,0.013523,0.002678,0.000431,0.007874
461000,0.0324,0.013523,0.002678,0.000431,0.008109
462000,0.0324,0.013523,0.002678,0.000431,0.008227
463000,0.0324,0.013523,0.002678,0.000431,0.007639
464000,0.0324,0.013523,0.002678,0.000431,0.007404
465000,0.0324,0.013523,0.002678,0.000431,0.008697
466000,0.0324,0.013523,0.002678,0.000431,0.007052
467000,0.0324,0.013523,0.002678,0.000431,0.007052
468000,0.0324,0.013523,0.002678,0.000431,0.007639
469000,0.0324,0.013523,0.002678,0.000431,0.006464
470000,0.0324,0.013523,0.002678,0.000431,0.007169
471000,0.0324,0.013523,0.002678,0.000431,0.007287
472000,0.0324,0.013523,0.002678,0.000431,0.006699
473000,0.0324,0.013523,0.002678,0.000431,0.007052
474000,0.0324,0.013523,0.002678,0.000431,0.006699
475000,0.0324,0.013523,0.002678,0.000431,0.007287
476000,0.0324,0.013523,0.002678,0.000431,0.006934
477000,0.0324,0.013523,0.002678,0.000431,0.005876
478000,0.0324,0.013523,0.002678,0.000431,0.008697
479000,0.0324,0.013523,0.002678,0.000431,0.006699
480000,0.0324,0.013523,0.002678,0.000431,0.006229
481000,0.0324,0.013523,0.002678,0.000431,0.008580
482000,0.0324,0.013523,0.002678,0.000431,0.006699
483000,0.0324,0.013523,0.002678,0.000431,0.005994
484000,0.0324,0.013523,0.002678,0.000431,0.006817
485000,0.0324,0.013523,0.002678,0.000431,0.007522
486000,0.0324,0.013523,0.002678,0.000431,0.006464
487000,0.0324,0.013523,0.002678,0.000431,0.005759
488000,0.0324,0.013523,0.002678,0.000431,0.006699
489000,0.0324,0.013523,0.002678,0.000431,0.006229
490000,0.0324,0.013523,0.002678,0.000431,0.006934
491000,0.0324,0.013523,0.002678,0.000431,0.004819
492000,0.0324,0.013523,0.002678,0.000431,0.007052
493000,0.0324,0.013523,0.002678,0.000431,0.005759
494000,0.0324,0.013523,0.002678,0.000431,0.005759
495000,0.0324,0.013523,0.002678,0.000431,0.007169
496000,0.0324,0.013523,0.002678,0.000431,0.005759
497000,0.0324,0.013523,0.002678,0.000431,0.006464
498000,0.0324,0.013523,0.002678,0.000431,0.007287
499000,0.0324,0.013523,0.002678,0.000431,0.004936
500000,0.0324,0.013523,0.002678,0.000431,0.005054
501000,0.0324,0.013523,0.002678,0.000431,0.005641
502000,0.0324,0.013523,0.002678,0.000431,0.005876
503000,0.0324,0.013523,0.002678,0.000431,0.005759
504000,0.0324,0.013523,0.002678,0.000431,0.004466
505000,0.0324,0.013523,0.002678,0.000431,0.006582
506000,0.0324,0.013523,0.002678,0.000431,0.005524
507000,0.0324,0.013523,0.002678,0.000431,0.005054
508000,0.0324,0.013523,0.002678,0.000431,0.004701
509000,0.0324,0.013523,0.002678,0.000431,0.006817
510000,0.0324,0.013523,0.002678,0.000431,0.004466
511000,0.0324,0.013523,0.002678,0.000431,0.005406
512000,0.0324,0.013523,0.002678,0.000431,0.005876
513000,0.0324,0.013523,0.002678,0.000431,0.005524
514000,0.0324,0.013523,0.002678,0.000431,0.005289
515000,0.0324,0.013523,0.002678,0.000431,0.005759
516000,0.0324,0.013523,0.002678,0.000431,0.004701
517000,0.0324,0.013523,0.002678,0.000431,0.006111
518000,0.0324,0.013523,0.002678,0.000431,0.004466
519000,0.0324,0.013523,0.002678,0.000431,0.005289
520000,0.0324,0.013523,0.002678,0.000431,0.003878
521000,0.0324,0.013523,0.002678,0.000431,0.004466
522000,0.0324,0.013523,0.002678,0.000431,0.005524
523000,0.0324,0.013523,0.002678,0.000431,0.003878
524000,0.0324,0.013523,0.002678,0.000431,0.003878
525000,0.0324,0.013523,0.002678,0.000431,0.005171
526000,0.0324,0.013523,0.002678,0.000431,0.004701
527000,0.0324,0.013523,0.002678,0.000431,0.003878
528000,0.0324,0.013523,0.002678,0.000431,0.004231
529000,0.0324,0.013523,0.002678,0.000431,0.005054
530000,0.0324,0.013523,0.002678,0.000431,0.004231
531000,0.0324,0.013523,0.002678,0.000431,0.004113
532000,0.0324,0.013523,0.002678,0.000431,0.004936
533000,0.0324,0.013523,0.002678,0.000431,0.004466
534000,0.0324,0.013523,0.002678,0.000431,0.003878
535000,0.0324,0.013523,0.002678,0.000431,0.003408
536000,0.0324,0.013523,0.002678,0.000431,0.004701
537000,0.0324,0.013523,0.002678,0.000431,0.003761
538000,0.0324,0.013523,0.002678,0.000431,0.003173
539000,0.0324,0.013523,0.002678,0.000431,0.004819
540000,0.0324,0.013523,0.002678,0.000431,0.003408
541000,0.0324,0.013523,0.002678,0.000431,0.003526
542000,0.0324,0.013523,0.002678,0.000431,0.004466
543000,0.0324,0.013523,0.002678,0.000431,0.003878
544000,0.0324,0.013523,0.002678,0.000431,0.003643
545000,0.0324,0.013523,0.002678,0.000431,0.003291
546000,0.0324,0.013523,0.002678,0.000431,0.004349
547000,0.0324,0.013523,0.002678,0.000431,0.003526
548000,0.0324,0.013523,0.002678,0.000431,0.003056
549000,0.0324,0.013523,0.002678,0.000431,0.004819
550000,0.0324,0.013523,0.002678,0.000431,0.003526
551000,0.0324,0.013523,0.002678,0.000431,0.003291
552000,0.0324,0.013523,0.002678,0.000431,0.004231
553000,0.0324,0.013523,0.002678,0.000431,0.003526
554000,0.0324,0.013523,0.002678,0.000431,0.003643
555000,0.0324,0.013523,0.002678,0.000431,0.003643
556000,0.0324,0.013523,0.002678,0.000431,0.003761
557000,0.0324,0.013523,0.002678,0.000431,0.004113
558000,0.0324,0.013523,0.002678,0.000431,0.002821
559000,0.0324,0.013523,0.002678,0.000431,0.003643
560000,0.0324,0.013523,0.002678,0.000431,0.002703
561000,0.0324,0.013523,0.002678,0.000431,0.003643
562000,0.0324,0.013523,0.002678,0.000431,0.003291
563000,0.0324,0.013523,0.002678,0.000431,0.003643
564000,0.0324,0.013523,0.002678,0.000431,0.003996
565000,0.0324,0.013523,0.002678,0.000431,0.002351
566000,0.0324,0.013523,0.002678,0.000431,0.002586
567000,0.0324,0.013523,0.002678,0.000431,0.001763
568000,0.0324,0.013523,0.002678,0.000431,0.001998
569000,0.0324,0.013523,0.002678,0.000431,0.002938
570000,0.0324,0.013523,0.002678,0.000431,0.001645
571000,0.0324,0.013523,0.002678,0.000431,0.002116
572000,0.0324,0.013523,0.002678,0.000431,0.002586
573000,0.0324,0.013523,0.002678,0.000431,0.002233
574000,0.0324,0.013523,0.002678,0.000431,0.001763
575000,0.0324,0.013523,0.002678,0.000431,0.002351
576000,0.0324,0.013523,0.002678,0.000431,0.002586
577000,0.0324,0.013523,0.002678,0.000431,0.002116
578000,0.0324,0.013523,0.002678,0.000431,0.002586
579000,0.0324,0.013523,0.002678,0.000431,0.002468
580000,0.0324,0.013523,0.002678,0.000431,0.001645
581000,0.0324,0.013523,0.002678,0.000431,0.001293
582000,0.0324,0.013523,0.002678,0.000431,0.002586
583000,0.0324,0.013523,0.002678,0.000431,0.001528
584000,0.0324,0.013523,0.002678,0.000431,0.001645
585000,0.0324,0.013523,0.002678,0.000431,0.002351
586000,0.0324,0.013523,0.002678,0.000431,0.001645
587000,0.0324,0.013523,0.002678,0.000431,0.002233
588000,0.0324,0.013523,0.002678,0.000431,0.001763
589000,0.0324,0.013523,0.002678,0.000431,0.001410
590000,0.0324,0.013523,0.002678,0.000431,0.002703
591000,0.0324,0.013523,0.002678,0.000431,0.001528
592000,0.0324,0.013523,0.002678,0.000431,0.001763
593000,0.0324,0.013523,0.002678,0.000431,0.002116
594000,0.0324,0.013523,0.002678,0.000431,0.001880
595000,0.0324,0.013523,0.002678,0.000431,0.002116
596000,0.0324,0.013523,0.002678,0.000431,0.001763
597000,0.0324,0.013523,0.002678,0.000431,0.001645
598000,0.0324,0.013523,0.002678,0.000431,0.002468
599000,0.0324,0.013523,0.002678,0.000431,0.001175
600000,0.0324,0.013523,0.002678,0.000431,0.002351
601000,0.0324,0.013523,0.002678,0.000431,0.001645
602000,0.0324,0.013523,0.002678,0.000431,0.002233
603000,0.0324,0.013523,0.002678,0.000431,0.001528
604000,0.0324,0.013523,0.002678,0.000431,0.002468
605000,0.0324,0.013523,0.002678,0.000431,0.001410
606000,0.0324,0.013523,0.002678,0.000431,0.002468
607000,0.0324,0.013523,0.002678,0.000431,0.001410
608000,0.0324,0.013523,0.002678,0.000431,0.001998
609000,0.0324,0.013523,0.002678,0.000431,0.001763
610000,0.0324,0.013523,0.002678,0.000431,0.001763
611000,0.0324,0.013523,0.002678,0.000431,0.001880
612000,0.0324,0.013523,0.002678,0.000431,0.001880
613000,0.0324,0.013523,0.002678,0.000431,0.001880
614000,0.0324,0.013523,0.002678,0.000431,0.001763
615000,0.0324,0.013523,0.002678,0.000431,0.001998
616000,0.0324,0.013523,0.002678,0.000431,0.001763
617000,0.0324,0.013523,0.002678,0.000431,0.001998
618000,0.0324,0.013523,0.002678,0.000431,0.001645
619000,0.0324,0.013523,0.002678,0.000431,0.001880
620000,0.0324,0.013523,0.002678,0.000431,0.001410
621000,0.0324,0.013523,0.002678,0.000431,0.002821
622000,0.0324,0.013523,0.002678,0.000431,0.000940
623000,0.0324,0.013523,0.002678,0.000431,0.001880
624000,0.0324,0.013523,0.002678,0.000431,0.000940
625000,0.0324,0.013523,0.002678,0.000431,0.001880
626000,0.0324,0.013523,0.002678,0.000431,0.000823
627000,0.0324,0.013523,0.002678,0.000431,0.001880
628000,0.0324,0.013523,0.002678,0.000431,0.000940
629000,0.0324,0.013523,0.002678,0.000431,0.001528
630000,0.0324,0.013523,0.002678,0.000431,0.001175
631000,0.0324,0.013523,0.002678,0.000431,0.001293
632000,0.0324,0.013523,0.002678,0.000431,0.001058
633000,0.0324,0.013523,0.002678,0.000431,0.001293
634000,0.0324,0.013523,0.002678,0.000431,0.001058
635000,0.0324,0.013523,0.002678,0.000431,0.001293
636000,0.0324,0.013523,0.002678,0.000431,0.001058
637000,0.0324,0.013523,0.002678,0.000431,0.001293
638000,0.0324,0.013523,0.002678,0.000431,0.001058
639000,0.0324,0.013523,0.002678,0.000431,0.001293
640000,0.0324,0.013523,0.002678,0.000431,0.000940
641000,0.0324,0.013523,0.002678,0.000431,0.001175
642000,0.0324,0.013523,0.002678,0.000431,0.001058
643000,0.0324,0.013523,0.002678,0.000431,0.000940
644000,0.0324,0.013523,0.002678,0.000431,0.001293
645000,0.0324,0.013523,0.002678,0.000431,0.000940
646000,0.0324,0.013523,0.002678,0.000431,0.001293
647000,0.0324,0.013523,0.002678,0.000431,0.001058
648000,0.0324,0.013523,0.002678,0.000431,0.001293
649000,0.0324,0.013523,0.002678,0.000431,0.001058
650000,0.0324,0.013523,0.002678,0.000431,0.001293
651000,0.0324,0.013523,0.002678,0.000431,0.001058
652000,0.0324,0.013523,0.002678,0.000431,0.001293
653000,0.0324,0.013523,0.002678,0.000431,0.001058
654000,0.0324,0.013523,0.002678,0.000431,0.001293
655000,0.0324,0.013523,0.002678,0.000431,0.000823
656000,0.0324,0.013523,0.002678,0.000431,0.001410
657000,0.0324,0.013523,0.002678,0.000431,0.000940
658000,0.0324,0.013523,0.002678,0.000431,0.001410
659000,0.0324,0.013523,0.002678,0.000431,0.001293
660000,0.0324,0.013523,0.002678,0.000431,0.001410
661000,0.0324,0.013523,0.002678,0.000431,0.000470
662000,0.0324,0.013523,0.002678,0.000431,0.000940
663000,0.0324,0.013523,0.002678,0.000431,0.000470
664000,0.0324,0.013523,0.002678,0.000431,0.000940
665000,0.0324,0.013523,0.002678,0.000431,0.000470
666000,0.0324,0.013523,0.002678,0.000431,0.000940
667000,0.0324,0.013523,0.002678,0.000431,0.000470
668000,0.0324,0.013523,0.002678,0.000431,0.000940
669000,0.0324,0.013523,0.002678,0.000431,0.000353
670000,0.0324,0.013523,0.002678,0.000431,0.000823
671000,0.0324,0.013523,0.002678,0.000431,0.000588
672000,0.0324,0.013523,0.002678,0.000431,0.000823
673000,0.0324,0.013523,0.002678,0.000431,0.000588
674000,0.0324,0.013523,0.002678,0.000431,0.000823
675000,0.0324,0.013523,0.002678,0.000431,0.000588
676000,0.0324,0.013523,0.002678,0.000431,0.000823
677000,0.0324,0.013523,0.002678,0.000431,0.000588
678000,0.0324,0.013523,0.002678,0.000431,0.000823
679000,0.0324,0.013523,0.002678,0.000431,0.000588
680000,0.0324,0.013523,0.002678,0.000431,0.000823
681000,0.0324,0.013523,0.002678,0.000431,0.000588
682000,0.0324,0.013523,0.002678,0.000431,0.000823
683000,0.0324,0.013523,0.002678,0.000431,0.000588
684000,0.0324,0.013523,0.002678,0.000431,0.000588
685000,0.0324,0.013523,0.002678,0.000431,0.000705
686000,0.0324,0.013523,0.002678,0.000431,0.000705
687000,0.0324,0.013523,0.002678,0.000431,0.000588
688000,0.0324,0.013523,0.002678,0.000431,0.000588
689000,0.0324,0.013523,0.002678,0.000431,0.000823
690000,0.0324,0.013523,0.002678,0.000431,0.000588
691000,0.0324,0.013523,0.002678,0.000431,0.000823
692000,0.0324,0.013523,0.002678,0.000431,0.000588
693000,0.0324,0.013523,0.002678,0.000431,0.000823
694000,0.0324,0.013523,0.002678,0.000431,0.000588
695000,0.0324,0.013523,0.002678,0.000431,0.000823
696000,0.0324,0.013523,0.002678,0.000431,0.000588
697000,0.0324,0.013523,0.002678,0.000431,0.000823
698000,0.0324,0.013523,0.002678,0.000431,0.000588
699000,0.0324,0.013523,0.002678,0.000431,0.000823
700000,0.0324,0.013523,0.002678,0.000431,0.000588
701000,0.0324,0.013523,0.002678,0.000431,0.000823
702000,0.0324,0.013523,0.002678,0.000431,0.000588
703000,0.0324,0.013523,0.002678,0.000431,0.000823
704000,0.0324,0.013523,0.002678,0.000431,0.000470
705000,0.0324,0.013523,0.002678,0.000431,0.000353
706000,0.0324,0.013523,0.002678,0.000431,0.000470
707000,0.0324,0.013523,0.002678,0.000431,0.000470
708000,0.0324,0.013523,0.002678,0.000431,0.000470
709000,0.0324,0.013523,0.002678,0.000431,0.000470
710000,0.0324,0.013523,0.002678,0.000431,0.000470
711000,0.0324,0.013523,0.002678,0.000431,0.000470
712000,0.0324,0.013523,0.002678,0.000431,0.000470
713000,0.0324,0.013523,0.002678,0.000431,0.000470
714000,0.0324,0.013523,0.002678,0.000431,0.000470
715000,0.0324,0.013523,0.002678,0.000431,0.000470
716000,0.0324,0.013523,0.002678,0.000431,0.000470
717000,0.0324,0.013523,0.002678,0.000431,0.000470
718000,0.0324,0.013523,0.002678,0.000431,0.000470
719000,0.0324,0.013523,0.002678,0.000431,0.000470
720000,0.0324,0.013523,0.002678,0.000431,0.000470
721000,0.0324,0.013523,0.002678,0.000431,0.000470
722000,0.0324,0.013523,0.002678,0.000431,0.000470
723000,0.0324,0.013523,0.002678,0.000431,0.000470
724000,0.0324,0.013523,0.002678,0.000431,0.000470
725000,0.0324,0.013523,0.002678,0.000431,0.000470
726000,0.0324,0.013523,0.002678,0.000431,0.000470
727000,0.0324,0.013523,0.002678,0.000431,0.000353
728000,0.0324,0.013523,0.002678,0.000431,0.000470
729000,0.0324,0.013523,0.002678,0.000431,0.000470
730000,0.0324,0.013523,0.002678,0.000431,0.000470
731000,0.0324,0.013523,0.002678,0.000431,0.000470
732000,0.0324,0.013523,0.002678,0.000431,0.000470
733000,0.0324,0.013523,0.002678,0.000431,0.000470
734000,0.0324,0.013523,0.002678,0.000431,0.000470
735000,0.0324,0.013523,0.002678,0.000431,0.000470
736000,0.0324,0.013523,0.002678,0.000431,0.000470
737000,0.0324,0.013523,0.002678,0.000431,0.000470
738000,0.0324,0.013523,0.002678,0.000431,0.000470
739000,0.0324,0.013523,0.002678,0.000431,0.000470
740000,0.0324,0.013523,0.002678,0.000431,0.000470
741000,0.0324,0.013523,0.002678,0.000431,0.000470
742000,0.0324,0.013523,0.002678,0.000431,0.000470
743000,0.0324,0.013523,0.002678,0.000431,0.000470
744000,0.0324,0.013523,0.002678,0.000431,0.000470
745000,0.0324,0.013523,0.002678,0.000431,0.000470
746000,0.0324,0.013523,0.002678,0.000431,0.000353
747000,0.0324,0.013523,0.002678,0.000431,0.000470
748000,0.0324,0.013523,0.002678,0.000431,0.000470
749000,0.0324,0.013523,0.002678,0.000431,0.000470
750000,0.0324,0.013523,0.002678,0.000431,0.000353
751000,0.0324,0.013523,0.002678,0.000431,0.000470
752000,0.0324,0.013523,0.002678,0.000431,0.000470
753000,0.0324,0.013523,0.002678,0.000431,0.000470
754000,0.0324,0.013523,0.002678,0.000431,0.000470
755000,0.0324,0.013523,0.002678,0.000431,0.000470
756000,0.0324,0.013523,0.002678,0.000431,0.000470
757000,0.0324,0.013523,0.002678,0.000431,0.000470
758000,0.0324,0.013523,0.002678,0.000431,0.000470
759000,0.0324,0.013523,0.002678,0.000431,0.000470
760000,0.0324,0.013523,0.002678,0.000431,0.000470
761000,0.0324,0.013523,0.002678,0.000431,0.000470
762000,0.0324,0.013523,0.002678,0.000431,0.000470
763000,0.0324,0.013523,0.002678,0.000431,0.000470
764000,0.0324,0.013523,0.002678,0.000431,0.000470
765000,0.0324,0.013523,0.002678,0.000431,0.000470
766000,0.0324,0.013523,0.002678,0.000431,0.000470
767000,0.0324,0.013523,0.002678,0.000431,0.000470
768000,0.0324,0.013523,0.002678,0.000431,0.000353
769000,0.0324,0.013523,0.002678,0.000431,0.000470
770000,0.0324,0.013523,0.002678,0.000431,0.000470
771000,0.0324,0.013523,0.002678,0.000431,0.000470
772000,0.0324,0.013523,0.002678,0.000431,0.000470
773000,0.0324,0.013523,0.002678,0.000431,0.000470
774000,0.0324,0.013523,0.002678,0.000431,0.000470
775000,0.0324,0.013523,0.002678,0.000431,0.000470
776000,0.0324,0.013523,0.002678,0.000431,0.000470
777000,0.0324,0.013523,0.002678,0.000431,0.000470
778000,0.0324,0.013523,0.002678,0.000431,0.000470
779000,0.0324,0.013523,0.002678,0.000431,0.000470
780000,0.0324,0.013523,0.002678,0.000431,0.000470
781000,0.0324,0.013523,0.002678,0.000431,0.000470
782000,0.0324,0.013523,0.002678,0.000431,0.000470
783000,0.0324,0.013523,0.002678,0.000431,0.000470
784000,0.0324,0.013523,0.002678,0.000431,0.000470
785000,0.0324,0.013523,0.002678,0.000431,0.000470
786000,0.0324,0.013523,0.002678,0.000431,0.000470
787000,0.0324,0.013523,0.002678,0.000431,0.000470
788000,0.0324,0.013523,0.002678,0.000431,0.000470
789000,0.0324,0.013523,0.002678,0.000431,0.000353
790000,0.0324,0.013523,0.002678,0.000431,0.000470
791000,0.0324,0.013523,0.002678,0.000431,0.000470
792000,0.0324,0.013523,0.002678,0.000431,0.000470
793000,0.0324,0.013523,0.002678,0.000431,0.000470
794000,0.0324,0.013523,0.002678,0.000431,0.000470
795000,0.0324,0.013523,0.002678,0.000431,0.000470
796000,0.0324,0.013523,0.002678,0.000431,0.000470
797000,0.0324,0.013523,0.002678,0.000431,0.000470
798000,0.0324,0.013523,0.002678,0.000431,0.000470
799000,0.0324,0.013523,0.002678,0.000431,0.000470
800000,0.0324,0.013523,0.002678,0.000431,0.000470
801000,0.0324,0.013523,0.002678,0.000431,0.000470
802000,0.0324,0.013523,0.002678,0.000431,0.000470
803000,0.0324,0.013523,0.002678,0.000431,0.000470
804000,0.0324,0.013523,0.002678,0.000431,0.000470
805000,0.0324,0.013523,0.002678,0.000431,0.000470
806000,0.0324,0.013523,0.002678,0.000431,0.000470
807000,0.0324,0.013523,0.002678,0.000431,0.000470
808000,0.0324,0.013523,0.002678,0.000431,0.000353
809000,0.0324,0.013523,0.002678,0.000431,0.000470
810000,0.0324,0.013523,0.002678,0.000431,0.000470
811000,0.0324,0.013523,0.002678,0.000431,0.000470
812000,0.0324,0.013523,0.002678,0.000431,0.000353
813000,0.0324,0.013523,0.002678,0.000431,0.000470
814000,0.0324,0.013523,0.002678,0.000431,0.000470
815000,0.0324,0.013523,0.002678,0.000431,0.000470
816000,0.0324,0.013523,0.002678,0.000431,0.000470
817000,0.0324,0.013523,0.002678,0.000431,0.000470
818000,0.0324,0.013523,0.002678,0.000431,0.000470
819000,0.0324,0.013523,0.002678,0.000431,0.000470
820000,0.0324,0.013523,0.002678,0.000431,0.000470
821000,0.0324,0.013523,0.002678,0.000431,0.000470
822000,0.0324,0.013523,0.002678,0.000431,0.000470
823000,0.0324,0.013523,0.002678,0.000431,0.000470
824000,0.0324,0.013523,0.002678,0.000431,0.000470
825000,0.0324,0.013523,0.002678,0.000431,0.000470
826000,0.0324,0.013523,0.002678,0.000431,0.000470
827000,0.0324,0.013523,0.002678,0.000431,0.000470
828000,0.0324,0.013523,0.002678,0.000431,0.000470
829000,0.0324,0.013523,0.002678,0.000431,0.000470
830000,0.0324,0.013523,0.002678,0.000431,0.000470
831000,0.0324,0.013523,0.002678,0.000431,0.000470
832000,0.0324,0.013523,0.002678,0.000431,0.000470
833000,0.0324,0.013523,0.002678,0.000431,0.000470
834000,0.0324,0.013523,0.002678,0.000431,0.000353
835000,0.0324,0.013523,0.002678,0.000431,0.000470
836000,0.0324,0.013523,0.002678,0.000431,0.000470
837000,0.0324,0.013523,0.002678,0.000431,0.000470
838000,0.0324,0.013523,0.002678,0.000431,0.000470
839000,0.0324,0.013523,0.002678,0.000431,0.000470
840000,0.0324,0.013523,0.002678,0.000431,0.000470
841000,0.0324,0.013523,0.002678,0.000431,0.000470
842000,0.0324,0.013523,0.002678,0.000431,0.000470
843000,0.0324,0.013523,0.002678,0.000431,0.000470
844000,0.0324,0.013523,0.002678,0.000431,0.000470
845000,0.0324,0.013523,0.002678,0.000431,0.000470
846000,0.0324,0.013523,0.002678,0.000431,0.000470
847000,0.0324,0.013523,0.002678,0.000431,0.000470
848000,0.0324,0.013523,0.002678,0.000431,0.000470
849000,0.0324,0.013523,0.002678,0.000431,0.000470
850000,0.0324,0.013523,0.002678,0.000431,0.000470
851000,0.0324,0.013523,0.002678,0.000431,0.000470
852000,0.0324,0.013523,0.002678,0.000431,0.000470
853000,0.0324,0.013523,0.002678,0.000431,0.000470
854000,0.0324,0.013523,0.002678,0.000431,0.000470
855000,0.0324,0.013523,0.002678,0.000431,0.000470
856000,0.0324,0.013523,0.002678,0.000431,0.000353
857000,0.0324,0.013523,0.002678,0.000431,0.000470
858000,0.0324,0.013523,0.002678,0.000431,0.000470
859000,0.0324,0.013523,0.002678,0.000431,0.000470
860000,0.0324,0.013523,0.002678,0.000431,0.000470
861000,0.0324,0.013523,0.002678,0.000431,0.000470
862000,0.0324,0.013523,0.002678,0.000431,0.000470
863000,0.0324,0.013523,0.002678,0.000431,0.000470
864000,0.0324,0.013523,0.002678,0.000431,0.000470
865000,0.0324,0.013523,0.002678,0.000431,0.000470
866000,0.0324,0.013523,0.002678,0.000431,0.000470
867000,0.0324,0.013523,0.002678,0.000431,0.000470
868000,0.0324,0.013523,0.002678,0.000431,0.000470
869000,0.0324,0.013523,0.002678,0.000431,0.000470
870000,0.0324,0.013523,0.002678,0.000431,0.000470
871000,0.0324,0.013523,0.002678,0.000431,0.000235
872000,0.0324,0.013523,0.002678,0.000431,0.000353
873000,0.0324,0.013523,0.002678,0.000431,0.000353
874000,0.0324,0.013523,0.002678,0.000431,0.000235
875000,0.0324,0.013523,0.002678,0.000431,0.000353
876000,0.0324,0.013523,0.002678,0.000431,0.000470
877000,0.0324,0.013523,0.002678,0.000431,0.000353
878000,0.0324,0.013523,0.002678,0.000431,0.000235
879000,0.0324,0.013523,0.002678,0.000431,0.000353
880000,0.0324,0.013523,0.002678,0.000431,0.000353
881000,0.0324,0.013523,0.002678,0.000431,0.000235
882000,0.0324,0.013523,0.002678,0.000431,0.000353
883000,0.0324,0.013523,0.002678,0.000431,0.000470
884000,0.0324,0.013523,0.002678,0.000431,0.000353
885000,0.0324,0.013523,0.002678,0.000431,0.000235
886000,0.0324,0.013523,0.002678,0.000431,0.000353
887000,0.0324,0.013523,0.002678,0.000431,0.000353
888000,0.0324,0.013523,0.002678,0.000431,0.000235
889000,0.0324,0.013523,0.002678,0.000431,0.000353
890000,0.0324,0.013523,0.002678,0.000431,0.000470
891000,0.0324,0.013523,0.002678,0.000431,0.000353
892000,0.0324,0.013523,0.002678,0.000431,0.000235
893000,0.0324,0.013523,0.002678,0.000431,0.000353
894000,0.0324,0.013523,0.002678,0.000431,0.000353
895000,0.0324,0.013523,0.002678,0.000431,0.000235
896000,0.0324,0.013523,0.002678,0.000431,0.000353
897000,0.0324,0.013523,0.002678,0.000431,0.000470
898000,0.0324,0.013523,0.002678,0.000431,0.000353
899000,0.0324,0.013523,0.002678,0.000431,0.000118
900000,0.0324,0.013523,0.002678,0.000431,0.000470
901000,0.0324,0.013523,0.002678,0.000431,0.000353
902000,0.0324,0.013523,0.002678,0.000431,0.000235
903000,0.0324,0.013523,0.002678,0.000431,0.000353
904000,0.0324,0.013523,0.002678,0.000431,0.000470
905000,0.0324,0.013523,0.002678,0.000431,0.000353
906000,0.0324,0.013523,0.002678,0.000431,0.000118
907000,0.0324,0.013523,0.002678,0.000431,0.000470
908000,0.0324,0.013523,0.002678,0.000431,0.000353
909000,0.0324,0.013523,0.002678,0.000431,0.000235
910000,0.0324,0.013523,0.002678,0.000431,0.000353
911000,0.0324,0.013523,0.002678,0.000431,0.000470
