Cycle,Area(mm^2),PeakDynamic(W),SubthresholdLeakage(W),GateLeakage(W),RunTimeDynamic(W)
2000000,0.0324,0.013523,0.002678,0.000431,0.503961
2001000,0.0324,0.013523,0.002678,0.000431,0.495264
2002000,0.0324,0.013523,0.002678,0.000431,0.562372
2003000,0.0324,0.013523,0.002678,0.000431,0.607268
2004000,0.0324,0.013523,0.002678,0.000431,0.515949
2005000,0.0324,0.013523,0.002678,0.000431,0.544038
2006000,0.0324,0.013523,0.002678,0.000431,0.511953
2007000,0.0324,0.013523,0.002678,0.000431,0.433091
2008000,0.0324,0.013523,0.002678,0.000431,0.539689
2009000,0.0324,0.013523,0.002678,0.000431,0.584585
2010000,0.0324,0.013523,0.002678,0.000431,0.474226
2011000,0.0324,0.013523,0.002678,0.000431,0.512775
2012000,0.0324,0.013523,0.002678,0.000431,0.579296
2013000,0.0324,0.013523,0.002678,0.000431,0.517359
2014000,0.0324,0.013523,0.002678,0.000431,0.640881
2015000,0.0324,0.013523,0.002678,0.000431,0.640764
2016000,0.0324,0.013523,0.002678,0.000431,0.616200
2017000,0.0324,0.013523,0.002678,0.000431,0.550502
2018000,0.0324,0.013523,0.002678,0.000431,0.591754
2019000,0.0324,0.013523,0.002678,0.000431,0.665562
2020000,0.0324,0.013523,0.002678,0.000431,0.546741
2021000,0.0324,0.013523,0.002678,0.000431,0.631596
2022000,0.0324,0.013523,0.002678,0.000431,0.616553
2023000,0.0324,0.013523,0.002678,0.000431,0.597513
2024000,0.0324,0.013523,0.002678,0.000431,0.530875
2025000,0.0324,0.013523,0.002678,0.000431,0.525351
2026000,0.0324,0.013523,0.002678,0.000431,0.584820
2027000,0.0324,0.013523,0.002678,0.000431,0.522530
2028000,0.0324,0.013523,0.002678,0.000431,0.510895
2029000,0.0324,0.013523,0.002678,0.000431,0.646052
2030000,0.0324,0.013523,0.002678,0.000431,0.625955
2031000,0.0324,0.013523,0.002678,0.000431,0.702936
2032000,0.0324,0.013523,0.002678,0.000431,0.705992
2033000,0.0324,0.013523,0.002678,0.000431,0.636180
2034000,0.0324,0.013523,0.002678,0.000431,0.633594
2035000,0.0324,0.013523,0.002678,0.000431,0.633947
2036000,0.0324,0.013523,0.002678,0.000431,0.735844
2037000,0.0324,0.013523,0.002678,0.000431,0.667560
2038000,0.0324,0.013523,0.002678,0.000431,0.608678
2039000,0.0324,0.013523,0.002678,0.000431,0.575888
2040000,0.0324,0.013523,0.002678,0.000431,0.517712
2041000,0.0324,0.013523,0.002678,0.000431,0.430623
2042000,0.0324,0.013523,0.002678,0.000431,0.389723
2043000,0.0324,0.013523,0.002678,0.000431,0.404179
2044000,0.0324,0.013523,0.002678,0.000431,0.508074
2045000,0.0324,0.013523,0.002678,0.000431,0.575771
2046000,0.0324,0.013523,0.002678,0.000431,0.442259
2047000,0.0324,0.013523,0.002678,0.000431,0.512775
2048000,0.0324,0.013523,0.002678,0.000431,0.661214
2049000,0.0324,0.013523,0.002678,0.000431,0.628776
2050000,0.0324,0.013523,0.002678,0.000431,0.582000
2051000,0.0324,0.013523,0.002678,0.000431,0.698117
2052000,0.0324,0.013523,0.002678,0.000431,0.781680
2053000,0.0324,0.013523,0.002678,0.000431,0.570952
2054000,0.0324,0.013523,0.002678,0.000431,0.559669
2055000,0.0324,0.013523,0.002678,0.000431,0.554380
2056000,0.0324,0.013523,0.002678,0.000431,0.470583
2057000,0.0324,0.013523,0.002678,0.000431,0.600569
2058000,0.0324,0.013523,0.002678,0.000431,0.726324
2059000,0.0324,0.013523,0.002678,0.000431,0.647110
2060000,0.0324,0.013523,0.002678,0.000431,0.641116
2061000,0.0324,0.013523,0.002678,0.000431,0.590462
2062000,0.0324,0.013523,0.002678,0.000431,0.543450
2063000,0.0324,0.013523,0.002678,0.000431,0.576006
2064000,0.0324,0.013523,0.002678,0.000431,0.493266
2065000,0.0324,0.013523,0.002678,0.000431,0.526879
2066000,0.0324,0.013523,0.002678,0.000431,0.591402
2067000,0.0324,0.013523,0.002678,0.000431,0.594575
2068000,0.0324,0.013523,0.002678,0.000431,0.631479
2069000,0.0324,0.013523,0.002678,0.000431,0.609736
2070000,0.0324,0.013523,0.002678,0.000431,0.675552
2071000,0.0324,0.013523,0.002678,0.000431,0.540512
2072000,0.0324,0.013523,0.002678,0.000431,0.498907
2073000,0.0324,0.013523,0.002678,0.000431,0.531462
2074000,0.0324,0.013523,0.002678,0.000431,0.550149
2075000,0.0324,0.013523,0.002678,0.000431,0.559904
2076000,0.0324,0.013523,0.002678,0.000431,0.457185
2077000,0.0324,0.013523,0.002678,0.000431,0.542393
2078000,0.0324,0.013523,0.002678,0.000431,0.539337
2079000,0.0324,0.013523,0.002678,0.000431,0.495616
2080000,0.0324,0.013523,0.002678,0.000431,0.463884
2081000,0.0324,0.013523,0.002678,0.000431,0.494911
2082000,0.0324,0.013523,0.002678,0.000431,0.454011
2083000,0.0324,0.013523,0.002678,0.000431,0.527349
2084000,0.0324,0.013523,0.002678,0.000431,0.492796
2085000,0.0324,0.013523,0.002678,0.000431,0.422396
2086000,0.0324,0.013523,0.002678,0.000431,0.544508
2087000,0.0324,0.013523,0.002678,0.000431,0.493736
2088000,0.0324,0.013523,0.002678,0.000431,0.448135
2089000,0.0324,0.013523,0.002678,0.000431,0.548151
2090000,0.0324,0.013523,0.002678,0.000431,0.555321
2091000,0.0324,0.013523,0.002678,0.000431,0.413817
2092000,0.0324,0.013523,0.002678,0.000431,0.384317
2093000,0.0324,0.013523,0.002678,0.000431,0.484099
2094000,0.0324,0.013523,0.002678,0.000431,0.716687
2095000,0.0324,0.013523,0.002678,0.000431,0.550737
2096000,0.0324,0.013523,0.002678,0.000431,0.511248
2097000,0.0324,0.013523,0.002678,0.000431,0.591872
2098000,0.0324,0.013523,0.002678,0.000431,0.530405
2099000,0.0324,0.013523,0.002678,0.000431,0.491738
2100000,0.0324,0.013523,0.002678,0.000431,0.571657
2101000,0.0324,0.013523,0.002678,0.000431,0.603507
2102000,0.0324,0.013523,0.002678,0.000431,0.597631
2103000,0.0324,0.013523,0.002678,0.000431,0.562137
2104000,0.0324,0.013523,0.002678,0.000431,0.672261
2105000,0.0324,0.013523,0.002678,0.000431,0.637943
2106000,0.0324,0.013523,0.002678,0.000431,0.665680
2107000,0.0324,0.013523,0.002678,0.000431,0.648285
2108000,0.0324,0.013523,0.002678,0.000431,0.677903
2109000,0.0324,0.013523,0.002678,0.000431,0.558494
2110000,0.0324,0.013523,0.002678,0.000431,0.546859
2111000,0.0324,0.013523,0.002678,0.000431,0.568366
2112000,0.0324,0.013523,0.002678,0.000431,0.501140
2113000,0.0324,0.013523,0.002678,0.000431,0.462121
2114000,0.0324,0.013523,0.002678,0.000431,0.448723
2115000,0.0324,0.013523,0.002678,0.000431,0.460593
2116000,0.0324,0.013523,0.002678,0.000431,0.556143
2117000,0.0324,0.013523,0.002678,0.000431,0.497262
2118000,0.0324,0.013523,0.002678,0.000431,0.510072
2119000,0.0324,0.013523,0.002678,0.000431,0.556731
2120000,0.0324,0.013523,0.002678,0.000431,0.591402
2121000,0.0324,0.013523,0.002678,0.000431,0.566251
2122000,0.0324,0.013523,0.002678,0.000431,0.573067
2123000,0.0324,0.013523,0.002678,0.000431,0.561785
2124000,0.0324,0.013523,0.002678,0.000431,0.496557
2125000,0.0324,0.013523,0.002678,0.000431,0.519240
2126000,0.0324,0.013523,0.002678,0.000431,0.587993
2127000,0.0324,0.013523,0.002678,0.000431,0.417578
2128000,0.0324,0.013523,0.002678,0.000431,0.409703
2129000,0.0324,0.013523,0.002678,0.000431,0.464706
2130000,0.0324,0.013523,0.002678,0.000431,0.532755
2131000,0.0324,0.013523,0.002678,0.000431,0.488682
2132000,0.0324,0.013523,0.002678,0.000431,0.504666
2133000,0.0324,0.013523,0.002678,0.000431,0.544508
2134000,0.0324,0.013523,0.002678,0.000431,0.545801
2135000,0.0324,0.013523,0.002678,0.000431,0.545331
2136000,0.0324,0.013523,0.002678,0.000431,0.564605
2137000,0.0324,0.013523,0.002678,0.000431,0.481043
2138000,0.0324,0.013523,0.002678,0.000431,0.576593
2139000,0.0324,0.013523,0.002678,0.000431,0.634770
2140000,0.0324,0.013523,0.002678,0.000431,0.582117
2141000,0.0324,0.013523,0.002678,0.000431,0.611734
2142000,0.0324,0.013523,0.002678,0.000431,0.715629
2143000,0.0324,0.013523,0.002678,0.000431,0.731613
2144000,0.0324,0.013523,0.002678,0.000431,0.730790
2145000,0.0324,0.013523,0.002678,0.000431,0.678490
2146000,0.0324,0.013523,0.002678,0.000431,0.696354
2147000,0.0324,0.013523,0.002678,0.000431,0.695649
2148000,0.0324,0.013523,0.002678,0.000431,0.565311
2149000,0.0324,0.013523,0.002678,0.000431,0.602920
2150000,0.0324,0.013523,0.002678,0.000431,0.617140
2151000,0.0324,0.013523,0.002678,0.000431,0.593987
2152000,0.0324,0.013523,0.002678,0.000431,0.731495
2153000,0.0324,0.013523,0.002678,0.000431,0.703759
2154000,0.0324,0.013523,0.002678,0.000431,0.584350
2155000,0.0324,0.013523,0.002678,0.000431,0.582117
2156000,0.0324,0.013523,0.002678,0.000431,0.503961
2157000,0.0324,0.013523,0.002678,0.000431,0.562842
2158000,0.0324,0.013523,0.002678,0.000431,0.601039
2159000,0.0324,0.013523,0.002678,0.000431,0.500788
2160000,0.0324,0.013523,0.002678,0.000431,0.595398
2161000,0.0324,0.013523,0.002678,0.000431,0.604565
2162000,0.0324,0.013523,0.002678,0.000431,0.753356
2163000,0.0324,0.013523,0.002678,0.000431,0.650166
2164000,0.0324,0.013523,0.002678,0.000431,0.574948
2165000,0.0324,0.013523,0.002678,0.000431,0.646875
2166000,0.0324,0.013523,0.002678,0.000431,0.692594
2167000,0.0324,0.013523,0.002678,0.000431,0.632654
2168000,0.0324,0.013523,0.002678,0.000431,0.673907
2169000,0.0324,0.013523,0.002678,0.000431,0.674729
2170000,0.0324,0.013523,0.002678,0.000431,0.595750
2171000,0.0324,0.013523,0.002678,0.000431,0.689420
2172000,0.0324,0.013523,0.002678,0.000431,0.536046
2173000,0.0324,0.013523,0.002678,0.000431,0.565663
2174000,0.0324,0.013523,0.002678,0.000431,0.692711
2175000,0.0324,0.013523,0.002678,0.000431,0.603860
2176000,0.0324,0.013523,0.002678,0.000431,0.587641
2177000,0.0324,0.013523,0.002678,0.000431,0.515244
2178000,0.0324,0.013523,0.002678,0.000431,0.582352
2179000,0.0324,0.013523,0.002678,0.000431,0.540512
2180000,0.0324,0.013523,0.002678,0.000431,0.521002
2181000,0.0324,0.013523,0.002678,0.000431,0.523118
2182000,0.0324,0.013523,0.002678,0.000431,0.572362
2183000,0.0324,0.013523,0.002678,0.000431,0.510190
2184000,0.0324,0.013523,0.002678,0.000431,0.496086
2185000,0.0324,0.013523,0.002678,0.000431,0.482218
2186000,0.0324,0.013523,0.002678,0.000431,0.422044
2187000,0.0324,0.013523,0.002678,0.000431,0.465059
2188000,0.0324,0.013523,0.002678,0.000431,0.578356
2189000,0.0324,0.013523,0.002678,0.000431,0.525704
2190000,0.0324,0.013523,0.002678,0.000431,0.408410
2191000,0.0324,0.013523,0.002678,0.000431,0.433679
2192000,0.0324,0.013523,0.002678,0.000431,0.537574
2193000,0.0324,0.013523,0.002678,0.000431,0.489740
2194000,0.0324,0.013523,0.002678,0.000431,0.442494
2195000,0.0324,0.013523,0.002678,0.000431,0.472228
2196000,0.0324,0.013523,0.002678,0.000431,0.520532
2197000,0.0324,0.013523,0.002678,0.000431,0.558729
2198000,0.0324,0.013523,0.002678,0.000431,0.400771
2199000,0.0324,0.013523,0.002678,0.000431,0.393484
2200000,0.0324,0.013523,0.002678,0.000431,0.430976
2201000,0.0324,0.013523,0.002678,0.000431,0.479280
2202000,0.0324,0.013523,0.002678,0.000431,0.337776
2203000,0.0324,0.013523,0.002678,0.000431,0.368921
2204000,0.0324,0.013523,0.002678,0.000431,0.515831
2205000,0.0324,0.013523,0.002678,0.000431,0.584350
2206000,0.0324,0.013523,0.002678,0.000431,0.587288
2207000,0.0324,0.013523,0.002678,0.000431,0.654632
2208000,0.0324,0.013523,0.002678,0.000431,0.619021
2209000,0.0324,0.013523,0.002678,0.000431,0.590227
2210000,0.0324,0.013523,0.002678,0.000431,0.717862
2211000,0.0324,0.013523,0.002678,0.000431,0.648521
2212000,0.0324,0.013523,0.002678,0.000431,0.658158
2213000,0.0324,0.013523,0.002678,0.000431,0.634652
2214000,0.0324,0.013523,0.002678,0.000431,0.591754
2215000,0.0324,0.013523,0.002678,0.000431,0.708695
2216000,0.0324,0.013523,0.002678,0.000431,0.660038
2217000,0.0324,0.013523,0.002678,0.000431,0.606210
2218000,0.0324,0.013523,0.002678,0.000431,0.667090
2219000,0.0324,0.013523,0.002678,0.000431,0.624192
2220000,0.0324,0.013523,0.002678,0.000431,0.577063
2221000,0.0324,0.013523,0.002678,0.000431,0.484686
2222000,0.0324,0.013523,0.002678,0.000431,0.483981
2223000,0.0324,0.013523,0.002678,0.000431,0.568601
2224000,0.0324,0.013523,0.002678,0.000431,0.652987
2225000,0.0324,0.013523,0.002678,0.000431,0.587053
2226000,0.0324,0.013523,0.002678,0.000431,0.621136
2227000,0.0324,0.013523,0.002678,0.000431,0.560844
2228000,0.0324,0.013523,0.002678,0.000431,0.470230
2229000,0.0324,0.013523,0.002678,0.000431,0.448488
2230000,0.0324,0.013523,0.002678,0.000431,0.395365
2231000,0.0324,0.013523,0.002678,0.000431,0.418518
2232000,0.0324,0.013523,0.002678,0.000431,0.465059
2233000,0.0324,0.013523,0.002678,0.000431,0.530757
2234000,0.0324,0.013523,0.002678,0.000431,0.495969
2235000,0.0324,0.013523,0.002678,0.000431,0.419811
2236000,0.0324,0.013523,0.002678,0.000431,0.556496
2237000,0.0324,0.013523,0.002678,0.000431,0.578239
2238000,0.0324,0.013523,0.002678,0.000431,0.405942
2239000,0.0324,0.013523,0.002678,0.000431,0.439555
2240000,0.0324,0.013523,0.002678,0.000431,0.452131
2241000,0.0324,0.013523,0.002678,0.000431,0.441671
2242000,0.0324,0.013523,0.002678,0.000431,0.489975
2243000,0.0324,0.013523,0.002678,0.000431,0.510542
2244000,0.0324,0.013523,0.002678,0.000431,0.573067
2245000,0.0324,0.013523,0.002678,0.000431,0.543685
2246000,0.0324,0.013523,0.002678,0.000431,0.514891
2247000,0.0324,0.013523,0.002678,0.000431,0.585878
2248000,0.0324,0.013523,0.002678,0.000431,0.585760
2249000,0.0324,0.013523,0.002678,0.000431,0.610089
2250000,0.0324,0.013523,0.002678,0.000431,0.517712
2251000,0.0324,0.013523,0.002678,0.000431,0.529817
2252000,0.0324,0.013523,0.002678,0.000431,0.440731
2253000,0.0324,0.013523,0.002678,0.000431,0.476694
2254000,0.0324,0.013523,0.002678,0.000431,0.411936
2255000,0.0324,0.013523,0.002678,0.000431,0.529229
2256000,0.0324,0.013523,0.002678,0.000431,0.717157
2257000,0.0324,0.013523,0.002678,0.000431,0.626543
2258000,0.0324,0.013523,0.002678,0.000431,0.621959
2259000,0.0324,0.013523,0.002678,0.000431,0.612792
2260000,0.0324,0.013523,0.002678,0.000431,0.609501
2261000,0.0324,0.013523,0.002678,0.000431,0.670733
2262000,0.0324,0.013523,0.002678,0.000431,0.608326
2263000,0.0324,0.013523,0.002678,0.000431,0.488917
2264000,0.0324,0.013523,0.002678,0.000431,0.483041
2265000,0.0324,0.013523,0.002678,0.000431,0.543803
2266000,0.0324,0.013523,0.002678,0.000431,0.635710
2267000,0.0324,0.013523,0.002678,0.000431,0.781445
2268000,0.0324,0.013523,0.002678,0.000431,0.716334
2269000,0.0324,0.013523,0.002678,0.000431,0.628658
2270000,0.0324,0.013523,0.002678,0.000431,0.652869
2271000,0.0324,0.013523,0.002678,0.000431,0.690008
2272000,0.0324,0.013523,0.002678,0.000431,0.633242
2273000,0.0324,0.013523,0.002678,0.000431,0.583292
2274000,0.0324,0.013523,0.002678,0.000431,0.542275
2275000,0.0324,0.013523,0.002678,0.000431,0.494911
2276000,0.0324,0.013523,0.002678,0.000431,0.500905
2277000,0.0324,0.013523,0.002678,0.000431,0.437087
2278000,0.0324,0.013523,0.002678,0.000431,0.406412
2279000,0.0324,0.013523,0.002678,0.000431,0.469408
2280000,0.0324,0.013523,0.002678,0.000431,0.433914
2281000,0.0324,0.013523,0.002678,0.000431,0.358343
2282000,0.0324,0.013523,0.002678,0.000431,0.417695
2283000,0.0324,0.013523,0.002678,0.000431,0.364690
2284000,0.0324,0.013523,0.002678,0.000431,0.310627
2285000,0.0324,0.013523,0.002678,0.000431,0.309804
2286000,0.0324,0.013523,0.002678,0.000431,0.398185
2287000,0.0324,0.013523,0.002678,0.000431,0.394895
2288000,0.0324,0.013523,0.002678,0.000431,0.394425
2289000,0.0324,0.013523,0.002678,0.000431,0.481866
2290000,0.0324,0.013523,0.002678,0.000431,0.581177
2291000,0.0324,0.013523,0.002678,0.000431,0.551325
2292000,0.0324,0.013523,0.002678,0.000431,0.476107
2293000,0.0324,0.013523,0.002678,0.000431,0.481983
2294000,0.0324,0.013523,0.002678,0.000431,0.444962
2295000,0.0324,0.013523,0.002678,0.000431,0.521355
2296000,0.0324,0.013523,0.002678,0.000431,0.705404
2297000,0.0324,0.013523,0.002678,0.000431,0.668970
2298000,0.0324,0.013523,0.002678,0.000431,0.524058
2299000,0.0324,0.013523,0.002678,0.000431,0.461181
2300000,0.0324,0.013523,0.002678,0.000431,0.465764
2301000,0.0324,0.013523,0.002678,0.000431,0.446607
2302000,0.0324,0.013523,0.002678,0.000431,0.576828
2303000,0.0324,0.013523,0.002678,0.000431,0.758762
2304000,0.0324,0.013523,0.002678,0.000431,0.590344
2305000,0.0324,0.013523,0.002678,0.000431,0.668853
2306000,0.0324,0.013523,0.002678,0.000431,0.722681
2307000,0.0324,0.013523,0.002678,0.000431,0.729850
2308000,0.0324,0.013523,0.002678,0.000431,0.621019
2309000,0.0324,0.013523,0.002678,0.000431,0.689185
2310000,0.0324,0.013523,0.002678,0.000431,0.743953
2311000,0.0324,0.013523,0.002678,0.000431,0.644995
2312000,0.0324,0.013523,0.002678,0.000431,0.680018
2313000,0.0324,0.013523,0.002678,0.000431,0.594693
2314000,0.0324,0.013523,0.002678,0.000431,0.605858
2315000,0.0324,0.013523,0.002678,0.000431,0.591637
2316000,0.0324,0.013523,0.002678,0.000431,0.631714
2317000,0.0324,0.013523,0.002678,0.000431,0.698588
2318000,0.0324,0.013523,0.002678,0.000431,0.595633
2319000,0.0324,0.013523,0.002678,0.000431,0.569659
2320000,0.0324,0.013523,0.002678,0.000431,0.490798
2321000,0.0324,0.013523,0.002678,0.000431,0.462708
2322000,0.0324,0.013523,0.002678,0.000431,0.465529
2323000,0.0324,0.013523,0.002678,0.000431,0.619726
2324000,0.0324,0.013523,0.002678,0.000431,0.643584
2325000,0.0324,0.013523,0.002678,0.000431,0.561197
2326000,0.0324,0.013523,0.002678,0.000431,0.558964
2327000,0.0324,0.013523,0.002678,0.000431,0.545331
2328000,0.0324,0.013523,0.002678,0.000431,0.679783
2329000,0.0324,0.013523,0.002678,0.000431,0.692946
2330000,0.0324,0.013523,0.002678,0.000431,0.703994
2331000,0.0324,0.013523,0.002678,0.000431,0.695062
2332000,0.0324,0.013523,0.002678,0.000431,0.767106
2333000,0.0324,0.013523,0.002678,0.000431,0.589169
2334000,0.0324,0.013523,0.002678,0.000431,0.593517
2335000,0.0324,0.013523,0.002678,0.000431,0.548857
2336000,0.0324,0.013523,0.002678,0.000431,0.544038
2337000,0.0324,0.013523,0.002678,0.000431,0.526996
2338000,0.0324,0.013523,0.002678,0.000431,0.636415
2339000,0.0324,0.013523,0.002678,0.000431,0.605858
2340000,0.0324,0.013523,0.002678,0.000431,0.584820
2341000,0.0324,0.013523,0.002678,0.000431,0.547916
2342000,0.0324,0.013523,0.002678,0.000431,0.573538
2343000,0.0324,0.013523,0.002678,0.000431,0.500553
2344000,0.0324,0.013523,0.002678,0.000431,0.501610
2345000,0.0324,0.013523,0.002678,0.000431,0.574478
2346000,0.0324,0.013523,0.002678,0.000431,0.484569
2347000,0.0324,0.013523,0.002678,0.000431,0.610559
2348000,0.0324,0.013523,0.002678,0.000431,0.624897
2349000,0.0324,0.013523,0.002678,0.000431,0.570364
2350000,0.0324,0.013523,0.002678,0.000431,0.714806
2351000,0.0324,0.013523,0.002678,0.000431,0.632654
2352000,0.0324,0.013523,0.002678,0.000431,0.641704
2353000,0.0324,0.013523,0.002678,0.000431,0.614437
2354000,0.0324,0.013523,0.002678,0.000431,0.528877
2355000,0.0324,0.013523,0.002678,0.000431,0.568366
2356000,0.0324,0.013523,0.002678,0.000431,0.553205
2357000,0.0324,0.013523,0.002678,0.000431,0.525233
2358000,0.0324,0.013523,0.002678,0.000431,0.665562
2359000,0.0324,0.013523,0.002678,0.000431,0.711398
2360000,0.0324,0.013523,0.002678,0.000431,0.631832
2361000,0.0324,0.013523,0.002678,0.000431,0.805656
2362000,0.0324,0.013523,0.002678,0.000431,0.673907
2363000,0.0324,0.013523,0.002678,0.000431,0.716452
2364000,0.0324,0.013523,0.002678,0.000431,0.694239
2365000,0.0324,0.013523,0.002678,0.000431,0.616553
2366000,0.0324,0.013523,0.002678,0.000431,0.676140
2367000,0.0324,0.013523,0.002678,0.000431,0.769457
2368000,0.0324,0.013523,0.002678,0.000431,0.792610
2369000,0.0324,0.013523,0.002678,0.000431,0.721976
2370000,0.0324,0.013523,0.002678,0.000431,0.698235
2371000,0.0324,0.013523,0.002678,0.000431,0.708460
2372000,0.0324,0.013523,0.002678,0.000431,0.707637
2373000,0.0324,0.013523,0.002678,0.000431,0.711046
2374000,0.0324,0.013523,0.002678,0.000431,0.652752
2375000,0.0324,0.013523,0.002678,0.000431,0.633829
2376000,0.0324,0.013523,0.002678,0.000431,0.527114
2377000,0.0324,0.013523,0.002678,0.000431,0.514421
2378000,0.0324,0.013523,0.002678,0.000431,0.496909
2379000,0.0324,0.013523,0.002678,0.000431,0.504548
2380000,0.0324,0.013523,0.002678,0.000431,0.438498
2381000,0.0324,0.013523,0.002678,0.000431,0.460828
2382000,0.0324,0.013523,0.002678,0.000431,0.440731
2383000,0.0324,0.013523,0.002678,0.000431,0.497144
2384000,0.0324,0.013523,0.002678,0.000431,0.543685
2385000,0.0324,0.013523,0.002678,0.000431,0.469055
2386000,0.0324,0.013523,0.002678,0.000431,0.545801
2387000,0.0324,0.013523,0.002678,0.000431,0.617023
2388000,0.0324,0.013523,0.002678,0.000431,0.592812
2389000,0.0324,0.013523,0.002678,0.000431,0.654867
2390000,0.0324,0.013523,0.002678,0.000431,0.612439
2391000,0.0324,0.013523,0.002678,0.000431,0.602685
2392000,0.0324,0.013523,0.002678,0.000431,0.609619
2393000,0.0324,0.013523,0.002678,0.000431,0.681311
2394000,0.0324,0.013523,0.002678,0.000431,0.718215
2395000,0.0324,0.013523,0.002678,0.000431,0.532285
2396000,0.0324,0.013523,0.002678,0.000431,0.500435
2397000,0.0324,0.013523,0.002678,0.000431,0.487507
2398000,0.0324,0.013523,0.002678,0.000431,0.515008
2399000,0.0324,0.013523,0.002678,0.000431,0.557789
2400000,0.0324,0.013523,0.002678,0.000431,0.598218
2401000,0.0324,0.013523,0.002678,0.000431,0.576711
2402000,0.0324,0.013523,0.002678,0.000431,0.571069
2403000,0.0324,0.013523,0.002678,0.000431,0.476812
2404000,0.0324,0.013523,0.002678,0.000431,0.524998
2405000,0.0324,0.013523,0.002678,0.000431,0.620196
2406000,0.0324,0.013523,0.002678,0.000431,0.644995
2407000,0.0324,0.013523,0.002678,0.000431,0.819877
2408000,0.0324,0.013523,0.002678,0.000431,0.847848
2409000,0.0324,0.013523,0.002678,0.000431,0.634652
2410000,0.0324,0.013523,0.002678,0.000431,0.802247
2411000,0.0324,0.013523,0.002678,0.000431,0.746892
2412000,0.0324,0.013523,0.002678,0.000431,0.637473
2413000,0.0324,0.013523,0.002678,0.000431,0.585408
2414000,0.0324,0.013523,0.002678,0.000431,0.570482
2415000,0.0324,0.013523,0.002678,0.000431,0.576946
2416000,0.0324,0.013523,0.002678,0.000431,0.537221
2417000,0.0324,0.013523,0.002678,0.000431,0.605975
2418000,0.0324,0.013523,0.002678,0.000431,0.567661
2419000,0.0324,0.013523,0.002678,0.000431,0.590109
2420000,0.0324,0.013523,0.002678,0.000431,0.600216
2421000,0.0324,0.013523,0.002678,0.000431,0.667090
2422000,0.0324,0.013523,0.002678,0.000431,0.619491
2423000,0.0324,0.013523,0.002678,0.000431,0.650871
2424000,0.0324,0.013523,0.002678,0.000431,0.676257
2425000,0.0324,0.013523,0.002678,0.000431,0.691888
2426000,0.0324,0.013523,0.002678,0.000431,0.662506
2427000,0.0324,0.013523,0.002678,0.000431,0.618433
2428000,0.0324,0.013523,0.002678,0.000431,0.553793
2429000,0.0324,0.013523,0.002678,0.000431,0.616200
2430000,0.0324,0.013523,0.002678,0.000431,0.747479
2431000,0.0324,0.013523,0.002678,0.000431,0.590814
2432000,0.0324,0.013523,0.002678,0.000431,0.575065
2433000,0.0324,0.013523,0.002678,0.000431,0.540277
2434000,0.0324,0.013523,0.002678,0.000431,0.578826
2435000,0.0324,0.013523,0.002678,0.000431,0.469995
2436000,0.0324,0.013523,0.002678,0.000431,0.459653
2437000,0.0324,0.013523,0.002678,0.000431,0.414169
2438000,0.0324,0.013523,0.002678,0.000431,0.411584
2439000,0.0324,0.013523,0.002678,0.000431,0.443786
2440000,0.0324,0.013523,0.002678,0.000431,0.519122
2441000,0.0324,0.013523,0.002678,0.000431,0.442494
2442000,0.0324,0.013523,0.002678,0.000431,0.554733
2443000,0.0324,0.013523,0.002678,0.000431,0.486214
2444000,0.0324,0.013523,0.002678,0.000431,0.576946
2445000,0.0324,0.013523,0.002678,0.000431,0.562490
2446000,0.0324,0.013523,0.002678,0.000431,0.548974
2447000,0.0324,0.013523,0.002678,0.000431,0.639471
2448000,0.0324,0.013523,0.002678,0.000431,0.583527
2449000,0.0324,0.013523,0.002678,0.000431,0.693064
2450000,0.0324,0.013523,0.002678,0.000431,0.707285
2451000,0.0324,0.013523,0.002678,0.000431,0.586818
2452000,0.0324,0.013523,0.002678,0.000431,0.611147
2453000,0.0324,0.013523,0.002678,0.000431,0.617258
2454000,0.0324,0.013523,0.002678,0.000431,0.630304
2455000,0.0324,0.013523,0.002678,0.000431,0.576476
2456000,0.0324,0.013523,0.002678,0.000431,0.505254
2457000,0.0324,0.013523,0.002678,0.000431,0.472463
2458000,0.0324,0.013523,0.002678,0.000431,0.439555
2459000,0.0324,0.013523,0.002678,0.000431,0.399243
2460000,0.0324,0.013523,0.002678,0.000431,0.378441
2461000,0.0324,0.013523,0.002678,0.000431,0.358343
2462000,0.0324,0.013523,0.002678,0.000431,0.334015
2463000,0.0324,0.013523,0.002678,0.000431,0.342947
2464000,0.0324,0.013523,0.002678,0.000431,0.309804
2465000,0.0324,0.013523,0.002678,0.000431,0.294996
2466000,0.0324,0.013523,0.002678,0.000431,0.283008
2467000,0.0324,0.013523,0.002678,0.000431,0.266671
2468000,0.0324,0.013523,0.002678,0.000431,0.254449
2469000,0.0324,0.013523,0.002678,0.000431,0.243989
2470000,0.0324,0.013523,0.002678,0.000431,0.239875
2471000,0.0324,0.013523,0.002678,0.000431,0.224361
2472000,0.0324,0.013523,0.002678,0.000431,0.218367
2473000,0.0324,0.013523,0.002678,0.000431,0.218720
2474000,0.0324,0.013523,0.002678,0.000431,0.201326
2475000,0.0324,0.013523,0.002678,0.000431,0.203676
2476000,0.0324,0.013523,0.002678,0.000431,0.194627
2477000,0.0324,0.013523,0.002678,0.000431,0.189455
2478000,0.0324,0.013523,0.002678,0.000431,0.177585
2479000,0.0324,0.013523,0.002678,0.000431,0.174999
2480000,0.0324,0.013523,0.002678,0.000431,0.171239
2481000,0.0324,0.013523,0.002678,0.000431,0.166302
2482000,0.0324,0.013523,0.002678,0.000431,0.161954
2483000,0.0324,0.013523,0.002678,0.000431,0.158193
2484000,0.0324,0.013523,0.002678,0.000431,0.159838
2485000,0.0324,0.013523,0.002678,0.000431,0.149378
2486000,0.0324,0.013523,0.002678,0.000431,0.147615
2487000,0.0324,0.013523,0.002678,0.000431,0.140916
2488000,0.0324,0.013523,0.002678,0.000431,0.143737
2489000,0.0324,0.013523,0.002678,0.000431,0.139153
2490000,0.0324,0.013523,0.002678,0.000431,0.138331
2491000,0.0324,0.013523,0.002678,0.000431,0.136333
2492000,0.0324,0.013523,0.002678,0.000431,0.133512
2493000,0.0324,0.013523,0.002678,0.000431,0.133159
2494000,0.0324,0.013523,0.002678,0.000431,0.129869
2495000,0.0324,0.013523,0.002678,0.000431,0.128223
2496000,0.0324,0.013523,0.002678,0.000431,0.125990
2497000,0.0324,0.013523,0.002678,0.000431,0.117528
2498000,0.0324,0.013523,0.002678,0.000431,0.118233
2499000,0.0324,0.013523,0.002678,0.000431,0.118351
2500000,0.0324,0.013523,0.002678,0.000431,0.111064
2501000,0.0324,0.013523,0.002678,0.000431,0.110712
2502000,0.0324,0.013523,0.002678,0.000431,0.108361
2503000,0.0324,0.013523,0.002678,0.000431,0.110594
2504000,0.0324,0.013523,0.002678,0.000431,0.101779
2505000,0.0324,0.013523,0.002678,0.000431,0.105893
2506000,0.0324,0.013523,0.002678,0.000431,0.102720
2507000,0.0324,0.013523,0.002678,0.000431,0.100134
2508000,0.0324,0.013523,0.002678,0.000431,0.101427
2509000,0.0324,0.013523,0.002678,0.000431,0.099546
2510000,0.0324,0.013523,0.002678,0.000431,0.100016
2511000,0.0324,0.013523,0.002678,0.000431,0.092730
2512000,0.0324,0.013523,0.002678,0.000431,0.095315
2513000,0.0324,0.013523,0.002678,0.000431,0.091554
2514000,0.0324,0.013523,0.002678,0.000431,0.091202
2515000,0.0324,0.013523,0.002678,0.000431,0.090379
2516000,0.0324,0.013523,0.002678,0.000431,0.088734
2517000,0.0324,0.013523,0.002678,0.000431,0.088029
2518000,0.0324,0.013523,0.002678,0.000431,0.085208
2519000,0.0324,0.013523,0.002678,0.000431,0.090262
2520000,0.0324,0.013523,0.002678,0.000431,0.083210
2521000,0.0324,0.013523,0.002678,0.000431,0.081682
2522000,0.0324,0.013523,0.002678,0.000431,0.081565
2523000,0.0324,0.013523,0.002678,0.000431,0.079684
2524000,0.0324,0.013523,0.002678,0.000431,0.076746
2525000,0.0324,0.013523,0.002678,0.000431,0.074748
2526000,0.0324,0.013523,0.002678,0.000431,0.075218
2527000,0.0324,0.013523,0.002678,0.000431,0.074395
2528000,0.0324,0.013523,0.002678,0.000431,0.074748
2529000,0.0324,0.013523,0.002678,0.000431,0.073338
2530000,0.0324,0.013523,0.002678,0.000431,0.073808
2531000,0.0324,0.013523,0.002678,0.000431,0.072515
2532000,0.0324,0.013523,0.002678,0.000431,0.072280
2533000,0.0324,0.013523,0.002678,0.000431,0.072750
2534000,0.0324,0.013523,0.002678,0.000431,0.069107
2535000,0.0324,0.013523,0.002678,0.000431,0.069342
2536000,0.0324,0.013523,0.002678,0.000431,0.065581
2537000,0.0324,0.013523,0.002678,0.000431,0.063818
2538000,0.0324,0.013523,0.002678,0.000431,0.062995
2539000,0.0324,0.013523,0.002678,0.000431,0.064170
2540000,0.0324,0.013523,0.002678,0.000431,0.063700
2541000,0.0324,0.013523,0.002678,0.000431,0.062172
2542000,0.0324,0.013523,0.002678,0.000431,0.061820
2543000,0.0324,0.013523,0.002678,0.000431,0.062878
2544000,0.0324,0.013523,0.002678,0.000431,0.058412
2545000,0.0324,0.013523,0.002678,0.000431,0.057589
2546000,0.0324,0.013523,0.002678,0.000431,0.060174
2547000,0.0324,0.013523,0.002678,0.000431,0.056061
2548000,0.0324,0.013523,0.002678,0.000431,0.057824
2549000,0.0324,0.013523,0.002678,0.000431,0.058059
2550000,0.0324,0.013523,0.002678,0.000431,0.057824
2551000,0.0324,0.013523,0.002678,0.000431,0.055121
2552000,0.0324,0.013523,0.002678,0.000431,0.057119
2553000,0.0324,0.013523,0.002678,0.000431,0.053828
2554000,0.0324,0.013523,0.002678,0.000431,0.056061
2555000,0.0324,0.013523,0.002678,0.000431,0.055591
2556000,0.0324,0.013523,0.002678,0.000431,0.055591
2557000,0.0324,0.013523,0.002678,0.000431,0.053710
2558000,0.0324,0.013523,0.002678,0.000431,0.053358
2559000,0.0324,0.013523,0.002678,0.000431,0.058059
2560000,0.0324,0.013523,0.002678,0.000431,0.051360
2561000,0.0324,0.013523,0.002678,0.000431,0.049127
2562000,0.0324,0.013523,0.002678,0.000431,0.052300
2563000,0.0324,0.013523,0.002678,0.000431,0.048774
2564000,0.0324,0.013523,0.002678,0.000431,0.047834
2565000,0.0324,0.013523,0.002678,0.000431,0.049009
2566000,0.0324,0.013523,0.002678,0.000431,0.046894
2567000,0.0324,0.013523,0.002678,0.000431,0.044896
2568000,0.0324,0.013523,0.002678,0.000431,0.044896
2569000,0.0324,0.013523,0.002678,0.000431,0.047129
2570000,0.0324,0.013523,0.002678,0.000431,0.045131
2571000,0.0324,0.013523,0.002678,0.000431,0.044661
2572000,0.0324,0.013523,0.002678,0.000431,0.045131
2573000,0.0324,0.013523,0.002678,0.000431,0.045366
2574000,0.0324,0.013523,0.002678,0.000431,0.044661
2575000,0.0324,0.013523,0.002678,0.000431,0.042780
2576000,0.0324,0.013523,0.002678,0.000431,0.044543
2577000,0.0324,0.013523,0.002678,0.000431,0.043603
2578000,0.0324,0.013523,0.002678,0.000431,0.044308
2579000,0.0324,0.013523,0.002678,0.000431,0.043015
2580000,0.0324,0.013523,0.002678,0.000431,0.043603
2581000,0.0324,0.013523,0.002678,0.000431,0.043015
2582000,0.0324,0.013523,0.002678,0.000431,0.042663
2583000,0.0324,0.013523,0.002678,0.000431,0.043485
2584000,0.0324,0.013523,0.002678,0.000431,0.040900
2585000,0.0324,0.013523,0.002678,0.000431,0.043133
2586000,0.0324,0.013523,0.002678,0.000431,0.039960
2587000,0.0324,0.013523,0.002678,0.000431,0.040547
2588000,0.0324,0.013523,0.002678,0.000431,0.041370
2589000,0.0324,0.013523,0.002678,0.000431,0.040665
2590000,0.0324,0.013523,0.002678,0.000431,0.042075
2591000,0.0324,0.013523,0.002678,0.000431,0.041958
2592000,0.0324,0.013523,0.002678,0.000431,0.037491
2593000,0.0324,0.013523,0.002678,0.000431,0.036199
2594000,0.0324,0.013523,0.002678,0.000431,0.038079
2595000,0.0324,0.013523,0.002678,0.000431,0.037491
2596000,0.0324,0.013523,0.002678,0.000431,0.037021
2597000,0.0324,0.013523,0.002678,0.000431,0.036316
2598000,0.0324,0.013523,0.002678,0.000431,0.038197
2599000,0.0324,0.013523,0.002678,0.000431,0.034788
2600000,0.0324,0.013523,0.002678,0.000431,0.037139
2601000,0.0324,0.013523,0.002678,0.000431,0.037491
2602000,0.0324,0.013523,0.002678,0.000431,0.037374
2603000,0.0324,0.013523,0.002678,0.000431,0.034083
2604000,0.0324,0.013523,0.002678,0.000431,0.037727
2605000,0.0324,0.013523,0.002678,0.000431,0.038079
2606000,0.0324,0.013523,0.002678,0.000431,0.034906
2607000,0.0324,0.013523,0.002678,0.000431,0.035494
2608000,0.0324,0.013523,0.002678,0.000431,0.036904
2609000,0.0324,0.013523,0.002678,0.000431,0.034318
2610000,0.0324,0.013523,0.002678,0.000431,0.036081
2611000,0.0324,0.013523,0.002678,0.000431,0.035141
2612000,0.0324,0.013523,0.002678,0.000431,0.038667
2613000,0.0324,0.013523,0.002678,0.000431,0.033731
2614000,0.0324,0.013523,0.002678,0.000431,0.035494
2615000,0.0324,0.013523,0.002678,0.000431,0.034083
2616000,0.0324,0.013523,0.002678,0.000431,0.033260
2617000,0.0324,0.013523,0.002678,0.000431,0.033025
2618000,0.0324,0.013523,0.002678,0.000431,0.033966
2619000,0.0324,0.013523,0.002678,0.000431,0.032320
2620000,0.0324,0.013523,0.002678,0.000431,0.031733
2621000,0.0324,0.013523,0.002678,0.000431,0.032320
2622000,0.0324,0.013523,0.002678,0.000431,0.031733
2623000,0.0324,0.013523,0.002678,0.000431,0.032555
2624000,0.0324,0.013523,0.002678,0.000431,0.032790
2625000,0.0324,0.013523,0.002678,0.000431,0.030675
2626000,0.0324,0.013523,0.002678,0.000431,0.031498
2627000,0.0324,0.013523,0.002678,0.000431,0.031968
2628000,0.0324,0.013523,0.002678,0.000431,0.030675
2629000,0.0324,0.013523,0.002678,0.000431,0.031733
2630000,0.0324,0.013523,0.002678,0.000431,0.031027
2631000,0.0324,0.013523,0.002678,0.000431,0.029735
2632000,0.0324,0.013523,0.002678,0.000431,0.031615
2633000,0.0324,0.013523,0.002678,0.000431,0.029265
2634000,0.0324,0.013523,0.002678,0.000431,0.030322
2635000,0.0324,0.013523,0.002678,0.000431,0.030440
2636000,0.0324,0.013523,0.002678,0.000431,0.029029
2637000,0.0324,0.013523,0.002678,0.000431,0.029147
2638000,0.0324,0.013523,0.002678,0.000431,0.028794
2639000,0.0324,0.013523,0.002678,0.000431,0.027619
2640000,0.0324,0.013523,0.002678,0.000431,0.029735
2641000,0.0324,0.013523,0.002678,0.000431,0.028559
2642000,0.0324,0.013523,0.002678,0.000431,0.027149
2643000,0.0324,0.013523,0.002678,0.000431,0.029735
2644000,0.0324,0.013523,0.002678,0.000431,0.029382
2645000,0.0324,0.013523,0.002678,0.000431,0.026561
2646000,0.0324,0.013523,0.002678,0.000431,0.029500
2647000,0.0324,0.013523,0.002678,0.000431,0.028559
2648000,0.0324,0.013523,0.002678,0.000431,0.027737
2649000,0.0324,0.013523,0.002678,0.000431,0.026914
2650000,0.0324,0.013523,0.002678,0.000431,0.028677
2651000,0.0324,0.013523,0.002678,0.000431,0.028207
2652000,0.0324,0.013523,0.002678,0.000431,0.026091
2653000,0.0324,0.013523,0.002678,0.000431,0.027737
2654000,0.0324,0.013523,0.002678,0.000431,0.028677
2655000,0.0324,0.013523,0.002678,0.000431,0.027149
2656000,0.0324,0.013523,0.002678,0.000431,0.027384
2657000,0.0324,0.013523,0.002678,0.000431,0.028677
2658000,0.0324,0.013523,0.002678,0.000431,0.026679
2659000,0.0324,0.013523,0.002678,0.000431,0.026561
2660000,0.0324,0.013523,0.002678,0.000431,0.027031
2661000,0.0324,0.013523,0.002678,0.000431,0.026796
2662000,0.0324,0.013523,0.002678,0.000431,0.027502
2663000,0.0324,0.013523,0.002678,0.000431,0.025974
2664000,0.0324,0.013523,0.002678,0.000431,0.026091
2665000,0.0324,0.013523,0.002678,0.000431,0.026091
2666000,0.0324,0.013523,0.002678,0.000431,0.025386
2667000,0.0324,0.013523,0.002678,0.000431,0.025856
2668000,0.0324,0.013523,0.002678,0.000431,0.026209
2669000,0.0324,0.013523,0.002678,0.000431,0.027149
2670000,0.0324,0.013523,0.002678,0.000431,0.025739
2671000,0.0324,0.013523,0.002678,0.000431,0.026444
2672000,0.0324,0.013523,0.002678,0.000431,0.024916
2673000,0.0324,0.013523,0.002678,0.000431,0.027384
2674000,0.0324,0.013523,0.002678,0.000431,0.025386
2675000,0.0324,0.013523,0.002678,0.000431,0.024798
2676000,0.0324,0.013523,0.002678,0.000431,0.026561
2677000,0.0324,0.013523,0.002678,0.000431,0.024563
2678000,0.0324,0.013523,0.002678,0.000431,0.025269
2679000,0.0324,0.013523,0.002678,0.000431,0.025739
2680000,0.0324,0.013523,0.002678,0.000431,0.026326
2681000,0.0324,0.013523,0.002678,0.000431,0.024328
2682000,0.0324,0.013523,0.002678,0.000431,0.023858
2683000,0.0324,0.013523,0.002678,0.000431,0.024916
2684000,0.0324,0.013523,0.002678,0.000431,0.024798
2685000,0.0324,0.013523,0.002678,0.000431,0.024681
2686000,0.0324,0.013523,0.002678,0.000431,0.024563
2687000,0.0324,0.013523,0.002678,0.000431,0.023741
2688000,0.0324,0.013523,0.002678,0.000431,0.025504
2689000,0.0324,0.013523,0.002678,0.000431,0.024446
2690000,0.0324,0.013523,0.002678,0.000431,0.024563
2691000,0.0324,0.013523,0.002678,0.000431,0.023976
2692000,0.0324,0.013523,0.002678,0.000431,0.025269
2693000,0.0324,0.013523,0.002678,0.000431,0.023506
2694000,0.0324,0.013523,0.002678,0.000431,0.023858
2695000,0.0324,0.013523,0.002678,0.000431,0.026209
2696000,0.0324,0.013523,0.002678,0.000431,0.023623
2697000,0.0324,0.013523,0.002678,0.000431,0.023976
2698000,0.0324,0.013523,0.002678,0.000431,0.023271
2699000,0.0324,0.013523,0.002678,0.000431,0.023271
2700000,0.0324,0.013523,0.002678,0.000431,0.023153
2701000,0.0324,0.013523,0.002678,0.000431,0.024916
2702000,0.0324,0.013523,0.002678,0.000431,0.023623
2703000,0.0324,0.013523,0.002678,0.000431,0.023036
2704000,0.0324,0.013523,0.002678,0.000431,0.024446
2705000,0.0324,0.013523,0.002678,0.000431,0.024211
2706000,0.0324,0.013523,0.002678,0.000431,0.022800
2707000,0.0324,0.013523,0.002678,0.000431,0.024916
2708000,0.0324,0.013523,0.002678,0.000431,0.023388
2709000,0.0324,0.013523,0.002678,0.000431,0.023976
2710000,0.0324,0.013523,0.002678,0.000431,0.024211
2711000,0.0324,0.013523,0.002678,0.000431,0.024211
2712000,0.0324,0.013523,0.002678,0.000431,0.023271
2713000,0.0324,0.013523,0.002678,0.000431,0.024093
2714000,0.0324,0.013523,0.002678,0.000431,0.023623
2715000,0.0324,0.013523,0.002678,0.000431,0.023036
2716000,0.0324,0.013523,0.002678,0.000431,0.023271
2717000,0.0324,0.013523,0.002678,0.000431,0.022330
2718000,0.0324,0.013523,0.002678,0.000431,0.023976
2719000,0.0324,0.013523,0.002678,0.000431,0.023153
2720000,0.0324,0.013523,0.002678,0.000431,0.022800
2721000,0.0324,0.013523,0.002678,0.000431,0.023623
2722000,0.0324,0.013523,0.002678,0.000431,0.021743
2723000,0.0324,0.013523,0.002678,0.000431,0.021625
2724000,0.0324,0.013523,0.002678,0.000431,0.023623
2725000,0.0324,0.013523,0.002678,0.000431,0.021508
2726000,0.0324,0.013523,0.002678,0.000431,0.022330
2727000,0.0324,0.013523,0.002678,0.000431,0.020920
2728000,0.0324,0.013523,0.002678,0.000431,0.020920
2729000,0.0324,0.013523,0.002678,0.000431,0.020215
2730000,0.0324,0.013523,0.002678,0.000431,0.020685
2731000,0.0324,0.013523,0.002678,0.000431,0.021625
2732000,0.0324,0.013523,0.002678,0.000431,0.020802
2733000,0.0324,0.013523,0.002678,0.000431,0.019627
2734000,0.0324,0.013523,0.002678,0.000431,0.021273
2735000,0.0324,0.013523,0.002678,0.000431,0.021273
2736000,0.0324,0.013523,0.002678,0.000431,0.018569
2737000,0.0324,0.013523,0.002678,0.000431,0.022448
2738000,0.0324,0.013523,0.002678,0.000431,0.019392
2739000,0.0324,0.013523,0.002678,0.000431,0.018922
2740000,0.0324,0.013523,0.002678,0.000431,0.020332
2741000,0.0324,0.013523,0.002678,0.000431,0.019745
2742000,0.0324,0.013523,0.002678,0.000431,0.018569
2743000,0.0324,0.013523,0.002678,0.000431,0.019862
2744000,0.0324,0.013523,0.002678,0.000431,0.019510
2745000,0.0324,0.013523,0.002678,0.000431,0.019392
2746000,0.0324,0.013523,0.002678,0.000431,0.019040
2747000,0.0324,0.013523,0.002678,0.000431,0.020567
2748000,0.0324,0.013523,0.002678,0.000431,0.017982
2749000,0.0324,0.013523,0.002678,0.000431,0.019510
2750000,0.0324,0.013523,0.002678,0.000431,0.020920
2751000,0.0324,0.013523,0.002678,0.000431,0.019980
2752000,0.0324,0.013523,0.002678,0.000431,0.018687
2753000,0.0324,0.013523,0.002678,0.000431,0.018334
2754000,0.0324,0.013523,0.002678,0.000431,0.019392
2755000,0.0324,0.013523,0.002678,0.000431,0.018569
2756000,0.0324,0.013523,0.002678,0.000431,0.019157
2757000,0.0324,0.013523,0.002678,0.000431,0.018922
2758000,0.0324,0.013523,0.002678,0.000431,0.019627
2759000,0.0324,0.013523,0.002678,0.000431,0.017512
2760000,0.0324,0.013523,0.002678,0.000431,0.019627
2761000,0.0324,0.013523,0.002678,0.000431,0.020332
2762000,0.0324,0.013523,0.002678,0.000431,0.017747
2763000,0.0324,0.013523,0.002678,0.000431,0.018452
2764000,0.0324,0.013523,0.002678,0.000431,0.019275
2765000,0.0324,0.013523,0.002678,0.000431,0.017982
2766000,0.0324,0.013523,0.002678,0.000431,0.018805
2767000,0.0324,0.013523,0.002678,0.000431,0.019510
2768000,0.0324,0.013523,0.002678,0.000431,0.018922
2769000,0.0324,0.013523,0.002678,0.000431,0.017629
2770000,0.0324,0.013523,0.002678,0.000431,0.018805
2771000,0.0324,0.013523,0.002678,0.000431,0.019157
2772000,0.0324,0.013523,0.002678,0.000431,0.017277
2773000,0.0324,0.013523,0.002678,0.000431,0.019510
2774000,0.0324,0.013523,0.002678,0.000431,0.019275
2775000,0.0324,0.013523,0.002678,0.000431,0.018452
2776000,0.0324,0.013523,0.002678,0.000431,0.018334
2777000,0.0324,0.013523,0.002678,0.000431,0.018922
2778000,0.0324,0.013523,0.002678,0.000431,0.017864
2779000,0.0324,0.013523,0.002678,0.000431,0.017864
2780000,0.0324,0.013523,0.002678,0.000431,0.019157
2781000,0.0324,0.013523,0.002678,0.000431,0.017042
2782000,0.0324,0.013523,0.002678,0.000431,0.017512
2783000,0.0324,0.013523,0.002678,0.000431,0.016689
2784000,0.0324,0.013523,0.002678,0.000431,0.017864
2785000,0.0324,0.013523,0.002678,0.000431,0.017747
2786000,0.0324,0.013523,0.002678,0.000431,0.017277
2787000,0.0324,0.013523,0.002678,0.000431,0.018217
2788000,0.0324,0.013523,0.002678,0.000431,0.017277
2789000,0.0324,0.013523,0.002678,0.000431,0.017629
2790000,0.0324,0.013523,0.002678,0.000431,0.017159
2791000,0.0324,0.013523,0.002678,0.000431,0.017747
2792000,0.0324,0.013523,0.002678,0.000431,0.018217
2793000,0.0324,0.013523,0.002678,0.000431,0.017512
2794000,0.0324,0.013523,0.002678,0.000431,0.017512
2795000,0.0324,0.013523,0.002678,0.000431,0.017629
2796000,0.0324,0.013523,0.002678,0.000431,0.017277
2797000,0.0324,0.013523,0.002678,0.000431,0.018099
2798000,0.0324,0.013523,0.002678,0.000431,0.017394
2799000,0.0324,0.013523,0.002678,0.000431,0.017042
2800000,0.0324,0.013523,0.002678,0.000431,0.018569
2801000,0.0324,0.013523,0.002678,0.000431,0.017982
2802000,0.0324,0.013523,0.002678,0.000431,0.017747
2803000,0.0324,0.013523,0.002678,0.000431,0.017512
2804000,0.0324,0.013523,0.002678,0.000431,0.018805
2805000,0.0324,0.013523,0.002678,0.000431,0.017747
2806000,0.0324,0.013523,0.002678,0.000431,0.017982
2807000,0.0324,0.013523,0.002678,0.000431,0.017747
2808000,0.0324,0.013523,0.002678,0.000431,0.017747
2809000,0.0324,0.013523,0.002678,0.000431,0.016571
2810000,0.0324,0.013523,0.002678,0.000431,0.016807
2811000,0.0324,0.013523,0.002678,0.000431,0.017042
2812000,0.0324,0.013523,0.002678,0.000431,0.017629
2813000,0.0324,0.013523,0.002678,0.000431,0.016336
2814000,0.0324,0.013523,0.002678,0.000431,0.017747
2815000,0.0324,0.013523,0.002678,0.000431,0.015984
2816000,0.0324,0.013523,0.002678,0.000431,0.018569
2817000,0.0324,0.013523,0.002678,0.000431,0.016571
2818000,0.0324,0.013523,0.002678,0.000431,0.018099
2819000,0.0324,0.013523,0.002678,0.000431,0.018099
2820000,0.0324,0.013523,0.002678,0.000431,0.015984
2821000,0.0324,0.013523,0.002678,0.000431,0.012928
2822000,0.0324,0.013523,0.002678,0.000431,0.015161
2823000,0.0324,0.013523,0.002678,0.000431,0.013868
2824000,0.0324,0.013523,0.002678,0.000431,0.014809
2825000,0.0324,0.013523,0.002678,0.000431,0.015044
2826000,0.0324,0.013523,0.002678,0.000431,0.014221
2827000,0.0324,0.013523,0.002678,0.000431,0.013398
2828000,0.0324,0.013523,0.002678,0.000431,0.013868
2829000,0.0324,0.013523,0.002678,0.000431,0.013398
2830000,0.0324,0.013523,0.002678,0.000431,0.013281
2831000,0.0324,0.013523,0.002678,0.000431,0.013751
2832000,0.0324,0.013523,0.002678,0.000431,0.013516
2833000,0.0324,0.013523,0.002678,0.000431,0.014338
2834000,0.0324,0.013523,0.002678,0.000431,0.013163
2835000,0.0324,0.013523,0.002678,0.000431,0.013398
2836000,0.0324,0.013523,0.002678,0.000431,0.012105
2837000,0.0324,0.013523,0.002678,0.000431,0.013163
2838000,0.0324,0.013523,0.002678,0.000431,0.013163
2839000,0.0324,0.013523,0.002678,0.000431,0.013163
2840000,0.0324,0.013523,0.002678,0.000431,0.012693
2841000,0.0324,0.013523,0.002678,0.000431,0.012576
2842000,0.0324,0.013523,0.002678,0.000431,0.013516
2843000,0.0324,0.013523,0.002678,0.000431,0.012223
2844000,0.0324,0.013523,0.002678,0.000431,0.013046
2845000,0.0324,0.013523,0.002678,0.000431,0.013868
2846000,0.0324,0.013523,0.002678,0.000431,0.012223
2847000,0.0324,0.013523,0.002678,0.000431,0.013516
2848000,0.0324,0.013523,0.002678,0.000431,0.013398
2849000,0.0324,0.013523,0.002678,0.000431,0.012223
2850000,0.0324,0.013523,0.002678,0.000431,0.014103
2851000,0.0324,0.013523,0.002678,0.000431,0.012811
2852000,0.0324,0.013523,0.002678,0.000431,0.012458
2853000,0.0324,0.013523,0.002678,0.000431,0.013398
2854000,0.0324,0.013523,0.002678,0.000431,0.013046
2855000,0.0324,0.013523,0.002678,0.000431,0.012458
2856000,0.0324,0.013523,0.002678,0.000431,0.012811
2857000,0.0324,0.013523,0.002678,0.000431,0.013046
2858000,0.0324,0.013523,0.002678,0.000431,0.012458
2859000,0.0324,0.013523,0.002678,0.000431,0.013163
2860000,0.0324,0.013523,0.002678,0.000431,0.013633
2861000,0.0324,0.013523,0.002678,0.000431,0.012340
2862000,0.0324,0.013523,0.002678,0.000431,0.013398
2863000,0.0324,0.013523,0.002678,0.000431,0.013516
2864000,0.0324,0.013523,0.002678,0.000431,0.013281
2865000,0.0324,0.013523,0.002678,0.000431,0.012576
2866000,0.0324,0.013523,0.002678,0.000431,0.012928
2867000,0.0324,0.013523,0.002678,0.000431,0.013516
2868000,0.0324,0.013523,0.002678,0.000431,0.013046
2869000,0.0324,0.013523,0.002678,0.000431,0.012811
2870000,0.0324,0.013523,0.002678,0.000431,0.013751
2871000,0.0324,0.013523,0.002678,0.000431,0.012811
2872000,0.0324,0.013523,0.002678,0.000431,0.013398
2873000,0.0324,0.013523,0.002678,0.000431,0.012223
2874000,0.0324,0.013523,0.002678,0.000431,0.012928
2875000,0.0324,0.013523,0.002678,0.000431,0.013046
2876000,0.0324,0.013523,0.002678,0.000431,0.012811
2877000,0.0324,0.013523,0.002678,0.000431,0.013281
2878000,0.0324,0.013523,0.002678,0.000431,0.013516
2879000,0.0324,0.013523,0.002678,0.000431,0.013046
2880000,0.0324,0.013523,0.002678,0.000431,0.013281
2881000,0.0324,0.013523,0.002678,0.000431,0.013163
2882000,0.0324,0.013523,0.002678,0.000431,0.011870
2883000,0.0324,0.013523,0.002678,0.000431,0.012340
2884000,0.0324,0.013523,0.002678,0.000431,0.012223
2885000,0.0324,0.013523,0.002678,0.000431,0.012223
2886000,0.0324,0.013523,0.002678,0.000431,0.012458
2887000,0.0324,0.013523,0.002678,0.000431,0.011753
2888000,0.0324,0.013523,0.002678,0.000431,0.011988
2889000,0.0324,0.013523,0.002678,0.000431,0.012693
2890000,0.0324,0.013523,0.002678,0.000431,0.012340
2891000,0.0324,0.013523,0.002678,0.000431,0.012105
2892000,0.0324,0.013523,0.002678,0.000431,0.012340
2893000,0.0324,0.013523,0.002678,0.000431,0.012576
2894000,0.0324,0.013523,0.002678,0.000431,0.011988
2895000,0.0324,0.013523,0.002678,0.000431,0.013281
2896000,0.0324,0.013523,0.002678,0.000431,0.011518
2897000,0.0324,0.013523,0.002678,0.000431,0.012223
2898000,0.0324,0.013523,0.002678,0.000431,0.012693
2899000,0.0324,0.013523,0.002678,0.000431,0.011518
2900000,0.0324,0.013523,0.002678,0.000431,0.011988
2901000,0.0324,0.013523,0.002678,0.000431,0.012811
2902000,0.0324,0.013523,0.002678,0.000431,0.012693
2903000,0.0324,0.013523,0.002678,0.000431,0.012223
2904000,0.0324,0.013523,0.002678,0.000431,0.012928
2905000,0.0324,0.013523,0.002678,0.000431,0.011870
2906000,0.0324,0.013523,0.002678,0.000431,0.011635
2907000,0.0324,0.013523,0.002678,0.000431,0.010695
2908000,0.0324,0.013523,0.002678,0.000431,0.012340
2909000,0.0324,0.013523,0.002678,0.000431,0.010578
2910000,0.0324,0.013523,0.002678,0.000431,0.011635
2911000,0.0324,0.013523,0.002678,0.000431,0.011283
2912000,0.0324,0.013523,0.002678,0.000431,0.011870
2913000,0.0324,0.013523,0.002678,0.000431,0.010813
2914000,0.0324,0.013523,0.002678,0.000431,0.011870
2915000,0.0324,0.013523,0.002678,0.000431,0.011988
2916000,0.0324,0.013523,0.002678,0.000431,0.011283
2917000,0.0324,0.013523,0.002678,0.000431,0.011283
2918000,0.0324,0.013523,0.002678,0.000431,0.012340
2919000,0.0324,0.013523,0.002678,0.000431,0.010107
2920000,0.0324,0.013523,0.002678,0.000431,0.011753
2921000,0.0324,0.013523,0.002678,0.000431,0.011635
2922000,0.0324,0.013523,0.002678,0.000431,0.011400
2923000,0.0324,0.013523,0.002678,0.000431,0.010930
2924000,0.0324,0.013523,0.002678,0.000431,0.012105
2925000,0.0324,0.013523,0.002678,0.000431,0.010930
2926000,0.0324,0.013523,0.002678,0.000431,0.011870
2927000,0.0324,0.013523,0.002678,0.000431,0.012576
2928000,0.0324,0.013523,0.002678,0.000431,0.011048
2929000,0.0324,0.013523,0.002678,0.000431,0.011165
2930000,0.0324,0.013523,0.002678,0.000431,0.012576
2931000,0.0324,0.013523,0.002678,0.000431,0.010813
2932000,0.0324,0.013523,0.002678,0.000431,0.010225
2933000,0.0324,0.013523,0.002678,0.000431,0.011753
2934000,0.0324,0.013523,0.002678,0.000431,0.010695
2935000,0.0324,0.013523,0.002678,0.000431,0.010578
2936000,0.0324,0.013523,0.002678,0.000431,0.010930
2937000,0.0324,0.013523,0.002678,0.000431,0.011400
2938000,0.0324,0.013523,0.002678,0.000431,0.010342
2939000,0.0324,0.013523,0.002678,0.000431,0.011283
2940000,0.0324,0.013523,0.002678,0.000431,0.011048
2941000,0.0324,0.013523,0.002678,0.000431,0.009990
2942000,0.0324,0.013523,0.002678,0.000431,0.010342
2943000,0.0324,0.013523,0.002678,0.000431,0.011400
2944000,0.0324,0.013523,0.002678,0.000431,0.010813
2945000,0.0324,0.013523,0.002678,0.000431,0.010342
2946000,0.0324,0.013523,0.002678,0.000431,0.011518
2947000,0.0324,0.013523,0.002678,0.000431,0.010695
2948000,0.0324,0.013523,0.002678,0.000431,0.009520
2949000,0.0324,0.013523,0.002678,0.000431,0.009637
2950000,0.0324,0.013523,0.002678,0.000431,0.010460
2951000,0.0324,0.013523,0.002678,0.000431,0.009990
2952000,0.0324,0.013523,0.002678,0.000431,0.009402
2953000,0.0324,0.013523,0.002678,0.000431,0.010578
2954000,0.0324,0.013523,0.002678,0.000431,0.009520
2955000,0.0324,0.013523,0.002678,0.000431,0.009637
2956000,0.0324,0.013523,0.002678,0.000431,0.008697
2957000,0.0324,0.013523,0.002678,0.000431,0.008580
2958000,0.0324,0.013523,0.002678,0.000431,0.008345
2959000,0.0324,0.013523,0.002678,0.000431,0.008815
2960000,0.0324,0.013523,0.002678,0.000431,0.008580
2961000,0.0324,0.013523,0.002678,0.000431,0.007992
2962000,0.0324,0.013523,0.002678,0.000431,0.008109
2963000,0.0324,0.013523,0.002678,0.000431,0.008932
2964000,0.0324,0.013523,0.002678,0.000431,0.008697
2965000,0.0324,0.013523,0.002678,0.000431,0.009520
2966000,0.0324,0.013523,0.002678,0.000431,0.007639
2967000,0.0324,0.013523,0.002678,0.000431,0.007874
2968000,0.0324,0.013523,0.002678,0.000431,0.008462
2969000,0.0324,0.013523,0.002678,0.000431,0.007874
2970000,0.0324,0.013523,0.002678,0.000431,0.007874
2971000,0.0324,0.013523,0.002678,0.000431,0.007287
2972000,0.0324,0.013523,0.002678,0.000431,0.008580
2973000,0.0324,0.013523,0.002678,0.000431,0.008462
2974000,0.0324,0.013523,0.002678,0.000431,0.008462
2975000,0.0324,0.013523,0.002678,0.000431,0.006934
2976000,0.0324,0.013523,0.002678,0.000431,0.007992
2977000,0.0324,0.013523,0.002678,0.000431,0.007639
2978000,0.0324,0.013523,0.002678,0.000431,0.006582
2979000,0.0324,0.013523,0.002678,0.000431,0.008109
2980000,0.0324,0.013523,0.002678,0.000431,0.008580
2981000,0.0324,0.013523,0.002678,0.000431,0.006347
2982000,0.0324,0.013523,0.002678,0.000431,0.007404
2983000,0.0324,0.013523,0.002678,0.000431,0.008345
2984000,0.0324,0.013523,0.002678,0.000431,0.006582
2985000,0.0324,0.013523,0.002678,0.000431,0.007287
2986000,0.0324,0.013523,0.002678,0.000431,0.007992
2987000,0.0324,0.013523,0.002678,0.000431,0.007404
2988000,0.0324,0.013523,0.002678,0.000431,0.007052
2989000,0.0324,0.013523,0.002678,0.000431,0.008227
2990000,0.0324,0.013523,0.002678,0.000431,0.007639
2991000,0.0324,0.013523,0.002678,0.000431,0.007404
2992000,0.0324,0.013523,0.002678,0.000431,0.007404
2993000,0.0324,0.013523,0.002678,0.000431,0.007992
2994000,0.0324,0.013523,0.002678,0.000431,0.007404
2995000,0.0324,0.013523,0.002678,0.000431,0.006464
2996000,0.0324,0.013523,0.002678,0.000431,0.007874
2997000,0.0324,0.013523,0.002678,0.000431,0.007757
2998000,0.0324,0.013523,0.002678,0.000431,0.006934
2999000,0.0324,0.013523,0.002678,0.000431,0.007052
