Cycle,Area(mm^2),PeakDynamic(W),SubthresholdLeakage(W),GateLeakage(W),RunTimeDynamic(W)
1000,0.0324,0.013523,0.002678,0.000431,0.000000
2000,0.0324,0.013523,0.002678,0.000431,0.000000
3000,0.0324,0.013523,0.002678,0.000431,0.000000
4000,0.0324,0.013523,0.002678,0.000431,0.000000
5000,0.0324,0.013523,0.002678,0.000431,0.000000
6000,0.0324,0.013523,0.002678,0.000431,1.457232
7000,0.0324,0.013523,0.002678,0.000431,2.146300
8000,0.0324,0.013523,0.002678,0.000431,1.684179
9000,0.0324,0.013523,0.002678,0.000431,2.231625
10000,0.0324,0.013523,0.002678,0.000431,3.038691
11000,0.0324,0.013523,0.002678,0.000431,2.844300
12000,0.0324,0.013523,0.002678,0.000431,4.089511
13000,0.0324,0.013523,0.002678,0.000431,4.059188
14000,0.0324,0.013523,0.002678,0.000431,3.911220
15000,0.0324,0.013523,0.002678,0.000431,3.940132
16000,0.0324,0.013523,0.002678,0.000431,3.980915
17000,0.0324,0.013523,0.002678,0.000431,4.056955
18000,0.0324,0.013523,0.002678,0.000431,4.049904
19000,0.0324,0.013523,0.002678,0.000431,4.054017
20000,0.0324,0.013523,0.002678,0.000431,4.081989
21000,0.0324,0.013523,0.002678,0.000431,4.044262
22000,0.0324,0.013523,0.002678,0.000431,4.069061
23000,0.0324,0.013523,0.002678,0.000431,4.049669
24000,0.0324,0.013523,0.002678,0.000431,4.005125
25000,0.0324,0.013523,0.002678,0.000431,4.041207
26000,0.0324,0.013523,0.002678,0.000431,4.045438
27000,0.0324,0.013523,0.002678,0.000431,4.022167
28000,0.0324,0.013523,0.002678,0.000431,4.058836
29000,0.0324,0.013523,0.002678,0.000431,4.005948
30000,0.0324,0.013523,0.002678,0.000431,4.063654
31000,0.0324,0.013523,0.002678,0.000431,4.032157
32000,0.0324,0.013523,0.002678,0.000431,4.058601
33000,0.0324,0.013523,0.002678,0.000431,4.065535
34000,0.0324,0.013523,0.002678,0.000431,4.037093
35000,0.0324,0.013523,0.002678,0.000431,3.999602
36000,0.0324,0.013523,0.002678,0.000431,4.099618
37000,0.0324,0.013523,0.002678,0.000431,4.077640
38000,0.0324,0.013523,0.002678,0.000431,4.011707
39000,0.0324,0.013523,0.002678,0.000431,4.055663
40000,0.0324,0.013523,0.002678,0.000431,4.010649
41000,0.0324,0.013523,0.002678,0.000431,4.027808
42000,0.0324,0.013523,0.002678,0.000431,4.043675
43000,0.0324,0.013523,0.002678,0.000431,4.010179
44000,0.0324,0.013523,0.002678,0.000431,4.012412
45000,0.0324,0.013523,0.002678,0.000431,4.054957
46000,0.0324,0.013523,0.002678,0.000431,4.080108
47000,0.0324,0.013523,0.002678,0.000431,4.048846
48000,0.0324,0.013523,0.002678,0.000431,4.081871
49000,0.0324,0.013523,0.002678,0.000431,4.050491
50000,0.0324,0.013523,0.002678,0.000431,4.033685
51000,0.0324,0.013523,0.002678,0.000431,3.998074
52000,0.0324,0.013523,0.002678,0.000431,4.106905
53000,0.0324,0.013523,0.002678,0.000431,4.081519
54000,0.0324,0.013523,0.002678,0.000431,4.050139
55000,0.0324,0.013523,0.002678,0.000431,4.069883
56000,0.0324,0.013523,0.002678,0.000431,4.091274
57000,0.0324,0.013523,0.002678,0.000431,4.069883
58000,0.0324,0.013523,0.002678,0.000431,4.030041
59000,0.0324,0.013523,0.002678,0.000431,4.070236
60000,0.0324,0.013523,0.002678,0.000431,4.060246
61000,0.0324,0.013523,0.002678,0.000431,4.057425
62000,0.0324,0.013523,0.002678,0.000431,4.053900
63000,0.0324,0.013523,0.002678,0.000431,4.014410
64000,0.0324,0.013523,0.002678,0.000431,4.060129
65000,0.0324,0.013523,0.002678,0.000431,4.035918
66000,0.0324,0.013523,0.002678,0.000431,4.056485
67000,0.0324,0.013523,0.002678,0.000431,4.077640
68000,0.0324,0.013523,0.002678,0.000431,4.067180
69000,0.0324,0.013523,0.002678,0.000431,4.089863
70000,0.0324,0.013523,0.002678,0.000431,4.073762
71000,0.0324,0.013523,0.002678,0.000431,4.047671
72000,0.0324,0.013523,0.002678,0.000431,4.068943
73000,0.0324,0.013523,0.002678,0.000431,4.070589
74000,0.0324,0.013523,0.002678,0.000431,4.027456
75000,0.0324,0.013523,0.002678,0.000431,4.124181
76000,0.0324,0.013523,0.002678,0.000431,4.115249
77000,0.0324,0.013523,0.002678,0.000431,4.038621
78000,0.0324,0.013523,0.002678,0.000431,4.051549
79000,0.0324,0.013523,0.002678,0.000431,4.002775
80000,0.0324,0.013523,0.002678,0.000431,4.078228
81000,0.0324,0.013523,0.002678,0.000431,4.091979
82000,0.0324,0.013523,0.002678,0.000431,4.061186
83000,0.0324,0.013523,0.002678,0.000431,4.094329
84000,0.0324,0.013523,0.002678,0.000431,4.025458
85000,0.0324,0.013523,0.002678,0.000431,4.077875
86000,0.0324,0.013523,0.002678,0.000431,4.065652
87000,0.0324,0.013523,0.002678,0.000431,3.996898
88000,0.0324,0.013523,0.002678,0.000431,4.122536
89000,0.0324,0.013523,0.002678,0.000431,4.084457
90000,0.0324,0.013523,0.002678,0.000431,4.038386
91000,0.0324,0.013523,0.002678,0.000431,4.055663
92000,0.0324,0.013523,0.002678,0.000431,4.045203
93000,0.0324,0.013523,0.002678,0.000431,4.096327
94000,0.0324,0.013523,0.002678,0.000431,4.026868
95000,0.0324,0.013523,0.002678,0.000431,4.048376
96000,0.0324,0.013523,0.002678,0.000431,4.081519
97000,0.0324,0.013523,0.002678,0.000431,4.071176
98000,0.0324,0.013523,0.002678,0.000431,4.090568
99000,0.0324,0.013523,0.002678,0.000431,4.045438
100000,0.0324,0.013523,0.002678,0.000431,4.021109
101000,0.0324,0.013523,0.002678,0.000431,4.069531
102000,0.0324,0.013523,0.002678,0.000431,4.049198
103000,0.0324,0.013523,0.002678,0.000431,4.089041
104000,0.0324,0.013523,0.002678,0.000431,4.008181
105000,0.0324,0.013523,0.002678,0.000431,4.031922
106000,0.0324,0.013523,0.002678,0.000431,4.009121
107000,0.0324,0.013523,0.002678,0.000431,4.029454
108000,0.0324,0.013523,0.002678,0.000431,4.021462
109000,0.0324,0.013523,0.002678,0.000431,4.002540
110000,0.0324,0.013523,0.002678,0.000431,3.943541
111000,0.0324,0.013523,0.002678,0.000431,3.907930
112000,0.0324,0.013523,0.002678,0.000431,3.844817
113000,0.0324,0.013523,0.002678,0.000431,3.774418
114000,0.0324,0.013523,0.002678,0.000431,3.695439
115000,0.0324,0.013523,0.002678,0.000431,3.594717
116000,0.0324,0.013523,0.002678,0.000431,3.425476
117000,0.0324,0.013523,0.002678,0.000431,3.301602
118000,0.0324,0.013523,0.002678,0.000431,3.134594
119000,0.0324,0.013523,0.002678,0.000431,3.107093
120000,0.0324,0.013523,0.002678,0.000431,2.986861
121000,0.0324,0.013523,0.002678,0.000431,2.852879
122000,0.0324,0.013523,0.002678,0.000431,2.752628
123000,0.0324,0.013523,0.002678,0.000431,2.594787
124000,0.0324,0.013523,0.002678,0.000431,2.485956
125000,0.0324,0.013523,0.002678,0.000431,2.441413
126000,0.0324,0.013523,0.002678,0.000431,2.298264
127000,0.0324,0.013523,0.002678,0.000431,2.174389
128000,0.0324,0.013523,0.002678,0.000431,2.054510
129000,0.0324,0.013523,0.002678,0.000431,1.944504
130000,0.0324,0.013523,0.002678,0.000431,1.878218
131000,0.0324,0.013523,0.002678,0.000431,1.826153
132000,0.0324,0.013523,0.002678,0.000431,1.742708
133000,0.0324,0.013523,0.002678,0.000431,1.699340
134000,0.0324,0.013523,0.002678,0.000431,1.663024
135000,0.0324,0.013523,0.002678,0.000431,1.571939
136000,0.0324,0.013523,0.002678,0.000431,1.530922
137000,0.0324,0.013523,0.002678,0.000431,1.453001
138000,0.0324,0.013523,0.002678,0.000431,1.447947
139000,0.0324,0.013523,0.002678,0.000431,1.385775
140000,0.0324,0.013523,0.002678,0.000431,1.339234
141000,0.0324,0.013523,0.002678,0.000431,1.292105
142000,0.0324,0.013523,0.002678,0.000431,1.280587
143000,0.0324,0.013523,0.002678,0.000431,1.234398
144000,0.0324,0.013523,0.002678,0.000431,1.191501
145000,0.0324,0.013523,0.002678,0.000431,1.148485
146000,0.0324,0.013523,0.002678,0.000431,1.113344
147000,0.0324,0.013523,0.002678,0.000431,1.079379
148000,0.0324,0.013523,0.002678,0.000431,1.037774
149000,0.0324,0.013523,0.002678,0.000431,1.006629
150000,0.0324,0.013523,0.002678,0.000431,0.982418
151000,0.0324,0.013523,0.002678,0.000431,0.958325
152000,0.0324,0.013523,0.002678,0.000431,0.916720
153000,0.0324,0.013523,0.002678,0.000431,0.900501
154000,0.0324,0.013523,0.002678,0.000431,0.867946
155000,0.0324,0.013523,0.002678,0.000431,0.833392
156000,0.0324,0.013523,0.002678,0.000431,0.812942
157000,0.0324,0.013523,0.002678,0.000431,0.781797
158000,0.0324,0.013523,0.002678,0.000431,0.763933
159000,0.0324,0.013523,0.002678,0.000431,0.732671
160000,0.0324,0.013523,0.002678,0.000431,0.710340
161000,0.0324,0.013523,0.002678,0.000431,0.700233
162000,0.0324,0.013523,0.002678,0.000431,0.672026
163000,0.0324,0.013523,0.002678,0.000431,0.630656
164000,0.0324,0.013523,0.002678,0.000431,0.605740
165000,0.0324,0.013523,0.002678,0.000431,0.610911
166000,0.0324,0.013523,0.002678,0.000431,0.587641
167000,0.0324,0.013523,0.002678,0.000431,0.548739
168000,0.0324,0.013523,0.002678,0.000431,0.519945
169000,0.0324,0.013523,0.002678,0.000431,0.523118
170000,0.0324,0.013523,0.002678,0.000431,0.504666
171000,0.0324,0.013523,0.002678,0.000431,0.484334
172000,0.0324,0.013523,0.002678,0.000431,0.464824
173000,0.0324,0.013523,0.002678,0.000431,0.442964
174000,0.0324,0.013523,0.002678,0.000431,0.431093
175000,0.0324,0.013523,0.002678,0.000431,0.418635
176000,0.0324,0.013523,0.002678,0.000431,0.397245
177000,0.0324,0.013523,0.002678,0.000431,0.384905
178000,0.0324,0.013523,0.002678,0.000431,0.367863
179000,0.0324,0.013523,0.002678,0.000431,0.358461
180000,0.0324,0.013523,0.002678,0.000431,0.333075
181000,0.0324,0.013523,0.002678,0.000431,0.334250
182000,0.0324,0.013523,0.002678,0.000431,0.329667
183000,0.0324,0.013523,0.002678,0.000431,0.304280
184000,0.0324,0.013523,0.002678,0.000431,0.291352
185000,0.0324,0.013523,0.002678,0.000431,0.294173
186000,0.0324,0.013523,0.002678,0.000431,0.275839
187000,0.0324,0.013523,0.002678,0.000431,0.268317
188000,0.0324,0.013523,0.002678,0.000431,0.261618
189000,0.0324,0.013523,0.002678,0.000431,0.248690
190000,0.0324,0.013523,0.002678,0.000431,0.238700
191000,0.0324,0.013523,0.002678,0.000431,0.228827
192000,0.0324,0.013523,0.002678,0.000431,0.221071
193000,0.0324,0.013523,0.002678,0.000431,0.211786
194000,0.0324,0.013523,0.002678,0.000431,0.211668
195000,0.0324,0.013523,0.002678,0.000431,0.202031
196000,0.0324,0.013523,0.002678,0.000431,0.197330
197000,0.0324,0.013523,0.002678,0.000431,0.191688
198000,0.0324,0.013523,0.002678,0.000431,0.181699
199000,0.0324,0.013523,0.002678,0.000431,0.179701
200000,0.0324,0.013523,0.002678,0.000431,0.170063
201000,0.0324,0.013523,0.002678,0.000431,0.165715
202000,0.0324,0.013523,0.002678,0.000431,0.159603
203000,0.0324,0.013523,0.002678,0.000431,0.147028
204000,0.0324,0.013523,0.002678,0.000431,0.146205
205000,0.0324,0.013523,0.002678,0.000431,0.143267
206000,0.0324,0.013523,0.002678,0.000431,0.137038
207000,0.0324,0.013523,0.002678,0.000431,0.137743
208000,0.0324,0.013523,0.002678,0.000431,0.121877
209000,0.0324,0.013523,0.002678,0.000431,0.124110
210000,0.0324,0.013523,0.002678,0.000431,0.115413
211000,0.0324,0.013523,0.002678,0.000431,0.112004
212000,0.0324,0.013523,0.002678,0.000431,0.111417
213000,0.0324,0.013523,0.002678,0.000431,0.108831
214000,0.0324,0.013523,0.002678,0.000431,0.108008
215000,0.0324,0.013523,0.002678,0.000431,0.102014
216000,0.0324,0.013523,0.002678,0.000431,0.097783
217000,0.0324,0.013523,0.002678,0.000431,0.092377
218000,0.0324,0.013523,0.002678,0.000431,0.096373
219000,0.0324,0.013523,0.002678,0.000431,0.085678
220000,0.0324,0.013523,0.002678,0.000431,0.087088
221000,0.0324,0.013523,0.002678,0.000431,0.080389
222000,0.0324,0.013523,0.002678,0.000431,0.079449
223000,0.0324,0.013523,0.002678,0.000431,0.078156
224000,0.0324,0.013523,0.002678,0.000431,0.073690
225000,0.0324,0.013523,0.002678,0.000431,0.075101
226000,0.0324,0.013523,0.002678,0.000431,0.069459
227000,0.0324,0.013523,0.002678,0.000431,0.072515
228000,0.0324,0.013523,0.002678,0.000431,0.067344
229000,0.0324,0.013523,0.002678,0.000431,0.066521
230000,0.0324,0.013523,0.002678,0.000431,0.063465
231000,0.0324,0.013523,0.002678,0.000431,0.059469
232000,0.0324,0.013523,0.002678,0.000431,0.058294
233000,0.0324,0.013523,0.002678,0.000431,0.055943
234000,0.0324,0.013523,0.002678,0.000431,0.055356
235000,0.0324,0.013523,0.002678,0.000431,0.051712
236000,0.0324,0.013523,0.002678,0.000431,0.052418
237000,0.0324,0.013523,0.002678,0.000431,0.048304
238000,0.0324,0.013523,0.002678,0.000431,0.047834
239000,0.0324,0.013523,0.002678,0.000431,0.045013
240000,0.0324,0.013523,0.002678,0.000431,0.045248
241000,0.0324,0.013523,0.002678,0.000431,0.042428
242000,0.0324,0.013523,0.002678,0.000431,0.045013
243000,0.0324,0.013523,0.002678,0.000431,0.041252
244000,0.0324,0.013523,0.002678,0.000431,0.040077
245000,0.0324,0.013523,0.002678,0.000431,0.038667
246000,0.0324,0.013523,0.002678,0.000431,0.040900
247000,0.0324,0.013523,0.002678,0.000431,0.040077
248000,0.0324,0.013523,0.002678,0.000431,0.038902
249000,0.0324,0.013523,0.002678,0.000431,0.034436
250000,0.0324,0.013523,0.002678,0.000431,0.036199
251000,0.0324,0.013523,0.002678,0.000431,0.035611
252000,0.0324,0.013523,0.002678,0.000431,0.033966
253000,0.0324,0.013523,0.002678,0.000431,0.033143
254000,0.0324,0.013523,0.002678,0.000431,0.027619
255000,0.0324,0.013523,0.002678,0.000431,0.033378
256000,0.0324,0.013523,0.002678,0.000431,0.027972
257000,0.0324,0.013523,0.002678,0.000431,0.029147
258000,0.0324,0.013523,0.002678,0.000431,0.029147
259000,0.0324,0.013523,0.002678,0.000431,0.025269
260000,0.0324,0.013523,0.002678,0.000431,0.028677
261000,0.0324,0.013523,0.002678,0.000431,0.025504
262000,0.0324,0.013523,0.002678,0.000431,0.028559
263000,0.0324,0.013523,0.002678,0.000431,0.022565
264000,0.0324,0.013523,0.002678,0.000431,0.022683
265000,0.0324,0.013523,0.002678,0.000431,0.022565
266000,0.0324,0.013523,0.002678,0.000431,0.022565
267000,0.0324,0.013523,0.002678,0.000431,0.023741
268000,0.0324,0.013523,0.002678,0.000431,0.021038
269000,0.0324,0.013523,0.002678,0.000431,0.021743
270000,0.0324,0.013523,0.002678,0.000431,0.021508
271000,0.0324,0.013523,0.002678,0.000431,0.021860
272000,0.0324,0.013523,0.002678,0.000431,0.016924
273000,0.0324,0.013523,0.002678,0.000431,0.020685
274000,0.0324,0.013523,0.002678,0.000431,0.019040
275000,0.0324,0.013523,0.002678,0.000431,0.019510
276000,0.0324,0.013523,0.002678,0.000431,0.017982
277000,0.0324,0.013523,0.002678,0.000431,0.017747
278000,0.0324,0.013523,0.002678,0.000431,0.017864
279000,0.0324,0.013523,0.002678,0.000431,0.018569
280000,0.0324,0.013523,0.002678,0.000431,0.018569
281000,0.0324,0.013523,0.002678,0.000431,0.015631
282000,0.0324,0.013523,0.002678,0.000431,0.017512
283000,0.0324,0.013523,0.002678,0.000431,0.014809
284000,0.0324,0.013523,0.002678,0.000431,0.015396
285000,0.0324,0.013523,0.002678,0.000431,0.013986
286000,0.0324,0.013523,0.002678,0.000431,0.013986
287000,0.0324,0.013523,0.002678,0.000431,0.015161
288000,0.0324,0.013523,0.002678,0.000431,0.014456
289000,0.0324,0.013523,0.002678,0.000431,0.016219
290000,0.0324,0.013523,0.002678,0.000431,0.014926
291000,0.0324,0.013523,0.002678,0.000431,0.014573
292000,0.0324,0.013523,0.002678,0.000431,0.013046
293000,0.0324,0.013523,0.002678,0.000431,0.015396
294000,0.0324,0.013523,0.002678,0.000431,0.011988
295000,0.0324,0.013523,0.002678,0.000431,0.013751
296000,0.0324,0.013523,0.002678,0.000431,0.012458
297000,0.0324,0.013523,0.002678,0.000431,0.011400
298000,0.0324,0.013523,0.002678,0.000431,0.012693
299000,0.0324,0.013523,0.002678,0.000431,0.012811
300000,0.0324,0.013523,0.002678,0.000431,0.011870
301000,0.0324,0.013523,0.002678,0.000431,0.011870
302000,0.0324,0.013523,0.002678,0.000431,0.011988
303000,0.0324,0.013523,0.002678,0.000431,0.010460
304000,0.0324,0.013523,0.002678,0.000431,0.010342
305000,0.0324,0.013523,0.002678,0.000431,0.010460
306000,0.0324,0.013523,0.002678,0.000431,0.010930
307000,0.0324,0.013523,0.002678,0.000431,0.009872
308000,0.0324,0.013523,0.002678,0.000431,0.009872
309000,0.0324,0.013523,0.002678,0.000431,0.010930
310000,0.0324,0.013523,0.002678,0.000431,0.009285
311000,0.0324,0.013523,0.002678,0.000431,0.009285
312000,0.0324,0.013523,0.002678,0.000431,0.009755
313000,0.0324,0.013523,0.002678,0.000431,0.008462
314000,0.0324,0.013523,0.002678,0.000431,0.009872
315000,0.0324,0.013523,0.002678,0.000431,0.009872
316000,0.0324,0.013523,0.002678,0.000431,0.009050
317000,0.0324,0.013523,0.002678,0.000431,0.007874
318000,0.0324,0.013523,0.002678,0.000431,0.008815
319000,0.0324,0.013523,0.002678,0.000431,0.007757
320000,0.0324,0.013523,0.002678,0.000431,0.008697
321000,0.0324,0.013523,0.002678,0.000431,0.008697
322000,0.0324,0.013523,0.002678,0.000431,0.008932
323000,0.0324,0.013523,0.002678,0.000431,0.007874
324000,0.0324,0.013523,0.002678,0.000431,0.007639
325000,0.0324,0.013523,0.002678,0.000431,0.008109
326000,0.0324,0.013523,0.002678,0.000431,0.008462
327000,0.0324,0.013523,0.002678,0.000431,0.008697
328000,0.0324,0.013523,0.002678,0.000431,0.008932
329000,0.0324,0.013523,0.002678,0.000431,0.008227
330000,0.0324,0.013523,0.002678,0.000431,0.008932
331000,0.0324,0.013523,0.002678,0.000431,0.007992
332000,0.0324,0.013523,0.002678,0.000431,0.007992
333000,0.0324,0.013523,0.002678,0.000431,0.007287
334000,0.0324,0.013523,0.002678,0.000431,0.008109
335000,0.0324,0.013523,0.002678,0.000431,0.007169
336000,0.0324,0.013523,0.002678,0.000431,0.007404
337000,0.0324,0.013523,0.002678,0.000431,0.008345
338000,0.0324,0.013523,0.002678,0.000431,0.008109
339000,0.0324,0.013523,0.002678,0.000431,0.006464
340000,0.0324,0.013523,0.002678,0.000431,0.006464
341000,0.0324,0.013523,0.002678,0.000431,0.007052
342000,0.0324,0.013523,0.002678,0.000431,0.006817
343000,0.0324,0.013523,0.002678,0.000431,0.006347
344000,0.0324,0.013523,0.002678,0.000431,0.006699
345000,0.0324,0.013523,0.002678,0.000431,0.007052
346000,0.0324,0.013523,0.002678,0.000431,0.006582
347000,0.0324,0.013523,0.002678,0.000431,0.006464
348000,0.0324,0.013523,0.002678,0.000431,0.006817
349000,0.0324,0.013523,0.002678,0.000431,0.005994
350000,0.0324,0.013523,0.002678,0.000431,0.006347
351000,0.0324,0.013523,0.002678,0.000431,0.006347
352000,0.0324,0.013523,0.002678,0.000431,0.005994
353000,0.0324,0.013523,0.002678,0.000431,0.005524
354000,0.0324,0.013523,0.002678,0.000431,0.006934
355000,0.0324,0.013523,0.002678,0.000431,0.006111
356000,0.0324,0.013523,0.002678,0.000431,0.006582
357000,0.0324,0.013523,0.002678,0.000431,0.005994
358000,0.0324,0.013523,0.002678,0.000431,0.006111
359000,0.0324,0.013523,0.002678,0.000431,0.006347
360000,0.0324,0.013523,0.002678,0.000431,0.005054
361000,0.0324,0.013523,0.002678,0.000431,0.005759
362000,0.0324,0.013523,0.002678,0.000431,0.005054
363000,0.0324,0.013523,0.002678,0.000431,0.006229
364000,0.0324,0.013523,0.002678,0.000431,0.004466
365000,0.0324,0.013523,0.002678,0.000431,0.006817
366000,0.0324,0.013523,0.002678,0.000431,0.005524
367000,0.0324,0.013523,0.002678,0.000431,0.006111
368000,0.0324,0.013523,0.002678,0.000431,0.005524
369000,0.0324,0.013523,0.002678,0.000431,0.005876
370000,0.0324,0.013523,0.002678,0.000431,0.006347
371000,0.0324,0.013523,0.002678,0.000431,0.005524
372000,0.0324,0.013523,0.002678,0.000431,0.005289
373000,0.0324,0.013523,0.002678,0.000431,0.004936
374000,0.0324,0.013523,0.002678,0.000431,0.005641
375000,0.0324,0.013523,0.002678,0.000431,0.005054
376000,0.0324,0.013523,0.002678,0.000431,0.005524
377000,0.0324,0.013523,0.002678,0.000431,0.004936
378000,0.0324,0.013523,0.002678,0.000431,0.004231
379000,0.0324,0.013523,0.002678,0.000431,0.004231
380000,0.0324,0.013523,0.002678,0.000431,0.005171
381000,0.0324,0.013523,0.002678,0.000431,0.005406
382000,0.0324,0.013523,0.002678,0.000431,0.004936
383000,0.0324,0.013523,0.002678,0.000431,0.004701
384000,0.0324,0.013523,0.002678,0.000431,0.005524
385000,0.0324,0.013523,0.002678,0.000431,0.004349
386000,0.0324,0.013523,0.002678,0.000431,0.004113
387000,0.0324,0.013523,0.002678,0.000431,0.005171
388000,0.0324,0.013523,0.002678,0.000431,0.005054
389000,0.0324,0.013523,0.002678,0.000431,0.004701
390000,0.0324,0.013523,0.002678,0.000431,0.005289
391000,0.0324,0.013523,0.002678,0.000431,0.004466
392000,0.0324,0.013523,0.002678,0.000431,0.005054
393000,0.0324,0.013523,0.002678,0.000431,0.003761
394000,0.0324,0.013523,0.002678,0.000431,0.004936
395000,0.0324,0.013523,0.002678,0.000431,0.004231
396000,0.0324,0.013523,0.002678,0.000431,0.004349
397000,0.0324,0.013523,0.002678,0.000431,0.003643
398000,0.0324,0.013523,0.002678,0.000431,0.003996
399000,0.0324,0.013523,0.002678,0.000431,0.003056
400000,0.0324,0.013523,0.002678,0.000431,0.003878
401000,0.0324,0.013523,0.002678,0.000431,0.003761
402000,0.0324,0.013523,0.002678,0.000431,0.003173
403000,0.0324,0.013523,0.002678,0.000431,0.004231
404000,0.0324,0.013523,0.002678,0.000431,0.004113
405000,0.0324,0.013523,0.002678,0.000431,0.004113
406000,0.0324,0.013523,0.002678,0.000431,0.004584
407000,0.0324,0.013523,0.002678,0.000431,0.003996
408000,0.0324,0.013523,0.002678,0.000431,0.004231
409000,0.0324,0.013523,0.002678,0.000431,0.003526
410000,0.0324,0.013523,0.002678,0.000431,0.004231
411000,0.0324,0.013523,0.002678,0.000431,0.003526
412000,0.0324,0.013523,0.002678,0.000431,0.004349
413000,0.0324,0.013523,0.002678,0.000431,0.002938
414000,0.0324,0.013523,0.002678,0.000431,0.003761
415000,0.0324,0.013523,0.002678,0.000431,0.003173
416000,0.0324,0.013523,0.002678,0.000431,0.003643
417000,0.0324,0.013523,0.002678,0.000431,0.003408
418000,0.0324,0.013523,0.002678,0.000431,0.004701
419000,0.0324,0.013523,0.002678,0.000431,0.003761
420000,0.0324,0.013523,0.002678,0.000431,0.003878
421000,0.0324,0.013523,0.002678,0.000431,0.003526
422000,0.0324,0.013523,0.002678,0.000431,0.003761
423000,0.0324,0.013523,0.002678,0.000431,0.004466
424000,0.0324,0.013523,0.002678,0.000431,0.004349
425000,0.0324,0.013523,0.002678,0.000431,0.003526
426000,0.0324,0.013523,0.002678,0.000431,0.004113
427000,0.0324,0.013523,0.002678,0.000431,0.003996
428000,0.0324,0.013523,0.002678,0.000431,0.003173
429000,0.0324,0.013523,0.002678,0.000431,0.003408
430000,0.0324,0.013523,0.002678,0.000431,0.003643
431000,0.0324,0.013523,0.002678,0.000431,0.003643
432000,0.0324,0.013523,0.002678,0.000431,0.003643
433000,0.0324,0.013523,0.002678,0.000431,0.003526
434000,0.0324,0.013523,0.002678,0.000431,0.003173
435000,0.0324,0.013523,0.002678,0.000431,0.003643
436000,0.0324,0.013523,0.002678,0.000431,0.002821
437000,0.0324,0.013523,0.002678,0.000431,0.003408
438000,0.0324,0.013523,0.002678,0.000431,0.003291
439000,0.0324,0.013523,0.002678,0.000431,0.003408
440000,0.0324,0.013523,0.002678,0.000431,0.003761
441000,0.0324,0.013523,0.002678,0.000431,0.003643
442000,0.0324,0.013523,0.002678,0.000431,0.003291
443000,0.0324,0.013523,0.002678,0.000431,0.003173
444000,0.0324,0.013523,0.002678,0.000431,0.002351
445000,0.0324,0.013523,0.002678,0.000431,0.003761
446000,0.0324,0.013523,0.002678,0.000431,0.003173
447000,0.0324,0.013523,0.002678,0.000431,0.003996
448000,0.0324,0.013523,0.002678,0.000431,0.003408
449000,0.0324,0.013523,0.002678,0.000431,0.003291
450000,0.0324,0.013523,0.002678,0.000431,0.003056
451000,0.0324,0.013523,0.002678,0.000431,0.003173
452000,0.0324,0.013523,0.002678,0.000431,0.003173
453000,0.0324,0.013523,0.002678,0.000431,0.003056
454000,0.0324,0.013523,0.002678,0.000431,0.003056
455000,0.0324,0.013523,0.002678,0.000431,0.003056
456000,0.0324,0.013523,0.002678,0.000431,0.003056
457000,0.0324,0.013523,0.002678,0.000431,0.002586
458000,0.0324,0.013523,0.002678,0.000431,0.003291
459000,0.0324,0.013523,0.002678,0.000431,0.003056
460000,0.0324,0.013523,0.002678,0.000431,0.003526
461000,0.0324,0.013523,0.002678,0.000431,0.003408
462000,0.0324,0.013523,0.002678,0.000431,0.003056
463000,0.0324,0.013523,0.002678,0.000431,0.002938
464000,0.0324,0.013523,0.002678,0.000431,0.003526
465000,0.0324,0.013523,0.002678,0.000431,0.002233
466000,0.0324,0.013523,0.002678,0.000431,0.003643
467000,0.0324,0.013523,0.002678,0.000431,0.002586
468000,0.0324,0.013523,0.002678,0.000431,0.003173
469000,0.0324,0.013523,0.002678,0.000431,0.002468
470000,0.0324,0.013523,0.002678,0.000431,0.002821
471000,0.0324,0.013523,0.002678,0.000431,0.002703
472000,0.0324,0.013523,0.002678,0.000431,0.002586
473000,0.0324,0.013523,0.002678,0.000431,0.002821
474000,0.0324,0.013523,0.002678,0.000431,0.002821
475000,0.0324,0.013523,0.002678,0.000431,0.003291
476000,0.0324,0.013523,0.002678,0.000431,0.003056
477000,0.0324,0.013523,0.002678,0.000431,0.002703
478000,0.0324,0.013523,0.002678,0.000431,0.003408
479000,0.0324,0.013523,0.002678,0.000431,0.003291
480000,0.0324,0.013523,0.002678,0.000431,0.003643
481000,0.0324,0.013523,0.002678,0.000431,0.002468
482000,0.0324,0.013523,0.002678,0.000431,0.002703
483000,0.0324,0.013523,0.002678,0.000431,0.002586
484000,0.0324,0.013523,0.002678,0.000431,0.003643
485000,0.0324,0.013523,0.002678,0.000431,0.003173
486000,0.0324,0.013523,0.002678,0.000431,0.003408
487000,0.0324,0.013523,0.002678,0.000431,0.003643
488000,0.0324,0.013523,0.002678,0.000431,0.003056
489000,0.0324,0.013523,0.002678,0.000431,0.003056
490000,0.0324,0.013523,0.002678,0.000431,0.003056
491000,0.0324,0.013523,0.002678,0.000431,0.003173
492000,0.0324,0.013523,0.002678,0.000431,0.002938
493000,0.0324,0.013523,0.002678,0.000431,0.003056
494000,0.0324,0.013523,0.002678,0.000431,0.003173
495000,0.0324,0.013523,0.002678,0.000431,0.002468
496000,0.0324,0.013523,0.002678,0.000431,0.002351
497000,0.0324,0.013523,0.002678,0.000431,0.003291
498000,0.0324,0.013523,0.002678,0.000431,0.002938
499000,0.0324,0.013523,0.002678,0.000431,0.003173
500000,0.0324,0.013523,0.002678,0.000431,0.003173
501000,0.0324,0.013523,0.002678,0.000431,0.002821
502000,0.0324,0.013523,0.002678,0.000431,0.002938
503000,0.0324,0.013523,0.002678,0.000431,0.003408
504000,0.0324,0.013523,0.002678,0.000431,0.003056
505000,0.0324,0.013523,0.002678,0.000431,0.003291
506000,0.0324,0.013523,0.002678,0.000431,0.003056
507000,0.0324,0.013523,0.002678,0.000431,0.002703
508000,0.0324,0.013523,0.002678,0.000431,0.003056
509000,0.0324,0.013523,0.002678,0.000431,0.003056
510000,0.0324,0.013523,0.002678,0.000431,0.002116
511000,0.0324,0.013523,0.002678,0.000431,0.002703
512000,0.0324,0.013523,0.002678,0.000431,0.002468
513000,0.0324,0.013523,0.002678,0.000431,0.003056
514000,0.0324,0.013523,0.002678,0.000431,0.002468
515000,0.0324,0.013523,0.002678,0.000431,0.002351
516000,0.0324,0.013523,0.002678,0.000431,0.002468
517000,0.0324,0.013523,0.002678,0.000431,0.003408
518000,0.0324,0.013523,0.002678,0.000431,0.002116
519000,0.0324,0.013523,0.002678,0.000431,0.002468
520000,0.0324,0.013523,0.002678,0.000431,0.002233
521000,0.0324,0.013523,0.002678,0.000431,0.002586
522000,0.0324,0.013523,0.002678,0.000431,0.002351
523000,0.0324,0.013523,0.002678,0.000431,0.003056
524000,0.0324,0.013523,0.002678,0.000431,0.002116
525000,0.0324,0.013523,0.002678,0.000431,0.001998
526000,0.0324,0.013523,0.002678,0.000431,0.002351
527000,0.0324,0.013523,0.002678,0.000431,0.001880
528000,0.0324,0.013523,0.002678,0.000431,0.001998
529000,0.0324,0.013523,0.002678,0.000431,0.002116
530000,0.0324,0.013523,0.002678,0.000431,0.001880
531000,0.0324,0.013523,0.002678,0.000431,0.001528
532000,0.0324,0.013523,0.002678,0.000431,0.001528
533000,0.0324,0.013523,0.002678,0.000431,0.001410
534000,0.0324,0.013523,0.002678,0.000431,0.001293
535000,0.0324,0.013523,0.002678,0.000431,0.001293
536000,0.0324,0.013523,0.002678,0.000431,0.001293
537000,0.0324,0.013523,0.002678,0.000431,0.001293
538000,0.0324,0.013523,0.002678,0.000431,0.001528
539000,0.0324,0.013523,0.002678,0.000431,0.001410
540000,0.0324,0.013523,0.002678,0.000431,0.001528
541000,0.0324,0.013523,0.002678,0.000431,0.001645
542000,0.0324,0.013523,0.002678,0.000431,0.001293
543000,0.0324,0.013523,0.002678,0.000431,0.001293
544000,0.0324,0.013523,0.002678,0.000431,0.001293
545000,0.0324,0.013523,0.002678,0.000431,0.001998
546000,0.0324,0.013523,0.002678,0.000431,0.001175
547000,0.0324,0.013523,0.002678,0.000431,0.001293
548000,0.0324,0.013523,0.002678,0.000431,0.001410
549000,0.0324,0.013523,0.002678,0.000431,0.001645
550000,0.0324,0.013523,0.002678,0.000431,0.001293
551000,0.0324,0.013523,0.002678,0.000431,0.001410
552000,0.0324,0.013523,0.002678,0.000431,0.001410
553000,0.0324,0.013523,0.002678,0.000431,0.001645
554000,0.0324,0.013523,0.002678,0.000431,0.001293
555000,0.0324,0.013523,0.002678,0.000431,0.001410
556000,0.0324,0.013523,0.002678,0.000431,0.001293
557000,0.0324,0.013523,0.002678,0.000431,0.001410
558000,0.0324,0.013523,0.002678,0.000431,0.001293
559000,0.0324,0.013523,0.002678,0.000431,0.001645
560000,0.0324,0.013523,0.002678,0.000431,0.001645
561000,0.0324,0.013523,0.002678,0.000431,0.001645
562000,0.0324,0.013523,0.002678,0.000431,0.001293
563000,0.0324,0.013523,0.002678,0.000431,0.001763
564000,0.0324,0.013523,0.002678,0.000431,0.001293
565000,0.0324,0.013523,0.002678,0.000431,0.001410
566000,0.0324,0.013523,0.002678,0.000431,0.001528
567000,0.0324,0.013523,0.002678,0.000431,0.001645
568000,0.0324,0.013523,0.002678,0.000431,0.001410
569000,0.0324,0.013523,0.002678,0.000431,0.001763
570000,0.0324,0.013523,0.002678,0.000431,0.001763
571000,0.0324,0.013523,0.002678,0.000431,0.001645
572000,0.0324,0.013523,0.002678,0.000431,0.001528
573000,0.0324,0.013523,0.002678,0.000431,0.001410
574000,0.0324,0.013523,0.002678,0.000431,0.001410
575000,0.0324,0.013523,0.002678,0.000431,0.001528
576000,0.0324,0.013523,0.002678,0.000431,0.001645
577000,0.0324,0.013523,0.002678,0.000431,0.001410
578000,0.0324,0.013523,0.002678,0.000431,0.001410
579000,0.0324,0.013523,0.002678,0.000431,0.001645
580000,0.0324,0.013523,0.002678,0.000431,0.001528
581000,0.0324,0.013523,0.002678,0.000431,0.001528
582000,0.0324,0.013523,0.002678,0.000431,0.001528
583000,0.0324,0.013523,0.002678,0.000431,0.001410
584000,0.0324,0.013523,0.002678,0.000431,0.001058
585000,0.0324,0.013523,0.002678,0.000431,0.001058
586000,0.0324,0.013523,0.002678,0.000431,0.001528
587000,0.0324,0.013523,0.002678,0.000431,0.001410
588000,0.0324,0.013523,0.002678,0.000431,0.001528
589000,0.0324,0.013523,0.002678,0.000431,0.001528
590000,0.0324,0.013523,0.002678,0.000431,0.001293
591000,0.0324,0.013523,0.002678,0.000431,0.001175
592000,0.0324,0.013523,0.002678,0.000431,0.001058
593000,0.0324,0.013523,0.002678,0.000431,0.001410
594000,0.0324,0.013523,0.002678,0.000431,0.001410
595000,0.0324,0.013523,0.002678,0.000431,0.001528
596000,0.0324,0.013523,0.002678,0.000431,0.001528
597000,0.0324,0.013523,0.002678,0.000431,0.001528
598000,0.0324,0.013523,0.002678,0.000431,0.001528
599000,0.0324,0.013523,0.002678,0.000431,0.001293
600000,0.0324,0.013523,0.002678,0.000431,0.001293
601000,0.0324,0.013523,0.002678,0.000431,0.001763
602000,0.0324,0.013523,0.002678,0.000431,0.001293
603000,0.0324,0.013523,0.002678,0.000431,0.001175
604000,0.0324,0.013523,0.002678,0.000431,0.001410
605000,0.0324,0.013523,0.002678,0.000431,0.001410
606000,0.0324,0.013523,0.002678,0.000431,0.000940
607000,0.0324,0.013523,0.002678,0.000431,0.001528
608000,0.0324,0.013523,0.002678,0.000431,0.001528
609000,0.0324,0.013523,0.002678,0.000431,0.001528
610000,0.0324,0.013523,0.002678,0.000431,0.001880
611000,0.0324,0.013523,0.002678,0.000431,0.001058
612000,0.0324,0.013523,0.002678,0.000431,0.001058
613000,0.0324,0.013523,0.002678,0.000431,0.001645
614000,0.0324,0.013523,0.002678,0.000431,0.001410
615000,0.0324,0.013523,0.002678,0.000431,0.001528
616000,0.0324,0.013523,0.002678,0.000431,0.001645
617000,0.0324,0.013523,0.002678,0.000431,0.001645
618000,0.0324,0.013523,0.002678,0.000431,0.001528
619000,0.0324,0.013523,0.002678,0.000431,0.001528
620000,0.0324,0.013523,0.002678,0.000431,0.001528
621000,0.0324,0.013523,0.002678,0.000431,0.001645
622000,0.0324,0.013523,0.002678,0.000431,0.001410
623000,0.0324,0.013523,0.002678,0.000431,0.001175
624000,0.0324,0.013523,0.002678,0.000431,0.001528
625000,0.0324,0.013523,0.002678,0.000431,0.001528
626000,0.0324,0.013523,0.002678,0.000431,0.001410
627000,0.0324,0.013523,0.002678,0.000431,0.001528
628000,0.0324,0.013523,0.002678,0.000431,0.001058
629000,0.0324,0.013523,0.002678,0.000431,0.001880
630000,0.0324,0.013523,0.002678,0.000431,0.001410
631000,0.0324,0.013523,0.002678,0.000431,0.001058
632000,0.0324,0.013523,0.002678,0.000431,0.001175
633000,0.0324,0.013523,0.002678,0.000431,0.001528
634000,0.0324,0.013523,0.002678,0.000431,0.001528
635000,0.0324,0.013523,0.002678,0.000431,0.001645
636000,0.0324,0.013523,0.002678,0.000431,0.001645
637000,0.0324,0.013523,0.002678,0.000431,0.001528
638000,0.0324,0.013523,0.002678,0.000431,0.001528
639000,0.0324,0.013523,0.002678,0.000431,0.001410
640000,0.0324,0.013523,0.002678,0.000431,0.001645
641000,0.0324,0.013523,0.002678,0.000431,0.001175
642000,0.0324,0.013523,0.002678,0.000431,0.001175
643000,0.0324,0.013523,0.002678,0.000431,0.001645
644000,0.0324,0.013523,0.002678,0.000431,0.001410
645000,0.0324,0.013523,0.002678,0.000431,0.001528
646000,0.0324,0.013523,0.002678,0.000431,0.001763
647000,0.0324,0.013523,0.002678,0.000431,0.001528
648000,0.0324,0.013523,0.002678,0.000431,0.001645
649000,0.0324,0.013523,0.002678,0.000431,0.001645
650000,0.0324,0.013523,0.002678,0.000431,0.001293
651000,0.0324,0.013523,0.002678,0.000431,0.001880
652000,0.0324,0.013523,0.002678,0.000431,0.001410
653000,0.0324,0.013523,0.002678,0.000431,0.001410
654000,0.0324,0.013523,0.002678,0.000431,0.001763
655000,0.0324,0.013523,0.002678,0.000431,0.001293
656000,0.0324,0.013523,0.002678,0.000431,0.001410
657000,0.0324,0.013523,0.002678,0.000431,0.001528
658000,0.0324,0.013523,0.002678,0.000431,0.001528
659000,0.0324,0.013523,0.002678,0.000431,0.001528
660000,0.0324,0.013523,0.002678,0.000431,0.001645
661000,0.0324,0.013523,0.002678,0.000431,0.001293
662000,0.0324,0.013523,0.002678,0.000431,0.001410
663000,0.0324,0.013523,0.002678,0.000431,0.001410
664000,0.0324,0.013523,0.002678,0.000431,0.001645
665000,0.0324,0.013523,0.002678,0.000431,0.001645
666000,0.0324,0.013523,0.002678,0.000431,0.001293
667000,0.0324,0.013523,0.002678,0.000431,0.001880
668000,0.0324,0.013523,0.002678,0.000431,0.001293
669000,0.0324,0.013523,0.002678,0.000431,0.001528
670000,0.0324,0.013523,0.002678,0.000431,0.001175
671000,0.0324,0.013523,0.002678,0.000431,0.001175
672000,0.0324,0.013523,0.002678,0.000431,0.001528
673000,0.0324,0.013523,0.002678,0.000431,0.001410
674000,0.0324,0.013523,0.002678,0.000431,0.001998
675000,0.0324,0.013523,0.002678,0.000431,0.001293
676000,0.0324,0.013523,0.002678,0.000431,0.001528
677000,0.0324,0.013523,0.002678,0.000431,0.001645
678000,0.0324,0.013523,0.002678,0.000431,0.001880
679000,0.0324,0.013523,0.002678,0.000431,0.001410
680000,0.0324,0.013523,0.002678,0.000431,0.001645
681000,0.0324,0.013523,0.002678,0.000431,0.001528
682000,0.0324,0.013523,0.002678,0.000431,0.001528
683000,0.0324,0.013523,0.002678,0.000431,0.001410
684000,0.0324,0.013523,0.002678,0.000431,0.001175
685000,0.0324,0.013523,0.002678,0.000431,0.001410
686000,0.0324,0.013523,0.002678,0.000431,0.001528
687000,0.0324,0.013523,0.002678,0.000431,0.001528
688000,0.0324,0.013523,0.002678,0.000431,0.001645
689000,0.0324,0.013523,0.002678,0.000431,0.001528
690000,0.0324,0.013523,0.002678,0.000431,0.001293
691000,0.0324,0.013523,0.002678,0.000431,0.001763
692000,0.0324,0.013523,0.002678,0.000431,0.001763
693000,0.0324,0.013523,0.002678,0.000431,0.001645
694000,0.0324,0.013523,0.002678,0.000431,0.001410
695000,0.0324,0.013523,0.002678,0.000431,0.001410
696000,0.0324,0.013523,0.002678,0.000431,0.001528
697000,0.0324,0.013523,0.002678,0.000431,0.001410
698000,0.0324,0.013523,0.002678,0.000431,0.001058
699000,0.0324,0.013523,0.002678,0.000431,0.001058
700000,0.0324,0.013523,0.002678,0.000431,0.001058
701000,0.0324,0.013523,0.002678,0.000431,0.001175
702000,0.0324,0.013523,0.002678,0.000431,0.000940
703000,0.0324,0.013523,0.002678,0.000431,0.000940
704000,0.0324,0.013523,0.002678,0.000431,0.001410
705000,0.0324,0.013523,0.002678,0.000431,0.001410
706000,0.0324,0.013523,0.002678,0.000431,0.001410
707000,0.0324,0.013523,0.002678,0.000431,0.001175
708000,0.0324,0.013523,0.002678,0.000431,0.001528
709000,0.0324,0.013523,0.002678,0.000431,0.001528
710000,0.0324,0.013523,0.002678,0.000431,0.001645
711000,0.0324,0.013523,0.002678,0.000431,0.001528
712000,0.0324,0.013523,0.002678,0.000431,0.001175
713000,0.0324,0.013523,0.002678,0.000431,0.001293
714000,0.0324,0.013523,0.002678,0.000431,0.001645
715000,0.0324,0.013523,0.002678,0.000431,0.001293
716000,0.0324,0.013523,0.002678,0.000431,0.001058
717000,0.0324,0.013523,0.002678,0.000431,0.001528
718000,0.0324,0.013523,0.002678,0.000431,0.001058
719000,0.0324,0.013523,0.002678,0.000431,0.001410
720000,0.0324,0.013523,0.002678,0.000431,0.001410
721000,0.0324,0.013523,0.002678,0.000431,0.001175
722000,0.0324,0.013523,0.002678,0.000431,0.001058
723000,0.0324,0.013523,0.002678,0.000431,0.001528
724000,0.0324,0.013523,0.002678,0.000431,0.001293
725000,0.0324,0.013523,0.002678,0.000431,0.001528
726000,0.0324,0.013523,0.002678,0.000431,0.001293
727000,0.0324,0.013523,0.002678,0.000431,0.001175
728000,0.0324,0.013523,0.002678,0.000431,0.001528
729000,0.0324,0.013523,0.002678,0.000431,0.001293
730000,0.0324,0.013523,0.002678,0.000431,0.001645
731000,0.0324,0.013523,0.002678,0.000431,0.001293
732000,0.0324,0.013523,0.002678,0.000431,0.001410
733000,0.0324,0.013523,0.002678,0.000431,0.001645
734000,0.0324,0.013523,0.002678,0.000431,0.001645
735000,0.0324,0.013523,0.002678,0.000431,0.001410
736000,0.0324,0.013523,0.002678,0.000431,0.001645
737000,0.0324,0.013523,0.002678,0.000431,0.001293
738000,0.0324,0.013523,0.002678,0.000431,0.001763
739000,0.0324,0.013523,0.002678,0.000431,0.001293
740000,0.0324,0.013523,0.002678,0.000431,0.001293
741000,0.0324,0.013523,0.002678,0.000431,0.001880
742000,0.0324,0.013523,0.002678,0.000431,0.001293
743000,0.0324,0.013523,0.002678,0.000431,0.001293
744000,0.0324,0.013523,0.002678,0.000431,0.001880
745000,0.0324,0.013523,0.002678,0.000431,0.001058
746000,0.0324,0.013523,0.002678,0.000431,0.001645
747000,0.0324,0.013523,0.002678,0.000431,0.001645
748000,0.0324,0.013523,0.002678,0.000431,0.001645
749000,0.0324,0.013523,0.002678,0.000431,0.001528
750000,0.0324,0.013523,0.002678,0.000431,0.001175
751000,0.0324,0.013523,0.002678,0.000431,0.001058
752000,0.0324,0.013523,0.002678,0.000431,0.001528
753000,0.0324,0.013523,0.002678,0.000431,0.001410
754000,0.0324,0.013523,0.002678,0.000431,0.001175
755000,0.0324,0.013523,0.002678,0.000431,0.000940
756000,0.0324,0.013523,0.002678,0.000431,0.001175
757000,0.0324,0.013523,0.002678,0.000431,0.001645
758000,0.0324,0.013523,0.002678,0.000431,0.001410
759000,0.0324,0.013523,0.002678,0.000431,0.001410
760000,0.0324,0.013523,0.002678,0.000431,0.001293
761000,0.0324,0.013523,0.002678,0.000431,0.001293
762000,0.0324,0.013523,0.002678,0.000431,0.001528
763000,0.0324,0.013523,0.002678,0.000431,0.001410
764000,0.0324,0.013523,0.002678,0.000431,0.001175
765000,0.0324,0.013523,0.002678,0.000431,0.001293
766000,0.0324,0.013523,0.002678,0.000431,0.001645
767000,0.0324,0.013523,0.002678,0.000431,0.001410
768000,0.0324,0.013523,0.002678,0.000431,0.001293
769000,0.0324,0.013523,0.002678,0.000431,0.001410
770000,0.0324,0.013523,0.002678,0.000431,0.001880
771000,0.0324,0.013523,0.002678,0.000431,0.001293
772000,0.0324,0.013523,0.002678,0.000431,0.001175
773000,0.0324,0.013523,0.002678,0.000431,0.001410
774000,0.0324,0.013523,0.002678,0.000431,0.001410
775000,0.0324,0.013523,0.002678,0.000431,0.001528
776000,0.0324,0.013523,0.002678,0.000431,0.001410
777000,0.0324,0.013523,0.002678,0.000431,0.001410
778000,0.0324,0.013523,0.002678,0.000431,0.001410
779000,0.0324,0.013523,0.002678,0.000431,0.001645
780000,0.0324,0.013523,0.002678,0.000431,0.001175
781000,0.0324,0.013523,0.002678,0.000431,0.001293
782000,0.0324,0.013523,0.002678,0.000431,0.001293
783000,0.0324,0.013523,0.002678,0.000431,0.001293
784000,0.0324,0.013523,0.002678,0.000431,0.001410
785000,0.0324,0.013523,0.002678,0.000431,0.001998
786000,0.0324,0.013523,0.002678,0.000431,0.001410
787000,0.0324,0.013523,0.002678,0.000431,0.001058
788000,0.0324,0.013523,0.002678,0.000431,0.000940
789000,0.0324,0.013523,0.002678,0.000431,0.001763
790000,0.0324,0.013523,0.002678,0.000431,0.001410
791000,0.0324,0.013523,0.002678,0.000431,0.001645
792000,0.0324,0.013523,0.002678,0.000431,0.001410
793000,0.0324,0.013523,0.002678,0.000431,0.001528
794000,0.0324,0.013523,0.002678,0.000431,0.001410
795000,0.0324,0.013523,0.002678,0.000431,0.001645
796000,0.0324,0.013523,0.002678,0.000431,0.001293
797000,0.0324,0.013523,0.002678,0.000431,0.001763
798000,0.0324,0.013523,0.002678,0.000431,0.001410
799000,0.0324,0.013523,0.002678,0.000431,0.001175
800000,0.0324,0.013523,0.002678,0.000431,0.001175
801000,0.0324,0.013523,0.002678,0.000431,0.001645
802000,0.0324,0.013523,0.002678,0.000431,0.001645
803000,0.0324,0.013523,0.002678,0.000431,0.001528
804000,0.0324,0.013523,0.002678,0.000431,0.001410
805000,0.0324,0.013523,0.002678,0.000431,0.001528
806000,0.0324,0.013523,0.002678,0.000431,0.001058
807000,0.0324,0.013523,0.002678,0.000431,0.001645
808000,0.0324,0.013523,0.002678,0.000431,0.001528
809000,0.0324,0.013523,0.002678,0.000431,0.001410
810000,0.0324,0.013523,0.002678,0.000431,0.001410
811000,0.0324,0.013523,0.002678,0.000431,0.001645
812000,0.0324,0.013523,0.002678,0.000431,0.001528
813000,0.0324,0.013523,0.002678,0.000431,0.001528
814000,0.0324,0.013523,0.002678,0.000431,0.001293
815000,0.0324,0.013523,0.002678,0.000431,0.001645
816000,0.0324,0.013523,0.002678,0.000431,0.001763
817000,0.0324,0.013523,0.002678,0.000431,0.001293
818000,0.0324,0.013523,0.002678,0.000431,0.001175
819000,0.0324,0.013523,0.002678,0.000431,0.001645
820000,0.0324,0.013523,0.002678,0.000431,0.001763
821000,0.0324,0.013523,0.002678,0.000431,0.001293
822000,0.0324,0.013523,0.002678,0.000431,0.001410
823000,0.0324,0.013523,0.002678,0.000431,0.001528
824000,0.0324,0.013523,0.002678,0.000431,0.001645
825000,0.0324,0.013523,0.002678,0.000431,0.000705
826000,0.0324,0.013523,0.002678,0.000431,0.001410
827000,0.0324,0.013523,0.002678,0.000431,0.001528
828000,0.0324,0.013523,0.002678,0.000431,0.001410
829000,0.0324,0.013523,0.002678,0.000431,0.001410
830000,0.0324,0.013523,0.002678,0.000431,0.001058
831000,0.0324,0.013523,0.002678,0.000431,0.001175
832000,0.0324,0.013523,0.002678,0.000431,0.000823
833000,0.0324,0.013523,0.002678,0.000431,0.001293
834000,0.0324,0.013523,0.002678,0.000431,0.001058
835000,0.0324,0.013523,0.002678,0.000431,0.001410
836000,0.0324,0.013523,0.002678,0.000431,0.000823
837000,0.0324,0.013523,0.002678,0.000431,0.001175
838000,0.0324,0.013523,0.002678,0.000431,0.001058
839000,0.0324,0.013523,0.002678,0.000431,0.000588
840000,0.0324,0.013523,0.002678,0.000431,0.001058
841000,0.0324,0.013523,0.002678,0.000431,0.001410
842000,0.0324,0.013523,0.002678,0.000431,0.000940
843000,0.0324,0.013523,0.002678,0.000431,0.001410
844000,0.0324,0.013523,0.002678,0.000431,0.001058
845000,0.0324,0.013523,0.002678,0.000431,0.000940
846000,0.0324,0.013523,0.002678,0.000431,0.001645
847000,0.0324,0.013523,0.002678,0.000431,0.001293
848000,0.0324,0.013523,0.002678,0.000431,0.001645
849000,0.0324,0.013523,0.002678,0.000431,0.001293
850000,0.0324,0.013523,0.002678,0.000431,0.001410
851000,0.0324,0.013523,0.002678,0.000431,0.001175
852000,0.0324,0.013523,0.002678,0.000431,0.001645
853000,0.0324,0.013523,0.002678,0.000431,0.001528
854000,0.0324,0.013523,0.002678,0.000431,0.001645
855000,0.0324,0.013523,0.002678,0.000431,0.001410
856000,0.0324,0.013523,0.002678,0.000431,0.001528
857000,0.0324,0.013523,0.002678,0.000431,0.001763
858000,0.0324,0.013523,0.002678,0.000431,0.001175
859000,0.0324,0.013523,0.002678,0.000431,0.001645
860000,0.0324,0.013523,0.002678,0.000431,0.001645
861000,0.0324,0.013523,0.002678,0.000431,0.001410
862000,0.0324,0.013523,0.002678,0.000431,0.000823
863000,0.0324,0.013523,0.002678,0.000431,0.001763
864000,0.0324,0.013523,0.002678,0.000431,0.001058
865000,0.0324,0.013523,0.002678,0.000431,0.001175
866000,0.0324,0.013523,0.002678,0.000431,0.001410
867000,0.0324,0.013523,0.002678,0.000431,0.001410
868000,0.0324,0.013523,0.002678,0.000431,0.001410
869000,0.0324,0.013523,0.002678,0.000431,0.001410
870000,0.0324,0.013523,0.002678,0.000431,0.001293
871000,0.0324,0.013523,0.002678,0.000431,0.000823
872000,0.0324,0.013523,0.002678,0.000431,0.001293
873000,0.0324,0.013523,0.002678,0.000431,0.001410
874000,0.0324,0.013523,0.002678,0.000431,0.001293
875000,0.0324,0.013523,0.002678,0.000431,0.001175
876000,0.0324,0.013523,0.002678,0.000431,0.001410
877000,0.0324,0.013523,0.002678,0.000431,0.001410
878000,0.0324,0.013523,0.002678,0.000431,0.001528
879000,0.0324,0.013523,0.002678,0.000431,0.001645
880000,0.0324,0.013523,0.002678,0.000431,0.001528
881000,0.0324,0.013523,0.002678,0.000431,0.001528
882000,0.0324,0.013523,0.002678,0.000431,0.000823
883000,0.0324,0.013523,0.002678,0.000431,0.001763
884000,0.0324,0.013523,0.002678,0.000431,0.001293
885000,0.0324,0.013523,0.002678,0.000431,0.001410
886000,0.0324,0.013523,0.002678,0.000431,0.001410
887000,0.0324,0.013523,0.002678,0.000431,0.001175
888000,0.0324,0.013523,0.002678,0.000431,0.001410
889000,0.0324,0.013523,0.002678,0.000431,0.001528
890000,0.0324,0.013523,0.002678,0.000431,0.001293
891000,0.0324,0.013523,0.002678,0.000431,0.001645
892000,0.0324,0.013523,0.002678,0.000431,0.001293
893000,0.0324,0.013523,0.002678,0.000431,0.001410
894000,0.0324,0.013523,0.002678,0.000431,0.001645
895000,0.0324,0.013523,0.002678,0.000431,0.001410
896000,0.0324,0.013523,0.002678,0.000431,0.001645
897000,0.0324,0.013523,0.002678,0.000431,0.001410
898000,0.0324,0.013523,0.002678,0.000431,0.001528
899000,0.0324,0.013523,0.002678,0.000431,0.001175
900000,0.0324,0.013523,0.002678,0.000431,0.001528
901000,0.0324,0.013523,0.002678,0.000431,0.001293
902000,0.0324,0.013523,0.002678,0.000431,0.001293
903000,0.0324,0.013523,0.002678,0.000431,0.000823
904000,0.0324,0.013523,0.002678,0.000431,0.001528
905000,0.0324,0.013523,0.002678,0.000431,0.001410
906000,0.0324,0.013523,0.002678,0.000431,0.001528
907000,0.0324,0.013523,0.002678,0.000431,0.001410
908000,0.0324,0.013523,0.002678,0.000431,0.001175
909000,0.0324,0.013523,0.002678,0.000431,0.001293
910000,0.0324,0.013523,0.002678,0.000431,0.000940
911000,0.0324,0.013523,0.002678,0.000431,0.001645
912000,0.0324,0.013523,0.002678,0.000431,0.001293
913000,0.0324,0.013523,0.002678,0.000431,0.001058
914000,0.0324,0.013523,0.002678,0.000431,0.001528
915000,0.0324,0.013523,0.002678,0.000431,0.001645
916000,0.0324,0.013523,0.002678,0.000431,0.001528
917000,0.0324,0.013523,0.002678,0.000431,0.000823
918000,0.0324,0.013523,0.002678,0.000431,0.001645
919000,0.0324,0.013523,0.002678,0.000431,0.001645
920000,0.0324,0.013523,0.002678,0.000431,0.001293
921000,0.0324,0.013523,0.002678,0.000431,0.001410
922000,0.0324,0.013523,0.002678,0.000431,0.001293
923000,0.0324,0.013523,0.002678,0.000431,0.001293
924000,0.0324,0.013523,0.002678,0.000431,0.001645
925000,0.0324,0.013523,0.002678,0.000431,0.001293
926000,0.0324,0.013523,0.002678,0.000431,0.001528
927000,0.0324,0.013523,0.002678,0.000431,0.001175
928000,0.0324,0.013523,0.002678,0.000431,0.001528
929000,0.0324,0.013523,0.002678,0.000431,0.001528
930000,0.0324,0.013523,0.002678,0.000431,0.001645
931000,0.0324,0.013523,0.002678,0.000431,0.001410
932000,0.0324,0.013523,0.002678,0.000431,0.001528
933000,0.0324,0.013523,0.002678,0.000431,0.001410
934000,0.0324,0.013523,0.002678,0.000431,0.001175
935000,0.0324,0.013523,0.002678,0.000431,0.001645
936000,0.0324,0.013523,0.002678,0.000431,0.001410
937000,0.0324,0.013523,0.002678,0.000431,0.001880
938000,0.0324,0.013523,0.002678,0.000431,0.000823
939000,0.0324,0.013523,0.002678,0.000431,0.001293
940000,0.0324,0.013523,0.002678,0.000431,0.001645
941000,0.0324,0.013523,0.002678,0.000431,0.001175
942000,0.0324,0.013523,0.002678,0.000431,0.001528
943000,0.0324,0.013523,0.002678,0.000431,0.001528
944000,0.0324,0.013523,0.002678,0.000431,0.001645
945000,0.0324,0.013523,0.002678,0.000431,0.001528
946000,0.0324,0.013523,0.002678,0.000431,0.001293
947000,0.0324,0.013523,0.002678,0.000431,0.001645
948000,0.0324,0.013523,0.002678,0.000431,0.001175
949000,0.0324,0.013523,0.002678,0.000431,0.001645
950000,0.0324,0.013523,0.002678,0.000431,0.001645
951000,0.0324,0.013523,0.002678,0.000431,0.001763
952000,0.0324,0.013523,0.002678,0.000431,0.001293
953000,0.0324,0.013523,0.002678,0.000431,0.001293
954000,0.0324,0.013523,0.002678,0.000431,0.001293
955000,0.0324,0.013523,0.002678,0.000431,0.001410
956000,0.0324,0.013523,0.002678,0.000431,0.001410
957000,0.0324,0.013523,0.002678,0.000431,0.001645
958000,0.0324,0.013523,0.002678,0.000431,0.001293
959000,0.0324,0.013523,0.002678,0.000431,0.001293
960000,0.0324,0.013523,0.002678,0.000431,0.001528
961000,0.0324,0.013523,0.002678,0.000431,0.001410
962000,0.0324,0.013523,0.002678,0.000431,0.001645
963000,0.0324,0.013523,0.002678,0.000431,0.001410
964000,0.0324,0.013523,0.002678,0.000431,0.001528
965000,0.0324,0.013523,0.002678,0.000431,0.001528
966000,0.0324,0.013523,0.002678,0.000431,0.001645
967000,0.0324,0.013523,0.002678,0.000431,0.001293
968000,0.0324,0.013523,0.002678,0.000431,0.001763
969000,0.0324,0.013523,0.002678,0.000431,0.001175
970000,0.0324,0.013523,0.002678,0.000431,0.001293
971000,0.0324,0.013523,0.002678,0.000431,0.001175
972000,0.0324,0.013523,0.002678,0.000431,0.001293
973000,0.0324,0.013523,0.002678,0.000431,0.001528
974000,0.0324,0.013523,0.002678,0.000431,0.001410
975000,0.0324,0.013523,0.002678,0.000431,0.001763
976000,0.0324,0.013523,0.002678,0.000431,0.001293
977000,0.0324,0.013523,0.002678,0.000431,0.001528
978000,0.0324,0.013523,0.002678,0.000431,0.001528
979000,0.0324,0.013523,0.002678,0.000431,0.001528
980000,0.0324,0.013523,0.002678,0.000431,0.001528
981000,0.0324,0.013523,0.002678,0.000431,0.000940
982000,0.0324,0.013523,0.002678,0.000431,0.001410
983000,0.0324,0.013523,0.002678,0.000431,0.001058
984000,0.0324,0.013523,0.002678,0.000431,0.001058
985000,0.0324,0.013523,0.002678,0.000431,0.001528
986000,0.0324,0.013523,0.002678,0.000431,0.001058
987000,0.0324,0.013523,0.002678,0.000431,0.001175
988000,0.0324,0.013523,0.002678,0.000431,0.001058
989000,0.0324,0.013523,0.002678,0.000431,0.001410
990000,0.0324,0.013523,0.002678,0.000431,0.001410
991000,0.0324,0.013523,0.002678,0.000431,0.001528
992000,0.0324,0.013523,0.002678,0.000431,0.001410
993000,0.0324,0.013523,0.002678,0.000431,0.001528
994000,0.0324,0.013523,0.002678,0.000431,0.001293
995000,0.0324,0.013523,0.002678,0.000431,0.001293
996000,0.0324,0.013523,0.002678,0.000431,0.001528
997000,0.0324,0.013523,0.002678,0.000431,0.001645
998000,0.0324,0.013523,0.002678,0.000431,0.001645
999000,0.0324,0.013523,0.002678,0.000431,0.001410
