Cycle,Area(mm^2),PeakDynamic(W),SubthresholdLeakage(W),GateLeakage(W),RunTimeDynamic(W)
1000000,0.0324,0.013523,0.002678,0.000431,0.001410
1001000,0.0324,0.013523,0.002678,0.000431,0.001528
1002000,0.0324,0.013523,0.002678,0.000431,0.001410
1003000,0.0324,0.013523,0.002678,0.000431,0.001645
1004000,0.0324,0.013523,0.002678,0.000431,0.000823
1005000,0.0324,0.013523,0.002678,0.000431,0.000823
1006000,0.0324,0.013523,0.002678,0.000431,0.000940
1007000,0.0324,0.013523,0.002678,0.000431,0.000823
1008000,0.0324,0.013523,0.002678,0.000431,0.000823
1009000,0.0324,0.013523,0.002678,0.000431,0.000823
1010000,0.0324,0.013523,0.002678,0.000431,0.001058
1011000,0.0324,0.013523,0.002678,0.000431,0.001058
1012000,0.0324,0.013523,0.002678,0.000431,0.001058
1013000,0.0324,0.013523,0.002678,0.000431,0.000588
1014000,0.0324,0.013523,0.002678,0.000431,0.001175
1015000,0.0324,0.013523,0.002678,0.000431,0.000823
1016000,0.0324,0.013523,0.002678,0.000431,0.001175
1017000,0.0324,0.013523,0.002678,0.000431,0.001058
1018000,0.0324,0.013523,0.002678,0.000431,0.000823
1019000,0.0324,0.013523,0.002678,0.000431,0.001058
1020000,0.0324,0.013523,0.002678,0.000431,0.000940
1021000,0.0324,0.013523,0.002678,0.000431,0.001058
1022000,0.0324,0.013523,0.002678,0.000431,0.001175
1023000,0.0324,0.013523,0.002678,0.000431,0.001058
1024000,0.0324,0.013523,0.002678,0.000431,0.001058
1025000,0.0324,0.013523,0.002678,0.000431,0.000823
1026000,0.0324,0.013523,0.002678,0.000431,0.001058
1027000,0.0324,0.013523,0.002678,0.000431,0.000940
1028000,0.0324,0.013523,0.002678,0.000431,0.001175
1029000,0.0324,0.013523,0.002678,0.000431,0.000940
1030000,0.0324,0.013523,0.002678,0.000431,0.001293
1031000,0.0324,0.013523,0.002678,0.000431,0.001058
1032000,0.0324,0.013523,0.002678,0.000431,0.000705
1033000,0.0324,0.013523,0.002678,0.000431,0.000823
1034000,0.0324,0.013523,0.002678,0.000431,0.001175
1035000,0.0324,0.013523,0.002678,0.000431,0.001058
1036000,0.0324,0.013523,0.002678,0.000431,0.001058
1037000,0.0324,0.013523,0.002678,0.000431,0.001058
1038000,0.0324,0.013523,0.002678,0.000431,0.000940
1039000,0.0324,0.013523,0.002678,0.000431,0.001058
1040000,0.0324,0.013523,0.002678,0.000431,0.000823
1041000,0.0324,0.013523,0.002678,0.000431,0.001058
1042000,0.0324,0.013523,0.002678,0.000431,0.000940
1043000,0.0324,0.013523,0.002678,0.000431,0.001058
1044000,0.0324,0.013523,0.002678,0.000431,0.000823
1045000,0.0324,0.013523,0.002678,0.000431,0.000940
1046000,0.0324,0.013523,0.002678,0.000431,0.001175
1047000,0.0324,0.013523,0.002678,0.000431,0.000940
1048000,0.0324,0.013523,0.002678,0.000431,0.000940
1049000,0.0324,0.013523,0.002678,0.000431,0.000940
1050000,0.0324,0.013523,0.002678,0.000431,0.000940
1051000,0.0324,0.013523,0.002678,0.000431,0.001058
1052000,0.0324,0.013523,0.002678,0.000431,0.000823
1053000,0.0324,0.013523,0.002678,0.000431,0.000940
1054000,0.0324,0.013523,0.002678,0.000431,0.001058
1055000,0.0324,0.013523,0.002678,0.000431,0.001175
1056000,0.0324,0.013523,0.002678,0.000431,0.000940
1057000,0.0324,0.013523,0.002678,0.000431,0.001175
1058000,0.0324,0.013523,0.002678,0.000431,0.001058
1059000,0.0324,0.013523,0.002678,0.000431,0.000940
1060000,0.0324,0.013523,0.002678,0.000431,0.001175
1061000,0.0324,0.013523,0.002678,0.000431,0.000940
1062000,0.0324,0.013523,0.002678,0.000431,0.000705
1063000,0.0324,0.013523,0.002678,0.000431,0.000940
1064000,0.0324,0.013523,0.002678,0.000431,0.000940
1065000,0.0324,0.013523,0.002678,0.000431,0.001293
1066000,0.0324,0.013523,0.002678,0.000431,0.000940
1067000,0.0324,0.013523,0.002678,0.000431,0.001175
1068000,0.0324,0.013523,0.002678,0.000431,0.000940
1069000,0.0324,0.013523,0.002678,0.000431,0.000940
1070000,0.0324,0.013523,0.002678,0.000431,0.000823
1071000,0.0324,0.013523,0.002678,0.000431,0.001175
1072000,0.0324,0.013523,0.002678,0.000431,0.000823
1073000,0.0324,0.013523,0.002678,0.000431,0.001058
1074000,0.0324,0.013523,0.002678,0.000431,0.001058
1075000,0.0324,0.013523,0.002678,0.000431,0.001175
1076000,0.0324,0.013523,0.002678,0.000431,0.000940
1077000,0.0324,0.013523,0.002678,0.000431,0.000940
1078000,0.0324,0.013523,0.002678,0.000431,0.000823
1079000,0.0324,0.013523,0.002678,0.000431,0.001175
1080000,0.0324,0.013523,0.002678,0.000431,0.001175
1081000,0.0324,0.013523,0.002678,0.000431,0.000940
1082000,0.0324,0.013523,0.002678,0.000431,0.001175
1083000,0.0324,0.013523,0.002678,0.000431,0.000705
1084000,0.0324,0.013523,0.002678,0.000431,0.001175
1085000,0.0324,0.013523,0.002678,0.000431,0.001058
1086000,0.0324,0.013523,0.002678,0.000431,0.001058
1087000,0.0324,0.013523,0.002678,0.000431,0.000823
1088000,0.0324,0.013523,0.002678,0.000431,0.000940
1089000,0.0324,0.013523,0.002678,0.000431,0.000940
1090000,0.0324,0.013523,0.002678,0.000431,0.001058
1091000,0.0324,0.013523,0.002678,0.000431,0.001293
1092000,0.0324,0.013523,0.002678,0.000431,0.000588
1093000,0.0324,0.013523,0.002678,0.000431,0.000823
1094000,0.0324,0.013523,0.002678,0.000431,0.001058
1095000,0.0324,0.013523,0.002678,0.000431,0.001058
1096000,0.0324,0.013523,0.002678,0.000431,0.000823
1097000,0.0324,0.013523,0.002678,0.000431,0.000940
1098000,0.0324,0.013523,0.002678,0.000431,0.001058
1099000,0.0324,0.013523,0.002678,0.000431,0.000940
1100000,0.0324,0.013523,0.002678,0.000431,0.000940
1101000,0.0324,0.013523,0.002678,0.000431,0.000823
1102000,0.0324,0.013523,0.002678,0.000431,0.001175
1103000,0.0324,0.013523,0.002678,0.000431,0.000940
1104000,0.0324,0.013523,0.002678,0.000431,0.000940
1105000,0.0324,0.013523,0.002678,0.000431,0.001175
1106000,0.0324,0.013523,0.002678,0.000431,0.001058
1107000,0.0324,0.013523,0.002678,0.000431,0.000940
1108000,0.0324,0.013523,0.002678,0.000431,0.001058
1109000,0.0324,0.013523,0.002678,0.000431,0.000705
1110000,0.0324,0.013523,0.002678,0.000431,0.000940
1111000,0.0324,0.013523,0.002678,0.000431,0.001058
1112000,0.0324,0.013523,0.002678,0.000431,0.001058
1113000,0.0324,0.013523,0.002678,0.000431,0.000940
1114000,0.0324,0.013523,0.002678,0.000431,0.000823
1115000,0.0324,0.013523,0.002678,0.000431,0.000940
1116000,0.0324,0.013523,0.002678,0.000431,0.001293
1117000,0.0324,0.013523,0.002678,0.000431,0.001058
1118000,0.0324,0.013523,0.002678,0.000431,0.001058
1119000,0.0324,0.013523,0.002678,0.000431,0.000940
1120000,0.0324,0.013523,0.002678,0.000431,0.000705
1121000,0.0324,0.013523,0.002678,0.000431,0.001058
1122000,0.0324,0.013523,0.002678,0.000431,0.001058
1123000,0.0324,0.013523,0.002678,0.000431,0.001058
1124000,0.0324,0.013523,0.002678,0.000431,0.001058
1125000,0.0324,0.013523,0.002678,0.000431,0.001058
1126000,0.0324,0.013523,0.002678,0.000431,0.001058
1127000,0.0324,0.013523,0.002678,0.000431,0.001058
1128000,0.0324,0.013523,0.002678,0.000431,0.000823
1129000,0.0324,0.013523,0.002678,0.000431,0.001058
1130000,0.0324,0.013523,0.002678,0.000431,0.000940
1131000,0.0324,0.013523,0.002678,0.000431,0.000705
1132000,0.0324,0.013523,0.002678,0.000431,0.001058
1133000,0.0324,0.013523,0.002678,0.000431,0.001058
1134000,0.0324,0.013523,0.002678,0.000431,0.001293
1135000,0.0324,0.013523,0.002678,0.000431,0.000940
1136000,0.0324,0.013523,0.002678,0.000431,0.000470
1137000,0.0324,0.013523,0.002678,0.000431,0.000823
1138000,0.0324,0.013523,0.002678,0.000431,0.000823
1139000,0.0324,0.013523,0.002678,0.000431,0.001058
1140000,0.0324,0.013523,0.002678,0.000431,0.000940
1141000,0.0324,0.013523,0.002678,0.000431,0.000823
1142000,0.0324,0.013523,0.002678,0.000431,0.001175
1143000,0.0324,0.013523,0.002678,0.000431,0.000823
1144000,0.0324,0.013523,0.002678,0.000431,0.001058
1145000,0.0324,0.013523,0.002678,0.000431,0.001175
1146000,0.0324,0.013523,0.002678,0.000431,0.001058
1147000,0.0324,0.013523,0.002678,0.000431,0.001058
1148000,0.0324,0.013523,0.002678,0.000431,0.000940
1149000,0.0324,0.013523,0.002678,0.000431,0.001175
1150000,0.0324,0.013523,0.002678,0.000431,0.000940
1151000,0.0324,0.013523,0.002678,0.000431,0.001058
1152000,0.0324,0.013523,0.002678,0.000431,0.000823
1153000,0.0324,0.013523,0.002678,0.000431,0.000823
1154000,0.0324,0.013523,0.002678,0.000431,0.001058
1155000,0.0324,0.013523,0.002678,0.000431,0.001175
1156000,0.0324,0.013523,0.002678,0.000431,0.001058
1157000,0.0324,0.013523,0.002678,0.000431,0.000940
1158000,0.0324,0.013523,0.002678,0.000431,0.000940
1159000,0.0324,0.013523,0.002678,0.000431,0.001058
1160000,0.0324,0.013523,0.002678,0.000431,0.000940
1161000,0.0324,0.013523,0.002678,0.000431,0.001058
1162000,0.0324,0.013523,0.002678,0.000431,0.000940
1163000,0.0324,0.013523,0.002678,0.000431,0.000940
1164000,0.0324,0.013523,0.002678,0.000431,0.001058
1165000,0.0324,0.013523,0.002678,0.000431,0.000823
1166000,0.0324,0.013523,0.002678,0.000431,0.001058
1167000,0.0324,0.013523,0.002678,0.000431,0.001058
1168000,0.0324,0.013523,0.002678,0.000431,0.000940
1169000,0.0324,0.013523,0.002678,0.000431,0.001058
1170000,0.0324,0.013523,0.002678,0.000431,0.000940
1171000,0.0324,0.013523,0.002678,0.000431,0.001058
1172000,0.0324,0.013523,0.002678,0.000431,0.001058
1173000,0.0324,0.013523,0.002678,0.000431,0.000940
1174000,0.0324,0.013523,0.002678,0.000431,0.001058
1175000,0.0324,0.013523,0.002678,0.000431,0.000940
1176000,0.0324,0.013523,0.002678,0.000431,0.000940
1177000,0.0324,0.013523,0.002678,0.000431,0.001175
1178000,0.0324,0.013523,0.002678,0.000431,0.001058
1179000,0.0324,0.013523,0.002678,0.000431,0.000823
1180000,0.0324,0.013523,0.002678,0.000431,0.001058
1181000,0.0324,0.013523,0.002678,0.000431,0.000705
1182000,0.0324,0.013523,0.002678,0.000431,0.001175
1183000,0.0324,0.013523,0.002678,0.000431,0.000823
1184000,0.0324,0.013523,0.002678,0.000431,0.001058
1185000,0.0324,0.013523,0.002678,0.000431,0.001175
1186000,0.0324,0.013523,0.002678,0.000431,0.001058
1187000,0.0324,0.013523,0.002678,0.000431,0.000823
1188000,0.0324,0.013523,0.002678,0.000431,0.001293
1189000,0.0324,0.013523,0.002678,0.000431,0.000823
1190000,0.0324,0.013523,0.002678,0.000431,0.001058
1191000,0.0324,0.013523,0.002678,0.000431,0.001058
1192000,0.0324,0.013523,0.002678,0.000431,0.001058
1193000,0.0324,0.013523,0.002678,0.000431,0.001175
1194000,0.0324,0.013523,0.002678,0.000431,0.000588
1195000,0.0324,0.013523,0.002678,0.000431,0.000940
1196000,0.0324,0.013523,0.002678,0.000431,0.000940
1197000,0.0324,0.013523,0.002678,0.000431,0.000940
1198000,0.0324,0.013523,0.002678,0.000431,0.000940
1199000,0.0324,0.013523,0.002678,0.000431,0.000823
1200000,0.0324,0.013523,0.002678,0.000431,0.000705
1201000,0.0324,0.013523,0.002678,0.000431,0.001175
1202000,0.0324,0.013523,0.002678,0.000431,0.000940
1203000,0.0324,0.013523,0.002678,0.000431,0.001175
1204000,0.0324,0.013523,0.002678,0.000431,0.001058
1205000,0.0324,0.013523,0.002678,0.000431,0.000823
1206000,0.0324,0.013523,0.002678,0.000431,0.001058
1207000,0.0324,0.013523,0.002678,0.000431,0.001058
1208000,0.0324,0.013523,0.002678,0.000431,0.001175
1209000,0.0324,0.013523,0.002678,0.000431,0.000823
1210000,0.0324,0.013523,0.002678,0.000431,0.000470
1211000,0.0324,0.013523,0.002678,0.000431,0.000823
1212000,0.0324,0.013523,0.002678,0.000431,0.000588
1213000,0.0324,0.013523,0.002678,0.000431,0.000823
1214000,0.0324,0.013523,0.002678,0.000431,0.000823
1215000,0.0324,0.013523,0.002678,0.000431,0.000588
1216000,0.0324,0.013523,0.002678,0.000431,0.000823
1217000,0.0324,0.013523,0.002678,0.000431,0.000588
1218000,0.0324,0.013523,0.002678,0.000431,0.000588
1219000,0.0324,0.013523,0.002678,0.000431,0.001175
1220000,0.0324,0.013523,0.002678,0.000431,0.000823
1221000,0.0324,0.013523,0.002678,0.000431,0.001058
1222000,0.0324,0.013523,0.002678,0.000431,0.000705
1223000,0.0324,0.013523,0.002678,0.000431,0.000940
1224000,0.0324,0.013523,0.002678,0.000431,0.001058
1225000,0.0324,0.013523,0.002678,0.000431,0.000823
1226000,0.0324,0.013523,0.002678,0.000431,0.001058
1227000,0.0324,0.013523,0.002678,0.000431,0.001058
1228000,0.0324,0.013523,0.002678,0.000431,0.000940
1229000,0.0324,0.013523,0.002678,0.000431,0.000940
1230000,0.0324,0.013523,0.002678,0.000431,0.000588
1231000,0.0324,0.013523,0.002678,0.000431,0.000705
1232000,0.0324,0.013523,0.002678,0.000431,0.000353
1233000,0.0324,0.013523,0.002678,0.000431,0.000705
1234000,0.0324,0.013523,0.002678,0.000431,0.000235
1235000,0.0324,0.013523,0.002678,0.000431,0.000588
1236000,0.0324,0.013523,0.002678,0.000431,0.000705
1237000,0.0324,0.013523,0.002678,0.000431,0.000353
1238000,0.0324,0.013523,0.002678,0.000431,0.000940
1239000,0.0324,0.013523,0.002678,0.000431,0.000705
1240000,0.0324,0.013523,0.002678,0.000431,0.000823
1241000,0.0324,0.013523,0.002678,0.000431,0.001175
1242000,0.0324,0.013523,0.002678,0.000431,0.000940
1243000,0.0324,0.013523,0.002678,0.000431,0.001058
1244000,0.0324,0.013523,0.002678,0.000431,0.000705
1245000,0.0324,0.013523,0.002678,0.000431,0.000705
1246000,0.0324,0.013523,0.002678,0.000431,0.000705
1247000,0.0324,0.013523,0.002678,0.000431,0.000470
1248000,0.0324,0.013523,0.002678,0.000431,0.000470
1249000,0.0324,0.013523,0.002678,0.000431,0.000588
1250000,0.0324,0.013523,0.002678,0.000431,0.000588
1251000,0.0324,0.013523,0.002678,0.000431,0.000705
1252000,0.0324,0.013523,0.002678,0.000431,0.000353
1253000,0.0324,0.013523,0.002678,0.000431,0.000353
1254000,0.0324,0.013523,0.002678,0.000431,0.000588
1255000,0.0324,0.013523,0.002678,0.000431,0.000000
1256000,0.0324,0.013523,0.002678,0.000431,0.000000
1257000,0.0324,0.013523,0.002678,0.000431,0.000000
1258000,0.0324,0.013523,0.002678,0.000431,0.000000
1259000,0.0324,0.013523,0.002678,0.000431,0.000000
1260000,0.0324,0.013523,0.002678,0.000431,2.259244
1261000,0.0324,0.013523,0.002678,0.000431,1.755518
1262000,0.0324,0.013523,0.002678,0.000431,0.000705
1263000,0.0324,0.013523,0.002678,0.000431,0.000000
1264000,0.0324,0.013523,0.002678,0.000431,0.000000
1265000,0.0324,0.013523,0.002678,0.000431,0.000000
1266000,0.0324,0.013523,0.002678,0.000431,0.000000
1267000,0.0324,0.013523,0.002678,0.000431,1.882684
1268000,0.0324,0.013523,0.002678,0.000431,2.388760
1269000,0.0324,0.013523,0.002678,0.000431,1.259785
1270000,0.0324,0.013523,0.002678,0.000431,2.035118
1271000,0.0324,0.013523,0.002678,0.000431,2.066733
1272000,0.0324,0.013523,0.002678,0.000431,3.243778
1273000,0.0324,0.013523,0.002678,0.000431,3.971512
1274000,0.0324,0.013523,0.002678,0.000431,4.190937
1275000,0.0324,0.013523,0.002678,0.000431,4.126885
1276000,0.0324,0.013523,0.002678,0.000431,4.062479
1277000,0.0324,0.013523,0.002678,0.000431,4.032509
1278000,0.0324,0.013523,0.002678,0.000431,4.018406
1279000,0.0324,0.013523,0.002678,0.000431,4.010767
1280000,0.0324,0.013523,0.002678,0.000431,4.013705
1281000,0.0324,0.013523,0.002678,0.000431,4.041089
1282000,0.0324,0.013523,0.002678,0.000431,4.083869
1283000,0.0324,0.013523,0.002678,0.000431,4.048963
1284000,0.0324,0.013523,0.002678,0.000431,4.065300
1285000,0.0324,0.013523,0.002678,0.000431,4.016173
1286000,0.0324,0.013523,0.002678,0.000431,4.055075
1287000,0.0324,0.013523,0.002678,0.000431,4.055427
1288000,0.0324,0.013523,0.002678,0.000431,4.011002
1289000,0.0324,0.013523,0.002678,0.000431,4.059894
1290000,0.0324,0.013523,0.002678,0.000431,4.075290
1291000,0.0324,0.013523,0.002678,0.000431,4.066005
1292000,0.0324,0.013523,0.002678,0.000431,4.055310
1293000,0.0324,0.013523,0.002678,0.000431,4.045555
1294000,0.0324,0.013523,0.002678,0.000431,4.019699
1295000,0.0324,0.013523,0.002678,0.000431,4.028514
1296000,0.0324,0.013523,0.002678,0.000431,4.054017
1297000,0.0324,0.013523,0.002678,0.000431,4.077993
1298000,0.0324,0.013523,0.002678,0.000431,4.041677
1299000,0.0324,0.013523,0.002678,0.000431,4.065770
1300000,0.0324,0.013523,0.002678,0.000431,4.068591
1301000,0.0324,0.013523,0.002678,0.000431,4.042969
1302000,0.0324,0.013523,0.002678,0.000431,4.071764
1303000,0.0324,0.013523,0.002678,0.000431,4.055075
1304000,0.0324,0.013523,0.002678,0.000431,4.065065
1305000,0.0324,0.013523,0.002678,0.000431,4.098090
1306000,0.0324,0.013523,0.002678,0.000431,4.052489
1307000,0.0324,0.013523,0.002678,0.000431,4.064360
1308000,0.0324,0.013523,0.002678,0.000431,4.085280
1309000,0.0324,0.013523,0.002678,0.000431,4.028631
1310000,0.0324,0.013523,0.002678,0.000431,4.014645
1311000,0.0324,0.013523,0.002678,0.000431,4.014645
1312000,0.0324,0.013523,0.002678,0.000431,4.061186
1313000,0.0324,0.013523,0.002678,0.000431,4.065887
1314000,0.0324,0.013523,0.002678,0.000431,4.065770
1315000,0.0324,0.013523,0.002678,0.000431,4.069766
1316000,0.0324,0.013523,0.002678,0.000431,4.038033
1317000,0.0324,0.013523,0.002678,0.000431,4.013235
1318000,0.0324,0.013523,0.002678,0.000431,4.066475
1319000,0.0324,0.013523,0.002678,0.000431,4.078698
1320000,0.0324,0.013523,0.002678,0.000431,4.006066
1321000,0.0324,0.013523,0.002678,0.000431,4.045320
1322000,0.0324,0.013523,0.002678,0.000431,4.060246
1323000,0.0324,0.013523,0.002678,0.000431,4.098208
1324000,0.0324,0.013523,0.002678,0.000431,4.061421
1325000,0.0324,0.013523,0.002678,0.000431,4.031687
1326000,0.0324,0.013523,0.002678,0.000431,4.003950
1327000,0.0324,0.013523,0.002678,0.000431,4.011354
1328000,0.0324,0.013523,0.002678,0.000431,4.059306
1329000,0.0324,0.013523,0.002678,0.000431,4.067650
1330000,0.0324,0.013523,0.002678,0.000431,4.075407
1331000,0.0324,0.013523,0.002678,0.000431,4.023107
1332000,0.0324,0.013523,0.002678,0.000431,4.055075
1333000,0.0324,0.013523,0.002678,0.000431,4.083164
1334000,0.0324,0.013523,0.002678,0.000431,4.066475
1335000,0.0324,0.013523,0.002678,0.000431,4.053547
1336000,0.0324,0.013523,0.002678,0.000431,4.113486
1337000,0.0324,0.013523,0.002678,0.000431,4.014175
1338000,0.0324,0.013523,0.002678,0.000431,4.088100
1339000,0.0324,0.013523,0.002678,0.000431,4.082694
1340000,0.0324,0.013523,0.002678,0.000431,4.053194
1341000,0.0324,0.013523,0.002678,0.000431,4.083282
1342000,0.0324,0.013523,0.002678,0.000431,4.042264
1343000,0.0324,0.013523,0.002678,0.000431,4.033332
1344000,0.0324,0.013523,0.002678,0.000431,4.035800
1345000,0.0324,0.013523,0.002678,0.000431,4.014645
1346000,0.0324,0.013523,0.002678,0.000431,4.092684
1347000,0.0324,0.013523,0.002678,0.000431,4.135347
1348000,0.0324,0.013523,0.002678,0.000431,4.067063
1349000,0.0324,0.013523,0.002678,0.000431,4.087865
1350000,0.0324,0.013523,0.002678,0.000431,4.061774
1351000,0.0324,0.013523,0.002678,0.000431,4.068943
1352000,0.0324,0.013523,0.002678,0.000431,4.064712
1353000,0.0324,0.013523,0.002678,0.000431,4.103967
1354000,0.0324,0.013523,0.002678,0.000431,4.059071
1355000,0.0324,0.013523,0.002678,0.000431,4.092566
1356000,0.0324,0.013523,0.002678,0.000431,4.066945
1357000,0.0324,0.013523,0.002678,0.000431,4.040266
1358000,0.0324,0.013523,0.002678,0.000431,4.111253
1359000,0.0324,0.013523,0.002678,0.000431,4.017583
1360000,0.0324,0.013523,0.002678,0.000431,4.039914
1361000,0.0324,0.013523,0.002678,0.000431,4.098678
1362000,0.0324,0.013523,0.002678,0.000431,4.001129
1363000,0.0324,0.013523,0.002678,0.000431,4.067298
1364000,0.0324,0.013523,0.002678,0.000431,4.062832
1365000,0.0324,0.013523,0.002678,0.000431,4.055780
1366000,0.0324,0.013523,0.002678,0.000431,4.064007
1367000,0.0324,0.013523,0.002678,0.000431,4.073292
1368000,0.0324,0.013523,0.002678,0.000431,4.111371
1369000,0.0324,0.013523,0.002678,0.000431,3.979504
1370000,0.0324,0.013523,0.002678,0.000431,4.055663
1371000,0.0324,0.013523,0.002678,0.000431,4.036035
1372000,0.0324,0.013523,0.002678,0.000431,4.003245
1373000,0.0324,0.013523,0.002678,0.000431,3.989259
1374000,0.0324,0.013523,0.002678,0.000431,3.875727
1375000,0.0324,0.013523,0.002678,0.000431,3.869145
1376000,0.0324,0.013523,0.002678,0.000431,3.783937
1377000,0.0324,0.013523,0.002678,0.000431,3.719297
1378000,0.0324,0.013523,0.002678,0.000431,3.573209
1379000,0.0324,0.013523,0.002678,0.000431,3.473193
1380000,0.0324,0.013523,0.002678,0.000431,3.363774
1381000,0.0324,0.013523,0.002678,0.000431,3.176082
1382000,0.0324,0.013523,0.002678,0.000431,3.051972
1383000,0.0324,0.013523,0.002678,0.000431,2.965941
1384000,0.0324,0.013523,0.002678,0.000431,2.870978
1385000,0.0324,0.013523,0.002678,0.000431,2.755801
1386000,0.0324,0.013523,0.002678,0.000431,2.619468
1387000,0.0324,0.013523,0.002678,0.000431,2.490657
1388000,0.0324,0.013523,0.002678,0.000431,2.406390
1389000,0.0324,0.013523,0.002678,0.000431,2.331759
1390000,0.0324,0.013523,0.002678,0.000431,2.271115
1391000,0.0324,0.013523,0.002678,0.000431,2.198130
1392000,0.0324,0.013523,0.002678,0.000431,2.088006
1393000,0.0324,0.013523,0.002678,0.000431,2.042875
1394000,0.0324,0.013523,0.002678,0.000431,1.989987
1395000,0.0324,0.013523,0.002678,0.000431,1.936042
1396000,0.0324,0.013523,0.002678,0.000431,1.815340
1397000,0.0324,0.013523,0.002678,0.000431,1.786076
1398000,0.0324,0.013523,0.002678,0.000431,1.731543
1399000,0.0324,0.013523,0.002678,0.000431,1.689468
1400000,0.0324,0.013523,0.002678,0.000431,1.641281
1401000,0.0324,0.013523,0.002678,0.000431,1.574525
1402000,0.0324,0.013523,0.002678,0.000431,1.510590
1403000,0.0324,0.013523,0.002678,0.000431,1.476154
1404000,0.0324,0.013523,0.002678,0.000431,1.429848
1405000,0.0324,0.013523,0.002678,0.000431,1.394942
1406000,0.0324,0.013523,0.002678,0.000431,1.343817
1407000,0.0324,0.013523,0.002678,0.000431,1.324778
1408000,0.0324,0.013523,0.002678,0.000431,1.273653
1409000,0.0324,0.013523,0.002678,0.000431,1.187975
1410000,0.0324,0.013523,0.002678,0.000431,1.159180
1411000,0.0324,0.013523,0.002678,0.000431,1.128741
1412000,0.0324,0.013523,0.002678,0.000431,1.084785
1413000,0.0324,0.013523,0.002678,0.000431,1.034953
1414000,0.0324,0.013523,0.002678,0.000431,1.013446
1415000,0.0324,0.013523,0.002678,0.000431,0.975014
1416000,0.0324,0.013523,0.002678,0.000431,0.920951
1417000,0.0324,0.013523,0.002678,0.000431,0.902499
1418000,0.0324,0.013523,0.002678,0.000431,0.866653
1419000,0.0324,0.013523,0.002678,0.000431,0.838329
1420000,0.0324,0.013523,0.002678,0.000431,0.806126
1421000,0.0324,0.013523,0.002678,0.000431,0.795548
1422000,0.0324,0.013523,0.002678,0.000431,0.733846
1423000,0.0324,0.013523,0.002678,0.000431,0.726794
1424000,0.0324,0.013523,0.002678,0.000431,0.688245
1425000,0.0324,0.013523,0.002678,0.000431,0.669205
1426000,0.0324,0.013523,0.002678,0.000431,0.638178
1427000,0.0324,0.013523,0.002678,0.000431,0.620431
1428000,0.0324,0.013523,0.002678,0.000431,0.594458
1429000,0.0324,0.013523,0.002678,0.000431,0.565193
1430000,0.0324,0.013523,0.002678,0.000431,0.546153
1431000,0.0324,0.013523,0.002678,0.000431,0.528054
1432000,0.0324,0.013523,0.002678,0.000431,0.512423
1433000,0.0324,0.013523,0.002678,0.000431,0.482688
1434000,0.0324,0.013523,0.002678,0.000431,0.459300
1435000,0.0324,0.013523,0.002678,0.000431,0.447900
1436000,0.0324,0.013523,0.002678,0.000431,0.438263
1437000,0.0324,0.013523,0.002678,0.000431,0.408881
1438000,0.0324,0.013523,0.002678,0.000431,0.402534
1439000,0.0324,0.013523,0.002678,0.000431,0.384200
1440000,0.0324,0.013523,0.002678,0.000431,0.364807
1441000,0.0324,0.013523,0.002678,0.000431,0.352702
1442000,0.0324,0.013523,0.002678,0.000431,0.337541
1443000,0.0324,0.013523,0.002678,0.000431,0.329079
1444000,0.0324,0.013523,0.002678,0.000431,0.318971
1445000,0.0324,0.013523,0.002678,0.000431,0.304986
1446000,0.0324,0.013523,0.002678,0.000431,0.299109
1447000,0.0324,0.013523,0.002678,0.000431,0.277014
1448000,0.0324,0.013523,0.002678,0.000431,0.263733
1449000,0.0324,0.013523,0.002678,0.000431,0.259855
1450000,0.0324,0.013523,0.002678,0.000431,0.251980
1451000,0.0324,0.013523,0.002678,0.000431,0.232236
1452000,0.0324,0.013523,0.002678,0.000431,0.225772
1453000,0.0324,0.013523,0.002678,0.000431,0.214489
1454000,0.0324,0.013523,0.002678,0.000431,0.210846
1455000,0.0324,0.013523,0.002678,0.000431,0.202031
1456000,0.0324,0.013523,0.002678,0.000431,0.196977
1457000,0.0324,0.013523,0.002678,0.000431,0.190748
1458000,0.0324,0.013523,0.002678,0.000431,0.180641
1459000,0.0324,0.013523,0.002678,0.000431,0.167478
1460000,0.0324,0.013523,0.002678,0.000431,0.165832
1461000,0.0324,0.013523,0.002678,0.000431,0.159368
1462000,0.0324,0.013523,0.002678,0.000431,0.148791
1463000,0.0324,0.013523,0.002678,0.000431,0.147263
1464000,0.0324,0.013523,0.002678,0.000431,0.136803
1465000,0.0324,0.013523,0.002678,0.000431,0.131984
1466000,0.0324,0.013523,0.002678,0.000431,0.128693
1467000,0.0324,0.013523,0.002678,0.000431,0.121524
1468000,0.0324,0.013523,0.002678,0.000431,0.127283
1469000,0.0324,0.013523,0.002678,0.000431,0.114708
1470000,0.0324,0.013523,0.002678,0.000431,0.112827
1471000,0.0324,0.013523,0.002678,0.000431,0.106951
1472000,0.0324,0.013523,0.002678,0.000431,0.101897
1473000,0.0324,0.013523,0.002678,0.000431,0.106128
1474000,0.0324,0.013523,0.002678,0.000431,0.101897
1475000,0.0324,0.013523,0.002678,0.000431,0.091672
1476000,0.0324,0.013523,0.002678,0.000431,0.089086
1477000,0.0324,0.013523,0.002678,0.000431,0.086971
1478000,0.0324,0.013523,0.002678,0.000431,0.083092
1479000,0.0324,0.013523,0.002678,0.000431,0.078979
1480000,0.0324,0.013523,0.002678,0.000431,0.076276
1481000,0.0324,0.013523,0.002678,0.000431,0.072750
1482000,0.0324,0.013523,0.002678,0.000431,0.073455
1483000,0.0324,0.013523,0.002678,0.000431,0.068284
1484000,0.0324,0.013523,0.002678,0.000431,0.065111
1485000,0.0324,0.013523,0.002678,0.000431,0.068166
1486000,0.0324,0.013523,0.002678,0.000431,0.062055
1487000,0.0324,0.013523,0.002678,0.000431,0.061585
1488000,0.0324,0.013523,0.002678,0.000431,0.060527
1489000,0.0324,0.013523,0.002678,0.000431,0.056766
1490000,0.0324,0.013523,0.002678,0.000431,0.054651
1491000,0.0324,0.013523,0.002678,0.000431,0.056649
1492000,0.0324,0.013523,0.002678,0.000431,0.049597
1493000,0.0324,0.013523,0.002678,0.000431,0.051007
1494000,0.0324,0.013523,0.002678,0.000431,0.048304
1495000,0.0324,0.013523,0.002678,0.000431,0.047129
1496000,0.0324,0.013523,0.002678,0.000431,0.045836
1497000,0.0324,0.013523,0.002678,0.000431,0.043485
1498000,0.0324,0.013523,0.002678,0.000431,0.043720
1499000,0.0324,0.013523,0.002678,0.000431,0.042193
1500000,0.0324,0.013523,0.002678,0.000431,0.043250
1501000,0.0324,0.013523,0.002678,0.000431,0.038902
1502000,0.0324,0.013523,0.002678,0.000431,0.039489
1503000,0.0324,0.013523,0.002678,0.000431,0.035023
1504000,0.0324,0.013523,0.002678,0.000431,0.038314
1505000,0.0324,0.013523,0.002678,0.000431,0.036316
1506000,0.0324,0.013523,0.002678,0.000431,0.033731
1507000,0.0324,0.013523,0.002678,0.000431,0.031498
1508000,0.0324,0.013523,0.002678,0.000431,0.033496
1509000,0.0324,0.013523,0.002678,0.000431,0.030792
1510000,0.0324,0.013523,0.002678,0.000431,0.027031
1511000,0.0324,0.013523,0.002678,0.000431,0.029735
1512000,0.0324,0.013523,0.002678,0.000431,0.028559
1513000,0.0324,0.013523,0.002678,0.000431,0.029265
1514000,0.0324,0.013523,0.002678,0.000431,0.026326
1515000,0.0324,0.013523,0.002678,0.000431,0.027854
1516000,0.0324,0.013523,0.002678,0.000431,0.026091
1517000,0.0324,0.013523,0.002678,0.000431,0.025151
1518000,0.0324,0.013523,0.002678,0.000431,0.025621
1519000,0.0324,0.013523,0.002678,0.000431,0.025386
1520000,0.0324,0.013523,0.002678,0.000431,0.025739
1521000,0.0324,0.013523,0.002678,0.000431,0.023153
1522000,0.0324,0.013523,0.002678,0.000431,0.023976
1523000,0.0324,0.013523,0.002678,0.000431,0.022800
1524000,0.0324,0.013523,0.002678,0.000431,0.021625
1525000,0.0324,0.013523,0.002678,0.000431,0.023976
1526000,0.0324,0.013523,0.002678,0.000431,0.021273
1527000,0.0324,0.013523,0.002678,0.000431,0.020450
1528000,0.0324,0.013523,0.002678,0.000431,0.021273
1529000,0.0324,0.013523,0.002678,0.000431,0.019745
1530000,0.0324,0.013523,0.002678,0.000431,0.018569
1531000,0.0324,0.013523,0.002678,0.000431,0.017394
1532000,0.0324,0.013523,0.002678,0.000431,0.016689
1533000,0.0324,0.013523,0.002678,0.000431,0.016924
1534000,0.0324,0.013523,0.002678,0.000431,0.016454
1535000,0.0324,0.013523,0.002678,0.000431,0.016101
1536000,0.0324,0.013523,0.002678,0.000431,0.014573
1537000,0.0324,0.013523,0.002678,0.000431,0.015984
1538000,0.0324,0.013523,0.002678,0.000431,0.013751
1539000,0.0324,0.013523,0.002678,0.000431,0.014221
1540000,0.0324,0.013523,0.002678,0.000431,0.014221
1541000,0.0324,0.013523,0.002678,0.000431,0.014103
1542000,0.0324,0.013523,0.002678,0.000431,0.013751
1543000,0.0324,0.013523,0.002678,0.000431,0.012928
1544000,0.0324,0.013523,0.002678,0.000431,0.013516
1545000,0.0324,0.013523,0.002678,0.000431,0.012223
1546000,0.0324,0.013523,0.002678,0.000431,0.012576
1547000,0.0324,0.013523,0.002678,0.000431,0.011988
1548000,0.0324,0.013523,0.002678,0.000431,0.011870
1549000,0.0324,0.013523,0.002678,0.000431,0.011283
1550000,0.0324,0.013523,0.002678,0.000431,0.011635
1551000,0.0324,0.013523,0.002678,0.000431,0.011753
1552000,0.0324,0.013523,0.002678,0.000431,0.011870
1553000,0.0324,0.013523,0.002678,0.000431,0.011635
1554000,0.0324,0.013523,0.002678,0.000431,0.010460
1555000,0.0324,0.013523,0.002678,0.000431,0.011165
1556000,0.0324,0.013523,0.002678,0.000431,0.010578
1557000,0.0324,0.013523,0.002678,0.000431,0.010695
1558000,0.0324,0.013523,0.002678,0.000431,0.009990
1559000,0.0324,0.013523,0.002678,0.000431,0.009872
1560000,0.0324,0.013523,0.002678,0.000431,0.008580
1561000,0.0324,0.013523,0.002678,0.000431,0.011048
1562000,0.0324,0.013523,0.002678,0.000431,0.009755
1563000,0.0324,0.013523,0.002678,0.000431,0.009285
1564000,0.0324,0.013523,0.002678,0.000431,0.010107
1565000,0.0324,0.013523,0.002678,0.000431,0.009637
1566000,0.0324,0.013523,0.002678,0.000431,0.009872
1567000,0.0324,0.013523,0.002678,0.000431,0.010578
1568000,0.0324,0.013523,0.002678,0.000431,0.009167
1569000,0.0324,0.013523,0.002678,0.000431,0.009990
1570000,0.0324,0.013523,0.002678,0.000431,0.008815
1571000,0.0324,0.013523,0.002678,0.000431,0.008932
1572000,0.0324,0.013523,0.002678,0.000431,0.009285
1573000,0.0324,0.013523,0.002678,0.000431,0.008697
1574000,0.0324,0.013523,0.002678,0.000431,0.009285
1575000,0.0324,0.013523,0.002678,0.000431,0.008580
1576000,0.0324,0.013523,0.002678,0.000431,0.008109
1577000,0.0324,0.013523,0.002678,0.000431,0.008815
1578000,0.0324,0.013523,0.002678,0.000431,0.008697
1579000,0.0324,0.013523,0.002678,0.000431,0.007874
1580000,0.0324,0.013523,0.002678,0.000431,0.007757
1581000,0.0324,0.013523,0.002678,0.000431,0.008462
1582000,0.0324,0.013523,0.002678,0.000431,0.007757
1583000,0.0324,0.013523,0.002678,0.000431,0.007404
1584000,0.0324,0.013523,0.002678,0.000431,0.008109
1585000,0.0324,0.013523,0.002678,0.000431,0.007639
1586000,0.0324,0.013523,0.002678,0.000431,0.006934
1587000,0.0324,0.013523,0.002678,0.000431,0.006934
1588000,0.0324,0.013523,0.002678,0.000431,0.007287
1589000,0.0324,0.013523,0.002678,0.000431,0.007522
1590000,0.0324,0.013523,0.002678,0.000431,0.007169
1591000,0.0324,0.013523,0.002678,0.000431,0.007169
1592000,0.0324,0.013523,0.002678,0.000431,0.007757
1593000,0.0324,0.013523,0.002678,0.000431,0.007287
1594000,0.0324,0.013523,0.002678,0.000431,0.006464
1595000,0.0324,0.013523,0.002678,0.000431,0.007052
1596000,0.0324,0.013523,0.002678,0.000431,0.007639
1597000,0.0324,0.013523,0.002678,0.000431,0.006111
1598000,0.0324,0.013523,0.002678,0.000431,0.006817
1599000,0.0324,0.013523,0.002678,0.000431,0.006229
1600000,0.0324,0.013523,0.002678,0.000431,0.007169
1601000,0.0324,0.013523,0.002678,0.000431,0.005641
1602000,0.0324,0.013523,0.002678,0.000431,0.005289
1603000,0.0324,0.013523,0.002678,0.000431,0.007052
1604000,0.0324,0.013523,0.002678,0.000431,0.006699
1605000,0.0324,0.013523,0.002678,0.000431,0.006347
1606000,0.0324,0.013523,0.002678,0.000431,0.005876
1607000,0.0324,0.013523,0.002678,0.000431,0.005994
1608000,0.0324,0.013523,0.002678,0.000431,0.005171
1609000,0.0324,0.013523,0.002678,0.000431,0.005641
1610000,0.0324,0.013523,0.002678,0.000431,0.006464
1611000,0.0324,0.013523,0.002678,0.000431,0.004936
1612000,0.0324,0.013523,0.002678,0.000431,0.004819
1613000,0.0324,0.013523,0.002678,0.000431,0.005524
1614000,0.0324,0.013523,0.002678,0.000431,0.005876
1615000,0.0324,0.013523,0.002678,0.000431,0.005759
1616000,0.0324,0.013523,0.002678,0.000431,0.004701
1617000,0.0324,0.013523,0.002678,0.000431,0.005171
1618000,0.0324,0.013523,0.002678,0.000431,0.005054
1619000,0.0324,0.013523,0.002678,0.000431,0.005524
1620000,0.0324,0.013523,0.002678,0.000431,0.005171
1621000,0.0324,0.013523,0.002678,0.000431,0.005171
1622000,0.0324,0.013523,0.002678,0.000431,0.004819
1623000,0.0324,0.013523,0.002678,0.000431,0.005994
1624000,0.0324,0.013523,0.002678,0.000431,0.005641
1625000,0.0324,0.013523,0.002678,0.000431,0.004936
1626000,0.0324,0.013523,0.002678,0.000431,0.005289
1627000,0.0324,0.013523,0.002678,0.000431,0.004819
1628000,0.0324,0.013523,0.002678,0.000431,0.004349
1629000,0.0324,0.013523,0.002678,0.000431,0.004936
1630000,0.0324,0.013523,0.002678,0.000431,0.004113
1631000,0.0324,0.013523,0.002678,0.000431,0.005054
1632000,0.0324,0.013523,0.002678,0.000431,0.004113
1633000,0.0324,0.013523,0.002678,0.000431,0.005171
1634000,0.0324,0.013523,0.002678,0.000431,0.004584
1635000,0.0324,0.013523,0.002678,0.000431,0.004466
1636000,0.0324,0.013523,0.002678,0.000431,0.004819
1637000,0.0324,0.013523,0.002678,0.000431,0.004584
1638000,0.0324,0.013523,0.002678,0.000431,0.004936
1639000,0.0324,0.013523,0.002678,0.000431,0.004819
1640000,0.0324,0.013523,0.002678,0.000431,0.004466
1641000,0.0324,0.013523,0.002678,0.000431,0.005406
1642000,0.0324,0.013523,0.002678,0.000431,0.004466
1643000,0.0324,0.013523,0.002678,0.000431,0.004349
1644000,0.0324,0.013523,0.002678,0.000431,0.004701
1645000,0.0324,0.013523,0.002678,0.000431,0.004231
1646000,0.0324,0.013523,0.002678,0.000431,0.004466
1647000,0.0324,0.013523,0.002678,0.000431,0.004701
1648000,0.0324,0.013523,0.002678,0.000431,0.004349
1649000,0.0324,0.013523,0.002678,0.000431,0.004349
1650000,0.0324,0.013523,0.002678,0.000431,0.004349
1651000,0.0324,0.013523,0.002678,0.000431,0.004466
1652000,0.0324,0.013523,0.002678,0.000431,0.004819
1653000,0.0324,0.013523,0.002678,0.000431,0.003996
1654000,0.0324,0.013523,0.002678,0.000431,0.004466
1655000,0.0324,0.013523,0.002678,0.000431,0.004584
1656000,0.0324,0.013523,0.002678,0.000431,0.003761
1657000,0.0324,0.013523,0.002678,0.000431,0.003878
1658000,0.0324,0.013523,0.002678,0.000431,0.004113
1659000,0.0324,0.013523,0.002678,0.000431,0.004584
1660000,0.0324,0.013523,0.002678,0.000431,0.003878
1661000,0.0324,0.013523,0.002678,0.000431,0.004231
1662000,0.0324,0.013523,0.002678,0.000431,0.004349
1663000,0.0324,0.013523,0.002678,0.000431,0.003526
1664000,0.0324,0.013523,0.002678,0.000431,0.003878
1665000,0.0324,0.013523,0.002678,0.000431,0.003996
1666000,0.0324,0.013523,0.002678,0.000431,0.004349
1667000,0.0324,0.013523,0.002678,0.000431,0.004231
1668000,0.0324,0.013523,0.002678,0.000431,0.003643
1669000,0.0324,0.013523,0.002678,0.000431,0.003878
1670000,0.0324,0.013523,0.002678,0.000431,0.003996
1671000,0.0324,0.013523,0.002678,0.000431,0.004466
1672000,0.0324,0.013523,0.002678,0.000431,0.003761
1673000,0.0324,0.013523,0.002678,0.000431,0.004113
1674000,0.0324,0.013523,0.002678,0.000431,0.004349
1675000,0.0324,0.013523,0.002678,0.000431,0.003526
1676000,0.0324,0.013523,0.002678,0.000431,0.003996
1677000,0.0324,0.013523,0.002678,0.000431,0.003996
1678000,0.0324,0.013523,0.002678,0.000431,0.003878
1679000,0.0324,0.013523,0.002678,0.000431,0.003643
1680000,0.0324,0.013523,0.002678,0.000431,0.003761
1681000,0.0324,0.013523,0.002678,0.000431,0.003761
1682000,0.0324,0.013523,0.002678,0.000431,0.003291
1683000,0.0324,0.013523,0.002678,0.000431,0.004231
1684000,0.0324,0.013523,0.002678,0.000431,0.003408
1685000,0.0324,0.013523,0.002678,0.000431,0.002821
1686000,0.0324,0.013523,0.002678,0.000431,0.003761
1687000,0.0324,0.013523,0.002678,0.000431,0.003761
1688000,0.0324,0.013523,0.002678,0.000431,0.004231
1689000,0.0324,0.013523,0.002678,0.000431,0.003526
1690000,0.0324,0.013523,0.002678,0.000431,0.003643
1691000,0.0324,0.013523,0.002678,0.000431,0.004231
1692000,0.0324,0.013523,0.002678,0.000431,0.003408
1693000,0.0324,0.013523,0.002678,0.000431,0.004349
1694000,0.0324,0.013523,0.002678,0.000431,0.003408
1695000,0.0324,0.013523,0.002678,0.000431,0.003056
1696000,0.0324,0.013523,0.002678,0.000431,0.004113
1697000,0.0324,0.013523,0.002678,0.000431,0.003291
1698000,0.0324,0.013523,0.002678,0.000431,0.003761
1699000,0.0324,0.013523,0.002678,0.000431,0.004113
1700000,0.0324,0.013523,0.002678,0.000431,0.003996
1701000,0.0324,0.013523,0.002678,0.000431,0.003408
1702000,0.0324,0.013523,0.002678,0.000431,0.003526
1703000,0.0324,0.013523,0.002678,0.000431,0.003173
1704000,0.0324,0.013523,0.002678,0.000431,0.003408
1705000,0.0324,0.013523,0.002678,0.000431,0.003291
1706000,0.0324,0.013523,0.002678,0.000431,0.003761
1707000,0.0324,0.013523,0.002678,0.000431,0.003643
1708000,0.0324,0.013523,0.002678,0.000431,0.003761
1709000,0.0324,0.013523,0.002678,0.000431,0.003761
1710000,0.0324,0.013523,0.002678,0.000431,0.003878
1711000,0.0324,0.013523,0.002678,0.000431,0.003056
1712000,0.0324,0.013523,0.002678,0.000431,0.003173
1713000,0.0324,0.013523,0.002678,0.000431,0.002821
1714000,0.0324,0.013523,0.002678,0.000431,0.002703
1715000,0.0324,0.013523,0.002678,0.000431,0.003291
1716000,0.0324,0.013523,0.002678,0.000431,0.002703
1717000,0.0324,0.013523,0.002678,0.000431,0.003878
1718000,0.0324,0.013523,0.002678,0.000431,0.003173
1719000,0.0324,0.013523,0.002678,0.000431,0.003408
1720000,0.0324,0.013523,0.002678,0.000431,0.002821
1721000,0.0324,0.013523,0.002678,0.000431,0.003173
1722000,0.0324,0.013523,0.002678,0.000431,0.003526
1723000,0.0324,0.013523,0.002678,0.000431,0.003526
1724000,0.0324,0.013523,0.002678,0.000431,0.002821
1725000,0.0324,0.013523,0.002678,0.000431,0.002821
1726000,0.0324,0.013523,0.002678,0.000431,0.002821
1727000,0.0324,0.013523,0.002678,0.000431,0.002821
1728000,0.0324,0.013523,0.002678,0.000431,0.002351
1729000,0.0324,0.013523,0.002678,0.000431,0.003056
1730000,0.0324,0.013523,0.002678,0.000431,0.002821
1731000,0.0324,0.013523,0.002678,0.000431,0.002586
1732000,0.0324,0.013523,0.002678,0.000431,0.002703
1733000,0.0324,0.013523,0.002678,0.000431,0.003291
1734000,0.0324,0.013523,0.002678,0.000431,0.003291
1735000,0.0324,0.013523,0.002678,0.000431,0.002938
1736000,0.0324,0.013523,0.002678,0.000431,0.002233
1737000,0.0324,0.013523,0.002678,0.000431,0.002351
1738000,0.0324,0.013523,0.002678,0.000431,0.002351
1739000,0.0324,0.013523,0.002678,0.000431,0.002233
1740000,0.0324,0.013523,0.002678,0.000431,0.002821
1741000,0.0324,0.013523,0.002678,0.000431,0.002468
1742000,0.0324,0.013523,0.002678,0.000431,0.001998
1743000,0.0324,0.013523,0.002678,0.000431,0.002468
1744000,0.0324,0.013523,0.002678,0.000431,0.002586
1745000,0.0324,0.013523,0.002678,0.000431,0.002351
1746000,0.0324,0.013523,0.002678,0.000431,0.002351
1747000,0.0324,0.013523,0.002678,0.000431,0.001998
1748000,0.0324,0.013523,0.002678,0.000431,0.002351
1749000,0.0324,0.013523,0.002678,0.000431,0.002468
1750000,0.0324,0.013523,0.002678,0.000431,0.002116
1751000,0.0324,0.013523,0.002678,0.000431,0.002351
1752000,0.0324,0.013523,0.002678,0.000431,0.002116
1753000,0.0324,0.013523,0.002678,0.000431,0.002586
1754000,0.0324,0.013523,0.002678,0.000431,0.002703
1755000,0.0324,0.013523,0.002678,0.000431,0.002586
1756000,0.0324,0.013523,0.002678,0.000431,0.002586
1757000,0.0324,0.013523,0.002678,0.000431,0.002468
1758000,0.0324,0.013523,0.002678,0.000431,0.002586
1759000,0.0324,0.013523,0.002678,0.000431,0.002351
1760000,0.0324,0.013523,0.002678,0.000431,0.002821
1761000,0.0324,0.013523,0.002678,0.000431,0.001998
1762000,0.0324,0.013523,0.002678,0.000431,0.001998
1763000,0.0324,0.013523,0.002678,0.000431,0.001528
1764000,0.0324,0.013523,0.002678,0.000431,0.001528
1765000,0.0324,0.013523,0.002678,0.000431,0.001410
1766000,0.0324,0.013523,0.002678,0.000431,0.001528
1767000,0.0324,0.013523,0.002678,0.000431,0.001880
1768000,0.0324,0.013523,0.002678,0.000431,0.001998
1769000,0.0324,0.013523,0.002678,0.000431,0.001880
1770000,0.0324,0.013523,0.002678,0.000431,0.001880
1771000,0.0324,0.013523,0.002678,0.000431,0.001763
1772000,0.0324,0.013523,0.002678,0.000431,0.001528
1773000,0.0324,0.013523,0.002678,0.000431,0.001293
1774000,0.0324,0.013523,0.002678,0.000431,0.001645
1775000,0.0324,0.013523,0.002678,0.000431,0.001880
1776000,0.0324,0.013523,0.002678,0.000431,0.001763
1777000,0.0324,0.013523,0.002678,0.000431,0.001763
1778000,0.0324,0.013523,0.002678,0.000431,0.001528
1779000,0.0324,0.013523,0.002678,0.000431,0.001763
1780000,0.0324,0.013523,0.002678,0.000431,0.001763
1781000,0.0324,0.013523,0.002678,0.000431,0.001645
1782000,0.0324,0.013523,0.002678,0.000431,0.001528
1783000,0.0324,0.013523,0.002678,0.000431,0.001645
1784000,0.0324,0.013523,0.002678,0.000431,0.001645
1785000,0.0324,0.013523,0.002678,0.000431,0.001763
1786000,0.0324,0.013523,0.002678,0.000431,0.001645
1787000,0.0324,0.013523,0.002678,0.000431,0.001528
1788000,0.0324,0.013523,0.002678,0.000431,0.001528
1789000,0.0324,0.013523,0.002678,0.000431,0.001763
1790000,0.0324,0.013523,0.002678,0.000431,0.001645
1791000,0.0324,0.013523,0.002678,0.000431,0.001645
1792000,0.0324,0.013523,0.002678,0.000431,0.001998
1793000,0.0324,0.013523,0.002678,0.000431,0.001645
1794000,0.0324,0.013523,0.002678,0.000431,0.001763
1795000,0.0324,0.013523,0.002678,0.000431,0.001998
1796000,0.0324,0.013523,0.002678,0.000431,0.001645
1797000,0.0324,0.013523,0.002678,0.000431,0.001645
1798000,0.0324,0.013523,0.002678,0.000431,0.001528
1799000,0.0324,0.013523,0.002678,0.000431,0.001528
1800000,0.0324,0.013523,0.002678,0.000431,0.001528
1801000,0.0324,0.013523,0.002678,0.000431,0.001998
1802000,0.0324,0.013523,0.002678,0.000431,0.001528
1803000,0.0324,0.013523,0.002678,0.000431,0.001880
1804000,0.0324,0.013523,0.002678,0.000431,0.001410
1805000,0.0324,0.013523,0.002678,0.000431,0.001880
1806000,0.0324,0.013523,0.002678,0.000431,0.001645
1807000,0.0324,0.013523,0.002678,0.000431,0.001645
1808000,0.0324,0.013523,0.002678,0.000431,0.001763
1809000,0.0324,0.013523,0.002678,0.000431,0.001763
1810000,0.0324,0.013523,0.002678,0.000431,0.001880
1811000,0.0324,0.013523,0.002678,0.000431,0.001645
1812000,0.0324,0.013523,0.002678,0.000431,0.001880
1813000,0.0324,0.013523,0.002678,0.000431,0.001763
1814000,0.0324,0.013523,0.002678,0.000431,0.001763
1815000,0.0324,0.013523,0.002678,0.000431,0.001998
1816000,0.0324,0.013523,0.002678,0.000431,0.001880
1817000,0.0324,0.013523,0.002678,0.000431,0.001528
1818000,0.0324,0.013523,0.002678,0.000431,0.001410
1819000,0.0324,0.013523,0.002678,0.000431,0.001645
1820000,0.0324,0.013523,0.002678,0.000431,0.001880
1821000,0.0324,0.013523,0.002678,0.000431,0.001645
1822000,0.0324,0.013523,0.002678,0.000431,0.001645
1823000,0.0324,0.013523,0.002678,0.000431,0.001880
1824000,0.0324,0.013523,0.002678,0.000431,0.001528
1825000,0.0324,0.013523,0.002678,0.000431,0.001763
1826000,0.0324,0.013523,0.002678,0.000431,0.001528
1827000,0.0324,0.013523,0.002678,0.000431,0.001763
1828000,0.0324,0.013523,0.002678,0.000431,0.001763
1829000,0.0324,0.013523,0.002678,0.000431,0.002116
1830000,0.0324,0.013523,0.002678,0.000431,0.001293
1831000,0.0324,0.013523,0.002678,0.000431,0.001763
1832000,0.0324,0.013523,0.002678,0.000431,0.001763
1833000,0.0324,0.013523,0.002678,0.000431,0.001763
1834000,0.0324,0.013523,0.002678,0.000431,0.001763
1835000,0.0324,0.013523,0.002678,0.000431,0.001528
1836000,0.0324,0.013523,0.002678,0.000431,0.001880
1837000,0.0324,0.013523,0.002678,0.000431,0.001528
1838000,0.0324,0.013523,0.002678,0.000431,0.001763
1839000,0.0324,0.013523,0.002678,0.000431,0.001763
1840000,0.0324,0.013523,0.002678,0.000431,0.001998
1841000,0.0324,0.013523,0.002678,0.000431,0.001880
1842000,0.0324,0.013523,0.002678,0.000431,0.001410
1843000,0.0324,0.013523,0.002678,0.000431,0.001763
1844000,0.0324,0.013523,0.002678,0.000431,0.001645
1845000,0.0324,0.013523,0.002678,0.000431,0.001998
1846000,0.0324,0.013523,0.002678,0.000431,0.001528
1847000,0.0324,0.013523,0.002678,0.000431,0.001763
1848000,0.0324,0.013523,0.002678,0.000431,0.001880
1849000,0.0324,0.013523,0.002678,0.000431,0.001880
1850000,0.0324,0.013523,0.002678,0.000431,0.001645
1851000,0.0324,0.013523,0.002678,0.000431,0.001763
1852000,0.0324,0.013523,0.002678,0.000431,0.001998
1853000,0.0324,0.013523,0.002678,0.000431,0.001645
1854000,0.0324,0.013523,0.002678,0.000431,0.001763
1855000,0.0324,0.013523,0.002678,0.000431,0.001645
1856000,0.0324,0.013523,0.002678,0.000431,0.001763
1857000,0.0324,0.013523,0.002678,0.000431,0.001410
1858000,0.0324,0.013523,0.002678,0.000431,0.001880
1859000,0.0324,0.013523,0.002678,0.000431,0.001293
1860000,0.0324,0.013523,0.002678,0.000431,0.001998
1861000,0.0324,0.013523,0.002678,0.000431,0.001645
1862000,0.0324,0.013523,0.002678,0.000431,0.001763
1863000,0.0324,0.013523,0.002678,0.000431,0.001763
1864000,0.0324,0.013523,0.002678,0.000431,0.001528
1865000,0.0324,0.013523,0.002678,0.000431,0.001528
1866000,0.0324,0.013523,0.002678,0.000431,0.001763
1867000,0.0324,0.013523,0.002678,0.000431,0.001410
1868000,0.0324,0.013523,0.002678,0.000431,0.001645
1869000,0.0324,0.013523,0.002678,0.000431,0.001645
1870000,0.0324,0.013523,0.002678,0.000431,0.001763
1871000,0.0324,0.013523,0.002678,0.000431,0.001175
1872000,0.0324,0.013523,0.002678,0.000431,0.001645
1873000,0.0324,0.013523,0.002678,0.000431,0.001293
1874000,0.0324,0.013523,0.002678,0.000431,0.001763
1875000,0.0324,0.013523,0.002678,0.000431,0.001410
1876000,0.0324,0.013523,0.002678,0.000431,0.001880
1877000,0.0324,0.013523,0.002678,0.000431,0.001528
1878000,0.0324,0.013523,0.002678,0.000431,0.001645
1879000,0.0324,0.013523,0.002678,0.000431,0.001528
1880000,0.0324,0.013523,0.002678,0.000431,0.001645
1881000,0.0324,0.013523,0.002678,0.000431,0.001645
1882000,0.0324,0.013523,0.002678,0.000431,0.001645
1883000,0.0324,0.013523,0.002678,0.000431,0.001528
1884000,0.0324,0.013523,0.002678,0.000431,0.001998
1885000,0.0324,0.013523,0.002678,0.000431,0.001763
1886000,0.0324,0.013523,0.002678,0.000431,0.001763
1887000,0.0324,0.013523,0.002678,0.000431,0.001410
1888000,0.0324,0.013523,0.002678,0.000431,0.001645
1889000,0.0324,0.013523,0.002678,0.000431,0.001880
1890000,0.0324,0.013523,0.002678,0.000431,0.002116
1891000,0.0324,0.013523,0.002678,0.000431,0.001763
1892000,0.0324,0.013523,0.002678,0.000431,0.001763
1893000,0.0324,0.013523,0.002678,0.000431,0.001763
1894000,0.0324,0.013523,0.002678,0.000431,0.001528
1895000,0.0324,0.013523,0.002678,0.000431,0.001645
1896000,0.0324,0.013523,0.002678,0.000431,0.001880
1897000,0.0324,0.013523,0.002678,0.000431,0.001763
1898000,0.0324,0.013523,0.002678,0.000431,0.001410
1899000,0.0324,0.013523,0.002678,0.000431,0.001528
1900000,0.0324,0.013523,0.002678,0.000431,0.001880
1901000,0.0324,0.013523,0.002678,0.000431,0.001645
1902000,0.0324,0.013523,0.002678,0.000431,0.001175
1903000,0.0324,0.013523,0.002678,0.000431,0.001645
1904000,0.0324,0.013523,0.002678,0.000431,0.001763
1905000,0.0324,0.013523,0.002678,0.000431,0.001645
1906000,0.0324,0.013523,0.002678,0.000431,0.001528
1907000,0.0324,0.013523,0.002678,0.000431,0.001293
1908000,0.0324,0.013523,0.002678,0.000431,0.001410
1909000,0.0324,0.013523,0.002678,0.000431,0.001645
1910000,0.0324,0.013523,0.002678,0.000431,0.001410
1911000,0.0324,0.013523,0.002678,0.000431,0.001763
1912000,0.0324,0.013523,0.002678,0.000431,0.001293
1913000,0.0324,0.013523,0.002678,0.000431,0.001880
1914000,0.0324,0.013523,0.002678,0.000431,0.001763
1915000,0.0324,0.013523,0.002678,0.000431,0.001528
1916000,0.0324,0.013523,0.002678,0.000431,0.001528
1917000,0.0324,0.013523,0.002678,0.000431,0.001763
1918000,0.0324,0.013523,0.002678,0.000431,0.001880
1919000,0.0324,0.013523,0.002678,0.000431,0.001763
1920000,0.0324,0.013523,0.002678,0.000431,0.001763
1921000,0.0324,0.013523,0.002678,0.000431,0.001763
1922000,0.0324,0.013523,0.002678,0.000431,0.001645
1923000,0.0324,0.013523,0.002678,0.000431,0.001763
1924000,0.0324,0.013523,0.002678,0.000431,0.001410
1925000,0.0324,0.013523,0.002678,0.000431,0.001880
1926000,0.0324,0.013523,0.002678,0.000431,0.001645
1927000,0.0324,0.013523,0.002678,0.000431,0.001528
1928000,0.0324,0.013523,0.002678,0.000431,0.001528
1929000,0.0324,0.013523,0.002678,0.000431,0.001763
1930000,0.0324,0.013523,0.002678,0.000431,0.002116
1931000,0.0324,0.013523,0.002678,0.000431,0.001763
1932000,0.0324,0.013523,0.002678,0.000431,0.001763
1933000,0.0324,0.013523,0.002678,0.000431,0.001880
1934000,0.0324,0.013523,0.002678,0.000431,0.001880
1935000,0.0324,0.013523,0.002678,0.000431,0.001410
1936000,0.0324,0.013523,0.002678,0.000431,0.001763
1937000,0.0324,0.013523,0.002678,0.000431,0.001410
1938000,0.0324,0.013523,0.002678,0.000431,0.001998
1939000,0.0324,0.013523,0.002678,0.000431,0.001763
1940000,0.0324,0.013523,0.002678,0.000431,0.001998
1941000,0.0324,0.013523,0.002678,0.000431,0.001645
1942000,0.0324,0.013523,0.002678,0.000431,0.001528
1943000,0.0324,0.013523,0.002678,0.000431,0.001763
1944000,0.0324,0.013523,0.002678,0.000431,0.002116
1945000,0.0324,0.013523,0.002678,0.000431,0.001763
1946000,0.0324,0.013523,0.002678,0.000431,0.001293
1947000,0.0324,0.013523,0.002678,0.000431,0.001763
1948000,0.0324,0.013523,0.002678,0.000431,0.001880
1949000,0.0324,0.013523,0.002678,0.000431,0.001998
1950000,0.0324,0.013523,0.002678,0.000431,0.001880
1951000,0.0324,0.013523,0.002678,0.000431,0.001880
1952000,0.0324,0.013523,0.002678,0.000431,0.001998
1953000,0.0324,0.013523,0.002678,0.000431,0.001410
1954000,0.0324,0.013523,0.002678,0.000431,0.001880
1955000,0.0324,0.013523,0.002678,0.000431,0.001880
1956000,0.0324,0.013523,0.002678,0.000431,0.001998
1957000,0.0324,0.013523,0.002678,0.000431,0.001763
1958000,0.0324,0.013523,0.002678,0.000431,0.001645
1959000,0.0324,0.013523,0.002678,0.000431,0.001645
1960000,0.0324,0.013523,0.002678,0.000431,0.001645
1961000,0.0324,0.013523,0.002678,0.000431,0.001410
1962000,0.0324,0.013523,0.002678,0.000431,0.001763
1963000,0.0324,0.013523,0.002678,0.000431,0.001528
1964000,0.0324,0.013523,0.002678,0.000431,0.001528
1965000,0.0324,0.013523,0.002678,0.000431,0.001763
1966000,0.0324,0.013523,0.002678,0.000431,0.001763
1967000,0.0324,0.013523,0.002678,0.000431,0.001528
1968000,0.0324,0.013523,0.002678,0.000431,0.001763
1969000,0.0324,0.013523,0.002678,0.000431,0.001645
1970000,0.0324,0.013523,0.002678,0.000431,0.001763
1971000,0.0324,0.013523,0.002678,0.000431,0.001645
1972000,0.0324,0.013523,0.002678,0.000431,0.001645
1973000,0.0324,0.013523,0.002678,0.000431,0.002116
1974000,0.0324,0.013523,0.002678,0.000431,0.001410
1975000,0.0324,0.013523,0.002678,0.000431,0.001763
1976000,0.0324,0.013523,0.002678,0.000431,0.001763
1977000,0.0324,0.013523,0.002678,0.000431,0.001880
1978000,0.0324,0.013523,0.002678,0.000431,0.001528
1979000,0.0324,0.013523,0.002678,0.000431,0.001763
1980000,0.0324,0.013523,0.002678,0.000431,0.001645
1981000,0.0324,0.013523,0.002678,0.000431,0.001763
1982000,0.0324,0.013523,0.002678,0.000431,0.001528
1983000,0.0324,0.013523,0.002678,0.000431,0.001763
1984000,0.0324,0.013523,0.002678,0.000431,0.001645
1985000,0.0324,0.013523,0.002678,0.000431,0.001763
1986000,0.0324,0.013523,0.002678,0.000431,0.001645
1987000,0.0324,0.013523,0.002678,0.000431,0.001880
1988000,0.0324,0.013523,0.002678,0.000431,0.001410
1989000,0.0324,0.013523,0.002678,0.000431,0.001763
1990000,0.0324,0.013523,0.002678,0.000431,0.001763
1991000,0.0324,0.013523,0.002678,0.000431,0.001763
1992000,0.0324,0.013523,0.002678,0.000431,0.001998
1993000,0.0324,0.013523,0.002678,0.000431,0.001763
1994000,0.0324,0.013523,0.002678,0.000431,0.001763
1995000,0.0324,0.013523,0.002678,0.000431,0.001293
1996000,0.0324,0.013523,0.002678,0.000431,0.001528
1997000,0.0324,0.013523,0.002678,0.000431,0.001763
1998000,0.0324,0.013523,0.002678,0.000431,0.001293
1999000,0.0324,0.013523,0.002678,0.000431,0.001645
