Cycle,Area(mm^2),PeakDynamic(W),SubthresholdLeakage(W),GateLeakage(W),RunTimeDynamic(W)
1000000,0.0324,0.013523,0.002678,0.000431,0.000470
1001000,0.0324,0.013523,0.002678,0.000431,0.000470
1002000,0.0324,0.013523,0.002678,0.000431,0.000353
1003000,0.0324,0.013523,0.002678,0.000431,0.000588
1004000,0.0324,0.013523,0.002678,0.000431,0.000470
1005000,0.0324,0.013523,0.002678,0.000431,0.000470
1006000,0.0324,0.013523,0.002678,0.000431,0.000470
1007000,0.0324,0.013523,0.002678,0.000431,0.000470
1008000,0.0324,0.013523,0.002678,0.000431,0.000470
1009000,0.0324,0.013523,0.002678,0.000431,0.000588
1010000,0.0324,0.013523,0.002678,0.000431,0.000470
1011000,0.0324,0.013523,0.002678,0.000431,0.000588
1012000,0.0324,0.013523,0.002678,0.000431,0.000470
1013000,0.0324,0.013523,0.002678,0.000431,0.000353
1014000,0.0324,0.013523,0.002678,0.000431,0.000588
1015000,0.0324,0.013523,0.002678,0.000431,0.000588
1016000,0.0324,0.013523,0.002678,0.000431,0.000353
1017000,0.0324,0.013523,0.002678,0.000431,0.000588
1018000,0.0324,0.013523,0.002678,0.000431,0.000588
1019000,0.0324,0.013523,0.002678,0.000431,0.000470
1020000,0.0324,0.013523,0.002678,0.000431,0.000705
1021000,0.0324,0.013523,0.002678,0.000431,0.000470
1022000,0.0324,0.013523,0.002678,0.000431,0.000353
1023000,0.0324,0.013523,0.002678,0.000431,0.000588
1024000,0.0324,0.013523,0.002678,0.000431,0.000588
1025000,0.0324,0.013523,0.002678,0.000431,0.000588
1026000,0.0324,0.013523,0.002678,0.000431,0.000470
1027000,0.0324,0.013523,0.002678,0.000431,0.000470
1028000,0.0324,0.013523,0.002678,0.000431,0.000705
1029000,0.0324,0.013523,0.002678,0.000431,0.000470
1030000,0.0324,0.013523,0.002678,0.000431,0.000470
1031000,0.0324,0.013523,0.002678,0.000431,0.000353
1032000,0.0324,0.013523,0.002678,0.000431,0.000470
1033000,0.0324,0.013523,0.002678,0.000431,0.000588
1034000,0.0324,0.013523,0.002678,0.000431,0.000470
1035000,0.0324,0.013523,0.002678,0.000431,0.000353
1036000,0.0324,0.013523,0.002678,0.000431,0.000588
1037000,0.0324,0.013523,0.002678,0.000431,0.000353
1038000,0.0324,0.013523,0.002678,0.000431,0.000588
1039000,0.0324,0.013523,0.002678,0.000431,0.000353
1040000,0.0324,0.013523,0.002678,0.000431,0.000470
1041000,0.0324,0.013523,0.002678,0.000431,0.000470
1042000,0.0324,0.013523,0.002678,0.000431,0.000705
1043000,0.0324,0.013523,0.002678,0.000431,0.000470
1044000,0.0324,0.013523,0.002678,0.000431,0.000470
1045000,0.0324,0.013523,0.002678,0.000431,0.000588
1046000,0.0324,0.013523,0.002678,0.000431,0.000705
1047000,0.0324,0.013523,0.002678,0.000431,0.000470
1048000,0.0324,0.013523,0.002678,0.000431,0.000588
1049000,0.0324,0.013523,0.002678,0.000431,0.000588
1050000,0.0324,0.013523,0.002678,0.000431,0.000705
1051000,0.0324,0.013523,0.002678,0.000431,0.000470
1052000,0.0324,0.013523,0.002678,0.000431,0.000588
1053000,0.0324,0.013523,0.002678,0.000431,0.000588
1054000,0.0324,0.013523,0.002678,0.000431,0.000470
1055000,0.0324,0.013523,0.002678,0.000431,0.000588
1056000,0.0324,0.013523,0.002678,0.000431,0.000588
1057000,0.0324,0.013523,0.002678,0.000431,0.000470
1058000,0.0324,0.013523,0.002678,0.000431,0.000470
1059000,0.0324,0.013523,0.002678,0.000431,0.000470
1060000,0.0324,0.013523,0.002678,0.000431,0.000235
1061000,0.0324,0.013523,0.002678,0.000431,0.000588
1062000,0.0324,0.013523,0.002678,0.000431,0.000470
1063000,0.0324,0.013523,0.002678,0.000431,0.000588
1064000,0.0324,0.013523,0.002678,0.000431,0.000705
1065000,0.0324,0.013523,0.002678,0.000431,0.000588
1066000,0.0324,0.013523,0.002678,0.000431,0.000588
1067000,0.0324,0.013523,0.002678,0.000431,0.000353
1068000,0.0324,0.013523,0.002678,0.000431,0.000353
1069000,0.0324,0.013523,0.002678,0.000431,0.000588
1070000,0.0324,0.013523,0.002678,0.000431,0.000588
1071000,0.0324,0.013523,0.002678,0.000431,0.000470
1072000,0.0324,0.013523,0.002678,0.000431,0.000588
1073000,0.0324,0.013523,0.002678,0.000431,0.000470
1074000,0.0324,0.013523,0.002678,0.000431,0.000588
1075000,0.0324,0.013523,0.002678,0.000431,0.000823
1076000,0.0324,0.013523,0.002678,0.000431,0.000235
1077000,0.0324,0.013523,0.002678,0.000431,0.000588
1078000,0.0324,0.013523,0.002678,0.000431,0.000470
1079000,0.0324,0.013523,0.002678,0.000431,0.000588
1080000,0.0324,0.013523,0.002678,0.000431,0.000470
1081000,0.0324,0.013523,0.002678,0.000431,0.000470
1082000,0.0324,0.013523,0.002678,0.000431,0.000235
1083000,0.0324,0.013523,0.002678,0.000431,0.000353
1084000,0.0324,0.013523,0.002678,0.000431,0.000470
1085000,0.0324,0.013523,0.002678,0.000431,0.000705
1086000,0.0324,0.013523,0.002678,0.000431,0.000353
1087000,0.0324,0.013523,0.002678,0.000431,0.000470
1088000,0.0324,0.013523,0.002678,0.000431,0.000470
1089000,0.0324,0.013523,0.002678,0.000431,0.000470
1090000,0.0324,0.013523,0.002678,0.000431,0.000470
1091000,0.0324,0.013523,0.002678,0.000431,0.000235
1092000,0.0324,0.013523,0.002678,0.000431,0.000588
1093000,0.0324,0.013523,0.002678,0.000431,0.000470
1094000,0.0324,0.013523,0.002678,0.000431,0.000588
1095000,0.0324,0.013523,0.002678,0.000431,0.000705
1096000,0.0324,0.013523,0.002678,0.000431,0.000470
1097000,0.0324,0.013523,0.002678,0.000431,0.000470
1098000,0.0324,0.013523,0.002678,0.000431,0.000470
1099000,0.0324,0.013523,0.002678,0.000431,0.000235
1100000,0.0324,0.013523,0.002678,0.000431,0.000353
1101000,0.0324,0.013523,0.002678,0.000431,0.000588
1102000,0.0324,0.013523,0.002678,0.000431,0.000470
1103000,0.0324,0.013523,0.002678,0.000431,0.000470
1104000,0.0324,0.013523,0.002678,0.000431,0.000470
1105000,0.0324,0.013523,0.002678,0.000431,0.000470
1106000,0.0324,0.013523,0.002678,0.000431,0.000588
1107000,0.0324,0.013523,0.002678,0.000431,0.000588
1108000,0.0324,0.013523,0.002678,0.000431,0.000353
1109000,0.0324,0.013523,0.002678,0.000431,0.000470
1110000,0.0324,0.013523,0.002678,0.000431,0.000235
1111000,0.0324,0.013523,0.002678,0.000431,0.000588
1112000,0.0324,0.013523,0.002678,0.000431,0.000588
1113000,0.0324,0.013523,0.002678,0.000431,0.000470
1114000,0.0324,0.013523,0.002678,0.000431,0.000470
1115000,0.0324,0.013523,0.002678,0.000431,0.000588
1116000,0.0324,0.013523,0.002678,0.000431,0.000588
1117000,0.0324,0.013523,0.002678,0.000431,0.000705
1118000,0.0324,0.013523,0.002678,0.000431,0.000353
1119000,0.0324,0.013523,0.002678,0.000431,0.000588
1120000,0.0324,0.013523,0.002678,0.000431,0.000353
1121000,0.0324,0.013523,0.002678,0.000431,0.000118
1122000,0.0324,0.013523,0.002678,0.000431,0.000705
1123000,0.0324,0.013523,0.002678,0.000431,0.000588
1124000,0.0324,0.013523,0.002678,0.000431,0.000588
1125000,0.0324,0.013523,0.002678,0.000431,0.000588
1126000,0.0324,0.013523,0.002678,0.000431,0.000235
1127000,0.0324,0.013523,0.002678,0.000431,0.000235
1128000,0.0324,0.013523,0.002678,0.000431,0.000470
1129000,0.0324,0.013523,0.002678,0.000431,0.000470
1130000,0.0324,0.013523,0.002678,0.000431,0.000470
1131000,0.0324,0.013523,0.002678,0.000431,0.000353
1132000,0.0324,0.013523,0.002678,0.000431,0.000588
1133000,0.0324,0.013523,0.002678,0.000431,0.000470
1134000,0.0324,0.013523,0.002678,0.000431,0.000588
1135000,0.0324,0.013523,0.002678,0.000431,0.000470
1136000,0.0324,0.013523,0.002678,0.000431,0.000588
1137000,0.0324,0.013523,0.002678,0.000431,0.000470
1138000,0.0324,0.013523,0.002678,0.000431,0.000588
1139000,0.0324,0.013523,0.002678,0.000431,0.000588
1140000,0.0324,0.013523,0.002678,0.000431,0.000588
1141000,0.0324,0.013523,0.002678,0.000431,0.000588
1142000,0.0324,0.013523,0.002678,0.000431,0.000235
1143000,0.0324,0.013523,0.002678,0.000431,0.000588
1144000,0.0324,0.013523,0.002678,0.000431,0.000470
1145000,0.0324,0.013523,0.002678,0.000431,0.000470
1146000,0.0324,0.013523,0.002678,0.000431,0.000588
1147000,0.0324,0.013523,0.002678,0.000431,0.000470
1148000,0.0324,0.013523,0.002678,0.000431,0.000470
1149000,0.0324,0.013523,0.002678,0.000431,0.000588
1150000,0.0324,0.013523,0.002678,0.000431,0.000353
1151000,0.0324,0.013523,0.002678,0.000431,0.000705
1152000,0.0324,0.013523,0.002678,0.000431,0.000353
1153000,0.0324,0.013523,0.002678,0.000431,0.000470
1154000,0.0324,0.013523,0.002678,0.000431,0.000470
1155000,0.0324,0.013523,0.002678,0.000431,0.000470
1156000,0.0324,0.013523,0.002678,0.000431,0.000588
1157000,0.0324,0.013523,0.002678,0.000431,0.000470
1158000,0.0324,0.013523,0.002678,0.000431,0.000470
1159000,0.0324,0.013523,0.002678,0.000431,0.000588
1160000,0.0324,0.013523,0.002678,0.000431,0.000588
1161000,0.0324,0.013523,0.002678,0.000431,0.000353
1162000,0.0324,0.013523,0.002678,0.000431,0.000470
1163000,0.0324,0.013523,0.002678,0.000431,0.000470
1164000,0.0324,0.013523,0.002678,0.000431,0.000588
1165000,0.0324,0.013523,0.002678,0.000431,0.000588
1166000,0.0324,0.013523,0.002678,0.000431,0.000588
1167000,0.0324,0.013523,0.002678,0.000431,0.000588
1168000,0.0324,0.013523,0.002678,0.000431,0.000588
1169000,0.0324,0.013523,0.002678,0.000431,0.000588
1170000,0.0324,0.013523,0.002678,0.000431,0.000588
1171000,0.0324,0.013523,0.002678,0.000431,0.000470
1172000,0.0324,0.013523,0.002678,0.000431,0.000470
1173000,0.0324,0.013523,0.002678,0.000431,0.000705
1174000,0.0324,0.013523,0.002678,0.000431,0.000353
1175000,0.0324,0.013523,0.002678,0.000431,0.000705
1176000,0.0324,0.013523,0.002678,0.000431,0.000470
1177000,0.0324,0.013523,0.002678,0.000431,0.000353
1178000,0.0324,0.013523,0.002678,0.000431,0.000470
1179000,0.0324,0.013523,0.002678,0.000431,0.000705
1180000,0.0324,0.013523,0.002678,0.000431,0.000353
1181000,0.0324,0.013523,0.002678,0.000431,0.000353
1182000,0.0324,0.013523,0.002678,0.000431,0.000588
1183000,0.0324,0.013523,0.002678,0.000431,0.000470
1184000,0.0324,0.013523,0.002678,0.000431,0.000588
1185000,0.0324,0.013523,0.002678,0.000431,0.000353
1186000,0.0324,0.013523,0.002678,0.000431,0.000470
1187000,0.0324,0.013523,0.002678,0.000431,0.000705
1188000,0.0324,0.013523,0.002678,0.000431,0.000353
1189000,0.0324,0.013523,0.002678,0.000431,0.000588
1190000,0.0324,0.013523,0.002678,0.000431,0.000470
1191000,0.0324,0.013523,0.002678,0.000431,0.000470
1192000,0.0324,0.013523,0.002678,0.000431,0.000705
1193000,0.0324,0.013523,0.002678,0.000431,0.000470
1194000,0.0324,0.013523,0.002678,0.000431,0.000470
1195000,0.0324,0.013523,0.002678,0.000431,0.000588
1196000,0.0324,0.013523,0.002678,0.000431,0.000353
1197000,0.0324,0.013523,0.002678,0.000431,0.000588
1198000,0.0324,0.013523,0.002678,0.000431,0.000588
1199000,0.0324,0.013523,0.002678,0.000431,0.000470
1200000,0.0324,0.013523,0.002678,0.000431,0.000353
1201000,0.0324,0.013523,0.002678,0.000431,0.000000
1202000,0.0324,0.013523,0.002678,0.000431,0.000235
1203000,0.0324,0.013523,0.002678,0.000431,0.000118
1204000,0.0324,0.013523,0.002678,0.000431,0.000118
1205000,0.0324,0.013523,0.002678,0.000431,0.000235
1206000,0.0324,0.013523,0.002678,0.000431,0.000000
1207000,0.0324,0.013523,0.002678,0.000431,0.000235
1208000,0.0324,0.013523,0.002678,0.000431,0.000000
1209000,0.0324,0.013523,0.002678,0.000431,0.000353
1210000,0.0324,0.013523,0.002678,0.000431,0.000588
1211000,0.0324,0.013523,0.002678,0.000431,0.000588
1212000,0.0324,0.013523,0.002678,0.000431,0.000353
1213000,0.0324,0.013523,0.002678,0.000431,0.000470
1214000,0.0324,0.013523,0.002678,0.000431,0.000470
1215000,0.0324,0.013523,0.002678,0.000431,0.000353
1216000,0.0324,0.013523,0.002678,0.000431,0.000588
1217000,0.0324,0.013523,0.002678,0.000431,0.000588
1218000,0.0324,0.013523,0.002678,0.000431,0.000353
1219000,0.0324,0.013523,0.002678,0.000431,0.000588
1220000,0.0324,0.013523,0.002678,0.000431,0.000353
1221000,0.0324,0.013523,0.002678,0.000431,0.000588
1222000,0.0324,0.013523,0.002678,0.000431,0.000470
1223000,0.0324,0.013523,0.002678,0.000431,0.000470
1224000,0.0324,0.013523,0.002678,0.000431,0.000353
1225000,0.0324,0.013523,0.002678,0.000431,0.000000
1226000,0.0324,0.013523,0.002678,0.000431,0.000588
1227000,0.0324,0.013523,0.002678,0.000431,0.000353
1228000,0.0324,0.013523,0.002678,0.000431,0.000588
1229000,0.0324,0.013523,0.002678,0.000431,0.000588
1230000,0.0324,0.013523,0.002678,0.000431,0.000235
1231000,0.0324,0.013523,0.002678,0.000431,0.000588
1232000,0.0324,0.013523,0.002678,0.000431,0.000470
1233000,0.0324,0.013523,0.002678,0.000431,0.000588
1234000,0.0324,0.013523,0.002678,0.000431,0.000470
1235000,0.0324,0.013523,0.002678,0.000431,0.000235
1236000,0.0324,0.013523,0.002678,0.000431,0.000588
1237000,0.0324,0.013523,0.002678,0.000431,0.000588
1238000,0.0324,0.013523,0.002678,0.000431,0.000588
1239000,0.0324,0.013523,0.002678,0.000431,0.000470
1240000,0.0324,0.013523,0.002678,0.000431,0.000588
1241000,0.0324,0.013523,0.002678,0.000431,0.000470
1242000,0.0324,0.013523,0.002678,0.000431,0.000705
1243000,0.0324,0.013523,0.002678,0.000431,0.000353
1244000,0.0324,0.013523,0.002678,0.000431,0.000353
1245000,0.0324,0.013523,0.002678,0.000431,0.000470
1246000,0.0324,0.013523,0.002678,0.000431,0.000000
1247000,0.0324,0.013523,0.002678,0.000431,0.000000
1248000,0.0324,0.013523,0.002678,0.000431,0.000000
1249000,0.0324,0.013523,0.002678,0.000431,0.000000
1250000,0.0324,0.013523,0.002678,0.000431,0.336483
1251000,0.0324,0.013523,0.002678,0.000431,2.652494
1252000,0.0324,0.013523,0.002678,0.000431,1.065746
1253000,0.0324,0.013523,0.002678,0.000431,0.000000
1254000,0.0324,0.013523,0.002678,0.000431,0.000000
1255000,0.0324,0.013523,0.002678,0.000431,0.000000
1256000,0.0324,0.013523,0.002678,0.000431,0.000000
1257000,0.0324,0.013523,0.002678,0.000431,0.000000
1258000,0.0324,0.013523,0.002678,0.000431,2.652964
1259000,0.0324,0.013523,0.002678,0.000431,1.920763
1260000,0.0324,0.013523,0.002678,0.000431,1.358626
1261000,0.0324,0.013523,0.002678,0.000431,2.035588
1262000,0.0324,0.013523,0.002678,0.000431,2.212233
1263000,0.0324,0.013523,0.002678,0.000431,3.540772
1264000,0.0324,0.013523,0.002678,0.000431,3.948124
1265000,0.0324,0.013523,0.002678,0.000431,4.168842
1266000,0.0324,0.013523,0.002678,0.000431,4.165786
1267000,0.0324,0.013523,0.002678,0.000431,4.022049
1268000,0.0324,0.013523,0.002678,0.000431,4.016291
1269000,0.0324,0.013523,0.002678,0.000431,4.031687
1270000,0.0324,0.013523,0.002678,0.000431,4.057073
1271000,0.0324,0.013523,0.002678,0.000431,4.047436
1272000,0.0324,0.013523,0.002678,0.000431,4.034860
1273000,0.0324,0.013523,0.002678,0.000431,4.062362
1274000,0.0324,0.013523,0.002678,0.000431,4.014998
1275000,0.0324,0.013523,0.002678,0.000431,3.992197
1276000,0.0324,0.013523,0.002678,0.000431,4.057896
1277000,0.0324,0.013523,0.002678,0.000431,4.075290
1278000,0.0324,0.013523,0.002678,0.000431,4.078816
1279000,0.0324,0.013523,0.002678,0.000431,4.032627
1280000,0.0324,0.013523,0.002678,0.000431,4.060481
1281000,0.0324,0.013523,0.002678,0.000431,4.024753
1282000,0.0324,0.013523,0.002678,0.000431,4.090216
1283000,0.0324,0.013523,0.002678,0.000431,4.071411
1284000,0.0324,0.013523,0.002678,0.000431,4.059188
1285000,0.0324,0.013523,0.002678,0.000431,4.017701
1286000,0.0324,0.013523,0.002678,0.000431,4.056955
1287000,0.0324,0.013523,0.002678,0.000431,4.056485
1288000,0.0324,0.013523,0.002678,0.000431,4.068591
1289000,0.0324,0.013523,0.002678,0.000431,4.015585
1290000,0.0324,0.013523,0.002678,0.000431,4.051314
1291000,0.0324,0.013523,0.002678,0.000431,4.055780
1292000,0.0324,0.013523,0.002678,0.000431,4.028278
1293000,0.0324,0.013523,0.002678,0.000431,4.032509
1294000,0.0324,0.013523,0.002678,0.000431,4.058248
1295000,0.0324,0.013523,0.002678,0.000431,4.025340
1296000,0.0324,0.013523,0.002678,0.000431,4.079638
1297000,0.0324,0.013523,0.002678,0.000431,4.022167
1298000,0.0324,0.013523,0.002678,0.000431,4.016173
1299000,0.0324,0.013523,0.002678,0.000431,4.029924
1300000,0.0324,0.013523,0.002678,0.000431,4.051902
1301000,0.0324,0.013523,0.002678,0.000431,4.065535
1302000,0.0324,0.013523,0.002678,0.000431,4.076112
1303000,0.0324,0.013523,0.002678,0.000431,4.041559
1304000,0.0324,0.013523,0.002678,0.000431,4.075760
1305000,0.0324,0.013523,0.002678,0.000431,4.089746
1306000,0.0324,0.013523,0.002678,0.000431,4.051667
1307000,0.0324,0.013523,0.002678,0.000431,4.096915
1308000,0.0324,0.013523,0.002678,0.000431,4.030629
1309000,0.0324,0.013523,0.002678,0.000431,4.048376
1310000,0.0324,0.013523,0.002678,0.000431,4.023342
1311000,0.0324,0.013523,0.002678,0.000431,4.084339
1312000,0.0324,0.013523,0.002678,0.000431,4.014998
1313000,0.0324,0.013523,0.002678,0.000431,4.066240
1314000,0.0324,0.013523,0.002678,0.000431,4.037563
1315000,0.0324,0.013523,0.002678,0.000431,4.034037
1316000,0.0324,0.013523,0.002678,0.000431,3.997133
1317000,0.0324,0.013523,0.002678,0.000431,4.063654
1318000,0.0324,0.013523,0.002678,0.000431,4.070941
1319000,0.0324,0.013523,0.002678,0.000431,4.033802
1320000,0.0324,0.013523,0.002678,0.000431,4.087513
1321000,0.0324,0.013523,0.002678,0.000431,4.098560
1322000,0.0324,0.013523,0.002678,0.000431,4.083047
1323000,0.0324,0.013523,0.002678,0.000431,4.109843
1324000,0.0324,0.013523,0.002678,0.000431,4.064712
1325000,0.0324,0.013523,0.002678,0.000431,4.117012
1326000,0.0324,0.013523,0.002678,0.000431,4.066828
1327000,0.0324,0.013523,0.002678,0.000431,4.095505
1328000,0.0324,0.013523,0.002678,0.000431,4.097620
1329000,0.0324,0.013523,0.002678,0.000431,4.046495
1330000,0.0324,0.013523,0.002678,0.000431,4.049434
1331000,0.0324,0.013523,0.002678,0.000431,4.067885
1332000,0.0324,0.013523,0.002678,0.000431,4.052254
1333000,0.0324,0.013523,0.002678,0.000431,4.107022
1334000,0.0324,0.013523,0.002678,0.000431,4.041559
1335000,0.0324,0.013523,0.002678,0.000431,4.070354
1336000,0.0324,0.013523,0.002678,0.000431,4.055075
1337000,0.0324,0.013523,0.002678,0.000431,4.047553
1338000,0.0324,0.013523,0.002678,0.000431,4.048493
1339000,0.0324,0.013523,0.002678,0.000431,4.087865
1340000,0.0324,0.013523,0.002678,0.000431,4.027808
1341000,0.0324,0.013523,0.002678,0.000431,4.050726
1342000,0.0324,0.013523,0.002678,0.000431,4.096092
1343000,0.0324,0.013523,0.002678,0.000431,4.115602
1344000,0.0324,0.013523,0.002678,0.000431,4.025693
1345000,0.0324,0.013523,0.002678,0.000431,4.093036
1346000,0.0324,0.013523,0.002678,0.000431,4.106552
1347000,0.0324,0.013523,0.002678,0.000431,4.074585
1348000,0.0324,0.013523,0.002678,0.000431,4.059423
1349000,0.0324,0.013523,0.002678,0.000431,4.057543
1350000,0.0324,0.013523,0.002678,0.000431,4.029806
1351000,0.0324,0.013523,0.002678,0.000431,4.057425
1352000,0.0324,0.013523,0.002678,0.000431,4.044967
1353000,0.0324,0.013523,0.002678,0.000431,4.081049
1354000,0.0324,0.013523,0.002678,0.000431,4.066710
1355000,0.0324,0.013523,0.002678,0.000431,4.054370
1356000,0.0324,0.013523,0.002678,0.000431,4.085397
1357000,0.0324,0.013523,0.002678,0.000431,4.014645
1358000,0.0324,0.013523,0.002678,0.000431,4.059306
1359000,0.0324,0.013523,0.002678,0.000431,3.979387
1360000,0.0324,0.013523,0.002678,0.000431,4.094917
1361000,0.0324,0.013523,0.002678,0.000431,4.029689
1362000,0.0324,0.013523,0.002678,0.000431,3.961993
1363000,0.0324,0.013523,0.002678,0.000431,4.019346
1364000,0.0324,0.013523,0.002678,0.000431,3.963403
1365000,0.0324,0.013523,0.002678,0.000431,3.891946
1366000,0.0324,0.013523,0.002678,0.000431,3.867617
1367000,0.0324,0.013523,0.002678,0.000431,3.774183
1368000,0.0324,0.013523,0.002678,0.000431,3.735516
1369000,0.0324,0.013523,0.002678,0.000431,3.605295
1370000,0.0324,0.013523,0.002678,0.000431,3.375409
1371000,0.0324,0.013523,0.002678,0.000431,3.281034
1372000,0.0324,0.013523,0.002678,0.000431,3.203936
1373000,0.0324,0.013523,0.002678,0.000431,3.028701
1374000,0.0324,0.013523,0.002678,0.000431,2.954659
1375000,0.0324,0.013523,0.002678,0.000431,2.815388
1376000,0.0324,0.013523,0.002678,0.000431,2.771315
1377000,0.0324,0.013523,0.002678,0.000431,2.605835
1378000,0.0324,0.013523,0.002678,0.000431,2.525681
1379000,0.0324,0.013523,0.002678,0.000431,2.323650
1380000,0.0324,0.013523,0.002678,0.000431,2.306373
1381000,0.0324,0.013523,0.002678,0.000431,2.224456
1382000,0.0324,0.013523,0.002678,0.000431,2.179208
1383000,0.0324,0.013523,0.002678,0.000431,2.078603
1384000,0.0324,0.013523,0.002678,0.000431,2.012200
1385000,0.0324,0.013523,0.002678,0.000431,1.948617
1386000,0.0324,0.013523,0.002678,0.000431,1.872812
1387000,0.0324,0.013523,0.002678,0.000431,1.863057
1388000,0.0324,0.013523,0.002678,0.000431,1.761160
1389000,0.0324,0.013523,0.002678,0.000431,1.712033
1390000,0.0324,0.013523,0.002678,0.000431,1.661261
1391000,0.0324,0.013523,0.002678,0.000431,1.614720
1392000,0.0324,0.013523,0.002678,0.000431,1.545025
1393000,0.0324,0.013523,0.002678,0.000431,1.487319
1394000,0.0324,0.013523,0.002678,0.000431,1.471100
1395000,0.0324,0.013523,0.002678,0.000431,1.395647
1396000,0.0324,0.013523,0.002678,0.000431,1.383894
1397000,0.0324,0.013523,0.002678,0.000431,1.343700
1398000,0.0324,0.013523,0.002678,0.000431,1.276709
1399000,0.0324,0.013523,0.002678,0.000431,1.226054
1400000,0.0324,0.013523,0.002678,0.000431,1.202313
1401000,0.0324,0.013523,0.002678,0.000431,1.146252
1402000,0.0324,0.013523,0.002678,0.000431,1.119809
1403000,0.0324,0.013523,0.002678,0.000431,1.073385
1404000,0.0324,0.013523,0.002678,0.000431,1.023788
1405000,0.0324,0.013523,0.002678,0.000431,0.989117
1406000,0.0324,0.013523,0.002678,0.000431,0.952919
1407000,0.0324,0.013523,0.002678,0.000431,0.945514
1408000,0.0324,0.013523,0.002678,0.000431,0.875115
1409000,0.0324,0.013523,0.002678,0.000431,0.870414
1410000,0.0324,0.013523,0.002678,0.000431,0.826106
1411000,0.0324,0.013523,0.002678,0.000431,0.797899
1412000,0.0324,0.013523,0.002678,0.000431,0.768047
1413000,0.0324,0.013523,0.002678,0.000431,0.751123
1414000,0.0324,0.013523,0.002678,0.000431,0.719037
1415000,0.0324,0.013523,0.002678,0.000431,0.697177
1416000,0.0324,0.013523,0.002678,0.000431,0.665915
1417000,0.0324,0.013523,0.002678,0.000431,0.630186
1418000,0.0324,0.013523,0.002678,0.000431,0.611617
1419000,0.0324,0.013523,0.002678,0.000431,0.589874
1420000,0.0324,0.013523,0.002678,0.000431,0.567426
1421000,0.0324,0.013523,0.002678,0.000431,0.542393
1422000,0.0324,0.013523,0.002678,0.000431,0.529582
1423000,0.0324,0.013523,0.002678,0.000431,0.511013
1424000,0.0324,0.013523,0.002678,0.000431,0.490563
1425000,0.0324,0.013523,0.002678,0.000431,0.456950
1426000,0.0324,0.013523,0.002678,0.000431,0.442141
1427000,0.0324,0.013523,0.002678,0.000431,0.427685
1428000,0.0324,0.013523,0.002678,0.000431,0.421691
1429000,0.0324,0.013523,0.002678,0.000431,0.391134
1430000,0.0324,0.013523,0.002678,0.000431,0.383377
1431000,0.0324,0.013523,0.002678,0.000431,0.371742
1432000,0.0324,0.013523,0.002678,0.000431,0.356463
1433000,0.0324,0.013523,0.002678,0.000431,0.342125
1434000,0.0324,0.013523,0.002678,0.000431,0.330724
1435000,0.0324,0.013523,0.002678,0.000431,0.311332
1436000,0.0324,0.013523,0.002678,0.000431,0.306866
1437000,0.0324,0.013523,0.002678,0.000431,0.294643
1438000,0.0324,0.013523,0.002678,0.000431,0.282068
1439000,0.0324,0.013523,0.002678,0.000431,0.272665
1440000,0.0324,0.013523,0.002678,0.000431,0.259502
1441000,0.0324,0.013523,0.002678,0.000431,0.246692
1442000,0.0324,0.013523,0.002678,0.000431,0.237054
1443000,0.0324,0.013523,0.002678,0.000431,0.225537
1444000,0.0324,0.013523,0.002678,0.000431,0.216839
1445000,0.0324,0.013523,0.002678,0.000431,0.216252
1446000,0.0324,0.013523,0.002678,0.000431,0.202619
1447000,0.0324,0.013523,0.002678,0.000431,0.196977
1448000,0.0324,0.013523,0.002678,0.000431,0.188398
1449000,0.0324,0.013523,0.002678,0.000431,0.181228
1450000,0.0324,0.013523,0.002678,0.000431,0.174647
1451000,0.0324,0.013523,0.002678,0.000431,0.169828
1452000,0.0324,0.013523,0.002678,0.000431,0.163247
1453000,0.0324,0.013523,0.002678,0.000431,0.160073
1454000,0.0324,0.013523,0.002678,0.000431,0.153139
1455000,0.0324,0.013523,0.002678,0.000431,0.140094
1456000,0.0324,0.013523,0.002678,0.000431,0.138213
1457000,0.0324,0.013523,0.002678,0.000431,0.132454
1458000,0.0324,0.013523,0.002678,0.000431,0.130104
1459000,0.0324,0.013523,0.002678,0.000431,0.121994
1460000,0.0324,0.013523,0.002678,0.000431,0.117998
1461000,0.0324,0.013523,0.002678,0.000431,0.117058
1462000,0.0324,0.013523,0.002678,0.000431,0.113297
1463000,0.0324,0.013523,0.002678,0.000431,0.110594
1464000,0.0324,0.013523,0.002678,0.000431,0.100369
1465000,0.0324,0.013523,0.002678,0.000431,0.099429
1466000,0.0324,0.013523,0.002678,0.000431,0.095080
1467000,0.0324,0.013523,0.002678,0.000431,0.094845
1468000,0.0324,0.013523,0.002678,0.000431,0.095433
1469000,0.0324,0.013523,0.002678,0.000431,0.089792
1470000,0.0324,0.013523,0.002678,0.000431,0.081800
1471000,0.0324,0.013523,0.002678,0.000431,0.081682
1472000,0.0324,0.013523,0.002678,0.000431,0.080507
1473000,0.0324,0.013523,0.002678,0.000431,0.074748
1474000,0.0324,0.013523,0.002678,0.000431,0.072515
1475000,0.0324,0.013523,0.002678,0.000431,0.069459
1476000,0.0324,0.013523,0.002678,0.000431,0.065111
1477000,0.0324,0.013523,0.002678,0.000431,0.065698
1478000,0.0324,0.013523,0.002678,0.000431,0.064170
1479000,0.0324,0.013523,0.002678,0.000431,0.061232
1480000,0.0324,0.013523,0.002678,0.000431,0.062878
1481000,0.0324,0.013523,0.002678,0.000431,0.053240
1482000,0.0324,0.013523,0.002678,0.000431,0.053593
1483000,0.0324,0.013523,0.002678,0.000431,0.054180
1484000,0.0324,0.013523,0.002678,0.000431,0.053945
1485000,0.0324,0.013523,0.002678,0.000431,0.049127
1486000,0.0324,0.013523,0.002678,0.000431,0.047011
1487000,0.0324,0.013523,0.002678,0.000431,0.050537
1488000,0.0324,0.013523,0.002678,0.000431,0.045013
1489000,0.0324,0.013523,0.002678,0.000431,0.047834
1490000,0.0324,0.013523,0.002678,0.000431,0.042898
1491000,0.0324,0.013523,0.002678,0.000431,0.043485
1492000,0.0324,0.013523,0.002678,0.000431,0.039725
1493000,0.0324,0.013523,0.002678,0.000431,0.038667
1494000,0.0324,0.013523,0.002678,0.000431,0.039960
1495000,0.0324,0.013523,0.002678,0.000431,0.034788
1496000,0.0324,0.013523,0.002678,0.000431,0.033496
1497000,0.0324,0.013523,0.002678,0.000431,0.034788
1498000,0.0324,0.013523,0.002678,0.000431,0.034436
1499000,0.0324,0.013523,0.002678,0.000431,0.032790
1500000,0.0324,0.013523,0.002678,0.000431,0.031262
1501000,0.0324,0.013523,0.002678,0.000431,0.031380
1502000,0.0324,0.013523,0.002678,0.000431,0.031498
1503000,0.0324,0.013523,0.002678,0.000431,0.028324
1504000,0.0324,0.013523,0.002678,0.000431,0.028442
1505000,0.0324,0.013523,0.002678,0.000431,0.025386
1506000,0.0324,0.013523,0.002678,0.000431,0.029500
1507000,0.0324,0.013523,0.002678,0.000431,0.025269
1508000,0.0324,0.013523,0.002678,0.000431,0.026326
1509000,0.0324,0.013523,0.002678,0.000431,0.025269
1510000,0.0324,0.013523,0.002678,0.000431,0.025856
1511000,0.0324,0.013523,0.002678,0.000431,0.022683
1512000,0.0324,0.013523,0.002678,0.000431,0.024093
1513000,0.0324,0.013523,0.002678,0.000431,0.024093
1514000,0.0324,0.013523,0.002678,0.000431,0.023858
1515000,0.0324,0.013523,0.002678,0.000431,0.022918
1516000,0.0324,0.013523,0.002678,0.000431,0.023506
1517000,0.0324,0.013523,0.002678,0.000431,0.021743
1518000,0.0324,0.013523,0.002678,0.000431,0.021743
1519000,0.0324,0.013523,0.002678,0.000431,0.020685
1520000,0.0324,0.013523,0.002678,0.000431,0.021743
1521000,0.0324,0.013523,0.002678,0.000431,0.019745
1522000,0.0324,0.013523,0.002678,0.000431,0.018452
1523000,0.0324,0.013523,0.002678,0.000431,0.017159
1524000,0.0324,0.013523,0.002678,0.000431,0.017747
1525000,0.0324,0.013523,0.002678,0.000431,0.017512
1526000,0.0324,0.013523,0.002678,0.000431,0.015514
1527000,0.0324,0.013523,0.002678,0.000431,0.016571
1528000,0.0324,0.013523,0.002678,0.000431,0.015866
1529000,0.0324,0.013523,0.002678,0.000431,0.014926
1530000,0.0324,0.013523,0.002678,0.000431,0.013751
1531000,0.0324,0.013523,0.002678,0.000431,0.014221
1532000,0.0324,0.013523,0.002678,0.000431,0.014926
1533000,0.0324,0.013523,0.002678,0.000431,0.013163
1534000,0.0324,0.013523,0.002678,0.000431,0.013868
1535000,0.0324,0.013523,0.002678,0.000431,0.014456
1536000,0.0324,0.013523,0.002678,0.000431,0.012693
1537000,0.0324,0.013523,0.002678,0.000431,0.012811
1538000,0.0324,0.013523,0.002678,0.000431,0.014456
1539000,0.0324,0.013523,0.002678,0.000431,0.013633
1540000,0.0324,0.013523,0.002678,0.000431,0.013633
1541000,0.0324,0.013523,0.002678,0.000431,0.012458
1542000,0.0324,0.013523,0.002678,0.000431,0.011870
1543000,0.0324,0.013523,0.002678,0.000431,0.012223
1544000,0.0324,0.013523,0.002678,0.000431,0.011400
1545000,0.0324,0.013523,0.002678,0.000431,0.009872
1546000,0.0324,0.013523,0.002678,0.000431,0.012576
1547000,0.0324,0.013523,0.002678,0.000431,0.010460
1548000,0.0324,0.013523,0.002678,0.000431,0.010107
1549000,0.0324,0.013523,0.002678,0.000431,0.010930
1550000,0.0324,0.013523,0.002678,0.000431,0.009872
1551000,0.0324,0.013523,0.002678,0.000431,0.010342
1552000,0.0324,0.013523,0.002678,0.000431,0.010930
1553000,0.0324,0.013523,0.002678,0.000431,0.009520
1554000,0.0324,0.013523,0.002678,0.000431,0.009520
1555000,0.0324,0.013523,0.002678,0.000431,0.009990
1556000,0.0324,0.013523,0.002678,0.000431,0.009050
1557000,0.0324,0.013523,0.002678,0.000431,0.009285
1558000,0.0324,0.013523,0.002678,0.000431,0.009755
1559000,0.0324,0.013523,0.002678,0.000431,0.009990
1560000,0.0324,0.013523,0.002678,0.000431,0.010460
1561000,0.0324,0.013523,0.002678,0.000431,0.009167
1562000,0.0324,0.013523,0.002678,0.000431,0.009167
1563000,0.0324,0.013523,0.002678,0.000431,0.007874
1564000,0.0324,0.013523,0.002678,0.000431,0.009637
1565000,0.0324,0.013523,0.002678,0.000431,0.008697
1566000,0.0324,0.013523,0.002678,0.000431,0.008345
1567000,0.0324,0.013523,0.002678,0.000431,0.008227
1568000,0.0324,0.013523,0.002678,0.000431,0.007874
1569000,0.0324,0.013523,0.002678,0.000431,0.007639
1570000,0.0324,0.013523,0.002678,0.000431,0.008462
1571000,0.0324,0.013523,0.002678,0.000431,0.007992
1572000,0.0324,0.013523,0.002678,0.000431,0.007874
1573000,0.0324,0.013523,0.002678,0.000431,0.008227
1574000,0.0324,0.013523,0.002678,0.000431,0.008227
1575000,0.0324,0.013523,0.002678,0.000431,0.007522
1576000,0.0324,0.013523,0.002678,0.000431,0.007639
1577000,0.0324,0.013523,0.002678,0.000431,0.007639
1578000,0.0324,0.013523,0.002678,0.000431,0.006934
1579000,0.0324,0.013523,0.002678,0.000431,0.006582
1580000,0.0324,0.013523,0.002678,0.000431,0.007169
1581000,0.0324,0.013523,0.002678,0.000431,0.006817
1582000,0.0324,0.013523,0.002678,0.000431,0.007169
1583000,0.0324,0.013523,0.002678,0.000431,0.006111
1584000,0.0324,0.013523,0.002678,0.000431,0.006934
1585000,0.0324,0.013523,0.002678,0.000431,0.006582
1586000,0.0324,0.013523,0.002678,0.000431,0.005994
1587000,0.0324,0.013523,0.002678,0.000431,0.006817
1588000,0.0324,0.013523,0.002678,0.000431,0.006347
1589000,0.0324,0.013523,0.002678,0.000431,0.007169
1590000,0.0324,0.013523,0.002678,0.000431,0.006347
1591000,0.0324,0.013523,0.002678,0.000431,0.006347
1592000,0.0324,0.013523,0.002678,0.000431,0.006111
1593000,0.0324,0.013523,0.002678,0.000431,0.005876
1594000,0.0324,0.013523,0.002678,0.000431,0.006347
1595000,0.0324,0.013523,0.002678,0.000431,0.006347
1596000,0.0324,0.013523,0.002678,0.000431,0.006111
1597000,0.0324,0.013523,0.002678,0.000431,0.006347
1598000,0.0324,0.013523,0.002678,0.000431,0.006229
1599000,0.0324,0.013523,0.002678,0.000431,0.005641
1600000,0.0324,0.013523,0.002678,0.000431,0.006347
1601000,0.0324,0.013523,0.002678,0.000431,0.005289
1602000,0.0324,0.013523,0.002678,0.000431,0.005406
1603000,0.0324,0.013523,0.002678,0.000431,0.005876
1604000,0.0324,0.013523,0.002678,0.000431,0.006229
1605000,0.0324,0.013523,0.002678,0.000431,0.005171
1606000,0.0324,0.013523,0.002678,0.000431,0.005524
1607000,0.0324,0.013523,0.002678,0.000431,0.004936
1608000,0.0324,0.013523,0.002678,0.000431,0.004584
1609000,0.0324,0.013523,0.002678,0.000431,0.005054
1610000,0.0324,0.013523,0.002678,0.000431,0.004701
1611000,0.0324,0.013523,0.002678,0.000431,0.005171
1612000,0.0324,0.013523,0.002678,0.000431,0.005171
1613000,0.0324,0.013523,0.002678,0.000431,0.004819
1614000,0.0324,0.013523,0.002678,0.000431,0.004819
1615000,0.0324,0.013523,0.002678,0.000431,0.005171
1616000,0.0324,0.013523,0.002678,0.000431,0.003996
1617000,0.0324,0.013523,0.002678,0.000431,0.005289
1618000,0.0324,0.013523,0.002678,0.000431,0.005641
1619000,0.0324,0.013523,0.002678,0.000431,0.003996
1620000,0.0324,0.013523,0.002678,0.000431,0.004701
1621000,0.0324,0.013523,0.002678,0.000431,0.004113
1622000,0.0324,0.013523,0.002678,0.000431,0.005289
1623000,0.0324,0.013523,0.002678,0.000431,0.004113
1624000,0.0324,0.013523,0.002678,0.000431,0.004584
1625000,0.0324,0.013523,0.002678,0.000431,0.004819
1626000,0.0324,0.013523,0.002678,0.000431,0.004349
1627000,0.0324,0.013523,0.002678,0.000431,0.004466
1628000,0.0324,0.013523,0.002678,0.000431,0.004349
1629000,0.0324,0.013523,0.002678,0.000431,0.004349
1630000,0.0324,0.013523,0.002678,0.000431,0.004819
1631000,0.0324,0.013523,0.002678,0.000431,0.003996
1632000,0.0324,0.013523,0.002678,0.000431,0.004466
1633000,0.0324,0.013523,0.002678,0.000431,0.004113
1634000,0.0324,0.013523,0.002678,0.000431,0.004584
1635000,0.0324,0.013523,0.002678,0.000431,0.003878
1636000,0.0324,0.013523,0.002678,0.000431,0.003526
1637000,0.0324,0.013523,0.002678,0.000431,0.003526
1638000,0.0324,0.013523,0.002678,0.000431,0.003878
1639000,0.0324,0.013523,0.002678,0.000431,0.004349
1640000,0.0324,0.013523,0.002678,0.000431,0.003526
1641000,0.0324,0.013523,0.002678,0.000431,0.004231
1642000,0.0324,0.013523,0.002678,0.000431,0.003526
1643000,0.0324,0.013523,0.002678,0.000431,0.003996
1644000,0.0324,0.013523,0.002678,0.000431,0.003878
1645000,0.0324,0.013523,0.002678,0.000431,0.003878
1646000,0.0324,0.013523,0.002678,0.000431,0.003408
1647000,0.0324,0.013523,0.002678,0.000431,0.003643
1648000,0.0324,0.013523,0.002678,0.000431,0.003643
1649000,0.0324,0.013523,0.002678,0.000431,0.003878
1650000,0.0324,0.013523,0.002678,0.000431,0.003408
1651000,0.0324,0.013523,0.002678,0.000431,0.003173
1652000,0.0324,0.013523,0.002678,0.000431,0.003761
1653000,0.0324,0.013523,0.002678,0.000431,0.002821
1654000,0.0324,0.013523,0.002678,0.000431,0.003408
1655000,0.0324,0.013523,0.002678,0.000431,0.004231
1656000,0.0324,0.013523,0.002678,0.000431,0.003878
1657000,0.0324,0.013523,0.002678,0.000431,0.003408
1658000,0.0324,0.013523,0.002678,0.000431,0.003643
1659000,0.0324,0.013523,0.002678,0.000431,0.003056
1660000,0.0324,0.013523,0.002678,0.000431,0.003291
1661000,0.0324,0.013523,0.002678,0.000431,0.003996
1662000,0.0324,0.013523,0.002678,0.000431,0.003408
1663000,0.0324,0.013523,0.002678,0.000431,0.003761
1664000,0.0324,0.013523,0.002678,0.000431,0.003761
1665000,0.0324,0.013523,0.002678,0.000431,0.003878
1666000,0.0324,0.013523,0.002678,0.000431,0.003408
1667000,0.0324,0.013523,0.002678,0.000431,0.003643
1668000,0.0324,0.013523,0.002678,0.000431,0.003173
1669000,0.0324,0.013523,0.002678,0.000431,0.003408
1670000,0.0324,0.013523,0.002678,0.000431,0.003761
1671000,0.0324,0.013523,0.002678,0.000431,0.003526
1672000,0.0324,0.013523,0.002678,0.000431,0.003643
1673000,0.0324,0.013523,0.002678,0.000431,0.003526
1674000,0.0324,0.013523,0.002678,0.000431,0.003173
1675000,0.0324,0.013523,0.002678,0.000431,0.003408
1676000,0.0324,0.013523,0.002678,0.000431,0.003291
1677000,0.0324,0.013523,0.002678,0.000431,0.004231
1678000,0.0324,0.013523,0.002678,0.000431,0.003056
1679000,0.0324,0.013523,0.002678,0.000431,0.003761
1680000,0.0324,0.013523,0.002678,0.000431,0.003643
1681000,0.0324,0.013523,0.002678,0.000431,0.003526
1682000,0.0324,0.013523,0.002678,0.000431,0.003526
1683000,0.0324,0.013523,0.002678,0.000431,0.003643
1684000,0.0324,0.013523,0.002678,0.000431,0.003878
1685000,0.0324,0.013523,0.002678,0.000431,0.003291
1686000,0.0324,0.013523,0.002678,0.000431,0.003878
1687000,0.0324,0.013523,0.002678,0.000431,0.003291
1688000,0.0324,0.013523,0.002678,0.000431,0.003761
1689000,0.0324,0.013523,0.002678,0.000431,0.003996
1690000,0.0324,0.013523,0.002678,0.000431,0.003173
1691000,0.0324,0.013523,0.002678,0.000431,0.003291
1692000,0.0324,0.013523,0.002678,0.000431,0.002586
1693000,0.0324,0.013523,0.002678,0.000431,0.003408
1694000,0.0324,0.013523,0.002678,0.000431,0.002586
1695000,0.0324,0.013523,0.002678,0.000431,0.003761
1696000,0.0324,0.013523,0.002678,0.000431,0.003878
1697000,0.0324,0.013523,0.002678,0.000431,0.003408
1698000,0.0324,0.013523,0.002678,0.000431,0.003643
1699000,0.0324,0.013523,0.002678,0.000431,0.003291
1700000,0.0324,0.013523,0.002678,0.000431,0.002586
1701000,0.0324,0.013523,0.002678,0.000431,0.003408
1702000,0.0324,0.013523,0.002678,0.000431,0.002586
1703000,0.0324,0.013523,0.002678,0.000431,0.002938
1704000,0.0324,0.013523,0.002678,0.000431,0.002821
1705000,0.0324,0.013523,0.002678,0.000431,0.003408
1706000,0.0324,0.013523,0.002678,0.000431,0.003291
1707000,0.0324,0.013523,0.002678,0.000431,0.003291
1708000,0.0324,0.013523,0.002678,0.000431,0.003526
1709000,0.0324,0.013523,0.002678,0.000431,0.003173
1710000,0.0324,0.013523,0.002678,0.000431,0.002586
1711000,0.0324,0.013523,0.002678,0.000431,0.004113
1712000,0.0324,0.013523,0.002678,0.000431,0.002938
1713000,0.0324,0.013523,0.002678,0.000431,0.003173
1714000,0.0324,0.013523,0.002678,0.000431,0.003643
1715000,0.0324,0.013523,0.002678,0.000431,0.003408
1716000,0.0324,0.013523,0.002678,0.000431,0.002821
1717000,0.0324,0.013523,0.002678,0.000431,0.002586
1718000,0.0324,0.013523,0.002678,0.000431,0.003173
1719000,0.0324,0.013523,0.002678,0.000431,0.002821
1720000,0.0324,0.013523,0.002678,0.000431,0.003291
1721000,0.0324,0.013523,0.002678,0.000431,0.003056
1722000,0.0324,0.013523,0.002678,0.000431,0.002233
1723000,0.0324,0.013523,0.002678,0.000431,0.002116
1724000,0.0324,0.013523,0.002678,0.000431,0.002821
1725000,0.0324,0.013523,0.002678,0.000431,0.002233
1726000,0.0324,0.013523,0.002678,0.000431,0.002821
1727000,0.0324,0.013523,0.002678,0.000431,0.002468
1728000,0.0324,0.013523,0.002678,0.000431,0.002703
1729000,0.0324,0.013523,0.002678,0.000431,0.002938
1730000,0.0324,0.013523,0.002678,0.000431,0.002116
1731000,0.0324,0.013523,0.002678,0.000431,0.002468
1732000,0.0324,0.013523,0.002678,0.000431,0.002116
1733000,0.0324,0.013523,0.002678,0.000431,0.002468
1734000,0.0324,0.013523,0.002678,0.000431,0.001880
1735000,0.0324,0.013523,0.002678,0.000431,0.002351
1736000,0.0324,0.013523,0.002678,0.000431,0.001998
1737000,0.0324,0.013523,0.002678,0.000431,0.002938
1738000,0.0324,0.013523,0.002678,0.000431,0.002233
1739000,0.0324,0.013523,0.002678,0.000431,0.002938
1740000,0.0324,0.013523,0.002678,0.000431,0.002703
1741000,0.0324,0.013523,0.002678,0.000431,0.002351
1742000,0.0324,0.013523,0.002678,0.000431,0.002586
1743000,0.0324,0.013523,0.002678,0.000431,0.002116
1744000,0.0324,0.013523,0.002678,0.000431,0.002703
1745000,0.0324,0.013523,0.002678,0.000431,0.002821
1746000,0.0324,0.013523,0.002678,0.000431,0.002586
1747000,0.0324,0.013523,0.002678,0.000431,0.002233
1748000,0.0324,0.013523,0.002678,0.000431,0.002586
1749000,0.0324,0.013523,0.002678,0.000431,0.002351
1750000,0.0324,0.013523,0.002678,0.000431,0.002586
1751000,0.0324,0.013523,0.002678,0.000431,0.002703
1752000,0.0324,0.013523,0.002678,0.000431,0.002586
1753000,0.0324,0.013523,0.002678,0.000431,0.001763
1754000,0.0324,0.013523,0.002678,0.000431,0.001998
1755000,0.0324,0.013523,0.002678,0.000431,0.002821
1756000,0.0324,0.013523,0.002678,0.000431,0.002233
1757000,0.0324,0.013523,0.002678,0.000431,0.002938
1758000,0.0324,0.013523,0.002678,0.000431,0.002116
1759000,0.0324,0.013523,0.002678,0.000431,0.002351
1760000,0.0324,0.013523,0.002678,0.000431,0.002351
1761000,0.0324,0.013523,0.002678,0.000431,0.002351
1762000,0.0324,0.013523,0.002678,0.000431,0.002468
1763000,0.0324,0.013523,0.002678,0.000431,0.002233
1764000,0.0324,0.013523,0.002678,0.000431,0.002586
1765000,0.0324,0.013523,0.002678,0.000431,0.002351
1766000,0.0324,0.013523,0.002678,0.000431,0.002233
1767000,0.0324,0.013523,0.002678,0.000431,0.002351
1768000,0.0324,0.013523,0.002678,0.000431,0.002233
1769000,0.0324,0.013523,0.002678,0.000431,0.002116
1770000,0.0324,0.013523,0.002678,0.000431,0.002821
1771000,0.0324,0.013523,0.002678,0.000431,0.001880
1772000,0.0324,0.013523,0.002678,0.000431,0.001998
1773000,0.0324,0.013523,0.002678,0.000431,0.001998
1774000,0.0324,0.013523,0.002678,0.000431,0.002233
1775000,0.0324,0.013523,0.002678,0.000431,0.002116
1776000,0.0324,0.013523,0.002678,0.000431,0.002468
1777000,0.0324,0.013523,0.002678,0.000431,0.001998
1778000,0.0324,0.013523,0.002678,0.000431,0.001998
1779000,0.0324,0.013523,0.002678,0.000431,0.002116
1780000,0.0324,0.013523,0.002678,0.000431,0.002351
1781000,0.0324,0.013523,0.002678,0.000431,0.002468
1782000,0.0324,0.013523,0.002678,0.000431,0.001763
1783000,0.0324,0.013523,0.002678,0.000431,0.002116
1784000,0.0324,0.013523,0.002678,0.000431,0.001998
1785000,0.0324,0.013523,0.002678,0.000431,0.002468
1786000,0.0324,0.013523,0.002678,0.000431,0.001998
1787000,0.0324,0.013523,0.002678,0.000431,0.002116
1788000,0.0324,0.013523,0.002678,0.000431,0.002233
1789000,0.0324,0.013523,0.002678,0.000431,0.002116
1790000,0.0324,0.013523,0.002678,0.000431,0.002586
1791000,0.0324,0.013523,0.002678,0.000431,0.002233
1792000,0.0324,0.013523,0.002678,0.000431,0.002116
1793000,0.0324,0.013523,0.002678,0.000431,0.002233
1794000,0.0324,0.013523,0.002678,0.000431,0.001645
1795000,0.0324,0.013523,0.002678,0.000431,0.001763
1796000,0.0324,0.013523,0.002678,0.000431,0.001645
1797000,0.0324,0.013523,0.002678,0.000431,0.001763
1798000,0.0324,0.013523,0.002678,0.000431,0.001763
1799000,0.0324,0.013523,0.002678,0.000431,0.001998
1800000,0.0324,0.013523,0.002678,0.000431,0.001880
1801000,0.0324,0.013523,0.002678,0.000431,0.001763
1802000,0.0324,0.013523,0.002678,0.000431,0.001410
1803000,0.0324,0.013523,0.002678,0.000431,0.001763
1804000,0.0324,0.013523,0.002678,0.000431,0.001410
1805000,0.0324,0.013523,0.002678,0.000431,0.001998
1806000,0.0324,0.013523,0.002678,0.000431,0.001528
1807000,0.0324,0.013523,0.002678,0.000431,0.001763
1808000,0.0324,0.013523,0.002678,0.000431,0.001645
1809000,0.0324,0.013523,0.002678,0.000431,0.001645
1810000,0.0324,0.013523,0.002678,0.000431,0.001645
1811000,0.0324,0.013523,0.002678,0.000431,0.001645
1812000,0.0324,0.013523,0.002678,0.000431,0.001763
1813000,0.0324,0.013523,0.002678,0.000431,0.001645
1814000,0.0324,0.013523,0.002678,0.000431,0.001528
1815000,0.0324,0.013523,0.002678,0.000431,0.001880
1816000,0.0324,0.013523,0.002678,0.000431,0.001880
1817000,0.0324,0.013523,0.002678,0.000431,0.001528
1818000,0.0324,0.013523,0.002678,0.000431,0.001880
1819000,0.0324,0.013523,0.002678,0.000431,0.001293
1820000,0.0324,0.013523,0.002678,0.000431,0.001645
1821000,0.0324,0.013523,0.002678,0.000431,0.001998
1822000,0.0324,0.013523,0.002678,0.000431,0.001880
1823000,0.0324,0.013523,0.002678,0.000431,0.001763
1824000,0.0324,0.013523,0.002678,0.000431,0.001645
1825000,0.0324,0.013523,0.002678,0.000431,0.001528
1826000,0.0324,0.013523,0.002678,0.000431,0.001528
1827000,0.0324,0.013523,0.002678,0.000431,0.001763
1828000,0.0324,0.013523,0.002678,0.000431,0.001528
1829000,0.0324,0.013523,0.002678,0.000431,0.001880
1830000,0.0324,0.013523,0.002678,0.000431,0.001645
1831000,0.0324,0.013523,0.002678,0.000431,0.001645
1832000,0.0324,0.013523,0.002678,0.000431,0.001880
1833000,0.0324,0.013523,0.002678,0.000431,0.001528
1834000,0.0324,0.013523,0.002678,0.000431,0.001880
1835000,0.0324,0.013523,0.002678,0.000431,0.001645
1836000,0.0324,0.013523,0.002678,0.000431,0.001410
1837000,0.0324,0.013523,0.002678,0.000431,0.001880
1838000,0.0324,0.013523,0.002678,0.000431,0.001880
1839000,0.0324,0.013523,0.002678,0.000431,0.001763
1840000,0.0324,0.013523,0.002678,0.000431,0.001763
1841000,0.0324,0.013523,0.002678,0.000431,0.001645
1842000,0.0324,0.013523,0.002678,0.000431,0.001880
1843000,0.0324,0.013523,0.002678,0.000431,0.001528
1844000,0.0324,0.013523,0.002678,0.000431,0.001645
1845000,0.0324,0.013523,0.002678,0.000431,0.001645
1846000,0.0324,0.013523,0.002678,0.000431,0.001645
1847000,0.0324,0.013523,0.002678,0.000431,0.001880
1848000,0.0324,0.013523,0.002678,0.000431,0.001645
1849000,0.0324,0.013523,0.002678,0.000431,0.001880
1850000,0.0324,0.013523,0.002678,0.000431,0.001763
1851000,0.0324,0.013523,0.002678,0.000431,0.001528
1852000,0.0324,0.013523,0.002678,0.000431,0.001528
1853000,0.0324,0.013523,0.002678,0.000431,0.001645
1854000,0.0324,0.013523,0.002678,0.000431,0.001410
1855000,0.0324,0.013523,0.002678,0.000431,0.001645
1856000,0.0324,0.013523,0.002678,0.000431,0.001645
1857000,0.0324,0.013523,0.002678,0.000431,0.001645
1858000,0.0324,0.013523,0.002678,0.000431,0.001763
1859000,0.0324,0.013523,0.002678,0.000431,0.001880
1860000,0.0324,0.013523,0.002678,0.000431,0.001528
1861000,0.0324,0.013523,0.002678,0.000431,0.001763
1862000,0.0324,0.013523,0.002678,0.000431,0.001410
1863000,0.0324,0.013523,0.002678,0.000431,0.001998
1864000,0.0324,0.013523,0.002678,0.000431,0.001528
1865000,0.0324,0.013523,0.002678,0.000431,0.001645
1866000,0.0324,0.013523,0.002678,0.000431,0.001763
1867000,0.0324,0.013523,0.002678,0.000431,0.001528
1868000,0.0324,0.013523,0.002678,0.000431,0.001645
1869000,0.0324,0.013523,0.002678,0.000431,0.001528
1870000,0.0324,0.013523,0.002678,0.000431,0.001645
1871000,0.0324,0.013523,0.002678,0.000431,0.001410
1872000,0.0324,0.013523,0.002678,0.000431,0.001175
1873000,0.0324,0.013523,0.002678,0.000431,0.001763
1874000,0.0324,0.013523,0.002678,0.000431,0.001410
1875000,0.0324,0.013523,0.002678,0.000431,0.001763
1876000,0.0324,0.013523,0.002678,0.000431,0.001880
1877000,0.0324,0.013523,0.002678,0.000431,0.001293
1878000,0.0324,0.013523,0.002678,0.000431,0.001880
1879000,0.0324,0.013523,0.002678,0.000431,0.001763
1880000,0.0324,0.013523,0.002678,0.000431,0.001410
1881000,0.0324,0.013523,0.002678,0.000431,0.001763
1882000,0.0324,0.013523,0.002678,0.000431,0.001175
1883000,0.0324,0.013523,0.002678,0.000431,0.001175
1884000,0.0324,0.013523,0.002678,0.000431,0.001880
1885000,0.0324,0.013523,0.002678,0.000431,0.001528
1886000,0.0324,0.013523,0.002678,0.000431,0.001645
1887000,0.0324,0.013523,0.002678,0.000431,0.001528
1888000,0.0324,0.013523,0.002678,0.000431,0.001880
1889000,0.0324,0.013523,0.002678,0.000431,0.001645
1890000,0.0324,0.013523,0.002678,0.000431,0.001645
1891000,0.0324,0.013523,0.002678,0.000431,0.001410
1892000,0.0324,0.013523,0.002678,0.000431,0.001998
1893000,0.0324,0.013523,0.002678,0.000431,0.001293
1894000,0.0324,0.013523,0.002678,0.000431,0.001645
1895000,0.0324,0.013523,0.002678,0.000431,0.001645
1896000,0.0324,0.013523,0.002678,0.000431,0.001880
1897000,0.0324,0.013523,0.002678,0.000431,0.001528
1898000,0.0324,0.013523,0.002678,0.000431,0.001998
1899000,0.0324,0.013523,0.002678,0.000431,0.001175
1900000,0.0324,0.013523,0.002678,0.000431,0.001880
1901000,0.0324,0.013523,0.002678,0.000431,0.001645
1902000,0.0324,0.013523,0.002678,0.000431,0.001763
1903000,0.0324,0.013523,0.002678,0.000431,0.001998
1904000,0.0324,0.013523,0.002678,0.000431,0.001645
1905000,0.0324,0.013523,0.002678,0.000431,0.001528
1906000,0.0324,0.013523,0.002678,0.000431,0.001998
1907000,0.0324,0.013523,0.002678,0.000431,0.001645
1908000,0.0324,0.013523,0.002678,0.000431,0.001763
1909000,0.0324,0.013523,0.002678,0.000431,0.001528
1910000,0.0324,0.013523,0.002678,0.000431,0.001645
1911000,0.0324,0.013523,0.002678,0.000431,0.001528
1912000,0.0324,0.013523,0.002678,0.000431,0.001528
1913000,0.0324,0.013523,0.002678,0.000431,0.001528
1914000,0.0324,0.013523,0.002678,0.000431,0.001410
1915000,0.0324,0.013523,0.002678,0.000431,0.001058
1916000,0.0324,0.013523,0.002678,0.000431,0.001293
1917000,0.0324,0.013523,0.002678,0.000431,0.001880
1918000,0.0324,0.013523,0.002678,0.000431,0.001528
1919000,0.0324,0.013523,0.002678,0.000431,0.001645
1920000,0.0324,0.013523,0.002678,0.000431,0.001645
1921000,0.0324,0.013523,0.002678,0.000431,0.001645
1922000,0.0324,0.013523,0.002678,0.000431,0.001528
1923000,0.0324,0.013523,0.002678,0.000431,0.001763
1924000,0.0324,0.013523,0.002678,0.000431,0.001645
1925000,0.0324,0.013523,0.002678,0.000431,0.001410
1926000,0.0324,0.013523,0.002678,0.000431,0.001880
1927000,0.0324,0.013523,0.002678,0.000431,0.001528
1928000,0.0324,0.013523,0.002678,0.000431,0.001645
1929000,0.0324,0.013523,0.002678,0.000431,0.001528
1930000,0.0324,0.013523,0.002678,0.000431,0.001645
1931000,0.0324,0.013523,0.002678,0.000431,0.001528
1932000,0.0324,0.013523,0.002678,0.000431,0.001880
1933000,0.0324,0.013523,0.002678,0.000431,0.001763
1934000,0.0324,0.013523,0.002678,0.000431,0.001763
1935000,0.0324,0.013523,0.002678,0.000431,0.001528
1936000,0.0324,0.013523,0.002678,0.000431,0.001880
1937000,0.0324,0.013523,0.002678,0.000431,0.001293
1938000,0.0324,0.013523,0.002678,0.000431,0.001645
1939000,0.0324,0.013523,0.002678,0.000431,0.001763
1940000,0.0324,0.013523,0.002678,0.000431,0.001645
1941000,0.0324,0.013523,0.002678,0.000431,0.001763
1942000,0.0324,0.013523,0.002678,0.000431,0.001528
1943000,0.0324,0.013523,0.002678,0.000431,0.001763
1944000,0.0324,0.013523,0.002678,0.000431,0.001763
1945000,0.0324,0.013523,0.002678,0.000431,0.001998
1946000,0.0324,0.013523,0.002678,0.000431,0.001998
1947000,0.0324,0.013523,0.002678,0.000431,0.001645
1948000,0.0324,0.013523,0.002678,0.000431,0.001528
1949000,0.0324,0.013523,0.002678,0.000431,0.001763
1950000,0.0324,0.013523,0.002678,0.000431,0.001528
1951000,0.0324,0.013523,0.002678,0.000431,0.001645
1952000,0.0324,0.013523,0.002678,0.000431,0.001175
1953000,0.0324,0.013523,0.002678,0.000431,0.001763
1954000,0.0324,0.013523,0.002678,0.000431,0.002116
1955000,0.0324,0.013523,0.002678,0.000431,0.001645
1956000,0.0324,0.013523,0.002678,0.000431,0.001175
1957000,0.0324,0.013523,0.002678,0.000431,0.002233
1958000,0.0324,0.013523,0.002678,0.000431,0.001528
1959000,0.0324,0.013523,0.002678,0.000431,0.001645
1960000,0.0324,0.013523,0.002678,0.000431,0.001645
1961000,0.0324,0.013523,0.002678,0.000431,0.001763
1962000,0.0324,0.013523,0.002678,0.000431,0.001880
1963000,0.0324,0.013523,0.002678,0.000431,0.001293
1964000,0.0324,0.013523,0.002678,0.000431,0.001880
1965000,0.0324,0.013523,0.002678,0.000431,0.001645
1966000,0.0324,0.013523,0.002678,0.000431,0.001998
1967000,0.0324,0.013523,0.002678,0.000431,0.001763
1968000,0.0324,0.013523,0.002678,0.000431,0.001880
1969000,0.0324,0.013523,0.002678,0.000431,0.001528
1970000,0.0324,0.013523,0.002678,0.000431,0.001763
1971000,0.0324,0.013523,0.002678,0.000431,0.001645
1972000,0.0324,0.013523,0.002678,0.000431,0.001293
1973000,0.0324,0.013523,0.002678,0.000431,0.001528
1974000,0.0324,0.013523,0.002678,0.000431,0.001645
1975000,0.0324,0.013523,0.002678,0.000431,0.001528
1976000,0.0324,0.013523,0.002678,0.000431,0.001410
1977000,0.0324,0.013523,0.002678,0.000431,0.001880
1978000,0.0324,0.013523,0.002678,0.000431,0.001645
1979000,0.0324,0.013523,0.002678,0.000431,0.001410
1980000,0.0324,0.013523,0.002678,0.000431,0.001880
1981000,0.0324,0.013523,0.002678,0.000431,0.001645
1982000,0.0324,0.013523,0.002678,0.000431,0.001998
1983000,0.0324,0.013523,0.002678,0.000431,0.001880
1984000,0.0324,0.013523,0.002678,0.000431,0.001410
1985000,0.0324,0.013523,0.002678,0.000431,0.001645
1986000,0.0324,0.013523,0.002678,0.000431,0.001645
1987000,0.0324,0.013523,0.002678,0.000431,0.001763
1988000,0.0324,0.013523,0.002678,0.000431,0.001645
1989000,0.0324,0.013523,0.002678,0.000431,0.001763
1990000,0.0324,0.013523,0.002678,0.000431,0.001645
1991000,0.0324,0.013523,0.002678,0.000431,0.001528
1992000,0.0324,0.013523,0.002678,0.000431,0.001645
1993000,0.0324,0.013523,0.002678,0.000431,0.001645
1994000,0.0324,0.013523,0.002678,0.000431,0.001410
1995000,0.0324,0.013523,0.002678,0.000431,0.001645
1996000,0.0324,0.013523,0.002678,0.000431,0.001998
1997000,0.0324,0.013523,0.002678,0.000431,0.001998
1998000,0.0324,0.013523,0.002678,0.000431,0.001528
1999000,0.0324,0.013523,0.002678,0.000431,0.001880
