Cycle,Area(mm^2),PeakDynamic(W),SubthresholdLeakage(W),GateLeakage(W),RunTimeDynamic(W)
1000,0.0324,0.013523,0.002678,0.000431,0.000000
2000,0.0324,0.013523,0.002678,0.000431,0.000000
3000,0.0324,0.013523,0.002678,0.000431,0.000000
4000,0.0324,0.013523,0.002678,0.000431,0.000000
5000,0.0324,0.013523,0.002678,0.000431,0.000000
6000,0.0324,0.013523,0.002678,0.000431,1.457232
7000,0.0324,0.013523,0.002678,0.000431,2.146300
8000,0.0324,0.013523,0.002678,0.000431,1.684179
9000,0.0324,0.013523,0.002678,0.000431,2.231625
10000,0.0324,0.013523,0.002678,0.000431,3.038691
11000,0.0324,0.013523,0.002678,0.000431,2.925629
12000,0.0324,0.013523,0.002678,0.000431,4.200222
13000,0.0324,0.013523,0.002678,0.000431,3.981502
14000,0.0324,0.013523,0.002678,0.000431,3.957997
15000,0.0324,0.013523,0.002678,0.000431,3.873964
16000,0.0324,0.013523,0.002678,0.000431,3.976213
17000,0.0324,0.013523,0.002678,0.000431,4.051667
18000,0.0324,0.013523,0.002678,0.000431,4.008064
19000,0.0324,0.013523,0.002678,0.000431,4.061539
20000,0.0324,0.013523,0.002678,0.000431,4.081049
21000,0.0324,0.013523,0.002678,0.000431,4.050139
22000,0.0324,0.013523,0.002678,0.000431,4.058013
23000,0.0324,0.013523,0.002678,0.000431,3.994195
24000,0.0324,0.013523,0.002678,0.000431,4.063419
25000,0.0324,0.013523,0.002678,0.000431,4.043557
26000,0.0324,0.013523,0.002678,0.000431,4.054017
27000,0.0324,0.013523,0.002678,0.000431,4.032392
28000,0.0324,0.013523,0.002678,0.000431,4.076700
29000,0.0324,0.013523,0.002678,0.000431,4.012647
30000,0.0324,0.013523,0.002678,0.000431,4.031217
31000,0.0324,0.013523,0.002678,0.000431,4.002422
32000,0.0324,0.013523,0.002678,0.000431,4.077405
33000,0.0324,0.013523,0.002678,0.000431,4.022872
34000,0.0324,0.013523,0.002678,0.000431,4.013587
35000,0.0324,0.013523,0.002678,0.000431,4.011707
36000,0.0324,0.013523,0.002678,0.000431,4.077405
37000,0.0324,0.013523,0.002678,0.000431,4.040501
38000,0.0324,0.013523,0.002678,0.000431,4.046848
39000,0.0324,0.013523,0.002678,0.000431,4.048611
40000,0.0324,0.013523,0.002678,0.000431,4.094447
41000,0.0324,0.013523,0.002678,0.000431,4.072939
42000,0.0324,0.013523,0.002678,0.000431,4.103614
43000,0.0324,0.013523,0.002678,0.000431,4.043792
44000,0.0324,0.013523,0.002678,0.000431,4.051902
45000,0.0324,0.013523,0.002678,0.000431,4.056250
46000,0.0324,0.013523,0.002678,0.000431,4.094799
47000,0.0324,0.013523,0.002678,0.000431,4.124064
48000,0.0324,0.013523,0.002678,0.000431,4.081871
49000,0.0324,0.013523,0.002678,0.000431,4.126532
50000,0.0324,0.013523,0.002678,0.000431,4.055427
51000,0.0324,0.013523,0.002678,0.000431,4.129705
52000,0.0324,0.013523,0.002678,0.000431,4.085632
53000,0.0324,0.013523,0.002678,0.000431,4.080343
54000,0.0324,0.013523,0.002678,0.000431,4.074702
55000,0.0324,0.013523,0.002678,0.000431,4.071411
56000,0.0324,0.013523,0.002678,0.000431,4.063184
57000,0.0324,0.013523,0.002678,0.000431,4.081754
58000,0.0324,0.013523,0.002678,0.000431,4.067063
59000,0.0324,0.013523,0.002678,0.000431,4.039679
60000,0.0324,0.013523,0.002678,0.000431,4.104907
61000,0.0324,0.013523,0.002678,0.000431,4.063419
62000,0.0324,0.013523,0.002678,0.000431,4.028749
63000,0.0324,0.013523,0.002678,0.000431,4.117130
64000,0.0324,0.013523,0.002678,0.000431,4.063184
65000,0.0324,0.013523,0.002678,0.000431,4.038974
66000,0.0324,0.013523,0.002678,0.000431,4.073057
67000,0.0324,0.013523,0.002678,0.000431,4.092801
68000,0.0324,0.013523,0.002678,0.000431,4.038856
69000,0.0324,0.013523,0.002678,0.000431,4.119715
70000,0.0324,0.013523,0.002678,0.000431,4.053194
71000,0.0324,0.013523,0.002678,0.000431,4.094799
72000,0.0324,0.013523,0.002678,0.000431,4.052372
73000,0.0324,0.013523,0.002678,0.000431,4.028278
74000,0.0324,0.013523,0.002678,0.000431,4.016291
75000,0.0324,0.013523,0.002678,0.000431,4.046260
76000,0.0324,0.013523,0.002678,0.000431,4.079051
77000,0.0324,0.013523,0.002678,0.000431,4.046965
78000,0.0324,0.013523,0.002678,0.000431,4.054840
79000,0.0324,0.013523,0.002678,0.000431,4.029571
80000,0.0324,0.013523,0.002678,0.000431,3.975978
81000,0.0324,0.013523,0.002678,0.000431,3.930848
82000,0.0324,0.013523,0.002678,0.000431,3.944246
83000,0.0324,0.013523,0.002678,0.000431,3.833299
84000,0.0324,0.013523,0.002678,0.000431,3.793575
85000,0.0324,0.013523,0.002678,0.000431,3.678280
86000,0.0324,0.013523,0.002678,0.000431,3.578028
87000,0.0324,0.013523,0.002678,0.000431,3.413606
88000,0.0324,0.013523,0.002678,0.000431,3.275746
89000,0.0324,0.013523,0.002678,0.000431,3.099923
90000,0.0324,0.013523,0.002678,0.000431,2.976636
91000,0.0324,0.013523,0.002678,0.000431,2.897187
92000,0.0324,0.013523,0.002678,0.000431,2.677292
93000,0.0324,0.013523,0.002678,0.000431,2.513458
94000,0.0324,0.013523,0.002678,0.000431,2.340574
95000,0.0324,0.013523,0.002678,0.000431,2.230920
96000,0.0324,0.013523,0.002678,0.000431,2.102697
97000,0.0324,0.013523,0.002678,0.000431,2.016313
98000,0.0324,0.013523,0.002678,0.000431,1.901371
99000,0.0324,0.013523,0.002678,0.000431,1.782197
100000,0.0324,0.013523,0.002678,0.000431,1.742943
101000,0.0324,0.013523,0.002678,0.000431,1.609901
102000,0.0324,0.013523,0.002678,0.000431,1.543498
103000,0.0324,0.013523,0.002678,0.000431,1.513998
104000,0.0324,0.013523,0.002678,0.000431,1.420563
105000,0.0324,0.013523,0.002678,0.000431,1.380016
106000,0.0324,0.013523,0.002678,0.000431,1.303035
107000,0.0324,0.013523,0.002678,0.000431,1.283173
108000,0.0324,0.013523,0.002678,0.000431,1.254143
109000,0.0324,0.013523,0.002678,0.000431,1.183509
110000,0.0324,0.013523,0.002678,0.000431,1.202078
111000,0.0324,0.013523,0.002678,0.000431,1.141316
112000,0.0324,0.013523,0.002678,0.000431,1.099829
113000,0.0324,0.013523,0.002678,0.000431,1.089134
114000,0.0324,0.013523,0.002678,0.000431,1.068919
115000,0.0324,0.013523,0.002678,0.000431,1.037069
116000,0.0324,0.013523,0.002678,0.000431,1.007922
117000,0.0324,0.013523,0.002678,0.000431,0.989000
118000,0.0324,0.013523,0.002678,0.000431,0.953389
119000,0.0324,0.013523,0.002678,0.000431,0.945044
120000,0.0324,0.013523,0.002678,0.000431,0.917072
121000,0.0324,0.013523,0.002678,0.000431,0.911431
122000,0.0324,0.013523,0.002678,0.000431,0.882754
123000,0.0324,0.013523,0.002678,0.000431,0.850434
124000,0.0324,0.013523,0.002678,0.000431,0.827986
125000,0.0324,0.013523,0.002678,0.000431,0.809064
126000,0.0324,0.013523,0.002678,0.000431,0.794961
127000,0.0324,0.013523,0.002678,0.000431,0.767694
128000,0.0324,0.013523,0.002678,0.000431,0.751828
129000,0.0324,0.013523,0.002678,0.000431,0.731613
130000,0.0324,0.013523,0.002678,0.000431,0.703759
131000,0.0324,0.013523,0.002678,0.000431,0.685542
132000,0.0324,0.013523,0.002678,0.000431,0.667560
133000,0.0324,0.013523,0.002678,0.000431,0.655572
134000,0.0324,0.013523,0.002678,0.000431,0.636768
135000,0.0324,0.013523,0.002678,0.000431,0.634182
136000,0.0324,0.013523,0.002678,0.000431,0.605740
137000,0.0324,0.013523,0.002678,0.000431,0.591754
138000,0.0324,0.013523,0.002678,0.000431,0.581529
139000,0.0324,0.013523,0.002678,0.000431,0.560022
140000,0.0324,0.013523,0.002678,0.000431,0.550972
141000,0.0324,0.013523,0.002678,0.000431,0.530052
142000,0.0324,0.013523,0.002678,0.000431,0.518652
143000,0.0324,0.013523,0.002678,0.000431,0.500082
144000,0.0324,0.013523,0.002678,0.000431,0.484921
145000,0.0324,0.013523,0.002678,0.000431,0.474696
146000,0.0324,0.013523,0.002678,0.000431,0.449898
147000,0.0324,0.013523,0.002678,0.000431,0.454011
148000,0.0324,0.013523,0.002678,0.000431,0.426275
149000,0.0324,0.013523,0.002678,0.000431,0.426862
150000,0.0324,0.013523,0.002678,0.000431,0.397010
151000,0.0324,0.013523,0.002678,0.000431,0.390664
152000,0.0324,0.013523,0.002678,0.000431,0.379146
153000,0.0324,0.013523,0.002678,0.000431,0.369626
154000,0.0324,0.013523,0.002678,0.000431,0.345650
155000,0.0324,0.013523,0.002678,0.000431,0.344945
156000,0.0324,0.013523,0.002678,0.000431,0.324495
157000,0.0324,0.013523,0.002678,0.000431,0.315563
158000,0.0324,0.013523,0.002678,0.000431,0.304633
159000,0.0324,0.013523,0.002678,0.000431,0.300520
160000,0.0324,0.013523,0.002678,0.000431,0.287004
161000,0.0324,0.013523,0.002678,0.000431,0.284771
162000,0.0324,0.013523,0.002678,0.000431,0.276191
163000,0.0324,0.013523,0.002678,0.000431,0.255976
164000,0.0324,0.013523,0.002678,0.000431,0.254566
165000,0.0324,0.013523,0.002678,0.000431,0.244811
166000,0.0324,0.013523,0.002678,0.000431,0.236232
167000,0.0324,0.013523,0.002678,0.000431,0.223186
168000,0.0324,0.013523,0.002678,0.000431,0.213666
169000,0.0324,0.013523,0.002678,0.000431,0.212608
170000,0.0324,0.013523,0.002678,0.000431,0.199563
171000,0.0324,0.013523,0.002678,0.000431,0.198270
172000,0.0324,0.013523,0.002678,0.000431,0.181816
173000,0.0324,0.013523,0.002678,0.000431,0.177115
174000,0.0324,0.013523,0.002678,0.000431,0.175117
175000,0.0324,0.013523,0.002678,0.000431,0.167948
176000,0.0324,0.013523,0.002678,0.000431,0.168418
177000,0.0324,0.013523,0.002678,0.000431,0.157488
178000,0.0324,0.013523,0.002678,0.000431,0.158428
179000,0.0324,0.013523,0.002678,0.000431,0.149966
180000,0.0324,0.013523,0.002678,0.000431,0.147498
181000,0.0324,0.013523,0.002678,0.000431,0.139859
182000,0.0324,0.013523,0.002678,0.000431,0.132807
183000,0.0324,0.013523,0.002678,0.000431,0.137038
184000,0.0324,0.013523,0.002678,0.000431,0.126225
185000,0.0324,0.013523,0.002678,0.000431,0.121407
186000,0.0324,0.013523,0.002678,0.000431,0.116470
187000,0.0324,0.013523,0.002678,0.000431,0.117293
188000,0.0324,0.013523,0.002678,0.000431,0.102367
189000,0.0324,0.013523,0.002678,0.000431,0.105775
190000,0.0324,0.013523,0.002678,0.000431,0.097313
191000,0.0324,0.013523,0.002678,0.000431,0.098606
192000,0.0324,0.013523,0.002678,0.000431,0.095550
193000,0.0324,0.013523,0.002678,0.000431,0.092847
194000,0.0324,0.013523,0.002678,0.000431,0.089792
195000,0.0324,0.013523,0.002678,0.000431,0.077804
196000,0.0324,0.013523,0.002678,0.000431,0.084738
197000,0.0324,0.013523,0.002678,0.000431,0.077804
198000,0.0324,0.013523,0.002678,0.000431,0.079096
199000,0.0324,0.013523,0.002678,0.000431,0.070282
200000,0.0324,0.013523,0.002678,0.000431,0.071575
201000,0.0324,0.013523,0.002678,0.000431,0.071927
202000,0.0324,0.013523,0.002678,0.000431,0.070634
203000,0.0324,0.013523,0.002678,0.000431,0.063818
204000,0.0324,0.013523,0.002678,0.000431,0.060997
205000,0.0324,0.013523,0.002678,0.000431,0.063230
206000,0.0324,0.013523,0.002678,0.000431,0.061115
207000,0.0324,0.013523,0.002678,0.000431,0.058294
208000,0.0324,0.013523,0.002678,0.000431,0.060645
209000,0.0324,0.013523,0.002678,0.000431,0.055356
210000,0.0324,0.013523,0.002678,0.000431,0.053593
211000,0.0324,0.013523,0.002678,0.000431,0.048422
212000,0.0324,0.013523,0.002678,0.000431,0.052535
213000,0.0324,0.013523,0.002678,0.000431,0.046894
214000,0.0324,0.013523,0.002678,0.000431,0.050655
215000,0.0324,0.013523,0.002678,0.000431,0.045601
216000,0.0324,0.013523,0.002678,0.000431,0.041370
217000,0.0324,0.013523,0.002678,0.000431,0.042780
218000,0.0324,0.013523,0.002678,0.000431,0.042898
219000,0.0324,0.013523,0.002678,0.000431,0.037609
220000,0.0324,0.013523,0.002678,0.000431,0.040312
221000,0.0324,0.013523,0.002678,0.000431,0.033496
222000,0.0324,0.013523,0.002678,0.000431,0.038784
223000,0.0324,0.013523,0.002678,0.000431,0.034318
224000,0.0324,0.013523,0.002678,0.000431,0.033025
225000,0.0324,0.013523,0.002678,0.000431,0.033260
226000,0.0324,0.013523,0.002678,0.000431,0.031733
227000,0.0324,0.013523,0.002678,0.000431,0.031615
228000,0.0324,0.013523,0.002678,0.000431,0.033966
229000,0.0324,0.013523,0.002678,0.000431,0.031850
230000,0.0324,0.013523,0.002678,0.000431,0.029147
231000,0.0324,0.013523,0.002678,0.000431,0.029029
232000,0.0324,0.013523,0.002678,0.000431,0.028207
233000,0.0324,0.013523,0.002678,0.000431,0.029970
234000,0.0324,0.013523,0.002678,0.000431,0.024446
235000,0.0324,0.013523,0.002678,0.000431,0.025974
236000,0.0324,0.013523,0.002678,0.000431,0.022918
237000,0.0324,0.013523,0.002678,0.000431,0.023976
238000,0.0324,0.013523,0.002678,0.000431,0.021860
239000,0.0324,0.013523,0.002678,0.000431,0.023976
240000,0.0324,0.013523,0.002678,0.000431,0.022565
241000,0.0324,0.013523,0.002678,0.000431,0.020097
242000,0.0324,0.013523,0.002678,0.000431,0.022918
243000,0.0324,0.013523,0.002678,0.000431,0.019980
244000,0.0324,0.013523,0.002678,0.000431,0.019392
245000,0.0324,0.013523,0.002678,0.000431,0.017747
246000,0.0324,0.013523,0.002678,0.000431,0.017042
247000,0.0324,0.013523,0.002678,0.000431,0.018922
248000,0.0324,0.013523,0.002678,0.000431,0.014926
249000,0.0324,0.013523,0.002678,0.000431,0.017277
250000,0.0324,0.013523,0.002678,0.000431,0.015044
251000,0.0324,0.013523,0.002678,0.000431,0.015749
252000,0.0324,0.013523,0.002678,0.000431,0.015161
253000,0.0324,0.013523,0.002678,0.000431,0.014338
254000,0.0324,0.013523,0.002678,0.000431,0.013516
255000,0.0324,0.013523,0.002678,0.000431,0.014338
256000,0.0324,0.013523,0.002678,0.000431,0.013516
257000,0.0324,0.013523,0.002678,0.000431,0.012458
258000,0.0324,0.013523,0.002678,0.000431,0.013281
259000,0.0324,0.013523,0.002678,0.000431,0.012811
260000,0.0324,0.013523,0.002678,0.000431,0.012928
261000,0.0324,0.013523,0.002678,0.000431,0.012223
262000,0.0324,0.013523,0.002678,0.000431,0.011988
263000,0.0324,0.013523,0.002678,0.000431,0.012693
264000,0.0324,0.013523,0.002678,0.000431,0.013281
265000,0.0324,0.013523,0.002678,0.000431,0.013281
266000,0.0324,0.013523,0.002678,0.000431,0.012340
267000,0.0324,0.013523,0.002678,0.000431,0.011283
268000,0.0324,0.013523,0.002678,0.000431,0.012340
269000,0.0324,0.013523,0.002678,0.000431,0.010930
270000,0.0324,0.013523,0.002678,0.000431,0.012105
271000,0.0324,0.013523,0.002678,0.000431,0.010930
272000,0.0324,0.013523,0.002678,0.000431,0.011048
273000,0.0324,0.013523,0.002678,0.000431,0.009872
274000,0.0324,0.013523,0.002678,0.000431,0.009637
275000,0.0324,0.013523,0.002678,0.000431,0.010225
276000,0.0324,0.013523,0.002678,0.000431,0.009167
277000,0.0324,0.013523,0.002678,0.000431,0.009050
278000,0.0324,0.013523,0.002678,0.000431,0.009637
279000,0.0324,0.013523,0.002678,0.000431,0.008580
280000,0.0324,0.013523,0.002678,0.000431,0.008932
281000,0.0324,0.013523,0.002678,0.000431,0.007992
282000,0.0324,0.013523,0.002678,0.000431,0.008109
283000,0.0324,0.013523,0.002678,0.000431,0.008345
284000,0.0324,0.013523,0.002678,0.000431,0.008227
285000,0.0324,0.013523,0.002678,0.000431,0.008109
286000,0.0324,0.013523,0.002678,0.000431,0.008462
287000,0.0324,0.013523,0.002678,0.000431,0.008697
288000,0.0324,0.013523,0.002678,0.000431,0.006934
289000,0.0324,0.013523,0.002678,0.000431,0.007757
290000,0.0324,0.013523,0.002678,0.000431,0.006934
291000,0.0324,0.013523,0.002678,0.000431,0.006347
292000,0.0324,0.013523,0.002678,0.000431,0.005641
293000,0.0324,0.013523,0.002678,0.000431,0.006111
294000,0.0324,0.013523,0.002678,0.000431,0.005054
295000,0.0324,0.013523,0.002678,0.000431,0.006229
296000,0.0324,0.013523,0.002678,0.000431,0.005524
297000,0.0324,0.013523,0.002678,0.000431,0.005994
298000,0.0324,0.013523,0.002678,0.000431,0.004819
299000,0.0324,0.013523,0.002678,0.000431,0.005524
300000,0.0324,0.013523,0.002678,0.000431,0.003878
301000,0.0324,0.013523,0.002678,0.000431,0.004936
302000,0.0324,0.013523,0.002678,0.000431,0.005289
303000,0.0324,0.013523,0.002678,0.000431,0.005171
304000,0.0324,0.013523,0.002678,0.000431,0.005171
305000,0.0324,0.013523,0.002678,0.000431,0.006347
306000,0.0324,0.013523,0.002678,0.000431,0.004819
307000,0.0324,0.013523,0.002678,0.000431,0.004349
308000,0.0324,0.013523,0.002678,0.000431,0.005289
309000,0.0324,0.013523,0.002678,0.000431,0.004466
310000,0.0324,0.013523,0.002678,0.000431,0.004466
311000,0.0324,0.013523,0.002678,0.000431,0.005406
312000,0.0324,0.013523,0.002678,0.000431,0.004936
313000,0.0324,0.013523,0.002678,0.000431,0.004701
314000,0.0324,0.013523,0.002678,0.000431,0.004113
315000,0.0324,0.013523,0.002678,0.000431,0.004701
316000,0.0324,0.013523,0.002678,0.000431,0.004466
317000,0.0324,0.013523,0.002678,0.000431,0.003878
318000,0.0324,0.013523,0.002678,0.000431,0.004584
319000,0.0324,0.013523,0.002678,0.000431,0.003408
320000,0.0324,0.013523,0.002678,0.000431,0.005524
321000,0.0324,0.013523,0.002678,0.000431,0.003526
322000,0.0324,0.013523,0.002678,0.000431,0.004231
323000,0.0324,0.013523,0.002678,0.000431,0.003643
324000,0.0324,0.013523,0.002678,0.000431,0.004701
325000,0.0324,0.013523,0.002678,0.000431,0.003878
326000,0.0324,0.013523,0.002678,0.000431,0.003056
327000,0.0324,0.013523,0.002678,0.000431,0.004349
328000,0.0324,0.013523,0.002678,0.000431,0.003408
329000,0.0324,0.013523,0.002678,0.000431,0.004466
330000,0.0324,0.013523,0.002678,0.000431,0.004113
331000,0.0324,0.013523,0.002678,0.000431,0.003643
332000,0.0324,0.013523,0.002678,0.000431,0.003643
333000,0.0324,0.013523,0.002678,0.000431,0.003056
334000,0.0324,0.013523,0.002678,0.000431,0.004349
335000,0.0324,0.013523,0.002678,0.000431,0.003291
336000,0.0324,0.013523,0.002678,0.000431,0.003643
337000,0.0324,0.013523,0.002678,0.000431,0.003996
338000,0.0324,0.013523,0.002678,0.000431,0.003291
339000,0.0324,0.013523,0.002678,0.000431,0.002938
340000,0.0324,0.013523,0.002678,0.000431,0.003408
341000,0.0324,0.013523,0.002678,0.000431,0.003056
342000,0.0324,0.013523,0.002678,0.000431,0.003056
343000,0.0324,0.013523,0.002678,0.000431,0.002938
344000,0.0324,0.013523,0.002678,0.000431,0.003996
345000,0.0324,0.013523,0.002678,0.000431,0.002821
346000,0.0324,0.013523,0.002678,0.000431,0.002821
347000,0.0324,0.013523,0.002678,0.000431,0.002586
348000,0.0324,0.013523,0.002678,0.000431,0.002821
349000,0.0324,0.013523,0.002678,0.000431,0.003408
350000,0.0324,0.013523,0.002678,0.000431,0.002821
351000,0.0324,0.013523,0.002678,0.000431,0.003056
352000,0.0324,0.013523,0.002678,0.000431,0.002351
353000,0.0324,0.013523,0.002678,0.000431,0.003056
354000,0.0324,0.013523,0.002678,0.000431,0.001880
355000,0.0324,0.013523,0.002678,0.000431,0.002468
356000,0.0324,0.013523,0.002678,0.000431,0.003526
357000,0.0324,0.013523,0.002678,0.000431,0.001763
358000,0.0324,0.013523,0.002678,0.000431,0.003526
359000,0.0324,0.013523,0.002678,0.000431,0.002116
360000,0.0324,0.013523,0.002678,0.000431,0.002938
361000,0.0324,0.013523,0.002678,0.000431,0.002821
362000,0.0324,0.013523,0.002678,0.000431,0.002468
363000,0.0324,0.013523,0.002678,0.000431,0.002586
364000,0.0324,0.013523,0.002678,0.000431,0.002351
365000,0.0324,0.013523,0.002678,0.000431,0.003643
366000,0.0324,0.013523,0.002678,0.000431,0.002116
367000,0.0324,0.013523,0.002678,0.000431,0.002233
368000,0.0324,0.013523,0.002678,0.000431,0.002116
369000,0.0324,0.013523,0.002678,0.000431,0.001998
370000,0.0324,0.013523,0.002678,0.000431,0.002586
371000,0.0324,0.013523,0.002678,0.000431,0.002233
372000,0.0324,0.013523,0.002678,0.000431,0.003291
373000,0.0324,0.013523,0.002678,0.000431,0.002116
374000,0.0324,0.013523,0.002678,0.000431,0.002821
375000,0.0324,0.013523,0.002678,0.000431,0.003056
376000,0.0324,0.013523,0.002678,0.000431,0.001880
377000,0.0324,0.013523,0.002678,0.000431,0.003173
378000,0.0324,0.013523,0.002678,0.000431,0.001998
379000,0.0324,0.013523,0.002678,0.000431,0.002821
380000,0.0324,0.013523,0.002678,0.000431,0.001998
381000,0.0324,0.013523,0.002678,0.000431,0.002351
382000,0.0324,0.013523,0.002678,0.000431,0.003056
383000,0.0324,0.013523,0.002678,0.000431,0.001528
384000,0.0324,0.013523,0.002678,0.000431,0.002116
385000,0.0324,0.013523,0.002678,0.000431,0.001763
386000,0.0324,0.013523,0.002678,0.000431,0.002351
387000,0.0324,0.013523,0.002678,0.000431,0.001645
388000,0.0324,0.013523,0.002678,0.000431,0.002233
389000,0.0324,0.013523,0.002678,0.000431,0.002468
390000,0.0324,0.013523,0.002678,0.000431,0.001880
391000,0.0324,0.013523,0.002678,0.000431,0.002586
392000,0.0324,0.013523,0.002678,0.000431,0.001763
393000,0.0324,0.013523,0.002678,0.000431,0.001998
394000,0.0324,0.013523,0.002678,0.000431,0.002703
395000,0.0324,0.013523,0.002678,0.000431,0.001293
396000,0.0324,0.013523,0.002678,0.000431,0.002468
397000,0.0324,0.013523,0.002678,0.000431,0.002116
398000,0.0324,0.013523,0.002678,0.000431,0.002116
399000,0.0324,0.013523,0.002678,0.000431,0.002233
400000,0.0324,0.013523,0.002678,0.000431,0.001645
401000,0.0324,0.013523,0.002678,0.000431,0.001998
402000,0.0324,0.013523,0.002678,0.000431,0.001528
403000,0.0324,0.013523,0.002678,0.000431,0.001763
404000,0.0324,0.013523,0.002678,0.000431,0.001528
405000,0.0324,0.013523,0.002678,0.000431,0.001645
406000,0.0324,0.013523,0.002678,0.000431,0.001528
407000,0.0324,0.013523,0.002678,0.000431,0.000823
408000,0.0324,0.013523,0.002678,0.000431,0.001880
409000,0.0324,0.013523,0.002678,0.000431,0.000588
410000,0.0324,0.013523,0.002678,0.000431,0.001763
411000,0.0324,0.013523,0.002678,0.000431,0.001058
412000,0.0324,0.013523,0.002678,0.000431,0.001175
413000,0.0324,0.013523,0.002678,0.000431,0.000940
414000,0.0324,0.013523,0.002678,0.000431,0.001293
415000,0.0324,0.013523,0.002678,0.000431,0.001175
416000,0.0324,0.013523,0.002678,0.000431,0.000940
417000,0.0324,0.013523,0.002678,0.000431,0.001410
418000,0.0324,0.013523,0.002678,0.000431,0.000940
419000,0.0324,0.013523,0.002678,0.000431,0.001293
420000,0.0324,0.013523,0.002678,0.000431,0.001410
421000,0.0324,0.013523,0.002678,0.000431,0.000940
422000,0.0324,0.013523,0.002678,0.000431,0.001175
423000,0.0324,0.013523,0.002678,0.000431,0.001058
424000,0.0324,0.013523,0.002678,0.000431,0.001058
425000,0.0324,0.013523,0.002678,0.000431,0.000823
426000,0.0324,0.013523,0.002678,0.000431,0.001175
427000,0.0324,0.013523,0.002678,0.000431,0.001645
428000,0.0324,0.013523,0.002678,0.000431,0.000940
429000,0.0324,0.013523,0.002678,0.000431,0.001293
430000,0.0324,0.013523,0.002678,0.000431,0.001058
431000,0.0324,0.013523,0.002678,0.000431,0.000588
432000,0.0324,0.013523,0.002678,0.000431,0.001293
433000,0.0324,0.013523,0.002678,0.000431,0.000940
434000,0.0324,0.013523,0.002678,0.000431,0.001293
435000,0.0324,0.013523,0.002678,0.000431,0.000470
436000,0.0324,0.013523,0.002678,0.000431,0.001293
437000,0.0324,0.013523,0.002678,0.000431,0.001058
438000,0.0324,0.013523,0.002678,0.000431,0.000823
439000,0.0324,0.013523,0.002678,0.000431,0.001410
440000,0.0324,0.013523,0.002678,0.000431,0.000470
441000,0.0324,0.013523,0.002678,0.000431,0.001528
442000,0.0324,0.013523,0.002678,0.000431,0.000705
443000,0.0324,0.013523,0.002678,0.000431,0.001058
444000,0.0324,0.013523,0.002678,0.000431,0.000940
445000,0.0324,0.013523,0.002678,0.000431,0.000823
446000,0.0324,0.013523,0.002678,0.000431,0.000940
447000,0.0324,0.013523,0.002678,0.000431,0.000470
448000,0.0324,0.013523,0.002678,0.000431,0.001175
449000,0.0324,0.013523,0.002678,0.000431,0.000940
450000,0.0324,0.013523,0.002678,0.000431,0.001175
451000,0.0324,0.013523,0.002678,0.000431,0.001410
452000,0.0324,0.013523,0.002678,0.000431,0.001058
453000,0.0324,0.013523,0.002678,0.000431,0.001293
454000,0.0324,0.013523,0.002678,0.000431,0.001058
455000,0.0324,0.013523,0.002678,0.000431,0.001175
456000,0.0324,0.013523,0.002678,0.000431,0.001410
457000,0.0324,0.013523,0.002678,0.000431,0.001175
458000,0.0324,0.013523,0.002678,0.000431,0.001175
459000,0.0324,0.013523,0.002678,0.000431,0.000470
460000,0.0324,0.013523,0.002678,0.000431,0.001293
461000,0.0324,0.013523,0.002678,0.000431,0.000470
462000,0.0324,0.013523,0.002678,0.000431,0.001058
463000,0.0324,0.013523,0.002678,0.000431,0.000588
464000,0.0324,0.013523,0.002678,0.000431,0.001058
465000,0.0324,0.013523,0.002678,0.000431,0.000823
466000,0.0324,0.013523,0.002678,0.000431,0.001058
467000,0.0324,0.013523,0.002678,0.000431,0.001410
468000,0.0324,0.013523,0.002678,0.000431,0.001293
469000,0.0324,0.013523,0.002678,0.000431,0.000940
470000,0.0324,0.013523,0.002678,0.000431,0.000823
471000,0.0324,0.013523,0.002678,0.000431,0.000353
472000,0.0324,0.013523,0.002678,0.000431,0.000470
473000,0.0324,0.013523,0.002678,0.000431,0.000470
474000,0.0324,0.013523,0.002678,0.000431,0.001058
475000,0.0324,0.013523,0.002678,0.000431,0.000940
476000,0.0324,0.013523,0.002678,0.000431,0.000823
477000,0.0324,0.013523,0.002678,0.000431,0.000823
478000,0.0324,0.013523,0.002678,0.000431,0.000470
479000,0.0324,0.013523,0.002678,0.000431,0.000940
480000,0.0324,0.013523,0.002678,0.000431,0.000470
481000,0.0324,0.013523,0.002678,0.000431,0.001058
482000,0.0324,0.013523,0.002678,0.000431,0.000823
483000,0.0324,0.013523,0.002678,0.000431,0.000705
484000,0.0324,0.013523,0.002678,0.000431,0.001175
485000,0.0324,0.013523,0.002678,0.000431,0.000588
486000,0.0324,0.013523,0.002678,0.000431,0.000940
487000,0.0324,0.013523,0.002678,0.000431,0.000470
488000,0.0324,0.013523,0.002678,0.000431,0.000940
489000,0.0324,0.013523,0.002678,0.000431,0.000940
490000,0.0324,0.013523,0.002678,0.000431,0.000823
491000,0.0324,0.013523,0.002678,0.000431,0.000823
492000,0.0324,0.013523,0.002678,0.000431,0.000588
493000,0.0324,0.013523,0.002678,0.000431,0.000823
494000,0.0324,0.013523,0.002678,0.000431,0.000705
495000,0.0324,0.013523,0.002678,0.000431,0.000823
496000,0.0324,0.013523,0.002678,0.000431,0.000823
497000,0.0324,0.013523,0.002678,0.000431,0.000470
498000,0.0324,0.013523,0.002678,0.000431,0.000940
499000,0.0324,0.013523,0.002678,0.000431,0.000470
500000,0.0324,0.013523,0.002678,0.000431,0.000940
501000,0.0324,0.013523,0.002678,0.000431,0.000705
502000,0.0324,0.013523,0.002678,0.000431,0.000588
503000,0.0324,0.013523,0.002678,0.000431,0.001058
504000,0.0324,0.013523,0.002678,0.000431,0.000470
505000,0.0324,0.013523,0.002678,0.000431,0.000940
506000,0.0324,0.013523,0.002678,0.000431,0.000705
507000,0.0324,0.013523,0.002678,0.000431,0.000940
508000,0.0324,0.013523,0.002678,0.000431,0.000940
509000,0.0324,0.013523,0.002678,0.000431,0.000470
510000,0.0324,0.013523,0.002678,0.000431,0.000823
511000,0.0324,0.013523,0.002678,0.000431,0.000353
512000,0.0324,0.013523,0.002678,0.000431,0.000940
513000,0.0324,0.013523,0.002678,0.000431,0.000705
514000,0.0324,0.013523,0.002678,0.000431,0.000705
515000,0.0324,0.013523,0.002678,0.000431,0.000823
516000,0.0324,0.013523,0.002678,0.000431,0.000588
517000,0.0324,0.013523,0.002678,0.000431,0.000940
518000,0.0324,0.013523,0.002678,0.000431,0.000705
519000,0.0324,0.013523,0.002678,0.000431,0.000705
520000,0.0324,0.013523,0.002678,0.000431,0.000705
521000,0.0324,0.013523,0.002678,0.000431,0.000470
522000,0.0324,0.013523,0.002678,0.000431,0.001058
523000,0.0324,0.013523,0.002678,0.000431,0.000588
524000,0.0324,0.013523,0.002678,0.000431,0.001175
525000,0.0324,0.013523,0.002678,0.000431,0.000588
526000,0.0324,0.013523,0.002678,0.000431,0.000823
527000,0.0324,0.013523,0.002678,0.000431,0.000823
528000,0.0324,0.013523,0.002678,0.000431,0.000588
529000,0.0324,0.013523,0.002678,0.000431,0.001175
530000,0.0324,0.013523,0.002678,0.000431,0.000470
531000,0.0324,0.013523,0.002678,0.000431,0.000940
532000,0.0324,0.013523,0.002678,0.000431,0.000588
533000,0.0324,0.013523,0.002678,0.000431,0.001058
534000,0.0324,0.013523,0.002678,0.000431,0.000705
535000,0.0324,0.013523,0.002678,0.000431,0.000588
536000,0.0324,0.013523,0.002678,0.000431,0.001058
537000,0.0324,0.013523,0.002678,0.000431,0.000705
538000,0.0324,0.013523,0.002678,0.000431,0.000705
539000,0.0324,0.013523,0.002678,0.000431,0.000940
540000,0.0324,0.013523,0.002678,0.000431,0.000705
541000,0.0324,0.013523,0.002678,0.000431,0.001058
542000,0.0324,0.013523,0.002678,0.000431,0.000470
543000,0.0324,0.013523,0.002678,0.000431,0.000823
544000,0.0324,0.013523,0.002678,0.000431,0.000588
545000,0.0324,0.013523,0.002678,0.000431,0.000940
546000,0.0324,0.013523,0.002678,0.000431,0.000823
547000,0.0324,0.013523,0.002678,0.000431,0.000588
548000,0.0324,0.013523,0.002678,0.000431,0.000940
549000,0.0324,0.013523,0.002678,0.000431,0.000705
550000,0.0324,0.013523,0.002678,0.000431,0.000823
551000,0.0324,0.013523,0.002678,0.000431,0.000823
552000,0.0324,0.013523,0.002678,0.000431,0.000823
553000,0.0324,0.013523,0.002678,0.000431,0.000940
554000,0.0324,0.013523,0.002678,0.000431,0.000705
555000,0.0324,0.013523,0.002678,0.000431,0.000940
556000,0.0324,0.013523,0.002678,0.000431,0.000705
557000,0.0324,0.013523,0.002678,0.000431,0.000823
558000,0.0324,0.013523,0.002678,0.000431,0.000940
559000,0.0324,0.013523,0.002678,0.000431,0.000588
560000,0.0324,0.013523,0.002678,0.000431,0.001058
561000,0.0324,0.013523,0.002678,0.000431,0.000470
562000,0.0324,0.013523,0.002678,0.000431,0.001058
563000,0.0324,0.013523,0.002678,0.000431,0.000705
564000,0.0324,0.013523,0.002678,0.000431,0.000940
565000,0.0324,0.013523,0.002678,0.000431,0.000940
566000,0.0324,0.013523,0.002678,0.000431,0.000705
567000,0.0324,0.013523,0.002678,0.000431,0.000940
568000,0.0324,0.013523,0.002678,0.000431,0.000588
569000,0.0324,0.013523,0.002678,0.000431,0.001058
570000,0.0324,0.013523,0.002678,0.000431,0.000588
571000,0.0324,0.013523,0.002678,0.000431,0.000940
572000,0.0324,0.013523,0.002678,0.000431,0.000823
573000,0.0324,0.013523,0.002678,0.000431,0.000705
574000,0.0324,0.013523,0.002678,0.000431,0.001175
575000,0.0324,0.013523,0.002678,0.000431,0.000705
576000,0.0324,0.013523,0.002678,0.000431,0.000940
577000,0.0324,0.013523,0.002678,0.000431,0.000823
578000,0.0324,0.013523,0.002678,0.000431,0.000353
579000,0.0324,0.013523,0.002678,0.000431,0.000940
580000,0.0324,0.013523,0.002678,0.000431,0.000470
581000,0.0324,0.013523,0.002678,0.000431,0.000705
582000,0.0324,0.013523,0.002678,0.000431,0.000353
583000,0.0324,0.013523,0.002678,0.000431,0.000470
584000,0.0324,0.013523,0.002678,0.000431,0.000705
585000,0.0324,0.013523,0.002678,0.000431,0.000705
586000,0.0324,0.013523,0.002678,0.000431,0.001058
587000,0.0324,0.013523,0.002678,0.000431,0.000470
588000,0.0324,0.013523,0.002678,0.000431,0.000940
589000,0.0324,0.013523,0.002678,0.000431,0.000588
590000,0.0324,0.013523,0.002678,0.000431,0.000705
591000,0.0324,0.013523,0.002678,0.000431,0.000940
592000,0.0324,0.013523,0.002678,0.000431,0.000588
593000,0.0324,0.013523,0.002678,0.000431,0.000940
594000,0.0324,0.013523,0.002678,0.000431,0.000588
595000,0.0324,0.013523,0.002678,0.000431,0.000823
596000,0.0324,0.013523,0.002678,0.000431,0.000823
597000,0.0324,0.013523,0.002678,0.000431,0.000588
598000,0.0324,0.013523,0.002678,0.000431,0.000588
599000,0.0324,0.013523,0.002678,0.000431,0.000353
600000,0.0324,0.013523,0.002678,0.000431,0.001058
601000,0.0324,0.013523,0.002678,0.000431,0.000705
602000,0.0324,0.013523,0.002678,0.000431,0.000823
603000,0.0324,0.013523,0.002678,0.000431,0.000823
604000,0.0324,0.013523,0.002678,0.000431,0.000588
605000,0.0324,0.013523,0.002678,0.000431,0.000823
606000,0.0324,0.013523,0.002678,0.000431,0.000588
607000,0.0324,0.013523,0.002678,0.000431,0.001058
608000,0.0324,0.013523,0.002678,0.000431,0.000705
609000,0.0324,0.013523,0.002678,0.000431,0.000823
610000,0.0324,0.013523,0.002678,0.000431,0.000940
611000,0.0324,0.013523,0.002678,0.000431,0.000823
612000,0.0324,0.013523,0.002678,0.000431,0.000940
613000,0.0324,0.013523,0.002678,0.000431,0.000470
614000,0.0324,0.013523,0.002678,0.000431,0.000823
615000,0.0324,0.013523,0.002678,0.000431,0.001058
616000,0.0324,0.013523,0.002678,0.000431,0.000588
617000,0.0324,0.013523,0.002678,0.000431,0.001058
618000,0.0324,0.013523,0.002678,0.000431,0.000235
619000,0.0324,0.013523,0.002678,0.000431,0.000940
620000,0.0324,0.013523,0.002678,0.000431,0.000705
621000,0.0324,0.013523,0.002678,0.000431,0.000588
622000,0.0324,0.013523,0.002678,0.000431,0.000588
623000,0.0324,0.013523,0.002678,0.000431,0.000470
624000,0.0324,0.013523,0.002678,0.000431,0.001175
625000,0.0324,0.013523,0.002678,0.000431,0.000588
626000,0.0324,0.013523,0.002678,0.000431,0.000940
627000,0.0324,0.013523,0.002678,0.000431,0.000823
628000,0.0324,0.013523,0.002678,0.000431,0.000823
629000,0.0324,0.013523,0.002678,0.000431,0.000823
630000,0.0324,0.013523,0.002678,0.000431,0.000588
631000,0.0324,0.013523,0.002678,0.000431,0.001058
632000,0.0324,0.013523,0.002678,0.000431,0.000705
633000,0.0324,0.013523,0.002678,0.000431,0.000940
634000,0.0324,0.013523,0.002678,0.000431,0.000940
635000,0.0324,0.013523,0.002678,0.000431,0.000588
636000,0.0324,0.013523,0.002678,0.000431,0.001058
637000,0.0324,0.013523,0.002678,0.000431,0.000588
638000,0.0324,0.013523,0.002678,0.000431,0.000823
639000,0.0324,0.013523,0.002678,0.000431,0.000705
640000,0.0324,0.013523,0.002678,0.000431,0.000940
641000,0.0324,0.013523,0.002678,0.000431,0.000823
642000,0.0324,0.013523,0.002678,0.000431,0.000823
643000,0.0324,0.013523,0.002678,0.000431,0.001058
644000,0.0324,0.013523,0.002678,0.000431,0.000588
645000,0.0324,0.013523,0.002678,0.000431,0.000940
646000,0.0324,0.013523,0.002678,0.000431,0.000588
647000,0.0324,0.013523,0.002678,0.000431,0.000823
648000,0.0324,0.013523,0.002678,0.000431,0.000823
649000,0.0324,0.013523,0.002678,0.000431,0.000705
650000,0.0324,0.013523,0.002678,0.000431,0.000940
651000,0.0324,0.013523,0.002678,0.000431,0.000705
652000,0.0324,0.013523,0.002678,0.000431,0.000705
653000,0.0324,0.013523,0.002678,0.000431,0.000823
654000,0.0324,0.013523,0.002678,0.000431,0.000705
655000,0.0324,0.013523,0.002678,0.000431,0.000940
656000,0.0324,0.013523,0.002678,0.000431,0.000588
657000,0.0324,0.013523,0.002678,0.000431,0.000940
658000,0.0324,0.013523,0.002678,0.000431,0.000705
659000,0.0324,0.013523,0.002678,0.000431,0.000940
660000,0.0324,0.013523,0.002678,0.000431,0.000823
661000,0.0324,0.013523,0.002678,0.000431,0.000705
662000,0.0324,0.013523,0.002678,0.000431,0.001058
663000,0.0324,0.013523,0.002678,0.000431,0.000705
664000,0.0324,0.013523,0.002678,0.000431,0.000823
665000,0.0324,0.013523,0.002678,0.000431,0.000940
666000,0.0324,0.013523,0.002678,0.000431,0.000705
667000,0.0324,0.013523,0.002678,0.000431,0.001058
668000,0.0324,0.013523,0.002678,0.000431,0.000705
669000,0.0324,0.013523,0.002678,0.000431,0.001175
670000,0.0324,0.013523,0.002678,0.000431,0.000470
671000,0.0324,0.013523,0.002678,0.000431,0.000705
672000,0.0324,0.013523,0.002678,0.000431,0.000823
673000,0.0324,0.013523,0.002678,0.000431,0.000705
674000,0.0324,0.013523,0.002678,0.000431,0.000823
675000,0.0324,0.013523,0.002678,0.000431,0.000353
676000,0.0324,0.013523,0.002678,0.000431,0.001175
677000,0.0324,0.013523,0.002678,0.000431,0.000705
678000,0.0324,0.013523,0.002678,0.000431,0.000705
679000,0.0324,0.013523,0.002678,0.000431,0.001058
680000,0.0324,0.013523,0.002678,0.000431,0.000588
681000,0.0324,0.013523,0.002678,0.000431,0.001058
682000,0.0324,0.013523,0.002678,0.000431,0.000353
683000,0.0324,0.013523,0.002678,0.000431,0.000940
684000,0.0324,0.013523,0.002678,0.000431,0.000940
685000,0.0324,0.013523,0.002678,0.000431,0.000588
686000,0.0324,0.013523,0.002678,0.000431,0.000940
687000,0.0324,0.013523,0.002678,0.000431,0.000588
688000,0.0324,0.013523,0.002678,0.000431,0.001058
689000,0.0324,0.013523,0.002678,0.000431,0.000705
690000,0.0324,0.013523,0.002678,0.000431,0.000705
691000,0.0324,0.013523,0.002678,0.000431,0.000823
692000,0.0324,0.013523,0.002678,0.000431,0.000588
693000,0.0324,0.013523,0.002678,0.000431,0.000705
694000,0.0324,0.013523,0.002678,0.000431,0.000588
695000,0.0324,0.013523,0.002678,0.000431,0.000940
696000,0.0324,0.013523,0.002678,0.000431,0.000823
697000,0.0324,0.013523,0.002678,0.000431,0.000823
698000,0.0324,0.013523,0.002678,0.000431,0.000705
699000,0.0324,0.013523,0.002678,0.000431,0.000705
700000,0.0324,0.013523,0.002678,0.000431,0.001058
701000,0.0324,0.013523,0.002678,0.000431,0.000588
702000,0.0324,0.013523,0.002678,0.000431,0.000940
703000,0.0324,0.013523,0.002678,0.000431,0.000940
704000,0.0324,0.013523,0.002678,0.000431,0.000705
705000,0.0324,0.013523,0.002678,0.000431,0.001058
706000,0.0324,0.013523,0.002678,0.000431,0.000470
707000,0.0324,0.013523,0.002678,0.000431,0.000940
708000,0.0324,0.013523,0.002678,0.000431,0.000705
709000,0.0324,0.013523,0.002678,0.000431,0.000823
710000,0.0324,0.013523,0.002678,0.000431,0.000940
711000,0.0324,0.013523,0.002678,0.000431,0.000705
712000,0.0324,0.013523,0.002678,0.000431,0.000823
713000,0.0324,0.013523,0.002678,0.000431,0.000353
714000,0.0324,0.013523,0.002678,0.000431,0.001058
715000,0.0324,0.013523,0.002678,0.000431,0.000353
716000,0.0324,0.013523,0.002678,0.000431,0.000823
717000,0.0324,0.013523,0.002678,0.000431,0.000588
718000,0.0324,0.013523,0.002678,0.000431,0.000588
719000,0.0324,0.013523,0.002678,0.000431,0.000705
720000,0.0324,0.013523,0.002678,0.000431,0.000470
721000,0.0324,0.013523,0.002678,0.000431,0.000823
722000,0.0324,0.013523,0.002678,0.000431,0.000470
723000,0.0324,0.013523,0.002678,0.000431,0.000705
724000,0.0324,0.013523,0.002678,0.000431,0.000823
725000,0.0324,0.013523,0.002678,0.000431,0.000470
726000,0.0324,0.013523,0.002678,0.000431,0.000823
727000,0.0324,0.013523,0.002678,0.000431,0.000588
728000,0.0324,0.013523,0.002678,0.000431,0.000823
729000,0.0324,0.013523,0.002678,0.000431,0.000588
730000,0.0324,0.013523,0.002678,0.000431,0.000705
731000,0.0324,0.013523,0.002678,0.000431,0.000705
732000,0.0324,0.013523,0.002678,0.000431,0.000588
733000,0.0324,0.013523,0.002678,0.000431,0.000705
734000,0.0324,0.013523,0.002678,0.000431,0.000353
735000,0.0324,0.013523,0.002678,0.000431,0.000823
736000,0.0324,0.013523,0.002678,0.000431,0.000470
737000,0.0324,0.013523,0.002678,0.000431,0.000705
738000,0.0324,0.013523,0.002678,0.000431,0.000705
739000,0.0324,0.013523,0.002678,0.000431,0.000470
740000,0.0324,0.013523,0.002678,0.000431,0.000823
741000,0.0324,0.013523,0.002678,0.000431,0.000705
742000,0.0324,0.013523,0.002678,0.000431,0.000705
743000,0.0324,0.013523,0.002678,0.000431,0.000823
744000,0.0324,0.013523,0.002678,0.000431,0.000705
745000,0.0324,0.013523,0.002678,0.000431,0.000823
746000,0.0324,0.013523,0.002678,0.000431,0.000353
747000,0.0324,0.013523,0.002678,0.000431,0.000705
748000,0.0324,0.013523,0.002678,0.000431,0.000588
749000,0.0324,0.013523,0.002678,0.000431,0.000588
750000,0.0324,0.013523,0.002678,0.000431,0.000823
751000,0.0324,0.013523,0.002678,0.000431,0.000470
752000,0.0324,0.013523,0.002678,0.000431,0.000705
753000,0.0324,0.013523,0.002678,0.000431,0.000705
754000,0.0324,0.013523,0.002678,0.000431,0.000705
755000,0.0324,0.013523,0.002678,0.000431,0.000588
756000,0.0324,0.013523,0.002678,0.000431,0.000588
757000,0.0324,0.013523,0.002678,0.000431,0.000588
758000,0.0324,0.013523,0.002678,0.000431,0.000588
759000,0.0324,0.013523,0.002678,0.000431,0.000470
760000,0.0324,0.013523,0.002678,0.000431,0.000705
761000,0.0324,0.013523,0.002678,0.000431,0.000823
762000,0.0324,0.013523,0.002678,0.000431,0.000823
763000,0.0324,0.013523,0.002678,0.000431,0.000588
764000,0.0324,0.013523,0.002678,0.000431,0.000588
765000,0.0324,0.013523,0.002678,0.000431,0.000353
766000,0.0324,0.013523,0.002678,0.000431,0.000823
767000,0.0324,0.013523,0.002678,0.000431,0.000588
768000,0.0324,0.013523,0.002678,0.000431,0.000705
769000,0.0324,0.013523,0.002678,0.000431,0.000705
770000,0.0324,0.013523,0.002678,0.000431,0.000470
771000,0.0324,0.013523,0.002678,0.000431,0.000823
772000,0.0324,0.013523,0.002678,0.000431,0.000705
773000,0.0324,0.013523,0.002678,0.000431,0.000588
774000,0.0324,0.013523,0.002678,0.000431,0.000705
775000,0.0324,0.013523,0.002678,0.000431,0.000588
776000,0.0324,0.013523,0.002678,0.000431,0.000823
777000,0.0324,0.013523,0.002678,0.000431,0.000705
778000,0.0324,0.013523,0.002678,0.000431,0.000823
779000,0.0324,0.013523,0.002678,0.000431,0.000470
780000,0.0324,0.013523,0.002678,0.000431,0.000588
781000,0.0324,0.013523,0.002678,0.000431,0.000705
782000,0.0324,0.013523,0.002678,0.000431,0.000705
783000,0.0324,0.013523,0.002678,0.000431,0.000588
784000,0.0324,0.013523,0.002678,0.000431,0.000588
785000,0.0324,0.013523,0.002678,0.000431,0.000823
786000,0.0324,0.013523,0.002678,0.000431,0.000588
787000,0.0324,0.013523,0.002678,0.000431,0.000705
788000,0.0324,0.013523,0.002678,0.000431,0.000823
789000,0.0324,0.013523,0.002678,0.000431,0.000588
790000,0.0324,0.013523,0.002678,0.000431,0.000588
791000,0.0324,0.013523,0.002678,0.000431,0.000705
792000,0.0324,0.013523,0.002678,0.000431,0.000235
793000,0.0324,0.013523,0.002678,0.000431,0.000823
794000,0.0324,0.013523,0.002678,0.000431,0.000353
795000,0.0324,0.013523,0.002678,0.000431,0.000823
796000,0.0324,0.013523,0.002678,0.000431,0.000353
797000,0.0324,0.013523,0.002678,0.000431,0.000705
798000,0.0324,0.013523,0.002678,0.000431,0.000705
799000,0.0324,0.013523,0.002678,0.000431,0.000705
800000,0.0324,0.013523,0.002678,0.000431,0.000705
801000,0.0324,0.013523,0.002678,0.000431,0.000470
802000,0.0324,0.013523,0.002678,0.000431,0.000705
803000,0.0324,0.013523,0.002678,0.000431,0.000353
804000,0.0324,0.013523,0.002678,0.000431,0.000823
805000,0.0324,0.013523,0.002678,0.000431,0.000353
806000,0.0324,0.013523,0.002678,0.000431,0.000588
807000,0.0324,0.013523,0.002678,0.000431,0.000823
808000,0.0324,0.013523,0.002678,0.000431,0.000470
809000,0.0324,0.013523,0.002678,0.000431,0.000588
810000,0.0324,0.013523,0.002678,0.000431,0.000588
811000,0.0324,0.013523,0.002678,0.000431,0.000470
812000,0.0324,0.013523,0.002678,0.000431,0.000705
813000,0.0324,0.013523,0.002678,0.000431,0.000353
814000,0.0324,0.013523,0.002678,0.000431,0.000705
815000,0.0324,0.013523,0.002678,0.000431,0.000470
816000,0.0324,0.013523,0.002678,0.000431,0.000823
817000,0.0324,0.013523,0.002678,0.000431,0.000470
818000,0.0324,0.013523,0.002678,0.000431,0.000705
819000,0.0324,0.013523,0.002678,0.000431,0.000588
820000,0.0324,0.013523,0.002678,0.000431,0.000470
821000,0.0324,0.013523,0.002678,0.000431,0.000705
822000,0.0324,0.013523,0.002678,0.000431,0.000000
823000,0.0324,0.013523,0.002678,0.000431,0.000470
824000,0.0324,0.013523,0.002678,0.000431,0.000235
825000,0.0324,0.013523,0.002678,0.000431,0.000235
826000,0.0324,0.013523,0.002678,0.000431,0.000470
827000,0.0324,0.013523,0.002678,0.000431,0.000000
828000,0.0324,0.013523,0.002678,0.000431,0.000470
829000,0.0324,0.013523,0.002678,0.000431,0.000235
830000,0.0324,0.013523,0.002678,0.000431,0.000235
831000,0.0324,0.013523,0.002678,0.000431,0.000705
832000,0.0324,0.013523,0.002678,0.000431,0.000705
833000,0.0324,0.013523,0.002678,0.000431,0.000705
834000,0.0324,0.013523,0.002678,0.000431,0.000470
835000,0.0324,0.013523,0.002678,0.000431,0.000823
836000,0.0324,0.013523,0.002678,0.000431,0.000353
837000,0.0324,0.013523,0.002678,0.000431,0.000705
838000,0.0324,0.013523,0.002678,0.000431,0.000823
839000,0.0324,0.013523,0.002678,0.000431,0.000588
840000,0.0324,0.013523,0.002678,0.000431,0.000705
841000,0.0324,0.013523,0.002678,0.000431,0.000588
842000,0.0324,0.013523,0.002678,0.000431,0.000470
843000,0.0324,0.013523,0.002678,0.000431,0.000705
844000,0.0324,0.013523,0.002678,0.000431,0.000470
845000,0.0324,0.013523,0.002678,0.000431,0.000823
846000,0.0324,0.013523,0.002678,0.000431,0.000470
847000,0.0324,0.013523,0.002678,0.000431,0.000823
848000,0.0324,0.013523,0.002678,0.000431,0.000705
849000,0.0324,0.013523,0.002678,0.000431,0.000588
850000,0.0324,0.013523,0.002678,0.000431,0.000705
851000,0.0324,0.013523,0.002678,0.000431,0.000588
852000,0.0324,0.013523,0.002678,0.000431,0.000353
853000,0.0324,0.013523,0.002678,0.000431,0.000588
854000,0.0324,0.013523,0.002678,0.000431,0.000705
855000,0.0324,0.013523,0.002678,0.000431,0.000588
856000,0.0324,0.013523,0.002678,0.000431,0.000353
857000,0.0324,0.013523,0.002678,0.000431,0.000353
858000,0.0324,0.013523,0.002678,0.000431,0.000588
859000,0.0324,0.013523,0.002678,0.000431,0.000588
860000,0.0324,0.013523,0.002678,0.000431,0.000353
861000,0.0324,0.013523,0.002678,0.000431,0.000470
862000,0.0324,0.013523,0.002678,0.000431,0.000353
863000,0.0324,0.013523,0.002678,0.000431,0.000588
864000,0.0324,0.013523,0.002678,0.000431,0.000588
865000,0.0324,0.013523,0.002678,0.000431,0.000588
866000,0.0324,0.013523,0.002678,0.000431,0.000353
867000,0.0324,0.013523,0.002678,0.000431,0.000470
868000,0.0324,0.013523,0.002678,0.000431,0.000353
869000,0.0324,0.013523,0.002678,0.000431,0.000588
870000,0.0324,0.013523,0.002678,0.000431,0.000588
871000,0.0324,0.013523,0.002678,0.000431,0.000705
872000,0.0324,0.013523,0.002678,0.000431,0.000353
873000,0.0324,0.013523,0.002678,0.000431,0.000470
874000,0.0324,0.013523,0.002678,0.000431,0.000470
875000,0.0324,0.013523,0.002678,0.000431,0.000470
876000,0.0324,0.013523,0.002678,0.000431,0.000470
877000,0.0324,0.013523,0.002678,0.000431,0.000470
878000,0.0324,0.013523,0.002678,0.000431,0.000470
879000,0.0324,0.013523,0.002678,0.000431,0.000588
880000,0.0324,0.013523,0.002678,0.000431,0.000353
881000,0.0324,0.013523,0.002678,0.000431,0.000588
882000,0.0324,0.013523,0.002678,0.000431,0.000470
883000,0.0324,0.013523,0.002678,0.000431,0.000470
884000,0.0324,0.013523,0.002678,0.000431,0.000470
885000,0.0324,0.013523,0.002678,0.000431,0.000588
886000,0.0324,0.013523,0.002678,0.000431,0.000470
887000,0.0324,0.013523,0.002678,0.000431,0.000588
888000,0.0324,0.013523,0.002678,0.000431,0.000353
889000,0.0324,0.013523,0.002678,0.000431,0.000470
890000,0.0324,0.013523,0.002678,0.000431,0.000470
891000,0.0324,0.013523,0.002678,0.000431,0.000588
892000,0.0324,0.013523,0.002678,0.000431,0.000588
893000,0.0324,0.013523,0.002678,0.000431,0.000235
894000,0.0324,0.013523,0.002678,0.000431,0.000118
895000,0.0324,0.013523,0.002678,0.000431,0.000705
896000,0.0324,0.013523,0.002678,0.000431,0.000353
897000,0.0324,0.013523,0.002678,0.000431,0.000470
898000,0.0324,0.013523,0.002678,0.000431,0.000588
899000,0.0324,0.013523,0.002678,0.000431,0.000588
900000,0.0324,0.013523,0.002678,0.000431,0.000353
901000,0.0324,0.013523,0.002678,0.000431,0.000470
902000,0.0324,0.013523,0.002678,0.000431,0.000470
903000,0.0324,0.013523,0.002678,0.000431,0.000705
904000,0.0324,0.013523,0.002678,0.000431,0.000470
905000,0.0324,0.013523,0.002678,0.000431,0.000705
906000,0.0324,0.013523,0.002678,0.000431,0.000353
907000,0.0324,0.013523,0.002678,0.000431,0.000470
908000,0.0324,0.013523,0.002678,0.000431,0.000235
909000,0.0324,0.013523,0.002678,0.000431,0.000470
910000,0.0324,0.013523,0.002678,0.000431,0.000588
911000,0.0324,0.013523,0.002678,0.000431,0.000588
912000,0.0324,0.013523,0.002678,0.000431,0.000353
913000,0.0324,0.013523,0.002678,0.000431,0.000353
914000,0.0324,0.013523,0.002678,0.000431,0.000470
915000,0.0324,0.013523,0.002678,0.000431,0.000588
916000,0.0324,0.013523,0.002678,0.000431,0.000588
917000,0.0324,0.013523,0.002678,0.000431,0.000470
918000,0.0324,0.013523,0.002678,0.000431,0.000353
919000,0.0324,0.013523,0.002678,0.000431,0.000588
920000,0.0324,0.013523,0.002678,0.000431,0.000588
921000,0.0324,0.013523,0.002678,0.000431,0.000705
922000,0.0324,0.013523,0.002678,0.000431,0.000470
923000,0.0324,0.013523,0.002678,0.000431,0.000353
924000,0.0324,0.013523,0.002678,0.000431,0.000705
925000,0.0324,0.013523,0.002678,0.000431,0.000588
926000,0.0324,0.013523,0.002678,0.000431,0.000470
927000,0.0324,0.013523,0.002678,0.000431,0.000470
928000,0.0324,0.013523,0.002678,0.000431,0.000588
929000,0.0324,0.013523,0.002678,0.000431,0.000353
930000,0.0324,0.013523,0.002678,0.000431,0.000588
931000,0.0324,0.013523,0.002678,0.000431,0.000470
932000,0.0324,0.013523,0.002678,0.000431,0.000470
933000,0.0324,0.013523,0.002678,0.000431,0.000000
934000,0.0324,0.013523,0.002678,0.000431,0.000588
935000,0.0324,0.013523,0.002678,0.000431,0.000588
936000,0.0324,0.013523,0.002678,0.000431,0.000470
937000,0.0324,0.013523,0.002678,0.000431,0.000470
938000,0.0324,0.013523,0.002678,0.000431,0.000470
939000,0.0324,0.013523,0.002678,0.000431,0.000588
940000,0.0324,0.013523,0.002678,0.000431,0.000353
941000,0.0324,0.013523,0.002678,0.000431,0.000470
942000,0.0324,0.013523,0.002678,0.000431,0.000470
943000,0.0324,0.013523,0.002678,0.000431,0.000470
944000,0.0324,0.013523,0.002678,0.000431,0.000470
945000,0.0324,0.013523,0.002678,0.000431,0.000470
946000,0.0324,0.013523,0.002678,0.000431,0.000353
947000,0.0324,0.013523,0.002678,0.000431,0.000705
948000,0.0324,0.013523,0.002678,0.000431,0.000118
949000,0.0324,0.013523,0.002678,0.000431,0.000353
950000,0.0324,0.013523,0.002678,0.000431,0.000588
951000,0.0324,0.013523,0.002678,0.000431,0.000705
952000,0.0324,0.013523,0.002678,0.000431,0.000470
953000,0.0324,0.013523,0.002678,0.000431,0.000705
954000,0.0324,0.013523,0.002678,0.000431,0.000470
955000,0.0324,0.013523,0.002678,0.000431,0.000470
956000,0.0324,0.013523,0.002678,0.000431,0.000470
957000,0.0324,0.013523,0.002678,0.000431,0.000470
958000,0.0324,0.013523,0.002678,0.000431,0.000705
959000,0.0324,0.013523,0.002678,0.000431,0.000470
960000,0.0324,0.013523,0.002678,0.000431,0.000470
961000,0.0324,0.013523,0.002678,0.000431,0.000470
962000,0.0324,0.013523,0.002678,0.000431,0.000588
963000,0.0324,0.013523,0.002678,0.000431,0.000470
964000,0.0324,0.013523,0.002678,0.000431,0.000470
965000,0.0324,0.013523,0.002678,0.000431,0.000353
966000,0.0324,0.013523,0.002678,0.000431,0.000705
967000,0.0324,0.013523,0.002678,0.000431,0.000235
968000,0.0324,0.013523,0.002678,0.000431,0.000588
969000,0.0324,0.013523,0.002678,0.000431,0.000588
970000,0.0324,0.013523,0.002678,0.000431,0.000588
971000,0.0324,0.013523,0.002678,0.000431,0.000353
972000,0.0324,0.013523,0.002678,0.000431,0.000588
973000,0.0324,0.013523,0.002678,0.000431,0.000353
974000,0.0324,0.013523,0.002678,0.000431,0.000588
975000,0.0324,0.013523,0.002678,0.000431,0.000588
976000,0.0324,0.013523,0.002678,0.000431,0.000588
977000,0.0324,0.013523,0.002678,0.000431,0.000588
978000,0.0324,0.013523,0.002678,0.000431,0.000235
979000,0.0324,0.013523,0.002678,0.000431,0.000470
980000,0.0324,0.013523,0.002678,0.000431,0.000588
981000,0.0324,0.013523,0.002678,0.000431,0.000588
982000,0.0324,0.013523,0.002678,0.000431,0.000588
983000,0.0324,0.013523,0.002678,0.000431,0.000470
984000,0.0324,0.013523,0.002678,0.000431,0.000470
985000,0.0324,0.013523,0.002678,0.000431,0.000470
986000,0.0324,0.013523,0.002678,0.000431,0.000470
987000,0.0324,0.013523,0.002678,0.000431,0.000588
988000,0.0324,0.013523,0.002678,0.000431,0.000470
989000,0.0324,0.013523,0.002678,0.000431,0.000705
990000,0.0324,0.013523,0.002678,0.000431,0.000353
991000,0.0324,0.013523,0.002678,0.000431,0.000588
992000,0.0324,0.013523,0.002678,0.000431,0.000470
993000,0.0324,0.013523,0.002678,0.000431,0.000588
994000,0.0324,0.013523,0.002678,0.000431,0.000470
995000,0.0324,0.013523,0.002678,0.000431,0.000353
996000,0.0324,0.013523,0.002678,0.000431,0.000588
997000,0.0324,0.013523,0.002678,0.000431,0.000353
998000,0.0324,0.013523,0.002678,0.000431,0.000470
999000,0.0324,0.013523,0.002678,0.000431,0.000353
