Cycle,Area(mm^2),PeakDynamic(W),SubthresholdLeakage(W),GateLeakage(W),RunTimeDynamic(W)
100,0.0324,0.013523,0.002678,0.000431,0.034083
200,0.0324,0.013523,0.002678,0.000431,0.000000
300,0.0324,0.013523,0.002678,0.000431,0.000000
400,0.0324,0.013523,0.002678,0.000431,0.000000
500,0.0324,0.013523,0.002678,0.000431,0.000000
600,0.0324,0.013523,0.002678,0.000431,0.000000
700,0.0324,0.013523,0.002678,0.000431,0.000000
800,0.0324,0.013523,0.002678,0.000431,0.000000
900,0.0324,0.013523,0.002678,0.000431,0.000000
1000,0.0324,0.013523,0.002678,0.000431,0.000000
1100,0.0324,0.013523,0.002678,0.000431,0.000000
1200,0.0324,0.013523,0.002678,0.000431,0.000000
1300,0.0324,0.013523,0.002678,0.000431,0.000000
1400,0.0324,0.013523,0.002678,0.000431,0.000000
1500,0.0324,0.013523,0.002678,0.000431,0.000000
1600,0.0324,0.013523,0.002678,0.000431,0.000000
1700,0.0324,0.013523,0.002678,0.000431,0.000000
1800,0.0324,0.013523,0.002678,0.000431,0.000000
1900,0.0324,0.013523,0.002678,0.000431,0.000000
2000,0.0324,0.013523,0.002678,0.000431,0.000000
2100,0.0324,0.013523,0.002678,0.000431,0.000000
2200,0.0324,0.013523,0.002678,0.000431,0.000000
2300,0.0324,0.013523,0.002678,0.000431,0.000000
2400,0.0324,0.013523,0.002678,0.000431,0.000000
2500,0.0324,0.013523,0.002678,0.000431,0.000000
2600,0.0324,0.013523,0.002678,0.000431,0.000000
2700,0.0324,0.013523,0.002678,0.000431,0.000000
2800,0.0324,0.013523,0.002678,0.000431,0.000000
2900,0.0324,0.013523,0.002678,0.000431,0.000000
3000,0.0324,0.013523,0.002678,0.000431,0.000000
3100,0.0324,0.013523,0.002678,0.000431,0.000000
3200,0.0324,0.013523,0.002678,0.000431,0.000000
3300,0.0324,0.013523,0.002678,0.000431,0.000000
3400,0.0324,0.013523,0.002678,0.000431,0.000000
3500,0.0324,0.013523,0.002678,0.000431,0.000000
3600,0.0324,0.013523,0.002678,0.000431,0.000000
3700,0.0324,0.013523,0.002678,0.000431,0.000000
3800,0.0324,0.013523,0.002678,0.000431,0.000000
3900,0.0324,0.013523,0.002678,0.000431,0.000000
4000,0.0324,0.013523,0.002678,0.000431,0.000000
4100,0.0324,0.013523,0.002678,0.000431,0.000000
4200,0.0324,0.013523,0.002678,0.000431,0.000000
4300,0.0324,0.013523,0.002678,0.000431,0.000000
4400,0.0324,0.013523,0.002678,0.000431,0.000000
4500,0.0324,0.013523,0.002678,0.000431,0.000000
4600,0.0324,0.013523,0.002678,0.000431,0.000000
4700,0.0324,0.013523,0.002678,0.000431,0.000000
4800,0.0324,0.013523,0.002678,0.000431,0.000000
4900,0.0324,0.013523,0.002678,0.000431,0.000000
5000,0.0324,0.013523,0.002678,0.000431,0.000000
5100,0.0324,0.013523,0.002678,0.000431,0.000000
5200,0.0324,0.013523,0.002678,0.000431,0.157488
5300,0.0324,0.013523,0.002678,0.000431,0.000000
5400,0.0324,0.013523,0.002678,0.000431,0.157488
5500,0.0324,0.013523,0.002678,0.000431,0.445432
5600,0.0324,0.013523,0.002678,0.000431,0.470113
5700,0.0324,0.013523,0.002678,0.000431,0.896740
5800,0.0324,0.013523,0.002678,0.000431,0.692241
5900,0.0324,0.013523,0.002678,0.000431,0.607621
6000,0.0324,0.013523,0.002678,0.000431,0.457185
6100,0.0324,0.013523,0.002678,0.000431,0.344358
6200,0.0324,0.013523,0.002678,0.000431,0.349059
6300,0.0324,0.013523,0.002678,0.000431,0.619374
6400,0.0324,0.013523,0.002678,0.000431,0.397245
6500,0.0324,0.013523,0.002678,0.000431,0.494794
6600,0.0324,0.013523,0.002678,0.000431,0.258562
6700,0.0324,0.013523,0.002678,0.000431,0.264438
6800,0.0324,0.013523,0.002678,0.000431,0.035258
6900,0.0324,0.013523,0.002678,0.000431,0.218602
7000,0.0324,0.013523,0.002678,0.000431,0.208025
7100,0.0324,0.013523,0.002678,0.000431,0.056414
7200,0.0324,0.013523,0.002678,0.000431,0.291470
7300,0.0324,0.013523,0.002678,0.000431,0.044661
7400,0.0324,0.013523,0.002678,0.000431,0.112827
7500,0.0324,0.013523,0.002678,0.000431,0.109301
7600,0.0324,0.013523,0.002678,0.000431,0.062290
7700,0.0324,0.013523,0.002678,0.000431,0.139859
7800,0.0324,0.013523,0.002678,0.000431,0.112827
7900,0.0324,0.013523,0.002678,0.000431,0.126930
8000,0.0324,0.013523,0.002678,0.000431,0.097548
8100,0.0324,0.013523,0.002678,0.000431,0.212726
8200,0.0324,0.013523,0.002678,0.000431,0.057589
8300,0.0324,0.013523,0.002678,0.000431,0.188045
8400,0.0324,0.013523,0.002678,0.000431,0.137508
8500,0.0324,0.013523,0.002678,0.000431,0.112827
8600,0.0324,0.013523,0.002678,0.000431,0.210375
8700,0.0324,0.013523,0.002678,0.000431,0.148086
8800,0.0324,0.013523,0.002678,0.000431,0.184519
8900,0.0324,0.013523,0.002678,0.000431,0.208025
9000,0.0324,0.013523,0.002678,0.000431,0.164539
9100,0.0324,0.013523,0.002678,0.000431,0.244459
9200,0.0324,0.013523,0.002678,0.000431,0.157488
9300,0.0324,0.013523,0.002678,0.000431,0.163364
9400,0.0324,0.013523,0.002678,0.000431,0.238582
9500,0.0324,0.013523,0.002678,0.000431,0.090497
9600,0.0324,0.013523,0.002678,0.000431,0.220953
9700,0.0324,0.013523,0.002678,0.000431,0.176292
9800,0.0324,0.013523,0.002678,0.000431,0.119879
9900,0.0324,0.013523,0.002678,0.000431,0.225654
10000,0.0324,0.013523,0.002678,0.000431,0.156312
10100,0.0324,0.013523,0.002678,0.000431,0.133982
10200,0.0324,0.013523,0.002678,0.000431,0.208025
10300,0.0324,0.013523,0.002678,0.000431,0.092847
10400,0.0324,0.013523,0.002678,0.000431,0.222128
10500,0.0324,0.013523,0.002678,0.000431,0.117528
10600,0.0324,0.013523,0.002678,0.000431,0.109301
10700,0.0324,0.013523,0.002678,0.000431,0.141034
10800,0.0324,0.013523,0.002678,0.000431,0.056414
10900,0.0324,0.013523,0.002678,0.000431,0.142209
11000,0.0324,0.013523,0.002678,0.000431,0.102250
11100,0.0324,0.013523,0.002678,0.000431,0.126930
11200,0.0324,0.013523,0.002678,0.000431,0.116353
11300,0.0324,0.013523,0.002678,0.000431,0.132807
11400,0.0324,0.013523,0.002678,0.000431,0.104600
11500,0.0324,0.013523,0.002678,0.000431,0.131632
11600,0.0324,0.013523,0.002678,0.000431,0.105775
11700,0.0324,0.013523,0.002678,0.000431,0.126930
11800,0.0324,0.013523,0.002678,0.000431,0.098724
11900,0.0324,0.013523,0.002678,0.000431,0.135157
12000,0.0324,0.013523,0.002678,0.000431,0.074043
12100,0.0324,0.013523,0.002678,0.000431,0.119879
12200,0.0324,0.013523,0.002678,0.000431,0.066991
12300,0.0324,0.013523,0.002678,0.000431,0.111652
12400,0.0324,0.013523,0.002678,0.000431,0.086971
12500,0.0324,0.013523,0.002678,0.000431,0.097548
12600,0.0324,0.013523,0.002678,0.000431,0.098724
12700,0.0324,0.013523,0.002678,0.000431,0.068166
12800,0.0324,0.013523,0.002678,0.000431,0.108126
12900,0.0324,0.013523,0.002678,0.000431,0.077569
13000,0.0324,0.013523,0.002678,0.000431,0.086971
13100,0.0324,0.013523,0.002678,0.000431,0.106951
13200,0.0324,0.013523,0.002678,0.000431,0.071692
13300,0.0324,0.013523,0.002678,0.000431,0.117528
13400,0.0324,0.013523,0.002678,0.000431,0.078744
13500,0.0324,0.013523,0.002678,0.000431,0.082270
13600,0.0324,0.013523,0.002678,0.000431,0.099899
13700,0.0324,0.013523,0.002678,0.000431,0.066991
13800,0.0324,0.013523,0.002678,0.000431,0.118703
13900,0.0324,0.013523,0.002678,0.000431,0.071692
14000,0.0324,0.013523,0.002678,0.000431,0.055238
14100,0.0324,0.013523,0.002678,0.000431,0.139859
14200,0.0324,0.013523,0.002678,0.000431,0.049362
14300,0.0324,0.013523,0.002678,0.000431,0.125755
14400,0.0324,0.013523,0.002678,0.000431,0.064641
14500,0.0324,0.013523,0.002678,0.000431,0.054063
14600,0.0324,0.013523,0.002678,0.000431,0.082270
14700,0.0324,0.013523,0.002678,0.000431,0.066991
14800,0.0324,0.013523,0.002678,0.000431,0.068166
14900,0.0324,0.013523,0.002678,0.000431,0.085796
15000,0.0324,0.013523,0.002678,0.000431,0.039960
15100,0.0324,0.013523,0.002678,0.000431,0.070517
15200,0.0324,0.013523,0.002678,0.000431,0.061115
15300,0.0324,0.013523,0.002678,0.000431,0.043485
15400,0.0324,0.013523,0.002678,0.000431,0.077569
15500,0.0324,0.013523,0.002678,0.000431,0.059939
15600,0.0324,0.013523,0.002678,0.000431,0.054063
15700,0.0324,0.013523,0.002678,0.000431,0.084620
15800,0.0324,0.013523,0.002678,0.000431,0.110476
15900,0.0324,0.013523,0.002678,0.000431,0.075218
16000,0.0324,0.013523,0.002678,0.000431,0.103425
16100,0.0324,0.013523,0.002678,0.000431,0.086971
16200,0.0324,0.013523,0.002678,0.000431,0.128106
16300,0.0324,0.013523,0.002678,0.000431,0.128106
16400,0.0324,0.013523,0.002678,0.000431,0.151611
16500,0.0324,0.013523,0.002678,0.000431,0.109301
16600,0.0324,0.013523,0.002678,0.000431,0.079919
16700,0.0324,0.013523,0.002678,0.000431,0.135157
16800,0.0324,0.013523,0.002678,0.000431,0.066991
16900,0.0324,0.013523,0.002678,0.000431,0.077569
17000,0.0324,0.013523,0.002678,0.000431,0.096373
17100,0.0324,0.013523,0.002678,0.000431,0.031733
17200,0.0324,0.013523,0.002678,0.000431,0.062290
17300,0.0324,0.013523,0.002678,0.000431,0.038784
17400,0.0324,0.013523,0.002678,0.000431,0.045836
17500,0.0324,0.013523,0.002678,0.000431,0.049362
17600,0.0324,0.013523,0.002678,0.000431,0.070517
17700,0.0324,0.013523,0.002678,0.000431,0.119879
17800,0.0324,0.013523,0.002678,0.000431,0.117528
17900,0.0324,0.013523,0.002678,0.000431,0.079919
18000,0.0324,0.013523,0.002678,0.000431,0.102250
18100,0.0324,0.013523,0.002678,0.000431,0.103425
18200,0.0324,0.013523,0.002678,0.000431,0.103425
18300,0.0324,0.013523,0.002678,0.000431,0.144560
18400,0.0324,0.013523,0.002678,0.000431,0.086971
18500,0.0324,0.013523,0.002678,0.000431,0.092847
18600,0.0324,0.013523,0.002678,0.000431,0.065816
18700,0.0324,0.013523,0.002678,0.000431,0.085796
18800,0.0324,0.013523,0.002678,0.000431,0.059939
18900,0.0324,0.013523,0.002678,0.000431,0.068166
19000,0.0324,0.013523,0.002678,0.000431,0.091672
19100,0.0324,0.013523,0.002678,0.000431,0.132807
19200,0.0324,0.013523,0.002678,0.000431,0.066991
19300,0.0324,0.013523,0.002678,0.000431,0.088146
19400,0.0324,0.013523,0.002678,0.000431,0.099899
19500,0.0324,0.013523,0.002678,0.000431,0.097548
19600,0.0324,0.013523,0.002678,0.000431,0.042310
19700,0.0324,0.013523,0.002678,0.000431,0.169241
19800,0.0324,0.013523,0.002678,0.000431,0.035258
19900,0.0324,0.013523,0.002678,0.000431,0.149261
20000,0.0324,0.013523,0.002678,0.000431,0.043485
20100,0.0324,0.013523,0.002678,0.000431,0.104600
20200,0.0324,0.013523,0.002678,0.000431,0.075218
20300,0.0324,0.013523,0.002678,0.000431,0.089321
20400,0.0324,0.013523,0.002678,0.000431,0.054063
20500,0.0324,0.013523,0.002678,0.000431,0.063465
20600,0.0324,0.013523,0.002678,0.000431,0.025856
20700,0.0324,0.013523,0.002678,0.000431,0.108126
20800,0.0324,0.013523,0.002678,0.000431,0.024681
20900,0.0324,0.013523,0.002678,0.000431,0.065816
21000,0.0324,0.013523,0.002678,0.000431,0.059939
21100,0.0324,0.013523,0.002678,0.000431,0.074043
21200,0.0324,0.013523,0.002678,0.000431,0.098724
21300,0.0324,0.013523,0.002678,0.000431,0.069342
21400,0.0324,0.013523,0.002678,0.000431,0.056414
21500,0.0324,0.013523,0.002678,0.000431,0.069342
21600,0.0324,0.013523,0.002678,0.000431,0.114002
21700,0.0324,0.013523,0.002678,0.000431,0.036434
21800,0.0324,0.013523,0.002678,0.000431,0.083445
21900,0.0324,0.013523,0.002678,0.000431,0.145735
22000,0.0324,0.013523,0.002678,0.000431,0.109301
22100,0.0324,0.013523,0.002678,0.000431,0.078744
22200,0.0324,0.013523,0.002678,0.000431,0.115178
22300,0.0324,0.013523,0.002678,0.000431,0.136333
22400,0.0324,0.013523,0.002678,0.000431,0.132807
22500,0.0324,0.013523,0.002678,0.000431,0.114002
22600,0.0324,0.013523,0.002678,0.000431,0.094023
22700,0.0324,0.013523,0.002678,0.000431,0.052888
22800,0.0324,0.013523,0.002678,0.000431,0.089321
22900,0.0324,0.013523,0.002678,0.000431,0.048187
23000,0.0324,0.013523,0.002678,0.000431,0.057589
23100,0.0324,0.013523,0.002678,0.000431,0.119879
23200,0.0324,0.013523,0.002678,0.000431,0.021155
23300,0.0324,0.013523,0.002678,0.000431,0.052888
23400,0.0324,0.013523,0.002678,0.000431,0.148086
23500,0.0324,0.013523,0.002678,0.000431,0.122229
23600,0.0324,0.013523,0.002678,0.000431,0.149261
23700,0.0324,0.013523,0.002678,0.000431,0.059939
23800,0.0324,0.013523,0.002678,0.000431,0.124580
23900,0.0324,0.013523,0.002678,0.000431,0.190396
24000,0.0324,0.013523,0.002678,0.000431,0.114002
24100,0.0324,0.013523,0.002678,0.000431,0.200973
24200,0.0324,0.013523,0.002678,0.000431,0.103425
24300,0.0324,0.013523,0.002678,0.000431,0.084620
24400,0.0324,0.013523,0.002678,0.000431,0.076393
24500,0.0324,0.013523,0.002678,0.000431,0.123405
24600,0.0324,0.013523,0.002678,0.000431,0.008227
24700,0.0324,0.013523,0.002678,0.000431,0.084620
24800,0.0324,0.013523,0.002678,0.000431,0.008227
24900,0.0324,0.013523,0.002678,0.000431,0.008227
25000,0.0324,0.013523,0.002678,0.000431,0.008227
25100,0.0324,0.013523,0.002678,0.000431,0.065816
25200,0.0324,0.013523,0.002678,0.000431,0.018805
25300,0.0324,0.013523,0.002678,0.000431,0.048187
25400,0.0324,0.013523,0.002678,0.000431,0.012928
25500,0.0324,0.013523,0.002678,0.000431,0.045836
25600,0.0324,0.013523,0.002678,0.000431,0.027031
25700,0.0324,0.013523,0.002678,0.000431,0.025856
25800,0.0324,0.013523,0.002678,0.000431,0.023506
25900,0.0324,0.013523,0.002678,0.000431,0.079919
26000,0.0324,0.013523,0.002678,0.000431,0.004701
26100,0.0324,0.013523,0.002678,0.000431,0.050537
26200,0.0324,0.013523,0.002678,0.000431,0.023506
26300,0.0324,0.013523,0.002678,0.000431,0.052888
26400,0.0324,0.013523,0.002678,0.000431,0.009402
26500,0.0324,0.013523,0.002678,0.000431,0.045836
26600,0.0324,0.013523,0.002678,0.000431,0.003526
26700,0.0324,0.013523,0.002678,0.000431,0.025856
26800,0.0324,0.013523,0.002678,0.000431,0.063465
26900,0.0324,0.013523,0.002678,0.000431,0.022330
27000,0.0324,0.013523,0.002678,0.000431,0.031733
27100,0.0324,0.013523,0.002678,0.000431,0.037609
27200,0.0324,0.013523,0.002678,0.000431,0.043485
27300,0.0324,0.013523,0.002678,0.000431,0.004701
27400,0.0324,0.013523,0.002678,0.000431,0.042310
27500,0.0324,0.013523,0.002678,0.000431,0.003526
27600,0.0324,0.013523,0.002678,0.000431,0.004701
27700,0.0324,0.013523,0.002678,0.000431,0.079919
27800,0.0324,0.013523,0.002678,0.000431,0.017629
27900,0.0324,0.013523,0.002678,0.000431,0.101074
28000,0.0324,0.013523,0.002678,0.000431,0.048187
28100,0.0324,0.013523,0.002678,0.000431,0.084620
28200,0.0324,0.013523,0.002678,0.000431,0.024681
28300,0.0324,0.013523,0.002678,0.000431,0.079919
28400,0.0324,0.013523,0.002678,0.000431,0.002351
28500,0.0324,0.013523,0.002678,0.000431,0.039960
28600,0.0324,0.013523,0.002678,0.000431,0.004701
28700,0.0324,0.013523,0.002678,0.000431,0.001175
28800,0.0324,0.013523,0.002678,0.000431,0.002351
28900,0.0324,0.013523,0.002678,0.000431,0.003526
29000,0.0324,0.013523,0.002678,0.000431,0.050537
29100,0.0324,0.013523,0.002678,0.000431,0.025856
29200,0.0324,0.013523,0.002678,0.000431,0.045836
29300,0.0324,0.013523,0.002678,0.000431,0.004701
29400,0.0324,0.013523,0.002678,0.000431,0.035258
29500,0.0324,0.013523,0.002678,0.000431,0.034083
29600,0.0324,0.013523,0.002678,0.000431,0.009402
29700,0.0324,0.013523,0.002678,0.000431,0.031733
29800,0.0324,0.013523,0.002678,0.000431,0.003526
29900,0.0324,0.013523,0.002678,0.000431,0.002351
30000,0.0324,0.013523,0.002678,0.000431,0.001175
30100,0.0324,0.013523,0.002678,0.000431,0.002351
30200,0.0324,0.013523,0.002678,0.000431,0.002351
30300,0.0324,0.013523,0.002678,0.000431,0.002351
30400,0.0324,0.013523,0.002678,0.000431,0.002351
30500,0.0324,0.013523,0.002678,0.000431,0.002351
30600,0.0324,0.013523,0.002678,0.000431,0.003526
30700,0.0324,0.013523,0.002678,0.000431,0.001175
30800,0.0324,0.013523,0.002678,0.000431,0.002351
30900,0.0324,0.013523,0.002678,0.000431,0.003526
31000,0.0324,0.013523,0.002678,0.000431,0.000000
31100,0.0324,0.013523,0.002678,0.000431,0.004701
31200,0.0324,0.013523,0.002678,0.000431,0.002351
31300,0.0324,0.013523,0.002678,0.000431,0.001175
31400,0.0324,0.013523,0.002678,0.000431,0.003526
31500,0.0324,0.013523,0.002678,0.000431,0.001175
31600,0.0324,0.013523,0.002678,0.000431,0.003526
31700,0.0324,0.013523,0.002678,0.000431,0.003526
31800,0.0324,0.013523,0.002678,0.000431,0.000000
31900,0.0324,0.013523,0.002678,0.000431,0.003526
32000,0.0324,0.013523,0.002678,0.000431,0.001175
32100,0.0324,0.013523,0.002678,0.000431,0.027031
32200,0.0324,0.013523,0.002678,0.000431,0.051712
32300,0.0324,0.013523,0.002678,0.000431,0.028207
32400,0.0324,0.013523,0.002678,0.000431,0.016454
32500,0.0324,0.013523,0.002678,0.000431,0.034083
32600,0.0324,0.013523,0.002678,0.000431,0.041135
32700,0.0324,0.013523,0.002678,0.000431,0.001175
32800,0.0324,0.013523,0.002678,0.000431,0.038784
32900,0.0324,0.013523,0.002678,0.000431,0.003526
33000,0.0324,0.013523,0.002678,0.000431,0.000000
33100,0.0324,0.013523,0.002678,0.000431,0.002351
33200,0.0324,0.013523,0.002678,0.000431,0.002351
33300,0.0324,0.013523,0.002678,0.000431,0.000000
33400,0.0324,0.013523,0.002678,0.000431,0.001175
33500,0.0324,0.013523,0.002678,0.000431,0.002351
33600,0.0324,0.013523,0.002678,0.000431,0.042310
33700,0.0324,0.013523,0.002678,0.000431,0.031733
33800,0.0324,0.013523,0.002678,0.000431,0.039960
33900,0.0324,0.013523,0.002678,0.000431,0.003526
34000,0.0324,0.013523,0.002678,0.000431,0.031733
34100,0.0324,0.013523,0.002678,0.000431,0.038784
34200,0.0324,0.013523,0.002678,0.000431,0.000000
34300,0.0324,0.013523,0.002678,0.000431,0.038784
34400,0.0324,0.013523,0.002678,0.000431,0.001175
34500,0.0324,0.013523,0.002678,0.000431,0.000000
34600,0.0324,0.013523,0.002678,0.000431,0.001175
34700,0.0324,0.013523,0.002678,0.000431,0.001175
34800,0.0324,0.013523,0.002678,0.000431,0.000000
34900,0.0324,0.013523,0.002678,0.000431,0.001175
35000,0.0324,0.013523,0.002678,0.000431,0.001175
35100,0.0324,0.013523,0.002678,0.000431,0.000000
35200,0.0324,0.013523,0.002678,0.000431,0.001175
35300,0.0324,0.013523,0.002678,0.000431,0.001175
35400,0.0324,0.013523,0.002678,0.000431,0.000000
35500,0.0324,0.013523,0.002678,0.000431,0.001175
35600,0.0324,0.013523,0.002678,0.000431,0.001175
35700,0.0324,0.013523,0.002678,0.000431,0.000000
35800,0.0324,0.013523,0.002678,0.000431,0.001175
35900,0.0324,0.013523,0.002678,0.000431,0.001175
36000,0.0324,0.013523,0.002678,0.000431,0.000000
36100,0.0324,0.013523,0.002678,0.000431,0.001175
36200,0.0324,0.013523,0.002678,0.000431,0.001175
36300,0.0324,0.013523,0.002678,0.000431,0.000000
36400,0.0324,0.013523,0.002678,0.000431,0.001175
36500,0.0324,0.013523,0.002678,0.000431,0.001175
36600,0.0324,0.013523,0.002678,0.000431,0.000000
36700,0.0324,0.013523,0.002678,0.000431,0.002351
36800,0.0324,0.013523,0.002678,0.000431,0.000000
36900,0.0324,0.013523,0.002678,0.000431,0.001175
37000,0.0324,0.013523,0.002678,0.000431,0.001175
37100,0.0324,0.013523,0.002678,0.000431,0.000000
37200,0.0324,0.013523,0.002678,0.000431,0.001175
37300,0.0324,0.013523,0.002678,0.000431,0.001175
37400,0.0324,0.013523,0.002678,0.000431,0.000000
37500,0.0324,0.013523,0.002678,0.000431,0.001175
37600,0.0324,0.013523,0.002678,0.000431,0.001175
37700,0.0324,0.013523,0.002678,0.000431,0.000000
37800,0.0324,0.013523,0.002678,0.000431,0.001175
37900,0.0324,0.013523,0.002678,0.000431,0.001175
38000,0.0324,0.013523,0.002678,0.000431,0.000000
38100,0.0324,0.013523,0.002678,0.000431,0.001175
38200,0.0324,0.013523,0.002678,0.000431,0.001175
38300,0.0324,0.013523,0.002678,0.000431,0.000000
38400,0.0324,0.013523,0.002678,0.000431,0.001175
38500,0.0324,0.013523,0.002678,0.000431,0.001175
38600,0.0324,0.013523,0.002678,0.000431,0.000000
38700,0.0324,0.013523,0.002678,0.000431,0.001175
38800,0.0324,0.013523,0.002678,0.000431,0.001175
38900,0.0324,0.013523,0.002678,0.000431,0.000000
39000,0.0324,0.013523,0.002678,0.000431,0.001175
39100,0.0324,0.013523,0.002678,0.000431,0.001175
39200,0.0324,0.013523,0.002678,0.000431,0.000000
39300,0.0324,0.013523,0.002678,0.000431,0.001175
39400,0.0324,0.013523,0.002678,0.000431,0.042310
39500,0.0324,0.013523,0.002678,0.000431,0.028207
39600,0.0324,0.013523,0.002678,0.000431,0.037609
39700,0.0324,0.013523,0.002678,0.000431,0.007052
39800,0.0324,0.013523,0.002678,0.000431,0.027031
39900,0.0324,0.013523,0.002678,0.000431,0.035258
40000,0.0324,0.013523,0.002678,0.000431,0.002351
