Cycle,Area(mm^2),PeakDynamic(W),SubthresholdLeakage(W),GateLeakage(W),RunTimeDynamic(W)
19000000,0.0324,0.013523,0.002678,0.000431,0.067109
19001000,0.0324,0.013523,0.002678,0.000431,0.265496
19002000,0.0324,0.013523,0.002678,0.000431,0.133042
19003000,0.0324,0.013523,0.002678,0.000431,0.161014
19004000,0.0324,0.013523,0.002678,0.000431,0.209670
19005000,0.0324,0.013523,0.002678,0.000431,0.167125
19006000,0.0324,0.013523,0.002678,0.000431,0.066521
19007000,0.0324,0.013523,0.002678,0.000431,0.061820
19008000,0.0324,0.013523,0.002678,0.000431,0.091319
19009000,0.0324,0.013523,0.002678,0.000431,0.115530
19010000,0.0324,0.013523,0.002678,0.000431,0.230590
19011000,0.0324,0.013523,0.002678,0.000431,0.144677
19012000,0.0324,0.013523,0.002678,0.000431,0.218367
19013000,0.0324,0.013523,0.002678,0.000431,0.057354
19014000,0.0324,0.013523,0.002678,0.000431,0.145970
19015000,0.0324,0.013523,0.002678,0.000431,0.067931
19016000,0.0324,0.013523,0.002678,0.000431,0.166655
19017000,0.0324,0.013523,0.002678,0.000431,0.158898
19018000,0.0324,0.013523,0.002678,0.000431,0.177468
19019000,0.0324,0.013523,0.002678,0.000431,0.251628
19020000,0.0324,0.013523,0.002678,0.000431,0.185930
19021000,0.0324,0.013523,0.002678,0.000431,0.135275
19022000,0.0324,0.013523,0.002678,0.000431,0.042428
19023000,0.0324,0.013523,0.002678,0.000431,0.230825
19024000,0.0324,0.013523,0.002678,0.000431,0.086853
19025000,0.0324,0.013523,0.002678,0.000431,0.171474
19026000,0.0324,0.013523,0.002678,0.000431,0.254801
19027000,0.0324,0.013523,0.002678,0.000431,0.188045
19028000,0.0324,0.013523,0.002678,0.000431,0.042545
19029000,0.0324,0.013523,0.002678,0.000431,0.080742
19030000,0.0324,0.013523,0.002678,0.000431,0.131161
19031000,0.0324,0.013523,0.002678,0.000431,0.276779
19032000,0.0324,0.013523,0.002678,0.000431,0.194157
19033000,0.0324,0.013523,0.002678,0.000431,0.157605
19034000,0.0324,0.013523,0.002678,0.000431,0.260442
19035000,0.0324,0.013523,0.002678,0.000431,0.137978
19036000,0.0324,0.013523,0.002678,0.000431,0.188398
19037000,0.0324,0.013523,0.002678,0.000431,0.050537
19038000,0.0324,0.013523,0.002678,0.000431,0.094845
19039000,0.0324,0.013523,0.002678,0.000431,0.143737
19040000,0.0324,0.013523,0.002678,0.000431,0.087088
19041000,0.0324,0.013523,0.002678,0.000431,0.056766
19042000,0.0324,0.013523,0.002678,0.000431,0.151846
19043000,0.0324,0.013523,0.002678,0.000431,0.098371
19044000,0.0324,0.013523,0.002678,0.000431,0.340479
19045000,0.0324,0.013523,0.002678,0.000431,0.185695
19046000,0.0324,0.013523,0.002678,0.000431,0.096608
19047000,0.0324,0.013523,0.002678,0.000431,0.160073
19048000,0.0324,0.013523,0.002678,0.000431,0.169241
19049000,0.0324,0.013523,0.002678,0.000431,0.102720
19050000,0.0324,0.013523,0.002678,0.000431,0.063935
19051000,0.0324,0.013523,0.002678,0.000431,0.183344
19052000,0.0324,0.013523,0.002678,0.000431,0.094963
19053000,0.0324,0.013523,0.002678,0.000431,0.121407
19054000,0.0324,0.013523,0.002678,0.000431,0.068166
19055000,0.0324,0.013523,0.002678,0.000431,0.257387
19056000,0.0324,0.013523,0.002678,0.000431,0.065228
19057000,0.0324,0.013523,0.002678,0.000431,0.304516
19058000,0.0324,0.013523,0.002678,0.000431,0.253743
19059000,0.0324,0.013523,0.002678,0.000431,0.082505
19060000,0.0324,0.013523,0.002678,0.000431,0.072632
19061000,0.0324,0.013523,0.002678,0.000431,0.177232
19062000,0.0324,0.013523,0.002678,0.000431,0.194627
19063000,0.0324,0.013523,0.002678,0.000431,0.121524
19064000,0.0324,0.013523,0.002678,0.000431,0.239875
19065000,0.0324,0.013523,0.002678,0.000431,0.121054
19066000,0.0324,0.013523,0.002678,0.000431,0.108831
19067000,0.0324,0.013523,0.002678,0.000431,0.046894
19068000,0.0324,0.013523,0.002678,0.000431,0.229415
19069000,0.0324,0.013523,0.002678,0.000431,0.180171
19070000,0.0324,0.013523,0.002678,0.000431,0.184167
19071000,0.0324,0.013523,0.002678,0.000431,0.065346
19072000,0.0324,0.013523,0.002678,0.000431,0.062407
19073000,0.0324,0.013523,0.002678,0.000431,0.147028
19074000,0.0324,0.013523,0.002678,0.000431,0.128341
19075000,0.0324,0.013523,0.002678,0.000431,0.080037
19076000,0.0324,0.013523,0.002678,0.000431,0.105775
19077000,0.0324,0.013523,0.002678,0.000431,0.119526
19078000,0.0324,0.013523,0.002678,0.000431,0.144912
19079000,0.0324,0.013523,0.002678,0.000431,0.138566
19080000,0.0324,0.013523,0.002678,0.000431,0.049714
19081000,0.0324,0.013523,0.002678,0.000431,0.167243
19082000,0.0324,0.013523,0.002678,0.000431,0.154079
19083000,0.0324,0.013523,0.002678,0.000431,0.126108
19084000,0.0324,0.013523,0.002678,0.000431,0.300872
19085000,0.0324,0.013523,0.002678,0.000431,0.184167
19086000,0.0324,0.013523,0.002678,0.000431,0.130339
19087000,0.0324,0.013523,0.002678,0.000431,0.153492
19088000,0.0324,0.013523,0.002678,0.000431,0.097313
19089000,0.0324,0.013523,0.002678,0.000431,0.228475
19090000,0.0324,0.013523,0.002678,0.000431,0.216017
19091000,0.0324,0.013523,0.002678,0.000431,0.225184
19092000,0.0324,0.013523,0.002678,0.000431,0.065698
19093000,0.0324,0.013523,0.002678,0.000431,0.131984
19094000,0.0324,0.013523,0.002678,0.000431,0.234234
19095000,0.0324,0.013523,0.002678,0.000431,0.167008
19096000,0.0324,0.013523,0.002678,0.000431,0.102720
19097000,0.0324,0.013523,0.002678,0.000431,0.137038
19098000,0.0324,0.013523,0.002678,0.000431,0.176645
19099000,0.0324,0.013523,0.002678,0.000431,0.104718
19100000,0.0324,0.013523,0.002678,0.000431,0.059939
19101000,0.0324,0.013523,0.002678,0.000431,0.177938
19102000,0.0324,0.013523,0.002678,0.000431,0.084503
19103000,0.0324,0.013523,0.002678,0.000431,0.123287
19104000,0.0324,0.013523,0.002678,0.000431,0.159603
19105000,0.0324,0.013523,0.002678,0.000431,0.188515
19106000,0.0324,0.013523,0.002678,0.000431,0.157018
19107000,0.0324,0.013523,0.002678,0.000431,0.209318
19108000,0.0324,0.013523,0.002678,0.000431,0.195332
19109000,0.0324,0.013523,0.002678,0.000431,0.216839
19110000,0.0324,0.013523,0.002678,0.000431,0.082740
19111000,0.0324,0.013523,0.002678,0.000431,0.126695
19112000,0.0324,0.013523,0.002678,0.000431,0.046541
19113000,0.0324,0.013523,0.002678,0.000431,0.072867
19114000,0.0324,0.013523,0.002678,0.000431,0.099194
19115000,0.0324,0.013523,0.002678,0.000431,0.154550
19116000,0.0324,0.013523,0.002678,0.000431,0.118233
19117000,0.0324,0.013523,0.002678,0.000431,0.208377
19118000,0.0324,0.013523,0.002678,0.000431,0.182991
19119000,0.0324,0.013523,0.002678,0.000431,0.112710
19120000,0.0324,0.013523,0.002678,0.000431,0.099076
19121000,0.0324,0.013523,0.002678,0.000431,0.142562
19122000,0.0324,0.013523,0.002678,0.000431,0.226712
19123000,0.0324,0.013523,0.002678,0.000431,0.228475
19124000,0.0324,0.013523,0.002678,0.000431,0.107773
19125000,0.0324,0.013523,0.002678,0.000431,0.237760
19126000,0.0324,0.013523,0.002678,0.000431,0.151024
19127000,0.0324,0.013523,0.002678,0.000431,0.069459
19128000,0.0324,0.013523,0.002678,0.000431,0.231060
19129000,0.0324,0.013523,0.002678,0.000431,0.117293
19130000,0.0324,0.013523,0.002678,0.000431,0.133630
19131000,0.0324,0.013523,0.002678,0.000431,0.125755
19132000,0.0324,0.013523,0.002678,0.000431,0.096961
19133000,0.0324,0.013523,0.002678,0.000431,0.078391
19134000,0.0324,0.013523,0.002678,0.000431,0.090262
19135000,0.0324,0.013523,0.002678,0.000431,0.183461
19136000,0.0324,0.013523,0.002678,0.000431,0.076276
19137000,0.0324,0.013523,0.002678,0.000431,0.173824
19138000,0.0324,0.013523,0.002678,0.000431,0.310392
19139000,0.0324,0.013523,0.002678,0.000431,0.098959
19140000,0.0324,0.013523,0.002678,0.000431,0.050302
19141000,0.0324,0.013523,0.002678,0.000431,0.145617
19142000,0.0324,0.013523,0.002678,0.000431,0.117646
19143000,0.0324,0.013523,0.002678,0.000431,0.245986
19144000,0.0324,0.013523,0.002678,0.000431,0.054180
19145000,0.0324,0.013523,0.002678,0.000431,0.174177
19146000,0.0324,0.013523,0.002678,0.000431,0.110476
19147000,0.0324,0.013523,0.002678,0.000431,0.165715
19148000,0.0324,0.013523,0.002678,0.000431,0.107538
19149000,0.0324,0.013523,0.002678,0.000431,0.239052
19150000,0.0324,0.013523,0.002678,0.000431,0.251863
19151000,0.0324,0.013523,0.002678,0.000431,0.158428
19152000,0.0324,0.013523,0.002678,0.000431,0.152787
19153000,0.0324,0.013523,0.002678,0.000431,0.055943
19154000,0.0324,0.013523,0.002678,0.000431,0.302988
19155000,0.0324,0.013523,0.002678,0.000431,0.244106
19156000,0.0324,0.013523,0.002678,0.000431,0.197330
19157000,0.0324,0.013523,0.002678,0.000431,0.241403
19158000,0.0324,0.013523,0.002678,0.000431,0.353172
19159000,0.0324,0.013523,0.002678,0.000431,0.132454
19160000,0.0324,0.013523,0.002678,0.000431,0.125050
19161000,0.0324,0.013523,0.002678,0.000431,0.130221
19162000,0.0324,0.013523,0.002678,0.000431,0.294526
19163000,0.0324,0.013523,0.002678,0.000431,0.128341
19164000,0.0324,0.013523,0.002678,0.000431,0.110476
19165000,0.0324,0.013523,0.002678,0.000431,0.180993
19166000,0.0324,0.013523,0.002678,0.000431,0.145617
19167000,0.0324,0.013523,0.002678,0.000431,0.114120
19168000,0.0324,0.013523,0.002678,0.000431,0.174647
19169000,0.0324,0.013523,0.002678,0.000431,0.301342
19170000,0.0324,0.013523,0.002678,0.000431,0.109066
19171000,0.0324,0.013523,0.002678,0.000431,0.286299
19172000,0.0324,0.013523,0.002678,0.000431,0.117881
19173000,0.0324,0.013523,0.002678,0.000431,0.217780
19174000,0.0324,0.013523,0.002678,0.000431,0.119174
19175000,0.0324,0.013523,0.002678,0.000431,0.146910
19176000,0.0324,0.013523,0.002678,0.000431,0.132219
19177000,0.0324,0.013523,0.002678,0.000431,0.129399
19178000,0.0324,0.013523,0.002678,0.000431,0.105893
19179000,0.0324,0.013523,0.002678,0.000431,0.100487
19180000,0.0324,0.013523,0.002678,0.000431,0.252921
19181000,0.0324,0.013523,0.002678,0.000431,0.092025
19182000,0.0324,0.013523,0.002678,0.000431,0.157723
19183000,0.0324,0.013523,0.002678,0.000431,0.235174
19184000,0.0324,0.013523,0.002678,0.000431,0.162894
19185000,0.0324,0.013523,0.002678,0.000431,0.093787
19186000,0.0324,0.013523,0.002678,0.000431,0.155490
19187000,0.0324,0.013523,0.002678,0.000431,0.160426
19188000,0.0324,0.013523,0.002678,0.000431,0.133747
19189000,0.0324,0.013523,0.002678,0.000431,0.234704
19190000,0.0324,0.013523,0.002678,0.000431,0.193099
19191000,0.0324,0.013523,0.002678,0.000431,0.072985
19192000,0.0324,0.013523,0.002678,0.000431,0.091554
19193000,0.0324,0.013523,0.002678,0.000431,0.136803
19194000,0.0324,0.013523,0.002678,0.000431,0.117176
19195000,0.0324,0.013523,0.002678,0.000431,0.154197
19196000,0.0324,0.013523,0.002678,0.000431,0.129751
19197000,0.0324,0.013523,0.002678,0.000431,0.077686
19198000,0.0324,0.013523,0.002678,0.000431,0.118703
19199000,0.0324,0.013523,0.002678,0.000431,0.238347
19200000,0.0324,0.013523,0.002678,0.000431,0.096138
19201000,0.0324,0.013523,0.002678,0.000431,0.183461
19202000,0.0324,0.013523,0.002678,0.000431,0.204146
19203000,0.0324,0.013523,0.002678,0.000431,0.072867
19204000,0.0324,0.013523,0.002678,0.000431,0.087911
19205000,0.0324,0.013523,0.002678,0.000431,0.144442
19206000,0.0324,0.013523,0.002678,0.000431,0.106245
19207000,0.0324,0.013523,0.002678,0.000431,0.155020
19208000,0.0324,0.013523,0.002678,0.000431,0.337894
19209000,0.0324,0.013523,0.002678,0.000431,0.200386
19210000,0.0324,0.013523,0.002678,0.000431,0.041958
19211000,0.0324,0.013523,0.002678,0.000431,0.128928
19212000,0.0324,0.013523,0.002678,0.000431,0.232706
19213000,0.0324,0.013523,0.002678,0.000431,0.068636
19214000,0.0324,0.013523,0.002678,0.000431,0.247397
19215000,0.0324,0.013523,0.002678,0.000431,0.257387
19216000,0.0324,0.013523,0.002678,0.000431,0.138096
19217000,0.0324,0.013523,0.002678,0.000431,0.106481
19218000,0.0324,0.013523,0.002678,0.000431,0.148438
19219000,0.0324,0.013523,0.002678,0.000431,0.115883
19220000,0.0324,0.013523,0.002678,0.000431,0.137273
19221000,0.0324,0.013523,0.002678,0.000431,0.182404
19222000,0.0324,0.013523,0.002678,0.000431,0.155255
19223000,0.0324,0.013523,0.002678,0.000431,0.101544
19224000,0.0324,0.013523,0.002678,0.000431,0.100487
19225000,0.0324,0.013523,0.002678,0.000431,0.449780
19226000,0.0324,0.013523,0.002678,0.000431,0.248925
19227000,0.0324,0.013523,0.002678,0.000431,0.314035
19228000,0.0324,0.013523,0.002678,0.000431,0.202736
19229000,0.0324,0.013523,0.002678,0.000431,0.123052
19230000,0.0324,0.013523,0.002678,0.000431,0.096726
19231000,0.0324,0.013523,0.002678,0.000431,0.156665
19232000,0.0324,0.013523,0.002678,0.000431,0.210963
19233000,0.0324,0.013523,0.002678,0.000431,0.202971
19234000,0.0324,0.013523,0.002678,0.000431,0.158546
19235000,0.0324,0.013523,0.002678,0.000431,0.095550
19236000,0.0324,0.013523,0.002678,0.000431,0.070399
19237000,0.0324,0.013523,0.002678,0.000431,0.104953
19238000,0.0324,0.013523,0.002678,0.000431,0.179936
19239000,0.0324,0.013523,0.002678,0.000431,0.136685
19240000,0.0324,0.013523,0.002678,0.000431,0.284888
19241000,0.0324,0.013523,0.002678,0.000431,0.134805
19242000,0.0324,0.013523,0.002678,0.000431,0.093435
19243000,0.0324,0.013523,0.002678,0.000431,0.083798
19244000,0.0324,0.013523,0.002678,0.000431,0.242696
19245000,0.0324,0.013523,0.002678,0.000431,0.178643
19246000,0.0324,0.013523,0.002678,0.000431,0.293350
19247000,0.0324,0.013523,0.002678,0.000431,0.202031
19248000,0.0324,0.013523,0.002678,0.000431,0.067814
19249000,0.0324,0.013523,0.002678,0.000431,0.037609
19250000,0.0324,0.013523,0.002678,0.000431,0.105305
19251000,0.0324,0.013523,0.002678,0.000431,0.237289
19252000,0.0324,0.013523,0.002678,0.000431,0.210140
19253000,0.0324,0.013523,0.002678,0.000431,0.288062
19254000,0.0324,0.013523,0.002678,0.000431,0.163129
19255000,0.0324,0.013523,0.002678,0.000431,0.046424
19256000,0.0324,0.013523,0.002678,0.000431,0.063700
19257000,0.0324,0.013523,0.002678,0.000431,0.191924
19258000,0.0324,0.013523,0.002678,0.000431,0.248572
19259000,0.0324,0.013523,0.002678,0.000431,0.294996
19260000,0.0324,0.013523,0.002678,0.000431,0.205674
19261000,0.0324,0.013523,0.002678,0.000431,0.153374
19262000,0.0324,0.013523,0.002678,0.000431,0.215899
19263000,0.0324,0.013523,0.002678,0.000431,0.295818
19264000,0.0324,0.013523,0.002678,0.000431,0.137038
19265000,0.0324,0.013523,0.002678,0.000431,0.280305
19266000,0.0324,0.013523,0.002678,0.000431,0.263498
19267000,0.0324,0.013523,0.002678,0.000431,0.113650
19268000,0.0324,0.013523,0.002678,0.000431,0.047951
19269000,0.0324,0.013523,0.002678,0.000431,0.084973
19270000,0.0324,0.013523,0.002678,0.000431,0.284653
19271000,0.0324,0.013523,0.002678,0.000431,0.125520
19272000,0.0324,0.013523,0.002678,0.000431,0.144090
19273000,0.0324,0.013523,0.002678,0.000431,0.085678
19274000,0.0324,0.013523,0.002678,0.000431,0.144325
19275000,0.0324,0.013523,0.002678,0.000431,0.064876
19276000,0.0324,0.013523,0.002678,0.000431,0.224479
19277000,0.0324,0.013523,0.002678,0.000431,0.102602
19278000,0.0324,0.013523,0.002678,0.000431,0.142679
19279000,0.0324,0.013523,0.002678,0.000431,0.174529
19280000,0.0324,0.013523,0.002678,0.000431,0.057354
19281000,0.0324,0.013523,0.002678,0.000431,0.057706
19282000,0.0324,0.013523,0.002678,0.000431,0.100134
19283000,0.0324,0.013523,0.002678,0.000431,0.127988
19284000,0.0324,0.013523,0.002678,0.000431,0.136215
19285000,0.0324,0.013523,0.002678,0.000431,0.152552
19286000,0.0324,0.013523,0.002678,0.000431,0.091319
19287000,0.0324,0.013523,0.002678,0.000431,0.039019
19288000,0.0324,0.013523,0.002678,0.000431,0.097901
19289000,0.0324,0.013523,0.002678,0.000431,0.264791
19290000,0.0324,0.013523,0.002678,0.000431,0.270197
19291000,0.0324,0.013523,0.002678,0.000431,0.175470
19292000,0.0324,0.013523,0.002678,0.000431,0.221423
19293000,0.0324,0.013523,0.002678,0.000431,0.117881
19294000,0.0324,0.013523,0.002678,0.000431,0.087323
19295000,0.0324,0.013523,0.002678,0.000431,0.214136
19296000,0.0324,0.013523,0.002678,0.000431,0.332605
19297000,0.0324,0.013523,0.002678,0.000431,0.365748
19298000,0.0324,0.013523,0.002678,0.000431,0.174882
19299000,0.0324,0.013523,0.002678,0.000431,0.079919
19300000,0.0324,0.013523,0.002678,0.000431,0.042780
19301000,0.0324,0.013523,0.002678,0.000431,0.120936
19302000,0.0324,0.013523,0.002678,0.000431,0.218955
19303000,0.0324,0.013523,0.002678,0.000431,0.195214
19304000,0.0324,0.013523,0.002678,0.000431,0.289824
19305000,0.0324,0.013523,0.002678,0.000431,0.196977
19306000,0.0324,0.013523,0.002678,0.000431,0.045954
19307000,0.0324,0.013523,0.002678,0.000431,0.185577
19308000,0.0324,0.013523,0.002678,0.000431,0.057589
19309000,0.0324,0.013523,0.002678,0.000431,0.148908
19310000,0.0324,0.013523,0.002678,0.000431,0.247279
19311000,0.0324,0.013523,0.002678,0.000431,0.257504
19312000,0.0324,0.013523,0.002678,0.000431,0.081565
19313000,0.0324,0.013523,0.002678,0.000431,0.061585
19314000,0.0324,0.013523,0.002678,0.000431,0.099546
19315000,0.0324,0.013523,0.002678,0.000431,0.216722
19316000,0.0324,0.013523,0.002678,0.000431,0.270197
19317000,0.0324,0.013523,0.002678,0.000431,0.268199
19318000,0.0324,0.013523,0.002678,0.000431,0.193334
19319000,0.0324,0.013523,0.002678,0.000431,0.042780
19320000,0.0324,0.013523,0.002678,0.000431,0.114237
19321000,0.0324,0.013523,0.002678,0.000431,0.114355
19322000,0.0324,0.013523,0.002678,0.000431,0.194979
19323000,0.0324,0.013523,0.002678,0.000431,0.220483
19324000,0.0324,0.013523,0.002678,0.000431,0.275721
19325000,0.0324,0.013523,0.002678,0.000431,0.198388
19326000,0.0324,0.013523,0.002678,0.000431,0.158898
19327000,0.0324,0.013523,0.002678,0.000431,0.099076
19328000,0.0324,0.013523,0.002678,0.000431,0.163482
19329000,0.0324,0.013523,0.002678,0.000431,0.053945
19330000,0.0324,0.013523,0.002678,0.000431,0.245046
19331000,0.0324,0.013523,0.002678,0.000431,0.126578
19332000,0.0324,0.013523,0.002678,0.000431,0.105423
19333000,0.0324,0.013523,0.002678,0.000431,0.072985
19334000,0.0324,0.013523,0.002678,0.000431,0.245869
19335000,0.0324,0.013523,0.002678,0.000431,0.153962
19336000,0.0324,0.013523,0.002678,0.000431,0.309099
19337000,0.0324,0.013523,0.002678,0.000431,0.163482
19338000,0.0324,0.013523,0.002678,0.000431,0.072867
19339000,0.0324,0.013523,0.002678,0.000431,0.038667
19340000,0.0324,0.013523,0.002678,0.000431,0.131867
19341000,0.0324,0.013523,0.002678,0.000431,0.220248
19342000,0.0324,0.013523,0.002678,0.000431,0.091319
19343000,0.0324,0.013523,0.002678,0.000431,0.263851
19344000,0.0324,0.013523,0.002678,0.000431,0.120936
19345000,0.0324,0.013523,0.002678,0.000431,0.154197
19346000,0.0324,0.013523,0.002678,0.000431,0.087911
19347000,0.0324,0.013523,0.002678,0.000431,0.254449
19348000,0.0324,0.013523,0.002678,0.000431,0.169828
19349000,0.0324,0.013523,0.002678,0.000431,0.138331
19350000,0.0324,0.013523,0.002678,0.000431,0.170533
19351000,0.0324,0.013523,0.002678,0.000431,0.158663
19352000,0.0324,0.013523,0.002678,0.000431,0.226594
19353000,0.0324,0.013523,0.002678,0.000431,0.068989
19354000,0.0324,0.013523,0.002678,0.000431,0.193216
19355000,0.0324,0.013523,0.002678,0.000431,0.307806
19356000,0.0324,0.013523,0.002678,0.000431,0.105188
19357000,0.0324,0.013523,0.002678,0.000431,0.080272
19358000,0.0324,0.013523,0.002678,0.000431,0.110476
19359000,0.0324,0.013523,0.002678,0.000431,0.166890
19360000,0.0324,0.013523,0.002678,0.000431,0.180523
19361000,0.0324,0.013523,0.002678,0.000431,0.211903
19362000,0.0324,0.013523,0.002678,0.000431,0.348236
19363000,0.0324,0.013523,0.002678,0.000431,0.106128
19364000,0.0324,0.013523,0.002678,0.000431,0.181816
19365000,0.0324,0.013523,0.002678,0.000431,0.161954
19366000,0.0324,0.013523,0.002678,0.000431,0.073808
19367000,0.0324,0.013523,0.002678,0.000431,0.199798
19368000,0.0324,0.013523,0.002678,0.000431,0.122934
19369000,0.0324,0.013523,0.002678,0.000431,0.122112
19370000,0.0324,0.013523,0.002678,0.000431,0.076746
19371000,0.0324,0.013523,0.002678,0.000431,0.087676
19372000,0.0324,0.013523,0.002678,0.000431,0.106951
19373000,0.0324,0.013523,0.002678,0.000431,0.152669
19374000,0.0324,0.013523,0.002678,0.000431,0.134805
19375000,0.0324,0.013523,0.002678,0.000431,0.150906
19376000,0.0324,0.013523,0.002678,0.000431,0.172531
19377000,0.0324,0.013523,0.002678,0.000431,0.079802
19378000,0.0324,0.013523,0.002678,0.000431,0.140094
19379000,0.0324,0.013523,0.002678,0.000431,0.072867
19380000,0.0324,0.013523,0.002678,0.000431,0.183932
19381000,0.0324,0.013523,0.002678,0.000431,0.147733
19382000,0.0324,0.013523,0.002678,0.000431,0.076276
19383000,0.0324,0.013523,0.002678,0.000431,0.115530
19384000,0.0324,0.013523,0.002678,0.000431,0.186635
19385000,0.0324,0.013523,0.002678,0.000431,0.138566
19386000,0.0324,0.013523,0.002678,0.000431,0.147968
19387000,0.0324,0.013523,0.002678,0.000431,0.194744
19388000,0.0324,0.013523,0.002678,0.000431,0.100134
19389000,0.0324,0.013523,0.002678,0.000431,0.108714
19390000,0.0324,0.013523,0.002678,0.000431,0.098841
19391000,0.0324,0.013523,0.002678,0.000431,0.057824
19392000,0.0324,0.013523,0.002678,0.000431,0.145265
19393000,0.0324,0.013523,0.002678,0.000431,0.240933
19394000,0.0324,0.013523,0.002678,0.000431,0.134217
19395000,0.0324,0.013523,0.002678,0.000431,0.301930
19396000,0.0324,0.013523,0.002678,0.000431,0.109301
19397000,0.0324,0.013523,0.002678,0.000431,0.220953
19398000,0.0324,0.013523,0.002678,0.000431,0.081212
19399000,0.0324,0.013523,0.002678,0.000431,0.164069
19400000,0.0324,0.013523,0.002678,0.000431,0.145735
19401000,0.0324,0.013523,0.002678,0.000431,0.260678
19402000,0.0324,0.013523,0.002678,0.000431,0.223774
19403000,0.0324,0.013523,0.002678,0.000431,0.118116
19404000,0.0324,0.013523,0.002678,0.000431,0.110594
19405000,0.0324,0.013523,0.002678,0.000431,0.100134
19406000,0.0324,0.013523,0.002678,0.000431,0.323320
19407000,0.0324,0.013523,0.002678,0.000431,0.100722
19408000,0.0324,0.013523,0.002678,0.000431,0.108243
19409000,0.0324,0.013523,0.002678,0.000431,0.136920
19410000,0.0324,0.013523,0.002678,0.000431,0.065346
19411000,0.0324,0.013523,0.002678,0.000431,0.051007
19412000,0.0324,0.013523,0.002678,0.000431,0.218602
19413000,0.0324,0.013523,0.002678,0.000431,0.187340
19414000,0.0324,0.013523,0.002678,0.000431,0.100252
19415000,0.0324,0.013523,0.002678,0.000431,0.197447
19416000,0.0324,0.013523,0.002678,0.000431,0.057471
19417000,0.0324,0.013523,0.002678,0.000431,0.095315
19418000,0.0324,0.013523,0.002678,0.000431,0.142797
19419000,0.0324,0.013523,0.002678,0.000431,0.272548
19420000,0.0324,0.013523,0.002678,0.000431,0.166185
19421000,0.0324,0.013523,0.002678,0.000431,0.254449
19422000,0.0324,0.013523,0.002678,0.000431,0.069107
19423000,0.0324,0.013523,0.002678,0.000431,0.117646
19424000,0.0324,0.013523,0.002678,0.000431,0.042898
19425000,0.0324,0.013523,0.002678,0.000431,0.080389
19426000,0.0324,0.013523,0.002678,0.000431,0.234469
19427000,0.0324,0.013523,0.002678,0.000431,0.138448
19428000,0.0324,0.013523,0.002678,0.000431,0.096256
19429000,0.0324,0.013523,0.002678,0.000431,0.092965
19430000,0.0324,0.013523,0.002678,0.000431,0.287121
19431000,0.0324,0.013523,0.002678,0.000431,0.131514
19432000,0.0324,0.013523,0.002678,0.000431,0.073573
19433000,0.0324,0.013523,0.002678,0.000431,0.129634
19434000,0.0324,0.013523,0.002678,0.000431,0.133982
19435000,0.0324,0.013523,0.002678,0.000431,0.087558
19436000,0.0324,0.013523,0.002678,0.000431,0.102837
19437000,0.0324,0.013523,0.002678,0.000431,0.133042
19438000,0.0324,0.013523,0.002678,0.000431,0.295466
19439000,0.0324,0.013523,0.002678,0.000431,0.180406
19440000,0.0324,0.013523,0.002678,0.000431,0.126343
19441000,0.0324,0.013523,0.002678,0.000431,0.144442
19442000,0.0324,0.013523,0.002678,0.000431,0.082505
19443000,0.0324,0.013523,0.002678,0.000431,0.157723
19444000,0.0324,0.013523,0.002678,0.000431,0.104600
19445000,0.0324,0.013523,0.002678,0.000431,0.227770
19446000,0.0324,0.013523,0.002678,0.000431,0.100957
19447000,0.0324,0.013523,0.002678,0.000431,0.099076
19448000,0.0324,0.013523,0.002678,0.000431,0.095315
19449000,0.0324,0.013523,0.002678,0.000431,0.061467
19450000,0.0324,0.013523,0.002678,0.000431,0.132807
19451000,0.0324,0.013523,0.002678,0.000431,0.425687
19452000,0.0324,0.013523,0.002678,0.000431,0.134100
19453000,0.0324,0.013523,0.002678,0.000431,0.091907
19454000,0.0324,0.013523,0.002678,0.000431,0.125755
19455000,0.0324,0.013523,0.002678,0.000431,0.038784
19456000,0.0324,0.013523,0.002678,0.000431,0.066638
19457000,0.0324,0.013523,0.002678,0.000431,0.195097
19458000,0.0324,0.013523,0.002678,0.000431,0.171591
19459000,0.0324,0.013523,0.002678,0.000431,0.180993
19460000,0.0324,0.013523,0.002678,0.000431,0.089556
19461000,0.0324,0.013523,0.002678,0.000431,0.127518
19462000,0.0324,0.013523,0.002678,0.000431,0.091672
19463000,0.0324,0.013523,0.002678,0.000431,0.060997
19464000,0.0324,0.013523,0.002678,0.000431,0.118233
19465000,0.0324,0.013523,0.002678,0.000431,0.186282
19466000,0.0324,0.013523,0.002678,0.000431,0.266319
19467000,0.0324,0.013523,0.002678,0.000431,0.202384
19468000,0.0324,0.013523,0.002678,0.000431,0.065346
19469000,0.0324,0.013523,0.002678,0.000431,0.065228
19470000,0.0324,0.013523,0.002678,0.000431,0.154667
19471000,0.0324,0.013523,0.002678,0.000431,0.233411
19472000,0.0324,0.013523,0.002678,0.000431,0.200621
19473000,0.0324,0.013523,0.002678,0.000431,0.200503
19474000,0.0324,0.013523,0.002678,0.000431,0.092025
19475000,0.0324,0.013523,0.002678,0.000431,0.150554
19476000,0.0324,0.013523,0.002678,0.000431,0.115883
19477000,0.0324,0.013523,0.002678,0.000431,0.167243
19478000,0.0324,0.013523,0.002678,0.000431,0.097431
19479000,0.0324,0.013523,0.002678,0.000431,0.177585
19480000,0.0324,0.013523,0.002678,0.000431,0.115765
19481000,0.0324,0.013523,0.002678,0.000431,0.108479
19482000,0.0324,0.013523,0.002678,0.000431,0.182051
19483000,0.0324,0.013523,0.002678,0.000431,0.116000
19484000,0.0324,0.013523,0.002678,0.000431,0.170416
19485000,0.0324,0.013523,0.002678,0.000431,0.117646
19486000,0.0324,0.013523,0.002678,0.000431,0.171121
19487000,0.0324,0.013523,0.002678,0.000431,0.055121
19488000,0.0324,0.013523,0.002678,0.000431,0.225537
19489000,0.0324,0.013523,0.002678,0.000431,0.096843
19490000,0.0324,0.013523,0.002678,0.000431,0.184989
19491000,0.0324,0.013523,0.002678,0.000431,0.189455
19492000,0.0324,0.013523,0.002678,0.000431,0.157958
19493000,0.0324,0.013523,0.002678,0.000431,0.146205
19494000,0.0324,0.013523,0.002678,0.000431,0.114237
19495000,0.0324,0.013523,0.002678,0.000431,0.080154
19496000,0.0324,0.013523,0.002678,0.000431,0.163012
19497000,0.0324,0.013523,0.002678,0.000431,0.057706
19498000,0.0324,0.013523,0.002678,0.000431,0.240228
19499000,0.0324,0.013523,0.002678,0.000431,0.211198
19500000,0.0324,0.013523,0.002678,0.000431,0.072280
19501000,0.0324,0.013523,0.002678,0.000431,0.068872
19502000,0.0324,0.013523,0.002678,0.000431,0.052065
19503000,0.0324,0.013523,0.002678,0.000431,0.173354
19504000,0.0324,0.013523,0.002678,0.000431,0.178760
19505000,0.0324,0.013523,0.002678,0.000431,0.141034
19506000,0.0324,0.013523,0.002678,0.000431,0.097901
19507000,0.0324,0.013523,0.002678,0.000431,0.154432
19508000,0.0324,0.013523,0.002678,0.000431,0.222598
19509000,0.0324,0.013523,0.002678,0.000431,0.149966
19510000,0.0324,0.013523,0.002678,0.000431,0.073220
19511000,0.0324,0.013523,0.002678,0.000431,0.083798
19512000,0.0324,0.013523,0.002678,0.000431,0.091672
19513000,0.0324,0.013523,0.002678,0.000431,0.136568
19514000,0.0324,0.013523,0.002678,0.000431,0.115648
19515000,0.0324,0.013523,0.002678,0.000431,0.147498
19516000,0.0324,0.013523,0.002678,0.000431,0.178643
19517000,0.0324,0.013523,0.002678,0.000431,0.268199
19518000,0.0324,0.013523,0.002678,0.000431,0.124110
19519000,0.0324,0.013523,0.002678,0.000431,0.091672
19520000,0.0324,0.013523,0.002678,0.000431,0.124462
19521000,0.0324,0.013523,0.002678,0.000431,0.144560
19522000,0.0324,0.013523,0.002678,0.000431,0.178643
19523000,0.0324,0.013523,0.002678,0.000431,0.101897
19524000,0.0324,0.013523,0.002678,0.000431,0.205674
19525000,0.0324,0.013523,0.002678,0.000431,0.075571
19526000,0.0324,0.013523,0.002678,0.000431,0.048892
19527000,0.0324,0.013523,0.002678,0.000431,0.142679
19528000,0.0324,0.013523,0.002678,0.000431,0.146910
19529000,0.0324,0.013523,0.002678,0.000431,0.134217
19530000,0.0324,0.013523,0.002678,0.000431,0.211551
19531000,0.0324,0.013523,0.002678,0.000431,0.178408
19532000,0.0324,0.013523,0.002678,0.000431,0.123875
19533000,0.0324,0.013523,0.002678,0.000431,0.114120
19534000,0.0324,0.013523,0.002678,0.000431,0.129399
19535000,0.0324,0.013523,0.002678,0.000431,0.065111
19536000,0.0324,0.013523,0.002678,0.000431,0.230355
19537000,0.0324,0.013523,0.002678,0.000431,0.152317
19538000,0.0324,0.013523,0.002678,0.000431,0.239522
19539000,0.0324,0.013523,0.002678,0.000431,0.146675
19540000,0.0324,0.013523,0.002678,0.000431,0.091437
19541000,0.0324,0.013523,0.002678,0.000431,0.125520
19542000,0.0324,0.013523,0.002678,0.000431,0.247984
19543000,0.0324,0.013523,0.002678,0.000431,0.124110
19544000,0.0324,0.013523,0.002678,0.000431,0.181699
19545000,0.0324,0.013523,0.002678,0.000431,0.214959
19546000,0.0324,0.013523,0.002678,0.000431,0.106598
19547000,0.0324,0.013523,0.002678,0.000431,0.145382
19548000,0.0324,0.013523,0.002678,0.000431,0.094845
19549000,0.0324,0.013523,0.002678,0.000431,0.086618
19550000,0.0324,0.013523,0.002678,0.000431,0.054180
19551000,0.0324,0.013523,0.002678,0.000431,0.062055
19552000,0.0324,0.013523,0.002678,0.000431,0.253508
19553000,0.0324,0.013523,0.002678,0.000431,0.295936
19554000,0.0324,0.013523,0.002678,0.000431,0.222011
19555000,0.0324,0.013523,0.002678,0.000431,0.118116
19556000,0.0324,0.013523,0.002678,0.000431,0.065228
19557000,0.0324,0.013523,0.002678,0.000431,0.065111
19558000,0.0324,0.013523,0.002678,0.000431,0.110476
19559000,0.0324,0.013523,0.002678,0.000431,0.123287
19560000,0.0324,0.013523,0.002678,0.000431,0.236702
19561000,0.0324,0.013523,0.002678,0.000431,0.211903
19562000,0.0324,0.013523,0.002678,0.000431,0.080154
19563000,0.0324,0.013523,0.002678,0.000431,0.088851
19564000,0.0324,0.013523,0.002678,0.000431,0.087206
19565000,0.0324,0.013523,0.002678,0.000431,0.138448
19566000,0.0324,0.013523,0.002678,0.000431,0.110359
19567000,0.0324,0.013523,0.002678,0.000431,0.116235
19568000,0.0324,0.013523,0.002678,0.000431,0.112474
19569000,0.0324,0.013523,0.002678,0.000431,0.067109
19570000,0.0324,0.013523,0.002678,0.000431,0.056531
19571000,0.0324,0.013523,0.002678,0.000431,0.081447
19572000,0.0324,0.013523,0.002678,0.000431,0.235644
19573000,0.0324,0.013523,0.002678,0.000431,0.097901
19574000,0.0324,0.013523,0.002678,0.000431,0.208260
19575000,0.0324,0.013523,0.002678,0.000431,0.208025
19576000,0.0324,0.013523,0.002678,0.000431,0.051712
19577000,0.0324,0.013523,0.002678,0.000431,0.146205
19578000,0.0324,0.013523,0.002678,0.000431,0.135863
19579000,0.0324,0.013523,0.002678,0.000431,0.173824
19580000,0.0324,0.013523,0.002678,0.000431,0.196390
19581000,0.0324,0.013523,0.002678,0.000431,0.185107
19582000,0.0324,0.013523,0.002678,0.000431,0.070399
19583000,0.0324,0.013523,0.002678,0.000431,0.117293
19584000,0.0324,0.013523,0.002678,0.000431,0.070752
19585000,0.0324,0.013523,0.002678,0.000431,0.129046
19586000,0.0324,0.013523,0.002678,0.000431,0.155137
19587000,0.0324,0.013523,0.002678,0.000431,0.138096
19588000,0.0324,0.013523,0.002678,0.000431,0.150789
19589000,0.0324,0.013523,0.002678,0.000431,0.084503
19590000,0.0324,0.013523,0.002678,0.000431,0.196155
19591000,0.0324,0.013523,0.002678,0.000431,0.137038
19592000,0.0324,0.013523,0.002678,0.000431,0.065111
19593000,0.0324,0.013523,0.002678,0.000431,0.084620
19594000,0.0324,0.013523,0.002678,0.000431,0.136685
19595000,0.0324,0.013523,0.002678,0.000431,0.055121
19596000,0.0324,0.013523,0.002678,0.000431,0.133982
19597000,0.0324,0.013523,0.002678,0.000431,0.114590
19598000,0.0324,0.013523,0.002678,0.000431,0.149848
19599000,0.0324,0.013523,0.002678,0.000431,0.084033
19600000,0.0324,0.013523,0.002678,0.000431,0.174999
19601000,0.0324,0.013523,0.002678,0.000431,0.093670
19602000,0.0324,0.013523,0.002678,0.000431,0.108008
19603000,0.0324,0.013523,0.002678,0.000431,0.146910
19604000,0.0324,0.013523,0.002678,0.000431,0.168653
19605000,0.0324,0.013523,0.002678,0.000431,0.075571
19606000,0.0324,0.013523,0.002678,0.000431,0.105893
19607000,0.0324,0.013523,0.002678,0.000431,0.065228
19608000,0.0324,0.013523,0.002678,0.000431,0.064405
19609000,0.0324,0.013523,0.002678,0.000431,0.126460
19610000,0.0324,0.013523,0.002678,0.000431,0.148438
19611000,0.0324,0.013523,0.002678,0.000431,0.117646
19612000,0.0324,0.013523,0.002678,0.000431,0.149378
19613000,0.0324,0.013523,0.002678,0.000431,0.145265
19614000,0.0324,0.013523,0.002678,0.000431,0.051830
19615000,0.0324,0.013523,0.002678,0.000431,0.117881
19616000,0.0324,0.013523,0.002678,0.000431,0.219660
19617000,0.0324,0.013523,0.002678,0.000431,0.259972
19618000,0.0324,0.013523,0.002678,0.000431,0.081212
19619000,0.0324,0.013523,0.002678,0.000431,0.202384
19620000,0.0324,0.013523,0.002678,0.000431,0.088029
19621000,0.0324,0.013523,0.002678,0.000431,0.123522
19622000,0.0324,0.013523,0.002678,0.000431,0.180641
19623000,0.0324,0.013523,0.002678,0.000431,0.170298
19624000,0.0324,0.013523,0.002678,0.000431,0.098371
19625000,0.0324,0.013523,0.002678,0.000431,0.115178
19626000,0.0324,0.013523,0.002678,0.000431,0.201443
19627000,0.0324,0.013523,0.002678,0.000431,0.051477
19628000,0.0324,0.013523,0.002678,0.000431,0.153727
19629000,0.0324,0.013523,0.002678,0.000431,0.175822
19630000,0.0324,0.013523,0.002678,0.000431,0.105775
19631000,0.0324,0.013523,0.002678,0.000431,0.084150
19632000,0.0324,0.013523,0.002678,0.000431,0.215547
19633000,0.0324,0.013523,0.002678,0.000431,0.076393
19634000,0.0324,0.013523,0.002678,0.000431,0.103190
19635000,0.0324,0.013523,0.002678,0.000431,0.182051
19636000,0.0324,0.013523,0.002678,0.000431,0.270550
19637000,0.0324,0.013523,0.002678,0.000431,0.092965
19638000,0.0324,0.013523,0.002678,0.000431,0.125990
19639000,0.0324,0.013523,0.002678,0.000431,0.124110
19640000,0.0324,0.013523,0.002678,0.000431,0.057119
19641000,0.0324,0.013523,0.002678,0.000431,0.121289
19642000,0.0324,0.013523,0.002678,0.000431,0.155842
19643000,0.0324,0.013523,0.002678,0.000431,0.178173
19644000,0.0324,0.013523,0.002678,0.000431,0.057941
19645000,0.0324,0.013523,0.002678,0.000431,0.305926
19646000,0.0324,0.013523,0.002678,0.000431,0.099429
19647000,0.0324,0.013523,0.002678,0.000431,0.177820
19648000,0.0324,0.013523,0.002678,0.000431,0.177585
19649000,0.0324,0.013523,0.002678,0.000431,0.146910
19650000,0.0324,0.013523,0.002678,0.000431,0.060997
19651000,0.0324,0.013523,0.002678,0.000431,0.160661
19652000,0.0324,0.013523,0.002678,0.000431,0.154902
19653000,0.0324,0.013523,0.002678,0.000431,0.071927
19654000,0.0324,0.013523,0.002678,0.000431,0.101074
19655000,0.0324,0.013523,0.002678,0.000431,0.074983
19656000,0.0324,0.013523,0.002678,0.000431,0.111182
19657000,0.0324,0.013523,0.002678,0.000431,0.127165
19658000,0.0324,0.013523,0.002678,0.000431,0.228945
19659000,0.0324,0.013523,0.002678,0.000431,0.088616
19660000,0.0324,0.013523,0.002678,0.000431,0.167360
19661000,0.0324,0.013523,0.002678,0.000431,0.136333
19662000,0.0324,0.013523,0.002678,0.000431,0.047246
19663000,0.0324,0.013523,0.002678,0.000431,0.080154
19664000,0.0324,0.013523,0.002678,0.000431,0.104130
19665000,0.0324,0.013523,0.002678,0.000431,0.095903
19666000,0.0324,0.013523,0.002678,0.000431,0.050420
19667000,0.0324,0.013523,0.002678,0.000431,0.068872
19668000,0.0324,0.013523,0.002678,0.000431,0.087558
19669000,0.0324,0.013523,0.002678,0.000431,0.264556
19670000,0.0324,0.013523,0.002678,0.000431,0.100839
19671000,0.0324,0.013523,0.002678,0.000431,0.145852
19672000,0.0324,0.013523,0.002678,0.000431,0.159016
19673000,0.0324,0.013523,0.002678,0.000431,0.079332
19674000,0.0324,0.013523,0.002678,0.000431,0.184049
19675000,0.0324,0.013523,0.002678,0.000431,0.296876
19676000,0.0324,0.013523,0.002678,0.000431,0.121289
19677000,0.0324,0.013523,0.002678,0.000431,0.160308
19678000,0.0324,0.013523,0.002678,0.000431,0.353525
19679000,0.0324,0.013523,0.002678,0.000431,0.138096
19680000,0.0324,0.013523,0.002678,0.000431,0.253508
19681000,0.0324,0.013523,0.002678,0.000431,0.154667
19682000,0.0324,0.013523,0.002678,0.000431,0.078509
19683000,0.0324,0.013523,0.002678,0.000431,0.228945
19684000,0.0324,0.013523,0.002678,0.000431,0.054768
19685000,0.0324,0.013523,0.002678,0.000431,0.109419
19686000,0.0324,0.013523,0.002678,0.000431,0.171121
19687000,0.0324,0.013523,0.002678,0.000431,0.053123
19688000,0.0324,0.013523,0.002678,0.000431,0.057941
19689000,0.0324,0.013523,0.002678,0.000431,0.078861
19690000,0.0324,0.013523,0.002678,0.000431,0.292998
19691000,0.0324,0.013523,0.002678,0.000431,0.139623
19692000,0.0324,0.013523,0.002678,0.000431,0.066521
19693000,0.0324,0.013523,0.002678,0.000431,0.065581
19694000,0.0324,0.013523,0.002678,0.000431,0.069342
19695000,0.0324,0.013523,0.002678,0.000431,0.083445
19696000,0.0324,0.013523,0.002678,0.000431,0.165480
19697000,0.0324,0.013523,0.002678,0.000431,0.044191
19698000,0.0324,0.013523,0.002678,0.000431,0.088381
19699000,0.0324,0.013523,0.002678,0.000431,0.212021
19700000,0.0324,0.013523,0.002678,0.000431,0.132689
19701000,0.0324,0.013523,0.002678,0.000431,0.129163
19702000,0.0324,0.013523,0.002678,0.000431,0.087676
19703000,0.0324,0.013523,0.002678,0.000431,0.188280
19704000,0.0324,0.013523,0.002678,0.000431,0.134922
19705000,0.0324,0.013523,0.002678,0.000431,0.146675
19706000,0.0324,0.013523,0.002678,0.000431,0.136098
19707000,0.0324,0.013523,0.002678,0.000431,0.144560
19708000,0.0324,0.013523,0.002678,0.000431,0.202619
19709000,0.0324,0.013523,0.002678,0.000431,0.228240
19710000,0.0324,0.013523,0.002678,0.000431,0.117528
19711000,0.0324,0.013523,0.002678,0.000431,0.245869
19712000,0.0324,0.013523,0.002678,0.000431,0.166772
19713000,0.0324,0.013523,0.002678,0.000431,0.140446
19714000,0.0324,0.013523,0.002678,0.000431,0.083915
19715000,0.0324,0.013523,0.002678,0.000431,0.191336
19716000,0.0324,0.013523,0.002678,0.000431,0.090262
19717000,0.0324,0.013523,0.002678,0.000431,0.080037
19718000,0.0324,0.013523,0.002678,0.000431,0.247867
19719000,0.0324,0.013523,0.002678,0.000431,0.186752
19720000,0.0324,0.013523,0.002678,0.000431,0.106833
19721000,0.0324,0.013523,0.002678,0.000431,0.114237
19722000,0.0324,0.013523,0.002678,0.000431,0.145147
19723000,0.0324,0.013523,0.002678,0.000431,0.072515
19724000,0.0324,0.013523,0.002678,0.000431,0.148321
19725000,0.0324,0.013523,0.002678,0.000431,0.132572
19726000,0.0324,0.013523,0.002678,0.000431,0.118703
19727000,0.0324,0.013523,0.002678,0.000431,0.110712
19728000,0.0324,0.013523,0.002678,0.000431,0.208260
19729000,0.0324,0.013523,0.002678,0.000431,0.205322
19730000,0.0324,0.013523,0.002678,0.000431,0.170533
19731000,0.0324,0.013523,0.002678,0.000431,0.163952
19732000,0.0324,0.013523,0.002678,0.000431,0.208495
19733000,0.0324,0.013523,0.002678,0.000431,0.154197
19734000,0.0324,0.013523,0.002678,0.000431,0.168418
19735000,0.0324,0.013523,0.002678,0.000431,0.155725
19736000,0.0324,0.013523,0.002678,0.000431,0.139271
19737000,0.0324,0.013523,0.002678,0.000431,0.102955
19738000,0.0324,0.013523,0.002678,0.000431,0.147615
19739000,0.0324,0.013523,0.002678,0.000431,0.144442
19740000,0.0324,0.013523,0.002678,0.000431,0.054063
19741000,0.0324,0.013523,0.002678,0.000431,0.171709
19742000,0.0324,0.013523,0.002678,0.000431,0.216017
19743000,0.0324,0.013523,0.002678,0.000431,0.071457
19744000,0.0324,0.013523,0.002678,0.000431,0.077569
19745000,0.0324,0.013523,0.002678,0.000431,0.301460
19746000,0.0324,0.013523,0.002678,0.000431,0.088264
19747000,0.0324,0.013523,0.002678,0.000431,0.091319
19748000,0.0324,0.013523,0.002678,0.000431,0.068754
19749000,0.0324,0.013523,0.002678,0.000431,0.129516
19750000,0.0324,0.013523,0.002678,0.000431,0.143854
19751000,0.0324,0.013523,0.002678,0.000431,0.128458
19752000,0.0324,0.013523,0.002678,0.000431,0.164422
19753000,0.0324,0.013523,0.002678,0.000431,0.093435
19754000,0.0324,0.013523,0.002678,0.000431,0.280422
19755000,0.0324,0.013523,0.002678,0.000431,0.185812
19756000,0.0324,0.013523,0.002678,0.000431,0.125520
19757000,0.0324,0.013523,0.002678,0.000431,0.112122
19758000,0.0324,0.013523,0.002678,0.000431,0.131279
19759000,0.0324,0.013523,0.002678,0.000431,0.118116
19760000,0.0324,0.013523,0.002678,0.000431,0.136215
19761000,0.0324,0.013523,0.002678,0.000431,0.160191
19762000,0.0324,0.013523,0.002678,0.000431,0.095785
19763000,0.0324,0.013523,0.002678,0.000431,0.087794
19764000,0.0324,0.013523,0.002678,0.000431,0.140211
19765000,0.0324,0.013523,0.002678,0.000431,0.206615
19766000,0.0324,0.013523,0.002678,0.000431,0.193922
19767000,0.0324,0.013523,0.002678,0.000431,0.289237
19768000,0.0324,0.013523,0.002678,0.000431,0.075923
19769000,0.0324,0.013523,0.002678,0.000431,0.103425
19770000,0.0324,0.013523,0.002678,0.000431,0.204969
19771000,0.0324,0.013523,0.002678,0.000431,0.120819
19772000,0.0324,0.013523,0.002678,0.000431,0.275016
19773000,0.0324,0.013523,0.002678,0.000431,0.149731
19774000,0.0324,0.013523,0.002678,0.000431,0.136920
19775000,0.0324,0.013523,0.002678,0.000431,0.109184
19776000,0.0324,0.013523,0.002678,0.000431,0.082152
19777000,0.0324,0.013523,0.002678,0.000431,0.139976
19778000,0.0324,0.013523,0.002678,0.000431,0.136215
19779000,0.0324,0.013523,0.002678,0.000431,0.043368
19780000,0.0324,0.013523,0.002678,0.000431,0.319559
19781000,0.0324,0.013523,0.002678,0.000431,0.068636
19782000,0.0324,0.013523,0.002678,0.000431,0.105775
19783000,0.0324,0.013523,0.002678,0.000431,0.225654
19784000,0.0324,0.013523,0.002678,0.000431,0.148908
19785000,0.0324,0.013523,0.002678,0.000431,0.094963
19786000,0.0324,0.013523,0.002678,0.000431,0.152434
19787000,0.0324,0.013523,0.002678,0.000431,0.128693
19788000,0.0324,0.013523,0.002678,0.000431,0.072632
19789000,0.0324,0.013523,0.002678,0.000431,0.055473
19790000,0.0324,0.013523,0.002678,0.000431,0.283596
19791000,0.0324,0.013523,0.002678,0.000431,0.307454
19792000,0.0324,0.013523,0.002678,0.000431,0.080742
19793000,0.0324,0.013523,0.002678,0.000431,0.049832
19794000,0.0324,0.013523,0.002678,0.000431,0.087911
19795000,0.0324,0.013523,0.002678,0.000431,0.171356
19796000,0.0324,0.013523,0.002678,0.000431,0.192864
19797000,0.0324,0.013523,0.002678,0.000431,0.138683
19798000,0.0324,0.013523,0.002678,0.000431,0.138801
19799000,0.0324,0.013523,0.002678,0.000431,0.138213
19800000,0.0324,0.013523,0.002678,0.000431,0.057824
19801000,0.0324,0.013523,0.002678,0.000431,0.061467
19802000,0.0324,0.013523,0.002678,0.000431,0.145382
19803000,0.0324,0.013523,0.002678,0.000431,0.181346
19804000,0.0324,0.013523,0.002678,0.000431,0.266907
19805000,0.0324,0.013523,0.002678,0.000431,0.135275
19806000,0.0324,0.013523,0.002678,0.000431,0.121642
19807000,0.0324,0.013523,0.002678,0.000431,0.056531
19808000,0.0324,0.013523,0.002678,0.000431,0.170063
19809000,0.0324,0.013523,0.002678,0.000431,0.178643
19810000,0.0324,0.013523,0.002678,0.000431,0.170651
19811000,0.0324,0.013523,0.002678,0.000431,0.133277
19812000,0.0324,0.013523,0.002678,0.000431,0.111534
19813000,0.0324,0.013523,0.002678,0.000431,0.196860
19814000,0.0324,0.013523,0.002678,0.000431,0.074748
19815000,0.0324,0.013523,0.002678,0.000431,0.186282
19816000,0.0324,0.013523,0.002678,0.000431,0.302635
19817000,0.0324,0.013523,0.002678,0.000431,0.114708
19818000,0.0324,0.013523,0.002678,0.000431,0.065581
19819000,0.0324,0.013523,0.002678,0.000431,0.121524
19820000,0.0324,0.013523,0.002678,0.000431,0.167125
19821000,0.0324,0.013523,0.002678,0.000431,0.153257
19822000,0.0324,0.013523,0.002678,0.000431,0.302400
19823000,0.0324,0.013523,0.002678,0.000431,0.130221
19824000,0.0324,0.013523,0.002678,0.000431,0.086266
19825000,0.0324,0.013523,0.002678,0.000431,0.117998
19826000,0.0324,0.013523,0.002678,0.000431,0.260913
19827000,0.0324,0.013523,0.002678,0.000431,0.286886
19828000,0.0324,0.013523,0.002678,0.000431,0.131397
19829000,0.0324,0.013523,0.002678,0.000431,0.125520
19830000,0.0324,0.013523,0.002678,0.000431,0.075336
19831000,0.0324,0.013523,0.002678,0.000431,0.130574
19832000,0.0324,0.013523,0.002678,0.000431,0.094963
19833000,0.0324,0.013523,0.002678,0.000431,0.110006
19834000,0.0324,0.013523,0.002678,0.000431,0.228005
19835000,0.0324,0.013523,0.002678,0.000431,0.116705
19836000,0.0324,0.013523,0.002678,0.000431,0.166302
19837000,0.0324,0.013523,0.002678,0.000431,0.096843
19838000,0.0324,0.013523,0.002678,0.000431,0.154902
19839000,0.0324,0.013523,0.002678,0.000431,0.050302
19840000,0.0324,0.013523,0.002678,0.000431,0.110124
19841000,0.0324,0.013523,0.002678,0.000431,0.245164
19842000,0.0324,0.013523,0.002678,0.000431,0.080624
19843000,0.0324,0.013523,0.002678,0.000431,0.097901
19844000,0.0324,0.013523,0.002678,0.000431,0.069577
19845000,0.0324,0.013523,0.002678,0.000431,0.246574
19846000,0.0324,0.013523,0.002678,0.000431,0.042780
19847000,0.0324,0.013523,0.002678,0.000431,0.156312
19848000,0.0324,0.013523,0.002678,0.000431,0.154667
19849000,0.0324,0.013523,0.002678,0.000431,0.110476
19850000,0.0324,0.013523,0.002678,0.000431,0.180758
19851000,0.0324,0.013523,0.002678,0.000431,0.178525
19852000,0.0324,0.013523,0.002678,0.000431,0.137743
19853000,0.0324,0.013523,0.002678,0.000431,0.137508
19854000,0.0324,0.013523,0.002678,0.000431,0.169593
19855000,0.0324,0.013523,0.002678,0.000431,0.129516
19856000,0.0324,0.013523,0.002678,0.000431,0.065463
19857000,0.0324,0.013523,0.002678,0.000431,0.153374
19858000,0.0324,0.013523,0.002678,0.000431,0.143149
19859000,0.0324,0.013523,0.002678,0.000431,0.090732
19860000,0.0324,0.013523,0.002678,0.000431,0.163364
19861000,0.0324,0.013523,0.002678,0.000431,0.275251
19862000,0.0324,0.013523,0.002678,0.000431,0.115648
19863000,0.0324,0.013523,0.002678,0.000431,0.091790
19864000,0.0324,0.013523,0.002678,0.000431,0.243989
19865000,0.0324,0.013523,0.002678,0.000431,0.069459
19866000,0.0324,0.013523,0.002678,0.000431,0.224244
19867000,0.0324,0.013523,0.002678,0.000431,0.282538
19868000,0.0324,0.013523,0.002678,0.000431,0.080272
19869000,0.0324,0.013523,0.002678,0.000431,0.058882
19870000,0.0324,0.013523,0.002678,0.000431,0.103307
19871000,0.0324,0.013523,0.002678,0.000431,0.137508
19872000,0.0324,0.013523,0.002678,0.000431,0.157605
19873000,0.0324,0.013523,0.002678,0.000431,0.148203
19874000,0.0324,0.013523,0.002678,0.000431,0.296994
19875000,0.0324,0.013523,0.002678,0.000431,0.224596
19876000,0.0324,0.013523,0.002678,0.000431,0.140446
19877000,0.0324,0.013523,0.002678,0.000431,0.121172
19878000,0.0324,0.013523,0.002678,0.000431,0.141269
19879000,0.0324,0.013523,0.002678,0.000431,0.159486
19880000,0.0324,0.013523,0.002678,0.000431,0.317679
19881000,0.0324,0.013523,0.002678,0.000431,0.155372
19882000,0.0324,0.013523,0.002678,0.000431,0.114943
19883000,0.0324,0.013523,0.002678,0.000431,0.209435
19884000,0.0324,0.013523,0.002678,0.000431,0.117646
19885000,0.0324,0.013523,0.002678,0.000431,0.198623
19886000,0.0324,0.013523,0.002678,0.000431,0.184519
19887000,0.0324,0.013523,0.002678,0.000431,0.108126
19888000,0.0324,0.013523,0.002678,0.000431,0.178055
19889000,0.0324,0.013523,0.002678,0.000431,0.108126
19890000,0.0324,0.013523,0.002678,0.000431,0.151024
19891000,0.0324,0.013523,0.002678,0.000431,0.137038
19892000,0.0324,0.013523,0.002678,0.000431,0.139271
19893000,0.0324,0.013523,0.002678,0.000431,0.182169
19894000,0.0324,0.013523,0.002678,0.000431,0.152669
19895000,0.0324,0.013523,0.002678,0.000431,0.073455
19896000,0.0324,0.013523,0.002678,0.000431,0.127401
19897000,0.0324,0.013523,0.002678,0.000431,0.100487
19898000,0.0324,0.013523,0.002678,0.000431,0.057471
19899000,0.0324,0.013523,0.002678,0.000431,0.125638
19900000,0.0324,0.013523,0.002678,0.000431,0.154785
19901000,0.0324,0.013523,0.002678,0.000431,0.162306
19902000,0.0324,0.013523,0.002678,0.000431,0.200386
19903000,0.0324,0.013523,0.002678,0.000431,0.174882
19904000,0.0324,0.013523,0.002678,0.000431,0.133159
19905000,0.0324,0.013523,0.002678,0.000431,0.226477
19906000,0.0324,0.013523,0.002678,0.000431,0.165127
19907000,0.0324,0.013523,0.002678,0.000431,0.158075
19908000,0.0324,0.013523,0.002678,0.000431,0.135628
19909000,0.0324,0.013523,0.002678,0.000431,0.176410
19910000,0.0324,0.013523,0.002678,0.000431,0.075571
19911000,0.0324,0.013523,0.002678,0.000431,0.248455
19912000,0.0324,0.013523,0.002678,0.000431,0.272783
19913000,0.0324,0.013523,0.002678,0.000431,0.118116
19914000,0.0324,0.013523,0.002678,0.000431,0.110476
19915000,0.0324,0.013523,0.002678,0.000431,0.125520
19916000,0.0324,0.013523,0.002678,0.000431,0.065698
19917000,0.0324,0.013523,0.002678,0.000431,0.097548
19918000,0.0324,0.013523,0.002678,0.000431,0.093787
19919000,0.0324,0.013523,0.002678,0.000431,0.072632
19920000,0.0324,0.013523,0.002678,0.000431,0.186165
19921000,0.0324,0.013523,0.002678,0.000431,0.117998
19922000,0.0324,0.013523,0.002678,0.000431,0.262793
19923000,0.0324,0.013523,0.002678,0.000431,0.263616
19924000,0.0324,0.013523,0.002678,0.000431,0.331194
19925000,0.0324,0.013523,0.002678,0.000431,0.275486
19926000,0.0324,0.013523,0.002678,0.000431,0.286651
19927000,0.0324,0.013523,0.002678,0.000431,0.080624
19928000,0.0324,0.013523,0.002678,0.000431,0.095903
19929000,0.0324,0.013523,0.002678,0.000431,0.129046
19930000,0.0324,0.013523,0.002678,0.000431,0.049949
19931000,0.0324,0.013523,0.002678,0.000431,0.144560
19932000,0.0324,0.013523,0.002678,0.000431,0.165127
19933000,0.0324,0.013523,0.002678,0.000431,0.089204
19934000,0.0324,0.013523,0.002678,0.000431,0.095315
19935000,0.0324,0.013523,0.002678,0.000431,0.144442
19936000,0.0324,0.013523,0.002678,0.000431,0.103777
19937000,0.0324,0.013523,0.002678,0.000431,0.121054
19938000,0.0324,0.013523,0.002678,0.000431,0.216017
19939000,0.0324,0.013523,0.002678,0.000431,0.132807
19940000,0.0324,0.013523,0.002678,0.000431,0.111064
19941000,0.0324,0.013523,0.002678,0.000431,0.267612
19942000,0.0324,0.013523,0.002678,0.000431,0.178290
19943000,0.0324,0.013523,0.002678,0.000431,0.145030
19944000,0.0324,0.013523,0.002678,0.000431,0.234469
19945000,0.0324,0.013523,0.002678,0.000431,0.127401
19946000,0.0324,0.013523,0.002678,0.000431,0.076158
19947000,0.0324,0.013523,0.002678,0.000431,0.118351
19948000,0.0324,0.013523,0.002678,0.000431,0.163012
19949000,0.0324,0.013523,0.002678,0.000431,0.169711
19950000,0.0324,0.013523,0.002678,0.000431,0.115413
19951000,0.0324,0.013523,0.002678,0.000431,0.214959
19952000,0.0324,0.013523,0.002678,0.000431,0.174059
19953000,0.0324,0.013523,0.002678,0.000431,0.230003
19954000,0.0324,0.013523,0.002678,0.000431,0.208965
19955000,0.0324,0.013523,0.002678,0.000431,0.182521
19956000,0.0324,0.013523,0.002678,0.000431,0.211316
19957000,0.0324,0.013523,0.002678,0.000431,0.095433
19958000,0.0324,0.013523,0.002678,0.000431,0.140799
19959000,0.0324,0.013523,0.002678,0.000431,0.129046
19960000,0.0324,0.013523,0.002678,0.000431,0.283831
19961000,0.0324,0.013523,0.002678,0.000431,0.271373
19962000,0.0324,0.013523,0.002678,0.000431,0.096961
19963000,0.0324,0.013523,0.002678,0.000431,0.120701
19964000,0.0324,0.013523,0.002678,0.000431,0.248337
19965000,0.0324,0.013523,0.002678,0.000431,0.119526
19966000,0.0324,0.013523,0.002678,0.000431,0.143972
19967000,0.0324,0.013523,0.002678,0.000431,0.152081
19968000,0.0324,0.013523,0.002678,0.000431,0.064758
19969000,0.0324,0.013523,0.002678,0.000431,0.228710
19970000,0.0324,0.013523,0.002678,0.000431,0.083445
19971000,0.0324,0.013523,0.002678,0.000431,0.078391
19972000,0.0324,0.013523,0.002678,0.000431,0.085208
19973000,0.0324,0.013523,0.002678,0.000431,0.120349
19974000,0.0324,0.013523,0.002678,0.000431,0.147615
19975000,0.0324,0.013523,0.002678,0.000431,0.155725
19976000,0.0324,0.013523,0.002678,0.000431,0.090497
19977000,0.0324,0.013523,0.002678,0.000431,0.154432
19978000,0.0324,0.013523,0.002678,0.000431,0.041723
19979000,0.0324,0.013523,0.002678,0.000431,0.218837
19980000,0.0324,0.013523,0.002678,0.000431,0.167595
19981000,0.0324,0.013523,0.002678,0.000431,0.136215
19982000,0.0324,0.013523,0.002678,0.000431,0.270667
19983000,0.0324,0.013523,0.002678,0.000431,0.146675
19984000,0.0324,0.013523,0.002678,0.000431,0.126930
19985000,0.0324,0.013523,0.002678,0.000431,0.204382
19986000,0.0324,0.013523,0.002678,0.000431,0.102132
19987000,0.0324,0.013523,0.002678,0.000431,0.084973
19988000,0.0324,0.013523,0.002678,0.000431,0.224361
19989000,0.0324,0.013523,0.002678,0.000431,0.325318
19990000,0.0324,0.013523,0.002678,0.000431,0.119761
19991000,0.0324,0.013523,0.002678,0.000431,0.140329
19992000,0.0324,0.013523,0.002678,0.000431,0.202619
19993000,0.0324,0.013523,0.002678,0.000431,0.152904
19994000,0.0324,0.013523,0.002678,0.000431,0.258915
19995000,0.0324,0.013523,0.002678,0.000431,0.119761
19996000,0.0324,0.013523,0.002678,0.000431,0.102955
19997000,0.0324,0.013523,0.002678,0.000431,0.170768
19998000,0.0324,0.013523,0.002678,0.000431,0.152787
19999000,0.0324,0.013523,0.002678,0.000431,0.143972
