Cycle,Area(mm^2),PeakDynamic(W),SubthresholdLeakage(W),GateLeakage(W),RunTimeDynamic(W)
4000000,0.0324,0.013523,0.002678,0.000431,0.130456
4001000,0.0324,0.013523,0.002678,0.000431,0.272313
4002000,0.0324,0.013523,0.002678,0.000431,0.086148
4003000,0.0324,0.013523,0.002678,0.000431,0.216252
4004000,0.0324,0.013523,0.002678,0.000431,0.060880
4005000,0.0324,0.013523,0.002678,0.000431,0.227652
4006000,0.0324,0.013523,0.002678,0.000431,0.084033
4007000,0.0324,0.013523,0.002678,0.000431,0.177585
4008000,0.0324,0.013523,0.002678,0.000431,0.218485
4009000,0.0324,0.013523,0.002678,0.000431,0.082387
4010000,0.0324,0.013523,0.002678,0.000431,0.178055
4011000,0.0324,0.013523,0.002678,0.000431,0.097431
4012000,0.0324,0.013523,0.002678,0.000431,0.099546
4013000,0.0324,0.013523,0.002678,0.000431,0.150671
4014000,0.0324,0.013523,0.002678,0.000431,0.212961
4015000,0.0324,0.013523,0.002678,0.000431,0.034788
4016000,0.0324,0.013523,0.002678,0.000431,0.100134
4017000,0.0324,0.013523,0.002678,0.000431,0.136215
4018000,0.0324,0.013523,0.002678,0.000431,0.133394
4019000,0.0324,0.013523,0.002678,0.000431,0.131044
4020000,0.0324,0.013523,0.002678,0.000431,0.334955
4021000,0.0324,0.013523,0.002678,0.000431,0.203441
4022000,0.0324,0.013523,0.002678,0.000431,0.107891
4023000,0.0324,0.013523,0.002678,0.000431,0.120466
4024000,0.0324,0.013523,0.002678,0.000431,0.125520
4025000,0.0324,0.013523,0.002678,0.000431,0.121289
4026000,0.0324,0.013523,0.002678,0.000431,0.328256
4027000,0.0324,0.013523,0.002678,0.000431,0.220013
4028000,0.0324,0.013523,0.002678,0.000431,0.099194
4029000,0.0324,0.013523,0.002678,0.000431,0.200621
4030000,0.0324,0.013523,0.002678,0.000431,0.109184
4031000,0.0324,0.013523,0.002678,0.000431,0.108243
4032000,0.0324,0.013523,0.002678,0.000431,0.042898
4033000,0.0324,0.013523,0.002678,0.000431,0.111769
4034000,0.0324,0.013523,0.002678,0.000431,0.227182
4035000,0.0324,0.013523,0.002678,0.000431,0.193686
4036000,0.0324,0.013523,0.002678,0.000431,0.065816
4037000,0.0324,0.013523,0.002678,0.000431,0.184637
4038000,0.0324,0.013523,0.002678,0.000431,0.078979
4039000,0.0324,0.013523,0.002678,0.000431,0.378676
4040000,0.0324,0.013523,0.002678,0.000431,0.088851
4041000,0.0324,0.013523,0.002678,0.000431,0.048304
4042000,0.0324,0.013523,0.002678,0.000431,0.158781
4043000,0.0324,0.013523,0.002678,0.000431,0.258562
4044000,0.0324,0.013523,0.002678,0.000431,0.074865
4045000,0.0324,0.013523,0.002678,0.000431,0.101662
4046000,0.0324,0.013523,0.002678,0.000431,0.168770
4047000,0.0324,0.013523,0.002678,0.000431,0.143737
4048000,0.0324,0.013523,0.002678,0.000431,0.135510
4049000,0.0324,0.013523,0.002678,0.000431,0.074395
4050000,0.0324,0.013523,0.002678,0.000431,0.223304
4051000,0.0324,0.013523,0.002678,0.000431,0.124345
4052000,0.0324,0.013523,0.002678,0.000431,0.138448
4053000,0.0324,0.013523,0.002678,0.000431,0.115178
4054000,0.0324,0.013523,0.002678,0.000431,0.197212
4055000,0.0324,0.013523,0.002678,0.000431,0.108361
4056000,0.0324,0.013523,0.002678,0.000431,0.075101
4057000,0.0324,0.013523,0.002678,0.000431,0.120231
4058000,0.0324,0.013523,0.002678,0.000431,0.254566
4059000,0.0324,0.013523,0.002678,0.000431,0.134687
4060000,0.0324,0.013523,0.002678,0.000431,0.248572
4061000,0.0324,0.013523,0.002678,0.000431,0.152904
4062000,0.0324,0.013523,0.002678,0.000431,0.188633
4063000,0.0324,0.013523,0.002678,0.000431,0.061350
4064000,0.0324,0.013523,0.002678,0.000431,0.252333
4065000,0.0324,0.013523,0.002678,0.000431,0.133512
4066000,0.0324,0.013523,0.002678,0.000431,0.222481
4067000,0.0324,0.013523,0.002678,0.000431,0.069577
4068000,0.0324,0.013523,0.002678,0.000431,0.137390
4069000,0.0324,0.013523,0.002678,0.000431,0.161014
4070000,0.0324,0.013523,0.002678,0.000431,0.059939
4071000,0.0324,0.013523,0.002678,0.000431,0.191688
4072000,0.0324,0.013523,0.002678,0.000431,0.149143
4073000,0.0324,0.013523,0.002678,0.000431,0.128458
4074000,0.0324,0.013523,0.002678,0.000431,0.107538
4075000,0.0324,0.013523,0.002678,0.000431,0.082387
4076000,0.0324,0.013523,0.002678,0.000431,0.157135
4077000,0.0324,0.013523,0.002678,0.000431,0.087794
4078000,0.0324,0.013523,0.002678,0.000431,0.185459
4079000,0.0324,0.013523,0.002678,0.000431,0.286651
4080000,0.0324,0.013523,0.002678,0.000431,0.151611
4081000,0.0324,0.013523,0.002678,0.000431,0.053240
4082000,0.0324,0.013523,0.002678,0.000431,0.099076
4083000,0.0324,0.013523,0.002678,0.000431,0.144677
4084000,0.0324,0.013523,0.002678,0.000431,0.140446
4085000,0.0324,0.013523,0.002678,0.000431,0.166537
4086000,0.0324,0.013523,0.002678,0.000431,0.196860
4087000,0.0324,0.013523,0.002678,0.000431,0.148791
4088000,0.0324,0.013523,0.002678,0.000431,0.061350
4089000,0.0324,0.013523,0.002678,0.000431,0.141269
4090000,0.0324,0.013523,0.002678,0.000431,0.086971
4091000,0.0324,0.013523,0.002678,0.000431,0.149966
4092000,0.0324,0.013523,0.002678,0.000431,0.202384
4093000,0.0324,0.013523,0.002678,0.000431,0.096256
4094000,0.0324,0.013523,0.002678,0.000431,0.064523
4095000,0.0324,0.013523,0.002678,0.000431,0.453894
4096000,0.0324,0.013523,0.002678,0.000431,0.224244
4097000,0.0324,0.013523,0.002678,0.000431,0.214371
4098000,0.0324,0.013523,0.002678,0.000431,0.162541
4099000,0.0324,0.013523,0.002678,0.000431,0.095785
4100000,0.0324,0.013523,0.002678,0.000431,0.133865
4101000,0.0324,0.013523,0.002678,0.000431,0.177585
4102000,0.0324,0.013523,0.002678,0.000431,0.148791
4103000,0.0324,0.013523,0.002678,0.000431,0.186870
4104000,0.0324,0.013523,0.002678,0.000431,0.160073
4105000,0.0324,0.013523,0.002678,0.000431,0.304868
4106000,0.0324,0.013523,0.002678,0.000431,0.068166
4107000,0.0324,0.013523,0.002678,0.000431,0.159368
4108000,0.0324,0.013523,0.002678,0.000431,0.268082
4109000,0.0324,0.013523,0.002678,0.000431,0.159838
4110000,0.0324,0.013523,0.002678,0.000431,0.170533
4111000,0.0324,0.013523,0.002678,0.000431,0.212138
4112000,0.0324,0.013523,0.002678,0.000431,0.077334
4113000,0.0324,0.013523,0.002678,0.000431,0.079096
4114000,0.0324,0.013523,0.002678,0.000431,0.133042
4115000,0.0324,0.013523,0.002678,0.000431,0.132572
4116000,0.0324,0.013523,0.002678,0.000431,0.186987
4117000,0.0324,0.013523,0.002678,0.000431,0.214842
4118000,0.0324,0.013523,0.002678,0.000431,0.174764
4119000,0.0324,0.013523,0.002678,0.000431,0.213079
4120000,0.0324,0.013523,0.002678,0.000431,0.106833
4121000,0.0324,0.013523,0.002678,0.000431,0.183814
4122000,0.0324,0.013523,0.002678,0.000431,0.172414
4123000,0.0324,0.013523,0.002678,0.000431,0.155607
4124000,0.0324,0.013523,0.002678,0.000431,0.142209
4125000,0.0324,0.013523,0.002678,0.000431,0.163482
4126000,0.0324,0.013523,0.002678,0.000431,0.087676
4127000,0.0324,0.013523,0.002678,0.000431,0.119526
4128000,0.0324,0.013523,0.002678,0.000431,0.176175
4129000,0.0324,0.013523,0.002678,0.000431,0.236467
4130000,0.0324,0.013523,0.002678,0.000431,0.292645
4131000,0.0324,0.013523,0.002678,0.000431,0.262440
4132000,0.0324,0.013523,0.002678,0.000431,0.114355
4133000,0.0324,0.013523,0.002678,0.000431,0.088146
4134000,0.0324,0.013523,0.002678,0.000431,0.110241
4135000,0.0324,0.013523,0.002678,0.000431,0.105305
4136000,0.0324,0.013523,0.002678,0.000431,0.143854
4137000,0.0324,0.013523,0.002678,0.000431,0.298992
4138000,0.0324,0.013523,0.002678,0.000431,0.099076
4139000,0.0324,0.013523,0.002678,0.000431,0.064993
4140000,0.0324,0.013523,0.002678,0.000431,0.264321
4141000,0.0324,0.013523,0.002678,0.000431,0.171591
4142000,0.0324,0.013523,0.002678,0.000431,0.246809
4143000,0.0324,0.013523,0.002678,0.000431,0.154315
4144000,0.0324,0.013523,0.002678,0.000431,0.116118
4145000,0.0324,0.013523,0.002678,0.000431,0.168300
4146000,0.0324,0.013523,0.002678,0.000431,0.109771
4147000,0.0324,0.013523,0.002678,0.000431,0.050302
4148000,0.0324,0.013523,0.002678,0.000431,0.102720
4149000,0.0324,0.013523,0.002678,0.000431,0.106363
4150000,0.0324,0.013523,0.002678,0.000431,0.227887
4151000,0.0324,0.013523,0.002678,0.000431,0.133394
4152000,0.0324,0.013523,0.002678,0.000431,0.084855
4153000,0.0324,0.013523,0.002678,0.000431,0.069459
4154000,0.0324,0.013523,0.002678,0.000431,0.096256
4155000,0.0324,0.013523,0.002678,0.000431,0.176762
4156000,0.0324,0.013523,0.002678,0.000431,0.179466
4157000,0.0324,0.013523,0.002678,0.000431,0.183344
4158000,0.0324,0.013523,0.002678,0.000431,0.101544
4159000,0.0324,0.013523,0.002678,0.000431,0.155490
4160000,0.0324,0.013523,0.002678,0.000431,0.072515
4161000,0.0324,0.013523,0.002678,0.000431,0.068872
4162000,0.0324,0.013523,0.002678,0.000431,0.216722
4163000,0.0324,0.013523,0.002678,0.000431,0.140916
4164000,0.0324,0.013523,0.002678,0.000431,0.140916
4165000,0.0324,0.013523,0.002678,0.000431,0.051242
4166000,0.0324,0.013523,0.002678,0.000431,0.115295
4167000,0.0324,0.013523,0.002678,0.000431,0.097313
4168000,0.0324,0.013523,0.002678,0.000431,0.066168
4169000,0.0324,0.013523,0.002678,0.000431,0.098959
4170000,0.0324,0.013523,0.002678,0.000431,0.099664
4171000,0.0324,0.013523,0.002678,0.000431,0.087676
4172000,0.0324,0.013523,0.002678,0.000431,0.171121
4173000,0.0324,0.013523,0.002678,0.000431,0.151024
4174000,0.0324,0.013523,0.002678,0.000431,0.253391
4175000,0.0324,0.013523,0.002678,0.000431,0.122347
4176000,0.0324,0.013523,0.002678,0.000431,0.209435
4177000,0.0324,0.013523,0.002678,0.000431,0.100957
4178000,0.0324,0.013523,0.002678,0.000431,0.094845
4179000,0.0324,0.013523,0.002678,0.000431,0.087911
4180000,0.0324,0.013523,0.002678,0.000431,0.099429
4181000,0.0324,0.013523,0.002678,0.000431,0.098489
4182000,0.0324,0.013523,0.002678,0.000431,0.141504
4183000,0.0324,0.013523,0.002678,0.000431,0.094023
4184000,0.0324,0.013523,0.002678,0.000431,0.113180
4185000,0.0324,0.013523,0.002678,0.000431,0.180053
4186000,0.0324,0.013523,0.002678,0.000431,0.132924
4187000,0.0324,0.013523,0.002678,0.000431,0.083798
4188000,0.0324,0.013523,0.002678,0.000431,0.155020
4189000,0.0324,0.013523,0.002678,0.000431,0.080859
4190000,0.0324,0.013523,0.002678,0.000431,0.102837
4191000,0.0324,0.013523,0.002678,0.000431,0.095433
4192000,0.0324,0.013523,0.002678,0.000431,0.049949
4193000,0.0324,0.013523,0.002678,0.000431,0.190631
4194000,0.0324,0.013523,0.002678,0.000431,0.236232
4195000,0.0324,0.013523,0.002678,0.000431,0.129986
4196000,0.0324,0.013523,0.002678,0.000431,0.050185
4197000,0.0324,0.013523,0.002678,0.000431,0.108243
4198000,0.0324,0.013523,0.002678,0.000431,0.104835
4199000,0.0324,0.013523,0.002678,0.000431,0.084150
4200000,0.0324,0.013523,0.002678,0.000431,0.190278
4201000,0.0324,0.013523,0.002678,0.000431,0.229062
4202000,0.0324,0.013523,0.002678,0.000431,0.060292
4203000,0.0324,0.013523,0.002678,0.000431,0.137861
4204000,0.0324,0.013523,0.002678,0.000431,0.137626
4205000,0.0324,0.013523,0.002678,0.000431,0.128458
4206000,0.0324,0.013523,0.002678,0.000431,0.132924
4207000,0.0324,0.013523,0.002678,0.000431,0.196507
4208000,0.0324,0.013523,0.002678,0.000431,0.193804
4209000,0.0324,0.013523,0.002678,0.000431,0.113885
4210000,0.0324,0.013523,0.002678,0.000431,0.151494
4211000,0.0324,0.013523,0.002678,0.000431,0.362574
4212000,0.0324,0.013523,0.002678,0.000431,0.151964
4213000,0.0324,0.013523,0.002678,0.000431,0.110947
4214000,0.0324,0.013523,0.002678,0.000431,0.231766
4215000,0.0324,0.013523,0.002678,0.000431,0.173707
4216000,0.0324,0.013523,0.002678,0.000431,0.125520
4217000,0.0324,0.013523,0.002678,0.000431,0.084503
4218000,0.0324,0.013523,0.002678,0.000431,0.208142
4219000,0.0324,0.013523,0.002678,0.000431,0.091672
4220000,0.0324,0.013523,0.002678,0.000431,0.050067
4221000,0.0324,0.013523,0.002678,0.000431,0.133042
4222000,0.0324,0.013523,0.002678,0.000431,0.125520
4223000,0.0324,0.013523,0.002678,0.000431,0.057706
4224000,0.0324,0.013523,0.002678,0.000431,0.080272
4225000,0.0324,0.013523,0.002678,0.000431,0.118351
4226000,0.0324,0.013523,0.002678,0.000431,0.152787
4227000,0.0324,0.013523,0.002678,0.000431,0.201913
4228000,0.0324,0.013523,0.002678,0.000431,0.110712
4229000,0.0324,0.013523,0.002678,0.000431,0.101897
4230000,0.0324,0.013523,0.002678,0.000431,0.185930
4231000,0.0324,0.013523,0.002678,0.000431,0.143384
4232000,0.0324,0.013523,0.002678,0.000431,0.138801
4233000,0.0324,0.013523,0.002678,0.000431,0.138566
4234000,0.0324,0.013523,0.002678,0.000431,0.079332
4235000,0.0324,0.013523,0.002678,0.000431,0.184167
4236000,0.0324,0.013523,0.002678,0.000431,0.116823
4237000,0.0324,0.013523,0.002678,0.000431,0.133394
4238000,0.0324,0.013523,0.002678,0.000431,0.239170
4239000,0.0324,0.013523,0.002678,0.000431,0.143149
4240000,0.0324,0.013523,0.002678,0.000431,0.191924
4241000,0.0324,0.013523,0.002678,0.000431,0.061232
4242000,0.0324,0.013523,0.002678,0.000431,0.129046
4243000,0.0324,0.013523,0.002678,0.000431,0.148203
4244000,0.0324,0.013523,0.002678,0.000431,0.097548
4245000,0.0324,0.013523,0.002678,0.000431,0.174177
4246000,0.0324,0.013523,0.002678,0.000431,0.250570
4247000,0.0324,0.013523,0.002678,0.000431,0.096491
4248000,0.0324,0.013523,0.002678,0.000431,0.068754
4249000,0.0324,0.013523,0.002678,0.000431,0.125403
4250000,0.0324,0.013523,0.002678,0.000431,0.077569
4251000,0.0324,0.013523,0.002678,0.000431,0.083445
4252000,0.0324,0.013523,0.002678,0.000431,0.231060
4253000,0.0324,0.013523,0.002678,0.000431,0.098606
4254000,0.0324,0.013523,0.002678,0.000431,0.077804
4255000,0.0324,0.013523,0.002678,0.000431,0.078039
4256000,0.0324,0.013523,0.002678,0.000431,0.124815
4257000,0.0324,0.013523,0.002678,0.000431,0.104012
4258000,0.0324,0.013523,0.002678,0.000431,0.116235
4259000,0.0324,0.013523,0.002678,0.000431,0.161484
4260000,0.0324,0.013523,0.002678,0.000431,0.145147
4261000,0.0324,0.013523,0.002678,0.000431,0.141504
4262000,0.0324,0.013523,0.002678,0.000431,0.049832
4263000,0.0324,0.013523,0.002678,0.000431,0.155372
4264000,0.0324,0.013523,0.002678,0.000431,0.116000
4265000,0.0324,0.013523,0.002678,0.000431,0.179113
4266000,0.0324,0.013523,0.002678,0.000431,0.310039
4267000,0.0324,0.013523,0.002678,0.000431,0.150319
4268000,0.0324,0.013523,0.002678,0.000431,0.077334
4269000,0.0324,0.013523,0.002678,0.000431,0.163482
4270000,0.0324,0.013523,0.002678,0.000431,0.119409
4271000,0.0324,0.013523,0.002678,0.000431,0.172766
4272000,0.0324,0.013523,0.002678,0.000431,0.096256
4273000,0.0324,0.013523,0.002678,0.000431,0.060174
4274000,0.0324,0.013523,0.002678,0.000431,0.078744
4275000,0.0324,0.013523,0.002678,0.000431,0.128576
4276000,0.0324,0.013523,0.002678,0.000431,0.078979
4277000,0.0324,0.013523,0.002678,0.000431,0.104247
4278000,0.0324,0.013523,0.002678,0.000431,0.184049
4279000,0.0324,0.013523,0.002678,0.000431,0.142092
4280000,0.0324,0.013523,0.002678,0.000431,0.087676
4281000,0.0324,0.013523,0.002678,0.000431,0.148556
4282000,0.0324,0.013523,0.002678,0.000431,0.085325
4283000,0.0324,0.013523,0.002678,0.000431,0.093200
4284000,0.0324,0.013523,0.002678,0.000431,0.151729
4285000,0.0324,0.013523,0.002678,0.000431,0.251040
4286000,0.0324,0.013523,0.002678,0.000431,0.067461
4287000,0.0324,0.013523,0.002678,0.000431,0.035023
4288000,0.0324,0.013523,0.002678,0.000431,0.200973
4289000,0.0324,0.013523,0.002678,0.000431,0.134452
4290000,0.0324,0.013523,0.002678,0.000431,0.112122
4291000,0.0324,0.013523,0.002678,0.000431,0.129869
4292000,0.0324,0.013523,0.002678,0.000431,0.109771
4293000,0.0324,0.013523,0.002678,0.000431,0.060645
4294000,0.0324,0.013523,0.002678,0.000431,0.156900
4295000,0.0324,0.013523,0.002678,0.000431,0.138096
4296000,0.0324,0.013523,0.002678,0.000431,0.201443
4297000,0.0324,0.013523,0.002678,0.000431,0.233646
4298000,0.0324,0.013523,0.002678,0.000431,0.230825
4299000,0.0324,0.013523,0.002678,0.000431,0.154667
4300000,0.0324,0.013523,0.002678,0.000431,0.116235
4301000,0.0324,0.013523,0.002678,0.000431,0.110712
4302000,0.0324,0.013523,0.002678,0.000431,0.084620
4303000,0.0324,0.013523,0.002678,0.000431,0.158546
4304000,0.0324,0.013523,0.002678,0.000431,0.123287
4305000,0.0324,0.013523,0.002678,0.000431,0.153609
4306000,0.0324,0.013523,0.002678,0.000431,0.068754
4307000,0.0324,0.013523,0.002678,0.000431,0.136333
4308000,0.0324,0.013523,0.002678,0.000431,0.170533
4309000,0.0324,0.013523,0.002678,0.000431,0.241638
4310000,0.0324,0.013523,0.002678,0.000431,0.241285
4311000,0.0324,0.013523,0.002678,0.000431,0.182874
4312000,0.0324,0.013523,0.002678,0.000431,0.053358
4313000,0.0324,0.013523,0.002678,0.000431,0.096021
4314000,0.0324,0.013523,0.002678,0.000431,0.161836
4315000,0.0324,0.013523,0.002678,0.000431,0.047951
4316000,0.0324,0.013523,0.002678,0.000431,0.170416
4317000,0.0324,0.013523,0.002678,0.000431,0.132807
4318000,0.0324,0.013523,0.002678,0.000431,0.089439
4319000,0.0324,0.013523,0.002678,0.000431,0.107303
4320000,0.0324,0.013523,0.002678,0.000431,0.213431
4321000,0.0324,0.013523,0.002678,0.000431,0.042663
4322000,0.0324,0.013523,0.002678,0.000431,0.163012
4323000,0.0324,0.013523,0.002678,0.000431,0.140681
4324000,0.0324,0.013523,0.002678,0.000431,0.219190
4325000,0.0324,0.013523,0.002678,0.000431,0.113885
4326000,0.0324,0.013523,0.002678,0.000431,0.094610
4327000,0.0324,0.013523,0.002678,0.000431,0.276779
4328000,0.0324,0.013523,0.002678,0.000431,0.132219
4329000,0.0324,0.013523,0.002678,0.000431,0.074043
4330000,0.0324,0.013523,0.002678,0.000431,0.275604
4331000,0.0324,0.013523,0.002678,0.000431,0.083563
4332000,0.0324,0.013523,0.002678,0.000431,0.053240
4333000,0.0324,0.013523,0.002678,0.000431,0.216134
4334000,0.0324,0.013523,0.002678,0.000431,0.057824
4335000,0.0324,0.013523,0.002678,0.000431,0.200856
4336000,0.0324,0.013523,0.002678,0.000431,0.110594
4337000,0.0324,0.013523,0.002678,0.000431,0.106716
4338000,0.0324,0.013523,0.002678,0.000431,0.167360
4339000,0.0324,0.013523,0.002678,0.000431,0.132924
4340000,0.0324,0.013523,0.002678,0.000431,0.114590
4341000,0.0324,0.013523,0.002678,0.000431,0.176997
4342000,0.0324,0.013523,0.002678,0.000431,0.116470
4343000,0.0324,0.013523,0.002678,0.000431,0.220365
4344000,0.0324,0.013523,0.002678,0.000431,0.061350
4345000,0.0324,0.013523,0.002678,0.000431,0.053945
4346000,0.0324,0.013523,0.002678,0.000431,0.136803
4347000,0.0324,0.013523,0.002678,0.000431,0.163599
4348000,0.0324,0.013523,0.002678,0.000431,0.152081
4349000,0.0324,0.013523,0.002678,0.000431,0.193569
4350000,0.0324,0.013523,0.002678,0.000431,0.049949
4351000,0.0324,0.013523,0.002678,0.000431,0.065228
4352000,0.0324,0.013523,0.002678,0.000431,0.100839
4353000,0.0324,0.013523,0.002678,0.000431,0.244694
4354000,0.0324,0.013523,0.002678,0.000431,0.133277
4355000,0.0324,0.013523,0.002678,0.000431,0.190513
4356000,0.0324,0.013523,0.002678,0.000431,0.272900
4357000,0.0324,0.013523,0.002678,0.000431,0.090614
4358000,0.0324,0.013523,0.002678,0.000431,0.108361
4359000,0.0324,0.013523,0.002678,0.000431,0.066521
4360000,0.0324,0.013523,0.002678,0.000431,0.101309
4361000,0.0324,0.013523,0.002678,0.000431,0.222598
4362000,0.0324,0.013523,0.002678,0.000431,0.198505
4363000,0.0324,0.013523,0.002678,0.000431,0.084385
4364000,0.0324,0.013523,0.002678,0.000431,0.057471
4365000,0.0324,0.013523,0.002678,0.000431,0.048422
4366000,0.0324,0.013523,0.002678,0.000431,0.119409
4367000,0.0324,0.013523,0.002678,0.000431,0.152081
4368000,0.0324,0.013523,0.002678,0.000431,0.156195
4369000,0.0324,0.013523,0.002678,0.000431,0.139388
4370000,0.0324,0.013523,0.002678,0.000431,0.061702
4371000,0.0324,0.013523,0.002678,0.000431,0.095198
4372000,0.0324,0.013523,0.002678,0.000431,0.132689
4373000,0.0324,0.013523,0.002678,0.000431,0.102837
4374000,0.0324,0.013523,0.002678,0.000431,0.124462
4375000,0.0324,0.013523,0.002678,0.000431,0.111064
4376000,0.0324,0.013523,0.002678,0.000431,0.159133
4377000,0.0324,0.013523,0.002678,0.000431,0.106716
4378000,0.0324,0.013523,0.002678,0.000431,0.064523
4379000,0.0324,0.013523,0.002678,0.000431,0.081094
4380000,0.0324,0.013523,0.002678,0.000431,0.100252
4381000,0.0324,0.013523,0.002678,0.000431,0.092142
4382000,0.0324,0.013523,0.002678,0.000431,0.130456
4383000,0.0324,0.013523,0.002678,0.000431,0.175470
4384000,0.0324,0.013523,0.002678,0.000431,0.094493
4385000,0.0324,0.013523,0.002678,0.000431,0.144207
4386000,0.0324,0.013523,0.002678,0.000431,0.079684
4387000,0.0324,0.013523,0.002678,0.000431,0.218132
4388000,0.0324,0.013523,0.002678,0.000431,0.234939
4389000,0.0324,0.013523,0.002678,0.000431,0.145265
4390000,0.0324,0.013523,0.002678,0.000431,0.144325
4391000,0.0324,0.013523,0.002678,0.000431,0.124345
4392000,0.0324,0.013523,0.002678,0.000431,0.141034
4393000,0.0324,0.013523,0.002678,0.000431,0.065228
4394000,0.0324,0.013523,0.002678,0.000431,0.129516
4395000,0.0324,0.013523,0.002678,0.000431,0.239875
4396000,0.0324,0.013523,0.002678,0.000431,0.187457
4397000,0.0324,0.013523,0.002678,0.000431,0.039019
4398000,0.0324,0.013523,0.002678,0.000431,0.217545
4399000,0.0324,0.013523,0.002678,0.000431,0.311567
4400000,0.0324,0.013523,0.002678,0.000431,0.106481
4401000,0.0324,0.013523,0.002678,0.000431,0.153727
4402000,0.0324,0.013523,0.002678,0.000431,0.159368
4403000,0.0324,0.013523,0.002678,0.000431,0.070517
4404000,0.0324,0.013523,0.002678,0.000431,0.153962
4405000,0.0324,0.013523,0.002678,0.000431,0.096843
4406000,0.0324,0.013523,0.002678,0.000431,0.117528
4407000,0.0324,0.013523,0.002678,0.000431,0.214606
4408000,0.0324,0.013523,0.002678,0.000431,0.121759
4409000,0.0324,0.013523,0.002678,0.000431,0.077569
4410000,0.0324,0.013523,0.002678,0.000431,0.080154
4411000,0.0324,0.013523,0.002678,0.000431,0.087794
4412000,0.0324,0.013523,0.002678,0.000431,0.137626
4413000,0.0324,0.013523,0.002678,0.000431,0.120701
4414000,0.0324,0.013523,0.002678,0.000431,0.044426
4415000,0.0324,0.013523,0.002678,0.000431,0.179936
4416000,0.0324,0.013523,0.002678,0.000431,0.068636
4417000,0.0324,0.013523,0.002678,0.000431,0.117881
4418000,0.0324,0.013523,0.002678,0.000431,0.042428
4419000,0.0324,0.013523,0.002678,0.000431,0.061467
4420000,0.0324,0.013523,0.002678,0.000431,0.155490
4421000,0.0324,0.013523,0.002678,0.000431,0.072632
4422000,0.0324,0.013523,0.002678,0.000431,0.162541
4423000,0.0324,0.013523,0.002678,0.000431,0.101309
4424000,0.0324,0.013523,0.002678,0.000431,0.086148
4425000,0.0324,0.013523,0.002678,0.000431,0.068401
4426000,0.0324,0.013523,0.002678,0.000431,0.088969
4427000,0.0324,0.013523,0.002678,0.000431,0.120936
4428000,0.0324,0.013523,0.002678,0.000431,0.069107
4429000,0.0324,0.013523,0.002678,0.000431,0.053828
4430000,0.0324,0.013523,0.002678,0.000431,0.072867
4431000,0.0324,0.013523,0.002678,0.000431,0.106363
4432000,0.0324,0.013523,0.002678,0.000431,0.233999
4433000,0.0324,0.013523,0.002678,0.000431,0.216957
4434000,0.0324,0.013523,0.002678,0.000431,0.087206
4435000,0.0324,0.013523,0.002678,0.000431,0.054416
4436000,0.0324,0.013523,0.002678,0.000431,0.118351
4437000,0.0324,0.013523,0.002678,0.000431,0.083092
4438000,0.0324,0.013523,0.002678,0.000431,0.141034
4439000,0.0324,0.013523,0.002678,0.000431,0.076628
4440000,0.0324,0.013523,0.002678,0.000431,0.128928
4441000,0.0324,0.013523,0.002678,0.000431,0.107773
4442000,0.0324,0.013523,0.002678,0.000431,0.122464
4443000,0.0324,0.013523,0.002678,0.000431,0.266201
4444000,0.0324,0.013523,0.002678,0.000431,0.102485
4445000,0.0324,0.013523,0.002678,0.000431,0.189690
4446000,0.0324,0.013523,0.002678,0.000431,0.158193
4447000,0.0324,0.013523,0.002678,0.000431,0.091202
4448000,0.0324,0.013523,0.002678,0.000431,0.076393
4449000,0.0324,0.013523,0.002678,0.000431,0.128223
4450000,0.0324,0.013523,0.002678,0.000431,0.066403
4451000,0.0324,0.013523,0.002678,0.000431,0.142092
4452000,0.0324,0.013523,0.002678,0.000431,0.162424
4453000,0.0324,0.013523,0.002678,0.000431,0.060292
4454000,0.0324,0.013523,0.002678,0.000431,0.200268
4455000,0.0324,0.013523,0.002678,0.000431,0.087794
4456000,0.0324,0.013523,0.002678,0.000431,0.086501
4457000,0.0324,0.013523,0.002678,0.000431,0.167948
4458000,0.0324,0.013523,0.002678,0.000431,0.132924
4459000,0.0324,0.013523,0.002678,0.000431,0.106481
4460000,0.0324,0.013523,0.002678,0.000431,0.182169
4461000,0.0324,0.013523,0.002678,0.000431,0.083445
4462000,0.0324,0.013523,0.002678,0.000431,0.123522
4463000,0.0324,0.013523,0.002678,0.000431,0.171121
4464000,0.0324,0.013523,0.002678,0.000431,0.218837
4465000,0.0324,0.013523,0.002678,0.000431,0.260325
4466000,0.0324,0.013523,0.002678,0.000431,0.195449
4467000,0.0324,0.013523,0.002678,0.000431,0.106951
4468000,0.0324,0.013523,0.002678,0.000431,0.054298
4469000,0.0324,0.013523,0.002678,0.000431,0.180758
4470000,0.0324,0.013523,0.002678,0.000431,0.153022
4471000,0.0324,0.013523,0.002678,0.000431,0.194274
4472000,0.0324,0.013523,0.002678,0.000431,0.172414
4473000,0.0324,0.013523,0.002678,0.000431,0.174647
4474000,0.0324,0.013523,0.002678,0.000431,0.039019
4475000,0.0324,0.013523,0.002678,0.000431,0.148086
4476000,0.0324,0.013523,0.002678,0.000431,0.178995
4477000,0.0324,0.013523,0.002678,0.000431,0.078391
4478000,0.0324,0.013523,0.002678,0.000431,0.159368
4479000,0.0324,0.013523,0.002678,0.000431,0.209200
4480000,0.0324,0.013523,0.002678,0.000431,0.094493
4481000,0.0324,0.013523,0.002678,0.000431,0.127636
4482000,0.0324,0.013523,0.002678,0.000431,0.120584
4483000,0.0324,0.013523,0.002678,0.000431,0.215899
4484000,0.0324,0.013523,0.002678,0.000431,0.207085
4485000,0.0324,0.013523,0.002678,0.000431,0.258797
4486000,0.0324,0.013523,0.002678,0.000431,0.049244
4487000,0.0324,0.013523,0.002678,0.000431,0.061350
4488000,0.0324,0.013523,0.002678,0.000431,0.096256
4489000,0.0324,0.013523,0.002678,0.000431,0.214489
4490000,0.0324,0.013523,0.002678,0.000431,0.090027
4491000,0.0324,0.013523,0.002678,0.000431,0.104483
4492000,0.0324,0.013523,0.002678,0.000431,0.123170
4493000,0.0324,0.013523,0.002678,0.000431,0.116470
4494000,0.0324,0.013523,0.002678,0.000431,0.083680
4495000,0.0324,0.013523,0.002678,0.000431,0.125050
4496000,0.0324,0.013523,0.002678,0.000431,0.252686
4497000,0.0324,0.013523,0.002678,0.000431,0.195214
4498000,0.0324,0.013523,0.002678,0.000431,0.225419
4499000,0.0324,0.013523,0.002678,0.000431,0.101897
4500000,0.0324,0.013523,0.002678,0.000431,0.049949
4501000,0.0324,0.013523,0.002678,0.000431,0.092495
4502000,0.0324,0.013523,0.002678,0.000431,0.097901
4503000,0.0324,0.013523,0.002678,0.000431,0.099076
4504000,0.0324,0.013523,0.002678,0.000431,0.219543
4505000,0.0324,0.013523,0.002678,0.000431,0.122934
4506000,0.0324,0.013523,0.002678,0.000431,0.109419
4507000,0.0324,0.013523,0.002678,0.000431,0.279364
4508000,0.0324,0.013523,0.002678,0.000431,0.142562
4509000,0.0324,0.013523,0.002678,0.000431,0.132807
4510000,0.0324,0.013523,0.002678,0.000431,0.173472
4511000,0.0324,0.013523,0.002678,0.000431,0.094493
4512000,0.0324,0.013523,0.002678,0.000431,0.068519
4513000,0.0324,0.013523,0.002678,0.000431,0.076863
4514000,0.0324,0.013523,0.002678,0.000431,0.234351
4515000,0.0324,0.013523,0.002678,0.000431,0.057824
4516000,0.0324,0.013523,0.002678,0.000431,0.065346
4517000,0.0324,0.013523,0.002678,0.000431,0.071222
4518000,0.0324,0.013523,0.002678,0.000431,0.154432
4519000,0.0324,0.013523,0.002678,0.000431,0.068166
4520000,0.0324,0.013523,0.002678,0.000431,0.065346
4521000,0.0324,0.013523,0.002678,0.000431,0.119174
4522000,0.0324,0.013523,0.002678,0.000431,0.189338
4523000,0.0324,0.013523,0.002678,0.000431,0.135510
4524000,0.0324,0.013523,0.002678,0.000431,0.106716
4525000,0.0324,0.013523,0.002678,0.000431,0.128106
4526000,0.0324,0.013523,0.002678,0.000431,0.111534
4527000,0.0324,0.013523,0.002678,0.000431,0.223539
4528000,0.0324,0.013523,0.002678,0.000431,0.225889
4529000,0.0324,0.013523,0.002678,0.000431,0.226947
4530000,0.0324,0.013523,0.002678,0.000431,0.110241
4531000,0.0324,0.013523,0.002678,0.000431,0.350116
4532000,0.0324,0.013523,0.002678,0.000431,0.137273
4533000,0.0324,0.013523,0.002678,0.000431,0.156195
4534000,0.0324,0.013523,0.002678,0.000431,0.109654
4535000,0.0324,0.013523,0.002678,0.000431,0.131397
4536000,0.0324,0.013523,0.002678,0.000431,0.073690
4537000,0.0324,0.013523,0.002678,0.000431,0.135628
4538000,0.0324,0.013523,0.002678,0.000431,0.209200
4539000,0.0324,0.013523,0.002678,0.000431,0.057589
4540000,0.0324,0.013523,0.002678,0.000431,0.154902
4541000,0.0324,0.013523,0.002678,0.000431,0.056531
4542000,0.0324,0.013523,0.002678,0.000431,0.406530
4543000,0.0324,0.013523,0.002678,0.000431,0.199798
4544000,0.0324,0.013523,0.002678,0.000431,0.117998
4545000,0.0324,0.013523,0.002678,0.000431,0.042898
4546000,0.0324,0.013523,0.002678,0.000431,0.195802
4547000,0.0324,0.013523,0.002678,0.000431,0.144677
4548000,0.0324,0.013523,0.002678,0.000431,0.282185
4549000,0.0324,0.013523,0.002678,0.000431,0.221071
4550000,0.0324,0.013523,0.002678,0.000431,0.065228
4551000,0.0324,0.013523,0.002678,0.000431,0.091554
4552000,0.0324,0.013523,0.002678,0.000431,0.176292
4553000,0.0324,0.013523,0.002678,0.000431,0.177115
4554000,0.0324,0.013523,0.002678,0.000431,0.218955
4555000,0.0324,0.013523,0.002678,0.000431,0.223891
4556000,0.0324,0.013523,0.002678,0.000431,0.057471
4557000,0.0324,0.013523,0.002678,0.000431,0.147850
4558000,0.0324,0.013523,0.002678,0.000431,0.042898
4559000,0.0324,0.013523,0.002678,0.000431,0.114355
4560000,0.0324,0.013523,0.002678,0.000431,0.196977
4561000,0.0324,0.013523,0.002678,0.000431,0.269610
4562000,0.0324,0.013523,0.002678,0.000431,0.221423
4563000,0.0324,0.013523,0.002678,0.000431,0.173589
4564000,0.0324,0.013523,0.002678,0.000431,0.078509
4565000,0.0324,0.013523,0.002678,0.000431,0.040430
4566000,0.0324,0.013523,0.002678,0.000431,0.112474
4567000,0.0324,0.013523,0.002678,0.000431,0.099194
4568000,0.0324,0.013523,0.002678,0.000431,0.136450
4569000,0.0324,0.013523,0.002678,0.000431,0.042663
4570000,0.0324,0.013523,0.002678,0.000431,0.102955
4571000,0.0324,0.013523,0.002678,0.000431,0.138683
4572000,0.0324,0.013523,0.002678,0.000431,0.078979
4573000,0.0324,0.013523,0.002678,0.000431,0.166655
4574000,0.0324,0.013523,0.002678,0.000431,0.110947
4575000,0.0324,0.013523,0.002678,0.000431,0.104718
4576000,0.0324,0.013523,0.002678,0.000431,0.144560
4577000,0.0324,0.013523,0.002678,0.000431,0.187810
4578000,0.0324,0.013523,0.002678,0.000431,0.174412
4579000,0.0324,0.013523,0.002678,0.000431,0.305456
4580000,0.0324,0.013523,0.002678,0.000431,0.155725
4581000,0.0324,0.013523,0.002678,0.000431,0.178878
4582000,0.0324,0.013523,0.002678,0.000431,0.060762
4583000,0.0324,0.013523,0.002678,0.000431,0.072867
4584000,0.0324,0.013523,0.002678,0.000431,0.151611
4585000,0.0324,0.013523,0.002678,0.000431,0.099546
4586000,0.0324,0.013523,0.002678,0.000431,0.171944
4587000,0.0324,0.013523,0.002678,0.000431,0.123992
4588000,0.0324,0.013523,0.002678,0.000431,0.072750
4589000,0.0324,0.013523,0.002678,0.000431,0.116470
4590000,0.0324,0.013523,0.002678,0.000431,0.108479
4591000,0.0324,0.013523,0.002678,0.000431,0.133512
4592000,0.0324,0.013523,0.002678,0.000431,0.240463
4593000,0.0324,0.013523,0.002678,0.000431,0.232236
4594000,0.0324,0.013523,0.002678,0.000431,0.110359
4595000,0.0324,0.013523,0.002678,0.000431,0.053123
4596000,0.0324,0.013523,0.002678,0.000431,0.194157
4597000,0.0324,0.013523,0.002678,0.000431,0.153257
4598000,0.0324,0.013523,0.002678,0.000431,0.152552
4599000,0.0324,0.013523,0.002678,0.000431,0.191218
4600000,0.0324,0.013523,0.002678,0.000431,0.231178
4601000,0.0324,0.013523,0.002678,0.000431,0.062407
4602000,0.0324,0.013523,0.002678,0.000431,0.234234
4603000,0.0324,0.013523,0.002678,0.000431,0.161601
4604000,0.0324,0.013523,0.002678,0.000431,0.058764
4605000,0.0324,0.013523,0.002678,0.000431,0.202266
4606000,0.0324,0.013523,0.002678,0.000431,0.207790
4607000,0.0324,0.013523,0.002678,0.000431,0.135628
4608000,0.0324,0.013523,0.002678,0.000431,0.061115
4609000,0.0324,0.013523,0.002678,0.000431,0.146205
4610000,0.0324,0.013523,0.002678,0.000431,0.159016
4611000,0.0324,0.013523,0.002678,0.000431,0.135157
4612000,0.0324,0.013523,0.002678,0.000431,0.089674
4613000,0.0324,0.013523,0.002678,0.000431,0.316151
4614000,0.0324,0.013523,0.002678,0.000431,0.090144
4615000,0.0324,0.013523,0.002678,0.000431,0.113650
4616000,0.0324,0.013523,0.002678,0.000431,0.206615
4617000,0.0324,0.013523,0.002678,0.000431,0.069224
4618000,0.0324,0.013523,0.002678,0.000431,0.102955
4619000,0.0324,0.013523,0.002678,0.000431,0.153962
4620000,0.0324,0.013523,0.002678,0.000431,0.152434
4621000,0.0324,0.013523,0.002678,0.000431,0.092495
4622000,0.0324,0.013523,0.002678,0.000431,0.159016
4623000,0.0324,0.013523,0.002678,0.000431,0.238230
4624000,0.0324,0.013523,0.002678,0.000431,0.123405
4625000,0.0324,0.013523,0.002678,0.000431,0.184284
4626000,0.0324,0.013523,0.002678,0.000431,0.223891
4627000,0.0324,0.013523,0.002678,0.000431,0.080507
4628000,0.0324,0.013523,0.002678,0.000431,0.110476
4629000,0.0324,0.013523,0.002678,0.000431,0.175940
4630000,0.0324,0.013523,0.002678,0.000431,0.102250
4631000,0.0324,0.013523,0.002678,0.000431,0.143267
4632000,0.0324,0.013523,0.002678,0.000431,0.227535
4633000,0.0324,0.013523,0.002678,0.000431,0.114120
4634000,0.0324,0.013523,0.002678,0.000431,0.072750
4635000,0.0324,0.013523,0.002678,0.000431,0.140564
4636000,0.0324,0.013523,0.002678,0.000431,0.223891
4637000,0.0324,0.013523,0.002678,0.000431,0.064405
4638000,0.0324,0.013523,0.002678,0.000431,0.149848
4639000,0.0324,0.013523,0.002678,0.000431,0.153727
4640000,0.0324,0.013523,0.002678,0.000431,0.035258
4641000,0.0324,0.013523,0.002678,0.000431,0.174412
4642000,0.0324,0.013523,0.002678,0.000431,0.093787
4643000,0.0324,0.013523,0.002678,0.000431,0.082740
4644000,0.0324,0.013523,0.002678,0.000431,0.119526
4645000,0.0324,0.013523,0.002678,0.000431,0.126930
4646000,0.0324,0.013523,0.002678,0.000431,0.035023
4647000,0.0324,0.013523,0.002678,0.000431,0.098489
4648000,0.0324,0.013523,0.002678,0.000431,0.149731
4649000,0.0324,0.013523,0.002678,0.000431,0.090144
4650000,0.0324,0.013523,0.002678,0.000431,0.190631
4651000,0.0324,0.013523,0.002678,0.000431,0.130574
4652000,0.0324,0.013523,0.002678,0.000431,0.306749
4653000,0.0324,0.013523,0.002678,0.000431,0.038667
4654000,0.0324,0.013523,0.002678,0.000431,0.200503
4655000,0.0324,0.013523,0.002678,0.000431,0.110006
4656000,0.0324,0.013523,0.002678,0.000431,0.102367
4657000,0.0324,0.013523,0.002678,0.000431,0.132572
4658000,0.0324,0.013523,0.002678,0.000431,0.185459
4659000,0.0324,0.013523,0.002678,0.000431,0.065463
4660000,0.0324,0.013523,0.002678,0.000431,0.122582
4661000,0.0324,0.013523,0.002678,0.000431,0.159721
4662000,0.0324,0.013523,0.002678,0.000431,0.138213
4663000,0.0324,0.013523,0.002678,0.000431,0.100252
4664000,0.0324,0.013523,0.002678,0.000431,0.267377
4665000,0.0324,0.013523,0.002678,0.000431,0.145382
4666000,0.0324,0.013523,0.002678,0.000431,0.046659
4667000,0.0324,0.013523,0.002678,0.000431,0.144677
4668000,0.0324,0.013523,0.002678,0.000431,0.178055
4669000,0.0324,0.013523,0.002678,0.000431,0.140564
4670000,0.0324,0.013523,0.002678,0.000431,0.236702
4671000,0.0324,0.013523,0.002678,0.000431,0.156783
4672000,0.0324,0.013523,0.002678,0.000431,0.060057
4673000,0.0324,0.013523,0.002678,0.000431,0.171474
4674000,0.0324,0.013523,0.002678,0.000431,0.185224
4675000,0.0324,0.013523,0.002678,0.000431,0.162777
4676000,0.0324,0.013523,0.002678,0.000431,0.084973
4677000,0.0324,0.013523,0.002678,0.000431,0.285006
4678000,0.0324,0.013523,0.002678,0.000431,0.232001
4679000,0.0324,0.013523,0.002678,0.000431,0.116118
4680000,0.0324,0.013523,0.002678,0.000431,0.085208
4681000,0.0324,0.013523,0.002678,0.000431,0.129046
4682000,0.0324,0.013523,0.002678,0.000431,0.069107
4683000,0.0324,0.013523,0.002678,0.000431,0.095315
4684000,0.0324,0.013523,0.002678,0.000431,0.204499
4685000,0.0324,0.013523,0.002678,0.000431,0.087088
4686000,0.0324,0.013523,0.002678,0.000431,0.094375
4687000,0.0324,0.013523,0.002678,0.000431,0.146323
4688000,0.0324,0.013523,0.002678,0.000431,0.067344
4689000,0.0324,0.013523,0.002678,0.000431,0.129399
4690000,0.0324,0.013523,0.002678,0.000431,0.228592
4691000,0.0324,0.013523,0.002678,0.000431,0.151024
4692000,0.0324,0.013523,0.002678,0.000431,0.102602
4693000,0.0324,0.013523,0.002678,0.000431,0.140446
4694000,0.0324,0.013523,0.002678,0.000431,0.296876
4695000,0.0324,0.013523,0.002678,0.000431,0.129634
4696000,0.0324,0.013523,0.002678,0.000431,0.454481
4697000,0.0324,0.013523,0.002678,0.000431,0.239993
4698000,0.0324,0.013523,0.002678,0.000431,0.052770
4699000,0.0324,0.013523,0.002678,0.000431,0.162894
4700000,0.0324,0.013523,0.002678,0.000431,0.389136
4701000,0.0324,0.013523,0.002678,0.000431,0.130339
4702000,0.0324,0.013523,0.002678,0.000431,0.140681
4703000,0.0324,0.013523,0.002678,0.000431,0.123522
4704000,0.0324,0.013523,0.002678,0.000431,0.098959
4705000,0.0324,0.013523,0.002678,0.000431,0.035376
4706000,0.0324,0.013523,0.002678,0.000431,0.207555
4707000,0.0324,0.013523,0.002678,0.000431,0.148556
4708000,0.0324,0.013523,0.002678,0.000431,0.105540
4709000,0.0324,0.013523,0.002678,0.000431,0.191924
4710000,0.0324,0.013523,0.002678,0.000431,0.117528
4711000,0.0324,0.013523,0.002678,0.000431,0.072280
4712000,0.0324,0.013523,0.002678,0.000431,0.116353
4713000,0.0324,0.013523,0.002678,0.000431,0.297581
4714000,0.0324,0.013523,0.002678,0.000431,0.247044
4715000,0.0324,0.013523,0.002678,0.000431,0.293703
4716000,0.0324,0.013523,0.002678,0.000431,0.164422
4717000,0.0324,0.013523,0.002678,0.000431,0.092142
4718000,0.0324,0.013523,0.002678,0.000431,0.101779
4719000,0.0324,0.013523,0.002678,0.000431,0.126813
4720000,0.0324,0.013523,0.002678,0.000431,0.349176
4721000,0.0324,0.013523,0.002678,0.000431,0.289119
4722000,0.0324,0.013523,0.002678,0.000431,0.101192
4723000,0.0324,0.013523,0.002678,0.000431,0.295113
4724000,0.0324,0.013523,0.002678,0.000431,0.123875
4725000,0.0324,0.013523,0.002678,0.000431,0.092495
4726000,0.0324,0.013523,0.002678,0.000431,0.165597
4727000,0.0324,0.013523,0.002678,0.000431,0.178643
4728000,0.0324,0.013523,0.002678,0.000431,0.317914
4729000,0.0324,0.013523,0.002678,0.000431,0.105423
4730000,0.0324,0.013523,0.002678,0.000431,0.172649
4731000,0.0324,0.013523,0.002678,0.000431,0.168183
4732000,0.0324,0.013523,0.002678,0.000431,0.150436
4733000,0.0324,0.013523,0.002678,0.000431,0.171121
4734000,0.0324,0.013523,0.002678,0.000431,0.129281
4735000,0.0324,0.013523,0.002678,0.000431,0.341889
4736000,0.0324,0.013523,0.002678,0.000431,0.237524
4737000,0.0324,0.013523,0.002678,0.000431,0.068989
4738000,0.0324,0.013523,0.002678,0.000431,0.150436
4739000,0.0324,0.013523,0.002678,0.000431,0.226829
4740000,0.0324,0.013523,0.002678,0.000431,0.213314
4741000,0.0324,0.013523,0.002678,0.000431,0.123405
4742000,0.0324,0.013523,0.002678,0.000431,0.111064
4743000,0.0324,0.013523,0.002678,0.000431,0.157135
4744000,0.0324,0.013523,0.002678,0.000431,0.058294
4745000,0.0324,0.013523,0.002678,0.000431,0.159368
4746000,0.0324,0.013523,0.002678,0.000431,0.237877
4747000,0.0324,0.013523,0.002678,0.000431,0.387961
4748000,0.0324,0.013523,0.002678,0.000431,0.113415
4749000,0.0324,0.013523,0.002678,0.000431,0.155372
4750000,0.0324,0.013523,0.002678,0.000431,0.141857
4751000,0.0324,0.013523,0.002678,0.000431,0.160426
4752000,0.0324,0.013523,0.002678,0.000431,0.198740
4753000,0.0324,0.013523,0.002678,0.000431,0.229297
4754000,0.0324,0.013523,0.002678,0.000431,0.199563
4755000,0.0324,0.013523,0.002678,0.000431,0.146910
4756000,0.0324,0.013523,0.002678,0.000431,0.269022
4757000,0.0324,0.013523,0.002678,0.000431,0.100957
4758000,0.0324,0.013523,0.002678,0.000431,0.171591
4759000,0.0324,0.013523,0.002678,0.000431,0.213901
4760000,0.0324,0.013523,0.002678,0.000431,0.114943
4761000,0.0324,0.013523,0.002678,0.000431,0.219308
4762000,0.0324,0.013523,0.002678,0.000431,0.121289
4763000,0.0324,0.013523,0.002678,0.000431,0.141034
4764000,0.0324,0.013523,0.002678,0.000431,0.198858
4765000,0.0324,0.013523,0.002678,0.000431,0.128693
4766000,0.0324,0.013523,0.002678,0.000431,0.491150
4767000,0.0324,0.013523,0.002678,0.000431,0.084738
4768000,0.0324,0.013523,0.002678,0.000431,0.114590
4769000,0.0324,0.013523,0.002678,0.000431,0.120466
4770000,0.0324,0.013523,0.002678,0.000431,0.072045
4771000,0.0324,0.013523,0.002678,0.000431,0.125403
4772000,0.0324,0.013523,0.002678,0.000431,0.160543
4773000,0.0324,0.013523,0.002678,0.000431,0.190278
4774000,0.0324,0.013523,0.002678,0.000431,0.249747
4775000,0.0324,0.013523,0.002678,0.000431,0.088029
4776000,0.0324,0.013523,0.002678,0.000431,0.226594
4777000,0.0324,0.013523,0.002678,0.000431,0.133042
4778000,0.0324,0.013523,0.002678,0.000431,0.140564
4779000,0.0324,0.013523,0.002678,0.000431,0.312037
4780000,0.0324,0.013523,0.002678,0.000431,0.269022
4781000,0.0324,0.013523,0.002678,0.000431,0.159133
4782000,0.0324,0.013523,0.002678,0.000431,0.098724
4783000,0.0324,0.013523,0.002678,0.000431,0.072397
4784000,0.0324,0.013523,0.002678,0.000431,0.099194
4785000,0.0324,0.013523,0.002678,0.000431,0.372094
4786000,0.0324,0.013523,0.002678,0.000431,0.162306
4787000,0.0324,0.013523,0.002678,0.000431,0.130339
4788000,0.0324,0.013523,0.002678,0.000431,0.135275
4789000,0.0324,0.013523,0.002678,0.000431,0.085561
4790000,0.0324,0.013523,0.002678,0.000431,0.042075
4791000,0.0324,0.013523,0.002678,0.000431,0.136685
4792000,0.0324,0.013523,0.002678,0.000431,0.362927
4793000,0.0324,0.013523,0.002678,0.000431,0.205792
4794000,0.0324,0.013523,0.002678,0.000431,0.082505
4795000,0.0324,0.013523,0.002678,0.000431,0.182286
4796000,0.0324,0.013523,0.002678,0.000431,0.068166
4797000,0.0324,0.013523,0.002678,0.000431,0.117998
4798000,0.0324,0.013523,0.002678,0.000431,0.301812
4799000,0.0324,0.013523,0.002678,0.000431,0.135040
4800000,0.0324,0.013523,0.002678,0.000431,0.134217
4801000,0.0324,0.013523,0.002678,0.000431,0.038902
4802000,0.0324,0.013523,0.002678,0.000431,0.119526
4803000,0.0324,0.013523,0.002678,0.000431,0.097431
4804000,0.0324,0.013523,0.002678,0.000431,0.089792
4805000,0.0324,0.013523,0.002678,0.000431,0.131161
4806000,0.0324,0.013523,0.002678,0.000431,0.072867
4807000,0.0324,0.013523,0.002678,0.000431,0.147850
4808000,0.0324,0.013523,0.002678,0.000431,0.118351
4809000,0.0324,0.013523,0.002678,0.000431,0.151494
4810000,0.0324,0.013523,0.002678,0.000431,0.106245
4811000,0.0324,0.013523,0.002678,0.000431,0.218015
4812000,0.0324,0.013523,0.002678,0.000431,0.074160
4813000,0.0324,0.013523,0.002678,0.000431,0.178408
4814000,0.0324,0.013523,0.002678,0.000431,0.100252
4815000,0.0324,0.013523,0.002678,0.000431,0.098371
4816000,0.0324,0.013523,0.002678,0.000431,0.151494
4817000,0.0324,0.013523,0.002678,0.000431,0.106833
4818000,0.0324,0.013523,0.002678,0.000431,0.151611
4819000,0.0324,0.013523,0.002678,0.000431,0.081447
4820000,0.0324,0.013523,0.002678,0.000431,0.130456
4821000,0.0324,0.013523,0.002678,0.000431,0.139623
4822000,0.0324,0.013523,0.002678,0.000431,0.138331
4823000,0.0324,0.013523,0.002678,0.000431,0.102132
4824000,0.0324,0.013523,0.002678,0.000431,0.219190
4825000,0.0324,0.013523,0.002678,0.000431,0.232706
4826000,0.0324,0.013523,0.002678,0.000431,0.451661
4827000,0.0324,0.013523,0.002678,0.000431,0.229650
4828000,0.0324,0.013523,0.002678,0.000431,0.142327
4829000,0.0324,0.013523,0.002678,0.000431,0.187928
4830000,0.0324,0.013523,0.002678,0.000431,0.106245
4831000,0.0324,0.013523,0.002678,0.000431,0.179818
4832000,0.0324,0.013523,0.002678,0.000431,0.410056
4833000,0.0324,0.013523,0.002678,0.000431,0.057589
4834000,0.0324,0.013523,0.002678,0.000431,0.046306
4835000,0.0324,0.013523,0.002678,0.000431,0.093200
4836000,0.0324,0.013523,0.002678,0.000431,0.184637
4837000,0.0324,0.013523,0.002678,0.000431,0.154902
4838000,0.0324,0.013523,0.002678,0.000431,0.254801
4839000,0.0324,0.013523,0.002678,0.000431,0.231178
4840000,0.0324,0.013523,0.002678,0.000431,0.134922
4841000,0.0324,0.013523,0.002678,0.000431,0.095668
4842000,0.0324,0.013523,0.002678,0.000431,0.220130
4843000,0.0324,0.013523,0.002678,0.000431,0.171356
4844000,0.0324,0.013523,0.002678,0.000431,0.207907
4845000,0.0324,0.013523,0.002678,0.000431,0.142209
4846000,0.0324,0.013523,0.002678,0.000431,0.193804
4847000,0.0324,0.013523,0.002678,0.000431,0.097901
4848000,0.0324,0.013523,0.002678,0.000431,0.176997
4849000,0.0324,0.013523,0.002678,0.000431,0.245046
4850000,0.0324,0.013523,0.002678,0.000431,0.078274
4851000,0.0324,0.013523,0.002678,0.000431,0.198505
4852000,0.0324,0.013523,0.002678,0.000431,0.091554
4853000,0.0324,0.013523,0.002678,0.000431,0.121289
4854000,0.0324,0.013523,0.002678,0.000431,0.091554
4855000,0.0324,0.013523,0.002678,0.000431,0.151376
4856000,0.0324,0.013523,0.002678,0.000431,0.091319
4857000,0.0324,0.013523,0.002678,0.000431,0.125050
4858000,0.0324,0.013523,0.002678,0.000431,0.068872
4859000,0.0324,0.013523,0.002678,0.000431,0.148321
4860000,0.0324,0.013523,0.002678,0.000431,0.187340
4861000,0.0324,0.013523,0.002678,0.000431,0.134452
4862000,0.0324,0.013523,0.002678,0.000431,0.065228
4863000,0.0324,0.013523,0.002678,0.000431,0.102837
4864000,0.0324,0.013523,0.002678,0.000431,0.096726
4865000,0.0324,0.013523,0.002678,0.000431,0.133982
4866000,0.0324,0.013523,0.002678,0.000431,0.131044
4867000,0.0324,0.013523,0.002678,0.000431,0.050420
4868000,0.0324,0.013523,0.002678,0.000431,0.235526
4869000,0.0324,0.013523,0.002678,0.000431,0.127753
4870000,0.0324,0.013523,0.002678,0.000431,0.185812
4871000,0.0324,0.013523,0.002678,0.000431,0.122347
4872000,0.0324,0.013523,0.002678,0.000431,0.137390
4873000,0.0324,0.013523,0.002678,0.000431,0.237289
4874000,0.0324,0.013523,0.002678,0.000431,0.256917
4875000,0.0324,0.013523,0.002678,0.000431,0.247632
4876000,0.0324,0.013523,0.002678,0.000431,0.178760
4877000,0.0324,0.013523,0.002678,0.000431,0.188750
4878000,0.0324,0.013523,0.002678,0.000431,0.091672
4879000,0.0324,0.013523,0.002678,0.000431,0.174882
4880000,0.0324,0.013523,0.002678,0.000431,0.119761
4881000,0.0324,0.013523,0.002678,0.000431,0.206497
4882000,0.0324,0.013523,0.002678,0.000431,0.135745
4883000,0.0324,0.013523,0.002678,0.000431,0.181699
4884000,0.0324,0.013523,0.002678,0.000431,0.214254
4885000,0.0324,0.013523,0.002678,0.000431,0.076628
4886000,0.0324,0.013523,0.002678,0.000431,0.079684
4887000,0.0324,0.013523,0.002678,0.000431,0.157135
4888000,0.0324,0.013523,0.002678,0.000431,0.171121
4889000,0.0324,0.013523,0.002678,0.000431,0.131279
4890000,0.0324,0.013523,0.002678,0.000431,0.121759
4891000,0.0324,0.013523,0.002678,0.000431,0.088851
4892000,0.0324,0.013523,0.002678,0.000431,0.132337
4893000,0.0324,0.013523,0.002678,0.000431,0.085325
4894000,0.0324,0.013523,0.002678,0.000431,0.162071
4895000,0.0324,0.013523,0.002678,0.000431,0.135980
4896000,0.0324,0.013523,0.002678,0.000431,0.218955
4897000,0.0324,0.013523,0.002678,0.000431,0.160779
4898000,0.0324,0.013523,0.002678,0.000431,0.266907
4899000,0.0324,0.013523,0.002678,0.000431,0.080859
4900000,0.0324,0.013523,0.002678,0.000431,0.181934
4901000,0.0324,0.013523,0.002678,0.000431,0.175470
4902000,0.0324,0.013523,0.002678,0.000431,0.333427
4903000,0.0324,0.013523,0.002678,0.000431,0.345650
4904000,0.0324,0.013523,0.002678,0.000431,0.042310
4905000,0.0324,0.013523,0.002678,0.000431,0.095433
4906000,0.0324,0.013523,0.002678,0.000431,0.079567
4907000,0.0324,0.013523,0.002678,0.000431,0.377736
4908000,0.0324,0.013523,0.002678,0.000431,0.258327
4909000,0.0324,0.013523,0.002678,0.000431,0.250688
4910000,0.0324,0.013523,0.002678,0.000431,0.222833
4911000,0.0324,0.013523,0.002678,0.000431,0.196155
4912000,0.0324,0.013523,0.002678,0.000431,0.119174
4913000,0.0324,0.013523,0.002678,0.000431,0.135980
4914000,0.0324,0.013523,0.002678,0.000431,0.149848
4915000,0.0324,0.013523,0.002678,0.000431,0.301577
4916000,0.0324,0.013523,0.002678,0.000431,0.148203
4917000,0.0324,0.013523,0.002678,0.000431,0.081212
4918000,0.0324,0.013523,0.002678,0.000431,0.103072
4919000,0.0324,0.013523,0.002678,0.000431,0.145852
4920000,0.0324,0.013523,0.002678,0.000431,0.090614
4921000,0.0324,0.013523,0.002678,0.000431,0.161131
4922000,0.0324,0.013523,0.002678,0.000431,0.080624
4923000,0.0324,0.013523,0.002678,0.000431,0.065228
4924000,0.0324,0.013523,0.002678,0.000431,0.232941
4925000,0.0324,0.013523,0.002678,0.000431,0.080037
4926000,0.0324,0.013523,0.002678,0.000431,0.117411
4927000,0.0324,0.013523,0.002678,0.000431,0.113767
4928000,0.0324,0.013523,0.002678,0.000431,0.269727
4929000,0.0324,0.013523,0.002678,0.000431,0.180288
4930000,0.0324,0.013523,0.002678,0.000431,0.080389
4931000,0.0324,0.013523,0.002678,0.000431,0.106245
4932000,0.0324,0.013523,0.002678,0.000431,0.099781
4933000,0.0324,0.013523,0.002678,0.000431,0.194039
4934000,0.0324,0.013523,0.002678,0.000431,0.302635
4935000,0.0324,0.013523,0.002678,0.000431,0.268552
4936000,0.0324,0.013523,0.002678,0.000431,0.127636
4937000,0.0324,0.013523,0.002678,0.000431,0.064876
4938000,0.0324,0.013523,0.002678,0.000431,0.095198
4939000,0.0324,0.013523,0.002678,0.000431,0.178173
4940000,0.0324,0.013523,0.002678,0.000431,0.089792
4941000,0.0324,0.013523,0.002678,0.000431,0.213079
4942000,0.0324,0.013523,0.002678,0.000431,0.141386
4943000,0.0324,0.013523,0.002678,0.000431,0.181346
4944000,0.0324,0.013523,0.002678,0.000431,0.220013
4945000,0.0324,0.013523,0.002678,0.000431,0.244576
4946000,0.0324,0.013523,0.002678,0.000431,0.092377
4947000,0.0324,0.013523,0.002678,0.000431,0.163364
4948000,0.0324,0.013523,0.002678,0.000431,0.277954
4949000,0.0324,0.013523,0.002678,0.000431,0.112239
4950000,0.0324,0.013523,0.002678,0.000431,0.132807
4951000,0.0324,0.013523,0.002678,0.000431,0.158663
4952000,0.0324,0.013523,0.002678,0.000431,0.161836
4953000,0.0324,0.013523,0.002678,0.000431,0.198623
4954000,0.0324,0.013523,0.002678,0.000431,0.251393
4955000,0.0324,0.013523,0.002678,0.000431,0.270197
4956000,0.0324,0.013523,0.002678,0.000431,0.163364
4957000,0.0324,0.013523,0.002678,0.000431,0.159486
4958000,0.0324,0.013523,0.002678,0.000431,0.091672
4959000,0.0324,0.013523,0.002678,0.000431,0.057589
4960000,0.0324,0.013523,0.002678,0.000431,0.129046
4961000,0.0324,0.013523,0.002678,0.000431,0.223068
4962000,0.0324,0.013523,0.002678,0.000431,0.226947
4963000,0.0324,0.013523,0.002678,0.000431,0.170416
4964000,0.0324,0.013523,0.002678,0.000431,0.171121
4965000,0.0324,0.013523,0.002678,0.000431,0.173824
4966000,0.0324,0.013523,0.002678,0.000431,0.116705
4967000,0.0324,0.013523,0.002678,0.000431,0.148908
4968000,0.0324,0.013523,0.002678,0.000431,0.069107
4969000,0.0324,0.013523,0.002678,0.000431,0.084033
4970000,0.0324,0.013523,0.002678,0.000431,0.065228
4971000,0.0324,0.013523,0.002678,0.000431,0.065816
4972000,0.0324,0.013523,0.002678,0.000431,0.143032
4973000,0.0324,0.013523,0.002678,0.000431,0.198270
4974000,0.0324,0.013523,0.002678,0.000431,0.061115
4975000,0.0324,0.013523,0.002678,0.000431,0.099664
4976000,0.0324,0.013523,0.002678,0.000431,0.058294
4977000,0.0324,0.013523,0.002678,0.000431,0.132689
4978000,0.0324,0.013523,0.002678,0.000431,0.100957
4979000,0.0324,0.013523,0.002678,0.000431,0.247749
4980000,0.0324,0.013523,0.002678,0.000431,0.110947
4981000,0.0324,0.013523,0.002678,0.000431,0.144325
4982000,0.0324,0.013523,0.002678,0.000431,0.144207
4983000,0.0324,0.013523,0.002678,0.000431,0.112004
4984000,0.0324,0.013523,0.002678,0.000431,0.101309
4985000,0.0324,0.013523,0.002678,0.000431,0.076393
4986000,0.0324,0.013523,0.002678,0.000431,0.181581
4987000,0.0324,0.013523,0.002678,0.000431,0.129634
4988000,0.0324,0.013523,0.002678,0.000431,0.139741
4989000,0.0324,0.013523,0.002678,0.000431,0.071575
4990000,0.0324,0.013523,0.002678,0.000431,0.095080
4991000,0.0324,0.013523,0.002678,0.000431,0.116705
4992000,0.0324,0.013523,0.002678,0.000431,0.168065
4993000,0.0324,0.013523,0.002678,0.000431,0.287356
4994000,0.0324,0.013523,0.002678,0.000431,0.096021
4995000,0.0324,0.013523,0.002678,0.000431,0.088146
4996000,0.0324,0.013523,0.002678,0.000431,0.128693
4997000,0.0324,0.013523,0.002678,0.000431,0.117646
4998000,0.0324,0.013523,0.002678,0.000431,0.134217
4999000,0.0324,0.013523,0.002678,0.000431,0.242578
