Cycle,Area(mm^2),PeakDynamic(W),SubthresholdLeakage(W),GateLeakage(W),RunTimeDynamic(W)
28000000,0.0324,0.013523,0.002678,0.000431,0.074278
28001000,0.0324,0.013523,0.002678,0.000431,0.063230
28002000,0.0324,0.013523,0.002678,0.000431,0.004701
28003000,0.0324,0.013523,0.002678,0.000431,0.004701
28004000,0.0324,0.013523,0.002678,0.000431,0.004584
28005000,0.0324,0.013523,0.002678,0.000431,0.027149
28006000,0.0324,0.013523,0.002678,0.000431,0.012223
28007000,0.0324,0.013523,0.002678,0.000431,0.004701
28008000,0.0324,0.013523,0.002678,0.000431,0.004701
28009000,0.0324,0.013523,0.002678,0.000431,0.004701
28010000,0.0324,0.013523,0.002678,0.000431,0.004701
28011000,0.0324,0.013523,0.002678,0.000431,0.043250
28012000,0.0324,0.013523,0.002678,0.000431,0.011283
28013000,0.0324,0.013523,0.002678,0.000431,0.004701
28014000,0.0324,0.013523,0.002678,0.000431,0.004701
28015000,0.0324,0.013523,0.002678,0.000431,0.004701
28016000,0.0324,0.013523,0.002678,0.000431,0.004701
28017000,0.0324,0.013523,0.002678,0.000431,0.004701
28018000,0.0324,0.013523,0.002678,0.000431,0.027267
28019000,0.0324,0.013523,0.002678,0.000431,0.034788
28020000,0.0324,0.013523,0.002678,0.000431,0.004701
28021000,0.0324,0.013523,0.002678,0.000431,0.004701
28022000,0.0324,0.013523,0.002678,0.000431,0.004701
28023000,0.0324,0.013523,0.002678,0.000431,0.004701
28024000,0.0324,0.013523,0.002678,0.000431,0.004584
28025000,0.0324,0.013523,0.002678,0.000431,0.004584
28026000,0.0324,0.013523,0.002678,0.000431,0.035023
28027000,0.0324,0.013523,0.002678,0.000431,0.004701
28028000,0.0324,0.013523,0.002678,0.000431,0.004701
28029000,0.0324,0.013523,0.002678,0.000431,0.004701
28030000,0.0324,0.013523,0.002678,0.000431,0.009637
28031000,0.0324,0.013523,0.002678,0.000431,0.029852
28032000,0.0324,0.013523,0.002678,0.000431,0.042545
28033000,0.0324,0.013523,0.002678,0.000431,0.004701
28034000,0.0324,0.013523,0.002678,0.000431,0.004701
28035000,0.0324,0.013523,0.002678,0.000431,0.004701
28036000,0.0324,0.013523,0.002678,0.000431,0.004701
28037000,0.0324,0.013523,0.002678,0.000431,0.064876
28038000,0.0324,0.013523,0.002678,0.000431,0.031145
28039000,0.0324,0.013523,0.002678,0.000431,0.015866
28040000,0.0324,0.013523,0.002678,0.000431,0.004701
28041000,0.0324,0.013523,0.002678,0.000431,0.004701
28042000,0.0324,0.013523,0.002678,0.000431,0.004701
28043000,0.0324,0.013523,0.002678,0.000431,0.038549
28044000,0.0324,0.013523,0.002678,0.000431,0.038549
28045000,0.0324,0.013523,0.002678,0.000431,0.008462
28046000,0.0324,0.013523,0.002678,0.000431,0.008462
28047000,0.0324,0.013523,0.002678,0.000431,0.004701
28048000,0.0324,0.013523,0.002678,0.000431,0.004701
28049000,0.0324,0.013523,0.002678,0.000431,0.004701
28050000,0.0324,0.013523,0.002678,0.000431,0.012223
28051000,0.0324,0.013523,0.002678,0.000431,0.064641
28052000,0.0324,0.013523,0.002678,0.000431,0.019745
28053000,0.0324,0.013523,0.002678,0.000431,0.004701
28054000,0.0324,0.013523,0.002678,0.000431,0.004701
28055000,0.0324,0.013523,0.002678,0.000431,0.004701
28056000,0.0324,0.013523,0.002678,0.000431,0.068636
28057000,0.0324,0.013523,0.002678,0.000431,0.061115
28058000,0.0324,0.013523,0.002678,0.000431,0.004701
28059000,0.0324,0.013523,0.002678,0.000431,0.004701
28060000,0.0324,0.013523,0.002678,0.000431,0.004701
28061000,0.0324,0.013523,0.002678,0.000431,0.004701
28062000,0.0324,0.013523,0.002678,0.000431,0.004701
28063000,0.0324,0.013523,0.002678,0.000431,0.012223
28064000,0.0324,0.013523,0.002678,0.000431,0.004466
28065000,0.0324,0.013523,0.002678,0.000431,0.095198
28066000,0.0324,0.013523,0.002678,0.000431,0.004701
28067000,0.0324,0.013523,0.002678,0.000431,0.004701
28068000,0.0324,0.013523,0.002678,0.000431,0.004701
28069000,0.0324,0.013523,0.002678,0.000431,0.108949
28070000,0.0324,0.013523,0.002678,0.000431,0.035611
28071000,0.0324,0.013523,0.002678,0.000431,0.083798
28072000,0.0324,0.013523,0.002678,0.000431,0.068519
28073000,0.0324,0.013523,0.002678,0.000431,0.004701
28074000,0.0324,0.013523,0.002678,0.000431,0.004701
28075000,0.0324,0.013523,0.002678,0.000431,0.008462
28076000,0.0324,0.013523,0.002678,0.000431,0.039489
28077000,0.0324,0.013523,0.002678,0.000431,0.018805
28078000,0.0324,0.013523,0.002678,0.000431,0.004584
28079000,0.0324,0.013523,0.002678,0.000431,0.004584
28080000,0.0324,0.013523,0.002678,0.000431,0.004701
28081000,0.0324,0.013523,0.002678,0.000431,0.004701
28082000,0.0324,0.013523,0.002678,0.000431,0.038549
28083000,0.0324,0.013523,0.002678,0.000431,0.046071
28084000,0.0324,0.013523,0.002678,0.000431,0.008462
28085000,0.0324,0.013523,0.002678,0.000431,0.008462
28086000,0.0324,0.013523,0.002678,0.000431,0.004701
28087000,0.0324,0.013523,0.002678,0.000431,0.004701
28088000,0.0324,0.013523,0.002678,0.000431,0.015984
28089000,0.0324,0.013523,0.002678,0.000431,0.058999
28090000,0.0324,0.013523,0.002678,0.000431,0.006817
28091000,0.0324,0.013523,0.002678,0.000431,0.004466
28092000,0.0324,0.013523,0.002678,0.000431,0.004701
28093000,0.0324,0.013523,0.002678,0.000431,0.004701
28094000,0.0324,0.013523,0.002678,0.000431,0.004701
28095000,0.0324,0.013523,0.002678,0.000431,0.027267
28096000,0.0324,0.013523,0.002678,0.000431,0.004701
28097000,0.0324,0.013523,0.002678,0.000431,0.004701
28098000,0.0324,0.013523,0.002678,0.000431,0.004701
28099000,0.0324,0.013523,0.002678,0.000431,0.004701
28100000,0.0324,0.013523,0.002678,0.000431,0.004701
28101000,0.0324,0.013523,0.002678,0.000431,0.008462
28102000,0.0324,0.013523,0.002678,0.000431,0.015984
28103000,0.0324,0.013523,0.002678,0.000431,0.008462
28104000,0.0324,0.013523,0.002678,0.000431,0.008227
28105000,0.0324,0.013523,0.002678,0.000431,0.004701
28106000,0.0324,0.013523,0.002678,0.000431,0.004701
28107000,0.0324,0.013523,0.002678,0.000431,0.004584
28108000,0.0324,0.013523,0.002678,0.000431,0.060997
28109000,0.0324,0.013523,0.002678,0.000431,0.008462
28110000,0.0324,0.013523,0.002678,0.000431,0.019745
28111000,0.0324,0.013523,0.002678,0.000431,0.004701
28112000,0.0324,0.013523,0.002678,0.000431,0.004701
28113000,0.0324,0.013523,0.002678,0.000431,0.004701
28114000,0.0324,0.013523,0.002678,0.000431,0.019745
28115000,0.0324,0.013523,0.002678,0.000431,0.012458
28116000,0.0324,0.013523,0.002678,0.000431,0.026326
28117000,0.0324,0.013523,0.002678,0.000431,0.035729
28118000,0.0324,0.013523,0.002678,0.000431,0.004584
28119000,0.0324,0.013523,0.002678,0.000431,0.004584
28120000,0.0324,0.013523,0.002678,0.000431,0.008462
28121000,0.0324,0.013523,0.002678,0.000431,0.027267
28122000,0.0324,0.013523,0.002678,0.000431,0.008462
28123000,0.0324,0.013523,0.002678,0.000431,0.004701
28124000,0.0324,0.013523,0.002678,0.000431,0.004701
28125000,0.0324,0.013523,0.002678,0.000431,0.004701
28126000,0.0324,0.013523,0.002678,0.000431,0.004701
28127000,0.0324,0.013523,0.002678,0.000431,0.064876
28128000,0.0324,0.013523,0.002678,0.000431,0.012223
28129000,0.0324,0.013523,0.002678,0.000431,0.033143
28130000,0.0324,0.013523,0.002678,0.000431,0.006347
28131000,0.0324,0.013523,0.002678,0.000431,0.004466
28132000,0.0324,0.013523,0.002678,0.000431,0.004701
28133000,0.0324,0.013523,0.002678,0.000431,0.008932
28134000,0.0324,0.013523,0.002678,0.000431,0.045601
28135000,0.0324,0.013523,0.002678,0.000431,0.004701
28136000,0.0324,0.013523,0.002678,0.000431,0.012223
28137000,0.0324,0.013523,0.002678,0.000431,0.004701
28138000,0.0324,0.013523,0.002678,0.000431,0.004701
28139000,0.0324,0.013523,0.002678,0.000431,0.004701
28140000,0.0324,0.013523,0.002678,0.000431,0.072515
28141000,0.0324,0.013523,0.002678,0.000431,0.109889
28142000,0.0324,0.013523,0.002678,0.000431,0.027149
28143000,0.0324,0.013523,0.002678,0.000431,0.004584
28144000,0.0324,0.013523,0.002678,0.000431,0.004584
28145000,0.0324,0.013523,0.002678,0.000431,0.004584
28146000,0.0324,0.013523,0.002678,0.000431,0.019745
28147000,0.0324,0.013523,0.002678,0.000431,0.043838
28148000,0.0324,0.013523,0.002678,0.000431,0.015866
28149000,0.0324,0.013523,0.002678,0.000431,0.029382
28150000,0.0324,0.013523,0.002678,0.000431,0.004701
28151000,0.0324,0.013523,0.002678,0.000431,0.004701
28152000,0.0324,0.013523,0.002678,0.000431,0.004701
28153000,0.0324,0.013523,0.002678,0.000431,0.004701
28154000,0.0324,0.013523,0.002678,0.000431,0.004701
28155000,0.0324,0.013523,0.002678,0.000431,0.004701
28156000,0.0324,0.013523,0.002678,0.000431,0.004701
28157000,0.0324,0.013523,0.002678,0.000431,0.004701
28158000,0.0324,0.013523,0.002678,0.000431,0.004584
28159000,0.0324,0.013523,0.002678,0.000431,0.042193
28160000,0.0324,0.013523,0.002678,0.000431,0.036551
28161000,0.0324,0.013523,0.002678,0.000431,0.010460
28162000,0.0324,0.013523,0.002678,0.000431,0.049832
28163000,0.0324,0.013523,0.002678,0.000431,0.004701
28164000,0.0324,0.013523,0.002678,0.000431,0.004701
28165000,0.0324,0.013523,0.002678,0.000431,0.012223
28166000,0.0324,0.013523,0.002678,0.000431,0.019745
28167000,0.0324,0.013523,0.002678,0.000431,0.004701
28168000,0.0324,0.013523,0.002678,0.000431,0.018217
28169000,0.0324,0.013523,0.002678,0.000431,0.021273
28170000,0.0324,0.013523,0.002678,0.000431,0.004701
28171000,0.0324,0.013523,0.002678,0.000431,0.004701
28172000,0.0324,0.013523,0.002678,0.000431,0.004701
28173000,0.0324,0.013523,0.002678,0.000431,0.004701
28174000,0.0324,0.013523,0.002678,0.000431,0.004701
28175000,0.0324,0.013523,0.002678,0.000431,0.004701
28176000,0.0324,0.013523,0.002678,0.000431,0.004701
28177000,0.0324,0.013523,0.002678,0.000431,0.004701
28178000,0.0324,0.013523,0.002678,0.000431,0.027149
28179000,0.0324,0.013523,0.002678,0.000431,0.019862
28180000,0.0324,0.013523,0.002678,0.000431,0.004701
28181000,0.0324,0.013523,0.002678,0.000431,0.004701
28182000,0.0324,0.013523,0.002678,0.000431,0.004584
28183000,0.0324,0.013523,0.002678,0.000431,0.004584
28184000,0.0324,0.013523,0.002678,0.000431,0.004584
28185000,0.0324,0.013523,0.002678,0.000431,0.105188
28186000,0.0324,0.013523,0.002678,0.000431,0.039254
28187000,0.0324,0.013523,0.002678,0.000431,0.004701
28188000,0.0324,0.013523,0.002678,0.000431,0.049832
28189000,0.0324,0.013523,0.002678,0.000431,0.004701
28190000,0.0324,0.013523,0.002678,0.000431,0.004701
28191000,0.0324,0.013523,0.002678,0.000431,0.004701
28192000,0.0324,0.013523,0.002678,0.000431,0.049832
28193000,0.0324,0.013523,0.002678,0.000431,0.004701
28194000,0.0324,0.013523,0.002678,0.000431,0.020215
28195000,0.0324,0.013523,0.002678,0.000431,0.004701
28196000,0.0324,0.013523,0.002678,0.000431,0.004701
28197000,0.0324,0.013523,0.002678,0.000431,0.004701
28198000,0.0324,0.013523,0.002678,0.000431,0.064993
28199000,0.0324,0.013523,0.002678,0.000431,0.057471
28200000,0.0324,0.013523,0.002678,0.000431,0.004701
28201000,0.0324,0.013523,0.002678,0.000431,0.019745
28202000,0.0324,0.013523,0.002678,0.000431,0.004701
28203000,0.0324,0.013523,0.002678,0.000431,0.004701
28204000,0.0324,0.013523,0.002678,0.000431,0.023506
28205000,0.0324,0.013523,0.002678,0.000431,0.023506
28206000,0.0324,0.013523,0.002678,0.000431,0.004701
28207000,0.0324,0.013523,0.002678,0.000431,0.019745
28208000,0.0324,0.013523,0.002678,0.000431,0.004701
28209000,0.0324,0.013523,0.002678,0.000431,0.004701
28210000,0.0324,0.013523,0.002678,0.000431,0.004701
28211000,0.0324,0.013523,0.002678,0.000431,0.018569
28212000,0.0324,0.013523,0.002678,0.000431,0.036199
28213000,0.0324,0.013523,0.002678,0.000431,0.015984
28214000,0.0324,0.013523,0.002678,0.000431,0.023506
28215000,0.0324,0.013523,0.002678,0.000431,0.004701
28216000,0.0324,0.013523,0.002678,0.000431,0.004701
28217000,0.0324,0.013523,0.002678,0.000431,0.064876
28218000,0.0324,0.013523,0.002678,0.000431,0.012223
28219000,0.0324,0.013523,0.002678,0.000431,0.004701
28220000,0.0324,0.013523,0.002678,0.000431,0.042310
28221000,0.0324,0.013523,0.002678,0.000431,0.004701
28222000,0.0324,0.013523,0.002678,0.000431,0.004584
28223000,0.0324,0.013523,0.002678,0.000431,0.016571
28224000,0.0324,0.013523,0.002678,0.000431,0.022448
28225000,0.0324,0.013523,0.002678,0.000431,0.027149
28226000,0.0324,0.013523,0.002678,0.000431,0.042428
28227000,0.0324,0.013523,0.002678,0.000431,0.072280
28228000,0.0324,0.013523,0.002678,0.000431,0.004701
28229000,0.0324,0.013523,0.002678,0.000431,0.004701
28230000,0.0324,0.013523,0.002678,0.000431,0.004701
28231000,0.0324,0.013523,0.002678,0.000431,0.019040
28232000,0.0324,0.013523,0.002678,0.000431,0.027972
28233000,0.0324,0.013523,0.002678,0.000431,0.004701
28234000,0.0324,0.013523,0.002678,0.000431,0.004701
28235000,0.0324,0.013523,0.002678,0.000431,0.004701
28236000,0.0324,0.013523,0.002678,0.000431,0.012223
28237000,0.0324,0.013523,0.002678,0.000431,0.057354
28238000,0.0324,0.013523,0.002678,0.000431,0.004701
28239000,0.0324,0.013523,0.002678,0.000431,0.004701
28240000,0.0324,0.013523,0.002678,0.000431,0.004701
28241000,0.0324,0.013523,0.002678,0.000431,0.004701
28242000,0.0324,0.013523,0.002678,0.000431,0.004701
28243000,0.0324,0.013523,0.002678,0.000431,0.023506
28244000,0.0324,0.013523,0.002678,0.000431,0.008462
28245000,0.0324,0.013523,0.002678,0.000431,0.004701
28246000,0.0324,0.013523,0.002678,0.000431,0.004701
28247000,0.0324,0.013523,0.002678,0.000431,0.004701
28248000,0.0324,0.013523,0.002678,0.000431,0.004701
28249000,0.0324,0.013523,0.002678,0.000431,0.058412
28250000,0.0324,0.013523,0.002678,0.000431,0.063818
28251000,0.0324,0.013523,0.002678,0.000431,0.004701
28252000,0.0324,0.013523,0.002678,0.000431,0.013281
28253000,0.0324,0.013523,0.002678,0.000431,0.011165
28254000,0.0324,0.013523,0.002678,0.000431,0.004466
28255000,0.0324,0.013523,0.002678,0.000431,0.009990
28256000,0.0324,0.013523,0.002678,0.000431,0.135040
28257000,0.0324,0.013523,0.002678,0.000431,0.034318
28258000,0.0324,0.013523,0.002678,0.000431,0.004584
28259000,0.0324,0.013523,0.002678,0.000431,0.004584
28260000,0.0324,0.013523,0.002678,0.000431,0.004701
28261000,0.0324,0.013523,0.002678,0.000431,0.004701
28262000,0.0324,0.013523,0.002678,0.000431,0.031027
28263000,0.0324,0.013523,0.002678,0.000431,0.038549
28264000,0.0324,0.013523,0.002678,0.000431,0.004701
28265000,0.0324,0.013523,0.002678,0.000431,0.004466
28266000,0.0324,0.013523,0.002678,0.000431,0.004701
28267000,0.0324,0.013523,0.002678,0.000431,0.004701
28268000,0.0324,0.013523,0.002678,0.000431,0.008462
28269000,0.0324,0.013523,0.002678,0.000431,0.136568
28270000,0.0324,0.013523,0.002678,0.000431,0.004701
28271000,0.0324,0.013523,0.002678,0.000431,0.094963
28272000,0.0324,0.013523,0.002678,0.000431,0.004701
28273000,0.0324,0.013523,0.002678,0.000431,0.004701
28274000,0.0324,0.013523,0.002678,0.000431,0.004701
28275000,0.0324,0.013523,0.002678,0.000431,0.036786
28276000,0.0324,0.013523,0.002678,0.000431,0.033025
28277000,0.0324,0.013523,0.002678,0.000431,0.040195
28278000,0.0324,0.013523,0.002678,0.000431,0.021860
28279000,0.0324,0.013523,0.002678,0.000431,0.004701
28280000,0.0324,0.013523,0.002678,0.000431,0.004701
28281000,0.0324,0.013523,0.002678,0.000431,0.014926
28282000,0.0324,0.013523,0.002678,0.000431,0.084738
28283000,0.0324,0.013523,0.002678,0.000431,0.004701
28284000,0.0324,0.013523,0.002678,0.000431,0.027267
28285000,0.0324,0.013523,0.002678,0.000431,0.004466
28286000,0.0324,0.013523,0.002678,0.000431,0.004701
28287000,0.0324,0.013523,0.002678,0.000431,0.004701
28288000,0.0324,0.013523,0.002678,0.000431,0.075923
28289000,0.0324,0.013523,0.002678,0.000431,0.015984
28290000,0.0324,0.013523,0.002678,0.000431,0.034788
28291000,0.0324,0.013523,0.002678,0.000431,0.004701
28292000,0.0324,0.013523,0.002678,0.000431,0.004701
28293000,0.0324,0.013523,0.002678,0.000431,0.004701
28294000,0.0324,0.013523,0.002678,0.000431,0.004701
28295000,0.0324,0.013523,0.002678,0.000431,0.042310
28296000,0.0324,0.013523,0.002678,0.000431,0.004701
28297000,0.0324,0.013523,0.002678,0.000431,0.034788
28298000,0.0324,0.013523,0.002678,0.000431,0.004584
28299000,0.0324,0.013523,0.002678,0.000431,0.004349
28300000,0.0324,0.013523,0.002678,0.000431,0.004701
28301000,0.0324,0.013523,0.002678,0.000431,0.105305
28302000,0.0324,0.013523,0.002678,0.000431,0.024446
28303000,0.0324,0.013523,0.002678,0.000431,0.004701
28304000,0.0324,0.013523,0.002678,0.000431,0.004701
28305000,0.0324,0.013523,0.002678,0.000431,0.004701
28306000,0.0324,0.013523,0.002678,0.000431,0.004701
28307000,0.0324,0.013523,0.002678,0.000431,0.012223
28308000,0.0324,0.013523,0.002678,0.000431,0.019745
28309000,0.0324,0.013523,0.002678,0.000431,0.004701
28310000,0.0324,0.013523,0.002678,0.000431,0.004701
28311000,0.0324,0.013523,0.002678,0.000431,0.004701
28312000,0.0324,0.013523,0.002678,0.000431,0.004701
28313000,0.0324,0.013523,0.002678,0.000431,0.004701
28314000,0.0324,0.013523,0.002678,0.000431,0.050302
28315000,0.0324,0.013523,0.002678,0.000431,0.004701
28316000,0.0324,0.013523,0.002678,0.000431,0.012223
28317000,0.0324,0.013523,0.002678,0.000431,0.004701
28318000,0.0324,0.013523,0.002678,0.000431,0.004701
28319000,0.0324,0.013523,0.002678,0.000431,0.004701
28320000,0.0324,0.013523,0.002678,0.000431,0.019980
28321000,0.0324,0.013523,0.002678,0.000431,0.004701
28322000,0.0324,0.013523,0.002678,0.000431,0.004701
28323000,0.0324,0.013523,0.002678,0.000431,0.004701
28324000,0.0324,0.013523,0.002678,0.000431,0.004701
28325000,0.0324,0.013523,0.002678,0.000431,0.004584
28326000,0.0324,0.013523,0.002678,0.000431,0.004584
28327000,0.0324,0.013523,0.002678,0.000431,0.116235
28328000,0.0324,0.013523,0.002678,0.000431,0.028559
28329000,0.0324,0.013523,0.002678,0.000431,0.004701
28330000,0.0324,0.013523,0.002678,0.000431,0.004701
28331000,0.0324,0.013523,0.002678,0.000431,0.004701
28332000,0.0324,0.013523,0.002678,0.000431,0.004701
28333000,0.0324,0.013523,0.002678,0.000431,0.034788
28334000,0.0324,0.013523,0.002678,0.000431,0.042310
28335000,0.0324,0.013523,0.002678,0.000431,0.027267
28336000,0.0324,0.013523,0.002678,0.000431,0.004701
28337000,0.0324,0.013523,0.002678,0.000431,0.004701
28338000,0.0324,0.013523,0.002678,0.000431,0.004701
28339000,0.0324,0.013523,0.002678,0.000431,0.004584
28340000,0.0324,0.013523,0.002678,0.000431,0.027149
28341000,0.0324,0.013523,0.002678,0.000431,0.053358
28342000,0.0324,0.013523,0.002678,0.000431,0.061467
28343000,0.0324,0.013523,0.002678,0.000431,0.004584
28344000,0.0324,0.013523,0.002678,0.000431,0.004701
28345000,0.0324,0.013523,0.002678,0.000431,0.004701
28346000,0.0324,0.013523,0.002678,0.000431,0.057354
28347000,0.0324,0.013523,0.002678,0.000431,0.004701
28348000,0.0324,0.013523,0.002678,0.000431,0.004701
28349000,0.0324,0.013523,0.002678,0.000431,0.050067
28350000,0.0324,0.013523,0.002678,0.000431,0.004701
28351000,0.0324,0.013523,0.002678,0.000431,0.004701
28352000,0.0324,0.013523,0.002678,0.000431,0.055121
28353000,0.0324,0.013523,0.002678,0.000431,0.063818
28354000,0.0324,0.013523,0.002678,0.000431,0.007992
28355000,0.0324,0.013523,0.002678,0.000431,0.019745
28356000,0.0324,0.013523,0.002678,0.000431,0.004701
28357000,0.0324,0.013523,0.002678,0.000431,0.004701
28358000,0.0324,0.013523,0.002678,0.000431,0.004701
28359000,0.0324,0.013523,0.002678,0.000431,0.072515
28360000,0.0324,0.013523,0.002678,0.000431,0.012105
28361000,0.0324,0.013523,0.002678,0.000431,0.008462
28362000,0.0324,0.013523,0.002678,0.000431,0.008462
28363000,0.0324,0.013523,0.002678,0.000431,0.004701
28364000,0.0324,0.013523,0.002678,0.000431,0.004701
28365000,0.0324,0.013523,0.002678,0.000431,0.012105
28366000,0.0324,0.013523,0.002678,0.000431,0.027149
28367000,0.0324,0.013523,0.002678,0.000431,0.004466
28368000,0.0324,0.013523,0.002678,0.000431,0.004701
28369000,0.0324,0.013523,0.002678,0.000431,0.004701
28370000,0.0324,0.013523,0.002678,0.000431,0.004701
28371000,0.0324,0.013523,0.002678,0.000431,0.004701
28372000,0.0324,0.013523,0.002678,0.000431,0.019745
28373000,0.0324,0.013523,0.002678,0.000431,0.019745
28374000,0.0324,0.013523,0.002678,0.000431,0.005641
28375000,0.0324,0.013523,0.002678,0.000431,0.011048
28376000,0.0324,0.013523,0.002678,0.000431,0.004701
28377000,0.0324,0.013523,0.002678,0.000431,0.004701
28378000,0.0324,0.013523,0.002678,0.000431,0.027267
28379000,0.0324,0.013523,0.002678,0.000431,0.012223
28380000,0.0324,0.013523,0.002678,0.000431,0.004701
28381000,0.0324,0.013523,0.002678,0.000431,0.057354
28382000,0.0324,0.013523,0.002678,0.000431,0.004701
28383000,0.0324,0.013523,0.002678,0.000431,0.004466
28384000,0.0324,0.013523,0.002678,0.000431,0.004701
28385000,0.0324,0.013523,0.002678,0.000431,0.004701
28386000,0.0324,0.013523,0.002678,0.000431,0.027267
28387000,0.0324,0.013523,0.002678,0.000431,0.043956
28388000,0.0324,0.013523,0.002678,0.000431,0.010578
28389000,0.0324,0.013523,0.002678,0.000431,0.004701
28390000,0.0324,0.013523,0.002678,0.000431,0.004701
28391000,0.0324,0.013523,0.002678,0.000431,0.068636
28392000,0.0324,0.013523,0.002678,0.000431,0.023506
28393000,0.0324,0.013523,0.002678,0.000431,0.004701
28394000,0.0324,0.013523,0.002678,0.000431,0.004701
28395000,0.0324,0.013523,0.002678,0.000431,0.004701
28396000,0.0324,0.013523,0.002678,0.000431,0.004701
28397000,0.0324,0.013523,0.002678,0.000431,0.004701
28398000,0.0324,0.013523,0.002678,0.000431,0.024916
28399000,0.0324,0.013523,0.002678,0.000431,0.007052
28400000,0.0324,0.013523,0.002678,0.000431,0.004701
28401000,0.0324,0.013523,0.002678,0.000431,0.004701
28402000,0.0324,0.013523,0.002678,0.000431,0.004701
28403000,0.0324,0.013523,0.002678,0.000431,0.004701
28404000,0.0324,0.013523,0.002678,0.000431,0.087206
28405000,0.0324,0.013523,0.002678,0.000431,0.012223
28406000,0.0324,0.013523,0.002678,0.000431,0.014338
28407000,0.0324,0.013523,0.002678,0.000431,0.047481
28408000,0.0324,0.013523,0.002678,0.000431,0.004701
28409000,0.0324,0.013523,0.002678,0.000431,0.004701
28410000,0.0324,0.013523,0.002678,0.000431,0.040900
28411000,0.0324,0.013523,0.002678,0.000431,0.088851
28412000,0.0324,0.013523,0.002678,0.000431,0.004701
28413000,0.0324,0.013523,0.002678,0.000431,0.019745
28414000,0.0324,0.013523,0.002678,0.000431,0.004466
28415000,0.0324,0.013523,0.002678,0.000431,0.004701
28416000,0.0324,0.013523,0.002678,0.000431,0.004701
28417000,0.0324,0.013523,0.002678,0.000431,0.049832
28418000,0.0324,0.013523,0.002678,0.000431,0.004466
28419000,0.0324,0.013523,0.002678,0.000431,0.004701
28420000,0.0324,0.013523,0.002678,0.000431,0.004701
28421000,0.0324,0.013523,0.002678,0.000431,0.004701
28422000,0.0324,0.013523,0.002678,0.000431,0.004701
28423000,0.0324,0.013523,0.002678,0.000431,0.019745
28424000,0.0324,0.013523,0.002678,0.000431,0.012223
28425000,0.0324,0.013523,0.002678,0.000431,0.004701
28426000,0.0324,0.013523,0.002678,0.000431,0.034788
28427000,0.0324,0.013523,0.002678,0.000431,0.004701
28428000,0.0324,0.013523,0.002678,0.000431,0.004701
28429000,0.0324,0.013523,0.002678,0.000431,0.015984
28430000,0.0324,0.013523,0.002678,0.000431,0.110006
28431000,0.0324,0.013523,0.002678,0.000431,0.008462
28432000,0.0324,0.013523,0.002678,0.000431,0.045954
28433000,0.0324,0.013523,0.002678,0.000431,0.038667
28434000,0.0324,0.013523,0.002678,0.000431,0.004701
28435000,0.0324,0.013523,0.002678,0.000431,0.004584
28436000,0.0324,0.013523,0.002678,0.000431,0.044543
28437000,0.0324,0.013523,0.002678,0.000431,0.062525
28438000,0.0324,0.013523,0.002678,0.000431,0.004701
28439000,0.0324,0.013523,0.002678,0.000431,0.026914
28440000,0.0324,0.013523,0.002678,0.000431,0.012458
28441000,0.0324,0.013523,0.002678,0.000431,0.004584
28442000,0.0324,0.013523,0.002678,0.000431,0.006817
28443000,0.0324,0.013523,0.002678,0.000431,0.070282
28444000,0.0324,0.013523,0.002678,0.000431,0.004701
28445000,0.0324,0.013523,0.002678,0.000431,0.004701
28446000,0.0324,0.013523,0.002678,0.000431,0.019745
28447000,0.0324,0.013523,0.002678,0.000431,0.004584
28448000,0.0324,0.013523,0.002678,0.000431,0.012105
28449000,0.0324,0.013523,0.002678,0.000431,0.027267
28450000,0.0324,0.013523,0.002678,0.000431,0.004701
28451000,0.0324,0.013523,0.002678,0.000431,0.004701
28452000,0.0324,0.013523,0.002678,0.000431,0.008462
28453000,0.0324,0.013523,0.002678,0.000431,0.008462
28454000,0.0324,0.013523,0.002678,0.000431,0.004701
28455000,0.0324,0.013523,0.002678,0.000431,0.023506
28456000,0.0324,0.013523,0.002678,0.000431,0.015984
28457000,0.0324,0.013523,0.002678,0.000431,0.004701
28458000,0.0324,0.013523,0.002678,0.000431,0.004466
28459000,0.0324,0.013523,0.002678,0.000431,0.019745
28460000,0.0324,0.013523,0.002678,0.000431,0.004701
28461000,0.0324,0.013523,0.002678,0.000431,0.034906
28462000,0.0324,0.013523,0.002678,0.000431,0.117646
28463000,0.0324,0.013523,0.002678,0.000431,0.004701
28464000,0.0324,0.013523,0.002678,0.000431,0.004466
28465000,0.0324,0.013523,0.002678,0.000431,0.004701
28466000,0.0324,0.013523,0.002678,0.000431,0.004701
28467000,0.0324,0.013523,0.002678,0.000431,0.004701
28468000,0.0324,0.013523,0.002678,0.000431,0.042075
28469000,0.0324,0.013523,0.002678,0.000431,0.004936
28470000,0.0324,0.013523,0.002678,0.000431,0.004701
28471000,0.0324,0.013523,0.002678,0.000431,0.019745
28472000,0.0324,0.013523,0.002678,0.000431,0.004701
28473000,0.0324,0.013523,0.002678,0.000431,0.004701
28474000,0.0324,0.013523,0.002678,0.000431,0.053710
28475000,0.0324,0.013523,0.002678,0.000431,0.023388
28476000,0.0324,0.013523,0.002678,0.000431,0.004701
28477000,0.0324,0.013523,0.002678,0.000431,0.008462
28478000,0.0324,0.013523,0.002678,0.000431,0.008462
28479000,0.0324,0.013523,0.002678,0.000431,0.004701
28480000,0.0324,0.013523,0.002678,0.000431,0.004584
28481000,0.0324,0.013523,0.002678,0.000431,0.123170
28482000,0.0324,0.013523,0.002678,0.000431,0.006464
28483000,0.0324,0.013523,0.002678,0.000431,0.004701
28484000,0.0324,0.013523,0.002678,0.000431,0.012223
28485000,0.0324,0.013523,0.002678,0.000431,0.012223
28486000,0.0324,0.013523,0.002678,0.000431,0.004701
28487000,0.0324,0.013523,0.002678,0.000431,0.064758
28488000,0.0324,0.013523,0.002678,0.000431,0.132219
28489000,0.0324,0.013523,0.002678,0.000431,0.004701
28490000,0.0324,0.013523,0.002678,0.000431,0.004701
28491000,0.0324,0.013523,0.002678,0.000431,0.042780
28492000,0.0324,0.013523,0.002678,0.000431,0.019275
28493000,0.0324,0.013523,0.002678,0.000431,0.004701
28494000,0.0324,0.013523,0.002678,0.000431,0.057354
28495000,0.0324,0.013523,0.002678,0.000431,0.004701
28496000,0.0324,0.013523,0.002678,0.000431,0.004701
28497000,0.0324,0.013523,0.002678,0.000431,0.004701
28498000,0.0324,0.013523,0.002678,0.000431,0.012105
28499000,0.0324,0.013523,0.002678,0.000431,0.004349
28500000,0.0324,0.013523,0.002678,0.000431,0.013398
28501000,0.0324,0.013523,0.002678,0.000431,0.011048
28502000,0.0324,0.013523,0.002678,0.000431,0.004701
28503000,0.0324,0.013523,0.002678,0.000431,0.004701
28504000,0.0324,0.013523,0.002678,0.000431,0.130339
28505000,0.0324,0.013523,0.002678,0.000431,0.006934
28506000,0.0324,0.013523,0.002678,0.000431,0.004701
28507000,0.0324,0.013523,0.002678,0.000431,0.046071
28508000,0.0324,0.013523,0.002678,0.000431,0.015866
28509000,0.0324,0.013523,0.002678,0.000431,0.004584
28510000,0.0324,0.013523,0.002678,0.000431,0.025151
28511000,0.0324,0.013523,0.002678,0.000431,0.006817
28512000,0.0324,0.013523,0.002678,0.000431,0.004701
28513000,0.0324,0.013523,0.002678,0.000431,0.008462
28514000,0.0324,0.013523,0.002678,0.000431,0.076158
28515000,0.0324,0.013523,0.002678,0.000431,0.004584
28516000,0.0324,0.013523,0.002678,0.000431,0.004584
28517000,0.0324,0.013523,0.002678,0.000431,0.004701
28518000,0.0324,0.013523,0.002678,0.000431,0.004701
28519000,0.0324,0.013523,0.002678,0.000431,0.004701
28520000,0.0324,0.013523,0.002678,0.000431,0.052535
28521000,0.0324,0.013523,0.002678,0.000431,0.069694
28522000,0.0324,0.013523,0.002678,0.000431,0.004701
28523000,0.0324,0.013523,0.002678,0.000431,0.004701
28524000,0.0324,0.013523,0.002678,0.000431,0.004701
28525000,0.0324,0.013523,0.002678,0.000431,0.004701
28526000,0.0324,0.013523,0.002678,0.000431,0.017512
28527000,0.0324,0.013523,0.002678,0.000431,0.059587
28528000,0.0324,0.013523,0.002678,0.000431,0.004701
28529000,0.0324,0.013523,0.002678,0.000431,0.027502
28530000,0.0324,0.013523,0.002678,0.000431,0.004701
28531000,0.0324,0.013523,0.002678,0.000431,0.004701
28532000,0.0324,0.013523,0.002678,0.000431,0.004584
28533000,0.0324,0.013523,0.002678,0.000431,0.053828
28534000,0.0324,0.013523,0.002678,0.000431,0.038197
28535000,0.0324,0.013523,0.002678,0.000431,0.004701
28536000,0.0324,0.013523,0.002678,0.000431,0.004701
28537000,0.0324,0.013523,0.002678,0.000431,0.004701
28538000,0.0324,0.013523,0.002678,0.000431,0.004701
28539000,0.0324,0.013523,0.002678,0.000431,0.054768
28540000,0.0324,0.013523,0.002678,0.000431,0.029617
28541000,0.0324,0.013523,0.002678,0.000431,0.004701
28542000,0.0324,0.013523,0.002678,0.000431,0.102485
28543000,0.0324,0.013523,0.002678,0.000431,0.004701
28544000,0.0324,0.013523,0.002678,0.000431,0.004701
28545000,0.0324,0.013523,0.002678,0.000431,0.010460
28546000,0.0324,0.013523,0.002678,0.000431,0.224596
28547000,0.0324,0.013523,0.002678,0.000431,0.004701
28548000,0.0324,0.013523,0.002678,0.000431,0.012223
28549000,0.0324,0.013523,0.002678,0.000431,0.019745
28550000,0.0324,0.013523,0.002678,0.000431,0.004466
28551000,0.0324,0.013523,0.002678,0.000431,0.004701
28552000,0.0324,0.013523,0.002678,0.000431,0.046071
28553000,0.0324,0.013523,0.002678,0.000431,0.008462
28554000,0.0324,0.013523,0.002678,0.000431,0.004701
28555000,0.0324,0.013523,0.002678,0.000431,0.050067
28556000,0.0324,0.013523,0.002678,0.000431,0.004701
28557000,0.0324,0.013523,0.002678,0.000431,0.004701
28558000,0.0324,0.013523,0.002678,0.000431,0.004701
28559000,0.0324,0.013523,0.002678,0.000431,0.110006
28560000,0.0324,0.013523,0.002678,0.000431,0.004701
28561000,0.0324,0.013523,0.002678,0.000431,0.053593
28562000,0.0324,0.013523,0.002678,0.000431,0.015749
28563000,0.0324,0.013523,0.002678,0.000431,0.004701
28564000,0.0324,0.013523,0.002678,0.000431,0.004584
28565000,0.0324,0.013523,0.002678,0.000431,0.012340
28566000,0.0324,0.013523,0.002678,0.000431,0.027267
28567000,0.0324,0.013523,0.002678,0.000431,0.004701
28568000,0.0324,0.013523,0.002678,0.000431,0.042310
28569000,0.0324,0.013523,0.002678,0.000431,0.004701
28570000,0.0324,0.013523,0.002678,0.000431,0.004701
28571000,0.0324,0.013523,0.002678,0.000431,0.023153
28572000,0.0324,0.013523,0.002678,0.000431,0.039137
28573000,0.0324,0.013523,0.002678,0.000431,0.004701
28574000,0.0324,0.013523,0.002678,0.000431,0.004701
28575000,0.0324,0.013523,0.002678,0.000431,0.004701
28576000,0.0324,0.013523,0.002678,0.000431,0.004701
28577000,0.0324,0.013523,0.002678,0.000431,0.004584
28578000,0.0324,0.013523,0.002678,0.000431,0.012105
28579000,0.0324,0.013523,0.002678,0.000431,0.019745
28580000,0.0324,0.013523,0.002678,0.000431,0.004701
28581000,0.0324,0.013523,0.002678,0.000431,0.012223
28582000,0.0324,0.013523,0.002678,0.000431,0.004701
28583000,0.0324,0.013523,0.002678,0.000431,0.004701
28584000,0.0324,0.013523,0.002678,0.000431,0.065346
28585000,0.0324,0.013523,0.002678,0.000431,0.026796
28586000,0.0324,0.013523,0.002678,0.000431,0.004701
28587000,0.0324,0.013523,0.002678,0.000431,0.008462
28588000,0.0324,0.013523,0.002678,0.000431,0.008462
28589000,0.0324,0.013523,0.002678,0.000431,0.004701
28590000,0.0324,0.013523,0.002678,0.000431,0.027031
28591000,0.0324,0.013523,0.002678,0.000431,0.064876
28592000,0.0324,0.013523,0.002678,0.000431,0.004701
28593000,0.0324,0.013523,0.002678,0.000431,0.004701
28594000,0.0324,0.013523,0.002678,0.000431,0.027031
28595000,0.0324,0.013523,0.002678,0.000431,0.079919
28596000,0.0324,0.013523,0.002678,0.000431,0.004701
28597000,0.0324,0.013523,0.002678,0.000431,0.105188
28598000,0.0324,0.013523,0.002678,0.000431,0.054416
28599000,0.0324,0.013523,0.002678,0.000431,0.004701
28600000,0.0324,0.013523,0.002678,0.000431,0.027502
28601000,0.0324,0.013523,0.002678,0.000431,0.004466
28602000,0.0324,0.013523,0.002678,0.000431,0.004701
28603000,0.0324,0.013523,0.002678,0.000431,0.004701
28604000,0.0324,0.013523,0.002678,0.000431,0.117528
28605000,0.0324,0.013523,0.002678,0.000431,0.004701
28606000,0.0324,0.013523,0.002678,0.000431,0.004701
28607000,0.0324,0.013523,0.002678,0.000431,0.042310
28608000,0.0324,0.013523,0.002678,0.000431,0.004701
28609000,0.0324,0.013523,0.002678,0.000431,0.004701
28610000,0.0324,0.013523,0.002678,0.000431,0.029147
28611000,0.0324,0.013523,0.002678,0.000431,0.040430
28612000,0.0324,0.013523,0.002678,0.000431,0.004701
28613000,0.0324,0.013523,0.002678,0.000431,0.004701
28614000,0.0324,0.013523,0.002678,0.000431,0.004701
28615000,0.0324,0.013523,0.002678,0.000431,0.004701
28616000,0.0324,0.013523,0.002678,0.000431,0.004701
28617000,0.0324,0.013523,0.002678,0.000431,0.042310
28618000,0.0324,0.013523,0.002678,0.000431,0.019745
28619000,0.0324,0.013523,0.002678,0.000431,0.004701
28620000,0.0324,0.013523,0.002678,0.000431,0.004466
28621000,0.0324,0.013523,0.002678,0.000431,0.004701
28622000,0.0324,0.013523,0.002678,0.000431,0.004701
28623000,0.0324,0.013523,0.002678,0.000431,0.019745
28624000,0.0324,0.013523,0.002678,0.000431,0.030675
28625000,0.0324,0.013523,0.002678,0.000431,0.008815
28626000,0.0324,0.013523,0.002678,0.000431,0.019510
28627000,0.0324,0.013523,0.002678,0.000431,0.004701
28628000,0.0324,0.013523,0.002678,0.000431,0.004701
28629000,0.0324,0.013523,0.002678,0.000431,0.022095
28630000,0.0324,0.013523,0.002678,0.000431,0.129986
28631000,0.0324,0.013523,0.002678,0.000431,0.004701
28632000,0.0324,0.013523,0.002678,0.000431,0.019745
28633000,0.0324,0.013523,0.002678,0.000431,0.004701
28634000,0.0324,0.013523,0.002678,0.000431,0.004701
28635000,0.0324,0.013523,0.002678,0.000431,0.004701
28636000,0.0324,0.013523,0.002678,0.000431,0.048892
28637000,0.0324,0.013523,0.002678,0.000431,0.103895
28638000,0.0324,0.013523,0.002678,0.000431,0.013398
28639000,0.0324,0.013523,0.002678,0.000431,0.055943
28640000,0.0324,0.013523,0.002678,0.000431,0.004701
28641000,0.0324,0.013523,0.002678,0.000431,0.004466
28642000,0.0324,0.013523,0.002678,0.000431,0.004701
28643000,0.0324,0.013523,0.002678,0.000431,0.057354
28644000,0.0324,0.013523,0.002678,0.000431,0.004701
28645000,0.0324,0.013523,0.002678,0.000431,0.019980
28646000,0.0324,0.013523,0.002678,0.000431,0.004701
28647000,0.0324,0.013523,0.002678,0.000431,0.004701
28648000,0.0324,0.013523,0.002678,0.000431,0.004701
28649000,0.0324,0.013523,0.002678,0.000431,0.015984
28650000,0.0324,0.013523,0.002678,0.000431,0.008462
28651000,0.0324,0.013523,0.002678,0.000431,0.014338
28652000,0.0324,0.013523,0.002678,0.000431,0.017629
28653000,0.0324,0.013523,0.002678,0.000431,0.004701
28654000,0.0324,0.013523,0.002678,0.000431,0.004701
28655000,0.0324,0.013523,0.002678,0.000431,0.007287
28656000,0.0324,0.013523,0.002678,0.000431,0.039725
28657000,0.0324,0.013523,0.002678,0.000431,0.004701
28658000,0.0324,0.013523,0.002678,0.000431,0.004701
28659000,0.0324,0.013523,0.002678,0.000431,0.004701
28660000,0.0324,0.013523,0.002678,0.000431,0.004466
28661000,0.0324,0.013523,0.002678,0.000431,0.004701
28662000,0.0324,0.013523,0.002678,0.000431,0.087676
28663000,0.0324,0.013523,0.002678,0.000431,0.019745
28664000,0.0324,0.013523,0.002678,0.000431,0.012223
28665000,0.0324,0.013523,0.002678,0.000431,0.004701
28666000,0.0324,0.013523,0.002678,0.000431,0.004701
28667000,0.0324,0.013523,0.002678,0.000431,0.004701
28668000,0.0324,0.013523,0.002678,0.000431,0.004584
28669000,0.0324,0.013523,0.002678,0.000431,0.244811
28670000,0.0324,0.013523,0.002678,0.000431,0.011988
28671000,0.0324,0.013523,0.002678,0.000431,0.012693
28672000,0.0324,0.013523,0.002678,0.000431,0.004701
28673000,0.0324,0.013523,0.002678,0.000431,0.004701
28674000,0.0324,0.013523,0.002678,0.000431,0.004701
28675000,0.0324,0.013523,0.002678,0.000431,0.019745
28676000,0.0324,0.013523,0.002678,0.000431,0.004701
28677000,0.0324,0.013523,0.002678,0.000431,0.012223
28678000,0.0324,0.013523,0.002678,0.000431,0.004701
28679000,0.0324,0.013523,0.002678,0.000431,0.004701
28680000,0.0324,0.013523,0.002678,0.000431,0.004701
28681000,0.0324,0.013523,0.002678,0.000431,0.008227
28682000,0.0324,0.013523,0.002678,0.000431,0.031262
28683000,0.0324,0.013523,0.002678,0.000431,0.004701
28684000,0.0324,0.013523,0.002678,0.000431,0.027267
28685000,0.0324,0.013523,0.002678,0.000431,0.004701
28686000,0.0324,0.013523,0.002678,0.000431,0.004701
28687000,0.0324,0.013523,0.002678,0.000431,0.004466
28688000,0.0324,0.013523,0.002678,0.000431,0.042310
28689000,0.0324,0.013523,0.002678,0.000431,0.012458
28690000,0.0324,0.013523,0.002678,0.000431,0.008462
28691000,0.0324,0.013523,0.002678,0.000431,0.015984
28692000,0.0324,0.013523,0.002678,0.000431,0.004701
28693000,0.0324,0.013523,0.002678,0.000431,0.004701
28694000,0.0324,0.013523,0.002678,0.000431,0.030675
28695000,0.0324,0.013523,0.002678,0.000431,0.121524
28696000,0.0324,0.013523,0.002678,0.000431,0.004584
28697000,0.0324,0.013523,0.002678,0.000431,0.008462
28698000,0.0324,0.013523,0.002678,0.000431,0.008227
28699000,0.0324,0.013523,0.002678,0.000431,0.004701
28700000,0.0324,0.013523,0.002678,0.000431,0.004701
28701000,0.0324,0.013523,0.002678,0.000431,0.023506
28702000,0.0324,0.013523,0.002678,0.000431,0.023506
28703000,0.0324,0.013523,0.002678,0.000431,0.117528
28704000,0.0324,0.013523,0.002678,0.000431,0.004701
28705000,0.0324,0.013523,0.002678,0.000431,0.004701
28706000,0.0324,0.013523,0.002678,0.000431,0.004701
28707000,0.0324,0.013523,0.002678,0.000431,0.004701
28708000,0.0324,0.013523,0.002678,0.000431,0.008462
28709000,0.0324,0.013523,0.002678,0.000431,0.023388
28710000,0.0324,0.013523,0.002678,0.000431,0.034671
28711000,0.0324,0.013523,0.002678,0.000431,0.004701
28712000,0.0324,0.013523,0.002678,0.000431,0.004701
28713000,0.0324,0.013523,0.002678,0.000431,0.004701
28714000,0.0324,0.013523,0.002678,0.000431,0.057354
28715000,0.0324,0.013523,0.002678,0.000431,0.035023
28716000,0.0324,0.013523,0.002678,0.000431,0.004701
28717000,0.0324,0.013523,0.002678,0.000431,0.004701
28718000,0.0324,0.013523,0.002678,0.000431,0.004701
28719000,0.0324,0.013523,0.002678,0.000431,0.004701
28720000,0.0324,0.013523,0.002678,0.000431,0.004701
28721000,0.0324,0.013523,0.002678,0.000431,0.034788
28722000,0.0324,0.013523,0.002678,0.000431,0.004466
28723000,0.0324,0.013523,0.002678,0.000431,0.004701
28724000,0.0324,0.013523,0.002678,0.000431,0.004701
28725000,0.0324,0.013523,0.002678,0.000431,0.004701
28726000,0.0324,0.013523,0.002678,0.000431,0.004701
28727000,0.0324,0.013523,0.002678,0.000431,0.087441
28728000,0.0324,0.013523,0.002678,0.000431,0.019745
28729000,0.0324,0.013523,0.002678,0.000431,0.034788
28730000,0.0324,0.013523,0.002678,0.000431,0.004701
28731000,0.0324,0.013523,0.002678,0.000431,0.004701
28732000,0.0324,0.013523,0.002678,0.000431,0.004466
28733000,0.0324,0.013523,0.002678,0.000431,0.087676
28734000,0.0324,0.013523,0.002678,0.000431,0.019745
28735000,0.0324,0.013523,0.002678,0.000431,0.008580
28736000,0.0324,0.013523,0.002678,0.000431,0.008345
28737000,0.0324,0.013523,0.002678,0.000431,0.004701
28738000,0.0324,0.013523,0.002678,0.000431,0.004701
28739000,0.0324,0.013523,0.002678,0.000431,0.070634
28740000,0.0324,0.013523,0.002678,0.000431,0.051595
28741000,0.0324,0.013523,0.002678,0.000431,0.004701
28742000,0.0324,0.013523,0.002678,0.000431,0.004701
28743000,0.0324,0.013523,0.002678,0.000431,0.004701
28744000,0.0324,0.013523,0.002678,0.000431,0.004701
28745000,0.0324,0.013523,0.002678,0.000431,0.004701
28746000,0.0324,0.013523,0.002678,0.000431,0.049949
28747000,0.0324,0.013523,0.002678,0.000431,0.034906
28748000,0.0324,0.013523,0.002678,0.000431,0.004701
28749000,0.0324,0.013523,0.002678,0.000431,0.004584
28750000,0.0324,0.013523,0.002678,0.000431,0.004584
28751000,0.0324,0.013523,0.002678,0.000431,0.004701
28752000,0.0324,0.013523,0.002678,0.000431,0.048069
28753000,0.0324,0.013523,0.002678,0.000431,0.051830
28754000,0.0324,0.013523,0.002678,0.000431,0.004701
28755000,0.0324,0.013523,0.002678,0.000431,0.012223
28756000,0.0324,0.013523,0.002678,0.000431,0.004701
28757000,0.0324,0.013523,0.002678,0.000431,0.004701
28758000,0.0324,0.013523,0.002678,0.000431,0.008462
28759000,0.0324,0.013523,0.002678,0.000431,0.015984
28760000,0.0324,0.013523,0.002678,0.000431,0.004701
28761000,0.0324,0.013523,0.002678,0.000431,0.035023
28762000,0.0324,0.013523,0.002678,0.000431,0.004701
28763000,0.0324,0.013523,0.002678,0.000431,0.004701
28764000,0.0324,0.013523,0.002678,0.000431,0.004701
28765000,0.0324,0.013523,0.002678,0.000431,0.073338
28766000,0.0324,0.013523,0.002678,0.000431,0.004701
28767000,0.0324,0.013523,0.002678,0.000431,0.004701
28768000,0.0324,0.013523,0.002678,0.000431,0.004701
28769000,0.0324,0.013523,0.002678,0.000431,0.004701
28770000,0.0324,0.013523,0.002678,0.000431,0.004701
28771000,0.0324,0.013523,0.002678,0.000431,0.011048
28772000,0.0324,0.013523,0.002678,0.000431,0.020802
28773000,0.0324,0.013523,0.002678,0.000431,0.019862
28774000,0.0324,0.013523,0.002678,0.000431,0.094963
28775000,0.0324,0.013523,0.002678,0.000431,0.004701
28776000,0.0324,0.013523,0.002678,0.000431,0.004466
28777000,0.0324,0.013523,0.002678,0.000431,0.004466
28778000,0.0324,0.013523,0.002678,0.000431,0.012223
28779000,0.0324,0.013523,0.002678,0.000431,0.027267
28780000,0.0324,0.013523,0.002678,0.000431,0.019745
28781000,0.0324,0.013523,0.002678,0.000431,0.034788
28782000,0.0324,0.013523,0.002678,0.000431,0.004584
28783000,0.0324,0.013523,0.002678,0.000431,0.004584
28784000,0.0324,0.013523,0.002678,0.000431,0.004701
28785000,0.0324,0.013523,0.002678,0.000431,0.108949
28786000,0.0324,0.013523,0.002678,0.000431,0.028324
28787000,0.0324,0.013523,0.002678,0.000431,0.057824
28788000,0.0324,0.013523,0.002678,0.000431,0.004701
28789000,0.0324,0.013523,0.002678,0.000431,0.004466
28790000,0.0324,0.013523,0.002678,0.000431,0.004701
28791000,0.0324,0.013523,0.002678,0.000431,0.073925
28792000,0.0324,0.013523,0.002678,0.000431,0.025739
28793000,0.0324,0.013523,0.002678,0.000431,0.004701
28794000,0.0324,0.013523,0.002678,0.000431,0.004701
28795000,0.0324,0.013523,0.002678,0.000431,0.004701
28796000,0.0324,0.013523,0.002678,0.000431,0.004701
28797000,0.0324,0.013523,0.002678,0.000431,0.006347
28798000,0.0324,0.013523,0.002678,0.000431,0.101074
28799000,0.0324,0.013523,0.002678,0.000431,0.004701
28800000,0.0324,0.013523,0.002678,0.000431,0.064876
28801000,0.0324,0.013523,0.002678,0.000431,0.004701
28802000,0.0324,0.013523,0.002678,0.000431,0.004701
28803000,0.0324,0.013523,0.002678,0.000431,0.004701
28804000,0.0324,0.013523,0.002678,0.000431,0.035023
28805000,0.0324,0.013523,0.002678,0.000431,0.027502
28806000,0.0324,0.013523,0.002678,0.000431,0.051595
28807000,0.0324,0.013523,0.002678,0.000431,0.092965
28808000,0.0324,0.013523,0.002678,0.000431,0.004701
28809000,0.0324,0.013523,0.002678,0.000431,0.004701
28810000,0.0324,0.013523,0.002678,0.000431,0.004701
28811000,0.0324,0.013523,0.002678,0.000431,0.011518
28812000,0.0324,0.013523,0.002678,0.000431,0.012928
28813000,0.0324,0.013523,0.002678,0.000431,0.027267
28814000,0.0324,0.013523,0.002678,0.000431,0.004701
28815000,0.0324,0.013523,0.002678,0.000431,0.004701
28816000,0.0324,0.013523,0.002678,0.000431,0.004584
28817000,0.0324,0.013523,0.002678,0.000431,0.015044
28818000,0.0324,0.013523,0.002678,0.000431,0.009520
28819000,0.0324,0.013523,0.002678,0.000431,0.008462
28820000,0.0324,0.013523,0.002678,0.000431,0.008462
28821000,0.0324,0.013523,0.002678,0.000431,0.004701
28822000,0.0324,0.013523,0.002678,0.000431,0.004701
28823000,0.0324,0.013523,0.002678,0.000431,0.050067
28824000,0.0324,0.013523,0.002678,0.000431,0.019745
28825000,0.0324,0.013523,0.002678,0.000431,0.004701
28826000,0.0324,0.013523,0.002678,0.000431,0.019745
28827000,0.0324,0.013523,0.002678,0.000431,0.004701
28828000,0.0324,0.013523,0.002678,0.000431,0.004701
28829000,0.0324,0.013523,0.002678,0.000431,0.004231
28830000,0.0324,0.013523,0.002678,0.000431,0.023388
28831000,0.0324,0.013523,0.002678,0.000431,0.023623
28832000,0.0324,0.013523,0.002678,0.000431,0.004701
28833000,0.0324,0.013523,0.002678,0.000431,0.004701
28834000,0.0324,0.013523,0.002678,0.000431,0.004701
28835000,0.0324,0.013523,0.002678,0.000431,0.004701
28836000,0.0324,0.013523,0.002678,0.000431,0.057119
28837000,0.0324,0.013523,0.002678,0.000431,0.072397
28838000,0.0324,0.013523,0.002678,0.000431,0.004701
28839000,0.0324,0.013523,0.002678,0.000431,0.027267
28840000,0.0324,0.013523,0.002678,0.000431,0.004701
28841000,0.0324,0.013523,0.002678,0.000431,0.004701
28842000,0.0324,0.013523,0.002678,0.000431,0.004701
28843000,0.0324,0.013523,0.002678,0.000431,0.034788
28844000,0.0324,0.013523,0.002678,0.000431,0.004701
28845000,0.0324,0.013523,0.002678,0.000431,0.034906
28846000,0.0324,0.013523,0.002678,0.000431,0.004584
28847000,0.0324,0.013523,0.002678,0.000431,0.004701
28848000,0.0324,0.013523,0.002678,0.000431,0.004701
28849000,0.0324,0.013523,0.002678,0.000431,0.004936
28850000,0.0324,0.013523,0.002678,0.000431,0.004701
28851000,0.0324,0.013523,0.002678,0.000431,0.004701
28852000,0.0324,0.013523,0.002678,0.000431,0.027267
28853000,0.0324,0.013523,0.002678,0.000431,0.004701
28854000,0.0324,0.013523,0.002678,0.000431,0.004701
28855000,0.0324,0.013523,0.002678,0.000431,0.012223
28856000,0.0324,0.013523,0.002678,0.000431,0.151259
28857000,0.0324,0.013523,0.002678,0.000431,0.023858
28858000,0.0324,0.013523,0.002678,0.000431,0.035376
28859000,0.0324,0.013523,0.002678,0.000431,0.086853
28860000,0.0324,0.013523,0.002678,0.000431,0.004701
28861000,0.0324,0.013523,0.002678,0.000431,0.004701
28862000,0.0324,0.013523,0.002678,0.000431,0.065111
28863000,0.0324,0.013523,0.002678,0.000431,0.019745
28864000,0.0324,0.013523,0.002678,0.000431,0.004701
28865000,0.0324,0.013523,0.002678,0.000431,0.025151
28866000,0.0324,0.013523,0.002678,0.000431,0.014573
28867000,0.0324,0.013523,0.002678,0.000431,0.004701
28868000,0.0324,0.013523,0.002678,0.000431,0.036316
28869000,0.0324,0.013523,0.002678,0.000431,0.070634
28870000,0.0324,0.013523,0.002678,0.000431,0.004701
28871000,0.0324,0.013523,0.002678,0.000431,0.004701
28872000,0.0324,0.013523,0.002678,0.000431,0.012223
28873000,0.0324,0.013523,0.002678,0.000431,0.004701
28874000,0.0324,0.013523,0.002678,0.000431,0.004701
28875000,0.0324,0.013523,0.002678,0.000431,0.019745
28876000,0.0324,0.013523,0.002678,0.000431,0.004584
28877000,0.0324,0.013523,0.002678,0.000431,0.004584
28878000,0.0324,0.013523,0.002678,0.000431,0.012223
28879000,0.0324,0.013523,0.002678,0.000431,0.012223
28880000,0.0324,0.013523,0.002678,0.000431,0.004701
28881000,0.0324,0.013523,0.002678,0.000431,0.004466
28882000,0.0324,0.013523,0.002678,0.000431,0.012223
28883000,0.0324,0.013523,0.002678,0.000431,0.004701
28884000,0.0324,0.013523,0.002678,0.000431,0.004701
28885000,0.0324,0.013523,0.002678,0.000431,0.023506
28886000,0.0324,0.013523,0.002678,0.000431,0.008462
28887000,0.0324,0.013523,0.002678,0.000431,0.004701
28888000,0.0324,0.013523,0.002678,0.000431,0.034788
28889000,0.0324,0.013523,0.002678,0.000431,0.004701
28890000,0.0324,0.013523,0.002678,0.000431,0.004701
28891000,0.0324,0.013523,0.002678,0.000431,0.004701
28892000,0.0324,0.013523,0.002678,0.000431,0.004701
28893000,0.0324,0.013523,0.002678,0.000431,0.004701
28894000,0.0324,0.013523,0.002678,0.000431,0.004701
28895000,0.0324,0.013523,0.002678,0.000431,0.117528
28896000,0.0324,0.013523,0.002678,0.000431,0.004701
28897000,0.0324,0.013523,0.002678,0.000431,0.019980
28898000,0.0324,0.013523,0.002678,0.000431,0.004701
28899000,0.0324,0.013523,0.002678,0.000431,0.004701
28900000,0.0324,0.013523,0.002678,0.000431,0.004701
28901000,0.0324,0.013523,0.002678,0.000431,0.103777
28902000,0.0324,0.013523,0.002678,0.000431,0.026209
28903000,0.0324,0.013523,0.002678,0.000431,0.008462
28904000,0.0324,0.013523,0.002678,0.000431,0.008462
28905000,0.0324,0.013523,0.002678,0.000431,0.004466
28906000,0.0324,0.013523,0.002678,0.000431,0.004701
28907000,0.0324,0.013523,0.002678,0.000431,0.004701
28908000,0.0324,0.013523,0.002678,0.000431,0.012223
28909000,0.0324,0.013523,0.002678,0.000431,0.012223
28910000,0.0324,0.013523,0.002678,0.000431,0.010342
28911000,0.0324,0.013523,0.002678,0.000431,0.013868
28912000,0.0324,0.013523,0.002678,0.000431,0.004701
28913000,0.0324,0.013523,0.002678,0.000431,0.012340
28914000,0.0324,0.013523,0.002678,0.000431,0.019862
28915000,0.0324,0.013523,0.002678,0.000431,0.004701
28916000,0.0324,0.013523,0.002678,0.000431,0.004701
28917000,0.0324,0.013523,0.002678,0.000431,0.004701
28918000,0.0324,0.013523,0.002678,0.000431,0.004701
28919000,0.0324,0.013523,0.002678,0.000431,0.004701
28920000,0.0324,0.013523,0.002678,0.000431,0.008462
28921000,0.0324,0.013523,0.002678,0.000431,0.008227
28922000,0.0324,0.013523,0.002678,0.000431,0.004701
28923000,0.0324,0.013523,0.002678,0.000431,0.008462
28924000,0.0324,0.013523,0.002678,0.000431,0.008462
28925000,0.0324,0.013523,0.002678,0.000431,0.004701
28926000,0.0324,0.013523,0.002678,0.000431,0.070047
28927000,0.0324,0.013523,0.002678,0.000431,0.029382
28928000,0.0324,0.013523,0.002678,0.000431,0.004701
28929000,0.0324,0.013523,0.002678,0.000431,0.012458
28930000,0.0324,0.013523,0.002678,0.000431,0.080154
28931000,0.0324,0.013523,0.002678,0.000431,0.004701
28932000,0.0324,0.013523,0.002678,0.000431,0.004701
28933000,0.0324,0.013523,0.002678,0.000431,0.004701
28934000,0.0324,0.013523,0.002678,0.000431,0.042310
28935000,0.0324,0.013523,0.002678,0.000431,0.042310
28936000,0.0324,0.013523,0.002678,0.000431,0.023506
28937000,0.0324,0.013523,0.002678,0.000431,0.068401
28938000,0.0324,0.013523,0.002678,0.000431,0.004701
28939000,0.0324,0.013523,0.002678,0.000431,0.004701
28940000,0.0324,0.013523,0.002678,0.000431,0.027267
28941000,0.0324,0.013523,0.002678,0.000431,0.004936
28942000,0.0324,0.013523,0.002678,0.000431,0.004701
28943000,0.0324,0.013523,0.002678,0.000431,0.012223
28944000,0.0324,0.013523,0.002678,0.000431,0.004701
28945000,0.0324,0.013523,0.002678,0.000431,0.004466
28946000,0.0324,0.013523,0.002678,0.000431,0.007287
28947000,0.0324,0.013523,0.002678,0.000431,0.040195
28948000,0.0324,0.013523,0.002678,0.000431,0.004936
28949000,0.0324,0.013523,0.002678,0.000431,0.004701
28950000,0.0324,0.013523,0.002678,0.000431,0.004701
28951000,0.0324,0.013523,0.002678,0.000431,0.004466
28952000,0.0324,0.013523,0.002678,0.000431,0.008227
28953000,0.0324,0.013523,0.002678,0.000431,0.034788
28954000,0.0324,0.013523,0.002678,0.000431,0.019745
28955000,0.0324,0.013523,0.002678,0.000431,0.015984
28956000,0.0324,0.013523,0.002678,0.000431,0.004701
28957000,0.0324,0.013523,0.002678,0.000431,0.004701
28958000,0.0324,0.013523,0.002678,0.000431,0.004701
28959000,0.0324,0.013523,0.002678,0.000431,0.022800
28960000,0.0324,0.013523,0.002678,0.000431,0.061585
28961000,0.0324,0.013523,0.002678,0.000431,0.004701
28962000,0.0324,0.013523,0.002678,0.000431,0.027502
28963000,0.0324,0.013523,0.002678,0.000431,0.004701
28964000,0.0324,0.013523,0.002678,0.000431,0.004701
28965000,0.0324,0.013523,0.002678,0.000431,0.031027
28966000,0.0324,0.013523,0.002678,0.000431,0.053593
28967000,0.0324,0.013523,0.002678,0.000431,0.004701
28968000,0.0324,0.013523,0.002678,0.000431,0.004701
28969000,0.0324,0.013523,0.002678,0.000431,0.004701
28970000,0.0324,0.013523,0.002678,0.000431,0.004701
28971000,0.0324,0.013523,0.002678,0.000431,0.004701
28972000,0.0324,0.013523,0.002678,0.000431,0.049832
28973000,0.0324,0.013523,0.002678,0.000431,0.020215
28974000,0.0324,0.013523,0.002678,0.000431,0.004701
28975000,0.0324,0.013523,0.002678,0.000431,0.019745
28976000,0.0324,0.013523,0.002678,0.000431,0.057236
28977000,0.0324,0.013523,0.002678,0.000431,0.004584
28978000,0.0324,0.013523,0.002678,0.000431,0.004936
28979000,0.0324,0.013523,0.002678,0.000431,0.034788
28980000,0.0324,0.013523,0.002678,0.000431,0.004701
28981000,0.0324,0.013523,0.002678,0.000431,0.004701
28982000,0.0324,0.013523,0.002678,0.000431,0.010342
28983000,0.0324,0.013523,0.002678,0.000431,0.006582
28984000,0.0324,0.013523,0.002678,0.000431,0.004701
28985000,0.0324,0.013523,0.002678,0.000431,0.008227
28986000,0.0324,0.013523,0.002678,0.000431,0.030792
28987000,0.0324,0.013523,0.002678,0.000431,0.004701
28988000,0.0324,0.013523,0.002678,0.000431,0.004701
28989000,0.0324,0.013523,0.002678,0.000431,0.004701
28990000,0.0324,0.013523,0.002678,0.000431,0.004701
28991000,0.0324,0.013523,0.002678,0.000431,0.027267
28992000,0.0324,0.013523,0.002678,0.000431,0.004466
28993000,0.0324,0.013523,0.002678,0.000431,0.117528
28994000,0.0324,0.013523,0.002678,0.000431,0.012223
28995000,0.0324,0.013523,0.002678,0.000431,0.004701
28996000,0.0324,0.013523,0.002678,0.000431,0.004701
28997000,0.0324,0.013523,0.002678,0.000431,0.004701
28998000,0.0324,0.013523,0.002678,0.000431,0.012223
28999000,0.0324,0.013523,0.002678,0.000431,0.027267
