Cycle,Area(mm^2),PeakDynamic(W),SubthresholdLeakage(W),GateLeakage(W),RunTimeDynamic(W)
2000000,0.0324,0.013523,0.002678,0.000431,0.245869
2001000,0.0324,0.013523,0.002678,0.000431,0.282068
2002000,0.0324,0.013523,0.002678,0.000431,0.079449
2003000,0.0324,0.013523,0.002678,0.000431,0.035376
2004000,0.0324,0.013523,0.002678,0.000431,0.085090
2005000,0.0324,0.013523,0.002678,0.000431,0.090614
2006000,0.0324,0.013523,0.002678,0.000431,0.117881
2007000,0.0324,0.013523,0.002678,0.000431,0.152904
2008000,0.0324,0.013523,0.002678,0.000431,0.112592
2009000,0.0324,0.013523,0.002678,0.000431,0.035258
2010000,0.0324,0.013523,0.002678,0.000431,0.060997
2011000,0.0324,0.013523,0.002678,0.000431,0.211903
2012000,0.0324,0.013523,0.002678,0.000431,0.063818
2013000,0.0324,0.013523,0.002678,0.000431,0.162306
2014000,0.0324,0.013523,0.002678,0.000431,0.130574
2015000,0.0324,0.013523,0.002678,0.000431,0.056414
2016000,0.0324,0.013523,0.002678,0.000431,0.040312
2017000,0.0324,0.013523,0.002678,0.000431,0.097431
2018000,0.0324,0.013523,0.002678,0.000431,0.055826
2019000,0.0324,0.013523,0.002678,0.000431,0.115530
2020000,0.0324,0.013523,0.002678,0.000431,0.122229
2021000,0.0324,0.013523,0.002678,0.000431,0.146088
2022000,0.0324,0.013523,0.002678,0.000431,0.035023
2023000,0.0324,0.013523,0.002678,0.000431,0.144442
2024000,0.0324,0.013523,0.002678,0.000431,0.186400
2025000,0.0324,0.013523,0.002678,0.000431,0.124462
2026000,0.0324,0.013523,0.002678,0.000431,0.072867
2027000,0.0324,0.013523,0.002678,0.000431,0.112122
2028000,0.0324,0.013523,0.002678,0.000431,0.037139
2029000,0.0324,0.013523,0.002678,0.000431,0.042663
2030000,0.0324,0.013523,0.002678,0.000431,0.057236
2031000,0.0324,0.013523,0.002678,0.000431,0.162894
2032000,0.0324,0.013523,0.002678,0.000431,0.202971
2033000,0.0324,0.013523,0.002678,0.000431,0.100134
2034000,0.0324,0.013523,0.002678,0.000431,0.094375
2035000,0.0324,0.013523,0.002678,0.000431,0.074043
2036000,0.0324,0.013523,0.002678,0.000431,0.174764
2037000,0.0324,0.013523,0.002678,0.000431,0.086501
2038000,0.0324,0.013523,0.002678,0.000431,0.068519
2039000,0.0324,0.013523,0.002678,0.000431,0.192864
2040000,0.0324,0.013523,0.002678,0.000431,0.167243
2041000,0.0324,0.013523,0.002678,0.000431,0.121524
2042000,0.0324,0.013523,0.002678,0.000431,0.088264
2043000,0.0324,0.013523,0.002678,0.000431,0.094845
2044000,0.0324,0.013523,0.002678,0.000431,0.150083
2045000,0.0324,0.013523,0.002678,0.000431,0.115413
2046000,0.0324,0.013523,0.002678,0.000431,0.230238
2047000,0.0324,0.013523,0.002678,0.000431,0.129281
2048000,0.0324,0.013523,0.002678,0.000431,0.061467
2049000,0.0324,0.013523,0.002678,0.000431,0.194392
2050000,0.0324,0.013523,0.002678,0.000431,0.080977
2051000,0.0324,0.013523,0.002678,0.000431,0.152787
2052000,0.0324,0.013523,0.002678,0.000431,0.144090
2053000,0.0324,0.013523,0.002678,0.000431,0.137508
2054000,0.0324,0.013523,0.002678,0.000431,0.083210
2055000,0.0324,0.013523,0.002678,0.000431,0.054063
2056000,0.0324,0.013523,0.002678,0.000431,0.163129
2057000,0.0324,0.013523,0.002678,0.000431,0.069107
2058000,0.0324,0.013523,0.002678,0.000431,0.167478
2059000,0.0324,0.013523,0.002678,0.000431,0.274781
2060000,0.0324,0.013523,0.002678,0.000431,0.216134
2061000,0.0324,0.013523,0.002678,0.000431,0.034788
2062000,0.0324,0.013523,0.002678,0.000431,0.118233
2063000,0.0324,0.013523,0.002678,0.000431,0.120701
2064000,0.0324,0.013523,0.002678,0.000431,0.176410
2065000,0.0324,0.013523,0.002678,0.000431,0.259855
2066000,0.0324,0.013523,0.002678,0.000431,0.276426
2067000,0.0324,0.013523,0.002678,0.000431,0.101427
2068000,0.0324,0.013523,0.002678,0.000431,0.054063
2069000,0.0324,0.013523,0.002678,0.000431,0.061467
2070000,0.0324,0.013523,0.002678,0.000431,0.198975
2071000,0.0324,0.013523,0.002678,0.000431,0.146088
2072000,0.0324,0.013523,0.002678,0.000431,0.225066
2073000,0.0324,0.013523,0.002678,0.000431,0.104130
2074000,0.0324,0.013523,0.002678,0.000431,0.035258
2075000,0.0324,0.013523,0.002678,0.000431,0.152081
2076000,0.0324,0.013523,0.002678,0.000431,0.136333
2077000,0.0324,0.013523,0.002678,0.000431,0.173707
2078000,0.0324,0.013523,0.002678,0.000431,0.143502
2079000,0.0324,0.013523,0.002678,0.000431,0.110829
2080000,0.0324,0.013523,0.002678,0.000431,0.035258
2081000,0.0324,0.013523,0.002678,0.000431,0.060174
2082000,0.0324,0.013523,0.002678,0.000431,0.133042
2083000,0.0324,0.013523,0.002678,0.000431,0.099899
2084000,0.0324,0.013523,0.002678,0.000431,0.135157
2085000,0.0324,0.013523,0.002678,0.000431,0.160543
2086000,0.0324,0.013523,0.002678,0.000431,0.087558
2087000,0.0324,0.013523,0.002678,0.000431,0.049949
2088000,0.0324,0.013523,0.002678,0.000431,0.065346
2089000,0.0324,0.013523,0.002678,0.000431,0.050185
2090000,0.0324,0.013523,0.002678,0.000431,0.076981
2091000,0.0324,0.013523,0.002678,0.000431,0.173589
2092000,0.0324,0.013523,0.002678,0.000431,0.132454
2093000,0.0324,0.013523,0.002678,0.000431,0.042780
2094000,0.0324,0.013523,0.002678,0.000431,0.165245
2095000,0.0324,0.013523,0.002678,0.000431,0.073455
2096000,0.0324,0.013523,0.002678,0.000431,0.181581
2097000,0.0324,0.013523,0.002678,0.000431,0.112122
2098000,0.0324,0.013523,0.002678,0.000431,0.290647
2099000,0.0324,0.013523,0.002678,0.000431,0.110594
2100000,0.0324,0.013523,0.002678,0.000431,0.035258
2101000,0.0324,0.013523,0.002678,0.000431,0.066168
2102000,0.0324,0.013523,0.002678,0.000431,0.225889
2103000,0.0324,0.013523,0.002678,0.000431,0.134805
2104000,0.0324,0.013523,0.002678,0.000431,0.195684
2105000,0.0324,0.013523,0.002678,0.000431,0.412289
2106000,0.0324,0.013523,0.002678,0.000431,0.063230
2107000,0.0324,0.013523,0.002678,0.000431,0.162659
2108000,0.0324,0.013523,0.002678,0.000431,0.065463
2109000,0.0324,0.013523,0.002678,0.000431,0.117998
2110000,0.0324,0.013523,0.002678,0.000431,0.154785
2111000,0.0324,0.013523,0.002678,0.000431,0.300285
2112000,0.0324,0.013523,0.002678,0.000431,0.102014
2113000,0.0324,0.013523,0.002678,0.000431,0.068872
2114000,0.0324,0.013523,0.002678,0.000431,0.097078
2115000,0.0324,0.013523,0.002678,0.000431,0.087323
2116000,0.0324,0.013523,0.002678,0.000431,0.113180
2117000,0.0324,0.013523,0.002678,0.000431,0.143502
2118000,0.0324,0.013523,0.002678,0.000431,0.122699
2119000,0.0324,0.013523,0.002678,0.000431,0.080154
2120000,0.0324,0.013523,0.002678,0.000431,0.128106
2121000,0.0324,0.013523,0.002678,0.000431,0.061115
2122000,0.0324,0.013523,0.002678,0.000431,0.087558
2123000,0.0324,0.013523,0.002678,0.000431,0.086266
2124000,0.0324,0.013523,0.002678,0.000431,0.206497
2125000,0.0324,0.013523,0.002678,0.000431,0.173589
2126000,0.0324,0.013523,0.002678,0.000431,0.065346
2127000,0.0324,0.013523,0.002678,0.000431,0.170768
2128000,0.0324,0.013523,0.002678,0.000431,0.148908
2129000,0.0324,0.013523,0.002678,0.000431,0.094728
2130000,0.0324,0.013523,0.002678,0.000431,0.190161
2131000,0.0324,0.013523,0.002678,0.000431,0.233646
2132000,0.0324,0.013523,0.002678,0.000431,0.205909
2133000,0.0324,0.013523,0.002678,0.000431,0.042780
2134000,0.0324,0.013523,0.002678,0.000431,0.164775
2135000,0.0324,0.013523,0.002678,0.000431,0.168770
2136000,0.0324,0.013523,0.002678,0.000431,0.156195
2137000,0.0324,0.013523,0.002678,0.000431,0.192629
2138000,0.0324,0.013523,0.002678,0.000431,0.050302
2139000,0.0324,0.013523,0.002678,0.000431,0.097313
2140000,0.0324,0.013523,0.002678,0.000431,0.055708
2141000,0.0324,0.013523,0.002678,0.000431,0.216487
2142000,0.0324,0.013523,0.002678,0.000431,0.143384
2143000,0.0324,0.013523,0.002678,0.000431,0.141504
2144000,0.0324,0.013523,0.002678,0.000431,0.169476
2145000,0.0324,0.013523,0.002678,0.000431,0.057589
2146000,0.0324,0.013523,0.002678,0.000431,0.106598
2147000,0.0324,0.013523,0.002678,0.000431,0.172649
2148000,0.0324,0.013523,0.002678,0.000431,0.138918
2149000,0.0324,0.013523,0.002678,0.000431,0.129751
2150000,0.0324,0.013523,0.002678,0.000431,0.213314
2151000,0.0324,0.013523,0.002678,0.000431,0.078509
2152000,0.0324,0.013523,0.002678,0.000431,0.130104
2153000,0.0324,0.013523,0.002678,0.000431,0.116705
2154000,0.0324,0.013523,0.002678,0.000431,0.114120
2155000,0.0324,0.013523,0.002678,0.000431,0.072867
2156000,0.0324,0.013523,0.002678,0.000431,0.216839
2157000,0.0324,0.013523,0.002678,0.000431,0.145852
2158000,0.0324,0.013523,0.002678,0.000431,0.101662
2159000,0.0324,0.013523,0.002678,0.000431,0.096726
2160000,0.0324,0.013523,0.002678,0.000431,0.091672
2161000,0.0324,0.013523,0.002678,0.000431,0.142562
2162000,0.0324,0.013523,0.002678,0.000431,0.089674
2163000,0.0324,0.013523,0.002678,0.000431,0.265379
2164000,0.0324,0.013523,0.002678,0.000431,0.142209
2165000,0.0324,0.013523,0.002678,0.000431,0.095198
2166000,0.0324,0.013523,0.002678,0.000431,0.090144
2167000,0.0324,0.013523,0.002678,0.000431,0.122817
2168000,0.0324,0.013523,0.002678,0.000431,0.063700
2169000,0.0324,0.013523,0.002678,0.000431,0.168888
2170000,0.0324,0.013523,0.002678,0.000431,0.368921
2171000,0.0324,0.013523,0.002678,0.000431,0.134687
2172000,0.0324,0.013523,0.002678,0.000431,0.093435
2173000,0.0324,0.013523,0.002678,0.000431,0.154785
2174000,0.0324,0.013523,0.002678,0.000431,0.101192
2175000,0.0324,0.013523,0.002678,0.000431,0.142562
2176000,0.0324,0.013523,0.002678,0.000431,0.139859
2177000,0.0324,0.013523,0.002678,0.000431,0.127871
2178000,0.0324,0.013523,0.002678,0.000431,0.129163
2179000,0.0324,0.013523,0.002678,0.000431,0.098606
2180000,0.0324,0.013523,0.002678,0.000431,0.079919
2181000,0.0324,0.013523,0.002678,0.000431,0.114825
2182000,0.0324,0.013523,0.002678,0.000431,0.155842
2183000,0.0324,0.013523,0.002678,0.000431,0.161954
2184000,0.0324,0.013523,0.002678,0.000431,0.168535
2185000,0.0324,0.013523,0.002678,0.000431,0.073573
2186000,0.0324,0.013523,0.002678,0.000431,0.178290
2187000,0.0324,0.013523,0.002678,0.000431,0.158075
2188000,0.0324,0.013523,0.002678,0.000431,0.104953
2189000,0.0324,0.013523,0.002678,0.000431,0.110476
2190000,0.0324,0.013523,0.002678,0.000431,0.068872
2191000,0.0324,0.013523,0.002678,0.000431,0.046189
2192000,0.0324,0.013523,0.002678,0.000431,0.073808
2193000,0.0324,0.013523,0.002678,0.000431,0.101779
2194000,0.0324,0.013523,0.002678,0.000431,0.102132
2195000,0.0324,0.013523,0.002678,0.000431,0.244576
2196000,0.0324,0.013523,0.002678,0.000431,0.138096
2197000,0.0324,0.013523,0.002678,0.000431,0.114237
2198000,0.0324,0.013523,0.002678,0.000431,0.046541
2199000,0.0324,0.013523,0.002678,0.000431,0.080507
2200000,0.0324,0.013523,0.002678,0.000431,0.128928
2201000,0.0324,0.013523,0.002678,0.000431,0.136920
2202000,0.0324,0.013523,0.002678,0.000431,0.229297
2203000,0.0324,0.013523,0.002678,0.000431,0.095785
2204000,0.0324,0.013523,0.002678,0.000431,0.106598
2205000,0.0324,0.013523,0.002678,0.000431,0.117176
2206000,0.0324,0.013523,0.002678,0.000431,0.112357
2207000,0.0324,0.013523,0.002678,0.000431,0.165362
2208000,0.0324,0.013523,0.002678,0.000431,0.159368
2209000,0.0324,0.013523,0.002678,0.000431,0.110006
2210000,0.0324,0.013523,0.002678,0.000431,0.185695
2211000,0.0324,0.013523,0.002678,0.000431,0.080154
2212000,0.0324,0.013523,0.002678,0.000431,0.170886
2213000,0.0324,0.013523,0.002678,0.000431,0.142679
2214000,0.0324,0.013523,0.002678,0.000431,0.127988
2215000,0.0324,0.013523,0.002678,0.000431,0.124697
2216000,0.0324,0.013523,0.002678,0.000431,0.101309
2217000,0.0324,0.013523,0.002678,0.000431,0.070399
2218000,0.0324,0.013523,0.002678,0.000431,0.167125
2219000,0.0324,0.013523,0.002678,0.000431,0.111534
2220000,0.0324,0.013523,0.002678,0.000431,0.170063
2221000,0.0324,0.013523,0.002678,0.000431,0.202736
2222000,0.0324,0.013523,0.002678,0.000431,0.118939
2223000,0.0324,0.013523,0.002678,0.000431,0.112239
2224000,0.0324,0.013523,0.002678,0.000431,0.093552
2225000,0.0324,0.013523,0.002678,0.000431,0.042310
2226000,0.0324,0.013523,0.002678,0.000431,0.068636
2227000,0.0324,0.013523,0.002678,0.000431,0.277014
2228000,0.0324,0.013523,0.002678,0.000431,0.188515
2229000,0.0324,0.013523,0.002678,0.000431,0.105540
2230000,0.0324,0.013523,0.002678,0.000431,0.062525
2231000,0.0324,0.013523,0.002678,0.000431,0.213549
2232000,0.0324,0.013523,0.002678,0.000431,0.104953
2233000,0.0324,0.013523,0.002678,0.000431,0.201443
2234000,0.0324,0.013523,0.002678,0.000431,0.164775
2235000,0.0324,0.013523,0.002678,0.000431,0.137978
2236000,0.0324,0.013523,0.002678,0.000431,0.102485
2237000,0.0324,0.013523,0.002678,0.000431,0.072867
2238000,0.0324,0.013523,0.002678,0.000431,0.192746
2239000,0.0324,0.013523,0.002678,0.000431,0.057589
2240000,0.0324,0.013523,0.002678,0.000431,0.120819
2241000,0.0324,0.013523,0.002678,0.000431,0.295701
2242000,0.0324,0.013523,0.002678,0.000431,0.139506
2243000,0.0324,0.013523,0.002678,0.000431,0.136685
2244000,0.0324,0.013523,0.002678,0.000431,0.173824
2245000,0.0324,0.013523,0.002678,0.000431,0.117646
2246000,0.0324,0.013523,0.002678,0.000431,0.235056
2247000,0.0324,0.013523,0.002678,0.000431,0.159603
2248000,0.0324,0.013523,0.002678,0.000431,0.137743
2249000,0.0324,0.013523,0.002678,0.000431,0.241873
2250000,0.0324,0.013523,0.002678,0.000431,0.145735
2251000,0.0324,0.013523,0.002678,0.000431,0.065346
2252000,0.0324,0.013523,0.002678,0.000431,0.190278
2253000,0.0324,0.013523,0.002678,0.000431,0.263028
2254000,0.0324,0.013523,0.002678,0.000431,0.132689
2255000,0.0324,0.013523,0.002678,0.000431,0.186400
2256000,0.0324,0.013523,0.002678,0.000431,0.084150
2257000,0.0324,0.013523,0.002678,0.000431,0.082740
2258000,0.0324,0.013523,0.002678,0.000431,0.120819
2259000,0.0324,0.013523,0.002678,0.000431,0.172296
2260000,0.0324,0.013523,0.002678,0.000431,0.176762
2261000,0.0324,0.013523,0.002678,0.000431,0.210375
2262000,0.0324,0.013523,0.002678,0.000431,0.068166
2263000,0.0324,0.013523,0.002678,0.000431,0.039019
2264000,0.0324,0.013523,0.002678,0.000431,0.071222
2265000,0.0324,0.013523,0.002678,0.000431,0.116823
2266000,0.0324,0.013523,0.002678,0.000431,0.141857
2267000,0.0324,0.013523,0.002678,0.000431,0.295583
2268000,0.0324,0.013523,0.002678,0.000431,0.102955
2269000,0.0324,0.013523,0.002678,0.000431,0.087794
2270000,0.0324,0.013523,0.002678,0.000431,0.143149
2271000,0.0324,0.013523,0.002678,0.000431,0.079567
2272000,0.0324,0.013523,0.002678,0.000431,0.113650
2273000,0.0324,0.013523,0.002678,0.000431,0.149731
2274000,0.0324,0.013523,0.002678,0.000431,0.215429
2275000,0.0324,0.013523,0.002678,0.000431,0.110947
2276000,0.0324,0.013523,0.002678,0.000431,0.066286
2277000,0.0324,0.013523,0.002678,0.000431,0.082152
2278000,0.0324,0.013523,0.002678,0.000431,0.213196
2279000,0.0324,0.013523,0.002678,0.000431,0.304516
2280000,0.0324,0.013523,0.002678,0.000431,0.086383
2281000,0.0324,0.013523,0.002678,0.000431,0.111887
2282000,0.0324,0.013523,0.002678,0.000431,0.203441
2283000,0.0324,0.013523,0.002678,0.000431,0.189220
2284000,0.0324,0.013523,0.002678,0.000431,0.069342
2285000,0.0324,0.013523,0.002678,0.000431,0.140094
2286000,0.0324,0.013523,0.002678,0.000431,0.182404
2287000,0.0324,0.013523,0.002678,0.000431,0.085090
2288000,0.0324,0.013523,0.002678,0.000431,0.068166
2289000,0.0324,0.013523,0.002678,0.000431,0.108008
2290000,0.0324,0.013523,0.002678,0.000431,0.149966
2291000,0.0324,0.013523,0.002678,0.000431,0.139271
2292000,0.0324,0.013523,0.002678,0.000431,0.250335
2293000,0.0324,0.013523,0.002678,0.000431,0.148556
2294000,0.0324,0.013523,0.002678,0.000431,0.114002
2295000,0.0324,0.013523,0.002678,0.000431,0.059469
2296000,0.0324,0.013523,0.002678,0.000431,0.261030
2297000,0.0324,0.013523,0.002678,0.000431,0.130809
2298000,0.0324,0.013523,0.002678,0.000431,0.105775
2299000,0.0324,0.013523,0.002678,0.000431,0.122699
2300000,0.0324,0.013523,0.002678,0.000431,0.140564
2301000,0.0324,0.013523,0.002678,0.000431,0.100722
2302000,0.0324,0.013523,0.002678,0.000431,0.118939
2303000,0.0324,0.013523,0.002678,0.000431,0.233293
2304000,0.0324,0.013523,0.002678,0.000431,0.274781
2305000,0.0324,0.013523,0.002678,0.000431,0.265731
2306000,0.0324,0.013523,0.002678,0.000431,0.195919
2307000,0.0324,0.013523,0.002678,0.000431,0.116941
2308000,0.0324,0.013523,0.002678,0.000431,0.124110
2309000,0.0324,0.013523,0.002678,0.000431,0.139388
2310000,0.0324,0.013523,0.002678,0.000431,0.165127
2311000,0.0324,0.013523,0.002678,0.000431,0.263851
2312000,0.0324,0.013523,0.002678,0.000431,0.396540
2313000,0.0324,0.013523,0.002678,0.000431,0.185577
2314000,0.0324,0.013523,0.002678,0.000431,0.051477
2315000,0.0324,0.013523,0.002678,0.000431,0.131397
2316000,0.0324,0.013523,0.002678,0.000431,0.144677
2317000,0.0324,0.013523,0.002678,0.000431,0.161249
2318000,0.0324,0.013523,0.002678,0.000431,0.179936
2319000,0.0324,0.013523,0.002678,0.000431,0.201561
2320000,0.0324,0.013523,0.002678,0.000431,0.101897
2321000,0.0324,0.013523,0.002678,0.000431,0.099546
2322000,0.0324,0.013523,0.002678,0.000431,0.135157
2323000,0.0324,0.013523,0.002678,0.000431,0.073103
2324000,0.0324,0.013523,0.002678,0.000431,0.225184
2325000,0.0324,0.013523,0.002678,0.000431,0.300637
2326000,0.0324,0.013523,0.002678,0.000431,0.075336
2327000,0.0324,0.013523,0.002678,0.000431,0.050185
2328000,0.0324,0.013523,0.002678,0.000431,0.163599
2329000,0.0324,0.013523,0.002678,0.000431,0.083327
2330000,0.0324,0.013523,0.002678,0.000431,0.204264
2331000,0.0324,0.013523,0.002678,0.000431,0.315446
2332000,0.0324,0.013523,0.002678,0.000431,0.391486
2333000,0.0324,0.013523,0.002678,0.000431,0.095315
2334000,0.0324,0.013523,0.002678,0.000431,0.132807
2335000,0.0324,0.013523,0.002678,0.000431,0.174412
2336000,0.0324,0.013523,0.002678,0.000431,0.092377
2337000,0.0324,0.013523,0.002678,0.000431,0.417930
2338000,0.0324,0.013523,0.002678,0.000431,0.180758
2339000,0.0324,0.013523,0.002678,0.000431,0.202619
2340000,0.0324,0.013523,0.002678,0.000431,0.143619
2341000,0.0324,0.013523,0.002678,0.000431,0.162659
2342000,0.0324,0.013523,0.002678,0.000431,0.129751
2343000,0.0324,0.013523,0.002678,0.000431,0.114120
2344000,0.0324,0.013523,0.002678,0.000431,0.093787
2345000,0.0324,0.013523,0.002678,0.000431,0.180053
2346000,0.0324,0.013523,0.002678,0.000431,0.097313
2347000,0.0324,0.013523,0.002678,0.000431,0.081917
2348000,0.0324,0.013523,0.002678,0.000431,0.072045
2349000,0.0324,0.013523,0.002678,0.000431,0.132924
2350000,0.0324,0.013523,0.002678,0.000431,0.239522
2351000,0.0324,0.013523,0.002678,0.000431,0.075101
2352000,0.0324,0.013523,0.002678,0.000431,0.159486
2353000,0.0324,0.013523,0.002678,0.000431,0.053945
2354000,0.0324,0.013523,0.002678,0.000431,0.105305
2355000,0.0324,0.013523,0.002678,0.000431,0.175705
2356000,0.0324,0.013523,0.002678,0.000431,0.267494
2357000,0.0324,0.013523,0.002678,0.000431,0.114120
2358000,0.0324,0.013523,0.002678,0.000431,0.178290
2359000,0.0324,0.013523,0.002678,0.000431,0.057824
2360000,0.0324,0.013523,0.002678,0.000431,0.192981
2361000,0.0324,0.013523,0.002678,0.000431,0.117998
2362000,0.0324,0.013523,0.002678,0.000431,0.090497
2363000,0.0324,0.013523,0.002678,0.000431,0.307689
2364000,0.0324,0.013523,0.002678,0.000431,0.205909
2365000,0.0324,0.013523,0.002678,0.000431,0.108008
2366000,0.0324,0.013523,0.002678,0.000431,0.159251
2367000,0.0324,0.013523,0.002678,0.000431,0.127518
2368000,0.0324,0.013523,0.002678,0.000431,0.106245
2369000,0.0324,0.013523,0.002678,0.000431,0.244224
2370000,0.0324,0.013523,0.002678,0.000431,0.185107
2371000,0.0324,0.013523,0.002678,0.000431,0.087676
2372000,0.0324,0.013523,0.002678,0.000431,0.058176
2373000,0.0324,0.013523,0.002678,0.000431,0.235174
2374000,0.0324,0.013523,0.002678,0.000431,0.113180
2375000,0.0324,0.013523,0.002678,0.000431,0.151376
2376000,0.0324,0.013523,0.002678,0.000431,0.286886
2377000,0.0324,0.013523,0.002678,0.000431,0.216487
2378000,0.0324,0.013523,0.002678,0.000431,0.110241
2379000,0.0324,0.013523,0.002678,0.000431,0.100722
2380000,0.0324,0.013523,0.002678,0.000431,0.247984
2381000,0.0324,0.013523,0.002678,0.000431,0.101427
2382000,0.0324,0.013523,0.002678,0.000431,0.219895
2383000,0.0324,0.013523,0.002678,0.000431,0.325083
2384000,0.0324,0.013523,0.002678,0.000431,0.126813
2385000,0.0324,0.013523,0.002678,0.000431,0.050067
2386000,0.0324,0.013523,0.002678,0.000431,0.130574
2387000,0.0324,0.013523,0.002678,0.000431,0.135157
2388000,0.0324,0.013523,0.002678,0.000431,0.175470
2389000,0.0324,0.013523,0.002678,0.000431,0.260795
2390000,0.0324,0.013523,0.002678,0.000431,0.348354
2391000,0.0324,0.013523,0.002678,0.000431,0.054886
2392000,0.0324,0.013523,0.002678,0.000431,0.103895
2393000,0.0324,0.013523,0.002678,0.000431,0.170063
2394000,0.0324,0.013523,0.002678,0.000431,0.131161
2395000,0.0324,0.013523,0.002678,0.000431,0.295701
2396000,0.0324,0.013523,0.002678,0.000431,0.132689
2397000,0.0324,0.013523,0.002678,0.000431,0.112710
2398000,0.0324,0.013523,0.002678,0.000431,0.091672
2399000,0.0324,0.013523,0.002678,0.000431,0.205439
2400000,0.0324,0.013523,0.002678,0.000431,0.079802
2401000,0.0324,0.013523,0.002678,0.000431,0.208260
2402000,0.0324,0.013523,0.002678,0.000431,0.375855
2403000,0.0324,0.013523,0.002678,0.000431,0.240345
2404000,0.0324,0.013523,0.002678,0.000431,0.038432
2405000,0.0324,0.013523,0.002678,0.000431,0.131397
2406000,0.0324,0.013523,0.002678,0.000431,0.202736
2407000,0.0324,0.013523,0.002678,0.000431,0.177350
2408000,0.0324,0.013523,0.002678,0.000431,0.168065
2409000,0.0324,0.013523,0.002678,0.000431,0.188280
2410000,0.0324,0.013523,0.002678,0.000431,0.050067
2411000,0.0324,0.013523,0.002678,0.000431,0.080272
2412000,0.0324,0.013523,0.002678,0.000431,0.155725
2413000,0.0324,0.013523,0.002678,0.000431,0.102602
2414000,0.0324,0.013523,0.002678,0.000431,0.181816
2415000,0.0324,0.013523,0.002678,0.000431,0.210728
2416000,0.0324,0.013523,0.002678,0.000431,0.321087
2417000,0.0324,0.013523,0.002678,0.000431,0.044308
2418000,0.0324,0.013523,0.002678,0.000431,0.138918
2419000,0.0324,0.013523,0.002678,0.000431,0.066991
2420000,0.0324,0.013523,0.002678,0.000431,0.101897
2421000,0.0324,0.013523,0.002678,0.000431,0.332957
2422000,0.0324,0.013523,0.002678,0.000431,0.106245
2423000,0.0324,0.013523,0.002678,0.000431,0.058059
2424000,0.0324,0.013523,0.002678,0.000431,0.066638
2425000,0.0324,0.013523,0.002678,0.000431,0.117058
2426000,0.0324,0.013523,0.002678,0.000431,0.094140
2427000,0.0324,0.013523,0.002678,0.000431,0.138331
2428000,0.0324,0.013523,0.002678,0.000431,0.335425
2429000,0.0324,0.013523,0.002678,0.000431,0.351292
2430000,0.0324,0.013523,0.002678,0.000431,0.037139
2431000,0.0324,0.013523,0.002678,0.000431,0.054063
2432000,0.0324,0.013523,0.002678,0.000431,0.076628
2433000,0.0324,0.013523,0.002678,0.000431,0.187575
2434000,0.0324,0.013523,0.002678,0.000431,0.222128
2435000,0.0324,0.013523,0.002678,0.000431,0.248337
2436000,0.0324,0.013523,0.002678,0.000431,0.181346
2437000,0.0324,0.013523,0.002678,0.000431,0.072515
2438000,0.0324,0.013523,0.002678,0.000431,0.200503
2439000,0.0324,0.013523,0.002678,0.000431,0.113767
2440000,0.0324,0.013523,0.002678,0.000431,0.399478
2441000,0.0324,0.013523,0.002678,0.000431,0.195684
2442000,0.0324,0.013523,0.002678,0.000431,0.100016
2443000,0.0324,0.013523,0.002678,0.000431,0.044543
2444000,0.0324,0.013523,0.002678,0.000431,0.271373
2445000,0.0324,0.013523,0.002678,0.000431,0.284888
2446000,0.0324,0.013523,0.002678,0.000431,0.204382
2447000,0.0324,0.013523,0.002678,0.000431,0.198388
2448000,0.0324,0.013523,0.002678,0.000431,0.097666
2449000,0.0324,0.013523,0.002678,0.000431,0.114472
2450000,0.0324,0.013523,0.002678,0.000431,0.105775
2451000,0.0324,0.013523,0.002678,0.000431,0.091790
2452000,0.0324,0.013523,0.002678,0.000431,0.069459
2453000,0.0324,0.013523,0.002678,0.000431,0.257034
2454000,0.0324,0.013523,0.002678,0.000431,0.196272
2455000,0.0324,0.013523,0.002678,0.000431,0.054886
2456000,0.0324,0.013523,0.002678,0.000431,0.053710
2457000,0.0324,0.013523,0.002678,0.000431,0.202266
2458000,0.0324,0.013523,0.002678,0.000431,0.175117
2459000,0.0324,0.013523,0.002678,0.000431,0.179466
2460000,0.0324,0.013523,0.002678,0.000431,0.229533
2461000,0.0324,0.013523,0.002678,0.000431,0.162071
2462000,0.0324,0.013523,0.002678,0.000431,0.145735
2463000,0.0324,0.013523,0.002678,0.000431,0.193569
2464000,0.0324,0.013523,0.002678,0.000431,0.315446
2465000,0.0324,0.013523,0.002678,0.000431,0.151611
2466000,0.0324,0.013523,0.002678,0.000431,0.299579
2467000,0.0324,0.013523,0.002678,0.000431,0.192041
2468000,0.0324,0.013523,0.002678,0.000431,0.058176
2469000,0.0324,0.013523,0.002678,0.000431,0.077804
2470000,0.0324,0.013523,0.002678,0.000431,0.133630
2471000,0.0324,0.013523,0.002678,0.000431,0.119526
2472000,0.0324,0.013523,0.002678,0.000431,0.225066
2473000,0.0324,0.013523,0.002678,0.000431,0.235644
2474000,0.0324,0.013523,0.002678,0.000431,0.125168
2475000,0.0324,0.013523,0.002678,0.000431,0.042545
2476000,0.0324,0.013523,0.002678,0.000431,0.129163
2477000,0.0324,0.013523,0.002678,0.000431,0.218955
2478000,0.0324,0.013523,0.002678,0.000431,0.181934
2479000,0.0324,0.013523,0.002678,0.000431,0.393132
2480000,0.0324,0.013523,0.002678,0.000431,0.272548
2481000,0.0324,0.013523,0.002678,0.000431,0.127871
2482000,0.0324,0.013523,0.002678,0.000431,0.087323
2483000,0.0324,0.013523,0.002678,0.000431,0.136450
2484000,0.0324,0.013523,0.002678,0.000431,0.142679
2485000,0.0324,0.013523,0.002678,0.000431,0.138331
2486000,0.0324,0.013523,0.002678,0.000431,0.249277
2487000,0.0324,0.013523,0.002678,0.000431,0.125638
2488000,0.0324,0.013523,0.002678,0.000431,0.034788
2489000,0.0324,0.013523,0.002678,0.000431,0.084738
2490000,0.0324,0.013523,0.002678,0.000431,0.068401
2491000,0.0324,0.013523,0.002678,0.000431,0.234704
2492000,0.0324,0.013523,0.002678,0.000431,0.312037
2493000,0.0324,0.013523,0.002678,0.000431,0.366688
2494000,0.0324,0.013523,0.002678,0.000431,0.192629
2495000,0.0324,0.013523,0.002678,0.000431,0.117763
2496000,0.0324,0.013523,0.002678,0.000431,0.172179
2497000,0.0324,0.013523,0.002678,0.000431,0.105423
2498000,0.0324,0.013523,0.002678,0.000431,0.243518
2499000,0.0324,0.013523,0.002678,0.000431,0.115530
2500000,0.0324,0.013523,0.002678,0.000431,0.047129
2501000,0.0324,0.013523,0.002678,0.000431,0.042545
2502000,0.0324,0.013523,0.002678,0.000431,0.168770
2503000,0.0324,0.013523,0.002678,0.000431,0.232588
2504000,0.0324,0.013523,0.002678,0.000431,0.160426
2505000,0.0324,0.013523,0.002678,0.000431,0.243048
2506000,0.0324,0.013523,0.002678,0.000431,0.137508
2507000,0.0324,0.013523,0.002678,0.000431,0.087558
2508000,0.0324,0.013523,0.002678,0.000431,0.238465
2509000,0.0324,0.013523,0.002678,0.000431,0.091907
2510000,0.0324,0.013523,0.002678,0.000431,0.050302
2511000,0.0324,0.013523,0.002678,0.000431,0.123875
2512000,0.0324,0.013523,0.002678,0.000431,0.321675
2513000,0.0324,0.013523,0.002678,0.000431,0.188515
2514000,0.0324,0.013523,0.002678,0.000431,0.275133
2515000,0.0324,0.013523,0.002678,0.000431,0.243636
2516000,0.0324,0.013523,0.002678,0.000431,0.069224
2517000,0.0324,0.013523,0.002678,0.000431,0.087911
2518000,0.0324,0.013523,0.002678,0.000431,0.279600
2519000,0.0324,0.013523,0.002678,0.000431,0.236349
2520000,0.0324,0.013523,0.002678,0.000431,0.058059
2521000,0.0324,0.013523,0.002678,0.000431,0.162541
2522000,0.0324,0.013523,0.002678,0.000431,0.147028
2523000,0.0324,0.013523,0.002678,0.000431,0.084150
2524000,0.0324,0.013523,0.002678,0.000431,0.131397
2525000,0.0324,0.013523,0.002678,0.000431,0.133865
2526000,0.0324,0.013523,0.002678,0.000431,0.101074
2527000,0.0324,0.013523,0.002678,0.000431,0.190513
2528000,0.0324,0.013523,0.002678,0.000431,0.108243
2529000,0.0324,0.013523,0.002678,0.000431,0.180641
2530000,0.0324,0.013523,0.002678,0.000431,0.156077
2531000,0.0324,0.013523,0.002678,0.000431,0.233293
2532000,0.0324,0.013523,0.002678,0.000431,0.370801
2533000,0.0324,0.013523,0.002678,0.000431,0.101309
2534000,0.0324,0.013523,0.002678,0.000431,0.185342
2535000,0.0324,0.013523,0.002678,0.000431,0.115883
2536000,0.0324,0.013523,0.002678,0.000431,0.262911
2537000,0.0324,0.013523,0.002678,0.000431,0.203089
2538000,0.0324,0.013523,0.002678,0.000431,0.064876
2539000,0.0324,0.013523,0.002678,0.000431,0.125285
2540000,0.0324,0.013523,0.002678,0.000431,0.057589
2541000,0.0324,0.013523,0.002678,0.000431,0.216017
2542000,0.0324,0.013523,0.002678,0.000431,0.050067
2543000,0.0324,0.013523,0.002678,0.000431,0.095080
2544000,0.0324,0.013523,0.002678,0.000431,0.161131
2545000,0.0324,0.013523,0.002678,0.000431,0.104365
2546000,0.0324,0.013523,0.002678,0.000431,0.133982
2547000,0.0324,0.013523,0.002678,0.000431,0.254801
2548000,0.0324,0.013523,0.002678,0.000431,0.205204
2549000,0.0324,0.013523,0.002678,0.000431,0.240463
2550000,0.0324,0.013523,0.002678,0.000431,0.159838
2551000,0.0324,0.013523,0.002678,0.000431,0.194392
2552000,0.0324,0.013523,0.002678,0.000431,0.086971
2553000,0.0324,0.013523,0.002678,0.000431,0.125403
2554000,0.0324,0.013523,0.002678,0.000431,0.186047
2555000,0.0324,0.013523,0.002678,0.000431,0.047011
2556000,0.0324,0.013523,0.002678,0.000431,0.109536
2557000,0.0324,0.013523,0.002678,0.000431,0.148086
2558000,0.0324,0.013523,0.002678,0.000431,0.076628
2559000,0.0324,0.013523,0.002678,0.000431,0.087911
2560000,0.0324,0.013523,0.002678,0.000431,0.102955
2561000,0.0324,0.013523,0.002678,0.000431,0.114237
2562000,0.0324,0.013523,0.002678,0.000431,0.143619
2563000,0.0324,0.013523,0.002678,0.000431,0.107538
2564000,0.0324,0.013523,0.002678,0.000431,0.121407
2565000,0.0324,0.013523,0.002678,0.000431,0.042663
2566000,0.0324,0.013523,0.002678,0.000431,0.108361
2567000,0.0324,0.013523,0.002678,0.000431,0.111652
2568000,0.0324,0.013523,0.002678,0.000431,0.126108
2569000,0.0324,0.013523,0.002678,0.000431,0.310745
2570000,0.0324,0.013523,0.002678,0.000431,0.142914
2571000,0.0324,0.013523,0.002678,0.000431,0.140564
2572000,0.0324,0.013523,0.002678,0.000431,0.106128
2573000,0.0324,0.013523,0.002678,0.000431,0.129634
2574000,0.0324,0.013523,0.002678,0.000431,0.099194
2575000,0.0324,0.013523,0.002678,0.000431,0.209435
2576000,0.0324,0.013523,0.002678,0.000431,0.318031
2577000,0.0324,0.013523,0.002678,0.000431,0.134335
2578000,0.0324,0.013523,0.002678,0.000431,0.100134
2579000,0.0324,0.013523,0.002678,0.000431,0.332957
2580000,0.0324,0.013523,0.002678,0.000431,0.225302
2581000,0.0324,0.013523,0.002678,0.000431,0.205557
2582000,0.0324,0.013523,0.002678,0.000431,0.183461
2583000,0.0324,0.013523,0.002678,0.000431,0.153022
2584000,0.0324,0.013523,0.002678,0.000431,0.110006
2585000,0.0324,0.013523,0.002678,0.000431,0.053123
2586000,0.0324,0.013523,0.002678,0.000431,0.216369
2587000,0.0324,0.013523,0.002678,0.000431,0.170181
2588000,0.0324,0.013523,0.002678,0.000431,0.114120
2589000,0.0324,0.013523,0.002678,0.000431,0.161249
2590000,0.0324,0.013523,0.002678,0.000431,0.093200
2591000,0.0324,0.013523,0.002678,0.000431,0.127165
2592000,0.0324,0.013523,0.002678,0.000431,0.161601
2593000,0.0324,0.013523,0.002678,0.000431,0.265144
2594000,0.0324,0.013523,0.002678,0.000431,0.118821
2595000,0.0324,0.013523,0.002678,0.000431,0.176880
2596000,0.0324,0.013523,0.002678,0.000431,0.113532
2597000,0.0324,0.013523,0.002678,0.000431,0.102132
2598000,0.0324,0.013523,0.002678,0.000431,0.094375
2599000,0.0324,0.013523,0.002678,0.000431,0.171709
2600000,0.0324,0.013523,0.002678,0.000431,0.095433
2601000,0.0324,0.013523,0.002678,0.000431,0.132454
2602000,0.0324,0.013523,0.002678,0.000431,0.171239
2603000,0.0324,0.013523,0.002678,0.000431,0.121524
2604000,0.0324,0.013523,0.002678,0.000431,0.161366
2605000,0.0324,0.013523,0.002678,0.000431,0.263263
2606000,0.0324,0.013523,0.002678,0.000431,0.130691
2607000,0.0324,0.013523,0.002678,0.000431,0.207672
2608000,0.0324,0.013523,0.002678,0.000431,0.163952
2609000,0.0324,0.013523,0.002678,0.000431,0.065111
2610000,0.0324,0.013523,0.002678,0.000431,0.153492
2611000,0.0324,0.013523,0.002678,0.000431,0.116470
2612000,0.0324,0.013523,0.002678,0.000431,0.157018
2613000,0.0324,0.013523,0.002678,0.000431,0.172179
2614000,0.0324,0.013523,0.002678,0.000431,0.125873
2615000,0.0324,0.013523,0.002678,0.000431,0.121759
2616000,0.0324,0.013523,0.002678,0.000431,0.246457
2617000,0.0324,0.013523,0.002678,0.000431,0.109654
2618000,0.0324,0.013523,0.002678,0.000431,0.060997
2619000,0.0324,0.013523,0.002678,0.000431,0.208142
2620000,0.0324,0.013523,0.002678,0.000431,0.269022
2621000,0.0324,0.013523,0.002678,0.000431,0.171591
2622000,0.0324,0.013523,0.002678,0.000431,0.292645
2623000,0.0324,0.013523,0.002678,0.000431,0.098489
2624000,0.0324,0.013523,0.002678,0.000431,0.128458
2625000,0.0324,0.013523,0.002678,0.000431,0.079684
2626000,0.0324,0.013523,0.002678,0.000431,0.143149
2627000,0.0324,0.013523,0.002678,0.000431,0.166420
2628000,0.0324,0.013523,0.002678,0.000431,0.137390
2629000,0.0324,0.013523,0.002678,0.000431,0.198740
2630000,0.0324,0.013523,0.002678,0.000431,0.132807
2631000,0.0324,0.013523,0.002678,0.000431,0.119291
2632000,0.0324,0.013523,0.002678,0.000431,0.191336
2633000,0.0324,0.013523,0.002678,0.000431,0.086618
2634000,0.0324,0.013523,0.002678,0.000431,0.144207
2635000,0.0324,0.013523,0.002678,0.000431,0.347766
2636000,0.0324,0.013523,0.002678,0.000431,0.168770
2637000,0.0324,0.013523,0.002678,0.000431,0.083327
2638000,0.0324,0.013523,0.002678,0.000431,0.132807
2639000,0.0324,0.013523,0.002678,0.000431,0.083915
2640000,0.0324,0.013523,0.002678,0.000431,0.108243
2641000,0.0324,0.013523,0.002678,0.000431,0.256564
2642000,0.0324,0.013523,0.002678,0.000431,0.218015
2643000,0.0324,0.013523,0.002678,0.000431,0.238582
2644000,0.0324,0.013523,0.002678,0.000431,0.148086
2645000,0.0324,0.013523,0.002678,0.000431,0.092142
2646000,0.0324,0.013523,0.002678,0.000431,0.220013
2647000,0.0324,0.013523,0.002678,0.000431,0.136333
2648000,0.0324,0.013523,0.002678,0.000431,0.210375
2649000,0.0324,0.013523,0.002678,0.000431,0.228357
2650000,0.0324,0.013523,0.002678,0.000431,0.135980
2651000,0.0324,0.013523,0.002678,0.000431,0.129046
2652000,0.0324,0.013523,0.002678,0.000431,0.054063
2653000,0.0324,0.013523,0.002678,0.000431,0.088146
2654000,0.0324,0.013523,0.002678,0.000431,0.163129
2655000,0.0324,0.013523,0.002678,0.000431,0.129046
2656000,0.0324,0.013523,0.002678,0.000431,0.084033
2657000,0.0324,0.013523,0.002678,0.000431,0.148086
2658000,0.0324,0.013523,0.002678,0.000431,0.042545
2659000,0.0324,0.013523,0.002678,0.000431,0.087794
2660000,0.0324,0.013523,0.002678,0.000431,0.050302
2661000,0.0324,0.013523,0.002678,0.000431,0.099546
2662000,0.0324,0.013523,0.002678,0.000431,0.249395
2663000,0.0324,0.013523,0.002678,0.000431,0.136450
2664000,0.0324,0.013523,0.002678,0.000431,0.277249
2665000,0.0324,0.013523,0.002678,0.000431,0.134570
2666000,0.0324,0.013523,0.002678,0.000431,0.086736
2667000,0.0324,0.013523,0.002678,0.000431,0.103895
2668000,0.0324,0.013523,0.002678,0.000431,0.093082
2669000,0.0324,0.013523,0.002678,0.000431,0.086501
2670000,0.0324,0.013523,0.002678,0.000431,0.185107
2671000,0.0324,0.013523,0.002678,0.000431,0.106833
2672000,0.0324,0.013523,0.002678,0.000431,0.161366
2673000,0.0324,0.013523,0.002678,0.000431,0.141621
2674000,0.0324,0.013523,0.002678,0.000431,0.182874
2675000,0.0324,0.013523,0.002678,0.000431,0.167478
2676000,0.0324,0.013523,0.002678,0.000431,0.159721
2677000,0.0324,0.013523,0.002678,0.000431,0.296406
2678000,0.0324,0.013523,0.002678,0.000431,0.171356
2679000,0.0324,0.013523,0.002678,0.000431,0.129751
2680000,0.0324,0.013523,0.002678,0.000431,0.169828
2681000,0.0324,0.013523,0.002678,0.000431,0.213549
2682000,0.0324,0.013523,0.002678,0.000431,0.200738
2683000,0.0324,0.013523,0.002678,0.000431,0.318854
2684000,0.0324,0.013523,0.002678,0.000431,0.123757
2685000,0.0324,0.013523,0.002678,0.000431,0.088146
2686000,0.0324,0.013523,0.002678,0.000431,0.117881
2687000,0.0324,0.013523,0.002678,0.000431,0.095785
2688000,0.0324,0.013523,0.002678,0.000431,0.141386
2689000,0.0324,0.013523,0.002678,0.000431,0.141974
2690000,0.0324,0.013523,0.002678,0.000431,0.075688
2691000,0.0324,0.013523,0.002678,0.000431,0.133159
2692000,0.0324,0.013523,0.002678,0.000431,0.120114
2693000,0.0324,0.013523,0.002678,0.000431,0.097078
2694000,0.0324,0.013523,0.002678,0.000431,0.103072
2695000,0.0324,0.013523,0.002678,0.000431,0.170298
2696000,0.0324,0.013523,0.002678,0.000431,0.142327
2697000,0.0324,0.013523,0.002678,0.000431,0.088969
2698000,0.0324,0.013523,0.002678,0.000431,0.099664
2699000,0.0324,0.013523,0.002678,0.000431,0.156430
2700000,0.0324,0.013523,0.002678,0.000431,0.087794
2701000,0.0324,0.013523,0.002678,0.000431,0.112827
2702000,0.0324,0.013523,0.002678,0.000431,0.224244
2703000,0.0324,0.013523,0.002678,0.000431,0.130221
2704000,0.0324,0.013523,0.002678,0.000431,0.123875
2705000,0.0324,0.013523,0.002678,0.000431,0.329079
2706000,0.0324,0.013523,0.002678,0.000431,0.137508
2707000,0.0324,0.013523,0.002678,0.000431,0.205439
2708000,0.0324,0.013523,0.002678,0.000431,0.247514
2709000,0.0324,0.013523,0.002678,0.000431,0.153374
2710000,0.0324,0.013523,0.002678,0.000431,0.101309
2711000,0.0324,0.013523,0.002678,0.000431,0.108479
2712000,0.0324,0.013523,0.002678,0.000431,0.128223
2713000,0.0324,0.013523,0.002678,0.000431,0.146440
2714000,0.0324,0.013523,0.002678,0.000431,0.062290
2715000,0.0324,0.013523,0.002678,0.000431,0.152081
2716000,0.0324,0.013523,0.002678,0.000431,0.102955
2717000,0.0324,0.013523,0.002678,0.000431,0.175587
2718000,0.0324,0.013523,0.002678,0.000431,0.202854
2719000,0.0324,0.013523,0.002678,0.000431,0.133865
2720000,0.0324,0.013523,0.002678,0.000431,0.156900
2721000,0.0324,0.013523,0.002678,0.000431,0.050185
2722000,0.0324,0.013523,0.002678,0.000431,0.110476
2723000,0.0324,0.013523,0.002678,0.000431,0.177585
2724000,0.0324,0.013523,0.002678,0.000431,0.095550
2725000,0.0324,0.013523,0.002678,0.000431,0.170416
2726000,0.0324,0.013523,0.002678,0.000431,0.218367
2727000,0.0324,0.013523,0.002678,0.000431,0.070399
2728000,0.0324,0.013523,0.002678,0.000431,0.133042
2729000,0.0324,0.013523,0.002678,0.000431,0.190278
2730000,0.0324,0.013523,0.002678,0.000431,0.081094
2731000,0.0324,0.013523,0.002678,0.000431,0.144325
2732000,0.0324,0.013523,0.002678,0.000431,0.191571
2733000,0.0324,0.013523,0.002678,0.000431,0.080272
2734000,0.0324,0.013523,0.002678,0.000431,0.099076
2735000,0.0324,0.013523,0.002678,0.000431,0.134570
2736000,0.0324,0.013523,0.002678,0.000431,0.226477
2737000,0.0324,0.013523,0.002678,0.000431,0.096608
2738000,0.0324,0.013523,0.002678,0.000431,0.121054
2739000,0.0324,0.013523,0.002678,0.000431,0.161954
2740000,0.0324,0.013523,0.002678,0.000431,0.063700
2741000,0.0324,0.013523,0.002678,0.000431,0.081094
2742000,0.0324,0.013523,0.002678,0.000431,0.138918
2743000,0.0324,0.013523,0.002678,0.000431,0.110829
2744000,0.0324,0.013523,0.002678,0.000431,0.158663
2745000,0.0324,0.013523,0.002678,0.000431,0.157370
2746000,0.0324,0.013523,0.002678,0.000431,0.061232
2747000,0.0324,0.013523,0.002678,0.000431,0.099076
2748000,0.0324,0.013523,0.002678,0.000431,0.079684
2749000,0.0324,0.013523,0.002678,0.000431,0.057589
2750000,0.0324,0.013523,0.002678,0.000431,0.166772
2751000,0.0324,0.013523,0.002678,0.000431,0.124462
2752000,0.0324,0.013523,0.002678,0.000431,0.047011
2753000,0.0324,0.013523,0.002678,0.000431,0.061115
2754000,0.0324,0.013523,0.002678,0.000431,0.153257
2755000,0.0324,0.013523,0.002678,0.000431,0.071927
2756000,0.0324,0.013523,0.002678,0.000431,0.200738
2757000,0.0324,0.013523,0.002678,0.000431,0.113767
2758000,0.0324,0.013523,0.002678,0.000431,0.175117
2759000,0.0324,0.013523,0.002678,0.000431,0.091554
2760000,0.0324,0.013523,0.002678,0.000431,0.106951
2761000,0.0324,0.013523,0.002678,0.000431,0.137861
2762000,0.0324,0.013523,0.002678,0.000431,0.090262
2763000,0.0324,0.013523,0.002678,0.000431,0.124815
2764000,0.0324,0.013523,0.002678,0.000431,0.143149
2765000,0.0324,0.013523,0.002678,0.000431,0.151611
2766000,0.0324,0.013523,0.002678,0.000431,0.102250
2767000,0.0324,0.013523,0.002678,0.000431,0.063113
2768000,0.0324,0.013523,0.002678,0.000431,0.104953
2769000,0.0324,0.013523,0.002678,0.000431,0.087676
2770000,0.0324,0.013523,0.002678,0.000431,0.119879
2771000,0.0324,0.013523,0.002678,0.000431,0.161131
2772000,0.0324,0.013523,0.002678,0.000431,0.106363
2773000,0.0324,0.013523,0.002678,0.000431,0.072985
2774000,0.0324,0.013523,0.002678,0.000431,0.114120
2775000,0.0324,0.013523,0.002678,0.000431,0.153962
2776000,0.0324,0.013523,0.002678,0.000431,0.149378
2777000,0.0324,0.013523,0.002678,0.000431,0.335543
2778000,0.0324,0.013523,0.002678,0.000431,0.242226
2779000,0.0324,0.013523,0.002678,0.000431,0.168535
2780000,0.0324,0.013523,0.002678,0.000431,0.106245
2781000,0.0324,0.013523,0.002678,0.000431,0.102837
2782000,0.0324,0.013523,0.002678,0.000431,0.192746
2783000,0.0324,0.013523,0.002678,0.000431,0.184637
2784000,0.0324,0.013523,0.002678,0.000431,0.116470
2785000,0.0324,0.013523,0.002678,0.000431,0.128693
2786000,0.0324,0.013523,0.002678,0.000431,0.170651
2787000,0.0324,0.013523,0.002678,0.000431,0.064758
2788000,0.0324,0.013523,0.002678,0.000431,0.096726
2789000,0.0324,0.013523,0.002678,0.000431,0.088381
2790000,0.0324,0.013523,0.002678,0.000431,0.130574
2791000,0.0324,0.013523,0.002678,0.000431,0.190866
2792000,0.0324,0.013523,0.002678,0.000431,0.081565
2793000,0.0324,0.013523,0.002678,0.000431,0.152552
2794000,0.0324,0.013523,0.002678,0.000431,0.042780
2795000,0.0324,0.013523,0.002678,0.000431,0.076628
2796000,0.0324,0.013523,0.002678,0.000431,0.035258
2797000,0.0324,0.013523,0.002678,0.000431,0.191101
2798000,0.0324,0.013523,0.002678,0.000431,0.222128
2799000,0.0324,0.013523,0.002678,0.000431,0.152199
2800000,0.0324,0.013523,0.002678,0.000431,0.140329
2801000,0.0324,0.013523,0.002678,0.000431,0.046189
2802000,0.0324,0.013523,0.002678,0.000431,0.088381
2803000,0.0324,0.013523,0.002678,0.000431,0.094845
2804000,0.0324,0.013523,0.002678,0.000431,0.143267
2805000,0.0324,0.013523,0.002678,0.000431,0.095315
2806000,0.0324,0.013523,0.002678,0.000431,0.102014
2807000,0.0324,0.013523,0.002678,0.000431,0.135275
2808000,0.0324,0.013523,0.002678,0.000431,0.078979
2809000,0.0324,0.013523,0.002678,0.000431,0.071810
2810000,0.0324,0.013523,0.002678,0.000431,0.094375
2811000,0.0324,0.013523,0.002678,0.000431,0.147615
2812000,0.0324,0.013523,0.002678,0.000431,0.099194
2813000,0.0324,0.013523,0.002678,0.000431,0.163599
2814000,0.0324,0.013523,0.002678,0.000431,0.108126
2815000,0.0324,0.013523,0.002678,0.000431,0.077216
2816000,0.0324,0.013523,0.002678,0.000431,0.120231
2817000,0.0324,0.013523,0.002678,0.000431,0.133277
2818000,0.0324,0.013523,0.002678,0.000431,0.227064
2819000,0.0324,0.013523,0.002678,0.000431,0.058647
2820000,0.0324,0.013523,0.002678,0.000431,0.105658
2821000,0.0324,0.013523,0.002678,0.000431,0.095080
2822000,0.0324,0.013523,0.002678,0.000431,0.087794
2823000,0.0324,0.013523,0.002678,0.000431,0.138566
2824000,0.0324,0.013523,0.002678,0.000431,0.200738
2825000,0.0324,0.013523,0.002678,0.000431,0.175940
2826000,0.0324,0.013523,0.002678,0.000431,0.202736
2827000,0.0324,0.013523,0.002678,0.000431,0.095080
2828000,0.0324,0.013523,0.002678,0.000431,0.047129
2829000,0.0324,0.013523,0.002678,0.000431,0.191688
2830000,0.0324,0.013523,0.002678,0.000431,0.115295
2831000,0.0324,0.013523,0.002678,0.000431,0.178995
2832000,0.0324,0.013523,0.002678,0.000431,0.104600
2833000,0.0324,0.013523,0.002678,0.000431,0.095198
2834000,0.0324,0.013523,0.002678,0.000431,0.099076
2835000,0.0324,0.013523,0.002678,0.000431,0.212021
2836000,0.0324,0.013523,0.002678,0.000431,0.211081
2837000,0.0324,0.013523,0.002678,0.000431,0.191218
2838000,0.0324,0.013523,0.002678,0.000431,0.083798
2839000,0.0324,0.013523,0.002678,0.000431,0.255389
2840000,0.0324,0.013523,0.002678,0.000431,0.224244
2841000,0.0324,0.013523,0.002678,0.000431,0.160896
2842000,0.0324,0.013523,0.002678,0.000431,0.218720
2843000,0.0324,0.013523,0.002678,0.000431,0.110476
2844000,0.0324,0.013523,0.002678,0.000431,0.132807
2845000,0.0324,0.013523,0.002678,0.000431,0.136215
2846000,0.0324,0.013523,0.002678,0.000431,0.080389
2847000,0.0324,0.013523,0.002678,0.000431,0.100369
2848000,0.0324,0.013523,0.002678,0.000431,0.053240
2849000,0.0324,0.013523,0.002678,0.000431,0.094258
2850000,0.0324,0.013523,0.002678,0.000431,0.192981
2851000,0.0324,0.013523,0.002678,0.000431,0.112592
2852000,0.0324,0.013523,0.002678,0.000431,0.112592
2853000,0.0324,0.013523,0.002678,0.000431,0.122229
2854000,0.0324,0.013523,0.002678,0.000431,0.095668
2855000,0.0324,0.013523,0.002678,0.000431,0.094493
2856000,0.0324,0.013523,0.002678,0.000431,0.139859
2857000,0.0324,0.013523,0.002678,0.000431,0.142209
2858000,0.0324,0.013523,0.002678,0.000431,0.125520
2859000,0.0324,0.013523,0.002678,0.000431,0.109654
2860000,0.0324,0.013523,0.002678,0.000431,0.053240
2861000,0.0324,0.013523,0.002678,0.000431,0.165010
2862000,0.0324,0.013523,0.002678,0.000431,0.093082
2863000,0.0324,0.013523,0.002678,0.000431,0.101544
2864000,0.0324,0.013523,0.002678,0.000431,0.113415
2865000,0.0324,0.013523,0.002678,0.000431,0.070164
2866000,0.0324,0.013523,0.002678,0.000431,0.215664
2867000,0.0324,0.013523,0.002678,0.000431,0.188633
2868000,0.0324,0.013523,0.002678,0.000431,0.205439
2869000,0.0324,0.013523,0.002678,0.000431,0.152552
2870000,0.0324,0.013523,0.002678,0.000431,0.222598
2871000,0.0324,0.013523,0.002678,0.000431,0.101662
2872000,0.0324,0.013523,0.002678,0.000431,0.102720
2873000,0.0324,0.013523,0.002678,0.000431,0.131044
2874000,0.0324,0.013523,0.002678,0.000431,0.099899
2875000,0.0324,0.013523,0.002678,0.000431,0.190983
2876000,0.0324,0.013523,0.002678,0.000431,0.155372
2877000,0.0324,0.013523,0.002678,0.000431,0.070164
2878000,0.0324,0.013523,0.002678,0.000431,0.047834
2879000,0.0324,0.013523,0.002678,0.000431,0.283360
2880000,0.0324,0.013523,0.002678,0.000431,0.207790
2881000,0.0324,0.013523,0.002678,0.000431,0.090027
2882000,0.0324,0.013523,0.002678,0.000431,0.107891
2883000,0.0324,0.013523,0.002678,0.000431,0.150319
2884000,0.0324,0.013523,0.002678,0.000431,0.139976
2885000,0.0324,0.013523,0.002678,0.000431,0.064993
2886000,0.0324,0.013523,0.002678,0.000431,0.152317
2887000,0.0324,0.013523,0.002678,0.000431,0.261148
2888000,0.0324,0.013523,0.002678,0.000431,0.179348
2889000,0.0324,0.013523,0.002678,0.000431,0.206144
2890000,0.0324,0.013523,0.002678,0.000431,0.138566
2891000,0.0324,0.013523,0.002678,0.000431,0.082622
2892000,0.0324,0.013523,0.002678,0.000431,0.181228
2893000,0.0324,0.013523,0.002678,0.000431,0.128811
2894000,0.0324,0.013523,0.002678,0.000431,0.141269
2895000,0.0324,0.013523,0.002678,0.000431,0.257622
2896000,0.0324,0.013523,0.002678,0.000431,0.091319
2897000,0.0324,0.013523,0.002678,0.000431,0.048069
2898000,0.0324,0.013523,0.002678,0.000431,0.183697
2899000,0.0324,0.013523,0.002678,0.000431,0.095198
2900000,0.0324,0.013523,0.002678,0.000431,0.200973
2901000,0.0324,0.013523,0.002678,0.000431,0.112592
2902000,0.0324,0.013523,0.002678,0.000431,0.249865
2903000,0.0324,0.013523,0.002678,0.000431,0.192276
2904000,0.0324,0.013523,0.002678,0.000431,0.082857
2905000,0.0324,0.013523,0.002678,0.000431,0.201678
2906000,0.0324,0.013523,0.002678,0.000431,0.150083
2907000,0.0324,0.013523,0.002678,0.000431,0.133747
2908000,0.0324,0.013523,0.002678,0.000431,0.061232
2909000,0.0324,0.013523,0.002678,0.000431,0.095315
2910000,0.0324,0.013523,0.002678,0.000431,0.143267
2911000,0.0324,0.013523,0.002678,0.000431,0.190043
2912000,0.0324,0.013523,0.002678,0.000431,0.089204
2913000,0.0324,0.013523,0.002678,0.000431,0.190983
2914000,0.0324,0.013523,0.002678,0.000431,0.139388
2915000,0.0324,0.013523,0.002678,0.000431,0.083563
2916000,0.0324,0.013523,0.002678,0.000431,0.274311
2917000,0.0324,0.013523,0.002678,0.000431,0.266436
2918000,0.0324,0.013523,0.002678,0.000431,0.089204
2919000,0.0324,0.013523,0.002678,0.000431,0.068636
2920000,0.0324,0.013523,0.002678,0.000431,0.155960
2921000,0.0324,0.013523,0.002678,0.000431,0.170886
2922000,0.0324,0.013523,0.002678,0.000431,0.192511
2923000,0.0324,0.013523,0.002678,0.000431,0.154197
2924000,0.0324,0.013523,0.002678,0.000431,0.176762
2925000,0.0324,0.013523,0.002678,0.000431,0.102485
2926000,0.0324,0.013523,0.002678,0.000431,0.046306
2927000,0.0324,0.013523,0.002678,0.000431,0.125520
2928000,0.0324,0.013523,0.002678,0.000431,0.212961
2929000,0.0324,0.013523,0.002678,0.000431,0.111887
2930000,0.0324,0.013523,0.002678,0.000431,0.244576
2931000,0.0324,0.013523,0.002678,0.000431,0.196037
2932000,0.0324,0.013523,0.002678,0.000431,0.087794
2933000,0.0324,0.013523,0.002678,0.000431,0.152552
2934000,0.0324,0.013523,0.002678,0.000431,0.189573
2935000,0.0324,0.013523,0.002678,0.000431,0.208613
2936000,0.0324,0.013523,0.002678,0.000431,0.179936
2937000,0.0324,0.013523,0.002678,0.000431,0.104012
2938000,0.0324,0.013523,0.002678,0.000431,0.193804
2939000,0.0324,0.013523,0.002678,0.000431,0.110712
2940000,0.0324,0.013523,0.002678,0.000431,0.133042
2941000,0.0324,0.013523,0.002678,0.000431,0.167243
2942000,0.0324,0.013523,0.002678,0.000431,0.096373
2943000,0.0324,0.013523,0.002678,0.000431,0.150201
2944000,0.0324,0.013523,0.002678,0.000431,0.217545
2945000,0.0324,0.013523,0.002678,0.000431,0.085443
2946000,0.0324,0.013523,0.002678,0.000431,0.097783
2947000,0.0324,0.013523,0.002678,0.000431,0.157605
2948000,0.0324,0.013523,0.002678,0.000431,0.238347
2949000,0.0324,0.013523,0.002678,0.000431,0.137861
2950000,0.0324,0.013523,0.002678,0.000431,0.230473
2951000,0.0324,0.013523,0.002678,0.000431,0.212373
2952000,0.0324,0.013523,0.002678,0.000431,0.187575
2953000,0.0324,0.013523,0.002678,0.000431,0.165127
2954000,0.0324,0.013523,0.002678,0.000431,0.092730
2955000,0.0324,0.013523,0.002678,0.000431,0.121524
2956000,0.0324,0.013523,0.002678,0.000431,0.220718
2957000,0.0324,0.013523,0.002678,0.000431,0.126460
2958000,0.0324,0.013523,0.002678,0.000431,0.090262
2959000,0.0324,0.013523,0.002678,0.000431,0.108714
2960000,0.0324,0.013523,0.002678,0.000431,0.123052
2961000,0.0324,0.013523,0.002678,0.000431,0.174647
2962000,0.0324,0.013523,0.002678,0.000431,0.115530
2963000,0.0324,0.013523,0.002678,0.000431,0.156077
2964000,0.0324,0.013523,0.002678,0.000431,0.089321
2965000,0.0324,0.013523,0.002678,0.000431,0.121524
2966000,0.0324,0.013523,0.002678,0.000431,0.089086
2967000,0.0324,0.013523,0.002678,0.000431,0.101427
2968000,0.0324,0.013523,0.002678,0.000431,0.046424
2969000,0.0324,0.013523,0.002678,0.000431,0.172884
2970000,0.0324,0.013523,0.002678,0.000431,0.125520
2971000,0.0324,0.013523,0.002678,0.000431,0.128458
2972000,0.0324,0.013523,0.002678,0.000431,0.209788
2973000,0.0324,0.013523,0.002678,0.000431,0.146205
2974000,0.0324,0.013523,0.002678,0.000431,0.085678
2975000,0.0324,0.013523,0.002678,0.000431,0.115413
2976000,0.0324,0.013523,0.002678,0.000431,0.098136
2977000,0.0324,0.013523,0.002678,0.000431,0.062643
2978000,0.0324,0.013523,0.002678,0.000431,0.096843
2979000,0.0324,0.013523,0.002678,0.000431,0.183697
2980000,0.0324,0.013523,0.002678,0.000431,0.127165
2981000,0.0324,0.013523,0.002678,0.000431,0.100604
2982000,0.0324,0.013523,0.002678,0.000431,0.125520
2983000,0.0324,0.013523,0.002678,0.000431,0.103660
2984000,0.0324,0.013523,0.002678,0.000431,0.078274
2985000,0.0324,0.013523,0.002678,0.000431,0.129163
2986000,0.0324,0.013523,0.002678,0.000431,0.165127
2987000,0.0324,0.013523,0.002678,0.000431,0.094610
2988000,0.0324,0.013523,0.002678,0.000431,0.096138
2989000,0.0324,0.013523,0.002678,0.000431,0.166890
2990000,0.0324,0.013523,0.002678,0.000431,0.174764
2991000,0.0324,0.013523,0.002678,0.000431,0.165362
2992000,0.0324,0.013523,0.002678,0.000431,0.261383
2993000,0.0324,0.013523,0.002678,0.000431,0.164775
2994000,0.0324,0.013523,0.002678,0.000431,0.083563
2995000,0.0324,0.013523,0.002678,0.000431,0.072632
2996000,0.0324,0.013523,0.002678,0.000431,0.100487
2997000,0.0324,0.013523,0.002678,0.000431,0.199328
2998000,0.0324,0.013523,0.002678,0.000431,0.149848
2999000,0.0324,0.013523,0.002678,0.000431,0.251980
