Cycle,Area(mm^2),PeakDynamic(W),SubthresholdLeakage(W),GateLeakage(W),RunTimeDynamic(W)
7000000,0.0324,0.013523,0.002678,0.000431,0.245869
7001000,0.0324,0.013523,0.002678,0.000431,0.425687
7002000,0.0324,0.013523,0.002678,0.000431,0.056649
7003000,0.0324,0.013523,0.002678,0.000431,0.061585
7004000,0.0324,0.013523,0.002678,0.000431,0.084268
7005000,0.0324,0.013523,0.002678,0.000431,0.054063
7006000,0.0324,0.013523,0.002678,0.000431,0.128811
7007000,0.0324,0.013523,0.002678,0.000431,0.113767
7008000,0.0324,0.013523,0.002678,0.000431,0.122582
7009000,0.0324,0.013523,0.002678,0.000431,0.038784
7010000,0.0324,0.013523,0.002678,0.000431,0.101544
7011000,0.0324,0.013523,0.002678,0.000431,0.095550
7012000,0.0324,0.013523,0.002678,0.000431,0.080272
7013000,0.0324,0.013523,0.002678,0.000431,0.075688
7014000,0.0324,0.013523,0.002678,0.000431,0.167595
7015000,0.0324,0.013523,0.002678,0.000431,0.102720
7016000,0.0324,0.013523,0.002678,0.000431,0.047481
7017000,0.0324,0.013523,0.002678,0.000431,0.071927
7018000,0.0324,0.013523,0.002678,0.000431,0.138096
7019000,0.0324,0.013523,0.002678,0.000431,0.063935
7020000,0.0324,0.013523,0.002678,0.000431,0.201796
7021000,0.0324,0.013523,0.002678,0.000431,0.103895
7022000,0.0324,0.013523,0.002678,0.000431,0.070399
7023000,0.0324,0.013523,0.002678,0.000431,0.038549
7024000,0.0324,0.013523,0.002678,0.000431,0.101897
7025000,0.0324,0.013523,0.002678,0.000431,0.145265
7026000,0.0324,0.013523,0.002678,0.000431,0.166185
7027000,0.0324,0.013523,0.002678,0.000431,0.132454
7028000,0.0324,0.013523,0.002678,0.000431,0.047364
7029000,0.0324,0.013523,0.002678,0.000431,0.084150
7030000,0.0324,0.013523,0.002678,0.000431,0.099664
7031000,0.0324,0.013523,0.002678,0.000431,0.190278
7032000,0.0324,0.013523,0.002678,0.000431,0.135980
7033000,0.0324,0.013523,0.002678,0.000431,0.191571
7034000,0.0324,0.013523,0.002678,0.000431,0.046541
7035000,0.0324,0.013523,0.002678,0.000431,0.061585
7036000,0.0324,0.013523,0.002678,0.000431,0.038549
7037000,0.0324,0.013523,0.002678,0.000431,0.136803
7038000,0.0324,0.013523,0.002678,0.000431,0.219543
7039000,0.0324,0.013523,0.002678,0.000431,0.181816
7040000,0.0324,0.013523,0.002678,0.000431,0.076746
7041000,0.0324,0.013523,0.002678,0.000431,0.080624
7042000,0.0324,0.013523,0.002678,0.000431,0.062055
7043000,0.0324,0.013523,0.002678,0.000431,0.043015
7044000,0.0324,0.013523,0.002678,0.000431,0.109419
7045000,0.0324,0.013523,0.002678,0.000431,0.095315
7046000,0.0324,0.013523,0.002678,0.000431,0.158663
7047000,0.0324,0.013523,0.002678,0.000431,0.055003
7048000,0.0324,0.013523,0.002678,0.000431,0.054886
7049000,0.0324,0.013523,0.002678,0.000431,0.056414
7050000,0.0324,0.013523,0.002678,0.000431,0.275721
7051000,0.0324,0.013523,0.002678,0.000431,0.269492
7052000,0.0324,0.013523,0.002678,0.000431,0.124580
7053000,0.0324,0.013523,0.002678,0.000431,0.046424
7054000,0.0324,0.013523,0.002678,0.000431,0.050185
7055000,0.0324,0.013523,0.002678,0.000431,0.098724
7056000,0.0324,0.013523,0.002678,0.000431,0.065111
7057000,0.0324,0.013523,0.002678,0.000431,0.102720
7058000,0.0324,0.013523,0.002678,0.000431,0.065816
7059000,0.0324,0.013523,0.002678,0.000431,0.098841
7060000,0.0324,0.013523,0.002678,0.000431,0.072750
7061000,0.0324,0.013523,0.002678,0.000431,0.077451
7062000,0.0324,0.013523,0.002678,0.000431,0.113415
7063000,0.0324,0.013523,0.002678,0.000431,0.235526
7064000,0.0324,0.013523,0.002678,0.000431,0.194744
7065000,0.0324,0.013523,0.002678,0.000431,0.042898
7066000,0.0324,0.013523,0.002678,0.000431,0.057001
7067000,0.0324,0.013523,0.002678,0.000431,0.134100
7068000,0.0324,0.013523,0.002678,0.000431,0.100369
7069000,0.0324,0.013523,0.002678,0.000431,0.121994
7070000,0.0324,0.013523,0.002678,0.000431,0.115530
7071000,0.0324,0.013523,0.002678,0.000431,0.132689
7072000,0.0324,0.013523,0.002678,0.000431,0.051125
7073000,0.0324,0.013523,0.002678,0.000431,0.068872
7074000,0.0324,0.013523,0.002678,0.000431,0.058764
7075000,0.0324,0.013523,0.002678,0.000431,0.110712
7076000,0.0324,0.013523,0.002678,0.000431,0.151964
7077000,0.0324,0.013523,0.002678,0.000431,0.177350
7078000,0.0324,0.013523,0.002678,0.000431,0.161836
7079000,0.0324,0.013523,0.002678,0.000431,0.088029
7080000,0.0324,0.013523,0.002678,0.000431,0.102837
7081000,0.0324,0.013523,0.002678,0.000431,0.069342
7082000,0.0324,0.013523,0.002678,0.000431,0.165010
7083000,0.0324,0.013523,0.002678,0.000431,0.134805
7084000,0.0324,0.013523,0.002678,0.000431,0.080389
7085000,0.0324,0.013523,0.002678,0.000431,0.125403
7086000,0.0324,0.013523,0.002678,0.000431,0.042780
7087000,0.0324,0.013523,0.002678,0.000431,0.105423
7088000,0.0324,0.013523,0.002678,0.000431,0.119056
7089000,0.0324,0.013523,0.002678,0.000431,0.061585
7090000,0.0324,0.013523,0.002678,0.000431,0.098959
7091000,0.0324,0.013523,0.002678,0.000431,0.061350
7092000,0.0324,0.013523,0.002678,0.000431,0.046306
7093000,0.0324,0.013523,0.002678,0.000431,0.109536
7094000,0.0324,0.013523,0.002678,0.000431,0.231178
7095000,0.0324,0.013523,0.002678,0.000431,0.140094
7096000,0.0324,0.013523,0.002678,0.000431,0.127753
7097000,0.0324,0.013523,0.002678,0.000431,0.080154
7098000,0.0324,0.013523,0.002678,0.000431,0.072632
7099000,0.0324,0.013523,0.002678,0.000431,0.065111
7100000,0.0324,0.013523,0.002678,0.000431,0.034788
7101000,0.0324,0.013523,0.002678,0.000431,0.080389
7102000,0.0324,0.013523,0.002678,0.000431,0.198153
7103000,0.0324,0.013523,0.002678,0.000431,0.146323
7104000,0.0324,0.013523,0.002678,0.000431,0.106245
7105000,0.0324,0.013523,0.002678,0.000431,0.035141
7106000,0.0324,0.013523,0.002678,0.000431,0.036551
7107000,0.0324,0.013523,0.002678,0.000431,0.119996
7108000,0.0324,0.013523,0.002678,0.000431,0.261148
7109000,0.0324,0.013523,0.002678,0.000431,0.121642
7110000,0.0324,0.013523,0.002678,0.000431,0.178290
7111000,0.0324,0.013523,0.002678,0.000431,0.103895
7112000,0.0324,0.013523,0.002678,0.000431,0.124110
7113000,0.0324,0.013523,0.002678,0.000431,0.043015
7114000,0.0324,0.013523,0.002678,0.000431,0.119644
7115000,0.0324,0.013523,0.002678,0.000431,0.117176
7116000,0.0324,0.013523,0.002678,0.000431,0.169946
7117000,0.0324,0.013523,0.002678,0.000431,0.071810
7118000,0.0324,0.013523,0.002678,0.000431,0.053475
7119000,0.0324,0.013523,0.002678,0.000431,0.058882
7120000,0.0324,0.013523,0.002678,0.000431,0.109066
7121000,0.0324,0.013523,0.002678,0.000431,0.188633
7122000,0.0324,0.013523,0.002678,0.000431,0.146205
7123000,0.0324,0.013523,0.002678,0.000431,0.121407
7124000,0.0324,0.013523,0.002678,0.000431,0.086736
7125000,0.0324,0.013523,0.002678,0.000431,0.058764
7126000,0.0324,0.013523,0.002678,0.000431,0.054298
7127000,0.0324,0.013523,0.002678,0.000431,0.097548
7128000,0.0324,0.013523,0.002678,0.000431,0.261383
7129000,0.0324,0.013523,0.002678,0.000431,0.130456
7130000,0.0324,0.013523,0.002678,0.000431,0.099076
7131000,0.0324,0.013523,0.002678,0.000431,0.042193
7132000,0.0324,0.013523,0.002678,0.000431,0.038784
7133000,0.0324,0.013523,0.002678,0.000431,0.144207
7134000,0.0324,0.013523,0.002678,0.000431,0.229415
7135000,0.0324,0.013523,0.002678,0.000431,0.119996
7136000,0.0324,0.013523,0.002678,0.000431,0.095550
7137000,0.0324,0.013523,0.002678,0.000431,0.034906
7138000,0.0324,0.013523,0.002678,0.000431,0.035258
7139000,0.0324,0.013523,0.002678,0.000431,0.035258
7140000,0.0324,0.013523,0.002678,0.000431,0.278072
7141000,0.0324,0.013523,0.002678,0.000431,0.210728
7142000,0.0324,0.013523,0.002678,0.000431,0.083445
7143000,0.0324,0.013523,0.002678,0.000431,0.042428
7144000,0.0324,0.013523,0.002678,0.000431,0.053828
7145000,0.0324,0.013523,0.002678,0.000431,0.082857
7146000,0.0324,0.013523,0.002678,0.000431,0.074043
7147000,0.0324,0.013523,0.002678,0.000431,0.228710
7148000,0.0324,0.013523,0.002678,0.000431,0.158193
7149000,0.0324,0.013523,0.002678,0.000431,0.110712
7150000,0.0324,0.013523,0.002678,0.000431,0.087558
7151000,0.0324,0.013523,0.002678,0.000431,0.042780
7152000,0.0324,0.013523,0.002678,0.000431,0.042780
7153000,0.0324,0.013523,0.002678,0.000431,0.137273
7154000,0.0324,0.013523,0.002678,0.000431,0.120466
7155000,0.0324,0.013523,0.002678,0.000431,0.171709
7156000,0.0324,0.013523,0.002678,0.000431,0.248102
7157000,0.0324,0.013523,0.002678,0.000431,0.115060
7158000,0.0324,0.013523,0.002678,0.000431,0.053710
7159000,0.0324,0.013523,0.002678,0.000431,0.181464
7160000,0.0324,0.013523,0.002678,0.000431,0.230943
7161000,0.0324,0.013523,0.002678,0.000431,0.178055
7162000,0.0324,0.013523,0.002678,0.000431,0.039372
7163000,0.0324,0.013523,0.002678,0.000431,0.301812
7164000,0.0324,0.013523,0.002678,0.000431,0.124932
7165000,0.0324,0.013523,0.002678,0.000431,0.175587
7166000,0.0324,0.013523,0.002678,0.000431,0.253038
7167000,0.0324,0.013523,0.002678,0.000431,0.147850
7168000,0.0324,0.013523,0.002678,0.000431,0.122229
7169000,0.0324,0.013523,0.002678,0.000431,0.080624
7170000,0.0324,0.013523,0.002678,0.000431,0.102837
7171000,0.0324,0.013523,0.002678,0.000431,0.035023
7172000,0.0324,0.013523,0.002678,0.000431,0.091907
7173000,0.0324,0.013523,0.002678,0.000431,0.090379
7174000,0.0324,0.013523,0.002678,0.000431,0.186400
7175000,0.0324,0.013523,0.002678,0.000431,0.084385
7176000,0.0324,0.013523,0.002678,0.000431,0.106363
7177000,0.0324,0.013523,0.002678,0.000431,0.037374
7178000,0.0324,0.013523,0.002678,0.000431,0.155255
7179000,0.0324,0.013523,0.002678,0.000431,0.146323
7180000,0.0324,0.013523,0.002678,0.000431,0.162071
7181000,0.0324,0.013523,0.002678,0.000431,0.172296
7182000,0.0324,0.013523,0.002678,0.000431,0.050185
7183000,0.0324,0.013523,0.002678,0.000431,0.035141
7184000,0.0324,0.013523,0.002678,0.000431,0.050302
7185000,0.0324,0.013523,0.002678,0.000431,0.260913
7186000,0.0324,0.013523,0.002678,0.000431,0.170533
7187000,0.0324,0.013523,0.002678,0.000431,0.300285
7188000,0.0324,0.013523,0.002678,0.000431,0.067226
7189000,0.0324,0.013523,0.002678,0.000431,0.053945
7190000,0.0324,0.013523,0.002678,0.000431,0.048422
7191000,0.0324,0.013523,0.002678,0.000431,0.137038
7192000,0.0324,0.013523,0.002678,0.000431,0.138918
7193000,0.0324,0.013523,0.002678,0.000431,0.144912
7194000,0.0324,0.013523,0.002678,0.000431,0.076393
7195000,0.0324,0.013523,0.002678,0.000431,0.057824
7196000,0.0324,0.013523,0.002678,0.000431,0.035023
7197000,0.0324,0.013523,0.002678,0.000431,0.077451
7198000,0.0324,0.013523,0.002678,0.000431,0.120466
7199000,0.0324,0.013523,0.002678,0.000431,0.192981
7200000,0.0324,0.013523,0.002678,0.000431,0.198858
7201000,0.0324,0.013523,0.002678,0.000431,0.068754
7202000,0.0324,0.013523,0.002678,0.000431,0.078744
7203000,0.0324,0.013523,0.002678,0.000431,0.060880
7204000,0.0324,0.013523,0.002678,0.000431,0.211433
7205000,0.0324,0.013523,0.002678,0.000431,0.207672
7206000,0.0324,0.013523,0.002678,0.000431,0.090262
7207000,0.0324,0.013523,0.002678,0.000431,0.046424
7208000,0.0324,0.013523,0.002678,0.000431,0.072632
7209000,0.0324,0.013523,0.002678,0.000431,0.046541
7210000,0.0324,0.013523,0.002678,0.000431,0.103425
7211000,0.0324,0.013523,0.002678,0.000431,0.236114
7212000,0.0324,0.013523,0.002678,0.000431,0.179466
7213000,0.0324,0.013523,0.002678,0.000431,0.140681
7214000,0.0324,0.013523,0.002678,0.000431,0.042428
7215000,0.0324,0.013523,0.002678,0.000431,0.080272
7216000,0.0324,0.013523,0.002678,0.000431,0.053945
7217000,0.0324,0.013523,0.002678,0.000431,0.260442
7218000,0.0324,0.013523,0.002678,0.000431,0.151846
7219000,0.0324,0.013523,0.002678,0.000431,0.084268
7220000,0.0324,0.013523,0.002678,0.000431,0.091672
7221000,0.0324,0.013523,0.002678,0.000431,0.123522
7222000,0.0324,0.013523,0.002678,0.000431,0.068049
7223000,0.0324,0.013523,0.002678,0.000431,0.096138
7224000,0.0324,0.013523,0.002678,0.000431,0.136215
7225000,0.0324,0.013523,0.002678,0.000431,0.103425
7226000,0.0324,0.013523,0.002678,0.000431,0.189455
7227000,0.0324,0.013523,0.002678,0.000431,0.095315
7228000,0.0324,0.013523,0.002678,0.000431,0.035141
7229000,0.0324,0.013523,0.002678,0.000431,0.148086
7230000,0.0324,0.013523,0.002678,0.000431,0.135275
7231000,0.0324,0.013523,0.002678,0.000431,0.256682
7232000,0.0324,0.013523,0.002678,0.000431,0.082857
7233000,0.0324,0.013523,0.002678,0.000431,0.107891
7234000,0.0324,0.013523,0.002678,0.000431,0.116000
7235000,0.0324,0.013523,0.002678,0.000431,0.046424
7236000,0.0324,0.013523,0.002678,0.000431,0.058529
7237000,0.0324,0.013523,0.002678,0.000431,0.129986
7238000,0.0324,0.013523,0.002678,0.000431,0.198858
7239000,0.0324,0.013523,0.002678,0.000431,0.133042
7240000,0.0324,0.013523,0.002678,0.000431,0.091437
7241000,0.0324,0.013523,0.002678,0.000431,0.042428
7242000,0.0324,0.013523,0.002678,0.000431,0.140681
7243000,0.0324,0.013523,0.002678,0.000431,0.141857
7244000,0.0324,0.013523,0.002678,0.000431,0.304516
7245000,0.0324,0.013523,0.002678,0.000431,0.169828
7246000,0.0324,0.013523,0.002678,0.000431,0.190278
7247000,0.0324,0.013523,0.002678,0.000431,0.230825
7248000,0.0324,0.013523,0.002678,0.000431,0.071457
7249000,0.0324,0.013523,0.002678,0.000431,0.308276
7250000,0.0324,0.013523,0.002678,0.000431,0.233058
7251000,0.0324,0.013523,0.002678,0.000431,0.249630
7252000,0.0324,0.013523,0.002678,0.000431,0.151964
7253000,0.0324,0.013523,0.002678,0.000431,0.088969
7254000,0.0324,0.013523,0.002678,0.000431,0.121524
7255000,0.0324,0.013523,0.002678,0.000431,0.050302
7256000,0.0324,0.013523,0.002678,0.000431,0.236937
7257000,0.0324,0.013523,0.002678,0.000431,0.277602
7258000,0.0324,0.013523,0.002678,0.000431,0.201678
7259000,0.0324,0.013523,0.002678,0.000431,0.069342
7260000,0.0324,0.013523,0.002678,0.000431,0.042780
7261000,0.0324,0.013523,0.002678,0.000431,0.100252
7262000,0.0324,0.013523,0.002678,0.000431,0.220013
7263000,0.0324,0.013523,0.002678,0.000431,0.187105
7264000,0.0324,0.013523,0.002678,0.000431,0.155960
7265000,0.0324,0.013523,0.002678,0.000431,0.178525
7266000,0.0324,0.013523,0.002678,0.000431,0.144207
7267000,0.0324,0.013523,0.002678,0.000431,0.035141
7268000,0.0324,0.013523,0.002678,0.000431,0.228827
7269000,0.0324,0.013523,0.002678,0.000431,0.208965
7270000,0.0324,0.013523,0.002678,0.000431,0.207320
7271000,0.0324,0.013523,0.002678,0.000431,0.176292
7272000,0.0324,0.013523,0.002678,0.000431,0.182286
7273000,0.0324,0.013523,0.002678,0.000431,0.065698
7274000,0.0324,0.013523,0.002678,0.000431,0.072632
7275000,0.0324,0.013523,0.002678,0.000431,0.108831
7276000,0.0324,0.013523,0.002678,0.000431,0.328374
7277000,0.0324,0.013523,0.002678,0.000431,0.134922
7278000,0.0324,0.013523,0.002678,0.000431,0.081330
7279000,0.0324,0.013523,0.002678,0.000431,0.050302
7280000,0.0324,0.013523,0.002678,0.000431,0.110947
7281000,0.0324,0.013523,0.002678,0.000431,0.197565
7282000,0.0324,0.013523,0.002678,0.000431,0.144090
7283000,0.0324,0.013523,0.002678,0.000431,0.143149
7284000,0.0324,0.013523,0.002678,0.000431,0.196625
7285000,0.0324,0.013523,0.002678,0.000431,0.080389
7286000,0.0324,0.013523,0.002678,0.000431,0.080389
7287000,0.0324,0.013523,0.002678,0.000431,0.121877
7288000,0.0324,0.013523,0.002678,0.000431,0.167125
7289000,0.0324,0.013523,0.002678,0.000431,0.210140
7290000,0.0324,0.013523,0.002678,0.000431,0.101897
7291000,0.0324,0.013523,0.002678,0.000431,0.089439
7292000,0.0324,0.013523,0.002678,0.000431,0.111299
7293000,0.0324,0.013523,0.002678,0.000431,0.129751
7294000,0.0324,0.013523,0.002678,0.000431,0.308982
7295000,0.0324,0.013523,0.002678,0.000431,0.115648
7296000,0.0324,0.013523,0.002678,0.000431,0.278072
7297000,0.0324,0.013523,0.002678,0.000431,0.070164
7298000,0.0324,0.013523,0.002678,0.000431,0.094140
7299000,0.0324,0.013523,0.002678,0.000431,0.058412
7300000,0.0324,0.013523,0.002678,0.000431,0.095903
7301000,0.0324,0.013523,0.002678,0.000431,0.208142
7302000,0.0324,0.013523,0.002678,0.000431,0.108243
7303000,0.0324,0.013523,0.002678,0.000431,0.100957
7304000,0.0324,0.013523,0.002678,0.000431,0.053593
7305000,0.0324,0.013523,0.002678,0.000431,0.034788
7306000,0.0324,0.013523,0.002678,0.000431,0.067344
7307000,0.0324,0.013523,0.002678,0.000431,0.401476
7308000,0.0324,0.013523,0.002678,0.000431,0.103190
7309000,0.0324,0.013523,0.002678,0.000431,0.102837
7310000,0.0324,0.013523,0.002678,0.000431,0.072985
7311000,0.0324,0.013523,0.002678,0.000431,0.087441
7312000,0.0324,0.013523,0.002678,0.000431,0.042545
7313000,0.0324,0.013523,0.002678,0.000431,0.117176
7314000,0.0324,0.013523,0.002678,0.000431,0.246457
7315000,0.0324,0.013523,0.002678,0.000431,0.315563
7316000,0.0324,0.013523,0.002678,0.000431,0.154197
7317000,0.0324,0.013523,0.002678,0.000431,0.090262
7318000,0.0324,0.013523,0.002678,0.000431,0.039842
7319000,0.0324,0.013523,0.002678,0.000431,0.056884
7320000,0.0324,0.013523,0.002678,0.000431,0.252098
7321000,0.0324,0.013523,0.002678,0.000431,0.234351
7322000,0.0324,0.013523,0.002678,0.000431,0.200268
7323000,0.0324,0.013523,0.002678,0.000431,0.124345
7324000,0.0324,0.013523,0.002678,0.000431,0.132219
7325000,0.0324,0.013523,0.002678,0.000431,0.092260
7326000,0.0324,0.013523,0.002678,0.000431,0.138096
7327000,0.0324,0.013523,0.002678,0.000431,0.216604
7328000,0.0324,0.013523,0.002678,0.000431,0.191336
7329000,0.0324,0.013523,0.002678,0.000431,0.057706
7330000,0.0324,0.013523,0.002678,0.000431,0.061585
7331000,0.0324,0.013523,0.002678,0.000431,0.054063
7332000,0.0324,0.013523,0.002678,0.000431,0.057236
7333000,0.0324,0.013523,0.002678,0.000431,0.270432
7334000,0.0324,0.013523,0.002678,0.000431,0.194274
7335000,0.0324,0.013523,0.002678,0.000431,0.172061
7336000,0.0324,0.013523,0.002678,0.000431,0.222951
7337000,0.0324,0.013523,0.002678,0.000431,0.103190
7338000,0.0324,0.013523,0.002678,0.000431,0.102367
7339000,0.0324,0.013523,0.002678,0.000431,0.174177
7340000,0.0324,0.013523,0.002678,0.000431,0.132337
7341000,0.0324,0.013523,0.002678,0.000431,0.105305
7342000,0.0324,0.013523,0.002678,0.000431,0.184402
7343000,0.0324,0.013523,0.002678,0.000431,0.182051
7344000,0.0324,0.013523,0.002678,0.000431,0.173001
7345000,0.0324,0.013523,0.002678,0.000431,0.101779
7346000,0.0324,0.013523,0.002678,0.000431,0.349764
7347000,0.0324,0.013523,0.002678,0.000431,0.241520
7348000,0.0324,0.013523,0.002678,0.000431,0.132219
7349000,0.0324,0.013523,0.002678,0.000431,0.141504
7350000,0.0324,0.013523,0.002678,0.000431,0.072632
7351000,0.0324,0.013523,0.002678,0.000431,0.034906
7352000,0.0324,0.013523,0.002678,0.000431,0.202031
7353000,0.0324,0.013523,0.002678,0.000431,0.221893
7354000,0.0324,0.013523,0.002678,0.000431,0.141034
7355000,0.0324,0.013523,0.002678,0.000431,0.291000
7356000,0.0324,0.013523,0.002678,0.000431,0.145852
7357000,0.0324,0.013523,0.002678,0.000431,0.158428
7358000,0.0324,0.013523,0.002678,0.000431,0.187222
7359000,0.0324,0.013523,0.002678,0.000431,0.342125
7360000,0.0324,0.013523,0.002678,0.000431,0.130221
7361000,0.0324,0.013523,0.002678,0.000431,0.080624
7362000,0.0324,0.013523,0.002678,0.000431,0.168300
7363000,0.0324,0.013523,0.002678,0.000431,0.146440
7364000,0.0324,0.013523,0.002678,0.000431,0.117528
7365000,0.0324,0.013523,0.002678,0.000431,0.161131
7366000,0.0324,0.013523,0.002678,0.000431,0.218837
7367000,0.0324,0.013523,0.002678,0.000431,0.213431
7368000,0.0324,0.013523,0.002678,0.000431,0.147380
7369000,0.0324,0.013523,0.002678,0.000431,0.050302
7370000,0.0324,0.013523,0.002678,0.000431,0.110712
7371000,0.0324,0.013523,0.002678,0.000431,0.127753
7372000,0.0324,0.013523,0.002678,0.000431,0.260678
7373000,0.0324,0.013523,0.002678,0.000431,0.136215
7374000,0.0324,0.013523,0.002678,0.000431,0.292645
7375000,0.0324,0.013523,0.002678,0.000431,0.100722
7376000,0.0324,0.013523,0.002678,0.000431,0.081682
7377000,0.0324,0.013523,0.002678,0.000431,0.337776
7378000,0.0324,0.013523,0.002678,0.000431,0.293820
7379000,0.0324,0.013523,0.002678,0.000431,0.098371
7380000,0.0324,0.013523,0.002678,0.000431,0.072397
7381000,0.0324,0.013523,0.002678,0.000431,0.068284
7382000,0.0324,0.013523,0.002678,0.000431,0.115530
7383000,0.0324,0.013523,0.002678,0.000431,0.305691
7384000,0.0324,0.013523,0.002678,0.000431,0.136215
7385000,0.0324,0.013523,0.002678,0.000431,0.203794
7386000,0.0324,0.013523,0.002678,0.000431,0.175587
7387000,0.0324,0.013523,0.002678,0.000431,0.170181
7388000,0.0324,0.013523,0.002678,0.000431,0.106598
7389000,0.0324,0.013523,0.002678,0.000431,0.132689
7390000,0.0324,0.013523,0.002678,0.000431,0.047951
7391000,0.0324,0.013523,0.002678,0.000431,0.321910
7392000,0.0324,0.013523,0.002678,0.000431,0.309922
7393000,0.0324,0.013523,0.002678,0.000431,0.172061
7394000,0.0324,0.013523,0.002678,0.000431,0.050537
7395000,0.0324,0.013523,0.002678,0.000431,0.144442
7396000,0.0324,0.013523,0.002678,0.000431,0.291235
7397000,0.0324,0.013523,0.002678,0.000431,0.151376
7398000,0.0324,0.013523,0.002678,0.000431,0.173354
7399000,0.0324,0.013523,0.002678,0.000431,0.178878
7400000,0.0324,0.013523,0.002678,0.000431,0.061937
7401000,0.0324,0.013523,0.002678,0.000431,0.146675
7402000,0.0324,0.013523,0.002678,0.000431,0.202619
7403000,0.0324,0.013523,0.002678,0.000431,0.107303
7404000,0.0324,0.013523,0.002678,0.000431,0.185930
7405000,0.0324,0.013523,0.002678,0.000431,0.076628
7406000,0.0324,0.013523,0.002678,0.000431,0.097313
7407000,0.0324,0.013523,0.002678,0.000431,0.206144
7408000,0.0324,0.013523,0.002678,0.000431,0.142209
7409000,0.0324,0.013523,0.002678,0.000431,0.141269
7410000,0.0324,0.013523,0.002678,0.000431,0.277602
7411000,0.0324,0.013523,0.002678,0.000431,0.204969
7412000,0.0324,0.013523,0.002678,0.000431,0.142562
7413000,0.0324,0.013523,0.002678,0.000431,0.246692
7414000,0.0324,0.013523,0.002678,0.000431,0.078274
7415000,0.0324,0.013523,0.002678,0.000431,0.252803
7416000,0.0324,0.013523,0.002678,0.000431,0.067814
7417000,0.0324,0.013523,0.002678,0.000431,0.281010
7418000,0.0324,0.013523,0.002678,0.000431,0.169593
7419000,0.0324,0.013523,0.002678,0.000431,0.178055
7420000,0.0324,0.013523,0.002678,0.000431,0.097431
7421000,0.0324,0.013523,0.002678,0.000431,0.161014
7422000,0.0324,0.013523,0.002678,0.000431,0.155490
7423000,0.0324,0.013523,0.002678,0.000431,0.167008
7424000,0.0324,0.013523,0.002678,0.000431,0.284418
7425000,0.0324,0.013523,0.002678,0.000431,0.222128
7426000,0.0324,0.013523,0.002678,0.000431,0.164539
7427000,0.0324,0.013523,0.002678,0.000431,0.192864
7428000,0.0324,0.013523,0.002678,0.000431,0.163247
7429000,0.0324,0.013523,0.002678,0.000431,0.122582
7430000,0.0324,0.013523,0.002678,0.000431,0.106716
7431000,0.0324,0.013523,0.002678,0.000431,0.053593
7432000,0.0324,0.013523,0.002678,0.000431,0.211903
7433000,0.0324,0.013523,0.002678,0.000431,0.144912
7434000,0.0324,0.013523,0.002678,0.000431,0.170063
7435000,0.0324,0.013523,0.002678,0.000431,0.088029
7436000,0.0324,0.013523,0.002678,0.000431,0.201443
7437000,0.0324,0.013523,0.002678,0.000431,0.317209
7438000,0.0324,0.013523,0.002678,0.000431,0.216017
7439000,0.0324,0.013523,0.002678,0.000431,0.098489
7440000,0.0324,0.013523,0.002678,0.000431,0.245399
7441000,0.0324,0.013523,0.002678,0.000431,0.097548
7442000,0.0324,0.013523,0.002678,0.000431,0.195919
7443000,0.0324,0.013523,0.002678,0.000431,0.393132
7444000,0.0324,0.013523,0.002678,0.000431,0.114355
7445000,0.0324,0.013523,0.002678,0.000431,0.237289
7446000,0.0324,0.013523,0.002678,0.000431,0.173001
7447000,0.0324,0.013523,0.002678,0.000431,0.090262
7448000,0.0324,0.013523,0.002678,0.000431,0.135275
7449000,0.0324,0.013523,0.002678,0.000431,0.095080
7450000,0.0324,0.013523,0.002678,0.000431,0.470818
7451000,0.0324,0.013523,0.002678,0.000431,0.389018
7452000,0.0324,0.013523,0.002678,0.000431,0.159838
7453000,0.0324,0.013523,0.002678,0.000431,0.246457
7454000,0.0324,0.013523,0.002678,0.000431,0.204382
7455000,0.0324,0.013523,0.002678,0.000431,0.130456
7456000,0.0324,0.013523,0.002678,0.000431,0.166420
7457000,0.0324,0.013523,0.002678,0.000431,0.075101
7458000,0.0324,0.013523,0.002678,0.000431,0.235174
7459000,0.0324,0.013523,0.002678,0.000431,0.342360
7460000,0.0324,0.013523,0.002678,0.000431,0.151024
7461000,0.0324,0.013523,0.002678,0.000431,0.099546
7462000,0.0324,0.013523,0.002678,0.000431,0.149966
7463000,0.0324,0.013523,0.002678,0.000431,0.329549
7464000,0.0324,0.013523,0.002678,0.000431,0.130339
7465000,0.0324,0.013523,0.002678,0.000431,0.077334
7466000,0.0324,0.013523,0.002678,0.000431,0.309804
7467000,0.0324,0.013523,0.002678,0.000431,0.133159
7468000,0.0324,0.013523,0.002678,0.000431,0.061467
7469000,0.0324,0.013523,0.002678,0.000431,0.098959
7470000,0.0324,0.013523,0.002678,0.000431,0.121407
7471000,0.0324,0.013523,0.002678,0.000431,0.136098
7472000,0.0324,0.013523,0.002678,0.000431,0.284771
7473000,0.0324,0.013523,0.002678,0.000431,0.204734
7474000,0.0324,0.013523,0.002678,0.000431,0.226594
7475000,0.0324,0.013523,0.002678,0.000431,0.035023
7476000,0.0324,0.013523,0.002678,0.000431,0.095198
7477000,0.0324,0.013523,0.002678,0.000431,0.110476
7478000,0.0324,0.013523,0.002678,0.000431,0.181934
7479000,0.0324,0.013523,0.002678,0.000431,0.320382
7480000,0.0324,0.013523,0.002678,0.000431,0.159721
7481000,0.0324,0.013523,0.002678,0.000431,0.193334
7482000,0.0324,0.013523,0.002678,0.000431,0.124227
7483000,0.0324,0.013523,0.002678,0.000431,0.100957
7484000,0.0324,0.013523,0.002678,0.000431,0.080154
7485000,0.0324,0.013523,0.002678,0.000431,0.235409
7486000,0.0324,0.013523,0.002678,0.000431,0.088029
7487000,0.0324,0.013523,0.002678,0.000431,0.208142
7488000,0.0324,0.013523,0.002678,0.000431,0.224596
7489000,0.0324,0.013523,0.002678,0.000431,0.183579
7490000,0.0324,0.013523,0.002678,0.000431,0.152081
7491000,0.0324,0.013523,0.002678,0.000431,0.143972
7492000,0.0324,0.013523,0.002678,0.000431,0.057706
7493000,0.0324,0.013523,0.002678,0.000431,0.088969
7494000,0.0324,0.013523,0.002678,0.000431,0.231060
7495000,0.0324,0.013523,0.002678,0.000431,0.178525
7496000,0.0324,0.013523,0.002678,0.000431,0.146558
7497000,0.0324,0.013523,0.002678,0.000431,0.083327
7498000,0.0324,0.013523,0.002678,0.000431,0.208848
7499000,0.0324,0.013523,0.002678,0.000431,0.286769
7500000,0.0324,0.013523,0.002678,0.000431,0.274898
7501000,0.0324,0.013523,0.002678,0.000431,0.152317
7502000,0.0324,0.013523,0.002678,0.000431,0.181346
7503000,0.0324,0.013523,0.002678,0.000431,0.082857
7504000,0.0324,0.013523,0.002678,0.000431,0.106245
7505000,0.0324,0.013523,0.002678,0.000431,0.175352
7506000,0.0324,0.013523,0.002678,0.000431,0.123052
7507000,0.0324,0.013523,0.002678,0.000431,0.327316
7508000,0.0324,0.013523,0.002678,0.000431,0.146205
7509000,0.0324,0.013523,0.002678,0.000431,0.063230
7510000,0.0324,0.013523,0.002678,0.000431,0.129399
7511000,0.0324,0.013523,0.002678,0.000431,0.125285
7512000,0.0324,0.013523,0.002678,0.000431,0.089909
7513000,0.0324,0.013523,0.002678,0.000431,0.187810
7514000,0.0324,0.013523,0.002678,0.000431,0.156077
7515000,0.0324,0.013523,0.002678,0.000431,0.098959
7516000,0.0324,0.013523,0.002678,0.000431,0.148556
7517000,0.0324,0.013523,0.002678,0.000431,0.186870
7518000,0.0324,0.013523,0.002678,0.000431,0.121642
7519000,0.0324,0.013523,0.002678,0.000431,0.112004
7520000,0.0324,0.013523,0.002678,0.000431,0.112710
7521000,0.0324,0.013523,0.002678,0.000431,0.112239
7522000,0.0324,0.013523,0.002678,0.000431,0.050302
7523000,0.0324,0.013523,0.002678,0.000431,0.088264
7524000,0.0324,0.013523,0.002678,0.000431,0.215429
7525000,0.0324,0.013523,0.002678,0.000431,0.299697
7526000,0.0324,0.013523,0.002678,0.000431,0.116000
7527000,0.0324,0.013523,0.002678,0.000431,0.362104
7528000,0.0324,0.013523,0.002678,0.000431,0.176292
7529000,0.0324,0.013523,0.002678,0.000431,0.111652
7530000,0.0324,0.013523,0.002678,0.000431,0.218367
7531000,0.0324,0.013523,0.002678,0.000431,0.146558
7532000,0.0324,0.013523,0.002678,0.000431,0.213314
7533000,0.0324,0.013523,0.002678,0.000431,0.328726
7534000,0.0324,0.013523,0.002678,0.000431,0.317209
7535000,0.0324,0.013523,0.002678,0.000431,0.057941
7536000,0.0324,0.013523,0.002678,0.000431,0.118116
7537000,0.0324,0.013523,0.002678,0.000431,0.173824
7538000,0.0324,0.013523,0.002678,0.000431,0.246927
7539000,0.0324,0.013523,0.002678,0.000431,0.099664
7540000,0.0324,0.013523,0.002678,0.000431,0.168888
7541000,0.0324,0.013523,0.002678,0.000431,0.165127
7542000,0.0324,0.013523,0.002678,0.000431,0.108008
7543000,0.0324,0.013523,0.002678,0.000431,0.295348
7544000,0.0324,0.013523,0.002678,0.000431,0.076511
7545000,0.0324,0.013523,0.002678,0.000431,0.177468
7546000,0.0324,0.013523,0.002678,0.000431,0.119644
7547000,0.0324,0.013523,0.002678,0.000431,0.231531
7548000,0.0324,0.013523,0.002678,0.000431,0.244694
7549000,0.0324,0.013523,0.002678,0.000431,0.173472
7550000,0.0324,0.013523,0.002678,0.000431,0.361047
7551000,0.0324,0.013523,0.002678,0.000431,0.237760
7552000,0.0324,0.013523,0.002678,0.000431,0.139388
7553000,0.0324,0.013523,0.002678,0.000431,0.295231
7554000,0.0324,0.013523,0.002678,0.000431,0.308394
7555000,0.0324,0.013523,0.002678,0.000431,0.058059
7556000,0.0324,0.013523,0.002678,0.000431,0.225419
7557000,0.0324,0.013523,0.002678,0.000431,0.258797
7558000,0.0324,0.013523,0.002678,0.000431,0.188398
7559000,0.0324,0.013523,0.002678,0.000431,0.133747
7560000,0.0324,0.013523,0.002678,0.000431,0.133159
7561000,0.0324,0.013523,0.002678,0.000431,0.060174
7562000,0.0324,0.013523,0.002678,0.000431,0.183109
7563000,0.0324,0.013523,0.002678,0.000431,0.160779
7564000,0.0324,0.013523,0.002678,0.000431,0.165832
7565000,0.0324,0.013523,0.002678,0.000431,0.149026
7566000,0.0324,0.013523,0.002678,0.000431,0.084503
7567000,0.0324,0.013523,0.002678,0.000431,0.115178
7568000,0.0324,0.013523,0.002678,0.000431,0.145500
7569000,0.0324,0.013523,0.002678,0.000431,0.434032
7570000,0.0324,0.013523,0.002678,0.000431,0.131632
7571000,0.0324,0.013523,0.002678,0.000431,0.235526
7572000,0.0324,0.013523,0.002678,0.000431,0.097901
7573000,0.0324,0.013523,0.002678,0.000431,0.035258
7574000,0.0324,0.013523,0.002678,0.000431,0.072045
7575000,0.0324,0.013523,0.002678,0.000431,0.111064
7576000,0.0324,0.013523,0.002678,0.000431,0.187105
7577000,0.0324,0.013523,0.002678,0.000431,0.147380
7578000,0.0324,0.013523,0.002678,0.000431,0.215312
7579000,0.0324,0.013523,0.002678,0.000431,0.135980
7580000,0.0324,0.013523,0.002678,0.000431,0.189690
7581000,0.0324,0.013523,0.002678,0.000431,0.070634
7582000,0.0324,0.013523,0.002678,0.000431,0.184754
7583000,0.0324,0.013523,0.002678,0.000431,0.159721
7584000,0.0324,0.013523,0.002678,0.000431,0.102955
7585000,0.0324,0.013523,0.002678,0.000431,0.076511
7586000,0.0324,0.013523,0.002678,0.000431,0.268082
7587000,0.0324,0.013523,0.002678,0.000431,0.114120
7588000,0.0324,0.013523,0.002678,0.000431,0.095315
7589000,0.0324,0.013523,0.002678,0.000431,0.228710
7590000,0.0324,0.013523,0.002678,0.000431,0.094258
7591000,0.0324,0.013523,0.002678,0.000431,0.187457
7592000,0.0324,0.013523,0.002678,0.000431,0.126108
7593000,0.0324,0.013523,0.002678,0.000431,0.064523
7594000,0.0324,0.013523,0.002678,0.000431,0.140799
7595000,0.0324,0.013523,0.002678,0.000431,0.084150
7596000,0.0324,0.013523,0.002678,0.000431,0.186517
7597000,0.0324,0.013523,0.002678,0.000431,0.173237
7598000,0.0324,0.013523,0.002678,0.000431,0.117881
7599000,0.0324,0.013523,0.002678,0.000431,0.155725
7600000,0.0324,0.013523,0.002678,0.000431,0.095315
7601000,0.0324,0.013523,0.002678,0.000431,0.192864
7602000,0.0324,0.013523,0.002678,0.000431,0.205909
7603000,0.0324,0.013523,0.002678,0.000431,0.182756
7604000,0.0324,0.013523,0.002678,0.000431,0.223656
7605000,0.0324,0.013523,0.002678,0.000431,0.165950
7606000,0.0324,0.013523,0.002678,0.000431,0.333310
7607000,0.0324,0.013523,0.002678,0.000431,0.120936
7608000,0.0324,0.013523,0.002678,0.000431,0.189926
7609000,0.0324,0.013523,0.002678,0.000431,0.067226
7610000,0.0324,0.013523,0.002678,0.000431,0.247984
7611000,0.0324,0.013523,0.002678,0.000431,0.356228
7612000,0.0324,0.013523,0.002678,0.000431,0.311920
7613000,0.0324,0.013523,0.002678,0.000431,0.047364
7614000,0.0324,0.013523,0.002678,0.000431,0.135510
7615000,0.0324,0.013523,0.002678,0.000431,0.100016
7616000,0.0324,0.013523,0.002678,0.000431,0.069107
7617000,0.0324,0.013523,0.002678,0.000431,0.271725
7618000,0.0324,0.013523,0.002678,0.000431,0.258915
7619000,0.0324,0.013523,0.002678,0.000431,0.082622
7620000,0.0324,0.013523,0.002678,0.000431,0.238465
7621000,0.0324,0.013523,0.002678,0.000431,0.192511
7622000,0.0324,0.013523,0.002678,0.000431,0.120114
7623000,0.0324,0.013523,0.002678,0.000431,0.249160
7624000,0.0324,0.013523,0.002678,0.000431,0.258444
7625000,0.0324,0.013523,0.002678,0.000431,0.231766
7626000,0.0324,0.013523,0.002678,0.000431,0.197682
7627000,0.0324,0.013523,0.002678,0.000431,0.330607
7628000,0.0324,0.013523,0.002678,0.000431,0.099076
7629000,0.0324,0.013523,0.002678,0.000431,0.048657
7630000,0.0324,0.013523,0.002678,0.000431,0.117763
7631000,0.0324,0.013523,0.002678,0.000431,0.206850
7632000,0.0324,0.013523,0.002678,0.000431,0.140681
7633000,0.0324,0.013523,0.002678,0.000431,0.258562
7634000,0.0324,0.013523,0.002678,0.000431,0.259267
7635000,0.0324,0.013523,0.002678,0.000431,0.085443
7636000,0.0324,0.013523,0.002678,0.000431,0.087676
7637000,0.0324,0.013523,0.002678,0.000431,0.092377
7638000,0.0324,0.013523,0.002678,0.000431,0.348941
7639000,0.0324,0.013523,0.002678,0.000431,0.306513
7640000,0.0324,0.013523,0.002678,0.000431,0.060527
7641000,0.0324,0.013523,0.002678,0.000431,0.124580
7642000,0.0324,0.013523,0.002678,0.000431,0.093317
7643000,0.0324,0.013523,0.002678,0.000431,0.156783
7644000,0.0324,0.013523,0.002678,0.000431,0.183697
7645000,0.0324,0.013523,0.002678,0.000431,0.265144
7646000,0.0324,0.013523,0.002678,0.000431,0.076511
7647000,0.0324,0.013523,0.002678,0.000431,0.095315
7648000,0.0324,0.013523,0.002678,0.000431,0.095198
7649000,0.0324,0.013523,0.002678,0.000431,0.039725
7650000,0.0324,0.013523,0.002678,0.000431,0.109536
7651000,0.0324,0.013523,0.002678,0.000431,0.115060
7652000,0.0324,0.013523,0.002678,0.000431,0.065111
7653000,0.0324,0.013523,0.002678,0.000431,0.232001
7654000,0.0324,0.013523,0.002678,0.000431,0.269962
7655000,0.0324,0.013523,0.002678,0.000431,0.351057
7656000,0.0324,0.013523,0.002678,0.000431,0.091907
7657000,0.0324,0.013523,0.002678,0.000431,0.226594
7658000,0.0324,0.013523,0.002678,0.000431,0.182169
7659000,0.0324,0.013523,0.002678,0.000431,0.120936
7660000,0.0324,0.013523,0.002678,0.000431,0.124110
7661000,0.0324,0.013523,0.002678,0.000431,0.135628
7662000,0.0324,0.013523,0.002678,0.000431,0.089439
7663000,0.0324,0.013523,0.002678,0.000431,0.066051
7664000,0.0324,0.013523,0.002678,0.000431,0.142444
7665000,0.0324,0.013523,0.002678,0.000431,0.092730
7666000,0.0324,0.013523,0.002678,0.000431,0.127283
7667000,0.0324,0.013523,0.002678,0.000431,0.117528
7668000,0.0324,0.013523,0.002678,0.000431,0.119996
7669000,0.0324,0.013523,0.002678,0.000431,0.085678
7670000,0.0324,0.013523,0.002678,0.000431,0.278424
7671000,0.0324,0.013523,0.002678,0.000431,0.258797
7672000,0.0324,0.013523,0.002678,0.000431,0.115648
7673000,0.0324,0.013523,0.002678,0.000431,0.094963
7674000,0.0324,0.013523,0.002678,0.000431,0.071222
7675000,0.0324,0.013523,0.002678,0.000431,0.081330
7676000,0.0324,0.013523,0.002678,0.000431,0.096491
7677000,0.0324,0.013523,0.002678,0.000431,0.210023
7678000,0.0324,0.013523,0.002678,0.000431,0.116470
7679000,0.0324,0.013523,0.002678,0.000431,0.215429
7680000,0.0324,0.013523,0.002678,0.000431,0.057706
7681000,0.0324,0.013523,0.002678,0.000431,0.204029
7682000,0.0324,0.013523,0.002678,0.000431,0.142327
7683000,0.0324,0.013523,0.002678,0.000431,0.371507
7684000,0.0324,0.013523,0.002678,0.000431,0.151846
7685000,0.0324,0.013523,0.002678,0.000431,0.178643
7686000,0.0324,0.013523,0.002678,0.000431,0.069342
7687000,0.0324,0.013523,0.002678,0.000431,0.053123
7688000,0.0324,0.013523,0.002678,0.000431,0.069459
7689000,0.0324,0.013523,0.002678,0.000431,0.241050
7690000,0.0324,0.013523,0.002678,0.000431,0.225066
7691000,0.0324,0.013523,0.002678,0.000431,0.078391
7692000,0.0324,0.013523,0.002678,0.000431,0.066874
7693000,0.0324,0.013523,0.002678,0.000431,0.086383
7694000,0.0324,0.013523,0.002678,0.000431,0.140094
7695000,0.0324,0.013523,0.002678,0.000431,0.089321
7696000,0.0324,0.013523,0.002678,0.000431,0.201678
7697000,0.0324,0.013523,0.002678,0.000431,0.117763
7698000,0.0324,0.013523,0.002678,0.000431,0.099311
7699000,0.0324,0.013523,0.002678,0.000431,0.136920
7700000,0.0324,0.013523,0.002678,0.000431,0.072867
7701000,0.0324,0.013523,0.002678,0.000431,0.073690
7702000,0.0324,0.013523,0.002678,0.000431,0.155137
7703000,0.0324,0.013523,0.002678,0.000431,0.164069
7704000,0.0324,0.013523,0.002678,0.000431,0.132807
7705000,0.0324,0.013523,0.002678,0.000431,0.161366
7706000,0.0324,0.013523,0.002678,0.000431,0.069224
7707000,0.0324,0.013523,0.002678,0.000431,0.076041
7708000,0.0324,0.013523,0.002678,0.000431,0.148086
7709000,0.0324,0.013523,0.002678,0.000431,0.313918
7710000,0.0324,0.013523,0.002678,0.000431,0.151494
7711000,0.0324,0.013523,0.002678,0.000431,0.106363
7712000,0.0324,0.013523,0.002678,0.000431,0.038432
7713000,0.0324,0.013523,0.002678,0.000431,0.086853
7714000,0.0324,0.013523,0.002678,0.000431,0.186517
7715000,0.0324,0.013523,0.002678,0.000431,0.336131
7716000,0.0324,0.013523,0.002678,0.000431,0.291940
7717000,0.0324,0.013523,0.002678,0.000431,0.181934
7718000,0.0324,0.013523,0.002678,0.000431,0.150201
7719000,0.0324,0.013523,0.002678,0.000431,0.043838
7720000,0.0324,0.013523,0.002678,0.000431,0.109889
7721000,0.0324,0.013523,0.002678,0.000431,0.076393
7722000,0.0324,0.013523,0.002678,0.000431,0.129986
7723000,0.0324,0.013523,0.002678,0.000431,0.096021
7724000,0.0324,0.013523,0.002678,0.000431,0.177820
7725000,0.0324,0.013523,0.002678,0.000431,0.042780
7726000,0.0324,0.013523,0.002678,0.000431,0.092025
7727000,0.0324,0.013523,0.002678,0.000431,0.086618
7728000,0.0324,0.013523,0.002678,0.000431,0.193922
7729000,0.0324,0.013523,0.002678,0.000431,0.205322
7730000,0.0324,0.013523,0.002678,0.000431,0.162071
7731000,0.0324,0.013523,0.002678,0.000431,0.111417
7732000,0.0324,0.013523,0.002678,0.000431,0.142209
7733000,0.0324,0.013523,0.002678,0.000431,0.129516
7734000,0.0324,0.013523,0.002678,0.000431,0.230943
7735000,0.0324,0.013523,0.002678,0.000431,0.137155
7736000,0.0324,0.013523,0.002678,0.000431,0.062995
7737000,0.0324,0.013523,0.002678,0.000431,0.300990
7738000,0.0324,0.013523,0.002678,0.000431,0.034671
7739000,0.0324,0.013523,0.002678,0.000431,0.091554
7740000,0.0324,0.013523,0.002678,0.000431,0.060645
7741000,0.0324,0.013523,0.002678,0.000431,0.132337
7742000,0.0324,0.013523,0.002678,0.000431,0.183226
7743000,0.0324,0.013523,0.002678,0.000431,0.123287
7744000,0.0324,0.013523,0.002678,0.000431,0.178878
7745000,0.0324,0.013523,0.002678,0.000431,0.085443
7746000,0.0324,0.013523,0.002678,0.000431,0.171004
7747000,0.0324,0.013523,0.002678,0.000431,0.058176
7748000,0.0324,0.013523,0.002678,0.000431,0.242226
7749000,0.0324,0.013523,0.002678,0.000431,0.118468
7750000,0.0324,0.013523,0.002678,0.000431,0.156548
7751000,0.0324,0.013523,0.002678,0.000431,0.088264
7752000,0.0324,0.013523,0.002678,0.000431,0.083680
7753000,0.0324,0.013523,0.002678,0.000431,0.046424
7754000,0.0324,0.013523,0.002678,0.000431,0.086031
7755000,0.0324,0.013523,0.002678,0.000431,0.063348
7756000,0.0324,0.013523,0.002678,0.000431,0.098959
7757000,0.0324,0.013523,0.002678,0.000431,0.083680
7758000,0.0324,0.013523,0.002678,0.000431,0.118468
7759000,0.0324,0.013523,0.002678,0.000431,0.074513
7760000,0.0324,0.013523,0.002678,0.000431,0.159956
7761000,0.0324,0.013523,0.002678,0.000431,0.249042
7762000,0.0324,0.013523,0.002678,0.000431,0.082975
7763000,0.0324,0.013523,0.002678,0.000431,0.247867
7764000,0.0324,0.013523,0.002678,0.000431,0.069224
7765000,0.0324,0.013523,0.002678,0.000431,0.085090
7766000,0.0324,0.013523,0.002678,0.000431,0.042075
7767000,0.0324,0.013523,0.002678,0.000431,0.280657
7768000,0.0324,0.013523,0.002678,0.000431,0.151964
7769000,0.0324,0.013523,0.002678,0.000431,0.245281
7770000,0.0324,0.013523,0.002678,0.000431,0.065346
7771000,0.0324,0.013523,0.002678,0.000431,0.039019
7772000,0.0324,0.013523,0.002678,0.000431,0.143854
7773000,0.0324,0.013523,0.002678,0.000431,0.166067
7774000,0.0324,0.013523,0.002678,0.000431,0.134687
7775000,0.0324,0.013523,0.002678,0.000431,0.097548
7776000,0.0324,0.013523,0.002678,0.000431,0.189338
7777000,0.0324,0.013523,0.002678,0.000431,0.061702
7778000,0.0324,0.013523,0.002678,0.000431,0.123875
7779000,0.0324,0.013523,0.002678,0.000431,0.090732
7780000,0.0324,0.013523,0.002678,0.000431,0.156195
7781000,0.0324,0.013523,0.002678,0.000431,0.057824
7782000,0.0324,0.013523,0.002678,0.000431,0.144560
7783000,0.0324,0.013523,0.002678,0.000431,0.061585
7784000,0.0324,0.013523,0.002678,0.000431,0.053593
7785000,0.0324,0.013523,0.002678,0.000431,0.160308
7786000,0.0324,0.013523,0.002678,0.000431,0.145265
7787000,0.0324,0.013523,0.002678,0.000431,0.159133
7788000,0.0324,0.013523,0.002678,0.000431,0.065933
7789000,0.0324,0.013523,0.002678,0.000431,0.100016
7790000,0.0324,0.013523,0.002678,0.000431,0.074160
7791000,0.0324,0.013523,0.002678,0.000431,0.068872
7792000,0.0324,0.013523,0.002678,0.000431,0.063465
7793000,0.0324,0.013523,0.002678,0.000431,0.107538
7794000,0.0324,0.013523,0.002678,0.000431,0.050655
7795000,0.0324,0.013523,0.002678,0.000431,0.142209
7796000,0.0324,0.013523,0.002678,0.000431,0.058999
7797000,0.0324,0.013523,0.002678,0.000431,0.096608
7798000,0.0324,0.013523,0.002678,0.000431,0.047599
7799000,0.0324,0.013523,0.002678,0.000431,0.140329
7800000,0.0324,0.013523,0.002678,0.000431,0.142914
7801000,0.0324,0.013523,0.002678,0.000431,0.102837
7802000,0.0324,0.013523,0.002678,0.000431,0.046541
7803000,0.0324,0.013523,0.002678,0.000431,0.049714
7804000,0.0324,0.013523,0.002678,0.000431,0.065346
7805000,0.0324,0.013523,0.002678,0.000431,0.051595
7806000,0.0324,0.013523,0.002678,0.000431,0.154315
7807000,0.0324,0.013523,0.002678,0.000431,0.087441
7808000,0.0324,0.013523,0.002678,0.000431,0.203794
7809000,0.0324,0.013523,0.002678,0.000431,0.041370
7810000,0.0324,0.013523,0.002678,0.000431,0.123522
7811000,0.0324,0.013523,0.002678,0.000431,0.053358
7812000,0.0324,0.013523,0.002678,0.000431,0.090027
7813000,0.0324,0.013523,0.002678,0.000431,0.187340
7814000,0.0324,0.013523,0.002678,0.000431,0.145617
7815000,0.0324,0.013523,0.002678,0.000431,0.055121
7816000,0.0324,0.013523,0.002678,0.000431,0.043956
7817000,0.0324,0.013523,0.002678,0.000431,0.058999
7818000,0.0324,0.013523,0.002678,0.000431,0.120231
7819000,0.0324,0.013523,0.002678,0.000431,0.196977
7820000,0.0324,0.013523,0.002678,0.000431,0.090967
7821000,0.0324,0.013523,0.002678,0.000431,0.065111
7822000,0.0324,0.013523,0.002678,0.000431,0.129751
7823000,0.0324,0.013523,0.002678,0.000431,0.069459
7824000,0.0324,0.013523,0.002678,0.000431,0.106128
7825000,0.0324,0.013523,0.002678,0.000431,0.125755
7826000,0.0324,0.013523,0.002678,0.000431,0.178290
7827000,0.0324,0.013523,0.002678,0.000431,0.076511
7828000,0.0324,0.013523,0.002678,0.000431,0.050302
7829000,0.0324,0.013523,0.002678,0.000431,0.149966
7830000,0.0324,0.013523,0.002678,0.000431,0.117646
7831000,0.0324,0.013523,0.002678,0.000431,0.210846
7832000,0.0324,0.013523,0.002678,0.000431,0.210258
7833000,0.0324,0.013523,0.002678,0.000431,0.091437
7834000,0.0324,0.013523,0.002678,0.000431,0.101192
7835000,0.0324,0.013523,0.002678,0.000431,0.035611
7836000,0.0324,0.013523,0.002678,0.000431,0.166890
7837000,0.0324,0.013523,0.002678,0.000431,0.039489
7838000,0.0324,0.013523,0.002678,0.000431,0.128341
7839000,0.0324,0.013523,0.002678,0.000431,0.083092
7840000,0.0324,0.013523,0.002678,0.000431,0.068636
7841000,0.0324,0.013523,0.002678,0.000431,0.089439
7842000,0.0324,0.013523,0.002678,0.000431,0.041958
7843000,0.0324,0.013523,0.002678,0.000431,0.037962
7844000,0.0324,0.013523,0.002678,0.000431,0.076746
7845000,0.0324,0.013523,0.002678,0.000431,0.208495
7846000,0.0324,0.013523,0.002678,0.000431,0.143972
7847000,0.0324,0.013523,0.002678,0.000431,0.083092
7848000,0.0324,0.013523,0.002678,0.000431,0.064876
7849000,0.0324,0.013523,0.002678,0.000431,0.079802
7850000,0.0324,0.013523,0.002678,0.000431,0.084268
7851000,0.0324,0.013523,0.002678,0.000431,0.158428
7852000,0.0324,0.013523,0.002678,0.000431,0.079567
7853000,0.0324,0.013523,0.002678,0.000431,0.097901
7854000,0.0324,0.013523,0.002678,0.000431,0.052770
7855000,0.0324,0.013523,0.002678,0.000431,0.047481
7856000,0.0324,0.013523,0.002678,0.000431,0.113415
7857000,0.0324,0.013523,0.002678,0.000431,0.082505
7858000,0.0324,0.013523,0.002678,0.000431,0.072280
7859000,0.0324,0.013523,0.002678,0.000431,0.076158
7860000,0.0324,0.013523,0.002678,0.000431,0.090849
7861000,0.0324,0.013523,0.002678,0.000431,0.109889
7862000,0.0324,0.013523,0.002678,0.000431,0.062643
7863000,0.0324,0.013523,0.002678,0.000431,0.164187
7864000,0.0324,0.013523,0.002678,0.000431,0.110241
7865000,0.0324,0.013523,0.002678,0.000431,0.046541
7866000,0.0324,0.013523,0.002678,0.000431,0.069107
7867000,0.0324,0.013523,0.002678,0.000431,0.080389
7868000,0.0324,0.013523,0.002678,0.000431,0.035258
7869000,0.0324,0.013523,0.002678,0.000431,0.068754
7870000,0.0324,0.013523,0.002678,0.000431,0.173472
7871000,0.0324,0.013523,0.002678,0.000431,0.113767
7872000,0.0324,0.013523,0.002678,0.000431,0.066403
7873000,0.0324,0.013523,0.002678,0.000431,0.070869
7874000,0.0324,0.013523,0.002678,0.000431,0.049597
7875000,0.0324,0.013523,0.002678,0.000431,0.050185
7876000,0.0324,0.013523,0.002678,0.000431,0.174177
7877000,0.0324,0.013523,0.002678,0.000431,0.099664
7878000,0.0324,0.013523,0.002678,0.000431,0.065228
7879000,0.0324,0.013523,0.002678,0.000431,0.161954
7880000,0.0324,0.013523,0.002678,0.000431,0.135745
7881000,0.0324,0.013523,0.002678,0.000431,0.114472
7882000,0.0324,0.013523,0.002678,0.000431,0.086031
7883000,0.0324,0.013523,0.002678,0.000431,0.126108
7884000,0.0324,0.013523,0.002678,0.000431,0.101779
7885000,0.0324,0.013523,0.002678,0.000431,0.091319
7886000,0.0324,0.013523,0.002678,0.000431,0.045248
7887000,0.0324,0.013523,0.002678,0.000431,0.041135
7888000,0.0324,0.013523,0.002678,0.000431,0.063700
7889000,0.0324,0.013523,0.002678,0.000431,0.063465
7890000,0.0324,0.013523,0.002678,0.000431,0.067226
7891000,0.0324,0.013523,0.002678,0.000431,0.121172
7892000,0.0324,0.013523,0.002678,0.000431,0.067344
7893000,0.0324,0.013523,0.002678,0.000431,0.057589
7894000,0.0324,0.013523,0.002678,0.000431,0.107421
7895000,0.0324,0.013523,0.002678,0.000431,0.098254
7896000,0.0324,0.013523,0.002678,0.000431,0.102485
7897000,0.0324,0.013523,0.002678,0.000431,0.051595
7898000,0.0324,0.013523,0.002678,0.000431,0.193216
7899000,0.0324,0.013523,0.002678,0.000431,0.078861
7900000,0.0324,0.013523,0.002678,0.000431,0.064053
7901000,0.0324,0.013523,0.002678,0.000431,0.051242
7902000,0.0324,0.013523,0.002678,0.000431,0.125285
7903000,0.0324,0.013523,0.002678,0.000431,0.059117
7904000,0.0324,0.013523,0.002678,0.000431,0.086736
7905000,0.0324,0.013523,0.002678,0.000431,0.102014
7906000,0.0324,0.013523,0.002678,0.000431,0.068049
7907000,0.0324,0.013523,0.002678,0.000431,0.130221
7908000,0.0324,0.013523,0.002678,0.000431,0.047951
7909000,0.0324,0.013523,0.002678,0.000431,0.099429
7910000,0.0324,0.013523,0.002678,0.000431,0.106598
7911000,0.0324,0.013523,0.002678,0.000431,0.093317
7912000,0.0324,0.013523,0.002678,0.000431,0.084620
7913000,0.0324,0.013523,0.002678,0.000431,0.159486
7914000,0.0324,0.013523,0.002678,0.000431,0.130456
7915000,0.0324,0.013523,0.002678,0.000431,0.091790
7916000,0.0324,0.013523,0.002678,0.000431,0.047834
7917000,0.0324,0.013523,0.002678,0.000431,0.159956
7918000,0.0324,0.013523,0.002678,0.000431,0.057119
7919000,0.0324,0.013523,0.002678,0.000431,0.044778
7920000,0.0324,0.013523,0.002678,0.000431,0.063700
7921000,0.0324,0.013523,0.002678,0.000431,0.065463
7922000,0.0324,0.013523,0.002678,0.000431,0.059822
7923000,0.0324,0.013523,0.002678,0.000431,0.076863
7924000,0.0324,0.013523,0.002678,0.000431,0.059822
7925000,0.0324,0.013523,0.002678,0.000431,0.072045
7926000,0.0324,0.013523,0.002678,0.000431,0.097901
7927000,0.0324,0.013523,0.002678,0.000431,0.056178
7928000,0.0324,0.013523,0.002678,0.000431,0.157018
7929000,0.0324,0.013523,0.002678,0.000431,0.076628
7930000,0.0324,0.013523,0.002678,0.000431,0.101074
7931000,0.0324,0.013523,0.002678,0.000431,0.083915
7932000,0.0324,0.013523,0.002678,0.000431,0.050067
7933000,0.0324,0.013523,0.002678,0.000431,0.041252
7934000,0.0324,0.013523,0.002678,0.000431,0.157488
7935000,0.0324,0.013523,0.002678,0.000431,0.090614
7936000,0.0324,0.013523,0.002678,0.000431,0.047481
7937000,0.0324,0.013523,0.002678,0.000431,0.047599
7938000,0.0324,0.013523,0.002678,0.000431,0.044191
7939000,0.0324,0.013523,0.002678,0.000431,0.053005
7940000,0.0324,0.013523,0.002678,0.000431,0.127636
7941000,0.0324,0.013523,0.002678,0.000431,0.117881
7942000,0.0324,0.013523,0.002678,0.000431,0.067579
7943000,0.0324,0.013523,0.002678,0.000431,0.093082
7944000,0.0324,0.013523,0.002678,0.000431,0.058882
7945000,0.0324,0.013523,0.002678,0.000431,0.079332
7946000,0.0324,0.013523,0.002678,0.000431,0.039254
7947000,0.0324,0.013523,0.002678,0.000431,0.068754
7948000,0.0324,0.013523,0.002678,0.000431,0.071927
7949000,0.0324,0.013523,0.002678,0.000431,0.057471
7950000,0.0324,0.013523,0.002678,0.000431,0.088381
7951000,0.0324,0.013523,0.002678,0.000431,0.037139
7952000,0.0324,0.013523,0.002678,0.000431,0.083563
7953000,0.0324,0.013523,0.002678,0.000431,0.167478
7954000,0.0324,0.013523,0.002678,0.000431,0.157135
7955000,0.0324,0.013523,0.002678,0.000431,0.080507
7956000,0.0324,0.013523,0.002678,0.000431,0.040665
7957000,0.0324,0.013523,0.002678,0.000431,0.145382
7958000,0.0324,0.013523,0.002678,0.000431,0.145735
7959000,0.0324,0.013523,0.002678,0.000431,0.060174
7960000,0.0324,0.013523,0.002678,0.000431,0.117411
7961000,0.0324,0.013523,0.002678,0.000431,0.087323
7962000,0.0324,0.013523,0.002678,0.000431,0.050185
7963000,0.0324,0.013523,0.002678,0.000431,0.097196
7964000,0.0324,0.013523,0.002678,0.000431,0.041723
7965000,0.0324,0.013523,0.002678,0.000431,0.045013
7966000,0.0324,0.013523,0.002678,0.000431,0.113532
7967000,0.0324,0.013523,0.002678,0.000431,0.073338
7968000,0.0324,0.013523,0.002678,0.000431,0.071692
7969000,0.0324,0.013523,0.002678,0.000431,0.060409
7970000,0.0324,0.013523,0.002678,0.000431,0.070282
7971000,0.0324,0.013523,0.002678,0.000431,0.036434
7972000,0.0324,0.013523,0.002678,0.000431,0.078509
7973000,0.0324,0.013523,0.002678,0.000431,0.103190
7974000,0.0324,0.013523,0.002678,0.000431,0.045954
7975000,0.0324,0.013523,0.002678,0.000431,0.086148
7976000,0.0324,0.013523,0.002678,0.000431,0.107421
7977000,0.0324,0.013523,0.002678,0.000431,0.107656
7978000,0.0324,0.013523,0.002678,0.000431,0.119761
7979000,0.0324,0.013523,0.002678,0.000431,0.057471
7980000,0.0324,0.013523,0.002678,0.000431,0.171591
7981000,0.0324,0.013523,0.002678,0.000431,0.043720
7982000,0.0324,0.013523,0.002678,0.000431,0.058529
7983000,0.0324,0.013523,0.002678,0.000431,0.046776
7984000,0.0324,0.013523,0.002678,0.000431,0.107186
7985000,0.0324,0.013523,0.002678,0.000431,0.071810
7986000,0.0324,0.013523,0.002678,0.000431,0.184989
7987000,0.0324,0.013523,0.002678,0.000431,0.122464
7988000,0.0324,0.013523,0.002678,0.000431,0.066756
7989000,0.0324,0.013523,0.002678,0.000431,0.040665
7990000,0.0324,0.013523,0.002678,0.000431,0.047599
7991000,0.0324,0.013523,0.002678,0.000431,0.056061
7992000,0.0324,0.013523,0.002678,0.000431,0.099194
7993000,0.0324,0.013523,0.002678,0.000431,0.076511
7994000,0.0324,0.013523,0.002678,0.000431,0.041017
7995000,0.0324,0.013523,0.002678,0.000431,0.101192
7996000,0.0324,0.013523,0.002678,0.000431,0.052770
7997000,0.0324,0.013523,0.002678,0.000431,0.117881
7998000,0.0324,0.013523,0.002678,0.000431,0.138918
7999000,0.0324,0.013523,0.002678,0.000431,0.113062
