Cycle,Area(mm^2),PeakDynamic(W),SubthresholdLeakage(W),GateLeakage(W),RunTimeDynamic(W)
30000000,0.0324,0.013523,0.002678,0.000431,0.004466
30001000,0.0324,0.013523,0.002678,0.000431,0.004701
30002000,0.0324,0.013523,0.002678,0.000431,0.028912
30003000,0.0324,0.013523,0.002678,0.000431,0.062995
30004000,0.0324,0.013523,0.002678,0.000431,0.012223
30005000,0.0324,0.013523,0.002678,0.000431,0.049832
30006000,0.0324,0.013523,0.002678,0.000431,0.012223
30007000,0.0324,0.013523,0.002678,0.000431,0.004701
30008000,0.0324,0.013523,0.002678,0.000431,0.004701
30009000,0.0324,0.013523,0.002678,0.000431,0.044778
30010000,0.0324,0.013523,0.002678,0.000431,0.036551
30011000,0.0324,0.013523,0.002678,0.000431,0.015514
30012000,0.0324,0.013523,0.002678,0.000431,0.034788
30013000,0.0324,0.013523,0.002678,0.000431,0.004701
30014000,0.0324,0.013523,0.002678,0.000431,0.004701
30015000,0.0324,0.013523,0.002678,0.000431,0.004701
30016000,0.0324,0.013523,0.002678,0.000431,0.012223
30017000,0.0324,0.013523,0.002678,0.000431,0.019745
30018000,0.0324,0.013523,0.002678,0.000431,0.027267
30019000,0.0324,0.013523,0.002678,0.000431,0.012105
30020000,0.0324,0.013523,0.002678,0.000431,0.018099
30021000,0.0324,0.013523,0.002678,0.000431,0.044073
30022000,0.0324,0.013523,0.002678,0.000431,0.004701
30023000,0.0324,0.013523,0.002678,0.000431,0.079919
30024000,0.0324,0.013523,0.002678,0.000431,0.004466
30025000,0.0324,0.013523,0.002678,0.000431,0.004466
30026000,0.0324,0.013523,0.002678,0.000431,0.004701
30027000,0.0324,0.013523,0.002678,0.000431,0.004701
30028000,0.0324,0.013523,0.002678,0.000431,0.004701
30029000,0.0324,0.013523,0.002678,0.000431,0.004819
30030000,0.0324,0.013523,0.002678,0.000431,0.027384
30031000,0.0324,0.013523,0.002678,0.000431,0.004701
30032000,0.0324,0.013523,0.002678,0.000431,0.004701
30033000,0.0324,0.013523,0.002678,0.000431,0.004701
30034000,0.0324,0.013523,0.002678,0.000431,0.004701
30035000,0.0324,0.013523,0.002678,0.000431,0.004701
30036000,0.0324,0.013523,0.002678,0.000431,0.039725
30037000,0.0324,0.013523,0.002678,0.000431,0.044661
30038000,0.0324,0.013523,0.002678,0.000431,0.004701
30039000,0.0324,0.013523,0.002678,0.000431,0.004701
30040000,0.0324,0.013523,0.002678,0.000431,0.004701
30041000,0.0324,0.013523,0.002678,0.000431,0.004701
30042000,0.0324,0.013523,0.002678,0.000431,0.008462
30043000,0.0324,0.013523,0.002678,0.000431,0.069107
30044000,0.0324,0.013523,0.002678,0.000431,0.011753
30045000,0.0324,0.013523,0.002678,0.000431,0.004701
30046000,0.0324,0.013523,0.002678,0.000431,0.004701
30047000,0.0324,0.013523,0.002678,0.000431,0.004701
30048000,0.0324,0.013523,0.002678,0.000431,0.008462
30049000,0.0324,0.013523,0.002678,0.000431,0.008462
30050000,0.0324,0.013523,0.002678,0.000431,0.004701
30051000,0.0324,0.013523,0.002678,0.000431,0.008815
30052000,0.0324,0.013523,0.002678,0.000431,0.015631
30053000,0.0324,0.013523,0.002678,0.000431,0.004701
30054000,0.0324,0.013523,0.002678,0.000431,0.004701
30055000,0.0324,0.013523,0.002678,0.000431,0.019745
30056000,0.0324,0.013523,0.002678,0.000431,0.004701
30057000,0.0324,0.013523,0.002678,0.000431,0.027267
30058000,0.0324,0.013523,0.002678,0.000431,0.027502
30059000,0.0324,0.013523,0.002678,0.000431,0.004701
30060000,0.0324,0.013523,0.002678,0.000431,0.004466
30061000,0.0324,0.013523,0.002678,0.000431,0.004701
30062000,0.0324,0.013523,0.002678,0.000431,0.008462
30063000,0.0324,0.013523,0.002678,0.000431,0.008462
30064000,0.0324,0.013523,0.002678,0.000431,0.004701
30065000,0.0324,0.013523,0.002678,0.000431,0.004466
30066000,0.0324,0.013523,0.002678,0.000431,0.004701
30067000,0.0324,0.013523,0.002678,0.000431,0.004701
30068000,0.0324,0.013523,0.002678,0.000431,0.012223
30069000,0.0324,0.013523,0.002678,0.000431,0.004584
30070000,0.0324,0.013523,0.002678,0.000431,0.004584
30071000,0.0324,0.013523,0.002678,0.000431,0.012223
30072000,0.0324,0.013523,0.002678,0.000431,0.004701
30073000,0.0324,0.013523,0.002678,0.000431,0.004701
30074000,0.0324,0.013523,0.002678,0.000431,0.019745
30075000,0.0324,0.013523,0.002678,0.000431,0.004701
30076000,0.0324,0.013523,0.002678,0.000431,0.004701
30077000,0.0324,0.013523,0.002678,0.000431,0.004701
30078000,0.0324,0.013523,0.002678,0.000431,0.004701
30079000,0.0324,0.013523,0.002678,0.000431,0.004701
30080000,0.0324,0.013523,0.002678,0.000431,0.065111
30081000,0.0324,0.013523,0.002678,0.000431,0.004701
30082000,0.0324,0.013523,0.002678,0.000431,0.004584
30083000,0.0324,0.013523,0.002678,0.000431,0.004584
30084000,0.0324,0.013523,0.002678,0.000431,0.004701
30085000,0.0324,0.013523,0.002678,0.000431,0.012223
30086000,0.0324,0.013523,0.002678,0.000431,0.004701
30087000,0.0324,0.013523,0.002678,0.000431,0.004701
30088000,0.0324,0.013523,0.002678,0.000431,0.004701
30089000,0.0324,0.013523,0.002678,0.000431,0.012223
30090000,0.0324,0.013523,0.002678,0.000431,0.004584
30091000,0.0324,0.013523,0.002678,0.000431,0.004584
30092000,0.0324,0.013523,0.002678,0.000431,0.004701
30093000,0.0324,0.013523,0.002678,0.000431,0.012223
30094000,0.0324,0.013523,0.002678,0.000431,0.004701
30095000,0.0324,0.013523,0.002678,0.000431,0.004701
30096000,0.0324,0.013523,0.002678,0.000431,0.012223
30097000,0.0324,0.013523,0.002678,0.000431,0.019745
30098000,0.0324,0.013523,0.002678,0.000431,0.004701
30099000,0.0324,0.013523,0.002678,0.000431,0.004701
30100000,0.0324,0.013523,0.002678,0.000431,0.011988
30101000,0.0324,0.013523,0.002678,0.000431,0.012223
30102000,0.0324,0.013523,0.002678,0.000431,0.015984
30103000,0.0324,0.013523,0.002678,0.000431,0.008462
30104000,0.0324,0.013523,0.002678,0.000431,0.004701
30105000,0.0324,0.013523,0.002678,0.000431,0.004466
30106000,0.0324,0.013523,0.002678,0.000431,0.004701
30107000,0.0324,0.013523,0.002678,0.000431,0.012223
30108000,0.0324,0.013523,0.002678,0.000431,0.015984
30109000,0.0324,0.013523,0.002678,0.000431,0.015984
30110000,0.0324,0.013523,0.002678,0.000431,0.012223
30111000,0.0324,0.013523,0.002678,0.000431,0.004701
30112000,0.0324,0.013523,0.002678,0.000431,0.004701
30113000,0.0324,0.013523,0.002678,0.000431,0.004701
30114000,0.0324,0.013523,0.002678,0.000431,0.012223
30115000,0.0324,0.013523,0.002678,0.000431,0.054063
30116000,0.0324,0.013523,0.002678,0.000431,0.034318
30117000,0.0324,0.013523,0.002678,0.000431,0.038549
30118000,0.0324,0.013523,0.002678,0.000431,0.004701
30119000,0.0324,0.013523,0.002678,0.000431,0.004701
30120000,0.0324,0.013523,0.002678,0.000431,0.025151
30121000,0.0324,0.013523,0.002678,0.000431,0.036904
30122000,0.0324,0.013523,0.002678,0.000431,0.004584
30123000,0.0324,0.013523,0.002678,0.000431,0.042193
30124000,0.0324,0.013523,0.002678,0.000431,0.008462
30125000,0.0324,0.013523,0.002678,0.000431,0.008462
30126000,0.0324,0.013523,0.002678,0.000431,0.004701
30127000,0.0324,0.013523,0.002678,0.000431,0.004701
30128000,0.0324,0.013523,0.002678,0.000431,0.004701
30129000,0.0324,0.013523,0.002678,0.000431,0.024211
30130000,0.0324,0.013523,0.002678,0.000431,0.051007
30131000,0.0324,0.013523,0.002678,0.000431,0.013868
30132000,0.0324,0.013523,0.002678,0.000431,0.004701
30133000,0.0324,0.013523,0.002678,0.000431,0.004701
30134000,0.0324,0.013523,0.002678,0.000431,0.004701
30135000,0.0324,0.013523,0.002678,0.000431,0.004701
30136000,0.0324,0.013523,0.002678,0.000431,0.025386
30137000,0.0324,0.013523,0.002678,0.000431,0.029147
30138000,0.0324,0.013523,0.002678,0.000431,0.004701
30139000,0.0324,0.013523,0.002678,0.000431,0.004701
30140000,0.0324,0.013523,0.002678,0.000431,0.011988
30141000,0.0324,0.013523,0.002678,0.000431,0.004701
30142000,0.0324,0.013523,0.002678,0.000431,0.019745
30143000,0.0324,0.013523,0.002678,0.000431,0.015984
30144000,0.0324,0.013523,0.002678,0.000431,0.019745
30145000,0.0324,0.013523,0.002678,0.000431,0.008345
30146000,0.0324,0.013523,0.002678,0.000431,0.004584
30147000,0.0324,0.013523,0.002678,0.000431,0.004701
30148000,0.0324,0.013523,0.002678,0.000431,0.004701
30149000,0.0324,0.013523,0.002678,0.000431,0.033613
30150000,0.0324,0.013523,0.002678,0.000431,0.162071
30151000,0.0324,0.013523,0.002678,0.000431,0.006464
30152000,0.0324,0.013523,0.002678,0.000431,0.027267
30153000,0.0324,0.013523,0.002678,0.000431,0.004701
30154000,0.0324,0.013523,0.002678,0.000431,0.004701
30155000,0.0324,0.013523,0.002678,0.000431,0.004701
30156000,0.0324,0.013523,0.002678,0.000431,0.004701
30157000,0.0324,0.013523,0.002678,0.000431,0.034788
30158000,0.0324,0.013523,0.002678,0.000431,0.004701
30159000,0.0324,0.013523,0.002678,0.000431,0.004701
30160000,0.0324,0.013523,0.002678,0.000431,0.004701
30161000,0.0324,0.013523,0.002678,0.000431,0.017629
30162000,0.0324,0.013523,0.002678,0.000431,0.082035
30163000,0.0324,0.013523,0.002678,0.000431,0.027031
30164000,0.0324,0.013523,0.002678,0.000431,0.004701
30165000,0.0324,0.013523,0.002678,0.000431,0.004701
30166000,0.0324,0.013523,0.002678,0.000431,0.004701
30167000,0.0324,0.013523,0.002678,0.000431,0.004701
30168000,0.0324,0.013523,0.002678,0.000431,0.004701
30169000,0.0324,0.013523,0.002678,0.000431,0.004701
30170000,0.0324,0.013523,0.002678,0.000431,0.004701
30171000,0.0324,0.013523,0.002678,0.000431,0.004466
30172000,0.0324,0.013523,0.002678,0.000431,0.004701
30173000,0.0324,0.013523,0.002678,0.000431,0.004701
30174000,0.0324,0.013523,0.002678,0.000431,0.004701
30175000,0.0324,0.013523,0.002678,0.000431,0.004701
30176000,0.0324,0.013523,0.002678,0.000431,0.012223
30177000,0.0324,0.013523,0.002678,0.000431,0.012223
30178000,0.0324,0.013523,0.002678,0.000431,0.004701
30179000,0.0324,0.013523,0.002678,0.000431,0.094728
30180000,0.0324,0.013523,0.002678,0.000431,0.019510
30181000,0.0324,0.013523,0.002678,0.000431,0.027267
30182000,0.0324,0.013523,0.002678,0.000431,0.004701
30183000,0.0324,0.013523,0.002678,0.000431,0.004701
30184000,0.0324,0.013523,0.002678,0.000431,0.004701
30185000,0.0324,0.013523,0.002678,0.000431,0.012223
30186000,0.0324,0.013523,0.002678,0.000431,0.061115
30187000,0.0324,0.013523,0.002678,0.000431,0.008580
30188000,0.0324,0.013523,0.002678,0.000431,0.004819
30189000,0.0324,0.013523,0.002678,0.000431,0.019745
30190000,0.0324,0.013523,0.002678,0.000431,0.037491
30191000,0.0324,0.013523,0.002678,0.000431,0.054416
30192000,0.0324,0.013523,0.002678,0.000431,0.027267
30193000,0.0324,0.013523,0.002678,0.000431,0.004701
30194000,0.0324,0.013523,0.002678,0.000431,0.011048
30195000,0.0324,0.013523,0.002678,0.000431,0.048304
30196000,0.0324,0.013523,0.002678,0.000431,0.022448
30197000,0.0324,0.013523,0.002678,0.000431,0.004701
30198000,0.0324,0.013523,0.002678,0.000431,0.004701
30199000,0.0324,0.013523,0.002678,0.000431,0.060292
30200000,0.0324,0.013523,0.002678,0.000431,0.031850
30201000,0.0324,0.013523,0.002678,0.000431,0.004701
30202000,0.0324,0.013523,0.002678,0.000431,0.004701
30203000,0.0324,0.013523,0.002678,0.000431,0.004701
30204000,0.0324,0.013523,0.002678,0.000431,0.004701
30205000,0.0324,0.013523,0.002678,0.000431,0.073925
30206000,0.0324,0.013523,0.002678,0.000431,0.010460
30207000,0.0324,0.013523,0.002678,0.000431,0.008462
30208000,0.0324,0.013523,0.002678,0.000431,0.008462
30209000,0.0324,0.013523,0.002678,0.000431,0.004701
30210000,0.0324,0.013523,0.002678,0.000431,0.004701
30211000,0.0324,0.013523,0.002678,0.000431,0.015749
30212000,0.0324,0.013523,0.002678,0.000431,0.038549
30213000,0.0324,0.013523,0.002678,0.000431,0.004701
30214000,0.0324,0.013523,0.002678,0.000431,0.019980
30215000,0.0324,0.013523,0.002678,0.000431,0.004701
30216000,0.0324,0.013523,0.002678,0.000431,0.004701
30217000,0.0324,0.013523,0.002678,0.000431,0.004466
30218000,0.0324,0.013523,0.002678,0.000431,0.004701
30219000,0.0324,0.013523,0.002678,0.000431,0.004701
30220000,0.0324,0.013523,0.002678,0.000431,0.063348
30221000,0.0324,0.013523,0.002678,0.000431,0.080977
30222000,0.0324,0.013523,0.002678,0.000431,0.004701
30223000,0.0324,0.013523,0.002678,0.000431,0.004701
30224000,0.0324,0.013523,0.002678,0.000431,0.004701
30225000,0.0324,0.013523,0.002678,0.000431,0.012223
30226000,0.0324,0.013523,0.002678,0.000431,0.004701
30227000,0.0324,0.013523,0.002678,0.000431,0.073220
30228000,0.0324,0.013523,0.002678,0.000431,0.139271
30229000,0.0324,0.013523,0.002678,0.000431,0.004701
30230000,0.0324,0.013523,0.002678,0.000431,0.004701
30231000,0.0324,0.013523,0.002678,0.000431,0.004701
30232000,0.0324,0.013523,0.002678,0.000431,0.004701
30233000,0.0324,0.013523,0.002678,0.000431,0.012223
30234000,0.0324,0.013523,0.002678,0.000431,0.004701
30235000,0.0324,0.013523,0.002678,0.000431,0.039842
30236000,0.0324,0.013523,0.002678,0.000431,0.120231
30237000,0.0324,0.013523,0.002678,0.000431,0.004701
30238000,0.0324,0.013523,0.002678,0.000431,0.004701
30239000,0.0324,0.013523,0.002678,0.000431,0.004701
30240000,0.0324,0.013523,0.002678,0.000431,0.004701
30241000,0.0324,0.013523,0.002678,0.000431,0.004701
30242000,0.0324,0.013523,0.002678,0.000431,0.092495
30243000,0.0324,0.013523,0.002678,0.000431,0.044778
30244000,0.0324,0.013523,0.002678,0.000431,0.004701
30245000,0.0324,0.013523,0.002678,0.000431,0.004701
30246000,0.0324,0.013523,0.002678,0.000431,0.019980
30247000,0.0324,0.013523,0.002678,0.000431,0.004701
30248000,0.0324,0.013523,0.002678,0.000431,0.019745
30249000,0.0324,0.013523,0.002678,0.000431,0.004701
30250000,0.0324,0.013523,0.002678,0.000431,0.004701
30251000,0.0324,0.013523,0.002678,0.000431,0.004701
30252000,0.0324,0.013523,0.002678,0.000431,0.015984
30253000,0.0324,0.013523,0.002678,0.000431,0.023506
30254000,0.0324,0.013523,0.002678,0.000431,0.004701
30255000,0.0324,0.013523,0.002678,0.000431,0.017864
30256000,0.0324,0.013523,0.002678,0.000431,0.036669
30257000,0.0324,0.013523,0.002678,0.000431,0.004701
30258000,0.0324,0.013523,0.002678,0.000431,0.004701
30259000,0.0324,0.013523,0.002678,0.000431,0.137155
30260000,0.0324,0.013523,0.002678,0.000431,0.037256
30261000,0.0324,0.013523,0.002678,0.000431,0.012223
30262000,0.0324,0.013523,0.002678,0.000431,0.004701
30263000,0.0324,0.013523,0.002678,0.000431,0.095785
30264000,0.0324,0.013523,0.002678,0.000431,0.118116
30265000,0.0324,0.013523,0.002678,0.000431,0.025151
30266000,0.0324,0.013523,0.002678,0.000431,0.004701
30267000,0.0324,0.013523,0.002678,0.000431,0.004701
30268000,0.0324,0.013523,0.002678,0.000431,0.004701
30269000,0.0324,0.013523,0.002678,0.000431,0.012223
30270000,0.0324,0.013523,0.002678,0.000431,0.087911
30271000,0.0324,0.013523,0.002678,0.000431,0.012223
30272000,0.0324,0.013523,0.002678,0.000431,0.004701
30273000,0.0324,0.013523,0.002678,0.000431,0.057471
30274000,0.0324,0.013523,0.002678,0.000431,0.004349
30275000,0.0324,0.013523,0.002678,0.000431,0.004701
30276000,0.0324,0.013523,0.002678,0.000431,0.046659
30277000,0.0324,0.013523,0.002678,0.000431,0.015396
30278000,0.0324,0.013523,0.002678,0.000431,0.004701
30279000,0.0324,0.013523,0.002678,0.000431,0.026796
30280000,0.0324,0.013523,0.002678,0.000431,0.027972
30281000,0.0324,0.013523,0.002678,0.000431,0.004701
30282000,0.0324,0.013523,0.002678,0.000431,0.049832
30283000,0.0324,0.013523,0.002678,0.000431,0.004701
30284000,0.0324,0.013523,0.002678,0.000431,0.004701
30285000,0.0324,0.013523,0.002678,0.000431,0.004936
30286000,0.0324,0.013523,0.002678,0.000431,0.072397
30287000,0.0324,0.013523,0.002678,0.000431,0.035258
30288000,0.0324,0.013523,0.002678,0.000431,0.004701
30289000,0.0324,0.013523,0.002678,0.000431,0.012105
30290000,0.0324,0.013523,0.002678,0.000431,0.012340
30291000,0.0324,0.013523,0.002678,0.000431,0.004701
30292000,0.0324,0.013523,0.002678,0.000431,0.012223
30293000,0.0324,0.013523,0.002678,0.000431,0.042310
30294000,0.0324,0.013523,0.002678,0.000431,0.004701
30295000,0.0324,0.013523,0.002678,0.000431,0.011400
30296000,0.0324,0.013523,0.002678,0.000431,0.050890
30297000,0.0324,0.013523,0.002678,0.000431,0.004701
30298000,0.0324,0.013523,0.002678,0.000431,0.004701
30299000,0.0324,0.013523,0.002678,0.000431,0.136450
30300000,0.0324,0.013523,0.002678,0.000431,0.023388
30301000,0.0324,0.013523,0.002678,0.000431,0.004701
30302000,0.0324,0.013523,0.002678,0.000431,0.004701
30303000,0.0324,0.013523,0.002678,0.000431,0.004701
30304000,0.0324,0.013523,0.002678,0.000431,0.004584
30305000,0.0324,0.013523,0.002678,0.000431,0.004466
30306000,0.0324,0.013523,0.002678,0.000431,0.004819
30307000,0.0324,0.013523,0.002678,0.000431,0.004701
30308000,0.0324,0.013523,0.002678,0.000431,0.022800
30309000,0.0324,0.013523,0.002678,0.000431,0.076863
30310000,0.0324,0.013523,0.002678,0.000431,0.004701
30311000,0.0324,0.013523,0.002678,0.000431,0.019745
30312000,0.0324,0.013523,0.002678,0.000431,0.019745
30313000,0.0324,0.013523,0.002678,0.000431,0.004584
30314000,0.0324,0.013523,0.002678,0.000431,0.004349
30315000,0.0324,0.013523,0.002678,0.000431,0.024328
30316000,0.0324,0.013523,0.002678,0.000431,0.007639
30317000,0.0324,0.013523,0.002678,0.000431,0.046306
30318000,0.0324,0.013523,0.002678,0.000431,0.079919
30319000,0.0324,0.013523,0.002678,0.000431,0.020097
30320000,0.0324,0.013523,0.002678,0.000431,0.015631
30321000,0.0324,0.013523,0.002678,0.000431,0.019745
30322000,0.0324,0.013523,0.002678,0.000431,0.004701
30323000,0.0324,0.013523,0.002678,0.000431,0.004701
30324000,0.0324,0.013523,0.002678,0.000431,0.004701
30325000,0.0324,0.013523,0.002678,0.000431,0.034788
30326000,0.0324,0.013523,0.002678,0.000431,0.019745
30327000,0.0324,0.013523,0.002678,0.000431,0.004701
30328000,0.0324,0.013523,0.002678,0.000431,0.004701
30329000,0.0324,0.013523,0.002678,0.000431,0.018805
30330000,0.0324,0.013523,0.002678,0.000431,0.053828
30331000,0.0324,0.013523,0.002678,0.000431,0.054063
30332000,0.0324,0.013523,0.002678,0.000431,0.008462
30333000,0.0324,0.013523,0.002678,0.000431,0.008462
30334000,0.0324,0.013523,0.002678,0.000431,0.004701
30335000,0.0324,0.013523,0.002678,0.000431,0.004701
30336000,0.0324,0.013523,0.002678,0.000431,0.004466
30337000,0.0324,0.013523,0.002678,0.000431,0.034788
30338000,0.0324,0.013523,0.002678,0.000431,0.027267
30339000,0.0324,0.013523,0.002678,0.000431,0.004701
30340000,0.0324,0.013523,0.002678,0.000431,0.027267
30341000,0.0324,0.013523,0.002678,0.000431,0.004701
30342000,0.0324,0.013523,0.002678,0.000431,0.004701
30343000,0.0324,0.013523,0.002678,0.000431,0.008462
30344000,0.0324,0.013523,0.002678,0.000431,0.015984
30345000,0.0324,0.013523,0.002678,0.000431,0.004701
30346000,0.0324,0.013523,0.002678,0.000431,0.005994
30347000,0.0324,0.013523,0.002678,0.000431,0.056061
30348000,0.0324,0.013523,0.002678,0.000431,0.004701
30349000,0.0324,0.013523,0.002678,0.000431,0.004466
30350000,0.0324,0.013523,0.002678,0.000431,0.036786
30351000,0.0324,0.013523,0.002678,0.000431,0.017747
30352000,0.0324,0.013523,0.002678,0.000431,0.034788
30353000,0.0324,0.013523,0.002678,0.000431,0.004701
30354000,0.0324,0.013523,0.002678,0.000431,0.004466
30355000,0.0324,0.013523,0.002678,0.000431,0.057354
30356000,0.0324,0.013523,0.002678,0.000431,0.042428
30357000,0.0324,0.013523,0.002678,0.000431,0.090614
30358000,0.0324,0.013523,0.002678,0.000431,0.106716
30359000,0.0324,0.013523,0.002678,0.000431,0.004701
30360000,0.0324,0.013523,0.002678,0.000431,0.004701
30361000,0.0324,0.013523,0.002678,0.000431,0.004701
30362000,0.0324,0.013523,0.002678,0.000431,0.004701
30363000,0.0324,0.013523,0.002678,0.000431,0.004701
30364000,0.0324,0.013523,0.002678,0.000431,0.020215
30365000,0.0324,0.013523,0.002678,0.000431,0.012223
30366000,0.0324,0.013523,0.002678,0.000431,0.004701
30367000,0.0324,0.013523,0.002678,0.000431,0.004584
30368000,0.0324,0.013523,0.002678,0.000431,0.004584
30369000,0.0324,0.013523,0.002678,0.000431,0.026914
30370000,0.0324,0.013523,0.002678,0.000431,0.054063
30371000,0.0324,0.013523,0.002678,0.000431,0.045954
30372000,0.0324,0.013523,0.002678,0.000431,0.004701
30373000,0.0324,0.013523,0.002678,0.000431,0.004701
30374000,0.0324,0.013523,0.002678,0.000431,0.004701
30375000,0.0324,0.013523,0.002678,0.000431,0.004466
30376000,0.0324,0.013523,0.002678,0.000431,0.052888
30377000,0.0324,0.013523,0.002678,0.000431,0.077686
30378000,0.0324,0.013523,0.002678,0.000431,0.049479
30379000,0.0324,0.013523,0.002678,0.000431,0.017747
30380000,0.0324,0.013523,0.002678,0.000431,0.037256
30381000,0.0324,0.013523,0.002678,0.000431,0.004701
30382000,0.0324,0.013523,0.002678,0.000431,0.038432
30383000,0.0324,0.013523,0.002678,0.000431,0.114120
30384000,0.0324,0.013523,0.002678,0.000431,0.102720
30385000,0.0324,0.013523,0.002678,0.000431,0.004701
30386000,0.0324,0.013523,0.002678,0.000431,0.004701
30387000,0.0324,0.013523,0.002678,0.000431,0.004701
30388000,0.0324,0.013523,0.002678,0.000431,0.004701
30389000,0.0324,0.013523,0.002678,0.000431,0.004701
30390000,0.0324,0.013523,0.002678,0.000431,0.015984
30391000,0.0324,0.013523,0.002678,0.000431,0.015984
30392000,0.0324,0.013523,0.002678,0.000431,0.004466
30393000,0.0324,0.013523,0.002678,0.000431,0.012223
30394000,0.0324,0.013523,0.002678,0.000431,0.004701
30395000,0.0324,0.013523,0.002678,0.000431,0.012223
30396000,0.0324,0.013523,0.002678,0.000431,0.012223
30397000,0.0324,0.013523,0.002678,0.000431,0.034788
30398000,0.0324,0.013523,0.002678,0.000431,0.027267
30399000,0.0324,0.013523,0.002678,0.000431,0.019745
30400000,0.0324,0.013523,0.002678,0.000431,0.004701
30401000,0.0324,0.013523,0.002678,0.000431,0.019745
30402000,0.0324,0.013523,0.002678,0.000431,0.039489
30403000,0.0324,0.013523,0.002678,0.000431,0.049949
30404000,0.0324,0.013523,0.002678,0.000431,0.011165
30405000,0.0324,0.013523,0.002678,0.000431,0.057119
30406000,0.0324,0.013523,0.002678,0.000431,0.105775
30407000,0.0324,0.013523,0.002678,0.000431,0.050185
30408000,0.0324,0.013523,0.002678,0.000431,0.004584
30409000,0.0324,0.013523,0.002678,0.000431,0.042075
30410000,0.0324,0.013523,0.002678,0.000431,0.004936
30411000,0.0324,0.013523,0.002678,0.000431,0.004466
30412000,0.0324,0.013523,0.002678,0.000431,0.198153
30413000,0.0324,0.013523,0.002678,0.000431,0.043956
30414000,0.0324,0.013523,0.002678,0.000431,0.004466
30415000,0.0324,0.013523,0.002678,0.000431,0.004701
30416000,0.0324,0.013523,0.002678,0.000431,0.087441
30417000,0.0324,0.013523,0.002678,0.000431,0.004701
30418000,0.0324,0.013523,0.002678,0.000431,0.004701
30419000,0.0324,0.013523,0.002678,0.000431,0.019745
30420000,0.0324,0.013523,0.002678,0.000431,0.042310
30421000,0.0324,0.013523,0.002678,0.000431,0.004701
30422000,0.0324,0.013523,0.002678,0.000431,0.004701
30423000,0.0324,0.013523,0.002678,0.000431,0.004701
30424000,0.0324,0.013523,0.002678,0.000431,0.004701
30425000,0.0324,0.013523,0.002678,0.000431,0.020685
30426000,0.0324,0.013523,0.002678,0.000431,0.075101
30427000,0.0324,0.013523,0.002678,0.000431,0.008345
30428000,0.0324,0.013523,0.002678,0.000431,0.004701
30429000,0.0324,0.013523,0.002678,0.000431,0.019745
30430000,0.0324,0.013523,0.002678,0.000431,0.004701
30431000,0.0324,0.013523,0.002678,0.000431,0.004701
30432000,0.0324,0.013523,0.002678,0.000431,0.064993
30433000,0.0324,0.013523,0.002678,0.000431,0.004819
30434000,0.0324,0.013523,0.002678,0.000431,0.005759
30435000,0.0324,0.013523,0.002678,0.000431,0.026209
30436000,0.0324,0.013523,0.002678,0.000431,0.004701
30437000,0.0324,0.013523,0.002678,0.000431,0.004701
30438000,0.0324,0.013523,0.002678,0.000431,0.065111
30439000,0.0324,0.013523,0.002678,0.000431,0.031027
30440000,0.0324,0.013523,0.002678,0.000431,0.008462
30441000,0.0324,0.013523,0.002678,0.000431,0.008462
30442000,0.0324,0.013523,0.002678,0.000431,0.008462
30443000,0.0324,0.013523,0.002678,0.000431,0.012458
30444000,0.0324,0.013523,0.002678,0.000431,0.004701
30445000,0.0324,0.013523,0.002678,0.000431,0.004701
30446000,0.0324,0.013523,0.002678,0.000431,0.008462
30447000,0.0324,0.013523,0.002678,0.000431,0.015984
30448000,0.0324,0.013523,0.002678,0.000431,0.019980
30449000,0.0324,0.013523,0.002678,0.000431,0.004701
30450000,0.0324,0.013523,0.002678,0.000431,0.004701
30451000,0.0324,0.013523,0.002678,0.000431,0.061350
30452000,0.0324,0.013523,0.002678,0.000431,0.046071
30453000,0.0324,0.013523,0.002678,0.000431,0.004466
30454000,0.0324,0.013523,0.002678,0.000431,0.022213
30455000,0.0324,0.013523,0.002678,0.000431,0.009520
30456000,0.0324,0.013523,0.002678,0.000431,0.004701
30457000,0.0324,0.013523,0.002678,0.000431,0.019745
30458000,0.0324,0.013523,0.002678,0.000431,0.019745
30459000,0.0324,0.013523,0.002678,0.000431,0.004701
30460000,0.0324,0.013523,0.002678,0.000431,0.004701
30461000,0.0324,0.013523,0.002678,0.000431,0.019745
30462000,0.0324,0.013523,0.002678,0.000431,0.004701
30463000,0.0324,0.013523,0.002678,0.000431,0.004466
30464000,0.0324,0.013523,0.002678,0.000431,0.042310
30465000,0.0324,0.013523,0.002678,0.000431,0.004701
30466000,0.0324,0.013523,0.002678,0.000431,0.004466
30467000,0.0324,0.013523,0.002678,0.000431,0.015984
30468000,0.0324,0.013523,0.002678,0.000431,0.008462
30469000,0.0324,0.013523,0.002678,0.000431,0.004701
30470000,0.0324,0.013523,0.002678,0.000431,0.008462
30471000,0.0324,0.013523,0.002678,0.000431,0.023506
30472000,0.0324,0.013523,0.002678,0.000431,0.004701
30473000,0.0324,0.013523,0.002678,0.000431,0.004701
30474000,0.0324,0.013523,0.002678,0.000431,0.004701
30475000,0.0324,0.013523,0.002678,0.000431,0.004701
30476000,0.0324,0.013523,0.002678,0.000431,0.012223
30477000,0.0324,0.013523,0.002678,0.000431,0.019745
30478000,0.0324,0.013523,0.002678,0.000431,0.004701
30479000,0.0324,0.013523,0.002678,0.000431,0.004701
30480000,0.0324,0.013523,0.002678,0.000431,0.004701
30481000,0.0324,0.013523,0.002678,0.000431,0.004701
30482000,0.0324,0.013523,0.002678,0.000431,0.004701
30483000,0.0324,0.013523,0.002678,0.000431,0.019745
30484000,0.0324,0.013523,0.002678,0.000431,0.004701
30485000,0.0324,0.013523,0.002678,0.000431,0.004701
30486000,0.0324,0.013523,0.002678,0.000431,0.004701
30487000,0.0324,0.013523,0.002678,0.000431,0.004701
30488000,0.0324,0.013523,0.002678,0.000431,0.004701
30489000,0.0324,0.013523,0.002678,0.000431,0.054298
30490000,0.0324,0.013523,0.002678,0.000431,0.045366
30491000,0.0324,0.013523,0.002678,0.000431,0.004701
30492000,0.0324,0.013523,0.002678,0.000431,0.004701
30493000,0.0324,0.013523,0.002678,0.000431,0.004466
30494000,0.0324,0.013523,0.002678,0.000431,0.004466
30495000,0.0324,0.013523,0.002678,0.000431,0.037021
30496000,0.0324,0.013523,0.002678,0.000431,0.092730
30497000,0.0324,0.013523,0.002678,0.000431,0.012223
30498000,0.0324,0.013523,0.002678,0.000431,0.004701
30499000,0.0324,0.013523,0.002678,0.000431,0.004584
30500000,0.0324,0.013523,0.002678,0.000431,0.004584
30501000,0.0324,0.013523,0.002678,0.000431,0.004701
30502000,0.0324,0.013523,0.002678,0.000431,0.064876
30503000,0.0324,0.013523,0.002678,0.000431,0.095198
30504000,0.0324,0.013523,0.002678,0.000431,0.210611
30505000,0.0324,0.013523,0.002678,0.000431,0.015984
30506000,0.0324,0.013523,0.002678,0.000431,0.004701
30507000,0.0324,0.013523,0.002678,0.000431,0.004701
30508000,0.0324,0.013523,0.002678,0.000431,0.004701
30509000,0.0324,0.013523,0.002678,0.000431,0.150319
30510000,0.0324,0.013523,0.002678,0.000431,0.084268
30511000,0.0324,0.013523,0.002678,0.000431,0.004701
30512000,0.0324,0.013523,0.002678,0.000431,0.004701
30513000,0.0324,0.013523,0.002678,0.000431,0.004701
30514000,0.0324,0.013523,0.002678,0.000431,0.004701
30515000,0.0324,0.013523,0.002678,0.000431,0.108243
30516000,0.0324,0.013523,0.002678,0.000431,0.029617
30517000,0.0324,0.013523,0.002678,0.000431,0.026444
30518000,0.0324,0.013523,0.002678,0.000431,0.004701
30519000,0.0324,0.013523,0.002678,0.000431,0.004701
30520000,0.0324,0.013523,0.002678,0.000431,0.004701
30521000,0.0324,0.013523,0.002678,0.000431,0.042310
30522000,0.0324,0.013523,0.002678,0.000431,0.042310
30523000,0.0324,0.013523,0.002678,0.000431,0.072632
30524000,0.0324,0.013523,0.002678,0.000431,0.004701
30525000,0.0324,0.013523,0.002678,0.000431,0.004701
30526000,0.0324,0.013523,0.002678,0.000431,0.004701
30527000,0.0324,0.013523,0.002678,0.000431,0.011518
30528000,0.0324,0.013523,0.002678,0.000431,0.035258
30529000,0.0324,0.013523,0.002678,0.000431,0.004936
30530000,0.0324,0.013523,0.002678,0.000431,0.004466
30531000,0.0324,0.013523,0.002678,0.000431,0.004701
30532000,0.0324,0.013523,0.002678,0.000431,0.004701
30533000,0.0324,0.013523,0.002678,0.000431,0.004701
30534000,0.0324,0.013523,0.002678,0.000431,0.039842
30535000,0.0324,0.013523,0.002678,0.000431,0.037256
30536000,0.0324,0.013523,0.002678,0.000431,0.004701
30537000,0.0324,0.013523,0.002678,0.000431,0.004701
30538000,0.0324,0.013523,0.002678,0.000431,0.004701
30539000,0.0324,0.013523,0.002678,0.000431,0.004584
30540000,0.0324,0.013523,0.002678,0.000431,0.004584
30541000,0.0324,0.013523,0.002678,0.000431,0.004701
30542000,0.0324,0.013523,0.002678,0.000431,0.050067
30543000,0.0324,0.013523,0.002678,0.000431,0.004584
30544000,0.0324,0.013523,0.002678,0.000431,0.004584
30545000,0.0324,0.013523,0.002678,0.000431,0.004701
30546000,0.0324,0.013523,0.002678,0.000431,0.004701
30547000,0.0324,0.013523,0.002678,0.000431,0.068401
30548000,0.0324,0.013523,0.002678,0.000431,0.016219
30549000,0.0324,0.013523,0.002678,0.000431,0.004701
30550000,0.0324,0.013523,0.002678,0.000431,0.004701
30551000,0.0324,0.013523,0.002678,0.000431,0.004701
30552000,0.0324,0.013523,0.002678,0.000431,0.004701
30553000,0.0324,0.013523,0.002678,0.000431,0.004701
30554000,0.0324,0.013523,0.002678,0.000431,0.004701
30555000,0.0324,0.013523,0.002678,0.000431,0.012223
30556000,0.0324,0.013523,0.002678,0.000431,0.004701
30557000,0.0324,0.013523,0.002678,0.000431,0.004701
30558000,0.0324,0.013523,0.002678,0.000431,0.004701
30559000,0.0324,0.013523,0.002678,0.000431,0.004701
30560000,0.0324,0.013523,0.002678,0.000431,0.019745
30561000,0.0324,0.013523,0.002678,0.000431,0.004701
30562000,0.0324,0.013523,0.002678,0.000431,0.004701
30563000,0.0324,0.013523,0.002678,0.000431,0.004701
30564000,0.0324,0.013523,0.002678,0.000431,0.004701
30565000,0.0324,0.013523,0.002678,0.000431,0.004701
30566000,0.0324,0.013523,0.002678,0.000431,0.004701
30567000,0.0324,0.013523,0.002678,0.000431,0.019627
30568000,0.0324,0.013523,0.002678,0.000431,0.004584
30569000,0.0324,0.013523,0.002678,0.000431,0.004701
30570000,0.0324,0.013523,0.002678,0.000431,0.004466
30571000,0.0324,0.013523,0.002678,0.000431,0.004701
30572000,0.0324,0.013523,0.002678,0.000431,0.008580
30573000,0.0324,0.013523,0.002678,0.000431,0.068519
30574000,0.0324,0.013523,0.002678,0.000431,0.023506
30575000,0.0324,0.013523,0.002678,0.000431,0.008462
30576000,0.0324,0.013523,0.002678,0.000431,0.004701
30577000,0.0324,0.013523,0.002678,0.000431,0.004701
30578000,0.0324,0.013523,0.002678,0.000431,0.004701
30579000,0.0324,0.013523,0.002678,0.000431,0.019862
30580000,0.0324,0.013523,0.002678,0.000431,0.038667
30581000,0.0324,0.013523,0.002678,0.000431,0.008462
30582000,0.0324,0.013523,0.002678,0.000431,0.004701
30583000,0.0324,0.013523,0.002678,0.000431,0.004701
30584000,0.0324,0.013523,0.002678,0.000431,0.004466
30585000,0.0324,0.013523,0.002678,0.000431,0.012223
30586000,0.0324,0.013523,0.002678,0.000431,0.042310
30587000,0.0324,0.013523,0.002678,0.000431,0.019745
30588000,0.0324,0.013523,0.002678,0.000431,0.004701
30589000,0.0324,0.013523,0.002678,0.000431,0.004701
30590000,0.0324,0.013523,0.002678,0.000431,0.004701
30591000,0.0324,0.013523,0.002678,0.000431,0.004701
30592000,0.0324,0.013523,0.002678,0.000431,0.042310
30593000,0.0324,0.013523,0.002678,0.000431,0.035023
30594000,0.0324,0.013523,0.002678,0.000431,0.027502
30595000,0.0324,0.013523,0.002678,0.000431,0.004701
30596000,0.0324,0.013523,0.002678,0.000431,0.004701
30597000,0.0324,0.013523,0.002678,0.000431,0.004701
30598000,0.0324,0.013523,0.002678,0.000431,0.037374
30599000,0.0324,0.013523,0.002678,0.000431,0.114943
30600000,0.0324,0.013523,0.002678,0.000431,0.064876
30601000,0.0324,0.013523,0.002678,0.000431,0.004701
30602000,0.0324,0.013523,0.002678,0.000431,0.004701
30603000,0.0324,0.013523,0.002678,0.000431,0.004701
30604000,0.0324,0.013523,0.002678,0.000431,0.004701
30605000,0.0324,0.013523,0.002678,0.000431,0.057354
30606000,0.0324,0.013523,0.002678,0.000431,0.078509
30607000,0.0324,0.013523,0.002678,0.000431,0.170298
30608000,0.0324,0.013523,0.002678,0.000431,0.064758
30609000,0.0324,0.013523,0.002678,0.000431,0.004584
30610000,0.0324,0.013523,0.002678,0.000431,0.012105
30611000,0.0324,0.013523,0.002678,0.000431,0.057471
30612000,0.0324,0.013523,0.002678,0.000431,0.139976
30613000,0.0324,0.013523,0.002678,0.000431,0.012223
30614000,0.0324,0.013523,0.002678,0.000431,0.102485
30615000,0.0324,0.013523,0.002678,0.000431,0.004701
30616000,0.0324,0.013523,0.002678,0.000431,0.004701
30617000,0.0324,0.013523,0.002678,0.000431,0.004701
30618000,0.0324,0.013523,0.002678,0.000431,0.073925
30619000,0.0324,0.013523,0.002678,0.000431,0.101192
30620000,0.0324,0.013523,0.002678,0.000431,0.019275
30621000,0.0324,0.013523,0.002678,0.000431,0.004701
30622000,0.0324,0.013523,0.002678,0.000431,0.004584
30623000,0.0324,0.013523,0.002678,0.000431,0.004584
30624000,0.0324,0.013523,0.002678,0.000431,0.004701
30625000,0.0324,0.013523,0.002678,0.000431,0.004701
30626000,0.0324,0.013523,0.002678,0.000431,0.004701
30627000,0.0324,0.013523,0.002678,0.000431,0.027267
30628000,0.0324,0.013523,0.002678,0.000431,0.004701
30629000,0.0324,0.013523,0.002678,0.000431,0.004701
30630000,0.0324,0.013523,0.002678,0.000431,0.004701
30631000,0.0324,0.013523,0.002678,0.000431,0.019745
30632000,0.0324,0.013523,0.002678,0.000431,0.110712
30633000,0.0324,0.013523,0.002678,0.000431,0.071222
30634000,0.0324,0.013523,0.002678,0.000431,0.004701
30635000,0.0324,0.013523,0.002678,0.000431,0.004701
30636000,0.0324,0.013523,0.002678,0.000431,0.004701
30637000,0.0324,0.013523,0.002678,0.000431,0.004701
30638000,0.0324,0.013523,0.002678,0.000431,0.019980
30639000,0.0324,0.013523,0.002678,0.000431,0.004701
30640000,0.0324,0.013523,0.002678,0.000431,0.019745
30641000,0.0324,0.013523,0.002678,0.000431,0.004701
30642000,0.0324,0.013523,0.002678,0.000431,0.004584
30643000,0.0324,0.013523,0.002678,0.000431,0.004584
30644000,0.0324,0.013523,0.002678,0.000431,0.057354
30645000,0.0324,0.013523,0.002678,0.000431,0.004701
30646000,0.0324,0.013523,0.002678,0.000431,0.004701
30647000,0.0324,0.013523,0.002678,0.000431,0.004701
30648000,0.0324,0.013523,0.002678,0.000431,0.004701
30649000,0.0324,0.013523,0.002678,0.000431,0.004701
30650000,0.0324,0.013523,0.002678,0.000431,0.038549
30651000,0.0324,0.013523,0.002678,0.000431,0.046541
30652000,0.0324,0.013523,0.002678,0.000431,0.008462
30653000,0.0324,0.013523,0.002678,0.000431,0.008462
30654000,0.0324,0.013523,0.002678,0.000431,0.004701
30655000,0.0324,0.013523,0.002678,0.000431,0.004584
30656000,0.0324,0.013523,0.002678,0.000431,0.004584
30657000,0.0324,0.013523,0.002678,0.000431,0.019510
30658000,0.0324,0.013523,0.002678,0.000431,0.008462
30659000,0.0324,0.013523,0.002678,0.000431,0.023741
30660000,0.0324,0.013523,0.002678,0.000431,0.004701
30661000,0.0324,0.013523,0.002678,0.000431,0.004701
30662000,0.0324,0.013523,0.002678,0.000431,0.004701
30663000,0.0324,0.013523,0.002678,0.000431,0.034788
30664000,0.0324,0.013523,0.002678,0.000431,0.034788
30665000,0.0324,0.013523,0.002678,0.000431,0.011988
30666000,0.0324,0.013523,0.002678,0.000431,0.012223
30667000,0.0324,0.013523,0.002678,0.000431,0.004701
30668000,0.0324,0.013523,0.002678,0.000431,0.004701
30669000,0.0324,0.013523,0.002678,0.000431,0.008462
30670000,0.0324,0.013523,0.002678,0.000431,0.008462
30671000,0.0324,0.013523,0.002678,0.000431,0.004701
30672000,0.0324,0.013523,0.002678,0.000431,0.012223
30673000,0.0324,0.013523,0.002678,0.000431,0.012223
30674000,0.0324,0.013523,0.002678,0.000431,0.004701
30675000,0.0324,0.013523,0.002678,0.000431,0.004701
30676000,0.0324,0.013523,0.002678,0.000431,0.057354
30677000,0.0324,0.013523,0.002678,0.000431,0.019745
30678000,0.0324,0.013523,0.002678,0.000431,0.019745
30679000,0.0324,0.013523,0.002678,0.000431,0.004701
30680000,0.0324,0.013523,0.002678,0.000431,0.004701
30681000,0.0324,0.013523,0.002678,0.000431,0.004701
30682000,0.0324,0.013523,0.002678,0.000431,0.004584
30683000,0.0324,0.013523,0.002678,0.000431,0.012105
30684000,0.0324,0.013523,0.002678,0.000431,0.027267
30685000,0.0324,0.013523,0.002678,0.000431,0.042310
30686000,0.0324,0.013523,0.002678,0.000431,0.004701
30687000,0.0324,0.013523,0.002678,0.000431,0.004701
30688000,0.0324,0.013523,0.002678,0.000431,0.004701
30689000,0.0324,0.013523,0.002678,0.000431,0.125990
30690000,0.0324,0.013523,0.002678,0.000431,0.011283
30691000,0.0324,0.013523,0.002678,0.000431,0.027267
30692000,0.0324,0.013523,0.002678,0.000431,0.004701
30693000,0.0324,0.013523,0.002678,0.000431,0.004701
30694000,0.0324,0.013523,0.002678,0.000431,0.004701
30695000,0.0324,0.013523,0.002678,0.000431,0.015631
30696000,0.0324,0.013523,0.002678,0.000431,0.023388
30697000,0.0324,0.013523,0.002678,0.000431,0.042898
30698000,0.0324,0.013523,0.002678,0.000431,0.049009
30699000,0.0324,0.013523,0.002678,0.000431,0.004701
30700000,0.0324,0.013523,0.002678,0.000431,0.004701
30701000,0.0324,0.013523,0.002678,0.000431,0.004701
30702000,0.0324,0.013523,0.002678,0.000431,0.004701
30703000,0.0324,0.013523,0.002678,0.000431,0.021508
30704000,0.0324,0.013523,0.002678,0.000431,0.132337
30705000,0.0324,0.013523,0.002678,0.000431,0.010342
30706000,0.0324,0.013523,0.002678,0.000431,0.004584
30707000,0.0324,0.013523,0.002678,0.000431,0.004701
30708000,0.0324,0.013523,0.002678,0.000431,0.004701
30709000,0.0324,0.013523,0.002678,0.000431,0.034788
30710000,0.0324,0.013523,0.002678,0.000431,0.020685
30711000,0.0324,0.013523,0.002678,0.000431,0.056414
30712000,0.0324,0.013523,0.002678,0.000431,0.004701
30713000,0.0324,0.013523,0.002678,0.000431,0.004701
30714000,0.0324,0.013523,0.002678,0.000431,0.004701
30715000,0.0324,0.013523,0.002678,0.000431,0.070164
30716000,0.0324,0.013523,0.002678,0.000431,0.033496
30717000,0.0324,0.013523,0.002678,0.000431,0.076276
30718000,0.0324,0.013523,0.002678,0.000431,0.012340
30719000,0.0324,0.013523,0.002678,0.000431,0.004701
30720000,0.0324,0.013523,0.002678,0.000431,0.004584
30721000,0.0324,0.013523,0.002678,0.000431,0.017512
30722000,0.0324,0.013523,0.002678,0.000431,0.036904
30723000,0.0324,0.013523,0.002678,0.000431,0.027267
30724000,0.0324,0.013523,0.002678,0.000431,0.004701
30725000,0.0324,0.013523,0.002678,0.000431,0.004701
30726000,0.0324,0.013523,0.002678,0.000431,0.004701
30727000,0.0324,0.013523,0.002678,0.000431,0.005054
30728000,0.0324,0.013523,0.002678,0.000431,0.098371
30729000,0.0324,0.013523,0.002678,0.000431,0.055826
30730000,0.0324,0.013523,0.002678,0.000431,0.032555
30731000,0.0324,0.013523,0.002678,0.000431,0.004701
30732000,0.0324,0.013523,0.002678,0.000431,0.004701
30733000,0.0324,0.013523,0.002678,0.000431,0.004701
30734000,0.0324,0.013523,0.002678,0.000431,0.042310
30735000,0.0324,0.013523,0.002678,0.000431,0.042075
30736000,0.0324,0.013523,0.002678,0.000431,0.049832
30737000,0.0324,0.013523,0.002678,0.000431,0.004701
30738000,0.0324,0.013523,0.002678,0.000431,0.004701
30739000,0.0324,0.013523,0.002678,0.000431,0.004701
30740000,0.0324,0.013523,0.002678,0.000431,0.008462
30741000,0.0324,0.013523,0.002678,0.000431,0.008462
30742000,0.0324,0.013523,0.002678,0.000431,0.004701
30743000,0.0324,0.013523,0.002678,0.000431,0.004701
30744000,0.0324,0.013523,0.002678,0.000431,0.004701
30745000,0.0324,0.013523,0.002678,0.000431,0.004701
30746000,0.0324,0.013523,0.002678,0.000431,0.004701
30747000,0.0324,0.013523,0.002678,0.000431,0.036316
30748000,0.0324,0.013523,0.002678,0.000431,0.011165
30749000,0.0324,0.013523,0.002678,0.000431,0.004701
30750000,0.0324,0.013523,0.002678,0.000431,0.004701
30751000,0.0324,0.013523,0.002678,0.000431,0.004701
30752000,0.0324,0.013523,0.002678,0.000431,0.004701
30753000,0.0324,0.013523,0.002678,0.000431,0.049244
30754000,0.0324,0.013523,0.002678,0.000431,0.080037
30755000,0.0324,0.013523,0.002678,0.000431,0.015161
30756000,0.0324,0.013523,0.002678,0.000431,0.032085
30757000,0.0324,0.013523,0.002678,0.000431,0.004701
30758000,0.0324,0.013523,0.002678,0.000431,0.004701
30759000,0.0324,0.013523,0.002678,0.000431,0.004701
30760000,0.0324,0.013523,0.002678,0.000431,0.019392
30761000,0.0324,0.013523,0.002678,0.000431,0.004584
30762000,0.0324,0.013523,0.002678,0.000431,0.004701
30763000,0.0324,0.013523,0.002678,0.000431,0.012223
30764000,0.0324,0.013523,0.002678,0.000431,0.004701
30765000,0.0324,0.013523,0.002678,0.000431,0.004701
30766000,0.0324,0.013523,0.002678,0.000431,0.009637
30767000,0.0324,0.013523,0.002678,0.000431,0.022095
30768000,0.0324,0.013523,0.002678,0.000431,0.004701
30769000,0.0324,0.013523,0.002678,0.000431,0.004466
30770000,0.0324,0.013523,0.002678,0.000431,0.004701
30771000,0.0324,0.013523,0.002678,0.000431,0.004701
30772000,0.0324,0.013523,0.002678,0.000431,0.004701
30773000,0.0324,0.013523,0.002678,0.000431,0.064876
30774000,0.0324,0.013523,0.002678,0.000431,0.012223
30775000,0.0324,0.013523,0.002678,0.000431,0.004701
30776000,0.0324,0.013523,0.002678,0.000431,0.004466
30777000,0.0324,0.013523,0.002678,0.000431,0.004701
30778000,0.0324,0.013523,0.002678,0.000431,0.004701
30779000,0.0324,0.013523,0.002678,0.000431,0.015984
30780000,0.0324,0.013523,0.002678,0.000431,0.034788
30781000,0.0324,0.013523,0.002678,0.000431,0.019745
30782000,0.0324,0.013523,0.002678,0.000431,0.008462
30783000,0.0324,0.013523,0.002678,0.000431,0.004701
30784000,0.0324,0.013523,0.002678,0.000431,0.004701
30785000,0.0324,0.013523,0.002678,0.000431,0.004701
30786000,0.0324,0.013523,0.002678,0.000431,0.004701
30787000,0.0324,0.013523,0.002678,0.000431,0.004701
30788000,0.0324,0.013523,0.002678,0.000431,0.019745
30789000,0.0324,0.013523,0.002678,0.000431,0.027267
30790000,0.0324,0.013523,0.002678,0.000431,0.004701
30791000,0.0324,0.013523,0.002678,0.000431,0.004701
30792000,0.0324,0.013523,0.002678,0.000431,0.004701
30793000,0.0324,0.013523,0.002678,0.000431,0.008345
30794000,0.0324,0.013523,0.002678,0.000431,0.038667
30795000,0.0324,0.013523,0.002678,0.000431,0.004701
30796000,0.0324,0.013523,0.002678,0.000431,0.004701
30797000,0.0324,0.013523,0.002678,0.000431,0.004701
30798000,0.0324,0.013523,0.002678,0.000431,0.004701
30799000,0.0324,0.013523,0.002678,0.000431,0.004701
30800000,0.0324,0.013523,0.002678,0.000431,0.019510
30801000,0.0324,0.013523,0.002678,0.000431,0.004466
30802000,0.0324,0.013523,0.002678,0.000431,0.019745
30803000,0.0324,0.013523,0.002678,0.000431,0.004701
30804000,0.0324,0.013523,0.002678,0.000431,0.004701
30805000,0.0324,0.013523,0.002678,0.000431,0.027267
30806000,0.0324,0.013523,0.002678,0.000431,0.015984
30807000,0.0324,0.013523,0.002678,0.000431,0.023506
30808000,0.0324,0.013523,0.002678,0.000431,0.004701
30809000,0.0324,0.013523,0.002678,0.000431,0.004466
30810000,0.0324,0.013523,0.002678,0.000431,0.004701
30811000,0.0324,0.013523,0.002678,0.000431,0.007287
30812000,0.0324,0.013523,0.002678,0.000431,0.024681
30813000,0.0324,0.013523,0.002678,0.000431,0.015984
30814000,0.0324,0.013523,0.002678,0.000431,0.015984
30815000,0.0324,0.013523,0.002678,0.000431,0.004701
30816000,0.0324,0.013523,0.002678,0.000431,0.004466
30817000,0.0324,0.013523,0.002678,0.000431,0.004701
30818000,0.0324,0.013523,0.002678,0.000431,0.012223
30819000,0.0324,0.013523,0.002678,0.000431,0.030440
30820000,0.0324,0.013523,0.002678,0.000431,0.008815
30821000,0.0324,0.013523,0.002678,0.000431,0.004701
30822000,0.0324,0.013523,0.002678,0.000431,0.004701
30823000,0.0324,0.013523,0.002678,0.000431,0.004701
30824000,0.0324,0.013523,0.002678,0.000431,0.017277
30825000,0.0324,0.013523,0.002678,0.000431,0.022448
30826000,0.0324,0.013523,0.002678,0.000431,0.019745
30827000,0.0324,0.013523,0.002678,0.000431,0.004701
30828000,0.0324,0.013523,0.002678,0.000431,0.004701
30829000,0.0324,0.013523,0.002678,0.000431,0.004701
30830000,0.0324,0.013523,0.002678,0.000431,0.004701
30831000,0.0324,0.013523,0.002678,0.000431,0.004701
30832000,0.0324,0.013523,0.002678,0.000431,0.012223
30833000,0.0324,0.013523,0.002678,0.000431,0.019745
30834000,0.0324,0.013523,0.002678,0.000431,0.004701
30835000,0.0324,0.013523,0.002678,0.000431,0.004701
30836000,0.0324,0.013523,0.002678,0.000431,0.004701
30837000,0.0324,0.013523,0.002678,0.000431,0.034671
30838000,0.0324,0.013523,0.002678,0.000431,0.012340
30839000,0.0324,0.013523,0.002678,0.000431,0.107186
30840000,0.0324,0.013523,0.002678,0.000431,0.030087
30841000,0.0324,0.013523,0.002678,0.000431,0.004466
30842000,0.0324,0.013523,0.002678,0.000431,0.004701
30843000,0.0324,0.013523,0.002678,0.000431,0.004701
30844000,0.0324,0.013523,0.002678,0.000431,0.012458
30845000,0.0324,0.013523,0.002678,0.000431,0.019745
30846000,0.0324,0.013523,0.002678,0.000431,0.042310
30847000,0.0324,0.013523,0.002678,0.000431,0.004701
30848000,0.0324,0.013523,0.002678,0.000431,0.004701
30849000,0.0324,0.013523,0.002678,0.000431,0.004466
30850000,0.0324,0.013523,0.002678,0.000431,0.027267
30851000,0.0324,0.013523,0.002678,0.000431,0.004701
30852000,0.0324,0.013523,0.002678,0.000431,0.004701
30853000,0.0324,0.013523,0.002678,0.000431,0.004701
30854000,0.0324,0.013523,0.002678,0.000431,0.004701
30855000,0.0324,0.013523,0.002678,0.000431,0.004701
30856000,0.0324,0.013523,0.002678,0.000431,0.004584
30857000,0.0324,0.013523,0.002678,0.000431,0.004584
30858000,0.0324,0.013523,0.002678,0.000431,0.019745
30859000,0.0324,0.013523,0.002678,0.000431,0.012223
30860000,0.0324,0.013523,0.002678,0.000431,0.004701
30861000,0.0324,0.013523,0.002678,0.000431,0.004701
30862000,0.0324,0.013523,0.002678,0.000431,0.004701
30863000,0.0324,0.013523,0.002678,0.000431,0.004701
30864000,0.0324,0.013523,0.002678,0.000431,0.019745
30865000,0.0324,0.013523,0.002678,0.000431,0.049832
30866000,0.0324,0.013523,0.002678,0.000431,0.004701
30867000,0.0324,0.013523,0.002678,0.000431,0.004701
30868000,0.0324,0.013523,0.002678,0.000431,0.004701
30869000,0.0324,0.013523,0.002678,0.000431,0.012223
30870000,0.0324,0.013523,0.002678,0.000431,0.019745
30871000,0.0324,0.013523,0.002678,0.000431,0.044191
30872000,0.0324,0.013523,0.002678,0.000431,0.010342
30873000,0.0324,0.013523,0.002678,0.000431,0.004701
30874000,0.0324,0.013523,0.002678,0.000431,0.004701
30875000,0.0324,0.013523,0.002678,0.000431,0.004701
30876000,0.0324,0.013523,0.002678,0.000431,0.004701
30877000,0.0324,0.013523,0.002678,0.000431,0.006111
30878000,0.0324,0.013523,0.002678,0.000431,0.048422
30879000,0.0324,0.013523,0.002678,0.000431,0.004701
30880000,0.0324,0.013523,0.002678,0.000431,0.004584
30881000,0.0324,0.013523,0.002678,0.000431,0.004349
30882000,0.0324,0.013523,0.002678,0.000431,0.008580
30883000,0.0324,0.013523,0.002678,0.000431,0.008580
30884000,0.0324,0.013523,0.002678,0.000431,0.004701
30885000,0.0324,0.013523,0.002678,0.000431,0.027267
30886000,0.0324,0.013523,0.002678,0.000431,0.004701
30887000,0.0324,0.013523,0.002678,0.000431,0.004701
30888000,0.0324,0.013523,0.002678,0.000431,0.004701
30889000,0.0324,0.013523,0.002678,0.000431,0.057354
30890000,0.0324,0.013523,0.002678,0.000431,0.019745
30891000,0.0324,0.013523,0.002678,0.000431,0.085561
30892000,0.0324,0.013523,0.002678,0.000431,0.021860
30893000,0.0324,0.013523,0.002678,0.000431,0.004701
30894000,0.0324,0.013523,0.002678,0.000431,0.004701
30895000,0.0324,0.013523,0.002678,0.000431,0.035376
30896000,0.0324,0.013523,0.002678,0.000431,0.026914
30897000,0.0324,0.013523,0.002678,0.000431,0.023271
30898000,0.0324,0.013523,0.002678,0.000431,0.008462
30899000,0.0324,0.013523,0.002678,0.000431,0.004701
30900000,0.0324,0.013523,0.002678,0.000431,0.004701
30901000,0.0324,0.013523,0.002678,0.000431,0.004701
30902000,0.0324,0.013523,0.002678,0.000431,0.087441
30903000,0.0324,0.013523,0.002678,0.000431,0.004701
30904000,0.0324,0.013523,0.002678,0.000431,0.004701
30905000,0.0324,0.013523,0.002678,0.000431,0.004701
30906000,0.0324,0.013523,0.002678,0.000431,0.004701
30907000,0.0324,0.013523,0.002678,0.000431,0.004701
30908000,0.0324,0.013523,0.002678,0.000431,0.012458
30909000,0.0324,0.013523,0.002678,0.000431,0.004701
30910000,0.0324,0.013523,0.002678,0.000431,0.050772
30911000,0.0324,0.013523,0.002678,0.000431,0.026326
30912000,0.0324,0.013523,0.002678,0.000431,0.004701
30913000,0.0324,0.013523,0.002678,0.000431,0.004701
30914000,0.0324,0.013523,0.002678,0.000431,0.017512
30915000,0.0324,0.013523,0.002678,0.000431,0.126108
30916000,0.0324,0.013523,0.002678,0.000431,0.009637
30917000,0.0324,0.013523,0.002678,0.000431,0.038549
30918000,0.0324,0.013523,0.002678,0.000431,0.004701
30919000,0.0324,0.013523,0.002678,0.000431,0.004701
30920000,0.0324,0.013523,0.002678,0.000431,0.004584
30921000,0.0324,0.013523,0.002678,0.000431,0.019392
30922000,0.0324,0.013523,0.002678,0.000431,0.038549
30923000,0.0324,0.013523,0.002678,0.000431,0.068636
30924000,0.0324,0.013523,0.002678,0.000431,0.004701
30925000,0.0324,0.013523,0.002678,0.000431,0.004701
30926000,0.0324,0.013523,0.002678,0.000431,0.004466
30927000,0.0324,0.013523,0.002678,0.000431,0.021508
30928000,0.0324,0.013523,0.002678,0.000431,0.017982
30929000,0.0324,0.013523,0.002678,0.000431,0.019745
30930000,0.0324,0.013523,0.002678,0.000431,0.004701
30931000,0.0324,0.013523,0.002678,0.000431,0.004701
30932000,0.0324,0.013523,0.002678,0.000431,0.004701
30933000,0.0324,0.013523,0.002678,0.000431,0.004701
30934000,0.0324,0.013523,0.002678,0.000431,0.004701
30935000,0.0324,0.013523,0.002678,0.000431,0.008462
30936000,0.0324,0.013523,0.002678,0.000431,0.031027
30937000,0.0324,0.013523,0.002678,0.000431,0.004466
30938000,0.0324,0.013523,0.002678,0.000431,0.004701
30939000,0.0324,0.013523,0.002678,0.000431,0.004701
30940000,0.0324,0.013523,0.002678,0.000431,0.004701
30941000,0.0324,0.013523,0.002678,0.000431,0.004701
30942000,0.0324,0.013523,0.002678,0.000431,0.004701
30943000,0.0324,0.013523,0.002678,0.000431,0.004701
30944000,0.0324,0.013523,0.002678,0.000431,0.004701
30945000,0.0324,0.013523,0.002678,0.000431,0.004701
30946000,0.0324,0.013523,0.002678,0.000431,0.004701
30947000,0.0324,0.013523,0.002678,0.000431,0.012458
30948000,0.0324,0.013523,0.002678,0.000431,0.124227
30949000,0.0324,0.013523,0.002678,0.000431,0.020802
30950000,0.0324,0.013523,0.002678,0.000431,0.004701
30951000,0.0324,0.013523,0.002678,0.000431,0.004701
30952000,0.0324,0.013523,0.002678,0.000431,0.004701
30953000,0.0324,0.013523,0.002678,0.000431,0.004701
30954000,0.0324,0.013523,0.002678,0.000431,0.019980
30955000,0.0324,0.013523,0.002678,0.000431,0.080389
30956000,0.0324,0.013523,0.002678,0.000431,0.004584
30957000,0.0324,0.013523,0.002678,0.000431,0.004584
30958000,0.0324,0.013523,0.002678,0.000431,0.004701
30959000,0.0324,0.013523,0.002678,0.000431,0.012223
30960000,0.0324,0.013523,0.002678,0.000431,0.072397
30961000,0.0324,0.013523,0.002678,0.000431,0.027031
30962000,0.0324,0.013523,0.002678,0.000431,0.110006
30963000,0.0324,0.013523,0.002678,0.000431,0.004701
30964000,0.0324,0.013523,0.002678,0.000431,0.004701
30965000,0.0324,0.013523,0.002678,0.000431,0.004701
30966000,0.0324,0.013523,0.002678,0.000431,0.012105
30967000,0.0324,0.013523,0.002678,0.000431,0.012340
30968000,0.0324,0.013523,0.002678,0.000431,0.012223
30969000,0.0324,0.013523,0.002678,0.000431,0.004701
30970000,0.0324,0.013523,0.002678,0.000431,0.019745
30971000,0.0324,0.013523,0.002678,0.000431,0.004701
30972000,0.0324,0.013523,0.002678,0.000431,0.004701
30973000,0.0324,0.013523,0.002678,0.000431,0.004701
30974000,0.0324,0.013523,0.002678,0.000431,0.042075
30975000,0.0324,0.013523,0.002678,0.000431,0.004701
30976000,0.0324,0.013523,0.002678,0.000431,0.004701
30977000,0.0324,0.013523,0.002678,0.000431,0.004701
30978000,0.0324,0.013523,0.002678,0.000431,0.004701
30979000,0.0324,0.013523,0.002678,0.000431,0.004701
30980000,0.0324,0.013523,0.002678,0.000431,0.004701
30981000,0.0324,0.013523,0.002678,0.000431,0.042310
30982000,0.0324,0.013523,0.002678,0.000431,0.004701
30983000,0.0324,0.013523,0.002678,0.000431,0.012223
30984000,0.0324,0.013523,0.002678,0.000431,0.004701
30985000,0.0324,0.013523,0.002678,0.000431,0.004701
30986000,0.0324,0.013523,0.002678,0.000431,0.010578
30987000,0.0324,0.013523,0.002678,0.000431,0.085796
30988000,0.0324,0.013523,0.002678,0.000431,0.023741
30989000,0.0324,0.013523,0.002678,0.000431,0.004701
30990000,0.0324,0.013523,0.002678,0.000431,0.004701
30991000,0.0324,0.013523,0.002678,0.000431,0.004701
30992000,0.0324,0.013523,0.002678,0.000431,0.012223
30993000,0.0324,0.013523,0.002678,0.000431,0.030910
30994000,0.0324,0.013523,0.002678,0.000431,0.046189
30995000,0.0324,0.013523,0.002678,0.000431,0.004701
30996000,0.0324,0.013523,0.002678,0.000431,0.004701
30997000,0.0324,0.013523,0.002678,0.000431,0.004466
30998000,0.0324,0.013523,0.002678,0.000431,0.019745
30999000,0.0324,0.013523,0.002678,0.000431,0.020685
