Cycle,Area(mm^2),PeakDynamic(W),SubthresholdLeakage(W),GateLeakage(W),RunTimeDynamic(W)
31000000,0.0324,0.013523,0.002678,0.000431,0.056414
31001000,0.0324,0.013523,0.002678,0.000431,0.034671
31002000,0.0324,0.013523,0.002678,0.000431,0.004584
31003000,0.0324,0.013523,0.002678,0.000431,0.004701
31004000,0.0324,0.013523,0.002678,0.000431,0.009990
31005000,0.0324,0.013523,0.002678,0.000431,0.014456
31006000,0.0324,0.013523,0.002678,0.000431,0.038902
31007000,0.0324,0.013523,0.002678,0.000431,0.068519
31008000,0.0324,0.013523,0.002678,0.000431,0.004701
31009000,0.0324,0.013523,0.002678,0.000431,0.004701
31010000,0.0324,0.013523,0.002678,0.000431,0.004701
31011000,0.0324,0.013523,0.002678,0.000431,0.012223
31012000,0.0324,0.013523,0.002678,0.000431,0.004701
31013000,0.0324,0.013523,0.002678,0.000431,0.004701
31014000,0.0324,0.013523,0.002678,0.000431,0.019627
31015000,0.0324,0.013523,0.002678,0.000431,0.004349
31016000,0.0324,0.013523,0.002678,0.000431,0.004701
31017000,0.0324,0.013523,0.002678,0.000431,0.015984
31018000,0.0324,0.013523,0.002678,0.000431,0.015984
31019000,0.0324,0.013523,0.002678,0.000431,0.004701
31020000,0.0324,0.013523,0.002678,0.000431,0.034671
31021000,0.0324,0.013523,0.002678,0.000431,0.012340
31022000,0.0324,0.013523,0.002678,0.000431,0.004701
31023000,0.0324,0.013523,0.002678,0.000431,0.004701
31024000,0.0324,0.013523,0.002678,0.000431,0.027267
31025000,0.0324,0.013523,0.002678,0.000431,0.027267
31026000,0.0324,0.013523,0.002678,0.000431,0.012223
31027000,0.0324,0.013523,0.002678,0.000431,0.004936
31028000,0.0324,0.013523,0.002678,0.000431,0.004701
31029000,0.0324,0.013523,0.002678,0.000431,0.004701
31030000,0.0324,0.013523,0.002678,0.000431,0.012223
31031000,0.0324,0.013523,0.002678,0.000431,0.035258
31032000,0.0324,0.013523,0.002678,0.000431,0.025269
31033000,0.0324,0.013523,0.002678,0.000431,0.111534
31034000,0.0324,0.013523,0.002678,0.000431,0.004701
31035000,0.0324,0.013523,0.002678,0.000431,0.004701
31036000,0.0324,0.013523,0.002678,0.000431,0.004701
31037000,0.0324,0.013523,0.002678,0.000431,0.004466
31038000,0.0324,0.013523,0.002678,0.000431,0.012223
31039000,0.0324,0.013523,0.002678,0.000431,0.012223
31040000,0.0324,0.013523,0.002678,0.000431,0.004701
31041000,0.0324,0.013523,0.002678,0.000431,0.004701
31042000,0.0324,0.013523,0.002678,0.000431,0.004701
31043000,0.0324,0.013523,0.002678,0.000431,0.004701
31044000,0.0324,0.013523,0.002678,0.000431,0.012223
31045000,0.0324,0.013523,0.002678,0.000431,0.012223
31046000,0.0324,0.013523,0.002678,0.000431,0.012223
31047000,0.0324,0.013523,0.002678,0.000431,0.011988
31048000,0.0324,0.013523,0.002678,0.000431,0.004701
31049000,0.0324,0.013523,0.002678,0.000431,0.004701
31050000,0.0324,0.013523,0.002678,0.000431,0.031027
31051000,0.0324,0.013523,0.002678,0.000431,0.023506
31052000,0.0324,0.013523,0.002678,0.000431,0.015984
31053000,0.0324,0.013523,0.002678,0.000431,0.027619
31054000,0.0324,0.013523,0.002678,0.000431,0.023036
31055000,0.0324,0.013523,0.002678,0.000431,0.004349
31056000,0.0324,0.013523,0.002678,0.000431,0.020567
31057000,0.0324,0.013523,0.002678,0.000431,0.060057
31058000,0.0324,0.013523,0.002678,0.000431,0.008462
31059000,0.0324,0.013523,0.002678,0.000431,0.004701
31060000,0.0324,0.013523,0.002678,0.000431,0.004701
31061000,0.0324,0.013523,0.002678,0.000431,0.004701
31062000,0.0324,0.013523,0.002678,0.000431,0.019627
31063000,0.0324,0.013523,0.002678,0.000431,0.057941
31064000,0.0324,0.013523,0.002678,0.000431,0.140329
31065000,0.0324,0.013523,0.002678,0.000431,0.012223
31066000,0.0324,0.013523,0.002678,0.000431,0.004466
31067000,0.0324,0.013523,0.002678,0.000431,0.004701
31068000,0.0324,0.013523,0.002678,0.000431,0.004701
31069000,0.0324,0.013523,0.002678,0.000431,0.031027
31070000,0.0324,0.013523,0.002678,0.000431,0.023506
31071000,0.0324,0.013523,0.002678,0.000431,0.027267
31072000,0.0324,0.013523,0.002678,0.000431,0.012223
31073000,0.0324,0.013523,0.002678,0.000431,0.004701
31074000,0.0324,0.013523,0.002678,0.000431,0.004701
31075000,0.0324,0.013523,0.002678,0.000431,0.004701
31076000,0.0324,0.013523,0.002678,0.000431,0.004819
31077000,0.0324,0.013523,0.002678,0.000431,0.019627
31078000,0.0324,0.013523,0.002678,0.000431,0.012223
31079000,0.0324,0.013523,0.002678,0.000431,0.004701
31080000,0.0324,0.013523,0.002678,0.000431,0.004701
31081000,0.0324,0.013523,0.002678,0.000431,0.004701
31082000,0.0324,0.013523,0.002678,0.000431,0.141739
31083000,0.0324,0.013523,0.002678,0.000431,0.055943
31084000,0.0324,0.013523,0.002678,0.000431,0.024328
31085000,0.0324,0.013523,0.002678,0.000431,0.030205
31086000,0.0324,0.013523,0.002678,0.000431,0.004701
31087000,0.0324,0.013523,0.002678,0.000431,0.004701
31088000,0.0324,0.013523,0.002678,0.000431,0.030792
31089000,0.0324,0.013523,0.002678,0.000431,0.053240
31090000,0.0324,0.013523,0.002678,0.000431,0.013046
31091000,0.0324,0.013523,0.002678,0.000431,0.042310
31092000,0.0324,0.013523,0.002678,0.000431,0.004701
31093000,0.0324,0.013523,0.002678,0.000431,0.004701
31094000,0.0324,0.013523,0.002678,0.000431,0.004466
31095000,0.0324,0.013523,0.002678,0.000431,0.019510
31096000,0.0324,0.013523,0.002678,0.000431,0.004701
31097000,0.0324,0.013523,0.002678,0.000431,0.071105
31098000,0.0324,0.013523,0.002678,0.000431,0.058647
31099000,0.0324,0.013523,0.002678,0.000431,0.004701
31100000,0.0324,0.013523,0.002678,0.000431,0.004701
31101000,0.0324,0.013523,0.002678,0.000431,0.023506
31102000,0.0324,0.013523,0.002678,0.000431,0.023506
31103000,0.0324,0.013523,0.002678,0.000431,0.004701
31104000,0.0324,0.013523,0.002678,0.000431,0.019745
31105000,0.0324,0.013523,0.002678,0.000431,0.004701
31106000,0.0324,0.013523,0.002678,0.000431,0.004466
31107000,0.0324,0.013523,0.002678,0.000431,0.004701
31108000,0.0324,0.013523,0.002678,0.000431,0.034553
31109000,0.0324,0.013523,0.002678,0.000431,0.072162
31110000,0.0324,0.013523,0.002678,0.000431,0.012223
31111000,0.0324,0.013523,0.002678,0.000431,0.019745
31112000,0.0324,0.013523,0.002678,0.000431,0.004701
31113000,0.0324,0.013523,0.002678,0.000431,0.004701
31114000,0.0324,0.013523,0.002678,0.000431,0.019745
31115000,0.0324,0.013523,0.002678,0.000431,0.029029
31116000,0.0324,0.013523,0.002678,0.000431,0.017982
31117000,0.0324,0.013523,0.002678,0.000431,0.012223
31118000,0.0324,0.013523,0.002678,0.000431,0.004701
31119000,0.0324,0.013523,0.002678,0.000431,0.004701
31120000,0.0324,0.013523,0.002678,0.000431,0.008815
31121000,0.0324,0.013523,0.002678,0.000431,0.030675
31122000,0.0324,0.013523,0.002678,0.000431,0.004701
31123000,0.0324,0.013523,0.002678,0.000431,0.042310
31124000,0.0324,0.013523,0.002678,0.000431,0.019745
31125000,0.0324,0.013523,0.002678,0.000431,0.004701
31126000,0.0324,0.013523,0.002678,0.000431,0.004701
31127000,0.0324,0.013523,0.002678,0.000431,0.027267
31128000,0.0324,0.013523,0.002678,0.000431,0.004701
31129000,0.0324,0.013523,0.002678,0.000431,0.011870
31130000,0.0324,0.013523,0.002678,0.000431,0.020332
31131000,0.0324,0.013523,0.002678,0.000431,0.011988
31132000,0.0324,0.013523,0.002678,0.000431,0.004701
31133000,0.0324,0.013523,0.002678,0.000431,0.004701
31134000,0.0324,0.013523,0.002678,0.000431,0.004466
31135000,0.0324,0.013523,0.002678,0.000431,0.027267
31136000,0.0324,0.013523,0.002678,0.000431,0.087558
31137000,0.0324,0.013523,0.002678,0.000431,0.008345
31138000,0.0324,0.013523,0.002678,0.000431,0.008462
31139000,0.0324,0.013523,0.002678,0.000431,0.064876
31140000,0.0324,0.013523,0.002678,0.000431,0.004701
31141000,0.0324,0.013523,0.002678,0.000431,0.012223
31142000,0.0324,0.013523,0.002678,0.000431,0.006817
31143000,0.0324,0.013523,0.002678,0.000431,0.047716
31144000,0.0324,0.013523,0.002678,0.000431,0.012223
31145000,0.0324,0.013523,0.002678,0.000431,0.017864
31146000,0.0324,0.013523,0.002678,0.000431,0.006464
31147000,0.0324,0.013523,0.002678,0.000431,0.008345
31148000,0.0324,0.013523,0.002678,0.000431,0.008462
31149000,0.0324,0.013523,0.002678,0.000431,0.027267
31150000,0.0324,0.013523,0.002678,0.000431,0.004701
31151000,0.0324,0.013523,0.002678,0.000431,0.004701
31152000,0.0324,0.013523,0.002678,0.000431,0.012223
31153000,0.0324,0.013523,0.002678,0.000431,0.012223
31154000,0.0324,0.013523,0.002678,0.000431,0.049832
31155000,0.0324,0.013523,0.002678,0.000431,0.004701
31156000,0.0324,0.013523,0.002678,0.000431,0.004701
31157000,0.0324,0.013523,0.002678,0.000431,0.004701
31158000,0.0324,0.013523,0.002678,0.000431,0.019745
31159000,0.0324,0.013523,0.002678,0.000431,0.042310
31160000,0.0324,0.013523,0.002678,0.000431,0.024211
31161000,0.0324,0.013523,0.002678,0.000431,0.023506
31162000,0.0324,0.013523,0.002678,0.000431,0.004584
31163000,0.0324,0.013523,0.002678,0.000431,0.079214
31164000,0.0324,0.013523,0.002678,0.000431,0.073220
31165000,0.0324,0.013523,0.002678,0.000431,0.017159
31166000,0.0324,0.013523,0.002678,0.000431,0.192276
31167000,0.0324,0.013523,0.002678,0.000431,0.037374
31168000,0.0324,0.013523,0.002678,0.000431,0.004701
31169000,0.0324,0.013523,0.002678,0.000431,0.004701
31170000,0.0324,0.013523,0.002678,0.000431,0.034788
31171000,0.0324,0.013523,0.002678,0.000431,0.027502
31172000,0.0324,0.013523,0.002678,0.000431,0.004701
31173000,0.0324,0.013523,0.002678,0.000431,0.004701
31174000,0.0324,0.013523,0.002678,0.000431,0.004701
31175000,0.0324,0.013523,0.002678,0.000431,0.004701
31176000,0.0324,0.013523,0.002678,0.000431,0.004819
31177000,0.0324,0.013523,0.002678,0.000431,0.023858
31178000,0.0324,0.013523,0.002678,0.000431,0.008462
31179000,0.0324,0.013523,0.002678,0.000431,0.136685
31180000,0.0324,0.013523,0.002678,0.000431,0.008345
31181000,0.0324,0.013523,0.002678,0.000431,0.004466
31182000,0.0324,0.013523,0.002678,0.000431,0.004701
31183000,0.0324,0.013523,0.002678,0.000431,0.004701
31184000,0.0324,0.013523,0.002678,0.000431,0.013633
31185000,0.0324,0.013523,0.002678,0.000431,0.133865
31186000,0.0324,0.013523,0.002678,0.000431,0.069694
31187000,0.0324,0.013523,0.002678,0.000431,0.012223
31188000,0.0324,0.013523,0.002678,0.000431,0.004701
31189000,0.0324,0.013523,0.002678,0.000431,0.004936
31190000,0.0324,0.013523,0.002678,0.000431,0.004701
31191000,0.0324,0.013523,0.002678,0.000431,0.004701
31192000,0.0324,0.013523,0.002678,0.000431,0.072162
31193000,0.0324,0.013523,0.002678,0.000431,0.015984
31194000,0.0324,0.013523,0.002678,0.000431,0.015514
31195000,0.0324,0.013523,0.002678,0.000431,0.004701
31196000,0.0324,0.013523,0.002678,0.000431,0.087676
31197000,0.0324,0.013523,0.002678,0.000431,0.004701
31198000,0.0324,0.013523,0.002678,0.000431,0.008462
31199000,0.0324,0.013523,0.002678,0.000431,0.038549
31200000,0.0324,0.013523,0.002678,0.000431,0.004466
31201000,0.0324,0.013523,0.002678,0.000431,0.034788
31202000,0.0324,0.013523,0.002678,0.000431,0.077334
31203000,0.0324,0.013523,0.002678,0.000431,0.030322
31204000,0.0324,0.013523,0.002678,0.000431,0.004701
31205000,0.0324,0.013523,0.002678,0.000431,0.027031
31206000,0.0324,0.013523,0.002678,0.000431,0.004701
31207000,0.0324,0.013523,0.002678,0.000431,0.090262
31208000,0.0324,0.013523,0.002678,0.000431,0.027972
31209000,0.0324,0.013523,0.002678,0.000431,0.061350
31210000,0.0324,0.013523,0.002678,0.000431,0.004701
31211000,0.0324,0.013523,0.002678,0.000431,0.008462
31212000,0.0324,0.013523,0.002678,0.000431,0.008462
31213000,0.0324,0.013523,0.002678,0.000431,0.027267
31214000,0.0324,0.013523,0.002678,0.000431,0.004701
31215000,0.0324,0.013523,0.002678,0.000431,0.019980
31216000,0.0324,0.013523,0.002678,0.000431,0.004701
31217000,0.0324,0.013523,0.002678,0.000431,0.012223
31218000,0.0324,0.013523,0.002678,0.000431,0.027502
31219000,0.0324,0.013523,0.002678,0.000431,0.008227
31220000,0.0324,0.013523,0.002678,0.000431,0.038549
31221000,0.0324,0.013523,0.002678,0.000431,0.042310
31222000,0.0324,0.013523,0.002678,0.000431,0.027267
31223000,0.0324,0.013523,0.002678,0.000431,0.004701
31224000,0.0324,0.013523,0.002678,0.000431,0.004701
31225000,0.0324,0.013523,0.002678,0.000431,0.004701
31226000,0.0324,0.013523,0.002678,0.000431,0.019745
31227000,0.0324,0.013523,0.002678,0.000431,0.004466
31228000,0.0324,0.013523,0.002678,0.000431,0.004701
31229000,0.0324,0.013523,0.002678,0.000431,0.012223
31230000,0.0324,0.013523,0.002678,0.000431,0.004701
31231000,0.0324,0.013523,0.002678,0.000431,0.034788
31232000,0.0324,0.013523,0.002678,0.000431,0.004701
31233000,0.0324,0.013523,0.002678,0.000431,0.004701
31234000,0.0324,0.013523,0.002678,0.000431,0.004701
31235000,0.0324,0.013523,0.002678,0.000431,0.012223
31236000,0.0324,0.013523,0.002678,0.000431,0.004584
31237000,0.0324,0.013523,0.002678,0.000431,0.027149
31238000,0.0324,0.013523,0.002678,0.000431,0.004701
31239000,0.0324,0.013523,0.002678,0.000431,0.004701
31240000,0.0324,0.013523,0.002678,0.000431,0.004701
31241000,0.0324,0.013523,0.002678,0.000431,0.004701
31242000,0.0324,0.013523,0.002678,0.000431,0.012223
31243000,0.0324,0.013523,0.002678,0.000431,0.009167
31244000,0.0324,0.013523,0.002678,0.000431,0.037844
31245000,0.0324,0.013523,0.002678,0.000431,0.004466
31246000,0.0324,0.013523,0.002678,0.000431,0.042310
31247000,0.0324,0.013523,0.002678,0.000431,0.004701
31248000,0.0324,0.013523,0.002678,0.000431,0.004701
31249000,0.0324,0.013523,0.002678,0.000431,0.004701
31250000,0.0324,0.013523,0.002678,0.000431,0.042310
31251000,0.0324,0.013523,0.002678,0.000431,0.004701
31252000,0.0324,0.013523,0.002678,0.000431,0.024563
31253000,0.0324,0.013523,0.002678,0.000431,0.007404
31254000,0.0324,0.013523,0.002678,0.000431,0.047481
31255000,0.0324,0.013523,0.002678,0.000431,0.037139
31256000,0.0324,0.013523,0.002678,0.000431,0.030675
31257000,0.0324,0.013523,0.002678,0.000431,0.076276
31258000,0.0324,0.013523,0.002678,0.000431,0.004701
31259000,0.0324,0.013523,0.002678,0.000431,0.057119
31260000,0.0324,0.013523,0.002678,0.000431,0.004466
31261000,0.0324,0.013523,0.002678,0.000431,0.004701
31262000,0.0324,0.013523,0.002678,0.000431,0.004701
31263000,0.0324,0.013523,0.002678,0.000431,0.092730
31264000,0.0324,0.013523,0.002678,0.000431,0.021978
31265000,0.0324,0.013523,0.002678,0.000431,0.066168
31266000,0.0324,0.013523,0.002678,0.000431,0.010695
31267000,0.0324,0.013523,0.002678,0.000431,0.049832
31268000,0.0324,0.013523,0.002678,0.000431,0.004701
31269000,0.0324,0.013523,0.002678,0.000431,0.041958
31270000,0.0324,0.013523,0.002678,0.000431,0.012811
31271000,0.0324,0.013523,0.002678,0.000431,0.004701
31272000,0.0324,0.013523,0.002678,0.000431,0.004701
31273000,0.0324,0.013523,0.002678,0.000431,0.031027
31274000,0.0324,0.013523,0.002678,0.000431,0.008462
31275000,0.0324,0.013523,0.002678,0.000431,0.004701
31276000,0.0324,0.013523,0.002678,0.000431,0.193216
31277000,0.0324,0.013523,0.002678,0.000431,0.019745
31278000,0.0324,0.013523,0.002678,0.000431,0.004701
31279000,0.0324,0.013523,0.002678,0.000431,0.004701
31280000,0.0324,0.013523,0.002678,0.000431,0.004701
31281000,0.0324,0.013523,0.002678,0.000431,0.004701
31282000,0.0324,0.013523,0.002678,0.000431,0.082035
31283000,0.0324,0.013523,0.002678,0.000431,0.025386
31284000,0.0324,0.013523,0.002678,0.000431,0.004701
31285000,0.0324,0.013523,0.002678,0.000431,0.035258
31286000,0.0324,0.013523,0.002678,0.000431,0.004701
31287000,0.0324,0.013523,0.002678,0.000431,0.004701
31288000,0.0324,0.013523,0.002678,0.000431,0.005994
31289000,0.0324,0.013523,0.002678,0.000431,0.258915
31290000,0.0324,0.013523,0.002678,0.000431,0.004936
31291000,0.0324,0.013523,0.002678,0.000431,0.004466
31292000,0.0324,0.013523,0.002678,0.000431,0.004701
31293000,0.0324,0.013523,0.002678,0.000431,0.004701
31294000,0.0324,0.013523,0.002678,0.000431,0.004701
31295000,0.0324,0.013523,0.002678,0.000431,0.069812
31296000,0.0324,0.013523,0.002678,0.000431,0.022565
31297000,0.0324,0.013523,0.002678,0.000431,0.004701
31298000,0.0324,0.013523,0.002678,0.000431,0.019745
31299000,0.0324,0.013523,0.002678,0.000431,0.004701
31300000,0.0324,0.013523,0.002678,0.000431,0.004701
31301000,0.0324,0.013523,0.002678,0.000431,0.005641
31302000,0.0324,0.013523,0.002678,0.000431,0.071457
31303000,0.0324,0.013523,0.002678,0.000431,0.004584
31304000,0.0324,0.013523,0.002678,0.000431,0.004584
31305000,0.0324,0.013523,0.002678,0.000431,0.004701
31306000,0.0324,0.013523,0.002678,0.000431,0.004701
31307000,0.0324,0.013523,0.002678,0.000431,0.004701
31308000,0.0324,0.013523,0.002678,0.000431,0.004701
31309000,0.0324,0.013523,0.002678,0.000431,0.004701
31310000,0.0324,0.013523,0.002678,0.000431,0.004701
31311000,0.0324,0.013523,0.002678,0.000431,0.057824
31312000,0.0324,0.013523,0.002678,0.000431,0.004701
31313000,0.0324,0.013523,0.002678,0.000431,0.004936
31314000,0.0324,0.013523,0.002678,0.000431,0.005759
31315000,0.0324,0.013523,0.002678,0.000431,0.011165
31316000,0.0324,0.013523,0.002678,0.000431,0.004701
31317000,0.0324,0.013523,0.002678,0.000431,0.004701
31318000,0.0324,0.013523,0.002678,0.000431,0.004701
31319000,0.0324,0.013523,0.002678,0.000431,0.005406
31320000,0.0324,0.013523,0.002678,0.000431,0.034083
31321000,0.0324,0.013523,0.002678,0.000431,0.034553
31322000,0.0324,0.013523,0.002678,0.000431,0.004701
31323000,0.0324,0.013523,0.002678,0.000431,0.004466
31324000,0.0324,0.013523,0.002678,0.000431,0.004701
31325000,0.0324,0.013523,0.002678,0.000431,0.064641
31326000,0.0324,0.013523,0.002678,0.000431,0.027267
31327000,0.0324,0.013523,0.002678,0.000431,0.017982
31328000,0.0324,0.013523,0.002678,0.000431,0.006464
31329000,0.0324,0.013523,0.002678,0.000431,0.004701
31330000,0.0324,0.013523,0.002678,0.000431,0.004701
31331000,0.0324,0.013523,0.002678,0.000431,0.042310
31332000,0.0324,0.013523,0.002678,0.000431,0.008462
31333000,0.0324,0.013523,0.002678,0.000431,0.008462
31334000,0.0324,0.013523,0.002678,0.000431,0.004701
31335000,0.0324,0.013523,0.002678,0.000431,0.004701
31336000,0.0324,0.013523,0.002678,0.000431,0.004701
31337000,0.0324,0.013523,0.002678,0.000431,0.004701
31338000,0.0324,0.013523,0.002678,0.000431,0.087441
31339000,0.0324,0.013523,0.002678,0.000431,0.072397
31340000,0.0324,0.013523,0.002678,0.000431,0.004701
31341000,0.0324,0.013523,0.002678,0.000431,0.004701
31342000,0.0324,0.013523,0.002678,0.000431,0.004701
31343000,0.0324,0.013523,0.002678,0.000431,0.004584
31344000,0.0324,0.013523,0.002678,0.000431,0.034906
31345000,0.0324,0.013523,0.002678,0.000431,0.004701
31346000,0.0324,0.013523,0.002678,0.000431,0.004701
31347000,0.0324,0.013523,0.002678,0.000431,0.019745
31348000,0.0324,0.013523,0.002678,0.000431,0.004701
31349000,0.0324,0.013523,0.002678,0.000431,0.032908
31350000,0.0324,0.013523,0.002678,0.000431,0.006582
31351000,0.0324,0.013523,0.002678,0.000431,0.012223
31352000,0.0324,0.013523,0.002678,0.000431,0.004701
31353000,0.0324,0.013523,0.002678,0.000431,0.075923
31354000,0.0324,0.013523,0.002678,0.000431,0.022095
31355000,0.0324,0.013523,0.002678,0.000431,0.028912
31356000,0.0324,0.013523,0.002678,0.000431,0.004701
31357000,0.0324,0.013523,0.002678,0.000431,0.027267
31358000,0.0324,0.013523,0.002678,0.000431,0.004701
31359000,0.0324,0.013523,0.002678,0.000431,0.004701
31360000,0.0324,0.013523,0.002678,0.000431,0.140094
31361000,0.0324,0.013523,0.002678,0.000431,0.096961
31362000,0.0324,0.013523,0.002678,0.000431,0.017042
31363000,0.0324,0.013523,0.002678,0.000431,0.004466
31364000,0.0324,0.013523,0.002678,0.000431,0.004701
31365000,0.0324,0.013523,0.002678,0.000431,0.004701
31366000,0.0324,0.013523,0.002678,0.000431,0.035729
31367000,0.0324,0.013523,0.002678,0.000431,0.116353
31368000,0.0324,0.013523,0.002678,0.000431,0.042310
31369000,0.0324,0.013523,0.002678,0.000431,0.027267
31370000,0.0324,0.013523,0.002678,0.000431,0.092847
31371000,0.0324,0.013523,0.002678,0.000431,0.007052
31372000,0.0324,0.013523,0.002678,0.000431,0.004701
31373000,0.0324,0.013523,0.002678,0.000431,0.109771
31374000,0.0324,0.013523,0.002678,0.000431,0.004701
31375000,0.0324,0.013523,0.002678,0.000431,0.012223
31376000,0.0324,0.013523,0.002678,0.000431,0.040195
31377000,0.0324,0.013523,0.002678,0.000431,0.014221
31378000,0.0324,0.013523,0.002678,0.000431,0.004584
31379000,0.0324,0.013523,0.002678,0.000431,0.016454
31380000,0.0324,0.013523,0.002678,0.000431,0.007757
31381000,0.0324,0.013523,0.002678,0.000431,0.004701
31382000,0.0324,0.013523,0.002678,0.000431,0.004701
31383000,0.0324,0.013523,0.002678,0.000431,0.100016
31384000,0.0324,0.013523,0.002678,0.000431,0.014456
31385000,0.0324,0.013523,0.002678,0.000431,0.004701
31386000,0.0324,0.013523,0.002678,0.000431,0.012223
31387000,0.0324,0.013523,0.002678,0.000431,0.004701
31388000,0.0324,0.013523,0.002678,0.000431,0.004701
31389000,0.0324,0.013523,0.002678,0.000431,0.010107
31390000,0.0324,0.013523,0.002678,0.000431,0.044426
31391000,0.0324,0.013523,0.002678,0.000431,0.004701
31392000,0.0324,0.013523,0.002678,0.000431,0.004466
31393000,0.0324,0.013523,0.002678,0.000431,0.004701
31394000,0.0324,0.013523,0.002678,0.000431,0.004701
31395000,0.0324,0.013523,0.002678,0.000431,0.042310
31396000,0.0324,0.013523,0.002678,0.000431,0.040430
31397000,0.0324,0.013523,0.002678,0.000431,0.029147
31398000,0.0324,0.013523,0.002678,0.000431,0.004701
31399000,0.0324,0.013523,0.002678,0.000431,0.004701
31400000,0.0324,0.013523,0.002678,0.000431,0.004584
31401000,0.0324,0.013523,0.002678,0.000431,0.040195
31402000,0.0324,0.013523,0.002678,0.000431,0.014221
31403000,0.0324,0.013523,0.002678,0.000431,0.004701
31404000,0.0324,0.013523,0.002678,0.000431,0.004701
31405000,0.0324,0.013523,0.002678,0.000431,0.004701
31406000,0.0324,0.013523,0.002678,0.000431,0.004701
31407000,0.0324,0.013523,0.002678,0.000431,0.021978
31408000,0.0324,0.013523,0.002678,0.000431,0.064053
31409000,0.0324,0.013523,0.002678,0.000431,0.048422
31410000,0.0324,0.013523,0.002678,0.000431,0.004701
31411000,0.0324,0.013523,0.002678,0.000431,0.004701
31412000,0.0324,0.013523,0.002678,0.000431,0.004701
31413000,0.0324,0.013523,0.002678,0.000431,0.034788
31414000,0.0324,0.013523,0.002678,0.000431,0.027267
31415000,0.0324,0.013523,0.002678,0.000431,0.072162
31416000,0.0324,0.013523,0.002678,0.000431,0.004701
31417000,0.0324,0.013523,0.002678,0.000431,0.004584
31418000,0.0324,0.013523,0.002678,0.000431,0.004584
31419000,0.0324,0.013523,0.002678,0.000431,0.004584
31420000,0.0324,0.013523,0.002678,0.000431,0.004584
31421000,0.0324,0.013523,0.002678,0.000431,0.021860
31422000,0.0324,0.013523,0.002678,0.000431,0.032673
31423000,0.0324,0.013523,0.002678,0.000431,0.004701
31424000,0.0324,0.013523,0.002678,0.000431,0.004701
31425000,0.0324,0.013523,0.002678,0.000431,0.004701
31426000,0.0324,0.013523,0.002678,0.000431,0.012223
31427000,0.0324,0.013523,0.002678,0.000431,0.057589
31428000,0.0324,0.013523,0.002678,0.000431,0.004701
31429000,0.0324,0.013523,0.002678,0.000431,0.004701
31430000,0.0324,0.013523,0.002678,0.000431,0.004701
31431000,0.0324,0.013523,0.002678,0.000431,0.004701
31432000,0.0324,0.013523,0.002678,0.000431,0.039019
31433000,0.0324,0.013523,0.002678,0.000431,0.044426
31434000,0.0324,0.013523,0.002678,0.000431,0.088381
31435000,0.0324,0.013523,0.002678,0.000431,0.004701
31436000,0.0324,0.013523,0.002678,0.000431,0.004701
31437000,0.0324,0.013523,0.002678,0.000431,0.015984
31438000,0.0324,0.013523,0.002678,0.000431,0.008462
31439000,0.0324,0.013523,0.002678,0.000431,0.034788
31440000,0.0324,0.013523,0.002678,0.000431,0.019745
31441000,0.0324,0.013523,0.002678,0.000431,0.004466
31442000,0.0324,0.013523,0.002678,0.000431,0.004701
31443000,0.0324,0.013523,0.002678,0.000431,0.019862
31444000,0.0324,0.013523,0.002678,0.000431,0.034671
31445000,0.0324,0.013523,0.002678,0.000431,0.004701
31446000,0.0324,0.013523,0.002678,0.000431,0.028442
31447000,0.0324,0.013523,0.002678,0.000431,0.033378
31448000,0.0324,0.013523,0.002678,0.000431,0.004701
31449000,0.0324,0.013523,0.002678,0.000431,0.004701
31450000,0.0324,0.013523,0.002678,0.000431,0.057119
31451000,0.0324,0.013523,0.002678,0.000431,0.008227
31452000,0.0324,0.013523,0.002678,0.000431,0.008697
31453000,0.0324,0.013523,0.002678,0.000431,0.012223
31454000,0.0324,0.013523,0.002678,0.000431,0.004701
31455000,0.0324,0.013523,0.002678,0.000431,0.004701
31456000,0.0324,0.013523,0.002678,0.000431,0.019745
31457000,0.0324,0.013523,0.002678,0.000431,0.004584
31458000,0.0324,0.013523,0.002678,0.000431,0.004584
31459000,0.0324,0.013523,0.002678,0.000431,0.012223
31460000,0.0324,0.013523,0.002678,0.000431,0.004466
31461000,0.0324,0.013523,0.002678,0.000431,0.004701
31462000,0.0324,0.013523,0.002678,0.000431,0.004701
31463000,0.0324,0.013523,0.002678,0.000431,0.012223
31464000,0.0324,0.013523,0.002678,0.000431,0.021625
31465000,0.0324,0.013523,0.002678,0.000431,0.093552
31466000,0.0324,0.013523,0.002678,0.000431,0.004701
31467000,0.0324,0.013523,0.002678,0.000431,0.012223
31468000,0.0324,0.013523,0.002678,0.000431,0.012458
31469000,0.0324,0.013523,0.002678,0.000431,0.045248
31470000,0.0324,0.013523,0.002678,0.000431,0.009285
31471000,0.0324,0.013523,0.002678,0.000431,0.034788
31472000,0.0324,0.013523,0.002678,0.000431,0.004701
31473000,0.0324,0.013523,0.002678,0.000431,0.004701
31474000,0.0324,0.013523,0.002678,0.000431,0.004701
31475000,0.0324,0.013523,0.002678,0.000431,0.024563
31476000,0.0324,0.013523,0.002678,0.000431,0.030205
31477000,0.0324,0.013523,0.002678,0.000431,0.048069
31478000,0.0324,0.013523,0.002678,0.000431,0.021508
31479000,0.0324,0.013523,0.002678,0.000431,0.009520
31480000,0.0324,0.013523,0.002678,0.000431,0.014926
31481000,0.0324,0.013523,0.002678,0.000431,0.004466
31482000,0.0324,0.013523,0.002678,0.000431,0.004701
31483000,0.0324,0.013523,0.002678,0.000431,0.004701
31484000,0.0324,0.013523,0.002678,0.000431,0.034788
31485000,0.0324,0.013523,0.002678,0.000431,0.004701
31486000,0.0324,0.013523,0.002678,0.000431,0.019745
31487000,0.0324,0.013523,0.002678,0.000431,0.004701
31488000,0.0324,0.013523,0.002678,0.000431,0.004701
31489000,0.0324,0.013523,0.002678,0.000431,0.146793
31490000,0.0324,0.013523,0.002678,0.000431,0.005171
31491000,0.0324,0.013523,0.002678,0.000431,0.004584
31492000,0.0324,0.013523,0.002678,0.000431,0.004819
31493000,0.0324,0.013523,0.002678,0.000431,0.016101
31494000,0.0324,0.013523,0.002678,0.000431,0.016219
31495000,0.0324,0.013523,0.002678,0.000431,0.004701
31496000,0.0324,0.013523,0.002678,0.000431,0.028324
31497000,0.0324,0.013523,0.002678,0.000431,0.005406
31498000,0.0324,0.013523,0.002678,0.000431,0.040547
31499000,0.0324,0.013523,0.002678,0.000431,0.049832
31500000,0.0324,0.013523,0.002678,0.000431,0.004466
31501000,0.0324,0.013523,0.002678,0.000431,0.004701
31502000,0.0324,0.013523,0.002678,0.000431,0.008462
31503000,0.0324,0.013523,0.002678,0.000431,0.008462
31504000,0.0324,0.013523,0.002678,0.000431,0.008462
31505000,0.0324,0.013523,0.002678,0.000431,0.008462
31506000,0.0324,0.013523,0.002678,0.000431,0.004701
31507000,0.0324,0.013523,0.002678,0.000431,0.008462
31508000,0.0324,0.013523,0.002678,0.000431,0.008462
31509000,0.0324,0.013523,0.002678,0.000431,0.004819
31510000,0.0324,0.013523,0.002678,0.000431,0.027619
31511000,0.0324,0.013523,0.002678,0.000431,0.004701
31512000,0.0324,0.013523,0.002678,0.000431,0.043485
31513000,0.0324,0.013523,0.002678,0.000431,0.033848
31514000,0.0324,0.013523,0.002678,0.000431,0.004701
31515000,0.0324,0.013523,0.002678,0.000431,0.019745
31516000,0.0324,0.013523,0.002678,0.000431,0.019745
31517000,0.0324,0.013523,0.002678,0.000431,0.053240
31518000,0.0324,0.013523,0.002678,0.000431,0.009167
31519000,0.0324,0.013523,0.002678,0.000431,0.005641
31520000,0.0324,0.013523,0.002678,0.000431,0.005876
31521000,0.0324,0.013523,0.002678,0.000431,0.026679
31522000,0.0324,0.013523,0.002678,0.000431,0.021390
31523000,0.0324,0.013523,0.002678,0.000431,0.004701
31524000,0.0324,0.013523,0.002678,0.000431,0.034788
31525000,0.0324,0.013523,0.002678,0.000431,0.014926
31526000,0.0324,0.013523,0.002678,0.000431,0.009285
31527000,0.0324,0.013523,0.002678,0.000431,0.004701
31528000,0.0324,0.013523,0.002678,0.000431,0.019745
31529000,0.0324,0.013523,0.002678,0.000431,0.004701
31530000,0.0324,0.013523,0.002678,0.000431,0.004584
31531000,0.0324,0.013523,0.002678,0.000431,0.004584
31532000,0.0324,0.013523,0.002678,0.000431,0.012223
31533000,0.0324,0.013523,0.002678,0.000431,0.004701
31534000,0.0324,0.013523,0.002678,0.000431,0.012223
31535000,0.0324,0.013523,0.002678,0.000431,0.037491
31536000,0.0324,0.013523,0.002678,0.000431,0.009520
31537000,0.0324,0.013523,0.002678,0.000431,0.004701
31538000,0.0324,0.013523,0.002678,0.000431,0.027267
31539000,0.0324,0.013523,0.002678,0.000431,0.004701
31540000,0.0324,0.013523,0.002678,0.000431,0.004701
31541000,0.0324,0.013523,0.002678,0.000431,0.004701
31542000,0.0324,0.013523,0.002678,0.000431,0.004701
31543000,0.0324,0.013523,0.002678,0.000431,0.012223
31544000,0.0324,0.013523,0.002678,0.000431,0.020332
31545000,0.0324,0.013523,0.002678,0.000431,0.005876
31546000,0.0324,0.013523,0.002678,0.000431,0.005876
31547000,0.0324,0.013523,0.002678,0.000431,0.005876
31548000,0.0324,0.013523,0.002678,0.000431,0.005876
31549000,0.0324,0.013523,0.002678,0.000431,0.017982
31550000,0.0324,0.013523,0.002678,0.000431,0.031262
31551000,0.0324,0.013523,0.002678,0.000431,0.004466
31552000,0.0324,0.013523,0.002678,0.000431,0.004701
31553000,0.0324,0.013523,0.002678,0.000431,0.004701
31554000,0.0324,0.013523,0.002678,0.000431,0.004701
31555000,0.0324,0.013523,0.002678,0.000431,0.004701
31556000,0.0324,0.013523,0.002678,0.000431,0.004701
31557000,0.0324,0.013523,0.002678,0.000431,0.034553
31558000,0.0324,0.013523,0.002678,0.000431,0.004701
31559000,0.0324,0.013523,0.002678,0.000431,0.004466
31560000,0.0324,0.013523,0.002678,0.000431,0.004701
31561000,0.0324,0.013523,0.002678,0.000431,0.004701
31562000,0.0324,0.013523,0.002678,0.000431,0.004701
31563000,0.0324,0.013523,0.002678,0.000431,0.074395
31564000,0.0324,0.013523,0.002678,0.000431,0.009990
31565000,0.0324,0.013523,0.002678,0.000431,0.004701
31566000,0.0324,0.013523,0.002678,0.000431,0.004701
31567000,0.0324,0.013523,0.002678,0.000431,0.018805
31568000,0.0324,0.013523,0.002678,0.000431,0.015984
31569000,0.0324,0.013523,0.002678,0.000431,0.019745
31570000,0.0324,0.013523,0.002678,0.000431,0.012223
31571000,0.0324,0.013523,0.002678,0.000431,0.004701
31572000,0.0324,0.013523,0.002678,0.000431,0.004701
31573000,0.0324,0.013523,0.002678,0.000431,0.004701
31574000,0.0324,0.013523,0.002678,0.000431,0.012223
31575000,0.0324,0.013523,0.002678,0.000431,0.004701
31576000,0.0324,0.013523,0.002678,0.000431,0.008462
31577000,0.0324,0.013523,0.002678,0.000431,0.008462
31578000,0.0324,0.013523,0.002678,0.000431,0.004701
31579000,0.0324,0.013523,0.002678,0.000431,0.004701
31580000,0.0324,0.013523,0.002678,0.000431,0.012223
31581000,0.0324,0.013523,0.002678,0.000431,0.009755
31582000,0.0324,0.013523,0.002678,0.000431,0.052300
31583000,0.0324,0.013523,0.002678,0.000431,0.027031
31584000,0.0324,0.013523,0.002678,0.000431,0.004701
31585000,0.0324,0.013523,0.002678,0.000431,0.005054
31586000,0.0324,0.013523,0.002678,0.000431,0.005876
31587000,0.0324,0.013523,0.002678,0.000431,0.028442
31588000,0.0324,0.013523,0.002678,0.000431,0.013398
31589000,0.0324,0.013523,0.002678,0.000431,0.128458
31590000,0.0324,0.013523,0.002678,0.000431,0.004701
31591000,0.0324,0.013523,0.002678,0.000431,0.004701
31592000,0.0324,0.013523,0.002678,0.000431,0.004701
31593000,0.0324,0.013523,0.002678,0.000431,0.008697
31594000,0.0324,0.013523,0.002678,0.000431,0.008462
31595000,0.0324,0.013523,0.002678,0.000431,0.019862
31596000,0.0324,0.013523,0.002678,0.000431,0.027384
31597000,0.0324,0.013523,0.002678,0.000431,0.004701
31598000,0.0324,0.013523,0.002678,0.000431,0.004466
31599000,0.0324,0.013523,0.002678,0.000431,0.004584
31600000,0.0324,0.013523,0.002678,0.000431,0.004584
31601000,0.0324,0.013523,0.002678,0.000431,0.011988
31602000,0.0324,0.013523,0.002678,0.000431,0.019745
31603000,0.0324,0.013523,0.002678,0.000431,0.004701
31604000,0.0324,0.013523,0.002678,0.000431,0.004701
31605000,0.0324,0.013523,0.002678,0.000431,0.004701
31606000,0.0324,0.013523,0.002678,0.000431,0.004701
31607000,0.0324,0.013523,0.002678,0.000431,0.020332
31608000,0.0324,0.013523,0.002678,0.000431,0.019157
31609000,0.0324,0.013523,0.002678,0.000431,0.004701
31610000,0.0324,0.013523,0.002678,0.000431,0.004701
31611000,0.0324,0.013523,0.002678,0.000431,0.004701
31612000,0.0324,0.013523,0.002678,0.000431,0.004701
31613000,0.0324,0.013523,0.002678,0.000431,0.004701
31614000,0.0324,0.013523,0.002678,0.000431,0.113885
31615000,0.0324,0.013523,0.002678,0.000431,0.046189
31616000,0.0324,0.013523,0.002678,0.000431,0.005759
31617000,0.0324,0.013523,0.002678,0.000431,0.005876
31618000,0.0324,0.013523,0.002678,0.000431,0.005876
31619000,0.0324,0.013523,0.002678,0.000431,0.005876
31620000,0.0324,0.013523,0.002678,0.000431,0.020920
31621000,0.0324,0.013523,0.002678,0.000431,0.006111
31622000,0.0324,0.013523,0.002678,0.000431,0.005054
31623000,0.0324,0.013523,0.002678,0.000431,0.004584
31624000,0.0324,0.013523,0.002678,0.000431,0.004584
31625000,0.0324,0.013523,0.002678,0.000431,0.004701
31626000,0.0324,0.013523,0.002678,0.000431,0.004701
31627000,0.0324,0.013523,0.002678,0.000431,0.011283
31628000,0.0324,0.013523,0.002678,0.000431,0.050772
31629000,0.0324,0.013523,0.002678,0.000431,0.004701
31630000,0.0324,0.013523,0.002678,0.000431,0.004701
31631000,0.0324,0.013523,0.002678,0.000431,0.004701
31632000,0.0324,0.013523,0.002678,0.000431,0.004466
31633000,0.0324,0.013523,0.002678,0.000431,0.004701
31634000,0.0324,0.013523,0.002678,0.000431,0.042310
31635000,0.0324,0.013523,0.002678,0.000431,0.004701
31636000,0.0324,0.013523,0.002678,0.000431,0.004701
31637000,0.0324,0.013523,0.002678,0.000431,0.004701
31638000,0.0324,0.013523,0.002678,0.000431,0.004701
31639000,0.0324,0.013523,0.002678,0.000431,0.004466
31640000,0.0324,0.013523,0.002678,0.000431,0.016101
31641000,0.0324,0.013523,0.002678,0.000431,0.015866
31642000,0.0324,0.013523,0.002678,0.000431,0.004701
31643000,0.0324,0.013523,0.002678,0.000431,0.004701
31644000,0.0324,0.013523,0.002678,0.000431,0.004701
31645000,0.0324,0.013523,0.002678,0.000431,0.004701
31646000,0.0324,0.013523,0.002678,0.000431,0.004701
31647000,0.0324,0.013523,0.002678,0.000431,0.061350
31648000,0.0324,0.013523,0.002678,0.000431,0.030557
31649000,0.0324,0.013523,0.002678,0.000431,0.012223
31650000,0.0324,0.013523,0.002678,0.000431,0.004701
31651000,0.0324,0.013523,0.002678,0.000431,0.004701
31652000,0.0324,0.013523,0.002678,0.000431,0.004701
31653000,0.0324,0.013523,0.002678,0.000431,0.010342
31654000,0.0324,0.013523,0.002678,0.000431,0.021625
31655000,0.0324,0.013523,0.002678,0.000431,0.004701
31656000,0.0324,0.013523,0.002678,0.000431,0.004701
31657000,0.0324,0.013523,0.002678,0.000431,0.004701
31658000,0.0324,0.013523,0.002678,0.000431,0.004701
31659000,0.0324,0.013523,0.002678,0.000431,0.004701
31660000,0.0324,0.013523,0.002678,0.000431,0.027267
31661000,0.0324,0.013523,0.002678,0.000431,0.004701
31662000,0.0324,0.013523,0.002678,0.000431,0.050067
31663000,0.0324,0.013523,0.002678,0.000431,0.004584
31664000,0.0324,0.013523,0.002678,0.000431,0.027737
31665000,0.0324,0.013523,0.002678,0.000431,0.005876
31666000,0.0324,0.013523,0.002678,0.000431,0.005876
31667000,0.0324,0.013523,0.002678,0.000431,0.005876
31668000,0.0324,0.013523,0.002678,0.000431,0.005876
31669000,0.0324,0.013523,0.002678,0.000431,0.020920
31670000,0.0324,0.013523,0.002678,0.000431,0.006699
31671000,0.0324,0.013523,0.002678,0.000431,0.019040
31672000,0.0324,0.013523,0.002678,0.000431,0.004466
31673000,0.0324,0.013523,0.002678,0.000431,0.012223
31674000,0.0324,0.013523,0.002678,0.000431,0.004701
31675000,0.0324,0.013523,0.002678,0.000431,0.004701
31676000,0.0324,0.013523,0.002678,0.000431,0.004701
31677000,0.0324,0.013523,0.002678,0.000431,0.037962
31678000,0.0324,0.013523,0.002678,0.000431,0.005876
31679000,0.0324,0.013523,0.002678,0.000431,0.005759
31680000,0.0324,0.013523,0.002678,0.000431,0.005759
31681000,0.0324,0.013523,0.002678,0.000431,0.005289
31682000,0.0324,0.013523,0.002678,0.000431,0.004701
31683000,0.0324,0.013523,0.002678,0.000431,0.004701
31684000,0.0324,0.013523,0.002678,0.000431,0.012223
31685000,0.0324,0.013523,0.002678,0.000431,0.004701
31686000,0.0324,0.013523,0.002678,0.000431,0.004701
31687000,0.0324,0.013523,0.002678,0.000431,0.004701
31688000,0.0324,0.013523,0.002678,0.000431,0.004701
31689000,0.0324,0.013523,0.002678,0.000431,0.004701
31690000,0.0324,0.013523,0.002678,0.000431,0.016571
31691000,0.0324,0.013523,0.002678,0.000431,0.009637
31692000,0.0324,0.013523,0.002678,0.000431,0.005876
31693000,0.0324,0.013523,0.002678,0.000431,0.005876
31694000,0.0324,0.013523,0.002678,0.000431,0.005876
31695000,0.0324,0.013523,0.002678,0.000431,0.005876
31696000,0.0324,0.013523,0.002678,0.000431,0.005759
31697000,0.0324,0.013523,0.002678,0.000431,0.004701
31698000,0.0324,0.013523,0.002678,0.000431,0.004701
31699000,0.0324,0.013523,0.002678,0.000431,0.004701
31700000,0.0324,0.013523,0.002678,0.000431,0.004701
31701000,0.0324,0.013523,0.002678,0.000431,0.004701
31702000,0.0324,0.013523,0.002678,0.000431,0.004466
31703000,0.0324,0.013523,0.002678,0.000431,0.035023
31704000,0.0324,0.013523,0.002678,0.000431,0.004466
31705000,0.0324,0.013523,0.002678,0.000431,0.012223
31706000,0.0324,0.013523,0.002678,0.000431,0.004701
31707000,0.0324,0.013523,0.002678,0.000431,0.004701
31708000,0.0324,0.013523,0.002678,0.000431,0.005759
31709000,0.0324,0.013523,0.002678,0.000431,0.020920
31710000,0.0324,0.013523,0.002678,0.000431,0.005876
31711000,0.0324,0.013523,0.002678,0.000431,0.042075
31712000,0.0324,0.013523,0.002678,0.000431,0.055708
31713000,0.0324,0.013523,0.002678,0.000431,0.005876
31714000,0.0324,0.013523,0.002678,0.000431,0.005876
31715000,0.0324,0.013523,0.002678,0.000431,0.005641
31716000,0.0324,0.013523,0.002678,0.000431,0.029735
31717000,0.0324,0.013523,0.002678,0.000431,0.004701
31718000,0.0324,0.013523,0.002678,0.000431,0.019745
31719000,0.0324,0.013523,0.002678,0.000431,0.004701
31720000,0.0324,0.013523,0.002678,0.000431,0.004701
31721000,0.0324,0.013523,0.002678,0.000431,0.004701
31722000,0.0324,0.013523,0.002678,0.000431,0.019745
31723000,0.0324,0.013523,0.002678,0.000431,0.004701
31724000,0.0324,0.013523,0.002678,0.000431,0.004701
31725000,0.0324,0.013523,0.002678,0.000431,0.004701
31726000,0.0324,0.013523,0.002678,0.000431,0.004701
31727000,0.0324,0.013523,0.002678,0.000431,0.004701
31728000,0.0324,0.013523,0.002678,0.000431,0.012340
31729000,0.0324,0.013523,0.002678,0.000431,0.012340
31730000,0.0324,0.013523,0.002678,0.000431,0.004701
31731000,0.0324,0.013523,0.002678,0.000431,0.004701
31732000,0.0324,0.013523,0.002678,0.000431,0.004701
31733000,0.0324,0.013523,0.002678,0.000431,0.004701
31734000,0.0324,0.013523,0.002678,0.000431,0.004701
31735000,0.0324,0.013523,0.002678,0.000431,0.004701
31736000,0.0324,0.013523,0.002678,0.000431,0.004701
31737000,0.0324,0.013523,0.002678,0.000431,0.035376
31738000,0.0324,0.013523,0.002678,0.000431,0.005876
31739000,0.0324,0.013523,0.002678,0.000431,0.005876
31740000,0.0324,0.013523,0.002678,0.000431,0.005524
31741000,0.0324,0.013523,0.002678,0.000431,0.075336
31742000,0.0324,0.013523,0.002678,0.000431,0.035023
31743000,0.0324,0.013523,0.002678,0.000431,0.007287
31744000,0.0324,0.013523,0.002678,0.000431,0.005876
31745000,0.0324,0.013523,0.002678,0.000431,0.005876
31746000,0.0324,0.013523,0.002678,0.000431,0.005876
31747000,0.0324,0.013523,0.002678,0.000431,0.005876
31748000,0.0324,0.013523,0.002678,0.000431,0.012693
31749000,0.0324,0.013523,0.002678,0.000431,0.012105
31750000,0.0324,0.013523,0.002678,0.000431,0.019745
31751000,0.0324,0.013523,0.002678,0.000431,0.004701
31752000,0.0324,0.013523,0.002678,0.000431,0.005759
31753000,0.0324,0.013523,0.002678,0.000431,0.005876
31754000,0.0324,0.013523,0.002678,0.000431,0.013398
31755000,0.0324,0.013523,0.002678,0.000431,0.005876
31756000,0.0324,0.013523,0.002678,0.000431,0.027972
31757000,0.0324,0.013523,0.002678,0.000431,0.005876
31758000,0.0324,0.013523,0.002678,0.000431,0.021508
31759000,0.0324,0.013523,0.002678,0.000431,0.007052
31760000,0.0324,0.013523,0.002678,0.000431,0.007052
31761000,0.0324,0.013523,0.002678,0.000431,0.102955
31762000,0.0324,0.013523,0.002678,0.000431,0.007874
31763000,0.0324,0.013523,0.002678,0.000431,0.035964
31764000,0.0324,0.013523,0.002678,0.000431,0.005876
31765000,0.0324,0.013523,0.002678,0.000431,0.005876
31766000,0.0324,0.013523,0.002678,0.000431,0.005406
31767000,0.0324,0.013523,0.002678,0.000431,0.058764
31768000,0.0324,0.013523,0.002678,0.000431,0.005876
31769000,0.0324,0.013523,0.002678,0.000431,0.005876
31770000,0.0324,0.013523,0.002678,0.000431,0.005876
31771000,0.0324,0.013523,0.002678,0.000431,0.005289
31772000,0.0324,0.013523,0.002678,0.000431,0.004701
31773000,0.0324,0.013523,0.002678,0.000431,0.004701
31774000,0.0324,0.013523,0.002678,0.000431,0.004701
31775000,0.0324,0.013523,0.002678,0.000431,0.004701
31776000,0.0324,0.013523,0.002678,0.000431,0.004701
31777000,0.0324,0.013523,0.002678,0.000431,0.012105
31778000,0.0324,0.013523,0.002678,0.000431,0.004584
31779000,0.0324,0.013523,0.002678,0.000431,0.004701
31780000,0.0324,0.013523,0.002678,0.000431,0.004466
31781000,0.0324,0.013523,0.002678,0.000431,0.004701
31782000,0.0324,0.013523,0.002678,0.000431,0.004701
31783000,0.0324,0.013523,0.002678,0.000431,0.004701
31784000,0.0324,0.013523,0.002678,0.000431,0.004701
31785000,0.0324,0.013523,0.002678,0.000431,0.004701
31786000,0.0324,0.013523,0.002678,0.000431,0.004701
31787000,0.0324,0.013523,0.002678,0.000431,0.004701
31788000,0.0324,0.013523,0.002678,0.000431,0.012223
31789000,0.0324,0.013523,0.002678,0.000431,0.019745
31790000,0.0324,0.013523,0.002678,0.000431,0.042545
31791000,0.0324,0.013523,0.002678,0.000431,0.004701
31792000,0.0324,0.013523,0.002678,0.000431,0.004701
31793000,0.0324,0.013523,0.002678,0.000431,0.012223
31794000,0.0324,0.013523,0.002678,0.000431,0.012223
31795000,0.0324,0.013523,0.002678,0.000431,0.005759
31796000,0.0324,0.013523,0.002678,0.000431,0.035964
31797000,0.0324,0.013523,0.002678,0.000431,0.020685
31798000,0.0324,0.013523,0.002678,0.000431,0.005876
31799000,0.0324,0.013523,0.002678,0.000431,0.031850
31800000,0.0324,0.013523,0.002678,0.000431,0.009990
31801000,0.0324,0.013523,0.002678,0.000431,0.005054
31802000,0.0324,0.013523,0.002678,0.000431,0.004701
31803000,0.0324,0.013523,0.002678,0.000431,0.023506
31804000,0.0324,0.013523,0.002678,0.000431,0.008462
31805000,0.0324,0.013523,0.002678,0.000431,0.004701
31806000,0.0324,0.013523,0.002678,0.000431,0.019745
31807000,0.0324,0.013523,0.002678,0.000431,0.004701
31808000,0.0324,0.013523,0.002678,0.000431,0.004701
31809000,0.0324,0.013523,0.002678,0.000431,0.014809
31810000,0.0324,0.013523,0.002678,0.000431,0.009637
31811000,0.0324,0.013523,0.002678,0.000431,0.004584
31812000,0.0324,0.013523,0.002678,0.000431,0.004584
31813000,0.0324,0.013523,0.002678,0.000431,0.012223
31814000,0.0324,0.013523,0.002678,0.000431,0.004466
31815000,0.0324,0.013523,0.002678,0.000431,0.004701
31816000,0.0324,0.013523,0.002678,0.000431,0.012223
31817000,0.0324,0.013523,0.002678,0.000431,0.004701
31818000,0.0324,0.013523,0.002678,0.000431,0.004701
31819000,0.0324,0.013523,0.002678,0.000431,0.065111
31820000,0.0324,0.013523,0.002678,0.000431,0.004466
31821000,0.0324,0.013523,0.002678,0.000431,0.004701
31822000,0.0324,0.013523,0.002678,0.000431,0.004701
31823000,0.0324,0.013523,0.002678,0.000431,0.004701
31824000,0.0324,0.013523,0.002678,0.000431,0.004701
31825000,0.0324,0.013523,0.002678,0.000431,0.012223
31826000,0.0324,0.013523,0.002678,0.000431,0.004701
31827000,0.0324,0.013523,0.002678,0.000431,0.004701
31828000,0.0324,0.013523,0.002678,0.000431,0.004701
31829000,0.0324,0.013523,0.002678,0.000431,0.004701
31830000,0.0324,0.013523,0.002678,0.000431,0.004701
31831000,0.0324,0.013523,0.002678,0.000431,0.004701
31832000,0.0324,0.013523,0.002678,0.000431,0.027267
31833000,0.0324,0.013523,0.002678,0.000431,0.004701
31834000,0.0324,0.013523,0.002678,0.000431,0.004701
31835000,0.0324,0.013523,0.002678,0.000431,0.004701
31836000,0.0324,0.013523,0.002678,0.000431,0.004701
31837000,0.0324,0.013523,0.002678,0.000431,0.004701
31838000,0.0324,0.013523,0.002678,0.000431,0.004701
31839000,0.0324,0.013523,0.002678,0.000431,0.012223
31840000,0.0324,0.013523,0.002678,0.000431,0.004701
31841000,0.0324,0.013523,0.002678,0.000431,0.004466
31842000,0.0324,0.013523,0.002678,0.000431,0.004701
31843000,0.0324,0.013523,0.002678,0.000431,0.004701
31844000,0.0324,0.013523,0.002678,0.000431,0.004701
31845000,0.0324,0.013523,0.002678,0.000431,0.012223
31846000,0.0324,0.013523,0.002678,0.000431,0.012223
31847000,0.0324,0.013523,0.002678,0.000431,0.004701
31848000,0.0324,0.013523,0.002678,0.000431,0.027384
31849000,0.0324,0.013523,0.002678,0.000431,0.013868
31850000,0.0324,0.013523,0.002678,0.000431,0.005876
31851000,0.0324,0.013523,0.002678,0.000431,0.020802
31852000,0.0324,0.013523,0.002678,0.000431,0.021155
31853000,0.0324,0.013523,0.002678,0.000431,0.008109
31854000,0.0324,0.013523,0.002678,0.000431,0.005641
31855000,0.0324,0.013523,0.002678,0.000431,0.013398
31856000,0.0324,0.013523,0.002678,0.000431,0.005876
31857000,0.0324,0.013523,0.002678,0.000431,0.005876
31858000,0.0324,0.013523,0.002678,0.000431,0.005876
31859000,0.0324,0.013523,0.002678,0.000431,0.004819
31860000,0.0324,0.013523,0.002678,0.000431,0.004701
31861000,0.0324,0.013523,0.002678,0.000431,0.027031
31862000,0.0324,0.013523,0.002678,0.000431,0.027502
31863000,0.0324,0.013523,0.002678,0.000431,0.004701
31864000,0.0324,0.013523,0.002678,0.000431,0.042075
31865000,0.0324,0.013523,0.002678,0.000431,0.004701
31866000,0.0324,0.013523,0.002678,0.000431,0.004701
31867000,0.0324,0.013523,0.002678,0.000431,0.004701
31868000,0.0324,0.013523,0.002678,0.000431,0.027267
31869000,0.0324,0.013523,0.002678,0.000431,0.004701
31870000,0.0324,0.013523,0.002678,0.000431,0.010930
31871000,0.0324,0.013523,0.002678,0.000431,0.005994
31872000,0.0324,0.013523,0.002678,0.000431,0.004701
31873000,0.0324,0.013523,0.002678,0.000431,0.004701
31874000,0.0324,0.013523,0.002678,0.000431,0.004701
31875000,0.0324,0.013523,0.002678,0.000431,0.005524
31876000,0.0324,0.013523,0.002678,0.000431,0.005876
31877000,0.0324,0.013523,0.002678,0.000431,0.014221
31878000,0.0324,0.013523,0.002678,0.000431,0.007052
31879000,0.0324,0.013523,0.002678,0.000431,0.006582
31880000,0.0324,0.013523,0.002678,0.000431,0.007169
31881000,0.0324,0.013523,0.002678,0.000431,0.006582
31882000,0.0324,0.013523,0.002678,0.000431,0.005876
31883000,0.0324,0.013523,0.002678,0.000431,0.021038
31884000,0.0324,0.013523,0.002678,0.000431,0.004701
31885000,0.0324,0.013523,0.002678,0.000431,0.012105
31886000,0.0324,0.013523,0.002678,0.000431,0.004584
31887000,0.0324,0.013523,0.002678,0.000431,0.004701
31888000,0.0324,0.013523,0.002678,0.000431,0.004701
31889000,0.0324,0.013523,0.002678,0.000431,0.004701
31890000,0.0324,0.013523,0.002678,0.000431,0.012223
31891000,0.0324,0.013523,0.002678,0.000431,0.008580
31892000,0.0324,0.013523,0.002678,0.000431,0.009637
31893000,0.0324,0.013523,0.002678,0.000431,0.017747
31894000,0.0324,0.013523,0.002678,0.000431,0.008580
31895000,0.0324,0.013523,0.002678,0.000431,0.005876
31896000,0.0324,0.013523,0.002678,0.000431,0.020920
31897000,0.0324,0.013523,0.002678,0.000431,0.005876
31898000,0.0324,0.013523,0.002678,0.000431,0.012811
31899000,0.0324,0.013523,0.002678,0.000431,0.004701
31900000,0.0324,0.013523,0.002678,0.000431,0.004701
31901000,0.0324,0.013523,0.002678,0.000431,0.004701
31902000,0.0324,0.013523,0.002678,0.000431,0.004584
31903000,0.0324,0.013523,0.002678,0.000431,0.004584
31904000,0.0324,0.013523,0.002678,0.000431,0.004701
31905000,0.0324,0.013523,0.002678,0.000431,0.004701
31906000,0.0324,0.013523,0.002678,0.000431,0.004701
31907000,0.0324,0.013523,0.002678,0.000431,0.004701
31908000,0.0324,0.013523,0.002678,0.000431,0.004466
31909000,0.0324,0.013523,0.002678,0.000431,0.019745
31910000,0.0324,0.013523,0.002678,0.000431,0.004701
31911000,0.0324,0.013523,0.002678,0.000431,0.012223
31912000,0.0324,0.013523,0.002678,0.000431,0.004701
31913000,0.0324,0.013523,0.002678,0.000431,0.004701
31914000,0.0324,0.013523,0.002678,0.000431,0.004701
31915000,0.0324,0.013523,0.002678,0.000431,0.004701
31916000,0.0324,0.013523,0.002678,0.000431,0.004701
31917000,0.0324,0.013523,0.002678,0.000431,0.018334
31918000,0.0324,0.013523,0.002678,0.000431,0.005876
31919000,0.0324,0.013523,0.002678,0.000431,0.004701
31920000,0.0324,0.013523,0.002678,0.000431,0.004701
31921000,0.0324,0.013523,0.002678,0.000431,0.004701
31922000,0.0324,0.013523,0.002678,0.000431,0.004701
31923000,0.0324,0.013523,0.002678,0.000431,0.004701
31924000,0.0324,0.013523,0.002678,0.000431,0.004701
31925000,0.0324,0.013523,0.002678,0.000431,0.004584
31926000,0.0324,0.013523,0.002678,0.000431,0.004584
31927000,0.0324,0.013523,0.002678,0.000431,0.004701
31928000,0.0324,0.013523,0.002678,0.000431,0.012223
31929000,0.0324,0.013523,0.002678,0.000431,0.013281
31930000,0.0324,0.013523,0.002678,0.000431,0.005876
31931000,0.0324,0.013523,0.002678,0.000431,0.005876
31932000,0.0324,0.013523,0.002678,0.000431,0.005876
31933000,0.0324,0.013523,0.002678,0.000431,0.005876
31934000,0.0324,0.013523,0.002678,0.000431,0.005876
31935000,0.0324,0.013523,0.002678,0.000431,0.035376
31936000,0.0324,0.013523,0.002678,0.000431,0.004466
31937000,0.0324,0.013523,0.002678,0.000431,0.019745
31938000,0.0324,0.013523,0.002678,0.000431,0.004701
31939000,0.0324,0.013523,0.002678,0.000431,0.004701
31940000,0.0324,0.013523,0.002678,0.000431,0.004701
31941000,0.0324,0.013523,0.002678,0.000431,0.019745
31942000,0.0324,0.013523,0.002678,0.000431,0.012223
31943000,0.0324,0.013523,0.002678,0.000431,0.045013
31944000,0.0324,0.013523,0.002678,0.000431,0.017629
31945000,0.0324,0.013523,0.002678,0.000431,0.005406
31946000,0.0324,0.013523,0.002678,0.000431,0.005876
31947000,0.0324,0.013523,0.002678,0.000431,0.009637
31948000,0.0324,0.013523,0.002678,0.000431,0.008697
31949000,0.0324,0.013523,0.002678,0.000431,0.004584
31950000,0.0324,0.013523,0.002678,0.000431,0.042545
31951000,0.0324,0.013523,0.002678,0.000431,0.004819
31952000,0.0324,0.013523,0.002678,0.000431,0.005876
31953000,0.0324,0.013523,0.002678,0.000431,0.005876
31954000,0.0324,0.013523,0.002678,0.000431,0.029265
31955000,0.0324,0.013523,0.002678,0.000431,0.007052
31956000,0.0324,0.013523,0.002678,0.000431,0.007052
31957000,0.0324,0.013523,0.002678,0.000431,0.007052
31958000,0.0324,0.013523,0.002678,0.000431,0.028794
31959000,0.0324,0.013523,0.002678,0.000431,0.005876
31960000,0.0324,0.013523,0.002678,0.000431,0.005524
31961000,0.0324,0.013523,0.002678,0.000431,0.004701
31962000,0.0324,0.013523,0.002678,0.000431,0.004701
31963000,0.0324,0.013523,0.002678,0.000431,0.004349
31964000,0.0324,0.013523,0.002678,0.000431,0.012105
31965000,0.0324,0.013523,0.002678,0.000431,0.004701
31966000,0.0324,0.013523,0.002678,0.000431,0.004701
31967000,0.0324,0.013523,0.002678,0.000431,0.019745
31968000,0.0324,0.013523,0.002678,0.000431,0.004701
31969000,0.0324,0.013523,0.002678,0.000431,0.004701
31970000,0.0324,0.013523,0.002678,0.000431,0.004701
31971000,0.0324,0.013523,0.002678,0.000431,0.034318
31972000,0.0324,0.013523,0.002678,0.000431,0.004701
31973000,0.0324,0.013523,0.002678,0.000431,0.028324
31974000,0.0324,0.013523,0.002678,0.000431,0.018217
31975000,0.0324,0.013523,0.002678,0.000431,0.004701
31976000,0.0324,0.013523,0.002678,0.000431,0.004701
31977000,0.0324,0.013523,0.002678,0.000431,0.008462
31978000,0.0324,0.013523,0.002678,0.000431,0.008462
31979000,0.0324,0.013523,0.002678,0.000431,0.004701
31980000,0.0324,0.013523,0.002678,0.000431,0.019510
31981000,0.0324,0.013523,0.002678,0.000431,0.004701
31982000,0.0324,0.013523,0.002678,0.000431,0.004584
31983000,0.0324,0.013523,0.002678,0.000431,0.004584
31984000,0.0324,0.013523,0.002678,0.000431,0.004701
31985000,0.0324,0.013523,0.002678,0.000431,0.004701
31986000,0.0324,0.013523,0.002678,0.000431,0.012223
31987000,0.0324,0.013523,0.002678,0.000431,0.004701
31988000,0.0324,0.013523,0.002678,0.000431,0.008227
31989000,0.0324,0.013523,0.002678,0.000431,0.008462
31990000,0.0324,0.013523,0.002678,0.000431,0.004701
31991000,0.0324,0.013523,0.002678,0.000431,0.004701
31992000,0.0324,0.013523,0.002678,0.000431,0.004701
31993000,0.0324,0.013523,0.002678,0.000431,0.005289
31994000,0.0324,0.013523,0.002678,0.000431,0.005876
31995000,0.0324,0.013523,0.002678,0.000431,0.005876
31996000,0.0324,0.013523,0.002678,0.000431,0.024328
31997000,0.0324,0.013523,0.002678,0.000431,0.004701
31998000,0.0324,0.013523,0.002678,0.000431,0.004701
31999000,0.0324,0.013523,0.002678,0.000431,0.004584
