Cycle,Area(mm^2),PeakDynamic(W),SubthresholdLeakage(W),GateLeakage(W),RunTimeDynamic(W)
1000000,0.0324,0.013523,0.002678,0.000431,0.155607
1001000,0.0324,0.013523,0.002678,0.000431,0.092025
1002000,0.0324,0.013523,0.002678,0.000431,0.145147
1003000,0.0324,0.013523,0.002678,0.000431,0.277367
1004000,0.0324,0.013523,0.002678,0.000431,0.176410
1005000,0.0324,0.013523,0.002678,0.000431,0.241285
1006000,0.0324,0.013523,0.002678,0.000431,0.161601
1007000,0.0324,0.013523,0.002678,0.000431,0.094845
1008000,0.0324,0.013523,0.002678,0.000431,0.053828
1009000,0.0324,0.013523,0.002678,0.000431,0.087911
1010000,0.0324,0.013523,0.002678,0.000431,0.156195
1011000,0.0324,0.013523,0.002678,0.000431,0.133394
1012000,0.0324,0.013523,0.002678,0.000431,0.082975
1013000,0.0324,0.013523,0.002678,0.000431,0.106716
1014000,0.0324,0.013523,0.002678,0.000431,0.045718
1015000,0.0324,0.013523,0.002678,0.000431,0.069459
1016000,0.0324,0.013523,0.002678,0.000431,0.133512
1017000,0.0324,0.013523,0.002678,0.000431,0.167360
1018000,0.0324,0.013523,0.002678,0.000431,0.316268
1019000,0.0324,0.013523,0.002678,0.000431,0.048657
1020000,0.0324,0.013523,0.002678,0.000431,0.134100
1021000,0.0324,0.013523,0.002678,0.000431,0.072632
1022000,0.0324,0.013523,0.002678,0.000431,0.081565
1023000,0.0324,0.013523,0.002678,0.000431,0.076628
1024000,0.0324,0.013523,0.002678,0.000431,0.137038
1025000,0.0324,0.013523,0.002678,0.000431,0.109654
1026000,0.0324,0.013523,0.002678,0.000431,0.046424
1027000,0.0324,0.013523,0.002678,0.000431,0.053828
1028000,0.0324,0.013523,0.002678,0.000431,0.167125
1029000,0.0324,0.013523,0.002678,0.000431,0.195567
1030000,0.0324,0.013523,0.002678,0.000431,0.115060
1031000,0.0324,0.013523,0.002678,0.000431,0.175470
1032000,0.0324,0.013523,0.002678,0.000431,0.097078
1033000,0.0324,0.013523,0.002678,0.000431,0.042663
1034000,0.0324,0.013523,0.002678,0.000431,0.089556
1035000,0.0324,0.013523,0.002678,0.000431,0.139388
1036000,0.0324,0.013523,0.002678,0.000431,0.097196
1037000,0.0324,0.013523,0.002678,0.000431,0.427332
1038000,0.0324,0.013523,0.002678,0.000431,0.169241
1039000,0.0324,0.013523,0.002678,0.000431,0.147615
1040000,0.0324,0.013523,0.002678,0.000431,0.050302
1041000,0.0324,0.013523,0.002678,0.000431,0.061467
1042000,0.0324,0.013523,0.002678,0.000431,0.057706
1043000,0.0324,0.013523,0.002678,0.000431,0.292645
1044000,0.0324,0.013523,0.002678,0.000431,0.134922
1045000,0.0324,0.013523,0.002678,0.000431,0.124227
1046000,0.0324,0.013523,0.002678,0.000431,0.077334
1047000,0.0324,0.013523,0.002678,0.000431,0.095315
1048000,0.0324,0.013523,0.002678,0.000431,0.110241
1049000,0.0324,0.013523,0.002678,0.000431,0.132572
1050000,0.0324,0.013523,0.002678,0.000431,0.181111
1051000,0.0324,0.013523,0.002678,0.000431,0.169828
1052000,0.0324,0.013523,0.002678,0.000431,0.195802
1053000,0.0324,0.013523,0.002678,0.000431,0.089086
1054000,0.0324,0.013523,0.002678,0.000431,0.043250
1055000,0.0324,0.013523,0.002678,0.000431,0.135157
1056000,0.0324,0.013523,0.002678,0.000431,0.210611
1057000,0.0324,0.013523,0.002678,0.000431,0.229650
1058000,0.0324,0.013523,0.002678,0.000431,0.154432
1059000,0.0324,0.013523,0.002678,0.000431,0.043720
1060000,0.0324,0.013523,0.002678,0.000431,0.060762
1061000,0.0324,0.013523,0.002678,0.000431,0.129516
1062000,0.0324,0.013523,0.002678,0.000431,0.232471
1063000,0.0324,0.013523,0.002678,0.000431,0.210728
1064000,0.0324,0.013523,0.002678,0.000431,0.113062
1065000,0.0324,0.013523,0.002678,0.000431,0.155255
1066000,0.0324,0.013523,0.002678,0.000431,0.087558
1067000,0.0324,0.013523,0.002678,0.000431,0.109301
1068000,0.0324,0.013523,0.002678,0.000431,0.111534
1069000,0.0324,0.013523,0.002678,0.000431,0.176997
1070000,0.0324,0.013523,0.002678,0.000431,0.201326
1071000,0.0324,0.013523,0.002678,0.000431,0.089556
1072000,0.0324,0.013523,0.002678,0.000431,0.063230
1073000,0.0324,0.013523,0.002678,0.000431,0.072750
1074000,0.0324,0.013523,0.002678,0.000431,0.102602
1075000,0.0324,0.013523,0.002678,0.000431,0.087206
1076000,0.0324,0.013523,0.002678,0.000431,0.349176
1077000,0.0324,0.013523,0.002678,0.000431,0.135510
1078000,0.0324,0.013523,0.002678,0.000431,0.103072
1079000,0.0324,0.013523,0.002678,0.000431,0.057236
1080000,0.0324,0.013523,0.002678,0.000431,0.141504
1081000,0.0324,0.013523,0.002678,0.000431,0.124462
1082000,0.0324,0.013523,0.002678,0.000431,0.139623
1083000,0.0324,0.013523,0.002678,0.000431,0.186517
1084000,0.0324,0.013523,0.002678,0.000431,0.082857
1085000,0.0324,0.013523,0.002678,0.000431,0.092495
1086000,0.0324,0.013523,0.002678,0.000431,0.072867
1087000,0.0324,0.013523,0.002678,0.000431,0.072632
1088000,0.0324,0.013523,0.002678,0.000431,0.125168
1089000,0.0324,0.013523,0.002678,0.000431,0.257152
1090000,0.0324,0.013523,0.002678,0.000431,0.150789
1091000,0.0324,0.013523,0.002678,0.000431,0.050302
1092000,0.0324,0.013523,0.002678,0.000431,0.057824
1093000,0.0324,0.013523,0.002678,0.000431,0.076628
1094000,0.0324,0.013523,0.002678,0.000431,0.164657
1095000,0.0324,0.013523,0.002678,0.000431,0.091084
1096000,0.0324,0.013523,0.002678,0.000431,0.066521
1097000,0.0324,0.013523,0.002678,0.000431,0.132454
1098000,0.0324,0.013523,0.002678,0.000431,0.139506
1099000,0.0324,0.013523,0.002678,0.000431,0.050067
1100000,0.0324,0.013523,0.002678,0.000431,0.141739
1101000,0.0324,0.013523,0.002678,0.000431,0.171239
1102000,0.0324,0.013523,0.002678,0.000431,0.260442
1103000,0.0324,0.013523,0.002678,0.000431,0.174999
1104000,0.0324,0.013523,0.002678,0.000431,0.099194
1105000,0.0324,0.013523,0.002678,0.000431,0.114120
1106000,0.0324,0.013523,0.002678,0.000431,0.072515
1107000,0.0324,0.013523,0.002678,0.000431,0.087676
1108000,0.0324,0.013523,0.002678,0.000431,0.235056
1109000,0.0324,0.013523,0.002678,0.000431,0.132924
1110000,0.0324,0.013523,0.002678,0.000431,0.038667
1111000,0.0324,0.013523,0.002678,0.000431,0.148086
1112000,0.0324,0.013523,0.002678,0.000431,0.110006
1113000,0.0324,0.013523,0.002678,0.000431,0.132572
1114000,0.0324,0.013523,0.002678,0.000431,0.162541
1115000,0.0324,0.013523,0.002678,0.000431,0.259737
1116000,0.0324,0.013523,0.002678,0.000431,0.309687
1117000,0.0324,0.013523,0.002678,0.000431,0.035023
1118000,0.0324,0.013523,0.002678,0.000431,0.077334
1119000,0.0324,0.013523,0.002678,0.000431,0.149143
1120000,0.0324,0.013523,0.002678,0.000431,0.142327
1121000,0.0324,0.013523,0.002678,0.000431,0.080154
1122000,0.0324,0.013523,0.002678,0.000431,0.302753
1123000,0.0324,0.013523,0.002678,0.000431,0.203441
1124000,0.0324,0.013523,0.002678,0.000431,0.192746
1125000,0.0324,0.013523,0.002678,0.000431,0.110359
1126000,0.0324,0.013523,0.002678,0.000431,0.132689
1127000,0.0324,0.013523,0.002678,0.000431,0.108361
1128000,0.0324,0.013523,0.002678,0.000431,0.237995
1129000,0.0324,0.013523,0.002678,0.000431,0.264086
1130000,0.0324,0.013523,0.002678,0.000431,0.185577
1131000,0.0324,0.013523,0.002678,0.000431,0.136568
1132000,0.0324,0.013523,0.002678,0.000431,0.061585
1133000,0.0324,0.013523,0.002678,0.000431,0.099311
1134000,0.0324,0.013523,0.002678,0.000431,0.277719
1135000,0.0324,0.013523,0.002678,0.000431,0.104247
1136000,0.0324,0.013523,0.002678,0.000431,0.198975
1137000,0.0324,0.013523,0.002678,0.000431,0.096021
1138000,0.0324,0.013523,0.002678,0.000431,0.220483
1139000,0.0324,0.013523,0.002678,0.000431,0.178173
1140000,0.0324,0.013523,0.002678,0.000431,0.191924
1141000,0.0324,0.013523,0.002678,0.000431,0.125638
1142000,0.0324,0.013523,0.002678,0.000431,0.344005
1143000,0.0324,0.013523,0.002678,0.000431,0.076981
1144000,0.0324,0.013523,0.002678,0.000431,0.195802
1145000,0.0324,0.013523,0.002678,0.000431,0.289237
1146000,0.0324,0.013523,0.002678,0.000431,0.133982
1147000,0.0324,0.013523,0.002678,0.000431,0.234469
1148000,0.0324,0.013523,0.002678,0.000431,0.159838
1149000,0.0324,0.013523,0.002678,0.000431,0.131044
1150000,0.0324,0.013523,0.002678,0.000431,0.073808
1151000,0.0324,0.013523,0.002678,0.000431,0.051242
1152000,0.0324,0.013523,0.002678,0.000431,0.064758
1153000,0.0324,0.013523,0.002678,0.000431,0.178760
1154000,0.0324,0.013523,0.002678,0.000431,0.220130
1155000,0.0324,0.013523,0.002678,0.000431,0.209788
1156000,0.0324,0.013523,0.002678,0.000431,0.169711
1157000,0.0324,0.013523,0.002678,0.000431,0.090262
1158000,0.0324,0.013523,0.002678,0.000431,0.068754
1159000,0.0324,0.013523,0.002678,0.000431,0.093435
1160000,0.0324,0.013523,0.002678,0.000431,0.328374
1161000,0.0324,0.013523,0.002678,0.000431,0.273253
1162000,0.0324,0.013523,0.002678,0.000431,0.343417
1163000,0.0324,0.013523,0.002678,0.000431,0.116941
1164000,0.0324,0.013523,0.002678,0.000431,0.080859
1165000,0.0324,0.013523,0.002678,0.000431,0.066168
1166000,0.0324,0.013523,0.002678,0.000431,0.086736
1167000,0.0324,0.013523,0.002678,0.000431,0.137626
1168000,0.0324,0.013523,0.002678,0.000431,0.130574
1169000,0.0324,0.013523,0.002678,0.000431,0.162306
1170000,0.0324,0.013523,0.002678,0.000431,0.117881
1171000,0.0324,0.013523,0.002678,0.000431,0.057706
1172000,0.0324,0.013523,0.002678,0.000431,0.061937
1173000,0.0324,0.013523,0.002678,0.000431,0.214842
1174000,0.0324,0.013523,0.002678,0.000431,0.140681
1175000,0.0324,0.013523,0.002678,0.000431,0.205557
1176000,0.0324,0.013523,0.002678,0.000431,0.059939
1177000,0.0324,0.013523,0.002678,0.000431,0.107773
1178000,0.0324,0.013523,0.002678,0.000431,0.050302
1179000,0.0324,0.013523,0.002678,0.000431,0.035023
1180000,0.0324,0.013523,0.002678,0.000431,0.151611
1181000,0.0324,0.013523,0.002678,0.000431,0.209435
1182000,0.0324,0.013523,0.002678,0.000431,0.202148
1183000,0.0324,0.013523,0.002678,0.000431,0.090497
1184000,0.0324,0.013523,0.002678,0.000431,0.072750
1185000,0.0324,0.013523,0.002678,0.000431,0.137743
1186000,0.0324,0.013523,0.002678,0.000431,0.119409
1187000,0.0324,0.013523,0.002678,0.000431,0.189926
1188000,0.0324,0.013523,0.002678,0.000431,0.216722
1189000,0.0324,0.013523,0.002678,0.000431,0.175822
1190000,0.0324,0.013523,0.002678,0.000431,0.127518
1191000,0.0324,0.013523,0.002678,0.000431,0.077334
1192000,0.0324,0.013523,0.002678,0.000431,0.218720
1193000,0.0324,0.013523,0.002678,0.000431,0.218132
1194000,0.0324,0.013523,0.002678,0.000431,0.183344
1195000,0.0324,0.013523,0.002678,0.000431,0.154902
1196000,0.0324,0.013523,0.002678,0.000431,0.110594
1197000,0.0324,0.013523,0.002678,0.000431,0.046776
1198000,0.0324,0.013523,0.002678,0.000431,0.087558
1199000,0.0324,0.013523,0.002678,0.000431,0.114825
1200000,0.0324,0.013523,0.002678,0.000431,0.085796
1201000,0.0324,0.013523,0.002678,0.000431,0.311450
1202000,0.0324,0.013523,0.002678,0.000431,0.178995
1203000,0.0324,0.013523,0.002678,0.000431,0.086853
1204000,0.0324,0.013523,0.002678,0.000431,0.053828
1205000,0.0324,0.013523,0.002678,0.000431,0.092730
1206000,0.0324,0.013523,0.002678,0.000431,0.207672
1207000,0.0324,0.013523,0.002678,0.000431,0.152081
1208000,0.0324,0.013523,0.002678,0.000431,0.109184
1209000,0.0324,0.013523,0.002678,0.000431,0.161601
1210000,0.0324,0.013523,0.002678,0.000431,0.092377
1211000,0.0324,0.013523,0.002678,0.000431,0.053123
1212000,0.0324,0.013523,0.002678,0.000431,0.072750
1213000,0.0324,0.013523,0.002678,0.000431,0.058176
1214000,0.0324,0.013523,0.002678,0.000431,0.160779
1215000,0.0324,0.013523,0.002678,0.000431,0.164892
1216000,0.0324,0.013523,0.002678,0.000431,0.134687
1217000,0.0324,0.013523,0.002678,0.000431,0.052418
1218000,0.0324,0.013523,0.002678,0.000431,0.071105
1219000,0.0324,0.013523,0.002678,0.000431,0.113767
1220000,0.0324,0.013523,0.002678,0.000431,0.186047
1221000,0.0324,0.013523,0.002678,0.000431,0.071810
1222000,0.0324,0.013523,0.002678,0.000431,0.123640
1223000,0.0324,0.013523,0.002678,0.000431,0.202148
1224000,0.0324,0.013523,0.002678,0.000431,0.050302
1225000,0.0324,0.013523,0.002678,0.000431,0.095315
1226000,0.0324,0.013523,0.002678,0.000431,0.114355
1227000,0.0324,0.013523,0.002678,0.000431,0.081212
1228000,0.0324,0.013523,0.002678,0.000431,0.111769
1229000,0.0324,0.013523,0.002678,0.000431,0.113885
1230000,0.0324,0.013523,0.002678,0.000431,0.124227
1231000,0.0324,0.013523,0.002678,0.000431,0.137508
1232000,0.0324,0.013523,0.002678,0.000431,0.205557
1233000,0.0324,0.013523,0.002678,0.000431,0.097078
1234000,0.0324,0.013523,0.002678,0.000431,0.180993
1235000,0.0324,0.013523,0.002678,0.000431,0.088029
1236000,0.0324,0.013523,0.002678,0.000431,0.138096
1237000,0.0324,0.013523,0.002678,0.000431,0.061702
1238000,0.0324,0.013523,0.002678,0.000431,0.089321
1239000,0.0324,0.013523,0.002678,0.000431,0.091084
1240000,0.0324,0.013523,0.002678,0.000431,0.316738
1241000,0.0324,0.013523,0.002678,0.000431,0.226829
1242000,0.0324,0.013523,0.002678,0.000431,0.127401
1243000,0.0324,0.013523,0.002678,0.000431,0.099546
1244000,0.0324,0.013523,0.002678,0.000431,0.116000
1245000,0.0324,0.013523,0.002678,0.000431,0.145382
1246000,0.0324,0.013523,0.002678,0.000431,0.065816
1247000,0.0324,0.013523,0.002678,0.000431,0.159486
1248000,0.0324,0.013523,0.002678,0.000431,0.164422
1249000,0.0324,0.013523,0.002678,0.000431,0.151494
1250000,0.0324,0.013523,0.002678,0.000431,0.104718
1251000,0.0324,0.013523,0.002678,0.000431,0.115530
1252000,0.0324,0.013523,0.002678,0.000431,0.129516
1253000,0.0324,0.013523,0.002678,0.000431,0.090497
1254000,0.0324,0.013523,0.002678,0.000431,0.075923
1255000,0.0324,0.013523,0.002678,0.000431,0.167243
1256000,0.0324,0.013523,0.002678,0.000431,0.063583
1257000,0.0324,0.013523,0.002678,0.000431,0.116941
1258000,0.0324,0.013523,0.002678,0.000431,0.094375
1259000,0.0324,0.013523,0.002678,0.000431,0.052183
1260000,0.0324,0.013523,0.002678,0.000431,0.057354
1261000,0.0324,0.013523,0.002678,0.000431,0.110124
1262000,0.0324,0.013523,0.002678,0.000431,0.276309
1263000,0.0324,0.013523,0.002678,0.000431,0.072867
1264000,0.0324,0.013523,0.002678,0.000431,0.046071
1265000,0.0324,0.013523,0.002678,0.000431,0.099311
1266000,0.0324,0.013523,0.002678,0.000431,0.100722
1267000,0.0324,0.013523,0.002678,0.000431,0.155960
1268000,0.0324,0.013523,0.002678,0.000431,0.172884
1269000,0.0324,0.013523,0.002678,0.000431,0.157018
1270000,0.0324,0.013523,0.002678,0.000431,0.044191
1271000,0.0324,0.013523,0.002678,0.000431,0.057824
1272000,0.0324,0.013523,0.002678,0.000431,0.137508
1273000,0.0324,0.013523,0.002678,0.000431,0.103542
1274000,0.0324,0.013523,0.002678,0.000431,0.169241
1275000,0.0324,0.013523,0.002678,0.000431,0.080037
1276000,0.0324,0.013523,0.002678,0.000431,0.053593
1277000,0.0324,0.013523,0.002678,0.000431,0.058059
1278000,0.0324,0.013523,0.002678,0.000431,0.072162
1279000,0.0324,0.013523,0.002678,0.000431,0.120231
1280000,0.0324,0.013523,0.002678,0.000431,0.192864
1281000,0.0324,0.013523,0.002678,0.000431,0.138331
1282000,0.0324,0.013523,0.002678,0.000431,0.124345
1283000,0.0324,0.013523,0.002678,0.000431,0.042545
1284000,0.0324,0.013523,0.002678,0.000431,0.072515
1285000,0.0324,0.013523,0.002678,0.000431,0.039019
1286000,0.0324,0.013523,0.002678,0.000431,0.103660
1287000,0.0324,0.013523,0.002678,0.000431,0.174177
1288000,0.0324,0.013523,0.002678,0.000431,0.182639
1289000,0.0324,0.013523,0.002678,0.000431,0.078626
1290000,0.0324,0.013523,0.002678,0.000431,0.053593
1291000,0.0324,0.013523,0.002678,0.000431,0.053945
1292000,0.0324,0.013523,0.002678,0.000431,0.066286
1293000,0.0324,0.013523,0.002678,0.000431,0.136098
1294000,0.0324,0.013523,0.002678,0.000431,0.168653
1295000,0.0324,0.013523,0.002678,0.000431,0.171709
1296000,0.0324,0.013523,0.002678,0.000431,0.044661
1297000,0.0324,0.013523,0.002678,0.000431,0.048422
1298000,0.0324,0.013523,0.002678,0.000431,0.107068
1299000,0.0324,0.013523,0.002678,0.000431,0.126108
1300000,0.0324,0.013523,0.002678,0.000431,0.162424
1301000,0.0324,0.013523,0.002678,0.000431,0.119409
1302000,0.0324,0.013523,0.002678,0.000431,0.052888
1303000,0.0324,0.013523,0.002678,0.000431,0.142444
1304000,0.0324,0.013523,0.002678,0.000431,0.060880
1305000,0.0324,0.013523,0.002678,0.000431,0.115530
1306000,0.0324,0.013523,0.002678,0.000431,0.171944
1307000,0.0324,0.013523,0.002678,0.000431,0.082505
1308000,0.0324,0.013523,0.002678,0.000431,0.100839
1309000,0.0324,0.013523,0.002678,0.000431,0.055708
1310000,0.0324,0.013523,0.002678,0.000431,0.165597
1311000,0.0324,0.013523,0.002678,0.000431,0.062643
1312000,0.0324,0.013523,0.002678,0.000431,0.182404
1313000,0.0324,0.013523,0.002678,0.000431,0.155020
1314000,0.0324,0.013523,0.002678,0.000431,0.181111
1315000,0.0324,0.013523,0.002678,0.000431,0.162894
1316000,0.0324,0.013523,0.002678,0.000431,0.075453
1317000,0.0324,0.013523,0.002678,0.000431,0.047481
1318000,0.0324,0.013523,0.002678,0.000431,0.073103
1319000,0.0324,0.013523,0.002678,0.000431,0.162071
1320000,0.0324,0.013523,0.002678,0.000431,0.133159
1321000,0.0324,0.013523,0.002678,0.000431,0.083445
1322000,0.0324,0.013523,0.002678,0.000431,0.122229
1323000,0.0324,0.013523,0.002678,0.000431,0.057824
1324000,0.0324,0.013523,0.002678,0.000431,0.061232
1325000,0.0324,0.013523,0.002678,0.000431,0.094140
1326000,0.0324,0.013523,0.002678,0.000431,0.263968
1327000,0.0324,0.013523,0.002678,0.000431,0.121524
1328000,0.0324,0.013523,0.002678,0.000431,0.054651
1329000,0.0324,0.013523,0.002678,0.000431,0.171944
1330000,0.0324,0.013523,0.002678,0.000431,0.057706
1331000,0.0324,0.013523,0.002678,0.000431,0.109184
1332000,0.0324,0.013523,0.002678,0.000431,0.134805
1333000,0.0324,0.013523,0.002678,0.000431,0.194392
1334000,0.0324,0.013523,0.002678,0.000431,0.193804
1335000,0.0324,0.013523,0.002678,0.000431,0.072985
1336000,0.0324,0.013523,0.002678,0.000431,0.053475
1337000,0.0324,0.013523,0.002678,0.000431,0.174647
1338000,0.0324,0.013523,0.002678,0.000431,0.150671
1339000,0.0324,0.013523,0.002678,0.000431,0.142444
1340000,0.0324,0.013523,0.002678,0.000431,0.094728
1341000,0.0324,0.013523,0.002678,0.000431,0.065111
1342000,0.0324,0.013523,0.002678,0.000431,0.080389
1343000,0.0324,0.013523,0.002678,0.000431,0.050067
1344000,0.0324,0.013523,0.002678,0.000431,0.081800
1345000,0.0324,0.013523,0.002678,0.000431,0.145735
1346000,0.0324,0.013523,0.002678,0.000431,0.125520
1347000,0.0324,0.013523,0.002678,0.000431,0.196507
1348000,0.0324,0.013523,0.002678,0.000431,0.119996
1349000,0.0324,0.013523,0.002678,0.000431,0.119526
1350000,0.0324,0.013523,0.002678,0.000431,0.072280
1351000,0.0324,0.013523,0.002678,0.000431,0.275369
1352000,0.0324,0.013523,0.002678,0.000431,0.302400
1353000,0.0324,0.013523,0.002678,0.000431,0.136803
1354000,0.0324,0.013523,0.002678,0.000431,0.124815
1355000,0.0324,0.013523,0.002678,0.000431,0.049832
1356000,0.0324,0.013523,0.002678,0.000431,0.054886
1357000,0.0324,0.013523,0.002678,0.000431,0.117763
1358000,0.0324,0.013523,0.002678,0.000431,0.079802
1359000,0.0324,0.013523,0.002678,0.000431,0.173824
1360000,0.0324,0.013523,0.002678,0.000431,0.186047
1361000,0.0324,0.013523,0.002678,0.000431,0.110359
1362000,0.0324,0.013523,0.002678,0.000431,0.035258
1363000,0.0324,0.013523,0.002678,0.000431,0.036904
1364000,0.0324,0.013523,0.002678,0.000431,0.175352
1365000,0.0324,0.013523,0.002678,0.000431,0.366805
1366000,0.0324,0.013523,0.002678,0.000431,0.222363
1367000,0.0324,0.013523,0.002678,0.000431,0.096021
1368000,0.0324,0.013523,0.002678,0.000431,0.110594
1369000,0.0324,0.013523,0.002678,0.000431,0.042428
1370000,0.0324,0.013523,0.002678,0.000431,0.125520
1371000,0.0324,0.013523,0.002678,0.000431,0.168770
1372000,0.0324,0.013523,0.002678,0.000431,0.131161
1373000,0.0324,0.013523,0.002678,0.000431,0.207555
1374000,0.0324,0.013523,0.002678,0.000431,0.098489
1375000,0.0324,0.013523,0.002678,0.000431,0.035258
1376000,0.0324,0.013523,0.002678,0.000431,0.078391
1377000,0.0324,0.013523,0.002678,0.000431,0.306631
1378000,0.0324,0.013523,0.002678,0.000431,0.133982
1379000,0.0324,0.013523,0.002678,0.000431,0.240580
1380000,0.0324,0.013523,0.002678,0.000431,0.114825
1381000,0.0324,0.013523,0.002678,0.000431,0.165480
1382000,0.0324,0.013523,0.002678,0.000431,0.039019
1383000,0.0324,0.013523,0.002678,0.000431,0.141151
1384000,0.0324,0.013523,0.002678,0.000431,0.203206
1385000,0.0324,0.013523,0.002678,0.000431,0.196507
1386000,0.0324,0.013523,0.002678,0.000431,0.098724
1387000,0.0324,0.013523,0.002678,0.000431,0.057354
1388000,0.0324,0.013523,0.002678,0.000431,0.106363
1389000,0.0324,0.013523,0.002678,0.000431,0.083327
1390000,0.0324,0.013523,0.002678,0.000431,0.273253
1391000,0.0324,0.013523,0.002678,0.000431,0.193334
1392000,0.0324,0.013523,0.002678,0.000431,0.111417
1393000,0.0324,0.013523,0.002678,0.000431,0.210258
1394000,0.0324,0.013523,0.002678,0.000431,0.106833
1395000,0.0324,0.013523,0.002678,0.000431,0.094963
1396000,0.0324,0.013523,0.002678,0.000431,0.169006
1397000,0.0324,0.013523,0.002678,0.000431,0.277484
1398000,0.0324,0.013523,0.002678,0.000431,0.170533
1399000,0.0324,0.013523,0.002678,0.000431,0.218602
1400000,0.0324,0.013523,0.002678,0.000431,0.181228
1401000,0.0324,0.013523,0.002678,0.000431,0.035023
1402000,0.0324,0.013523,0.002678,0.000431,0.041605
1403000,0.0324,0.013523,0.002678,0.000431,0.168183
1404000,0.0324,0.013523,0.002678,0.000431,0.242226
1405000,0.0324,0.013523,0.002678,0.000431,0.153374
1406000,0.0324,0.013523,0.002678,0.000431,0.177703
1407000,0.0324,0.013523,0.002678,0.000431,0.133865
1408000,0.0324,0.013523,0.002678,0.000431,0.053123
1409000,0.0324,0.013523,0.002678,0.000431,0.238582
1410000,0.0324,0.013523,0.002678,0.000431,0.150554
1411000,0.0324,0.013523,0.002678,0.000431,0.341302
1412000,0.0324,0.013523,0.002678,0.000431,0.091554
1413000,0.0324,0.013523,0.002678,0.000431,0.102720
1414000,0.0324,0.013523,0.002678,0.000431,0.042780
1415000,0.0324,0.013523,0.002678,0.000431,0.057824
1416000,0.0324,0.013523,0.002678,0.000431,0.223421
1417000,0.0324,0.013523,0.002678,0.000431,0.216722
1418000,0.0324,0.013523,0.002678,0.000431,0.220835
1419000,0.0324,0.013523,0.002678,0.000431,0.073338
1420000,0.0324,0.013523,0.002678,0.000431,0.057236
1421000,0.0324,0.013523,0.002678,0.000431,0.043250
1422000,0.0324,0.013523,0.002678,0.000431,0.050185
1423000,0.0324,0.013523,0.002678,0.000431,0.187575
1424000,0.0324,0.013523,0.002678,0.000431,0.281245
1425000,0.0324,0.013523,0.002678,0.000431,0.201913
1426000,0.0324,0.013523,0.002678,0.000431,0.034671
1427000,0.0324,0.013523,0.002678,0.000431,0.072632
1428000,0.0324,0.013523,0.002678,0.000431,0.076628
1429000,0.0324,0.013523,0.002678,0.000431,0.259267
1430000,0.0324,0.013523,0.002678,0.000431,0.246692
1431000,0.0324,0.013523,0.002678,0.000431,0.240698
1432000,0.0324,0.013523,0.002678,0.000431,0.061232
1433000,0.0324,0.013523,0.002678,0.000431,0.038784
1434000,0.0324,0.013523,0.002678,0.000431,0.076628
1435000,0.0324,0.013523,0.002678,0.000431,0.071457
1436000,0.0324,0.013523,0.002678,0.000431,0.265731
1437000,0.0324,0.013523,0.002678,0.000431,0.196625
1438000,0.0324,0.013523,0.002678,0.000431,0.268434
1439000,0.0324,0.013523,0.002678,0.000431,0.072515
1440000,0.0324,0.013523,0.002678,0.000431,0.110241
1441000,0.0324,0.013523,0.002678,0.000431,0.041723
1442000,0.0324,0.013523,0.002678,0.000431,0.197330
1443000,0.0324,0.013523,0.002678,0.000431,0.297464
1444000,0.0324,0.013523,0.002678,0.000431,0.326493
1445000,0.0324,0.013523,0.002678,0.000431,0.065346
1446000,0.0324,0.013523,0.002678,0.000431,0.039842
1447000,0.0324,0.013523,0.002678,0.000431,0.105305
1448000,0.0324,0.013523,0.002678,0.000431,0.045248
1449000,0.0324,0.013523,0.002678,0.000431,0.256917
1450000,0.0324,0.013523,0.002678,0.000431,0.172179
1451000,0.0324,0.013523,0.002678,0.000431,0.182169
1452000,0.0324,0.013523,0.002678,0.000431,0.090849
1453000,0.0324,0.013523,0.002678,0.000431,0.090379
1454000,0.0324,0.013523,0.002678,0.000431,0.070164
1455000,0.0324,0.013523,0.002678,0.000431,0.123875
1456000,0.0324,0.013523,0.002678,0.000431,0.157018
1457000,0.0324,0.013523,0.002678,0.000431,0.246574
1458000,0.0324,0.013523,0.002678,0.000431,0.222128
1459000,0.0324,0.013523,0.002678,0.000431,0.034906
1460000,0.0324,0.013523,0.002678,0.000431,0.057236
1461000,0.0324,0.013523,0.002678,0.000431,0.126460
1462000,0.0324,0.013523,0.002678,0.000431,0.280892
1463000,0.0324,0.013523,0.002678,0.000431,0.321440
1464000,0.0324,0.013523,0.002678,0.000431,0.172649
1465000,0.0324,0.013523,0.002678,0.000431,0.083680
1466000,0.0324,0.013523,0.002678,0.000431,0.095080
1467000,0.0324,0.013523,0.002678,0.000431,0.170298
1468000,0.0324,0.013523,0.002678,0.000431,0.084150
1469000,0.0324,0.013523,0.002678,0.000431,0.350939
1470000,0.0324,0.013523,0.002678,0.000431,0.171944
1471000,0.0324,0.013523,0.002678,0.000431,0.139036
1472000,0.0324,0.013523,0.002678,0.000431,0.042780
1473000,0.0324,0.013523,0.002678,0.000431,0.042663
1474000,0.0324,0.013523,0.002678,0.000431,0.051947
1475000,0.0324,0.013523,0.002678,0.000431,0.187575
1476000,0.0324,0.013523,0.002678,0.000431,0.245164
1477000,0.0324,0.013523,0.002678,0.000431,0.089909
1478000,0.0324,0.013523,0.002678,0.000431,0.157958
1479000,0.0324,0.013523,0.002678,0.000431,0.042663
1480000,0.0324,0.013523,0.002678,0.000431,0.039137
1481000,0.0324,0.013523,0.002678,0.000431,0.064405
1482000,0.0324,0.013523,0.002678,0.000431,0.315211
1483000,0.0324,0.013523,0.002678,0.000431,0.120701
1484000,0.0324,0.013523,0.002678,0.000431,0.154432
1485000,0.0324,0.013523,0.002678,0.000431,0.172649
1486000,0.0324,0.013523,0.002678,0.000431,0.061467
1487000,0.0324,0.013523,0.002678,0.000431,0.106598
1488000,0.0324,0.013523,0.002678,0.000431,0.119761
1489000,0.0324,0.013523,0.002678,0.000431,0.234351
1490000,0.0324,0.013523,0.002678,0.000431,0.307219
1491000,0.0324,0.013523,0.002678,0.000431,0.072750
1492000,0.0324,0.013523,0.002678,0.000431,0.057824
1493000,0.0324,0.013523,0.002678,0.000431,0.050067
1494000,0.0324,0.013523,0.002678,0.000431,0.090262
1495000,0.0324,0.013523,0.002678,0.000431,0.250100
1496000,0.0324,0.013523,0.002678,0.000431,0.110476
1497000,0.0324,0.013523,0.002678,0.000431,0.072867
1498000,0.0324,0.013523,0.002678,0.000431,0.095433
1499000,0.0324,0.013523,0.002678,0.000431,0.095080
1500000,0.0324,0.013523,0.002678,0.000431,0.110124
1501000,0.0324,0.013523,0.002678,0.000431,0.110359
1502000,0.0324,0.013523,0.002678,0.000431,0.177703
1503000,0.0324,0.013523,0.002678,0.000431,0.275604
1504000,0.0324,0.013523,0.002678,0.000431,0.230120
1505000,0.0324,0.013523,0.002678,0.000431,0.129751
1506000,0.0324,0.013523,0.002678,0.000431,0.063935
1507000,0.0324,0.013523,0.002678,0.000431,0.077098
1508000,0.0324,0.013523,0.002678,0.000431,0.236819
1509000,0.0324,0.013523,0.002678,0.000431,0.303340
1510000,0.0324,0.013523,0.002678,0.000431,0.072985
1511000,0.0324,0.013523,0.002678,0.000431,0.107538
1512000,0.0324,0.013523,0.002678,0.000431,0.079919
1513000,0.0324,0.013523,0.002678,0.000431,0.057706
1514000,0.0324,0.013523,0.002678,0.000431,0.218602
1515000,0.0324,0.013523,0.002678,0.000431,0.224244
1516000,0.0324,0.013523,0.002678,0.000431,0.255976
1517000,0.0324,0.013523,0.002678,0.000431,0.107068
1518000,0.0324,0.013523,0.002678,0.000431,0.107186
1519000,0.0324,0.013523,0.002678,0.000431,0.072045
1520000,0.0324,0.013523,0.002678,0.000431,0.163717
1521000,0.0324,0.013523,0.002678,0.000431,0.098606
1522000,0.0324,0.013523,0.002678,0.000431,0.184049
1523000,0.0324,0.013523,0.002678,0.000431,0.265496
1524000,0.0324,0.013523,0.002678,0.000431,0.125755
1525000,0.0324,0.013523,0.002678,0.000431,0.083915
1526000,0.0324,0.013523,0.002678,0.000431,0.057354
1527000,0.0324,0.013523,0.002678,0.000431,0.156195
1528000,0.0324,0.013523,0.002678,0.000431,0.124580
1529000,0.0324,0.013523,0.002678,0.000431,0.375973
1530000,0.0324,0.013523,0.002678,0.000431,0.100252
1531000,0.0324,0.013523,0.002678,0.000431,0.085913
1532000,0.0324,0.013523,0.002678,0.000431,0.228710
1533000,0.0324,0.013523,0.002678,0.000431,0.080272
1534000,0.0324,0.013523,0.002678,0.000431,0.198035
1535000,0.0324,0.013523,0.002678,0.000431,0.331665
1536000,0.0324,0.013523,0.002678,0.000431,0.267024
1537000,0.0324,0.013523,0.002678,0.000431,0.179583
1538000,0.0324,0.013523,0.002678,0.000431,0.078979
1539000,0.0324,0.013523,0.002678,0.000431,0.061350
1540000,0.0324,0.013523,0.002678,0.000431,0.181699
1541000,0.0324,0.013523,0.002678,0.000431,0.212138
1542000,0.0324,0.013523,0.002678,0.000431,0.237877
1543000,0.0324,0.013523,0.002678,0.000431,0.077334
1544000,0.0324,0.013523,0.002678,0.000431,0.061585
1545000,0.0324,0.013523,0.002678,0.000431,0.202736
1546000,0.0324,0.013523,0.002678,0.000431,0.101309
1547000,0.0324,0.013523,0.002678,0.000431,0.098371
1548000,0.0324,0.013523,0.002678,0.000431,0.121289
1549000,0.0324,0.013523,0.002678,0.000431,0.422279
1550000,0.0324,0.013523,0.002678,0.000431,0.124815
1551000,0.0324,0.013523,0.002678,0.000431,0.120584
1552000,0.0324,0.013523,0.002678,0.000431,0.057354
1553000,0.0324,0.013523,0.002678,0.000431,0.086266
1554000,0.0324,0.013523,0.002678,0.000431,0.179701
1555000,0.0324,0.013523,0.002678,0.000431,0.300990
1556000,0.0324,0.013523,0.002678,0.000431,0.154667
1557000,0.0324,0.013523,0.002678,0.000431,0.335660
1558000,0.0324,0.013523,0.002678,0.000431,0.144090
1559000,0.0324,0.013523,0.002678,0.000431,0.075688
1560000,0.0324,0.013523,0.002678,0.000431,0.109301
1561000,0.0324,0.013523,0.002678,0.000431,0.192511
1562000,0.0324,0.013523,0.002678,0.000431,0.277837
1563000,0.0324,0.013523,0.002678,0.000431,0.087676
1564000,0.0324,0.013523,0.002678,0.000431,0.192159
1565000,0.0324,0.013523,0.002678,0.000431,0.142092
1566000,0.0324,0.013523,0.002678,0.000431,0.084033
1567000,0.0324,0.013523,0.002678,0.000431,0.220835
1568000,0.0324,0.013523,0.002678,0.000431,0.501258
1569000,0.0324,0.013523,0.002678,0.000431,0.108831
1570000,0.0324,0.013523,0.002678,0.000431,0.095315
1571000,0.0324,0.013523,0.002678,0.000431,0.150083
1572000,0.0324,0.013523,0.002678,0.000431,0.119526
1573000,0.0324,0.013523,0.002678,0.000431,0.166890
1574000,0.0324,0.013523,0.002678,0.000431,0.316974
1575000,0.0324,0.013523,0.002678,0.000431,0.339421
1576000,0.0324,0.013523,0.002678,0.000431,0.084503
1577000,0.0324,0.013523,0.002678,0.000431,0.149496
1578000,0.0324,0.013523,0.002678,0.000431,0.195449
1579000,0.0324,0.013523,0.002678,0.000431,0.055473
1580000,0.0324,0.013523,0.002678,0.000431,0.188045
1581000,0.0324,0.013523,0.002678,0.000431,0.418283
1582000,0.0324,0.013523,0.002678,0.000431,0.170651
1583000,0.0324,0.013523,0.002678,0.000431,0.159133
1584000,0.0324,0.013523,0.002678,0.000431,0.355640
1585000,0.0324,0.013523,0.002678,0.000431,0.169241
1586000,0.0324,0.013523,0.002678,0.000431,0.115765
1587000,0.0324,0.013523,0.002678,0.000431,0.227417
1588000,0.0324,0.013523,0.002678,0.000431,0.295113
1589000,0.0324,0.013523,0.002678,0.000431,0.220835
1590000,0.0324,0.013523,0.002678,0.000431,0.139036
1591000,0.0324,0.013523,0.002678,0.000431,0.141034
1592000,0.0324,0.013523,0.002678,0.000431,0.099429
1593000,0.0324,0.013523,0.002678,0.000431,0.138096
1594000,0.0324,0.013523,0.002678,0.000431,0.320382
1595000,0.0324,0.013523,0.002678,0.000431,0.456362
1596000,0.0324,0.013523,0.002678,0.000431,0.168183
1597000,0.0324,0.013523,0.002678,0.000431,0.125403
1598000,0.0324,0.013523,0.002678,0.000431,0.259620
1599000,0.0324,0.013523,0.002678,0.000431,0.064641
1600000,0.0324,0.013523,0.002678,0.000431,0.173001
1601000,0.0324,0.013523,0.002678,0.000431,0.536399
1602000,0.0324,0.013523,0.002678,0.000431,0.268552
1603000,0.0324,0.013523,0.002678,0.000431,0.237054
1604000,0.0324,0.013523,0.002678,0.000431,0.085325
1605000,0.0324,0.013523,0.002678,0.000431,0.150789
1606000,0.0324,0.013523,0.002678,0.000431,0.046424
1607000,0.0324,0.013523,0.002678,0.000431,0.154785
1608000,0.0324,0.013523,0.002678,0.000431,0.296524
1609000,0.0324,0.013523,0.002678,0.000431,0.125168
1610000,0.0324,0.013523,0.002678,0.000431,0.231178
1611000,0.0324,0.013523,0.002678,0.000431,0.136098
1612000,0.0324,0.013523,0.002678,0.000431,0.200973
1613000,0.0324,0.013523,0.002678,0.000431,0.061115
1614000,0.0324,0.013523,0.002678,0.000431,0.289942
1615000,0.0324,0.013523,0.002678,0.000431,0.350939
1616000,0.0324,0.013523,0.002678,0.000431,0.150083
1617000,0.0324,0.013523,0.002678,0.000431,0.095433
1618000,0.0324,0.013523,0.002678,0.000431,0.074043
1619000,0.0324,0.013523,0.002678,0.000431,0.086501
1620000,0.0324,0.013523,0.002678,0.000431,0.107538
1621000,0.0324,0.013523,0.002678,0.000431,0.458242
1622000,0.0324,0.013523,0.002678,0.000431,0.399008
1623000,0.0324,0.013523,0.002678,0.000431,0.128693
1624000,0.0324,0.013523,0.002678,0.000431,0.304398
1625000,0.0324,0.013523,0.002678,0.000431,0.334015
1626000,0.0324,0.013523,0.002678,0.000431,0.070047
1627000,0.0324,0.013523,0.002678,0.000431,0.374797
1628000,0.0324,0.013523,0.002678,0.000431,0.277954
1629000,0.0324,0.013523,0.002678,0.000431,0.382437
1630000,0.0324,0.013523,0.002678,0.000431,0.100134
1631000,0.0324,0.013523,0.002678,0.000431,0.123170
1632000,0.0324,0.013523,0.002678,0.000431,0.113180
1633000,0.0324,0.013523,0.002678,0.000431,0.055591
1634000,0.0324,0.013523,0.002678,0.000431,0.386433
1635000,0.0324,0.013523,0.002678,0.000431,0.343417
1636000,0.0324,0.013523,0.002678,0.000431,0.173237
1637000,0.0324,0.013523,0.002678,0.000431,0.123405
1638000,0.0324,0.013523,0.002678,0.000431,0.182639
1639000,0.0324,0.013523,0.002678,0.000431,0.102837
1640000,0.0324,0.013523,0.002678,0.000431,0.134570
1641000,0.0324,0.013523,0.002678,0.000431,0.223891
1642000,0.0324,0.013523,0.002678,0.000431,0.189808
1643000,0.0324,0.013523,0.002678,0.000431,0.281480
1644000,0.0324,0.013523,0.002678,0.000431,0.102837
1645000,0.0324,0.013523,0.002678,0.000431,0.116470
1646000,0.0324,0.013523,0.002678,0.000431,0.071692
1647000,0.0324,0.013523,0.002678,0.000431,0.318149
1648000,0.0324,0.013523,0.002678,0.000431,0.227064
1649000,0.0324,0.013523,0.002678,0.000431,0.214254
1650000,0.0324,0.013523,0.002678,0.000431,0.122347
1651000,0.0324,0.013523,0.002678,0.000431,0.065346
1652000,0.0324,0.013523,0.002678,0.000431,0.035023
1653000,0.0324,0.013523,0.002678,0.000431,0.109771
1654000,0.0324,0.013523,0.002678,0.000431,0.406765
1655000,0.0324,0.013523,0.002678,0.000431,0.338834
1656000,0.0324,0.013523,0.002678,0.000431,0.159721
1657000,0.0324,0.013523,0.002678,0.000431,0.120466
1658000,0.0324,0.013523,0.002678,0.000431,0.046541
1659000,0.0324,0.013523,0.002678,0.000431,0.077334
1660000,0.0324,0.013523,0.002678,0.000431,0.070282
1661000,0.0324,0.013523,0.002678,0.000431,0.384082
1662000,0.0324,0.013523,0.002678,0.000431,0.275133
1663000,0.0324,0.013523,0.002678,0.000431,0.145382
1664000,0.0324,0.013523,0.002678,0.000431,0.188868
1665000,0.0324,0.013523,0.002678,0.000431,0.092025
1666000,0.0324,0.013523,0.002678,0.000431,0.050302
1667000,0.0324,0.013523,0.002678,0.000431,0.102602
1668000,0.0324,0.013523,0.002678,0.000431,0.235056
1669000,0.0324,0.013523,0.002678,0.000431,0.415815
1670000,0.0324,0.013523,0.002678,0.000431,0.237407
1671000,0.0324,0.013523,0.002678,0.000431,0.176410
1672000,0.0324,0.013523,0.002678,0.000431,0.058412
1673000,0.0324,0.013523,0.002678,0.000431,0.121172
1674000,0.0324,0.013523,0.002678,0.000431,0.334015
1675000,0.0324,0.013523,0.002678,0.000431,0.298639
1676000,0.0324,0.013523,0.002678,0.000431,0.225537
1677000,0.0324,0.013523,0.002678,0.000431,0.208377
1678000,0.0324,0.013523,0.002678,0.000431,0.105893
1679000,0.0324,0.013523,0.002678,0.000431,0.090967
1680000,0.0324,0.013523,0.002678,0.000431,0.373034
1681000,0.0324,0.013523,0.002678,0.000431,0.215077
1682000,0.0324,0.013523,0.002678,0.000431,0.257504
1683000,0.0324,0.013523,0.002678,0.000431,0.340949
1684000,0.0324,0.013523,0.002678,0.000431,0.124580
1685000,0.0324,0.013523,0.002678,0.000431,0.070164
1686000,0.0324,0.013523,0.002678,0.000431,0.132689
1687000,0.0324,0.013523,0.002678,0.000431,0.280305
1688000,0.0324,0.013523,0.002678,0.000431,0.175470
1689000,0.0324,0.013523,0.002678,0.000431,0.172884
1690000,0.0324,0.013523,0.002678,0.000431,0.076628
1691000,0.0324,0.013523,0.002678,0.000431,0.043603
1692000,0.0324,0.013523,0.002678,0.000431,0.101309
1693000,0.0324,0.013523,0.002678,0.000431,0.096491
1694000,0.0324,0.013523,0.002678,0.000431,0.273606
1695000,0.0324,0.013523,0.002678,0.000431,0.293820
1696000,0.0324,0.013523,0.002678,0.000431,0.168653
1697000,0.0324,0.013523,0.002678,0.000431,0.082270
1698000,0.0324,0.013523,0.002678,0.000431,0.099899
1699000,0.0324,0.013523,0.002678,0.000431,0.056061
1700000,0.0324,0.013523,0.002678,0.000431,0.188515
1701000,0.0324,0.013523,0.002678,0.000431,0.123992
1702000,0.0324,0.013523,0.002678,0.000431,0.076628
1703000,0.0324,0.013523,0.002678,0.000431,0.064641
1704000,0.0324,0.013523,0.002678,0.000431,0.035023
1705000,0.0324,0.013523,0.002678,0.000431,0.123992
1706000,0.0324,0.013523,0.002678,0.000431,0.248220
1707000,0.0324,0.013523,0.002678,0.000431,0.291705
1708000,0.0324,0.013523,0.002678,0.000431,0.249865
1709000,0.0324,0.013523,0.002678,0.000431,0.149143
1710000,0.0324,0.013523,0.002678,0.000431,0.058294
1711000,0.0324,0.013523,0.002678,0.000431,0.069342
1712000,0.0324,0.013523,0.002678,0.000431,0.128576
1713000,0.0324,0.013523,0.002678,0.000431,0.218485
1714000,0.0324,0.013523,0.002678,0.000431,0.155020
1715000,0.0324,0.013523,0.002678,0.000431,0.244576
1716000,0.0324,0.013523,0.002678,0.000431,0.079214
1717000,0.0324,0.013523,0.002678,0.000431,0.038667
1718000,0.0324,0.013523,0.002678,0.000431,0.129281
1719000,0.0324,0.013523,0.002678,0.000431,0.178525
1720000,0.0324,0.013523,0.002678,0.000431,0.271843
1721000,0.0324,0.013523,0.002678,0.000431,0.324965
1722000,0.0324,0.013523,0.002678,0.000431,0.110006
1723000,0.0324,0.013523,0.002678,0.000431,0.035141
1724000,0.0324,0.013523,0.002678,0.000431,0.056884
1725000,0.0324,0.013523,0.002678,0.000431,0.133159
1726000,0.0324,0.013523,0.002678,0.000431,0.333663
1727000,0.0324,0.013523,0.002678,0.000431,0.173824
1728000,0.0324,0.013523,0.002678,0.000431,0.157840
1729000,0.0324,0.013523,0.002678,0.000431,0.039019
1730000,0.0324,0.013523,0.002678,0.000431,0.065228
1731000,0.0324,0.013523,0.002678,0.000431,0.079684
1732000,0.0324,0.013523,0.002678,0.000431,0.103307
1733000,0.0324,0.013523,0.002678,0.000431,0.236937
1734000,0.0324,0.013523,0.002678,0.000431,0.281480
1735000,0.0324,0.013523,0.002678,0.000431,0.233881
1736000,0.0324,0.013523,0.002678,0.000431,0.062407
1737000,0.0324,0.013523,0.002678,0.000431,0.143854
1738000,0.0324,0.013523,0.002678,0.000431,0.104953
1739000,0.0324,0.013523,0.002678,0.000431,0.346238
1740000,0.0324,0.013523,0.002678,0.000431,0.375738
1741000,0.0324,0.013523,0.002678,0.000431,0.130809
1742000,0.0324,0.013523,0.002678,0.000431,0.037491
1743000,0.0324,0.013523,0.002678,0.000431,0.102837
1744000,0.0324,0.013523,0.002678,0.000431,0.080154
1745000,0.0324,0.013523,0.002678,0.000431,0.042545
1746000,0.0324,0.013523,0.002678,0.000431,0.305691
1747000,0.0324,0.013523,0.002678,0.000431,0.255389
1748000,0.0324,0.013523,0.002678,0.000431,0.250805
1749000,0.0324,0.013523,0.002678,0.000431,0.070164
1750000,0.0324,0.013523,0.002678,0.000431,0.065346
1751000,0.0324,0.013523,0.002678,0.000431,0.042193
1752000,0.0324,0.013523,0.002678,0.000431,0.269492
1753000,0.0324,0.013523,0.002678,0.000431,0.405002
1754000,0.0324,0.013523,0.002678,0.000431,0.226359
1755000,0.0324,0.013523,0.002678,0.000431,0.107656
1756000,0.0324,0.013523,0.002678,0.000431,0.065346
1757000,0.0324,0.013523,0.002678,0.000431,0.035494
1758000,0.0324,0.013523,0.002678,0.000431,0.092612
1759000,0.0324,0.013523,0.002678,0.000431,0.270080
1760000,0.0324,0.013523,0.002678,0.000431,0.244811
1761000,0.0324,0.013523,0.002678,0.000431,0.222011
1762000,0.0324,0.013523,0.002678,0.000431,0.066521
1763000,0.0324,0.013523,0.002678,0.000431,0.147145
1764000,0.0324,0.013523,0.002678,0.000431,0.108714
1765000,0.0324,0.013523,0.002678,0.000431,0.148086
1766000,0.0324,0.013523,0.002678,0.000431,0.349529
1767000,0.0324,0.013523,0.002678,0.000431,0.154550
1768000,0.0324,0.013523,0.002678,0.000431,0.059469
1769000,0.0324,0.013523,0.002678,0.000431,0.136803
1770000,0.0324,0.013523,0.002678,0.000431,0.095198
1771000,0.0324,0.013523,0.002678,0.000431,0.151729
1772000,0.0324,0.013523,0.002678,0.000431,0.233293
1773000,0.0324,0.013523,0.002678,0.000431,0.263146
1774000,0.0324,0.013523,0.002678,0.000431,0.138566
1775000,0.0324,0.013523,0.002678,0.000431,0.083092
1776000,0.0324,0.013523,0.002678,0.000431,0.097901
1777000,0.0324,0.013523,0.002678,0.000431,0.079096
1778000,0.0324,0.013523,0.002678,0.000431,0.158663
1779000,0.0324,0.013523,0.002678,0.000431,0.346356
1780000,0.0324,0.013523,0.002678,0.000431,0.184284
1781000,0.0324,0.013523,0.002678,0.000431,0.108243
1782000,0.0324,0.013523,0.002678,0.000431,0.105893
1783000,0.0324,0.013523,0.002678,0.000431,0.069812
1784000,0.0324,0.013523,0.002678,0.000431,0.076746
1785000,0.0324,0.013523,0.002678,0.000431,0.309334
1786000,0.0324,0.013523,0.002678,0.000431,0.170298
1787000,0.0324,0.013523,0.002678,0.000431,0.232001
1788000,0.0324,0.013523,0.002678,0.000431,0.068636
1789000,0.0324,0.013523,0.002678,0.000431,0.140564
1790000,0.0324,0.013523,0.002678,0.000431,0.054651
1791000,0.0324,0.013523,0.002678,0.000431,0.222363
1792000,0.0324,0.013523,0.002678,0.000431,0.220483
1793000,0.0324,0.013523,0.002678,0.000431,0.187928
1794000,0.0324,0.013523,0.002678,0.000431,0.062290
1795000,0.0324,0.013523,0.002678,0.000431,0.106951
1796000,0.0324,0.013523,0.002678,0.000431,0.057824
1797000,0.0324,0.013523,0.002678,0.000431,0.131984
1798000,0.0324,0.013523,0.002678,0.000431,0.259150
1799000,0.0324,0.013523,0.002678,0.000431,0.136685
1800000,0.0324,0.013523,0.002678,0.000431,0.117058
1801000,0.0324,0.013523,0.002678,0.000431,0.087323
1802000,0.0324,0.013523,0.002678,0.000431,0.055003
1803000,0.0324,0.013523,0.002678,0.000431,0.052888
1804000,0.0324,0.013523,0.002678,0.000431,0.143854
1805000,0.0324,0.013523,0.002678,0.000431,0.191571
1806000,0.0324,0.013523,0.002678,0.000431,0.085678
1807000,0.0324,0.013523,0.002678,0.000431,0.102837
1808000,0.0324,0.013523,0.002678,0.000431,0.083798
1809000,0.0324,0.013523,0.002678,0.000431,0.091554
1810000,0.0324,0.013523,0.002678,0.000431,0.128223
1811000,0.0324,0.013523,0.002678,0.000431,0.284301
1812000,0.0324,0.013523,0.002678,0.000431,0.236232
1813000,0.0324,0.013523,0.002678,0.000431,0.115178
1814000,0.0324,0.013523,0.002678,0.000431,0.068519
1815000,0.0324,0.013523,0.002678,0.000431,0.091790
1816000,0.0324,0.013523,0.002678,0.000431,0.162894
1817000,0.0324,0.013523,0.002678,0.000431,0.198505
1818000,0.0324,0.013523,0.002678,0.000431,0.269140
1819000,0.0324,0.013523,0.002678,0.000431,0.221071
1820000,0.0324,0.013523,0.002678,0.000431,0.127753
1821000,0.0324,0.013523,0.002678,0.000431,0.091319
1822000,0.0324,0.013523,0.002678,0.000431,0.061702
1823000,0.0324,0.013523,0.002678,0.000431,0.050185
1824000,0.0324,0.013523,0.002678,0.000431,0.321792
1825000,0.0324,0.013523,0.002678,0.000431,0.231531
1826000,0.0324,0.013523,0.002678,0.000431,0.086736
1827000,0.0324,0.013523,0.002678,0.000431,0.042780
1828000,0.0324,0.013523,0.002678,0.000431,0.110476
1829000,0.0324,0.013523,0.002678,0.000431,0.133747
1830000,0.0324,0.013523,0.002678,0.000431,0.322497
1831000,0.0324,0.013523,0.002678,0.000431,0.175940
1832000,0.0324,0.013523,0.002678,0.000431,0.100722
1833000,0.0324,0.013523,0.002678,0.000431,0.104365
1834000,0.0324,0.013523,0.002678,0.000431,0.035258
1835000,0.0324,0.013523,0.002678,0.000431,0.087911
1836000,0.0324,0.013523,0.002678,0.000431,0.054063
1837000,0.0324,0.013523,0.002678,0.000431,0.312390
1838000,0.0324,0.013523,0.002678,0.000431,0.122464
1839000,0.0324,0.013523,0.002678,0.000431,0.140329
1840000,0.0324,0.013523,0.002678,0.000431,0.035141
1841000,0.0324,0.013523,0.002678,0.000431,0.054298
1842000,0.0324,0.013523,0.002678,0.000431,0.108361
1843000,0.0324,0.013523,0.002678,0.000431,0.267494
1844000,0.0324,0.013523,0.002678,0.000431,0.149613
1845000,0.0324,0.013523,0.002678,0.000431,0.117058
1846000,0.0324,0.013523,0.002678,0.000431,0.146793
1847000,0.0324,0.013523,0.002678,0.000431,0.053828
1848000,0.0324,0.013523,0.002678,0.000431,0.084855
1849000,0.0324,0.013523,0.002678,0.000431,0.161484
1850000,0.0324,0.013523,0.002678,0.000431,0.286299
1851000,0.0324,0.013523,0.002678,0.000431,0.143267
1852000,0.0324,0.013523,0.002678,0.000431,0.112357
1853000,0.0324,0.013523,0.002678,0.000431,0.042663
1854000,0.0324,0.013523,0.002678,0.000431,0.064405
1855000,0.0324,0.013523,0.002678,0.000431,0.082387
1856000,0.0324,0.013523,0.002678,0.000431,0.172531
1857000,0.0324,0.013523,0.002678,0.000431,0.339421
1858000,0.0324,0.013523,0.002678,0.000431,0.381496
1859000,0.0324,0.013523,0.002678,0.000431,0.050302
1860000,0.0324,0.013523,0.002678,0.000431,0.042898
1861000,0.0324,0.013523,0.002678,0.000431,0.042428
1862000,0.0324,0.013523,0.002678,0.000431,0.102720
1863000,0.0324,0.013523,0.002678,0.000431,0.192746
1864000,0.0324,0.013523,0.002678,0.000431,0.275721
1865000,0.0324,0.013523,0.002678,0.000431,0.154315
1866000,0.0324,0.013523,0.002678,0.000431,0.058764
1867000,0.0324,0.013523,0.002678,0.000431,0.098371
1868000,0.0324,0.013523,0.002678,0.000431,0.084973
1869000,0.0324,0.013523,0.002678,0.000431,0.206262
1870000,0.0324,0.013523,0.002678,0.000431,0.300285
1871000,0.0324,0.013523,0.002678,0.000431,0.079919
1872000,0.0324,0.013523,0.002678,0.000431,0.068754
1873000,0.0324,0.013523,0.002678,0.000431,0.039019
1874000,0.0324,0.013523,0.002678,0.000431,0.042075
1875000,0.0324,0.013523,0.002678,0.000431,0.136803
1876000,0.0324,0.013523,0.002678,0.000431,0.160426
1877000,0.0324,0.013523,0.002678,0.000431,0.342595
1878000,0.0324,0.013523,0.002678,0.000431,0.088146
1879000,0.0324,0.013523,0.002678,0.000431,0.050302
1880000,0.0324,0.013523,0.002678,0.000431,0.057471
1881000,0.0324,0.013523,0.002678,0.000431,0.039372
1882000,0.0324,0.013523,0.002678,0.000431,0.151846
1883000,0.0324,0.013523,0.002678,0.000431,0.108831
1884000,0.0324,0.013523,0.002678,0.000431,0.108361
1885000,0.0324,0.013523,0.002678,0.000431,0.046541
1886000,0.0324,0.013523,0.002678,0.000431,0.042428
1887000,0.0324,0.013523,0.002678,0.000431,0.087088
1888000,0.0324,0.013523,0.002678,0.000431,0.204382
1889000,0.0324,0.013523,0.002678,0.000431,0.145030
1890000,0.0324,0.013523,0.002678,0.000431,0.132102
1891000,0.0324,0.013523,0.002678,0.000431,0.072867
1892000,0.0324,0.013523,0.002678,0.000431,0.042310
1893000,0.0324,0.013523,0.002678,0.000431,0.046424
1894000,0.0324,0.013523,0.002678,0.000431,0.057119
1895000,0.0324,0.013523,0.002678,0.000431,0.155607
1896000,0.0324,0.013523,0.002678,0.000431,0.234821
1897000,0.0324,0.013523,0.002678,0.000431,0.164539
1898000,0.0324,0.013523,0.002678,0.000431,0.199915
1899000,0.0324,0.013523,0.002678,0.000431,0.049009
1900000,0.0324,0.013523,0.002678,0.000431,0.042898
1901000,0.0324,0.013523,0.002678,0.000431,0.069459
1902000,0.0324,0.013523,0.002678,0.000431,0.096608
1903000,0.0324,0.013523,0.002678,0.000431,0.134217
1904000,0.0324,0.013523,0.002678,0.000431,0.149261
1905000,0.0324,0.013523,0.002678,0.000431,0.087911
1906000,0.0324,0.013523,0.002678,0.000431,0.047364
1907000,0.0324,0.013523,0.002678,0.000431,0.141386
1908000,0.0324,0.013523,0.002678,0.000431,0.107186
1909000,0.0324,0.013523,0.002678,0.000431,0.250218
1910000,0.0324,0.013523,0.002678,0.000431,0.109419
1911000,0.0324,0.013523,0.002678,0.000431,0.096608
1912000,0.0324,0.013523,0.002678,0.000431,0.050067
1913000,0.0324,0.013523,0.002678,0.000431,0.050420
1914000,0.0324,0.013523,0.002678,0.000431,0.155255
1915000,0.0324,0.013523,0.002678,0.000431,0.132689
1916000,0.0324,0.013523,0.002678,0.000431,0.265261
1917000,0.0324,0.013523,0.002678,0.000431,0.083798
1918000,0.0324,0.013523,0.002678,0.000431,0.042428
1919000,0.0324,0.013523,0.002678,0.000431,0.072985
1920000,0.0324,0.013523,0.002678,0.000431,0.103190
1921000,0.0324,0.013523,0.002678,0.000431,0.049479
1922000,0.0324,0.013523,0.002678,0.000431,0.271608
1923000,0.0324,0.013523,0.002678,0.000431,0.137155
1924000,0.0324,0.013523,0.002678,0.000431,0.042545
1925000,0.0324,0.013523,0.002678,0.000431,0.036434
1926000,0.0324,0.013523,0.002678,0.000431,0.074395
1927000,0.0324,0.013523,0.002678,0.000431,0.144912
1928000,0.0324,0.013523,0.002678,0.000431,0.118703
1929000,0.0324,0.013523,0.002678,0.000431,0.302047
1930000,0.0324,0.013523,0.002678,0.000431,0.156548
1931000,0.0324,0.013523,0.002678,0.000431,0.044543
1932000,0.0324,0.013523,0.002678,0.000431,0.053828
1933000,0.0324,0.013523,0.002678,0.000431,0.068754
1934000,0.0324,0.013523,0.002678,0.000431,0.090379
1935000,0.0324,0.013523,0.002678,0.000431,0.149026
1936000,0.0324,0.013523,0.002678,0.000431,0.105893
1937000,0.0324,0.013523,0.002678,0.000431,0.102720
1938000,0.0324,0.013523,0.002678,0.000431,0.051947
1939000,0.0324,0.013523,0.002678,0.000431,0.075218
1940000,0.0324,0.013523,0.002678,0.000431,0.129516
1941000,0.0324,0.013523,0.002678,0.000431,0.179466
1942000,0.0324,0.013523,0.002678,0.000431,0.250688
1943000,0.0324,0.013523,0.002678,0.000431,0.118703
1944000,0.0324,0.013523,0.002678,0.000431,0.051712
1945000,0.0324,0.013523,0.002678,0.000431,0.127871
1946000,0.0324,0.013523,0.002678,0.000431,0.168653
1947000,0.0324,0.013523,0.002678,0.000431,0.060292
1948000,0.0324,0.013523,0.002678,0.000431,0.263146
1949000,0.0324,0.013523,0.002678,0.000431,0.183461
1950000,0.0324,0.013523,0.002678,0.000431,0.069107
1951000,0.0324,0.013523,0.002678,0.000431,0.057471
1952000,0.0324,0.013523,0.002678,0.000431,0.141504
1953000,0.0324,0.013523,0.002678,0.000431,0.142797
1954000,0.0324,0.013523,0.002678,0.000431,0.076511
1955000,0.0324,0.013523,0.002678,0.000431,0.130221
1956000,0.0324,0.013523,0.002678,0.000431,0.083445
1957000,0.0324,0.013523,0.002678,0.000431,0.057589
1958000,0.0324,0.013523,0.002678,0.000431,0.039019
1959000,0.0324,0.013523,0.002678,0.000431,0.212961
1960000,0.0324,0.013523,0.002678,0.000431,0.071575
1961000,0.0324,0.013523,0.002678,0.000431,0.271960
1962000,0.0324,0.013523,0.002678,0.000431,0.212021
1963000,0.0324,0.013523,0.002678,0.000431,0.039019
1964000,0.0324,0.013523,0.002678,0.000431,0.039019
1965000,0.0324,0.013523,0.002678,0.000431,0.058529
1966000,0.0324,0.013523,0.002678,0.000431,0.064288
1967000,0.0324,0.013523,0.002678,0.000431,0.077098
1968000,0.0324,0.013523,0.002678,0.000431,0.144795
1969000,0.0324,0.013523,0.002678,0.000431,0.056766
1970000,0.0324,0.013523,0.002678,0.000431,0.050185
1971000,0.0324,0.013523,0.002678,0.000431,0.035023
1972000,0.0324,0.013523,0.002678,0.000431,0.139976
1973000,0.0324,0.013523,0.002678,0.000431,0.110594
1974000,0.0324,0.013523,0.002678,0.000431,0.129869
1975000,0.0324,0.013523,0.002678,0.000431,0.192981
1976000,0.0324,0.013523,0.002678,0.000431,0.082270
1977000,0.0324,0.013523,0.002678,0.000431,0.061702
1978000,0.0324,0.013523,0.002678,0.000431,0.186282
1979000,0.0324,0.013523,0.002678,0.000431,0.128811
1980000,0.0324,0.013523,0.002678,0.000431,0.090967
1981000,0.0324,0.013523,0.002678,0.000431,0.220483
1982000,0.0324,0.013523,0.002678,0.000431,0.055826
1983000,0.0324,0.013523,0.002678,0.000431,0.067344
1984000,0.0324,0.013523,0.002678,0.000431,0.126695
1985000,0.0324,0.013523,0.002678,0.000431,0.139388
1986000,0.0324,0.013523,0.002678,0.000431,0.076511
1987000,0.0324,0.013523,0.002678,0.000431,0.161601
1988000,0.0324,0.013523,0.002678,0.000431,0.293468
1989000,0.0324,0.013523,0.002678,0.000431,0.045013
1990000,0.0324,0.013523,0.002678,0.000431,0.035258
1991000,0.0324,0.013523,0.002678,0.000431,0.117881
1992000,0.0324,0.013523,0.002678,0.000431,0.075336
1993000,0.0324,0.013523,0.002678,0.000431,0.199210
1994000,0.0324,0.013523,0.002678,0.000431,0.259267
1995000,0.0324,0.013523,0.002678,0.000431,0.102602
1996000,0.0324,0.013523,0.002678,0.000431,0.035141
1997000,0.0324,0.013523,0.002678,0.000431,0.037491
1998000,0.0324,0.013523,0.002678,0.000431,0.111064
1999000,0.0324,0.013523,0.002678,0.000431,0.077921
