Cycle,Area(mm^2),PeakDynamic(W),SubthresholdLeakage(W),GateLeakage(W),RunTimeDynamic(W)
11000000,0.0324,0.013523,0.002678,0.000431,0.004701
11001000,0.0324,0.013523,0.002678,0.000431,0.004701
11002000,0.0324,0.013523,0.002678,0.000431,0.012223
11003000,0.0324,0.013523,0.002678,0.000431,0.012223
11004000,0.0324,0.013523,0.002678,0.000431,0.004701
11005000,0.0324,0.013523,0.002678,0.000431,0.004701
11006000,0.0324,0.013523,0.002678,0.000431,0.019745
11007000,0.0324,0.013523,0.002678,0.000431,0.004701
11008000,0.0324,0.013523,0.002678,0.000431,0.004701
11009000,0.0324,0.013523,0.002678,0.000431,0.039842
11010000,0.0324,0.013523,0.002678,0.000431,0.037256
11011000,0.0324,0.013523,0.002678,0.000431,0.019745
11012000,0.0324,0.013523,0.002678,0.000431,0.017747
11013000,0.0324,0.013523,0.002678,0.000431,0.021743
11014000,0.0324,0.013523,0.002678,0.000431,0.049949
11015000,0.0324,0.013523,0.002678,0.000431,0.041958
11016000,0.0324,0.013523,0.002678,0.000431,0.018099
11017000,0.0324,0.013523,0.002678,0.000431,0.036904
11018000,0.0324,0.013523,0.002678,0.000431,0.057119
11019000,0.0324,0.013523,0.002678,0.000431,0.101427
11020000,0.0324,0.013523,0.002678,0.000431,0.013046
11021000,0.0324,0.013523,0.002678,0.000431,0.004701
11022000,0.0324,0.013523,0.002678,0.000431,0.012458
11023000,0.0324,0.013523,0.002678,0.000431,0.004701
11024000,0.0324,0.013523,0.002678,0.000431,0.019745
11025000,0.0324,0.013523,0.002678,0.000431,0.007404
11026000,0.0324,0.013523,0.002678,0.000431,0.017042
11027000,0.0324,0.013523,0.002678,0.000431,0.004701
11028000,0.0324,0.013523,0.002678,0.000431,0.063583
11029000,0.0324,0.013523,0.002678,0.000431,0.028559
11030000,0.0324,0.013523,0.002678,0.000431,0.109771
11031000,0.0324,0.013523,0.002678,0.000431,0.004466
11032000,0.0324,0.013523,0.002678,0.000431,0.004701
11033000,0.0324,0.013523,0.002678,0.000431,0.004701
11034000,0.0324,0.013523,0.002678,0.000431,0.004701
11035000,0.0324,0.013523,0.002678,0.000431,0.019745
11036000,0.0324,0.013523,0.002678,0.000431,0.042780
11037000,0.0324,0.013523,0.002678,0.000431,0.012223
11038000,0.0324,0.013523,0.002678,0.000431,0.004701
11039000,0.0324,0.013523,0.002678,0.000431,0.004701
11040000,0.0324,0.013523,0.002678,0.000431,0.004701
11041000,0.0324,0.013523,0.002678,0.000431,0.042310
11042000,0.0324,0.013523,0.002678,0.000431,0.012223
11043000,0.0324,0.013523,0.002678,0.000431,0.027267
11044000,0.0324,0.013523,0.002678,0.000431,0.004701
11045000,0.0324,0.013523,0.002678,0.000431,0.049832
11046000,0.0324,0.013523,0.002678,0.000431,0.004701
11047000,0.0324,0.013523,0.002678,0.000431,0.004701
11048000,0.0324,0.013523,0.002678,0.000431,0.010107
11049000,0.0324,0.013523,0.002678,0.000431,0.082035
11050000,0.0324,0.013523,0.002678,0.000431,0.004701
11051000,0.0324,0.013523,0.002678,0.000431,0.004701
11052000,0.0324,0.013523,0.002678,0.000431,0.004701
11053000,0.0324,0.013523,0.002678,0.000431,0.004701
11054000,0.0324,0.013523,0.002678,0.000431,0.049832
11055000,0.0324,0.013523,0.002678,0.000431,0.019745
11056000,0.0324,0.013523,0.002678,0.000431,0.057589
11057000,0.0324,0.013523,0.002678,0.000431,0.004701
11058000,0.0324,0.013523,0.002678,0.000431,0.034788
11059000,0.0324,0.013523,0.002678,0.000431,0.004701
11060000,0.0324,0.013523,0.002678,0.000431,0.004701
11061000,0.0324,0.013523,0.002678,0.000431,0.019745
11062000,0.0324,0.013523,0.002678,0.000431,0.068872
11063000,0.0324,0.013523,0.002678,0.000431,0.015984
11064000,0.0324,0.013523,0.002678,0.000431,0.019745
11065000,0.0324,0.013523,0.002678,0.000431,0.004466
11066000,0.0324,0.013523,0.002678,0.000431,0.004701
11067000,0.0324,0.013523,0.002678,0.000431,0.004466
11068000,0.0324,0.013523,0.002678,0.000431,0.034788
11069000,0.0324,0.013523,0.002678,0.000431,0.004701
11070000,0.0324,0.013523,0.002678,0.000431,0.004701
11071000,0.0324,0.013523,0.002678,0.000431,0.019510
11072000,0.0324,0.013523,0.002678,0.000431,0.042310
11073000,0.0324,0.013523,0.002678,0.000431,0.012223
11074000,0.0324,0.013523,0.002678,0.000431,0.038432
11075000,0.0324,0.013523,0.002678,0.000431,0.008580
11076000,0.0324,0.013523,0.002678,0.000431,0.004701
11077000,0.0324,0.013523,0.002678,0.000431,0.004701
11078000,0.0324,0.013523,0.002678,0.000431,0.004701
11079000,0.0324,0.013523,0.002678,0.000431,0.049832
11080000,0.0324,0.013523,0.002678,0.000431,0.004701
11081000,0.0324,0.013523,0.002678,0.000431,0.014691
11082000,0.0324,0.013523,0.002678,0.000431,0.032320
11083000,0.0324,0.013523,0.002678,0.000431,0.012223
11084000,0.0324,0.013523,0.002678,0.000431,0.012223
11085000,0.0324,0.013523,0.002678,0.000431,0.056296
11086000,0.0324,0.013523,0.002678,0.000431,0.005524
11087000,0.0324,0.013523,0.002678,0.000431,0.004701
11088000,0.0324,0.013523,0.002678,0.000431,0.004701
11089000,0.0324,0.013523,0.002678,0.000431,0.004701
11090000,0.0324,0.013523,0.002678,0.000431,0.012223
11091000,0.0324,0.013523,0.002678,0.000431,0.004701
11092000,0.0324,0.013523,0.002678,0.000431,0.004701
11093000,0.0324,0.013523,0.002678,0.000431,0.042310
11094000,0.0324,0.013523,0.002678,0.000431,0.010930
11095000,0.0324,0.013523,0.002678,0.000431,0.013516
11096000,0.0324,0.013523,0.002678,0.000431,0.032085
11097000,0.0324,0.013523,0.002678,0.000431,0.014926
11098000,0.0324,0.013523,0.002678,0.000431,0.004701
11099000,0.0324,0.013523,0.002678,0.000431,0.004936
11100000,0.0324,0.013523,0.002678,0.000431,0.004701
11101000,0.0324,0.013523,0.002678,0.000431,0.027267
11102000,0.0324,0.013523,0.002678,0.000431,0.004701
11103000,0.0324,0.013523,0.002678,0.000431,0.012223
11104000,0.0324,0.013523,0.002678,0.000431,0.011988
11105000,0.0324,0.013523,0.002678,0.000431,0.028089
11106000,0.0324,0.013523,0.002678,0.000431,0.011400
11107000,0.0324,0.013523,0.002678,0.000431,0.059939
11108000,0.0324,0.013523,0.002678,0.000431,0.062055
11109000,0.0324,0.013523,0.002678,0.000431,0.004701
11110000,0.0324,0.013523,0.002678,0.000431,0.004701
11111000,0.0324,0.013523,0.002678,0.000431,0.019510
11112000,0.0324,0.013523,0.002678,0.000431,0.012223
11113000,0.0324,0.013523,0.002678,0.000431,0.004701
11114000,0.0324,0.013523,0.002678,0.000431,0.012223
11115000,0.0324,0.013523,0.002678,0.000431,0.004701
11116000,0.0324,0.013523,0.002678,0.000431,0.034788
11117000,0.0324,0.013523,0.002678,0.000431,0.004701
11118000,0.0324,0.013523,0.002678,0.000431,0.004701
11119000,0.0324,0.013523,0.002678,0.000431,0.004701
11120000,0.0324,0.013523,0.002678,0.000431,0.004936
11121000,0.0324,0.013523,0.002678,0.000431,0.004701
11122000,0.0324,0.013523,0.002678,0.000431,0.004701
11123000,0.0324,0.013523,0.002678,0.000431,0.012223
11124000,0.0324,0.013523,0.002678,0.000431,0.107303
11125000,0.0324,0.013523,0.002678,0.000431,0.029970
11126000,0.0324,0.013523,0.002678,0.000431,0.004701
11127000,0.0324,0.013523,0.002678,0.000431,0.004701
11128000,0.0324,0.013523,0.002678,0.000431,0.017042
11129000,0.0324,0.013523,0.002678,0.000431,0.060057
11130000,0.0324,0.013523,0.002678,0.000431,0.004701
11131000,0.0324,0.013523,0.002678,0.000431,0.036786
11132000,0.0324,0.013523,0.002678,0.000431,0.017629
11133000,0.0324,0.013523,0.002678,0.000431,0.004584
11134000,0.0324,0.013523,0.002678,0.000431,0.004701
11135000,0.0324,0.013523,0.002678,0.000431,0.012223
11136000,0.0324,0.013523,0.002678,0.000431,0.004701
11137000,0.0324,0.013523,0.002678,0.000431,0.050067
11138000,0.0324,0.013523,0.002678,0.000431,0.042310
11139000,0.0324,0.013523,0.002678,0.000431,0.004701
11140000,0.0324,0.013523,0.002678,0.000431,0.004701
11141000,0.0324,0.013523,0.002678,0.000431,0.022095
11142000,0.0324,0.013523,0.002678,0.000431,0.054768
11143000,0.0324,0.013523,0.002678,0.000431,0.032790
11144000,0.0324,0.013523,0.002678,0.000431,0.029500
11145000,0.0324,0.013523,0.002678,0.000431,0.004701
11146000,0.0324,0.013523,0.002678,0.000431,0.019745
11147000,0.0324,0.013523,0.002678,0.000431,0.004584
11148000,0.0324,0.013523,0.002678,0.000431,0.005054
11149000,0.0324,0.013523,0.002678,0.000431,0.004701
11150000,0.0324,0.013523,0.002678,0.000431,0.027267
11151000,0.0324,0.013523,0.002678,0.000431,0.004701
11152000,0.0324,0.013523,0.002678,0.000431,0.004701
11153000,0.0324,0.013523,0.002678,0.000431,0.004701
11154000,0.0324,0.013523,0.002678,0.000431,0.004701
11155000,0.0324,0.013523,0.002678,0.000431,0.019745
11156000,0.0324,0.013523,0.002678,0.000431,0.004701
11157000,0.0324,0.013523,0.002678,0.000431,0.042310
11158000,0.0324,0.013523,0.002678,0.000431,0.004701
11159000,0.0324,0.013523,0.002678,0.000431,0.027267
11160000,0.0324,0.013523,0.002678,0.000431,0.004701
11161000,0.0324,0.013523,0.002678,0.000431,0.007287
11162000,0.0324,0.013523,0.002678,0.000431,0.024916
11163000,0.0324,0.013523,0.002678,0.000431,0.004701
11164000,0.0324,0.013523,0.002678,0.000431,0.042310
11165000,0.0324,0.013523,0.002678,0.000431,0.072397
11166000,0.0324,0.013523,0.002678,0.000431,0.012223
11167000,0.0324,0.013523,0.002678,0.000431,0.004701
11168000,0.0324,0.013523,0.002678,0.000431,0.079919
11169000,0.0324,0.013523,0.002678,0.000431,0.004701
11170000,0.0324,0.013523,0.002678,0.000431,0.012223
11171000,0.0324,0.013523,0.002678,0.000431,0.004701
11172000,0.0324,0.013523,0.002678,0.000431,0.026914
11173000,0.0324,0.013523,0.002678,0.000431,0.004584
11174000,0.0324,0.013523,0.002678,0.000431,0.004701
11175000,0.0324,0.013523,0.002678,0.000431,0.004936
11176000,0.0324,0.013523,0.002678,0.000431,0.013868
11177000,0.0324,0.013523,0.002678,0.000431,0.025621
11178000,0.0324,0.013523,0.002678,0.000431,0.027267
11179000,0.0324,0.013523,0.002678,0.000431,0.004701
11180000,0.0324,0.013523,0.002678,0.000431,0.019980
11181000,0.0324,0.013523,0.002678,0.000431,0.004701
11182000,0.0324,0.013523,0.002678,0.000431,0.049832
11183000,0.0324,0.013523,0.002678,0.000431,0.004701
11184000,0.0324,0.013523,0.002678,0.000431,0.008462
11185000,0.0324,0.013523,0.002678,0.000431,0.008462
11186000,0.0324,0.013523,0.002678,0.000431,0.004701
11187000,0.0324,0.013523,0.002678,0.000431,0.012105
11188000,0.0324,0.013523,0.002678,0.000431,0.019627
11189000,0.0324,0.013523,0.002678,0.000431,0.019745
11190000,0.0324,0.013523,0.002678,0.000431,0.004701
11191000,0.0324,0.013523,0.002678,0.000431,0.012223
11192000,0.0324,0.013523,0.002678,0.000431,0.004701
11193000,0.0324,0.013523,0.002678,0.000431,0.072750
11194000,0.0324,0.013523,0.002678,0.000431,0.019862
11195000,0.0324,0.013523,0.002678,0.000431,0.012223
11196000,0.0324,0.013523,0.002678,0.000431,0.019745
11197000,0.0324,0.013523,0.002678,0.000431,0.034436
11198000,0.0324,0.013523,0.002678,0.000431,0.020332
11199000,0.0324,0.013523,0.002678,0.000431,0.012223
11200000,0.0324,0.013523,0.002678,0.000431,0.057354
11201000,0.0324,0.013523,0.002678,0.000431,0.082740
11202000,0.0324,0.013523,0.002678,0.000431,0.084855
11203000,0.0324,0.013523,0.002678,0.000431,0.004701
11204000,0.0324,0.013523,0.002678,0.000431,0.004701
11205000,0.0324,0.013523,0.002678,0.000431,0.004701
11206000,0.0324,0.013523,0.002678,0.000431,0.004701
11207000,0.0324,0.013523,0.002678,0.000431,0.004701
11208000,0.0324,0.013523,0.002678,0.000431,0.004701
11209000,0.0324,0.013523,0.002678,0.000431,0.012223
11210000,0.0324,0.013523,0.002678,0.000431,0.004466
11211000,0.0324,0.013523,0.002678,0.000431,0.004701
11212000,0.0324,0.013523,0.002678,0.000431,0.004701
11213000,0.0324,0.013523,0.002678,0.000431,0.039137
11214000,0.0324,0.013523,0.002678,0.000431,0.038197
11215000,0.0324,0.013523,0.002678,0.000431,0.004701
11216000,0.0324,0.013523,0.002678,0.000431,0.004701
11217000,0.0324,0.013523,0.002678,0.000431,0.004701
11218000,0.0324,0.013523,0.002678,0.000431,0.004701
11219000,0.0324,0.013523,0.002678,0.000431,0.004701
11220000,0.0324,0.013523,0.002678,0.000431,0.012223
11221000,0.0324,0.013523,0.002678,0.000431,0.128341
11222000,0.0324,0.013523,0.002678,0.000431,0.016219
11223000,0.0324,0.013523,0.002678,0.000431,0.004701
11224000,0.0324,0.013523,0.002678,0.000431,0.027267
11225000,0.0324,0.013523,0.002678,0.000431,0.004701
11226000,0.0324,0.013523,0.002678,0.000431,0.004701
11227000,0.0324,0.013523,0.002678,0.000431,0.019980
11228000,0.0324,0.013523,0.002678,0.000431,0.004701
11229000,0.0324,0.013523,0.002678,0.000431,0.016336
11230000,0.0324,0.013523,0.002678,0.000431,0.075806
11231000,0.0324,0.013523,0.002678,0.000431,0.004701
11232000,0.0324,0.013523,0.002678,0.000431,0.004701
11233000,0.0324,0.013523,0.002678,0.000431,0.012223
11234000,0.0324,0.013523,0.002678,0.000431,0.011988
11235000,0.0324,0.013523,0.002678,0.000431,0.004701
11236000,0.0324,0.013523,0.002678,0.000431,0.027502
11237000,0.0324,0.013523,0.002678,0.000431,0.004701
11238000,0.0324,0.013523,0.002678,0.000431,0.004584
11239000,0.0324,0.013523,0.002678,0.000431,0.004584
11240000,0.0324,0.013523,0.002678,0.000431,0.057354
11241000,0.0324,0.013523,0.002678,0.000431,0.004701
11242000,0.0324,0.013523,0.002678,0.000431,0.016101
11243000,0.0324,0.013523,0.002678,0.000431,0.016101
11244000,0.0324,0.013523,0.002678,0.000431,0.004701
11245000,0.0324,0.013523,0.002678,0.000431,0.004701
11246000,0.0324,0.013523,0.002678,0.000431,0.037256
11247000,0.0324,0.013523,0.002678,0.000431,0.032320
11248000,0.0324,0.013523,0.002678,0.000431,0.004701
11249000,0.0324,0.013523,0.002678,0.000431,0.004701
11250000,0.0324,0.013523,0.002678,0.000431,0.004701
11251000,0.0324,0.013523,0.002678,0.000431,0.004701
11252000,0.0324,0.013523,0.002678,0.000431,0.004701
11253000,0.0324,0.013523,0.002678,0.000431,0.057824
11254000,0.0324,0.013523,0.002678,0.000431,0.004701
11255000,0.0324,0.013523,0.002678,0.000431,0.038549
11256000,0.0324,0.013523,0.002678,0.000431,0.015749
11257000,0.0324,0.013523,0.002678,0.000431,0.004701
11258000,0.0324,0.013523,0.002678,0.000431,0.042310
11259000,0.0324,0.013523,0.002678,0.000431,0.062878
11260000,0.0324,0.013523,0.002678,0.000431,0.010225
11261000,0.0324,0.013523,0.002678,0.000431,0.015984
11262000,0.0324,0.013523,0.002678,0.000431,0.023506
11263000,0.0324,0.013523,0.002678,0.000431,0.008462
11264000,0.0324,0.013523,0.002678,0.000431,0.004701
11265000,0.0324,0.013523,0.002678,0.000431,0.004701
11266000,0.0324,0.013523,0.002678,0.000431,0.027267
11267000,0.0324,0.013523,0.002678,0.000431,0.004701
11268000,0.0324,0.013523,0.002678,0.000431,0.004701
11269000,0.0324,0.013523,0.002678,0.000431,0.012223
11270000,0.0324,0.013523,0.002678,0.000431,0.027267
11271000,0.0324,0.013523,0.002678,0.000431,0.004701
11272000,0.0324,0.013523,0.002678,0.000431,0.034788
11273000,0.0324,0.013523,0.002678,0.000431,0.004701
11274000,0.0324,0.013523,0.002678,0.000431,0.004466
11275000,0.0324,0.013523,0.002678,0.000431,0.004701
11276000,0.0324,0.013523,0.002678,0.000431,0.008462
11277000,0.0324,0.013523,0.002678,0.000431,0.008462
11278000,0.0324,0.013523,0.002678,0.000431,0.004584
11279000,0.0324,0.013523,0.002678,0.000431,0.012105
11280000,0.0324,0.013523,0.002678,0.000431,0.004701
11281000,0.0324,0.013523,0.002678,0.000431,0.004701
11282000,0.0324,0.013523,0.002678,0.000431,0.012223
11283000,0.0324,0.013523,0.002678,0.000431,0.004701
11284000,0.0324,0.013523,0.002678,0.000431,0.004701
11285000,0.0324,0.013523,0.002678,0.000431,0.004701
11286000,0.0324,0.013523,0.002678,0.000431,0.019745
11287000,0.0324,0.013523,0.002678,0.000431,0.004701
11288000,0.0324,0.013523,0.002678,0.000431,0.042310
11289000,0.0324,0.013523,0.002678,0.000431,0.004936
11290000,0.0324,0.013523,0.002678,0.000431,0.004701
11291000,0.0324,0.013523,0.002678,0.000431,0.004701
11292000,0.0324,0.013523,0.002678,0.000431,0.036316
11293000,0.0324,0.013523,0.002678,0.000431,0.040782
11294000,0.0324,0.013523,0.002678,0.000431,0.027502
11295000,0.0324,0.013523,0.002678,0.000431,0.012223
11296000,0.0324,0.013523,0.002678,0.000431,0.004349
11297000,0.0324,0.013523,0.002678,0.000431,0.004584
11298000,0.0324,0.013523,0.002678,0.000431,0.004701
11299000,0.0324,0.013523,0.002678,0.000431,0.049832
11300000,0.0324,0.013523,0.002678,0.000431,0.014926
11301000,0.0324,0.013523,0.002678,0.000431,0.039489
11302000,0.0324,0.013523,0.002678,0.000431,0.035141
11303000,0.0324,0.013523,0.002678,0.000431,0.004701
11304000,0.0324,0.013523,0.002678,0.000431,0.004701
11305000,0.0324,0.013523,0.002678,0.000431,0.027267
11306000,0.0324,0.013523,0.002678,0.000431,0.090497
11307000,0.0324,0.013523,0.002678,0.000431,0.091907
11308000,0.0324,0.013523,0.002678,0.000431,0.079684
11309000,0.0324,0.013523,0.002678,0.000431,0.004701
11310000,0.0324,0.013523,0.002678,0.000431,0.004701
11311000,0.0324,0.013523,0.002678,0.000431,0.004701
11312000,0.0324,0.013523,0.002678,0.000431,0.004466
11313000,0.0324,0.013523,0.002678,0.000431,0.019862
11314000,0.0324,0.013523,0.002678,0.000431,0.004584
11315000,0.0324,0.013523,0.002678,0.000431,0.023388
11316000,0.0324,0.013523,0.002678,0.000431,0.042545
11317000,0.0324,0.013523,0.002678,0.000431,0.068284
11318000,0.0324,0.013523,0.002678,0.000431,0.004701
11319000,0.0324,0.013523,0.002678,0.000431,0.034788
11320000,0.0324,0.013523,0.002678,0.000431,0.004701
11321000,0.0324,0.013523,0.002678,0.000431,0.004701
11322000,0.0324,0.013523,0.002678,0.000431,0.004701
11323000,0.0324,0.013523,0.002678,0.000431,0.008462
11324000,0.0324,0.013523,0.002678,0.000431,0.008462
11325000,0.0324,0.013523,0.002678,0.000431,0.027267
11326000,0.0324,0.013523,0.002678,0.000431,0.004701
11327000,0.0324,0.013523,0.002678,0.000431,0.004701
11328000,0.0324,0.013523,0.002678,0.000431,0.004936
11329000,0.0324,0.013523,0.002678,0.000431,0.016219
11330000,0.0324,0.013523,0.002678,0.000431,0.046071
11331000,0.0324,0.013523,0.002678,0.000431,0.004701
11332000,0.0324,0.013523,0.002678,0.000431,0.019745
11333000,0.0324,0.013523,0.002678,0.000431,0.004701
11334000,0.0324,0.013523,0.002678,0.000431,0.004701
11335000,0.0324,0.013523,0.002678,0.000431,0.004701
11336000,0.0324,0.013523,0.002678,0.000431,0.034788
11337000,0.0324,0.013523,0.002678,0.000431,0.004701
11338000,0.0324,0.013523,0.002678,0.000431,0.004701
11339000,0.0324,0.013523,0.002678,0.000431,0.012223
11340000,0.0324,0.013523,0.002678,0.000431,0.004701
11341000,0.0324,0.013523,0.002678,0.000431,0.027267
11342000,0.0324,0.013523,0.002678,0.000431,0.031027
11343000,0.0324,0.013523,0.002678,0.000431,0.015984
11344000,0.0324,0.013523,0.002678,0.000431,0.004701
11345000,0.0324,0.013523,0.002678,0.000431,0.004701
11346000,0.0324,0.013523,0.002678,0.000431,0.019745
11347000,0.0324,0.013523,0.002678,0.000431,0.004584
11348000,0.0324,0.013523,0.002678,0.000431,0.027149
11349000,0.0324,0.013523,0.002678,0.000431,0.045718
11350000,0.0324,0.013523,0.002678,0.000431,0.053945
11351000,0.0324,0.013523,0.002678,0.000431,0.004701
11352000,0.0324,0.013523,0.002678,0.000431,0.004701
11353000,0.0324,0.013523,0.002678,0.000431,0.004701
11354000,0.0324,0.013523,0.002678,0.000431,0.077098
11355000,0.0324,0.013523,0.002678,0.000431,0.007287
11356000,0.0324,0.013523,0.002678,0.000431,0.004701
11357000,0.0324,0.013523,0.002678,0.000431,0.004466
11358000,0.0324,0.013523,0.002678,0.000431,0.004701
11359000,0.0324,0.013523,0.002678,0.000431,0.080389
11360000,0.0324,0.013523,0.002678,0.000431,0.004701
11361000,0.0324,0.013523,0.002678,0.000431,0.019980
11362000,0.0324,0.013523,0.002678,0.000431,0.019745
11363000,0.0324,0.013523,0.002678,0.000431,0.004701
11364000,0.0324,0.013523,0.002678,0.000431,0.004701
11365000,0.0324,0.013523,0.002678,0.000431,0.019745
11366000,0.0324,0.013523,0.002678,0.000431,0.004701
11367000,0.0324,0.013523,0.002678,0.000431,0.004701
11368000,0.0324,0.013523,0.002678,0.000431,0.034788
11369000,0.0324,0.013523,0.002678,0.000431,0.004701
11370000,0.0324,0.013523,0.002678,0.000431,0.004701
11371000,0.0324,0.013523,0.002678,0.000431,0.006582
11372000,0.0324,0.013523,0.002678,0.000431,0.010342
11373000,0.0324,0.013523,0.002678,0.000431,0.019745
11374000,0.0324,0.013523,0.002678,0.000431,0.035023
11375000,0.0324,0.013523,0.002678,0.000431,0.004701
11376000,0.0324,0.013523,0.002678,0.000431,0.004701
11377000,0.0324,0.013523,0.002678,0.000431,0.004701
11378000,0.0324,0.013523,0.002678,0.000431,0.034788
11379000,0.0324,0.013523,0.002678,0.000431,0.005406
11380000,0.0324,0.013523,0.002678,0.000431,0.131397
11381000,0.0324,0.013523,0.002678,0.000431,0.064758
11382000,0.0324,0.013523,0.002678,0.000431,0.004584
11383000,0.0324,0.013523,0.002678,0.000431,0.004701
11384000,0.0324,0.013523,0.002678,0.000431,0.004701
11385000,0.0324,0.013523,0.002678,0.000431,0.042310
11386000,0.0324,0.013523,0.002678,0.000431,0.004701
11387000,0.0324,0.013523,0.002678,0.000431,0.023506
11388000,0.0324,0.013523,0.002678,0.000431,0.008462
11389000,0.0324,0.013523,0.002678,0.000431,0.004701
11390000,0.0324,0.013523,0.002678,0.000431,0.004701
11391000,0.0324,0.013523,0.002678,0.000431,0.004701
11392000,0.0324,0.013523,0.002678,0.000431,0.004701
11393000,0.0324,0.013523,0.002678,0.000431,0.065111
11394000,0.0324,0.013523,0.002678,0.000431,0.012223
11395000,0.0324,0.013523,0.002678,0.000431,0.004466
11396000,0.0324,0.013523,0.002678,0.000431,0.004701
11397000,0.0324,0.013523,0.002678,0.000431,0.013986
11398000,0.0324,0.013523,0.002678,0.000431,0.017747
11399000,0.0324,0.013523,0.002678,0.000431,0.004701
11400000,0.0324,0.013523,0.002678,0.000431,0.019745
11401000,0.0324,0.013523,0.002678,0.000431,0.015984
11402000,0.0324,0.013523,0.002678,0.000431,0.015984
11403000,0.0324,0.013523,0.002678,0.000431,0.004701
11404000,0.0324,0.013523,0.002678,0.000431,0.004701
11405000,0.0324,0.013523,0.002678,0.000431,0.102250
11406000,0.0324,0.013523,0.002678,0.000431,0.004701
11407000,0.0324,0.013523,0.002678,0.000431,0.004701
11408000,0.0324,0.013523,0.002678,0.000431,0.027267
11409000,0.0324,0.013523,0.002678,0.000431,0.004701
11410000,0.0324,0.013523,0.002678,0.000431,0.033496
11411000,0.0324,0.013523,0.002678,0.000431,0.028794
11412000,0.0324,0.013523,0.002678,0.000431,0.004701
11413000,0.0324,0.013523,0.002678,0.000431,0.004701
11414000,0.0324,0.013523,0.002678,0.000431,0.039372
11415000,0.0324,0.013523,0.002678,0.000431,0.037491
11416000,0.0324,0.013523,0.002678,0.000431,0.004701
11417000,0.0324,0.013523,0.002678,0.000431,0.004701
11418000,0.0324,0.013523,0.002678,0.000431,0.072397
11419000,0.0324,0.013523,0.002678,0.000431,0.004701
11420000,0.0324,0.013523,0.002678,0.000431,0.004701
11421000,0.0324,0.013523,0.002678,0.000431,0.031615
11422000,0.0324,0.013523,0.002678,0.000431,0.015396
11423000,0.0324,0.013523,0.002678,0.000431,0.004701
11424000,0.0324,0.013523,0.002678,0.000431,0.091319
11425000,0.0324,0.013523,0.002678,0.000431,0.023858
11426000,0.0324,0.013523,0.002678,0.000431,0.019745
11427000,0.0324,0.013523,0.002678,0.000431,0.004466
11428000,0.0324,0.013523,0.002678,0.000431,0.004701
11429000,0.0324,0.013523,0.002678,0.000431,0.012223
11430000,0.0324,0.013523,0.002678,0.000431,0.004701
11431000,0.0324,0.013523,0.002678,0.000431,0.012223
11432000,0.0324,0.013523,0.002678,0.000431,0.035023
11433000,0.0324,0.013523,0.002678,0.000431,0.004701
11434000,0.0324,0.013523,0.002678,0.000431,0.004701
11435000,0.0324,0.013523,0.002678,0.000431,0.004466
11436000,0.0324,0.013523,0.002678,0.000431,0.004701
11437000,0.0324,0.013523,0.002678,0.000431,0.004701
11438000,0.0324,0.013523,0.002678,0.000431,0.012223
11439000,0.0324,0.013523,0.002678,0.000431,0.004701
11440000,0.0324,0.013523,0.002678,0.000431,0.004701
11441000,0.0324,0.013523,0.002678,0.000431,0.004701
11442000,0.0324,0.013523,0.002678,0.000431,0.027267
11443000,0.0324,0.013523,0.002678,0.000431,0.004584
11444000,0.0324,0.013523,0.002678,0.000431,0.019627
11445000,0.0324,0.013523,0.002678,0.000431,0.034788
11446000,0.0324,0.013523,0.002678,0.000431,0.012223
11447000,0.0324,0.013523,0.002678,0.000431,0.004701
11448000,0.0324,0.013523,0.002678,0.000431,0.027267
11449000,0.0324,0.013523,0.002678,0.000431,0.004701
11450000,0.0324,0.013523,0.002678,0.000431,0.004701
11451000,0.0324,0.013523,0.002678,0.000431,0.012223
11452000,0.0324,0.013523,0.002678,0.000431,0.019745
11453000,0.0324,0.013523,0.002678,0.000431,0.004701
11454000,0.0324,0.013523,0.002678,0.000431,0.019745
11455000,0.0324,0.013523,0.002678,0.000431,0.008227
11456000,0.0324,0.013523,0.002678,0.000431,0.008462
11457000,0.0324,0.013523,0.002678,0.000431,0.109771
11458000,0.0324,0.013523,0.002678,0.000431,0.092025
11459000,0.0324,0.013523,0.002678,0.000431,0.082622
11460000,0.0324,0.013523,0.002678,0.000431,0.034788
11461000,0.0324,0.013523,0.002678,0.000431,0.004701
11462000,0.0324,0.013523,0.002678,0.000431,0.004701
11463000,0.0324,0.013523,0.002678,0.000431,0.004701
11464000,0.0324,0.013523,0.002678,0.000431,0.004701
11465000,0.0324,0.013523,0.002678,0.000431,0.008462
11466000,0.0324,0.013523,0.002678,0.000431,0.038784
11467000,0.0324,0.013523,0.002678,0.000431,0.004701
11468000,0.0324,0.013523,0.002678,0.000431,0.045131
11469000,0.0324,0.013523,0.002678,0.000431,0.062055
11470000,0.0324,0.013523,0.002678,0.000431,0.004701
11471000,0.0324,0.013523,0.002678,0.000431,0.019745
11472000,0.0324,0.013523,0.002678,0.000431,0.070752
11473000,0.0324,0.013523,0.002678,0.000431,0.013633
11474000,0.0324,0.013523,0.002678,0.000431,0.004584
11475000,0.0324,0.013523,0.002678,0.000431,0.034906
11476000,0.0324,0.013523,0.002678,0.000431,0.004701
11477000,0.0324,0.013523,0.002678,0.000431,0.013398
11478000,0.0324,0.013523,0.002678,0.000431,0.014809
11479000,0.0324,0.013523,0.002678,0.000431,0.023153
11480000,0.0324,0.013523,0.002678,0.000431,0.004584
11481000,0.0324,0.013523,0.002678,0.000431,0.012223
11482000,0.0324,0.013523,0.002678,0.000431,0.012223
11483000,0.0324,0.013523,0.002678,0.000431,0.004701
11484000,0.0324,0.013523,0.002678,0.000431,0.012223
11485000,0.0324,0.013523,0.002678,0.000431,0.049949
11486000,0.0324,0.013523,0.002678,0.000431,0.004819
11487000,0.0324,0.013523,0.002678,0.000431,0.004701
11488000,0.0324,0.013523,0.002678,0.000431,0.004701
11489000,0.0324,0.013523,0.002678,0.000431,0.004701
11490000,0.0324,0.013523,0.002678,0.000431,0.040312
11491000,0.0324,0.013523,0.002678,0.000431,0.059352
11492000,0.0324,0.013523,0.002678,0.000431,0.004701
11493000,0.0324,0.013523,0.002678,0.000431,0.004701
11494000,0.0324,0.013523,0.002678,0.000431,0.012458
11495000,0.0324,0.013523,0.002678,0.000431,0.004701
11496000,0.0324,0.013523,0.002678,0.000431,0.004701
11497000,0.0324,0.013523,0.002678,0.000431,0.025856
11498000,0.0324,0.013523,0.002678,0.000431,0.028677
11499000,0.0324,0.013523,0.002678,0.000431,0.004701
11500000,0.0324,0.013523,0.002678,0.000431,0.004701
11501000,0.0324,0.013523,0.002678,0.000431,0.004701
11502000,0.0324,0.013523,0.002678,0.000431,0.004701
11503000,0.0324,0.013523,0.002678,0.000431,0.012223
11504000,0.0324,0.013523,0.002678,0.000431,0.010460
11505000,0.0324,0.013523,0.002678,0.000431,0.029029
11506000,0.0324,0.013523,0.002678,0.000431,0.004584
11507000,0.0324,0.013523,0.002678,0.000431,0.004584
11508000,0.0324,0.013523,0.002678,0.000431,0.004701
11509000,0.0324,0.013523,0.002678,0.000431,0.004701
11510000,0.0324,0.013523,0.002678,0.000431,0.016101
11511000,0.0324,0.013523,0.002678,0.000431,0.031145
11512000,0.0324,0.013523,0.002678,0.000431,0.004701
11513000,0.0324,0.013523,0.002678,0.000431,0.012223
11514000,0.0324,0.013523,0.002678,0.000431,0.012105
11515000,0.0324,0.013523,0.002678,0.000431,0.004584
11516000,0.0324,0.013523,0.002678,0.000431,0.034083
11517000,0.0324,0.013523,0.002678,0.000431,0.058294
11518000,0.0324,0.013523,0.002678,0.000431,0.004701
11519000,0.0324,0.013523,0.002678,0.000431,0.004584
11520000,0.0324,0.013523,0.002678,0.000431,0.042193
11521000,0.0324,0.013523,0.002678,0.000431,0.004701
11522000,0.0324,0.013523,0.002678,0.000431,0.004701
11523000,0.0324,0.013523,0.002678,0.000431,0.027502
11524000,0.0324,0.013523,0.002678,0.000431,0.012223
11525000,0.0324,0.013523,0.002678,0.000431,0.004701
11526000,0.0324,0.013523,0.002678,0.000431,0.004701
11527000,0.0324,0.013523,0.002678,0.000431,0.004701
11528000,0.0324,0.013523,0.002678,0.000431,0.004701
11529000,0.0324,0.013523,0.002678,0.000431,0.054298
11530000,0.0324,0.013523,0.002678,0.000431,0.007757
11531000,0.0324,0.013523,0.002678,0.000431,0.004701
11532000,0.0324,0.013523,0.002678,0.000431,0.027737
11533000,0.0324,0.013523,0.002678,0.000431,0.004701
11534000,0.0324,0.013523,0.002678,0.000431,0.004701
11535000,0.0324,0.013523,0.002678,0.000431,0.004701
11536000,0.0324,0.013523,0.002678,0.000431,0.049597
11537000,0.0324,0.013523,0.002678,0.000431,0.004701
11538000,0.0324,0.013523,0.002678,0.000431,0.019745
11539000,0.0324,0.013523,0.002678,0.000431,0.004701
11540000,0.0324,0.013523,0.002678,0.000431,0.004701
11541000,0.0324,0.013523,0.002678,0.000431,0.004701
11542000,0.0324,0.013523,0.002678,0.000431,0.012223
11543000,0.0324,0.013523,0.002678,0.000431,0.027267
11544000,0.0324,0.013523,0.002678,0.000431,0.004701
11545000,0.0324,0.013523,0.002678,0.000431,0.004701
11546000,0.0324,0.013523,0.002678,0.000431,0.004701
11547000,0.0324,0.013523,0.002678,0.000431,0.013868
11548000,0.0324,0.013523,0.002678,0.000431,0.047951
11549000,0.0324,0.013523,0.002678,0.000431,0.012223
11550000,0.0324,0.013523,0.002678,0.000431,0.079919
11551000,0.0324,0.013523,0.002678,0.000431,0.027267
11552000,0.0324,0.013523,0.002678,0.000431,0.004701
11553000,0.0324,0.013523,0.002678,0.000431,0.004701
11554000,0.0324,0.013523,0.002678,0.000431,0.027267
11555000,0.0324,0.013523,0.002678,0.000431,0.004701
11556000,0.0324,0.013523,0.002678,0.000431,0.031262
11557000,0.0324,0.013523,0.002678,0.000431,0.049597
11558000,0.0324,0.013523,0.002678,0.000431,0.023506
11559000,0.0324,0.013523,0.002678,0.000431,0.004701
11560000,0.0324,0.013523,0.002678,0.000431,0.031968
11561000,0.0324,0.013523,0.002678,0.000431,0.083210
11562000,0.0324,0.013523,0.002678,0.000431,0.064170
11563000,0.0324,0.013523,0.002678,0.000431,0.012223
11564000,0.0324,0.013523,0.002678,0.000431,0.075336
11565000,0.0324,0.013523,0.002678,0.000431,0.009050
11566000,0.0324,0.013523,0.002678,0.000431,0.004584
11567000,0.0324,0.013523,0.002678,0.000431,0.004584
11568000,0.0324,0.013523,0.002678,0.000431,0.035023
11569000,0.0324,0.013523,0.002678,0.000431,0.004701
11570000,0.0324,0.013523,0.002678,0.000431,0.054063
11571000,0.0324,0.013523,0.002678,0.000431,0.038079
11572000,0.0324,0.013523,0.002678,0.000431,0.004701
11573000,0.0324,0.013523,0.002678,0.000431,0.012340
11574000,0.0324,0.013523,0.002678,0.000431,0.029382
11575000,0.0324,0.013523,0.002678,0.000431,0.062878
11576000,0.0324,0.013523,0.002678,0.000431,0.004701
11577000,0.0324,0.013523,0.002678,0.000431,0.094963
11578000,0.0324,0.013523,0.002678,0.000431,0.004701
11579000,0.0324,0.013523,0.002678,0.000431,0.004701
11580000,0.0324,0.013523,0.002678,0.000431,0.004701
11581000,0.0324,0.013523,0.002678,0.000431,0.034788
11582000,0.0324,0.013523,0.002678,0.000431,0.004466
11583000,0.0324,0.013523,0.002678,0.000431,0.072515
11584000,0.0324,0.013523,0.002678,0.000431,0.072280
11585000,0.0324,0.013523,0.002678,0.000431,0.004701
11586000,0.0324,0.013523,0.002678,0.000431,0.023858
11587000,0.0324,0.013523,0.002678,0.000431,0.015631
11588000,0.0324,0.013523,0.002678,0.000431,0.012223
11589000,0.0324,0.013523,0.002678,0.000431,0.035023
11590000,0.0324,0.013523,0.002678,0.000431,0.034788
11591000,0.0324,0.013523,0.002678,0.000431,0.004701
11592000,0.0324,0.013523,0.002678,0.000431,0.004701
11593000,0.0324,0.013523,0.002678,0.000431,0.027267
11594000,0.0324,0.013523,0.002678,0.000431,0.019745
11595000,0.0324,0.013523,0.002678,0.000431,0.015984
11596000,0.0324,0.013523,0.002678,0.000431,0.049479
11597000,0.0324,0.013523,0.002678,0.000431,0.024563
11598000,0.0324,0.013523,0.002678,0.000431,0.004701
11599000,0.0324,0.013523,0.002678,0.000431,0.004701
11600000,0.0324,0.013523,0.002678,0.000431,0.031145
11601000,0.0324,0.013523,0.002678,0.000431,0.008580
11602000,0.0324,0.013523,0.002678,0.000431,0.004701
11603000,0.0324,0.013523,0.002678,0.000431,0.019510
11604000,0.0324,0.013523,0.002678,0.000431,0.004701
11605000,0.0324,0.013523,0.002678,0.000431,0.004701
11606000,0.0324,0.013523,0.002678,0.000431,0.012105
11607000,0.0324,0.013523,0.002678,0.000431,0.026914
11608000,0.0324,0.013523,0.002678,0.000431,0.004701
11609000,0.0324,0.013523,0.002678,0.000431,0.004701
11610000,0.0324,0.013523,0.002678,0.000431,0.004701
11611000,0.0324,0.013523,0.002678,0.000431,0.004701
11612000,0.0324,0.013523,0.002678,0.000431,0.079919
11613000,0.0324,0.013523,0.002678,0.000431,0.012223
11614000,0.0324,0.013523,0.002678,0.000431,0.005994
11615000,0.0324,0.013523,0.002678,0.000431,0.056061
11616000,0.0324,0.013523,0.002678,0.000431,0.012223
11617000,0.0324,0.013523,0.002678,0.000431,0.004701
11618000,0.0324,0.013523,0.002678,0.000431,0.020685
11619000,0.0324,0.013523,0.002678,0.000431,0.052888
11620000,0.0324,0.013523,0.002678,0.000431,0.008462
11621000,0.0324,0.013523,0.002678,0.000431,0.004701
11622000,0.0324,0.013523,0.002678,0.000431,0.012223
11623000,0.0324,0.013523,0.002678,0.000431,0.004584
11624000,0.0324,0.013523,0.002678,0.000431,0.004584
11625000,0.0324,0.013523,0.002678,0.000431,0.012223
11626000,0.0324,0.013523,0.002678,0.000431,0.011988
11627000,0.0324,0.013523,0.002678,0.000431,0.019745
11628000,0.0324,0.013523,0.002678,0.000431,0.026914
11629000,0.0324,0.013523,0.002678,0.000431,0.005054
11630000,0.0324,0.013523,0.002678,0.000431,0.004701
11631000,0.0324,0.013523,0.002678,0.000431,0.012223
11632000,0.0324,0.013523,0.002678,0.000431,0.058294
11633000,0.0324,0.013523,0.002678,0.000431,0.033848
11634000,0.0324,0.013523,0.002678,0.000431,0.019510
11635000,0.0324,0.013523,0.002678,0.000431,0.057354
11636000,0.0324,0.013523,0.002678,0.000431,0.004701
11637000,0.0324,0.013523,0.002678,0.000431,0.004701
11638000,0.0324,0.013523,0.002678,0.000431,0.009520
11639000,0.0324,0.013523,0.002678,0.000431,0.007404
11640000,0.0324,0.013523,0.002678,0.000431,0.004701
11641000,0.0324,0.013523,0.002678,0.000431,0.027267
11642000,0.0324,0.013523,0.002678,0.000431,0.004701
11643000,0.0324,0.013523,0.002678,0.000431,0.004701
11644000,0.0324,0.013523,0.002678,0.000431,0.004701
11645000,0.0324,0.013523,0.002678,0.000431,0.019745
11646000,0.0324,0.013523,0.002678,0.000431,0.027267
11647000,0.0324,0.013523,0.002678,0.000431,0.057119
11648000,0.0324,0.013523,0.002678,0.000431,0.004701
11649000,0.0324,0.013523,0.002678,0.000431,0.012223
11650000,0.0324,0.013523,0.002678,0.000431,0.004701
11651000,0.0324,0.013523,0.002678,0.000431,0.012223
11652000,0.0324,0.013523,0.002678,0.000431,0.004701
11653000,0.0324,0.013523,0.002678,0.000431,0.004701
11654000,0.0324,0.013523,0.002678,0.000431,0.004701
11655000,0.0324,0.013523,0.002678,0.000431,0.072397
11656000,0.0324,0.013523,0.002678,0.000431,0.012223
11657000,0.0324,0.013523,0.002678,0.000431,0.004701
11658000,0.0324,0.013523,0.002678,0.000431,0.034788
11659000,0.0324,0.013523,0.002678,0.000431,0.004701
11660000,0.0324,0.013523,0.002678,0.000431,0.012223
11661000,0.0324,0.013523,0.002678,0.000431,0.004584
11662000,0.0324,0.013523,0.002678,0.000431,0.049714
11663000,0.0324,0.013523,0.002678,0.000431,0.004701
11664000,0.0324,0.013523,0.002678,0.000431,0.005406
11665000,0.0324,0.013523,0.002678,0.000431,0.033848
11666000,0.0324,0.013523,0.002678,0.000431,0.004584
11667000,0.0324,0.013523,0.002678,0.000431,0.004584
11668000,0.0324,0.013523,0.002678,0.000431,0.034788
11669000,0.0324,0.013523,0.002678,0.000431,0.004701
11670000,0.0324,0.013523,0.002678,0.000431,0.087676
11671000,0.0324,0.013523,0.002678,0.000431,0.031027
11672000,0.0324,0.013523,0.002678,0.000431,0.053593
11673000,0.0324,0.013523,0.002678,0.000431,0.004701
11674000,0.0324,0.013523,0.002678,0.000431,0.008462
11675000,0.0324,0.013523,0.002678,0.000431,0.008462
11676000,0.0324,0.013523,0.002678,0.000431,0.022213
11677000,0.0324,0.013523,0.002678,0.000431,0.034083
11678000,0.0324,0.013523,0.002678,0.000431,0.048069
11679000,0.0324,0.013523,0.002678,0.000431,0.004701
11680000,0.0324,0.013523,0.002678,0.000431,0.004584
11681000,0.0324,0.013523,0.002678,0.000431,0.004584
11682000,0.0324,0.013523,0.002678,0.000431,0.004701
11683000,0.0324,0.013523,0.002678,0.000431,0.027267
11684000,0.0324,0.013523,0.002678,0.000431,0.087206
11685000,0.0324,0.013523,0.002678,0.000431,0.034788
11686000,0.0324,0.013523,0.002678,0.000431,0.004701
11687000,0.0324,0.013523,0.002678,0.000431,0.039372
11688000,0.0324,0.013523,0.002678,0.000431,0.030205
11689000,0.0324,0.013523,0.002678,0.000431,0.019745
11690000,0.0324,0.013523,0.002678,0.000431,0.011988
11691000,0.0324,0.013523,0.002678,0.000431,0.019980
11692000,0.0324,0.013523,0.002678,0.000431,0.004701
11693000,0.0324,0.013523,0.002678,0.000431,0.004701
11694000,0.0324,0.013523,0.002678,0.000431,0.004936
11695000,0.0324,0.013523,0.002678,0.000431,0.004701
11696000,0.0324,0.013523,0.002678,0.000431,0.027267
11697000,0.0324,0.013523,0.002678,0.000431,0.059469
11698000,0.0324,0.013523,0.002678,0.000431,0.025151
11699000,0.0324,0.013523,0.002678,0.000431,0.004701
11700000,0.0324,0.013523,0.002678,0.000431,0.004466
11701000,0.0324,0.013523,0.002678,0.000431,0.004584
11702000,0.0324,0.013523,0.002678,0.000431,0.042193
11703000,0.0324,0.013523,0.002678,0.000431,0.004701
11704000,0.0324,0.013523,0.002678,0.000431,0.004701
11705000,0.0324,0.013523,0.002678,0.000431,0.079684
11706000,0.0324,0.013523,0.002678,0.000431,0.004701
11707000,0.0324,0.013523,0.002678,0.000431,0.050067
11708000,0.0324,0.013523,0.002678,0.000431,0.004701
11709000,0.0324,0.013523,0.002678,0.000431,0.004701
11710000,0.0324,0.013523,0.002678,0.000431,0.049832
11711000,0.0324,0.013523,0.002678,0.000431,0.008462
11712000,0.0324,0.013523,0.002678,0.000431,0.008462
11713000,0.0324,0.013523,0.002678,0.000431,0.004701
11714000,0.0324,0.013523,0.002678,0.000431,0.004701
11715000,0.0324,0.013523,0.002678,0.000431,0.027502
11716000,0.0324,0.013523,0.002678,0.000431,0.027267
11717000,0.0324,0.013523,0.002678,0.000431,0.004701
11718000,0.0324,0.013523,0.002678,0.000431,0.042310
11719000,0.0324,0.013523,0.002678,0.000431,0.013516
11720000,0.0324,0.013523,0.002678,0.000431,0.025974
11721000,0.0324,0.013523,0.002678,0.000431,0.027267
11722000,0.0324,0.013523,0.002678,0.000431,0.142679
11723000,0.0324,0.013523,0.002678,0.000431,0.039725
11724000,0.0324,0.013523,0.002678,0.000431,0.011165
11725000,0.0324,0.013523,0.002678,0.000431,0.005759
11726000,0.0324,0.013523,0.002678,0.000431,0.012223
11727000,0.0324,0.013523,0.002678,0.000431,0.004701
11728000,0.0324,0.013523,0.002678,0.000431,0.004701
11729000,0.0324,0.013523,0.002678,0.000431,0.027267
11730000,0.0324,0.013523,0.002678,0.000431,0.004701
11731000,0.0324,0.013523,0.002678,0.000431,0.019627
11732000,0.0324,0.013523,0.002678,0.000431,0.010107
11733000,0.0324,0.013523,0.002678,0.000431,0.006699
11734000,0.0324,0.013523,0.002678,0.000431,0.004701
11735000,0.0324,0.013523,0.002678,0.000431,0.025974
11736000,0.0324,0.013523,0.002678,0.000431,0.005759
11737000,0.0324,0.013523,0.002678,0.000431,0.049479
11738000,0.0324,0.013523,0.002678,0.000431,0.005054
11739000,0.0324,0.013523,0.002678,0.000431,0.004701
11740000,0.0324,0.013523,0.002678,0.000431,0.004466
11741000,0.0324,0.013523,0.002678,0.000431,0.004701
11742000,0.0324,0.013523,0.002678,0.000431,0.072162
11743000,0.0324,0.013523,0.002678,0.000431,0.004701
11744000,0.0324,0.013523,0.002678,0.000431,0.012223
11745000,0.0324,0.013523,0.002678,0.000431,0.070164
11746000,0.0324,0.013523,0.002678,0.000431,0.089439
11747000,0.0324,0.013523,0.002678,0.000431,0.004701
11748000,0.0324,0.013523,0.002678,0.000431,0.012223
11749000,0.0324,0.013523,0.002678,0.000431,0.019745
11750000,0.0324,0.013523,0.002678,0.000431,0.012223
11751000,0.0324,0.013523,0.002678,0.000431,0.004466
11752000,0.0324,0.013523,0.002678,0.000431,0.042310
11753000,0.0324,0.013523,0.002678,0.000431,0.027267
11754000,0.0324,0.013523,0.002678,0.000431,0.057354
11755000,0.0324,0.013523,0.002678,0.000431,0.064876
11756000,0.0324,0.013523,0.002678,0.000431,0.004701
11757000,0.0324,0.013523,0.002678,0.000431,0.004701
11758000,0.0324,0.013523,0.002678,0.000431,0.004701
11759000,0.0324,0.013523,0.002678,0.000431,0.008462
11760000,0.0324,0.013523,0.002678,0.000431,0.041370
11761000,0.0324,0.013523,0.002678,0.000431,0.039254
11762000,0.0324,0.013523,0.002678,0.000431,0.004701
11763000,0.0324,0.013523,0.002678,0.000431,0.012223
11764000,0.0324,0.013523,0.002678,0.000431,0.004701
11765000,0.0324,0.013523,0.002678,0.000431,0.004701
11766000,0.0324,0.013523,0.002678,0.000431,0.012223
11767000,0.0324,0.013523,0.002678,0.000431,0.027267
11768000,0.0324,0.013523,0.002678,0.000431,0.019745
11769000,0.0324,0.013523,0.002678,0.000431,0.031380
11770000,0.0324,0.013523,0.002678,0.000431,0.068284
11771000,0.0324,0.013523,0.002678,0.000431,0.004701
11772000,0.0324,0.013523,0.002678,0.000431,0.004701
11773000,0.0324,0.013523,0.002678,0.000431,0.004701
11774000,0.0324,0.013523,0.002678,0.000431,0.042310
11775000,0.0324,0.013523,0.002678,0.000431,0.027031
11776000,0.0324,0.013523,0.002678,0.000431,0.004701
11777000,0.0324,0.013523,0.002678,0.000431,0.004701
11778000,0.0324,0.013523,0.002678,0.000431,0.004701
11779000,0.0324,0.013523,0.002678,0.000431,0.004701
11780000,0.0324,0.013523,0.002678,0.000431,0.042075
11781000,0.0324,0.013523,0.002678,0.000431,0.004701
11782000,0.0324,0.013523,0.002678,0.000431,0.012223
11783000,0.0324,0.013523,0.002678,0.000431,0.004701
11784000,0.0324,0.013523,0.002678,0.000431,0.004701
11785000,0.0324,0.013523,0.002678,0.000431,0.057354
11786000,0.0324,0.013523,0.002678,0.000431,0.004466
11787000,0.0324,0.013523,0.002678,0.000431,0.004701
11788000,0.0324,0.013523,0.002678,0.000431,0.027267
11789000,0.0324,0.013523,0.002678,0.000431,0.079919
11790000,0.0324,0.013523,0.002678,0.000431,0.004701
11791000,0.0324,0.013523,0.002678,0.000431,0.004466
11792000,0.0324,0.013523,0.002678,0.000431,0.057589
11793000,0.0324,0.013523,0.002678,0.000431,0.004701
11794000,0.0324,0.013523,0.002678,0.000431,0.042310
11795000,0.0324,0.013523,0.002678,0.000431,0.012223
11796000,0.0324,0.013523,0.002678,0.000431,0.004701
11797000,0.0324,0.013523,0.002678,0.000431,0.004701
11798000,0.0324,0.013523,0.002678,0.000431,0.004701
11799000,0.0324,0.013523,0.002678,0.000431,0.034788
11800000,0.0324,0.013523,0.002678,0.000431,0.004701
11801000,0.0324,0.013523,0.002678,0.000431,0.019980
11802000,0.0324,0.013523,0.002678,0.000431,0.027031
11803000,0.0324,0.013523,0.002678,0.000431,0.004701
11804000,0.0324,0.013523,0.002678,0.000431,0.016454
11805000,0.0324,0.013523,0.002678,0.000431,0.030557
11806000,0.0324,0.013523,0.002678,0.000431,0.012223
11807000,0.0324,0.013523,0.002678,0.000431,0.061467
11808000,0.0324,0.013523,0.002678,0.000431,0.008109
11809000,0.0324,0.013523,0.002678,0.000431,0.004701
11810000,0.0324,0.013523,0.002678,0.000431,0.004701
11811000,0.0324,0.013523,0.002678,0.000431,0.019745
11812000,0.0324,0.013523,0.002678,0.000431,0.004701
11813000,0.0324,0.013523,0.002678,0.000431,0.004701
11814000,0.0324,0.013523,0.002678,0.000431,0.027619
11815000,0.0324,0.013523,0.002678,0.000431,0.064170
11816000,0.0324,0.013523,0.002678,0.000431,0.004584
11817000,0.0324,0.013523,0.002678,0.000431,0.004701
11818000,0.0324,0.013523,0.002678,0.000431,0.004701
11819000,0.0324,0.013523,0.002678,0.000431,0.004701
11820000,0.0324,0.013523,0.002678,0.000431,0.057354
11821000,0.0324,0.013523,0.002678,0.000431,0.012223
11822000,0.0324,0.013523,0.002678,0.000431,0.004701
11823000,0.0324,0.013523,0.002678,0.000431,0.004701
11824000,0.0324,0.013523,0.002678,0.000431,0.004701
11825000,0.0324,0.013523,0.002678,0.000431,0.012223
11826000,0.0324,0.013523,0.002678,0.000431,0.004466
11827000,0.0324,0.013523,0.002678,0.000431,0.012223
11828000,0.0324,0.013523,0.002678,0.000431,0.004701
11829000,0.0324,0.013523,0.002678,0.000431,0.004701
11830000,0.0324,0.013523,0.002678,0.000431,0.019745
11831000,0.0324,0.013523,0.002678,0.000431,0.019510
11832000,0.0324,0.013523,0.002678,0.000431,0.004701
11833000,0.0324,0.013523,0.002678,0.000431,0.027267
11834000,0.0324,0.013523,0.002678,0.000431,0.072397
11835000,0.0324,0.013523,0.002678,0.000431,0.004701
11836000,0.0324,0.013523,0.002678,0.000431,0.004701
11837000,0.0324,0.013523,0.002678,0.000431,0.019745
11838000,0.0324,0.013523,0.002678,0.000431,0.004701
11839000,0.0324,0.013523,0.002678,0.000431,0.035729
11840000,0.0324,0.013523,0.002678,0.000431,0.022565
11841000,0.0324,0.013523,0.002678,0.000431,0.008462
11842000,0.0324,0.013523,0.002678,0.000431,0.004701
11843000,0.0324,0.013523,0.002678,0.000431,0.089792
11844000,0.0324,0.013523,0.002678,0.000431,0.024681
11845000,0.0324,0.013523,0.002678,0.000431,0.004701
11846000,0.0324,0.013523,0.002678,0.000431,0.034788
11847000,0.0324,0.013523,0.002678,0.000431,0.004701
11848000,0.0324,0.013523,0.002678,0.000431,0.004701
11849000,0.0324,0.013523,0.002678,0.000431,0.004701
11850000,0.0324,0.013523,0.002678,0.000431,0.031380
11851000,0.0324,0.013523,0.002678,0.000431,0.135275
11852000,0.0324,0.013523,0.002678,0.000431,0.047951
11853000,0.0324,0.013523,0.002678,0.000431,0.059234
11854000,0.0324,0.013523,0.002678,0.000431,0.004466
11855000,0.0324,0.013523,0.002678,0.000431,0.004701
11856000,0.0324,0.013523,0.002678,0.000431,0.004701
11857000,0.0324,0.013523,0.002678,0.000431,0.012223
11858000,0.0324,0.013523,0.002678,0.000431,0.004701
11859000,0.0324,0.013523,0.002678,0.000431,0.045131
11860000,0.0324,0.013523,0.002678,0.000431,0.031968
11861000,0.0324,0.013523,0.002678,0.000431,0.004701
11862000,0.0324,0.013523,0.002678,0.000431,0.011518
11863000,0.0324,0.013523,0.002678,0.000431,0.020450
11864000,0.0324,0.013523,0.002678,0.000431,0.019745
11865000,0.0324,0.013523,0.002678,0.000431,0.012223
11866000,0.0324,0.013523,0.002678,0.000431,0.034671
11867000,0.0324,0.013523,0.002678,0.000431,0.004584
11868000,0.0324,0.013523,0.002678,0.000431,0.004701
11869000,0.0324,0.013523,0.002678,0.000431,0.019745
11870000,0.0324,0.013523,0.002678,0.000431,0.004701
11871000,0.0324,0.013523,0.002678,0.000431,0.004701
11872000,0.0324,0.013523,0.002678,0.000431,0.004701
11873000,0.0324,0.013523,0.002678,0.000431,0.004701
11874000,0.0324,0.013523,0.002678,0.000431,0.004584
11875000,0.0324,0.013523,0.002678,0.000431,0.004584
11876000,0.0324,0.013523,0.002678,0.000431,0.004701
11877000,0.0324,0.013523,0.002678,0.000431,0.057354
11878000,0.0324,0.013523,0.002678,0.000431,0.004701
11879000,0.0324,0.013523,0.002678,0.000431,0.034788
11880000,0.0324,0.013523,0.002678,0.000431,0.004701
11881000,0.0324,0.013523,0.002678,0.000431,0.004701
11882000,0.0324,0.013523,0.002678,0.000431,0.027267
11883000,0.0324,0.013523,0.002678,0.000431,0.072632
11884000,0.0324,0.013523,0.002678,0.000431,0.018099
11885000,0.0324,0.013523,0.002678,0.000431,0.006347
11886000,0.0324,0.013523,0.002678,0.000431,0.004701
11887000,0.0324,0.013523,0.002678,0.000431,0.004466
11888000,0.0324,0.013523,0.002678,0.000431,0.012223
11889000,0.0324,0.013523,0.002678,0.000431,0.004701
11890000,0.0324,0.013523,0.002678,0.000431,0.019627
11891000,0.0324,0.013523,0.002678,0.000431,0.019627
11892000,0.0324,0.013523,0.002678,0.000431,0.027267
11893000,0.0324,0.013523,0.002678,0.000431,0.004701
11894000,0.0324,0.013523,0.002678,0.000431,0.004584
11895000,0.0324,0.013523,0.002678,0.000431,0.094845
11896000,0.0324,0.013523,0.002678,0.000431,0.034671
11897000,0.0324,0.013523,0.002678,0.000431,0.019627
11898000,0.0324,0.013523,0.002678,0.000431,0.019745
11899000,0.0324,0.013523,0.002678,0.000431,0.004701
11900000,0.0324,0.013523,0.002678,0.000431,0.004701
11901000,0.0324,0.013523,0.002678,0.000431,0.019745
11902000,0.0324,0.013523,0.002678,0.000431,0.008462
11903000,0.0324,0.013523,0.002678,0.000431,0.008462
11904000,0.0324,0.013523,0.002678,0.000431,0.057354
11905000,0.0324,0.013523,0.002678,0.000431,0.004701
11906000,0.0324,0.013523,0.002678,0.000431,0.004701
11907000,0.0324,0.013523,0.002678,0.000431,0.004701
11908000,0.0324,0.013523,0.002678,0.000431,0.072397
11909000,0.0324,0.013523,0.002678,0.000431,0.027267
11910000,0.0324,0.013523,0.002678,0.000431,0.004701
11911000,0.0324,0.013523,0.002678,0.000431,0.117293
11912000,0.0324,0.013523,0.002678,0.000431,0.004701
11913000,0.0324,0.013523,0.002678,0.000431,0.004701
11914000,0.0324,0.013523,0.002678,0.000431,0.014103
11915000,0.0324,0.013523,0.002678,0.000431,0.028559
11916000,0.0324,0.013523,0.002678,0.000431,0.020567
11917000,0.0324,0.013523,0.002678,0.000431,0.008462
11918000,0.0324,0.013523,0.002678,0.000431,0.027267
11919000,0.0324,0.013523,0.002678,0.000431,0.004701
11920000,0.0324,0.013523,0.002678,0.000431,0.006464
11921000,0.0324,0.013523,0.002678,0.000431,0.010460
11922000,0.0324,0.013523,0.002678,0.000431,0.027267
11923000,0.0324,0.013523,0.002678,0.000431,0.019745
11924000,0.0324,0.013523,0.002678,0.000431,0.004584
11925000,0.0324,0.013523,0.002678,0.000431,0.004584
11926000,0.0324,0.013523,0.002678,0.000431,0.004701
11927000,0.0324,0.013523,0.002678,0.000431,0.004466
11928000,0.0324,0.013523,0.002678,0.000431,0.027267
11929000,0.0324,0.013523,0.002678,0.000431,0.025269
11930000,0.0324,0.013523,0.002678,0.000431,0.056061
11931000,0.0324,0.013523,0.002678,0.000431,0.045366
11932000,0.0324,0.013523,0.002678,0.000431,0.004701
11933000,0.0324,0.013523,0.002678,0.000431,0.004701
11934000,0.0324,0.013523,0.002678,0.000431,0.004701
11935000,0.0324,0.013523,0.002678,0.000431,0.034788
11936000,0.0324,0.013523,0.002678,0.000431,0.004701
11937000,0.0324,0.013523,0.002678,0.000431,0.004701
11938000,0.0324,0.013523,0.002678,0.000431,0.004701
11939000,0.0324,0.013523,0.002678,0.000431,0.004701
11940000,0.0324,0.013523,0.002678,0.000431,0.064876
11941000,0.0324,0.013523,0.002678,0.000431,0.012223
11942000,0.0324,0.013523,0.002678,0.000431,0.068401
11943000,0.0324,0.013523,0.002678,0.000431,0.017982
11944000,0.0324,0.013523,0.002678,0.000431,0.010460
11945000,0.0324,0.013523,0.002678,0.000431,0.004701
11946000,0.0324,0.013523,0.002678,0.000431,0.012105
11947000,0.0324,0.013523,0.002678,0.000431,0.004701
11948000,0.0324,0.013523,0.002678,0.000431,0.004701
11949000,0.0324,0.013523,0.002678,0.000431,0.072280
11950000,0.0324,0.013523,0.002678,0.000431,0.042310
11951000,0.0324,0.013523,0.002678,0.000431,0.004701
11952000,0.0324,0.013523,0.002678,0.000431,0.004701
11953000,0.0324,0.013523,0.002678,0.000431,0.049832
11954000,0.0324,0.013523,0.002678,0.000431,0.035258
11955000,0.0324,0.013523,0.002678,0.000431,0.004701
11956000,0.0324,0.013523,0.002678,0.000431,0.027384
11957000,0.0324,0.013523,0.002678,0.000431,0.004819
11958000,0.0324,0.013523,0.002678,0.000431,0.004701
11959000,0.0324,0.013523,0.002678,0.000431,0.004701
11960000,0.0324,0.013523,0.002678,0.000431,0.004701
11961000,0.0324,0.013523,0.002678,0.000431,0.004701
11962000,0.0324,0.013523,0.002678,0.000431,0.027502
11963000,0.0324,0.013523,0.002678,0.000431,0.004701
11964000,0.0324,0.013523,0.002678,0.000431,0.004584
11965000,0.0324,0.013523,0.002678,0.000431,0.004584
11966000,0.0324,0.013523,0.002678,0.000431,0.004701
11967000,0.0324,0.013523,0.002678,0.000431,0.012105
11968000,0.0324,0.013523,0.002678,0.000431,0.042193
11969000,0.0324,0.013523,0.002678,0.000431,0.004701
11970000,0.0324,0.013523,0.002678,0.000431,0.004701
11971000,0.0324,0.013523,0.002678,0.000431,0.004701
11972000,0.0324,0.013523,0.002678,0.000431,0.027267
11973000,0.0324,0.013523,0.002678,0.000431,0.042310
11974000,0.0324,0.013523,0.002678,0.000431,0.004701
11975000,0.0324,0.013523,0.002678,0.000431,0.004701
11976000,0.0324,0.013523,0.002678,0.000431,0.004701
11977000,0.0324,0.013523,0.002678,0.000431,0.004701
11978000,0.0324,0.013523,0.002678,0.000431,0.012223
11979000,0.0324,0.013523,0.002678,0.000431,0.019745
11980000,0.0324,0.013523,0.002678,0.000431,0.042310
11981000,0.0324,0.013523,0.002678,0.000431,0.004701
11982000,0.0324,0.013523,0.002678,0.000431,0.042075
11983000,0.0324,0.013523,0.002678,0.000431,0.004701
11984000,0.0324,0.013523,0.002678,0.000431,0.004701
11985000,0.0324,0.013523,0.002678,0.000431,0.004701
11986000,0.0324,0.013523,0.002678,0.000431,0.064758
11987000,0.0324,0.013523,0.002678,0.000431,0.029265
11988000,0.0324,0.013523,0.002678,0.000431,0.081565
11989000,0.0324,0.013523,0.002678,0.000431,0.015984
11990000,0.0324,0.013523,0.002678,0.000431,0.004701
11991000,0.0324,0.013523,0.002678,0.000431,0.034906
11992000,0.0324,0.013523,0.002678,0.000431,0.019392
11993000,0.0324,0.013523,0.002678,0.000431,0.004701
11994000,0.0324,0.013523,0.002678,0.000431,0.065111
11995000,0.0324,0.013523,0.002678,0.000431,0.012223
11996000,0.0324,0.013523,0.002678,0.000431,0.004701
11997000,0.0324,0.013523,0.002678,0.000431,0.004701
11998000,0.0324,0.013523,0.002678,0.000431,0.042310
11999000,0.0324,0.013523,0.002678,0.000431,0.004701
