Cycle,Area(mm^2),PeakDynamic(W),SubthresholdLeakage(W),GateLeakage(W),RunTimeDynamic(W)
29000000,0.0324,0.013523,0.002678,0.000431,0.023506
29001000,0.0324,0.013523,0.002678,0.000431,0.015984
29002000,0.0324,0.013523,0.002678,0.000431,0.004701
29003000,0.0324,0.013523,0.002678,0.000431,0.004701
29004000,0.0324,0.013523,0.002678,0.000431,0.046189
29005000,0.0324,0.013523,0.002678,0.000431,0.008580
29006000,0.0324,0.013523,0.002678,0.000431,0.004701
29007000,0.0324,0.013523,0.002678,0.000431,0.004701
29008000,0.0324,0.013523,0.002678,0.000431,0.004701
29009000,0.0324,0.013523,0.002678,0.000431,0.004701
29010000,0.0324,0.013523,0.002678,0.000431,0.004936
29011000,0.0324,0.013523,0.002678,0.000431,0.019745
29012000,0.0324,0.013523,0.002678,0.000431,0.012576
29013000,0.0324,0.013523,0.002678,0.000431,0.053945
29014000,0.0324,0.013523,0.002678,0.000431,0.082975
29015000,0.0324,0.013523,0.002678,0.000431,0.004701
29016000,0.0324,0.013523,0.002678,0.000431,0.004701
29017000,0.0324,0.013523,0.002678,0.000431,0.015984
29018000,0.0324,0.013523,0.002678,0.000431,0.008462
29019000,0.0324,0.013523,0.002678,0.000431,0.012223
29020000,0.0324,0.013523,0.002678,0.000431,0.012223
29021000,0.0324,0.013523,0.002678,0.000431,0.012223
29022000,0.0324,0.013523,0.002678,0.000431,0.004701
29023000,0.0324,0.013523,0.002678,0.000431,0.015984
29024000,0.0324,0.013523,0.002678,0.000431,0.008462
29025000,0.0324,0.013523,0.002678,0.000431,0.004584
29026000,0.0324,0.013523,0.002678,0.000431,0.004231
29027000,0.0324,0.013523,0.002678,0.000431,0.064758
29028000,0.0324,0.013523,0.002678,0.000431,0.004701
29029000,0.0324,0.013523,0.002678,0.000431,0.008462
29030000,0.0324,0.013523,0.002678,0.000431,0.044191
29031000,0.0324,0.013523,0.002678,0.000431,0.019157
29032000,0.0324,0.013523,0.002678,0.000431,0.022683
29033000,0.0324,0.013523,0.002678,0.000431,0.019862
29034000,0.0324,0.013523,0.002678,0.000431,0.034906
29035000,0.0324,0.013523,0.002678,0.000431,0.004701
29036000,0.0324,0.013523,0.002678,0.000431,0.019745
29037000,0.0324,0.013523,0.002678,0.000431,0.004701
29038000,0.0324,0.013523,0.002678,0.000431,0.042310
29039000,0.0324,0.013523,0.002678,0.000431,0.004701
29040000,0.0324,0.013523,0.002678,0.000431,0.034788
29041000,0.0324,0.013523,0.002678,0.000431,0.004701
29042000,0.0324,0.013523,0.002678,0.000431,0.017629
29043000,0.0324,0.013523,0.002678,0.000431,0.021860
29044000,0.0324,0.013523,0.002678,0.000431,0.004701
29045000,0.0324,0.013523,0.002678,0.000431,0.004701
29046000,0.0324,0.013523,0.002678,0.000431,0.004701
29047000,0.0324,0.013523,0.002678,0.000431,0.004701
29048000,0.0324,0.013523,0.002678,0.000431,0.004701
29049000,0.0324,0.013523,0.002678,0.000431,0.008580
29050000,0.0324,0.013523,0.002678,0.000431,0.008580
29051000,0.0324,0.013523,0.002678,0.000431,0.012223
29052000,0.0324,0.013523,0.002678,0.000431,0.004584
29053000,0.0324,0.013523,0.002678,0.000431,0.004584
29054000,0.0324,0.013523,0.002678,0.000431,0.004701
29055000,0.0324,0.013523,0.002678,0.000431,0.006699
29056000,0.0324,0.013523,0.002678,0.000431,0.047834
29057000,0.0324,0.013523,0.002678,0.000431,0.004701
29058000,0.0324,0.013523,0.002678,0.000431,0.004701
29059000,0.0324,0.013523,0.002678,0.000431,0.008109
29060000,0.0324,0.013523,0.002678,0.000431,0.031615
29061000,0.0324,0.013523,0.002678,0.000431,0.004701
29062000,0.0324,0.013523,0.002678,0.000431,0.012458
29063000,0.0324,0.013523,0.002678,0.000431,0.012223
29064000,0.0324,0.013523,0.002678,0.000431,0.004701
29065000,0.0324,0.013523,0.002678,0.000431,0.004584
29066000,0.0324,0.013523,0.002678,0.000431,0.027149
29067000,0.0324,0.013523,0.002678,0.000431,0.004466
29068000,0.0324,0.013523,0.002678,0.000431,0.004701
29069000,0.0324,0.013523,0.002678,0.000431,0.027267
29070000,0.0324,0.013523,0.002678,0.000431,0.004701
29071000,0.0324,0.013523,0.002678,0.000431,0.004701
29072000,0.0324,0.013523,0.002678,0.000431,0.156548
29073000,0.0324,0.013523,0.002678,0.000431,0.010813
29074000,0.0324,0.013523,0.002678,0.000431,0.004701
29075000,0.0324,0.013523,0.002678,0.000431,0.027031
29076000,0.0324,0.013523,0.002678,0.000431,0.004701
29077000,0.0324,0.013523,0.002678,0.000431,0.012458
29078000,0.0324,0.013523,0.002678,0.000431,0.004701
29079000,0.0324,0.013523,0.002678,0.000431,0.072632
29080000,0.0324,0.013523,0.002678,0.000431,0.004701
29081000,0.0324,0.013523,0.002678,0.000431,0.004701
29082000,0.0324,0.013523,0.002678,0.000431,0.004701
29083000,0.0324,0.013523,0.002678,0.000431,0.042310
29084000,0.0324,0.013523,0.002678,0.000431,0.004701
29085000,0.0324,0.013523,0.002678,0.000431,0.004701
29086000,0.0324,0.013523,0.002678,0.000431,0.004701
29087000,0.0324,0.013523,0.002678,0.000431,0.049832
29088000,0.0324,0.013523,0.002678,0.000431,0.004701
29089000,0.0324,0.013523,0.002678,0.000431,0.004701
29090000,0.0324,0.013523,0.002678,0.000431,0.004701
29091000,0.0324,0.013523,0.002678,0.000431,0.014691
29092000,0.0324,0.013523,0.002678,0.000431,0.054886
29093000,0.0324,0.013523,0.002678,0.000431,0.004819
29094000,0.0324,0.013523,0.002678,0.000431,0.004819
29095000,0.0324,0.013523,0.002678,0.000431,0.004701
29096000,0.0324,0.013523,0.002678,0.000431,0.004701
29097000,0.0324,0.013523,0.002678,0.000431,0.004701
29098000,0.0324,0.013523,0.002678,0.000431,0.004701
29099000,0.0324,0.013523,0.002678,0.000431,0.019745
29100000,0.0324,0.013523,0.002678,0.000431,0.042310
29101000,0.0324,0.013523,0.002678,0.000431,0.004701
29102000,0.0324,0.013523,0.002678,0.000431,0.004701
29103000,0.0324,0.013523,0.002678,0.000431,0.004701
29104000,0.0324,0.013523,0.002678,0.000431,0.038549
29105000,0.0324,0.013523,0.002678,0.000431,0.023741
29106000,0.0324,0.013523,0.002678,0.000431,0.004584
29107000,0.0324,0.013523,0.002678,0.000431,0.004349
29108000,0.0324,0.013523,0.002678,0.000431,0.004466
29109000,0.0324,0.013523,0.002678,0.000431,0.004466
29110000,0.0324,0.013523,0.002678,0.000431,0.004701
29111000,0.0324,0.013523,0.002678,0.000431,0.008462
29112000,0.0324,0.013523,0.002678,0.000431,0.008462
29113000,0.0324,0.013523,0.002678,0.000431,0.004701
29114000,0.0324,0.013523,0.002678,0.000431,0.019745
29115000,0.0324,0.013523,0.002678,0.000431,0.004701
29116000,0.0324,0.013523,0.002678,0.000431,0.019745
29117000,0.0324,0.013523,0.002678,0.000431,0.019745
29118000,0.0324,0.013523,0.002678,0.000431,0.004701
29119000,0.0324,0.013523,0.002678,0.000431,0.004701
29120000,0.0324,0.013523,0.002678,0.000431,0.004701
29121000,0.0324,0.013523,0.002678,0.000431,0.004701
29122000,0.0324,0.013523,0.002678,0.000431,0.030792
29123000,0.0324,0.013523,0.002678,0.000431,0.008932
29124000,0.0324,0.013523,0.002678,0.000431,0.004701
29125000,0.0324,0.013523,0.002678,0.000431,0.004701
29126000,0.0324,0.013523,0.002678,0.000431,0.004701
29127000,0.0324,0.013523,0.002678,0.000431,0.004701
29128000,0.0324,0.013523,0.002678,0.000431,0.004701
29129000,0.0324,0.013523,0.002678,0.000431,0.012223
29130000,0.0324,0.013523,0.002678,0.000431,0.060057
29131000,0.0324,0.013523,0.002678,0.000431,0.069694
29132000,0.0324,0.013523,0.002678,0.000431,0.004701
29133000,0.0324,0.013523,0.002678,0.000431,0.023741
29134000,0.0324,0.013523,0.002678,0.000431,0.008227
29135000,0.0324,0.013523,0.002678,0.000431,0.038549
29136000,0.0324,0.013523,0.002678,0.000431,0.015749
29137000,0.0324,0.013523,0.002678,0.000431,0.080154
29138000,0.0324,0.013523,0.002678,0.000431,0.004701
29139000,0.0324,0.013523,0.002678,0.000431,0.004701
29140000,0.0324,0.013523,0.002678,0.000431,0.012223
29141000,0.0324,0.013523,0.002678,0.000431,0.007874
29142000,0.0324,0.013523,0.002678,0.000431,0.046659
29143000,0.0324,0.013523,0.002678,0.000431,0.004936
29144000,0.0324,0.013523,0.002678,0.000431,0.004701
29145000,0.0324,0.013523,0.002678,0.000431,0.004701
29146000,0.0324,0.013523,0.002678,0.000431,0.019627
29147000,0.0324,0.013523,0.002678,0.000431,0.004349
29148000,0.0324,0.013523,0.002678,0.000431,0.004701
29149000,0.0324,0.013523,0.002678,0.000431,0.004701
29150000,0.0324,0.013523,0.002678,0.000431,0.041958
29151000,0.0324,0.013523,0.002678,0.000431,0.004584
29152000,0.0324,0.013523,0.002678,0.000431,0.015984
29153000,0.0324,0.013523,0.002678,0.000431,0.015984
29154000,0.0324,0.013523,0.002678,0.000431,0.004701
29155000,0.0324,0.013523,0.002678,0.000431,0.004701
29156000,0.0324,0.013523,0.002678,0.000431,0.012223
29157000,0.0324,0.013523,0.002678,0.000431,0.019745
29158000,0.0324,0.013523,0.002678,0.000431,0.004701
29159000,0.0324,0.013523,0.002678,0.000431,0.027267
29160000,0.0324,0.013523,0.002678,0.000431,0.004701
29161000,0.0324,0.013523,0.002678,0.000431,0.027267
29162000,0.0324,0.013523,0.002678,0.000431,0.008462
29163000,0.0324,0.013523,0.002678,0.000431,0.015984
29164000,0.0324,0.013523,0.002678,0.000431,0.004701
29165000,0.0324,0.013523,0.002678,0.000431,0.032203
29166000,0.0324,0.013523,0.002678,0.000431,0.007522
29167000,0.0324,0.013523,0.002678,0.000431,0.004701
29168000,0.0324,0.013523,0.002678,0.000431,0.019745
29169000,0.0324,0.013523,0.002678,0.000431,0.004701
29170000,0.0324,0.013523,0.002678,0.000431,0.012223
29171000,0.0324,0.013523,0.002678,0.000431,0.004701
29172000,0.0324,0.013523,0.002678,0.000431,0.012458
29173000,0.0324,0.013523,0.002678,0.000431,0.004701
29174000,0.0324,0.013523,0.002678,0.000431,0.012223
29175000,0.0324,0.013523,0.002678,0.000431,0.004701
29176000,0.0324,0.013523,0.002678,0.000431,0.027267
29177000,0.0324,0.013523,0.002678,0.000431,0.004701
29178000,0.0324,0.013523,0.002678,0.000431,0.030087
29179000,0.0324,0.013523,0.002678,0.000431,0.039607
29180000,0.0324,0.013523,0.002678,0.000431,0.004819
29181000,0.0324,0.013523,0.002678,0.000431,0.004701
29182000,0.0324,0.013523,0.002678,0.000431,0.019745
29183000,0.0324,0.013523,0.002678,0.000431,0.004701
29184000,0.0324,0.013523,0.002678,0.000431,0.004701
29185000,0.0324,0.013523,0.002678,0.000431,0.004701
29186000,0.0324,0.013523,0.002678,0.000431,0.004584
29187000,0.0324,0.013523,0.002678,0.000431,0.004819
29188000,0.0324,0.013523,0.002678,0.000431,0.005641
29189000,0.0324,0.013523,0.002678,0.000431,0.005289
29190000,0.0324,0.013523,0.002678,0.000431,0.005876
29191000,0.0324,0.013523,0.002678,0.000431,0.020332
29192000,0.0324,0.013523,0.002678,0.000431,0.004701
29193000,0.0324,0.013523,0.002678,0.000431,0.049832
29194000,0.0324,0.013523,0.002678,0.000431,0.072162
29195000,0.0324,0.013523,0.002678,0.000431,0.015984
29196000,0.0324,0.013523,0.002678,0.000431,0.015984
29197000,0.0324,0.013523,0.002678,0.000431,0.004701
29198000,0.0324,0.013523,0.002678,0.000431,0.004701
29199000,0.0324,0.013523,0.002678,0.000431,0.004701
29200000,0.0324,0.013523,0.002678,0.000431,0.019745
29201000,0.0324,0.013523,0.002678,0.000431,0.004701
29202000,0.0324,0.013523,0.002678,0.000431,0.050067
29203000,0.0324,0.013523,0.002678,0.000431,0.004701
29204000,0.0324,0.013523,0.002678,0.000431,0.049832
29205000,0.0324,0.013523,0.002678,0.000431,0.015984
29206000,0.0324,0.013523,0.002678,0.000431,0.042310
29207000,0.0324,0.013523,0.002678,0.000431,0.023506
29208000,0.0324,0.013523,0.002678,0.000431,0.004701
29209000,0.0324,0.013523,0.002678,0.000431,0.004819
29210000,0.0324,0.013523,0.002678,0.000431,0.019392
29211000,0.0324,0.013523,0.002678,0.000431,0.012223
29212000,0.0324,0.013523,0.002678,0.000431,0.004701
29213000,0.0324,0.013523,0.002678,0.000431,0.004701
29214000,0.0324,0.013523,0.002678,0.000431,0.004701
29215000,0.0324,0.013523,0.002678,0.000431,0.004701
29216000,0.0324,0.013523,0.002678,0.000431,0.012223
29217000,0.0324,0.013523,0.002678,0.000431,0.006111
29218000,0.0324,0.013523,0.002678,0.000431,0.025621
29219000,0.0324,0.013523,0.002678,0.000431,0.004701
29220000,0.0324,0.013523,0.002678,0.000431,0.004701
29221000,0.0324,0.013523,0.002678,0.000431,0.004701
29222000,0.0324,0.013523,0.002678,0.000431,0.034318
29223000,0.0324,0.013523,0.002678,0.000431,0.098019
29224000,0.0324,0.013523,0.002678,0.000431,0.015749
29225000,0.0324,0.013523,0.002678,0.000431,0.004701
29226000,0.0324,0.013523,0.002678,0.000431,0.004584
29227000,0.0324,0.013523,0.002678,0.000431,0.004349
29228000,0.0324,0.013523,0.002678,0.000431,0.004584
29229000,0.0324,0.013523,0.002678,0.000431,0.034671
29230000,0.0324,0.013523,0.002678,0.000431,0.040665
29231000,0.0324,0.013523,0.002678,0.000431,0.051477
29232000,0.0324,0.013523,0.002678,0.000431,0.004701
29233000,0.0324,0.013523,0.002678,0.000431,0.004701
29234000,0.0324,0.013523,0.002678,0.000431,0.004701
29235000,0.0324,0.013523,0.002678,0.000431,0.004819
29236000,0.0324,0.013523,0.002678,0.000431,0.038549
29237000,0.0324,0.013523,0.002678,0.000431,0.038197
29238000,0.0324,0.013523,0.002678,0.000431,0.004701
29239000,0.0324,0.013523,0.002678,0.000431,0.004701
29240000,0.0324,0.013523,0.002678,0.000431,0.004701
29241000,0.0324,0.013523,0.002678,0.000431,0.004466
29242000,0.0324,0.013523,0.002678,0.000431,0.012223
29243000,0.0324,0.013523,0.002678,0.000431,0.024916
29244000,0.0324,0.013523,0.002678,0.000431,0.022330
29245000,0.0324,0.013523,0.002678,0.000431,0.004701
29246000,0.0324,0.013523,0.002678,0.000431,0.004701
29247000,0.0324,0.013523,0.002678,0.000431,0.004701
29248000,0.0324,0.013523,0.002678,0.000431,0.004701
29249000,0.0324,0.013523,0.002678,0.000431,0.004701
29250000,0.0324,0.013523,0.002678,0.000431,0.008462
29251000,0.0324,0.013523,0.002678,0.000431,0.015984
29252000,0.0324,0.013523,0.002678,0.000431,0.004701
29253000,0.0324,0.013523,0.002678,0.000431,0.004701
29254000,0.0324,0.013523,0.002678,0.000431,0.004701
29255000,0.0324,0.013523,0.002678,0.000431,0.004701
29256000,0.0324,0.013523,0.002678,0.000431,0.012223
29257000,0.0324,0.013523,0.002678,0.000431,0.004819
29258000,0.0324,0.013523,0.002678,0.000431,0.011635
29259000,0.0324,0.013523,0.002678,0.000431,0.026796
29260000,0.0324,0.013523,0.002678,0.000431,0.004701
29261000,0.0324,0.013523,0.002678,0.000431,0.004701
29262000,0.0324,0.013523,0.002678,0.000431,0.004701
29263000,0.0324,0.013523,0.002678,0.000431,0.004701
29264000,0.0324,0.013523,0.002678,0.000431,0.008462
29265000,0.0324,0.013523,0.002678,0.000431,0.012928
29266000,0.0324,0.013523,0.002678,0.000431,0.004701
29267000,0.0324,0.013523,0.002678,0.000431,0.004466
29268000,0.0324,0.013523,0.002678,0.000431,0.007287
29269000,0.0324,0.013523,0.002678,0.000431,0.038784
29270000,0.0324,0.013523,0.002678,0.000431,0.034788
29271000,0.0324,0.013523,0.002678,0.000431,0.004701
29272000,0.0324,0.013523,0.002678,0.000431,0.004701
29273000,0.0324,0.013523,0.002678,0.000431,0.049832
29274000,0.0324,0.013523,0.002678,0.000431,0.004701
29275000,0.0324,0.013523,0.002678,0.000431,0.013281
29276000,0.0324,0.013523,0.002678,0.000431,0.010695
29277000,0.0324,0.013523,0.002678,0.000431,0.004701
29278000,0.0324,0.013523,0.002678,0.000431,0.004819
29279000,0.0324,0.013523,0.002678,0.000431,0.027149
29280000,0.0324,0.013523,0.002678,0.000431,0.004584
29281000,0.0324,0.013523,0.002678,0.000431,0.004584
29282000,0.0324,0.013523,0.002678,0.000431,0.034671
29283000,0.0324,0.013523,0.002678,0.000431,0.032085
29284000,0.0324,0.013523,0.002678,0.000431,0.004701
29285000,0.0324,0.013523,0.002678,0.000431,0.008462
29286000,0.0324,0.013523,0.002678,0.000431,0.031027
29287000,0.0324,0.013523,0.002678,0.000431,0.004701
29288000,0.0324,0.013523,0.002678,0.000431,0.004701
29289000,0.0324,0.013523,0.002678,0.000431,0.007992
29290000,0.0324,0.013523,0.002678,0.000431,0.029852
29291000,0.0324,0.013523,0.002678,0.000431,0.004701
29292000,0.0324,0.013523,0.002678,0.000431,0.004701
29293000,0.0324,0.013523,0.002678,0.000431,0.019627
29294000,0.0324,0.013523,0.002678,0.000431,0.004584
29295000,0.0324,0.013523,0.002678,0.000431,0.004701
29296000,0.0324,0.013523,0.002678,0.000431,0.005054
29297000,0.0324,0.013523,0.002678,0.000431,0.004819
29298000,0.0324,0.013523,0.002678,0.000431,0.004701
29299000,0.0324,0.013523,0.002678,0.000431,0.011635
29300000,0.0324,0.013523,0.002678,0.000431,0.008815
29301000,0.0324,0.013523,0.002678,0.000431,0.004701
29302000,0.0324,0.013523,0.002678,0.000431,0.004701
29303000,0.0324,0.013523,0.002678,0.000431,0.015866
29304000,0.0324,0.013523,0.002678,0.000431,0.004349
29305000,0.0324,0.013523,0.002678,0.000431,0.004701
29306000,0.0324,0.013523,0.002678,0.000431,0.004701
29307000,0.0324,0.013523,0.002678,0.000431,0.016689
29308000,0.0324,0.013523,0.002678,0.000431,0.004701
29309000,0.0324,0.013523,0.002678,0.000431,0.004701
29310000,0.0324,0.013523,0.002678,0.000431,0.004701
29311000,0.0324,0.013523,0.002678,0.000431,0.015396
29312000,0.0324,0.013523,0.002678,0.000431,0.008345
29313000,0.0324,0.013523,0.002678,0.000431,0.004701
29314000,0.0324,0.013523,0.002678,0.000431,0.004701
29315000,0.0324,0.013523,0.002678,0.000431,0.004701
29316000,0.0324,0.013523,0.002678,0.000431,0.004701
29317000,0.0324,0.013523,0.002678,0.000431,0.004701
29318000,0.0324,0.013523,0.002678,0.000431,0.011753
29319000,0.0324,0.013523,0.002678,0.000431,0.029147
29320000,0.0324,0.013523,0.002678,0.000431,0.008932
29321000,0.0324,0.013523,0.002678,0.000431,0.004701
29322000,0.0324,0.013523,0.002678,0.000431,0.004701
29323000,0.0324,0.013523,0.002678,0.000431,0.004466
29324000,0.0324,0.013523,0.002678,0.000431,0.010578
29325000,0.0324,0.013523,0.002678,0.000431,0.006347
29326000,0.0324,0.013523,0.002678,0.000431,0.013281
29327000,0.0324,0.013523,0.002678,0.000431,0.010460
29328000,0.0324,0.013523,0.002678,0.000431,0.004701
29329000,0.0324,0.013523,0.002678,0.000431,0.004584
29330000,0.0324,0.013523,0.002678,0.000431,0.004584
29331000,0.0324,0.013523,0.002678,0.000431,0.064876
29332000,0.0324,0.013523,0.002678,0.000431,0.004701
29333000,0.0324,0.013523,0.002678,0.000431,0.004819
29334000,0.0324,0.013523,0.002678,0.000431,0.004584
29335000,0.0324,0.013523,0.002678,0.000431,0.004701
29336000,0.0324,0.013523,0.002678,0.000431,0.004701
29337000,0.0324,0.013523,0.002678,0.000431,0.016454
29338000,0.0324,0.013523,0.002678,0.000431,0.149731
29339000,0.0324,0.013523,0.002678,0.000431,0.134217
29340000,0.0324,0.013523,0.002678,0.000431,0.004701
29341000,0.0324,0.013523,0.002678,0.000431,0.004701
29342000,0.0324,0.013523,0.002678,0.000431,0.004701
29343000,0.0324,0.013523,0.002678,0.000431,0.004701
29344000,0.0324,0.013523,0.002678,0.000431,0.004466
29345000,0.0324,0.013523,0.002678,0.000431,0.008462
29346000,0.0324,0.013523,0.002678,0.000431,0.008462
29347000,0.0324,0.013523,0.002678,0.000431,0.004701
29348000,0.0324,0.013523,0.002678,0.000431,0.004701
29349000,0.0324,0.013523,0.002678,0.000431,0.004701
29350000,0.0324,0.013523,0.002678,0.000431,0.004701
29351000,0.0324,0.013523,0.002678,0.000431,0.004701
29352000,0.0324,0.013523,0.002678,0.000431,0.004701
29353000,0.0324,0.013523,0.002678,0.000431,0.004701
29354000,0.0324,0.013523,0.002678,0.000431,0.004701
29355000,0.0324,0.013523,0.002678,0.000431,0.004701
29356000,0.0324,0.013523,0.002678,0.000431,0.004466
29357000,0.0324,0.013523,0.002678,0.000431,0.004701
29358000,0.0324,0.013523,0.002678,0.000431,0.004701
29359000,0.0324,0.013523,0.002678,0.000431,0.086971
29360000,0.0324,0.013523,0.002678,0.000431,0.004701
29361000,0.0324,0.013523,0.002678,0.000431,0.004701
29362000,0.0324,0.013523,0.002678,0.000431,0.004701
29363000,0.0324,0.013523,0.002678,0.000431,0.004701
29364000,0.0324,0.013523,0.002678,0.000431,0.004701
29365000,0.0324,0.013523,0.002678,0.000431,0.004701
29366000,0.0324,0.013523,0.002678,0.000431,0.004701
29367000,0.0324,0.013523,0.002678,0.000431,0.004701
29368000,0.0324,0.013523,0.002678,0.000431,0.004701
29369000,0.0324,0.013523,0.002678,0.000431,0.004701
29370000,0.0324,0.013523,0.002678,0.000431,0.004701
29371000,0.0324,0.013523,0.002678,0.000431,0.004701
29372000,0.0324,0.013523,0.002678,0.000431,0.012223
29373000,0.0324,0.013523,0.002678,0.000431,0.004701
29374000,0.0324,0.013523,0.002678,0.000431,0.030675
29375000,0.0324,0.013523,0.002678,0.000431,0.031145
29376000,0.0324,0.013523,0.002678,0.000431,0.004584
29377000,0.0324,0.013523,0.002678,0.000431,0.007169
29378000,0.0324,0.013523,0.002678,0.000431,0.167713
29379000,0.0324,0.013523,0.002678,0.000431,0.057236
29380000,0.0324,0.013523,0.002678,0.000431,0.004701
29381000,0.0324,0.013523,0.002678,0.000431,0.042310
29382000,0.0324,0.013523,0.002678,0.000431,0.048304
29383000,0.0324,0.013523,0.002678,0.000431,0.179466
29384000,0.0324,0.013523,0.002678,0.000431,0.019510
29385000,0.0324,0.013523,0.002678,0.000431,0.019745
29386000,0.0324,0.013523,0.002678,0.000431,0.004701
29387000,0.0324,0.013523,0.002678,0.000431,0.004701
29388000,0.0324,0.013523,0.002678,0.000431,0.004466
29389000,0.0324,0.013523,0.002678,0.000431,0.004701
29390000,0.0324,0.013523,0.002678,0.000431,0.019745
29391000,0.0324,0.013523,0.002678,0.000431,0.004701
29392000,0.0324,0.013523,0.002678,0.000431,0.004701
29393000,0.0324,0.013523,0.002678,0.000431,0.004701
29394000,0.0324,0.013523,0.002678,0.000431,0.004701
29395000,0.0324,0.013523,0.002678,0.000431,0.004466
29396000,0.0324,0.013523,0.002678,0.000431,0.008227
29397000,0.0324,0.013523,0.002678,0.000431,0.008462
29398000,0.0324,0.013523,0.002678,0.000431,0.019745
29399000,0.0324,0.013523,0.002678,0.000431,0.004701
29400000,0.0324,0.013523,0.002678,0.000431,0.004701
29401000,0.0324,0.013523,0.002678,0.000431,0.004701
29402000,0.0324,0.013523,0.002678,0.000431,0.019745
29403000,0.0324,0.013523,0.002678,0.000431,0.027267
29404000,0.0324,0.013523,0.002678,0.000431,0.004701
29405000,0.0324,0.013523,0.002678,0.000431,0.004701
29406000,0.0324,0.013523,0.002678,0.000431,0.004701
29407000,0.0324,0.013523,0.002678,0.000431,0.004701
29408000,0.0324,0.013523,0.002678,0.000431,0.004701
29409000,0.0324,0.013523,0.002678,0.000431,0.004701
29410000,0.0324,0.013523,0.002678,0.000431,0.012223
29411000,0.0324,0.013523,0.002678,0.000431,0.027267
29412000,0.0324,0.013523,0.002678,0.000431,0.004701
29413000,0.0324,0.013523,0.002678,0.000431,0.004701
29414000,0.0324,0.013523,0.002678,0.000431,0.004701
29415000,0.0324,0.013523,0.002678,0.000431,0.004701
29416000,0.0324,0.013523,0.002678,0.000431,0.046894
29417000,0.0324,0.013523,0.002678,0.000431,0.193804
29418000,0.0324,0.013523,0.002678,0.000431,0.082505
29419000,0.0324,0.013523,0.002678,0.000431,0.004701
29420000,0.0324,0.013523,0.002678,0.000431,0.004701
29421000,0.0324,0.013523,0.002678,0.000431,0.004701
29422000,0.0324,0.013523,0.002678,0.000431,0.008227
29423000,0.0324,0.013523,0.002678,0.000431,0.008697
29424000,0.0324,0.013523,0.002678,0.000431,0.019745
29425000,0.0324,0.013523,0.002678,0.000431,0.004701
29426000,0.0324,0.013523,0.002678,0.000431,0.004701
29427000,0.0324,0.013523,0.002678,0.000431,0.004701
29428000,0.0324,0.013523,0.002678,0.000431,0.004466
29429000,0.0324,0.013523,0.002678,0.000431,0.004701
29430000,0.0324,0.013523,0.002678,0.000431,0.012223
29431000,0.0324,0.013523,0.002678,0.000431,0.049832
29432000,0.0324,0.013523,0.002678,0.000431,0.004701
29433000,0.0324,0.013523,0.002678,0.000431,0.004701
29434000,0.0324,0.013523,0.002678,0.000431,0.004701
29435000,0.0324,0.013523,0.002678,0.000431,0.004466
29436000,0.0324,0.013523,0.002678,0.000431,0.004701
29437000,0.0324,0.013523,0.002678,0.000431,0.015749
29438000,0.0324,0.013523,0.002678,0.000431,0.031262
29439000,0.0324,0.013523,0.002678,0.000431,0.004701
29440000,0.0324,0.013523,0.002678,0.000431,0.004701
29441000,0.0324,0.013523,0.002678,0.000431,0.004701
29442000,0.0324,0.013523,0.002678,0.000431,0.004701
29443000,0.0324,0.013523,0.002678,0.000431,0.012223
29444000,0.0324,0.013523,0.002678,0.000431,0.052300
29445000,0.0324,0.013523,0.002678,0.000431,0.189690
29446000,0.0324,0.013523,0.002678,0.000431,0.033966
29447000,0.0324,0.013523,0.002678,0.000431,0.004701
29448000,0.0324,0.013523,0.002678,0.000431,0.004701
29449000,0.0324,0.013523,0.002678,0.000431,0.019745
29450000,0.0324,0.013523,0.002678,0.000431,0.012223
29451000,0.0324,0.013523,0.002678,0.000431,0.004701
29452000,0.0324,0.013523,0.002678,0.000431,0.042545
29453000,0.0324,0.013523,0.002678,0.000431,0.004701
29454000,0.0324,0.013523,0.002678,0.000431,0.004701
29455000,0.0324,0.013523,0.002678,0.000431,0.004466
29456000,0.0324,0.013523,0.002678,0.000431,0.027267
29457000,0.0324,0.013523,0.002678,0.000431,0.012223
29458000,0.0324,0.013523,0.002678,0.000431,0.004701
29459000,0.0324,0.013523,0.002678,0.000431,0.012223
29460000,0.0324,0.013523,0.002678,0.000431,0.004701
29461000,0.0324,0.013523,0.002678,0.000431,0.012223
29462000,0.0324,0.013523,0.002678,0.000431,0.074513
29463000,0.0324,0.013523,0.002678,0.000431,0.024916
29464000,0.0324,0.013523,0.002678,0.000431,0.004701
29465000,0.0324,0.013523,0.002678,0.000431,0.004701
29466000,0.0324,0.013523,0.002678,0.000431,0.004701
29467000,0.0324,0.013523,0.002678,0.000431,0.004701
29468000,0.0324,0.013523,0.002678,0.000431,0.004466
29469000,0.0324,0.013523,0.002678,0.000431,0.004701
29470000,0.0324,0.013523,0.002678,0.000431,0.012223
29471000,0.0324,0.013523,0.002678,0.000431,0.004701
29472000,0.0324,0.013523,0.002678,0.000431,0.004701
29473000,0.0324,0.013523,0.002678,0.000431,0.004701
29474000,0.0324,0.013523,0.002678,0.000431,0.009050
29475000,0.0324,0.013523,0.002678,0.000431,0.058999
29476000,0.0324,0.013523,0.002678,0.000431,0.036081
29477000,0.0324,0.013523,0.002678,0.000431,0.019745
29478000,0.0324,0.013523,0.002678,0.000431,0.004701
29479000,0.0324,0.013523,0.002678,0.000431,0.004701
29480000,0.0324,0.013523,0.002678,0.000431,0.004701
29481000,0.0324,0.013523,0.002678,0.000431,0.034788
29482000,0.0324,0.013523,0.002678,0.000431,0.145265
29483000,0.0324,0.013523,0.002678,0.000431,0.013868
29484000,0.0324,0.013523,0.002678,0.000431,0.004701
29485000,0.0324,0.013523,0.002678,0.000431,0.004701
29486000,0.0324,0.013523,0.002678,0.000431,0.004466
29487000,0.0324,0.013523,0.002678,0.000431,0.004701
29488000,0.0324,0.013523,0.002678,0.000431,0.128458
29489000,0.0324,0.013523,0.002678,0.000431,0.186635
29490000,0.0324,0.013523,0.002678,0.000431,0.125638
29491000,0.0324,0.013523,0.002678,0.000431,0.019745
29492000,0.0324,0.013523,0.002678,0.000431,0.004701
29493000,0.0324,0.013523,0.002678,0.000431,0.004701
29494000,0.0324,0.013523,0.002678,0.000431,0.004701
29495000,0.0324,0.013523,0.002678,0.000431,0.004349
29496000,0.0324,0.013523,0.002678,0.000431,0.004584
29497000,0.0324,0.013523,0.002678,0.000431,0.012223
29498000,0.0324,0.013523,0.002678,0.000431,0.004701
29499000,0.0324,0.013523,0.002678,0.000431,0.004701
29500000,0.0324,0.013523,0.002678,0.000431,0.004701
29501000,0.0324,0.013523,0.002678,0.000431,0.010225
29502000,0.0324,0.013523,0.002678,0.000431,0.029265
29503000,0.0324,0.013523,0.002678,0.000431,0.019745
29504000,0.0324,0.013523,0.002678,0.000431,0.012223
29505000,0.0324,0.013523,0.002678,0.000431,0.004701
29506000,0.0324,0.013523,0.002678,0.000431,0.004701
29507000,0.0324,0.013523,0.002678,0.000431,0.004701
29508000,0.0324,0.013523,0.002678,0.000431,0.034788
29509000,0.0324,0.013523,0.002678,0.000431,0.004701
29510000,0.0324,0.013523,0.002678,0.000431,0.029735
29511000,0.0324,0.013523,0.002678,0.000431,0.039372
29512000,0.0324,0.013523,0.002678,0.000431,0.004701
29513000,0.0324,0.013523,0.002678,0.000431,0.004701
29514000,0.0324,0.013523,0.002678,0.000431,0.012223
29515000,0.0324,0.013523,0.002678,0.000431,0.012223
29516000,0.0324,0.013523,0.002678,0.000431,0.012223
29517000,0.0324,0.013523,0.002678,0.000431,0.012223
29518000,0.0324,0.013523,0.002678,0.000431,0.004701
29519000,0.0324,0.013523,0.002678,0.000431,0.004701
29520000,0.0324,0.013523,0.002678,0.000431,0.004701
29521000,0.0324,0.013523,0.002678,0.000431,0.004701
29522000,0.0324,0.013523,0.002678,0.000431,0.004701
29523000,0.0324,0.013523,0.002678,0.000431,0.103777
29524000,0.0324,0.013523,0.002678,0.000431,0.210493
29525000,0.0324,0.013523,0.002678,0.000431,0.051947
29526000,0.0324,0.013523,0.002678,0.000431,0.004701
29527000,0.0324,0.013523,0.002678,0.000431,0.024211
29528000,0.0324,0.013523,0.002678,0.000431,0.007522
29529000,0.0324,0.013523,0.002678,0.000431,0.004701
29530000,0.0324,0.013523,0.002678,0.000431,0.012223
29531000,0.0324,0.013523,0.002678,0.000431,0.023506
29532000,0.0324,0.013523,0.002678,0.000431,0.015984
29533000,0.0324,0.013523,0.002678,0.000431,0.004701
29534000,0.0324,0.013523,0.002678,0.000431,0.004701
29535000,0.0324,0.013523,0.002678,0.000431,0.004701
29536000,0.0324,0.013523,0.002678,0.000431,0.011165
29537000,0.0324,0.013523,0.002678,0.000431,0.095550
29538000,0.0324,0.013523,0.002678,0.000431,0.004701
29539000,0.0324,0.013523,0.002678,0.000431,0.004701
29540000,0.0324,0.013523,0.002678,0.000431,0.004701
29541000,0.0324,0.013523,0.002678,0.000431,0.004701
29542000,0.0324,0.013523,0.002678,0.000431,0.012223
29543000,0.0324,0.013523,0.002678,0.000431,0.004701
29544000,0.0324,0.013523,0.002678,0.000431,0.034788
29545000,0.0324,0.013523,0.002678,0.000431,0.004701
29546000,0.0324,0.013523,0.002678,0.000431,0.004701
29547000,0.0324,0.013523,0.002678,0.000431,0.004466
29548000,0.0324,0.013523,0.002678,0.000431,0.004701
29549000,0.0324,0.013523,0.002678,0.000431,0.004701
29550000,0.0324,0.013523,0.002678,0.000431,0.042075
29551000,0.0324,0.013523,0.002678,0.000431,0.012105
29552000,0.0324,0.013523,0.002678,0.000431,0.004584
29553000,0.0324,0.013523,0.002678,0.000431,0.034788
29554000,0.0324,0.013523,0.002678,0.000431,0.004701
29555000,0.0324,0.013523,0.002678,0.000431,0.004701
29556000,0.0324,0.013523,0.002678,0.000431,0.044073
29557000,0.0324,0.013523,0.002678,0.000431,0.040312
29558000,0.0324,0.013523,0.002678,0.000431,0.004701
29559000,0.0324,0.013523,0.002678,0.000431,0.022683
29560000,0.0324,0.013523,0.002678,0.000431,0.106716
29561000,0.0324,0.013523,0.002678,0.000431,0.034671
29562000,0.0324,0.013523,0.002678,0.000431,0.004701
29563000,0.0324,0.013523,0.002678,0.000431,0.042310
29564000,0.0324,0.013523,0.002678,0.000431,0.012223
29565000,0.0324,0.013523,0.002678,0.000431,0.004701
29566000,0.0324,0.013523,0.002678,0.000431,0.034788
29567000,0.0324,0.013523,0.002678,0.000431,0.004584
29568000,0.0324,0.013523,0.002678,0.000431,0.004584
29569000,0.0324,0.013523,0.002678,0.000431,0.004701
29570000,0.0324,0.013523,0.002678,0.000431,0.010225
29571000,0.0324,0.013523,0.002678,0.000431,0.006699
29572000,0.0324,0.013523,0.002678,0.000431,0.004701
29573000,0.0324,0.013523,0.002678,0.000431,0.027267
29574000,0.0324,0.013523,0.002678,0.000431,0.042310
29575000,0.0324,0.013523,0.002678,0.000431,0.004701
29576000,0.0324,0.013523,0.002678,0.000431,0.019745
29577000,0.0324,0.013523,0.002678,0.000431,0.004701
29578000,0.0324,0.013523,0.002678,0.000431,0.004701
29579000,0.0324,0.013523,0.002678,0.000431,0.004584
29580000,0.0324,0.013523,0.002678,0.000431,0.016689
29581000,0.0324,0.013523,0.002678,0.000431,0.037727
29582000,0.0324,0.013523,0.002678,0.000431,0.004701
29583000,0.0324,0.013523,0.002678,0.000431,0.004701
29584000,0.0324,0.013523,0.002678,0.000431,0.004701
29585000,0.0324,0.013523,0.002678,0.000431,0.008227
29586000,0.0324,0.013523,0.002678,0.000431,0.008462
29587000,0.0324,0.013523,0.002678,0.000431,0.012223
29588000,0.0324,0.013523,0.002678,0.000431,0.004701
29589000,0.0324,0.013523,0.002678,0.000431,0.015984
29590000,0.0324,0.013523,0.002678,0.000431,0.008462
29591000,0.0324,0.013523,0.002678,0.000431,0.004701
29592000,0.0324,0.013523,0.002678,0.000431,0.079684
29593000,0.0324,0.013523,0.002678,0.000431,0.008462
29594000,0.0324,0.013523,0.002678,0.000431,0.143972
29595000,0.0324,0.013523,0.002678,0.000431,0.018687
29596000,0.0324,0.013523,0.002678,0.000431,0.004701
29597000,0.0324,0.013523,0.002678,0.000431,0.004701
29598000,0.0324,0.013523,0.002678,0.000431,0.004701
29599000,0.0324,0.013523,0.002678,0.000431,0.004701
29600000,0.0324,0.013523,0.002678,0.000431,0.004701
29601000,0.0324,0.013523,0.002678,0.000431,0.004701
29602000,0.0324,0.013523,0.002678,0.000431,0.019745
29603000,0.0324,0.013523,0.002678,0.000431,0.004701
29604000,0.0324,0.013523,0.002678,0.000431,0.004701
29605000,0.0324,0.013523,0.002678,0.000431,0.034788
29606000,0.0324,0.013523,0.002678,0.000431,0.004701
29607000,0.0324,0.013523,0.002678,0.000431,0.019627
29608000,0.0324,0.013523,0.002678,0.000431,0.033143
29609000,0.0324,0.013523,0.002678,0.000431,0.028794
29610000,0.0324,0.013523,0.002678,0.000431,0.004701
29611000,0.0324,0.013523,0.002678,0.000431,0.004701
29612000,0.0324,0.013523,0.002678,0.000431,0.004701
29613000,0.0324,0.013523,0.002678,0.000431,0.004466
29614000,0.0324,0.013523,0.002678,0.000431,0.004701
29615000,0.0324,0.013523,0.002678,0.000431,0.052065
29616000,0.0324,0.013523,0.002678,0.000431,0.084738
29617000,0.0324,0.013523,0.002678,0.000431,0.004701
29618000,0.0324,0.013523,0.002678,0.000431,0.027267
29619000,0.0324,0.013523,0.002678,0.000431,0.004701
29620000,0.0324,0.013523,0.002678,0.000431,0.004701
29621000,0.0324,0.013523,0.002678,0.000431,0.006817
29622000,0.0324,0.013523,0.002678,0.000431,0.038549
29623000,0.0324,0.013523,0.002678,0.000431,0.088851
29624000,0.0324,0.013523,0.002678,0.000431,0.004701
29625000,0.0324,0.013523,0.002678,0.000431,0.004584
29626000,0.0324,0.013523,0.002678,0.000431,0.004584
29627000,0.0324,0.013523,0.002678,0.000431,0.004701
29628000,0.0324,0.013523,0.002678,0.000431,0.019745
29629000,0.0324,0.013523,0.002678,0.000431,0.030792
29630000,0.0324,0.013523,0.002678,0.000431,0.008462
29631000,0.0324,0.013523,0.002678,0.000431,0.012223
29632000,0.0324,0.013523,0.002678,0.000431,0.004701
29633000,0.0324,0.013523,0.002678,0.000431,0.034788
29634000,0.0324,0.013523,0.002678,0.000431,0.004701
29635000,0.0324,0.013523,0.002678,0.000431,0.008462
29636000,0.0324,0.013523,0.002678,0.000431,0.023388
29637000,0.0324,0.013523,0.002678,0.000431,0.019627
29638000,0.0324,0.013523,0.002678,0.000431,0.004701
29639000,0.0324,0.013523,0.002678,0.000431,0.004701
29640000,0.0324,0.013523,0.002678,0.000431,0.019745
29641000,0.0324,0.013523,0.002678,0.000431,0.004701
29642000,0.0324,0.013523,0.002678,0.000431,0.034788
29643000,0.0324,0.013523,0.002678,0.000431,0.004701
29644000,0.0324,0.013523,0.002678,0.000431,0.004701
29645000,0.0324,0.013523,0.002678,0.000431,0.004701
29646000,0.0324,0.013523,0.002678,0.000431,0.004701
29647000,0.0324,0.013523,0.002678,0.000431,0.004701
29648000,0.0324,0.013523,0.002678,0.000431,0.048069
29649000,0.0324,0.013523,0.002678,0.000431,0.147850
29650000,0.0324,0.013523,0.002678,0.000431,0.021273
29651000,0.0324,0.013523,0.002678,0.000431,0.019627
29652000,0.0324,0.013523,0.002678,0.000431,0.012105
29653000,0.0324,0.013523,0.002678,0.000431,0.057119
29654000,0.0324,0.013523,0.002678,0.000431,0.004701
29655000,0.0324,0.013523,0.002678,0.000431,0.030792
29656000,0.0324,0.013523,0.002678,0.000431,0.061115
29657000,0.0324,0.013523,0.002678,0.000431,0.012223
29658000,0.0324,0.013523,0.002678,0.000431,0.004701
29659000,0.0324,0.013523,0.002678,0.000431,0.004701
29660000,0.0324,0.013523,0.002678,0.000431,0.004701
29661000,0.0324,0.013523,0.002678,0.000431,0.004701
29662000,0.0324,0.013523,0.002678,0.000431,0.018099
29663000,0.0324,0.013523,0.002678,0.000431,0.186047
29664000,0.0324,0.013523,0.002678,0.000431,0.064993
29665000,0.0324,0.013523,0.002678,0.000431,0.004701
29666000,0.0324,0.013523,0.002678,0.000431,0.004701
29667000,0.0324,0.013523,0.002678,0.000431,0.004701
29668000,0.0324,0.013523,0.002678,0.000431,0.042310
29669000,0.0324,0.013523,0.002678,0.000431,0.036081
29670000,0.0324,0.013523,0.002678,0.000431,0.018452
29671000,0.0324,0.013523,0.002678,0.000431,0.004701
29672000,0.0324,0.013523,0.002678,0.000431,0.015984
29673000,0.0324,0.013523,0.002678,0.000431,0.023506
29674000,0.0324,0.013523,0.002678,0.000431,0.006934
29675000,0.0324,0.013523,0.002678,0.000431,0.017512
29676000,0.0324,0.013523,0.002678,0.000431,0.034788
29677000,0.0324,0.013523,0.002678,0.000431,0.004466
29678000,0.0324,0.013523,0.002678,0.000431,0.004701
29679000,0.0324,0.013523,0.002678,0.000431,0.004701
29680000,0.0324,0.013523,0.002678,0.000431,0.004701
29681000,0.0324,0.013523,0.002678,0.000431,0.004701
29682000,0.0324,0.013523,0.002678,0.000431,0.004701
29683000,0.0324,0.013523,0.002678,0.000431,0.012223
29684000,0.0324,0.013523,0.002678,0.000431,0.019745
29685000,0.0324,0.013523,0.002678,0.000431,0.049597
29686000,0.0324,0.013523,0.002678,0.000431,0.034788
29687000,0.0324,0.013523,0.002678,0.000431,0.004701
29688000,0.0324,0.013523,0.002678,0.000431,0.006817
29689000,0.0324,0.013523,0.002678,0.000431,0.040077
29690000,0.0324,0.013523,0.002678,0.000431,0.004584
29691000,0.0324,0.013523,0.002678,0.000431,0.004701
29692000,0.0324,0.013523,0.002678,0.000431,0.049714
29693000,0.0324,0.013523,0.002678,0.000431,0.012105
29694000,0.0324,0.013523,0.002678,0.000431,0.057354
29695000,0.0324,0.013523,0.002678,0.000431,0.012223
29696000,0.0324,0.013523,0.002678,0.000431,0.110006
29697000,0.0324,0.013523,0.002678,0.000431,0.004701
29698000,0.0324,0.013523,0.002678,0.000431,0.004701
29699000,0.0324,0.013523,0.002678,0.000431,0.004701
29700000,0.0324,0.013523,0.002678,0.000431,0.041017
29701000,0.0324,0.013523,0.002678,0.000431,0.095785
29702000,0.0324,0.013523,0.002678,0.000431,0.012223
29703000,0.0324,0.013523,0.002678,0.000431,0.004701
29704000,0.0324,0.013523,0.002678,0.000431,0.004701
29705000,0.0324,0.013523,0.002678,0.000431,0.004701
29706000,0.0324,0.013523,0.002678,0.000431,0.004701
29707000,0.0324,0.013523,0.002678,0.000431,0.072162
29708000,0.0324,0.013523,0.002678,0.000431,0.031027
29709000,0.0324,0.013523,0.002678,0.000431,0.038549
29710000,0.0324,0.013523,0.002678,0.000431,0.004701
29711000,0.0324,0.013523,0.002678,0.000431,0.004701
29712000,0.0324,0.013523,0.002678,0.000431,0.004701
29713000,0.0324,0.013523,0.002678,0.000431,0.007639
29714000,0.0324,0.013523,0.002678,0.000431,0.076981
29715000,0.0324,0.013523,0.002678,0.000431,0.034788
29716000,0.0324,0.013523,0.002678,0.000431,0.004701
29717000,0.0324,0.013523,0.002678,0.000431,0.004701
29718000,0.0324,0.013523,0.002678,0.000431,0.004584
29719000,0.0324,0.013523,0.002678,0.000431,0.004584
29720000,0.0324,0.013523,0.002678,0.000431,0.060292
29721000,0.0324,0.013523,0.002678,0.000431,0.031850
29722000,0.0324,0.013523,0.002678,0.000431,0.004701
29723000,0.0324,0.013523,0.002678,0.000431,0.004701
29724000,0.0324,0.013523,0.002678,0.000431,0.004701
29725000,0.0324,0.013523,0.002678,0.000431,0.004701
29726000,0.0324,0.013523,0.002678,0.000431,0.004701
29727000,0.0324,0.013523,0.002678,0.000431,0.064876
29728000,0.0324,0.013523,0.002678,0.000431,0.036786
29729000,0.0324,0.013523,0.002678,0.000431,0.010107
29730000,0.0324,0.013523,0.002678,0.000431,0.012105
29731000,0.0324,0.013523,0.002678,0.000431,0.004701
29732000,0.0324,0.013523,0.002678,0.000431,0.004701
29733000,0.0324,0.013523,0.002678,0.000431,0.012223
29734000,0.0324,0.013523,0.002678,0.000431,0.149848
29735000,0.0324,0.013523,0.002678,0.000431,0.017042
29736000,0.0324,0.013523,0.002678,0.000431,0.004701
29737000,0.0324,0.013523,0.002678,0.000431,0.004701
29738000,0.0324,0.013523,0.002678,0.000431,0.004701
29739000,0.0324,0.013523,0.002678,0.000431,0.004701
29740000,0.0324,0.013523,0.002678,0.000431,0.027267
29741000,0.0324,0.013523,0.002678,0.000431,0.019745
29742000,0.0324,0.013523,0.002678,0.000431,0.004701
29743000,0.0324,0.013523,0.002678,0.000431,0.004701
29744000,0.0324,0.013523,0.002678,0.000431,0.004701
29745000,0.0324,0.013523,0.002678,0.000431,0.004466
29746000,0.0324,0.013523,0.002678,0.000431,0.004701
29747000,0.0324,0.013523,0.002678,0.000431,0.034671
29748000,0.0324,0.013523,0.002678,0.000431,0.004584
29749000,0.0324,0.013523,0.002678,0.000431,0.004701
29750000,0.0324,0.013523,0.002678,0.000431,0.004701
29751000,0.0324,0.013523,0.002678,0.000431,0.004701
29752000,0.0324,0.013523,0.002678,0.000431,0.004701
29753000,0.0324,0.013523,0.002678,0.000431,0.019627
29754000,0.0324,0.013523,0.002678,0.000431,0.151141
29755000,0.0324,0.013523,0.002678,0.000431,0.007874
29756000,0.0324,0.013523,0.002678,0.000431,0.004701
29757000,0.0324,0.013523,0.002678,0.000431,0.004701
29758000,0.0324,0.013523,0.002678,0.000431,0.004701
29759000,0.0324,0.013523,0.002678,0.000431,0.004701
29760000,0.0324,0.013523,0.002678,0.000431,0.004701
29761000,0.0324,0.013523,0.002678,0.000431,0.019745
29762000,0.0324,0.013523,0.002678,0.000431,0.004701
29763000,0.0324,0.013523,0.002678,0.000431,0.004701
29764000,0.0324,0.013523,0.002678,0.000431,0.004701
29765000,0.0324,0.013523,0.002678,0.000431,0.004701
29766000,0.0324,0.013523,0.002678,0.000431,0.004701
29767000,0.0324,0.013523,0.002678,0.000431,0.053593
29768000,0.0324,0.013523,0.002678,0.000431,0.060880
29769000,0.0324,0.013523,0.002678,0.000431,0.004584
29770000,0.0324,0.013523,0.002678,0.000431,0.004584
29771000,0.0324,0.013523,0.002678,0.000431,0.004701
29772000,0.0324,0.013523,0.002678,0.000431,0.004701
29773000,0.0324,0.013523,0.002678,0.000431,0.019745
29774000,0.0324,0.013523,0.002678,0.000431,0.027267
29775000,0.0324,0.013523,0.002678,0.000431,0.004701
29776000,0.0324,0.013523,0.002678,0.000431,0.004701
29777000,0.0324,0.013523,0.002678,0.000431,0.004701
29778000,0.0324,0.013523,0.002678,0.000431,0.004701
29779000,0.0324,0.013523,0.002678,0.000431,0.058294
29780000,0.0324,0.013523,0.002678,0.000431,0.036904
29781000,0.0324,0.013523,0.002678,0.000431,0.015984
29782000,0.0324,0.013523,0.002678,0.000431,0.004701
29783000,0.0324,0.013523,0.002678,0.000431,0.004701
29784000,0.0324,0.013523,0.002678,0.000431,0.004701
29785000,0.0324,0.013523,0.002678,0.000431,0.057354
29786000,0.0324,0.013523,0.002678,0.000431,0.127753
29787000,0.0324,0.013523,0.002678,0.000431,0.039607
29788000,0.0324,0.013523,0.002678,0.000431,0.004701
29789000,0.0324,0.013523,0.002678,0.000431,0.004701
29790000,0.0324,0.013523,0.002678,0.000431,0.004701
29791000,0.0324,0.013523,0.002678,0.000431,0.004701
29792000,0.0324,0.013523,0.002678,0.000431,0.025034
29793000,0.0324,0.013523,0.002678,0.000431,0.029500
29794000,0.0324,0.013523,0.002678,0.000431,0.004701
29795000,0.0324,0.013523,0.002678,0.000431,0.004701
29796000,0.0324,0.013523,0.002678,0.000431,0.004701
29797000,0.0324,0.013523,0.002678,0.000431,0.004701
29798000,0.0324,0.013523,0.002678,0.000431,0.074278
29799000,0.0324,0.013523,0.002678,0.000431,0.141034
29800000,0.0324,0.013523,0.002678,0.000431,0.008462
29801000,0.0324,0.013523,0.002678,0.000431,0.004701
29802000,0.0324,0.013523,0.002678,0.000431,0.004701
29803000,0.0324,0.013523,0.002678,0.000431,0.004701
29804000,0.0324,0.013523,0.002678,0.000431,0.004701
29805000,0.0324,0.013523,0.002678,0.000431,0.019627
29806000,0.0324,0.013523,0.002678,0.000431,0.042193
29807000,0.0324,0.013523,0.002678,0.000431,0.004701
29808000,0.0324,0.013523,0.002678,0.000431,0.004466
29809000,0.0324,0.013523,0.002678,0.000431,0.004701
29810000,0.0324,0.013523,0.002678,0.000431,0.004701
29811000,0.0324,0.013523,0.002678,0.000431,0.004701
29812000,0.0324,0.013523,0.002678,0.000431,0.050772
29813000,0.0324,0.013523,0.002678,0.000431,0.011518
29814000,0.0324,0.013523,0.002678,0.000431,0.004466
29815000,0.0324,0.013523,0.002678,0.000431,0.004701
29816000,0.0324,0.013523,0.002678,0.000431,0.004701
29817000,0.0324,0.013523,0.002678,0.000431,0.004701
29818000,0.0324,0.013523,0.002678,0.000431,0.032673
29819000,0.0324,0.013523,0.002678,0.000431,0.021860
29820000,0.0324,0.013523,0.002678,0.000431,0.004701
29821000,0.0324,0.013523,0.002678,0.000431,0.004701
29822000,0.0324,0.013523,0.002678,0.000431,0.004701
29823000,0.0324,0.013523,0.002678,0.000431,0.004701
29824000,0.0324,0.013523,0.002678,0.000431,0.008462
29825000,0.0324,0.013523,0.002678,0.000431,0.084268
29826000,0.0324,0.013523,0.002678,0.000431,0.041958
29827000,0.0324,0.013523,0.002678,0.000431,0.011988
29828000,0.0324,0.013523,0.002678,0.000431,0.004701
29829000,0.0324,0.013523,0.002678,0.000431,0.004701
29830000,0.0324,0.013523,0.002678,0.000431,0.004701
29831000,0.0324,0.013523,0.002678,0.000431,0.019745
29832000,0.0324,0.013523,0.002678,0.000431,0.131632
29833000,0.0324,0.013523,0.002678,0.000431,0.087676
29834000,0.0324,0.013523,0.002678,0.000431,0.004584
29835000,0.0324,0.013523,0.002678,0.000431,0.004584
29836000,0.0324,0.013523,0.002678,0.000431,0.004701
29837000,0.0324,0.013523,0.002678,0.000431,0.004701
29838000,0.0324,0.013523,0.002678,0.000431,0.019980
29839000,0.0324,0.013523,0.002678,0.000431,0.027031
29840000,0.0324,0.013523,0.002678,0.000431,0.004701
29841000,0.0324,0.013523,0.002678,0.000431,0.004701
29842000,0.0324,0.013523,0.002678,0.000431,0.004701
29843000,0.0324,0.013523,0.002678,0.000431,0.004701
29844000,0.0324,0.013523,0.002678,0.000431,0.012223
29845000,0.0324,0.013523,0.002678,0.000431,0.004701
29846000,0.0324,0.013523,0.002678,0.000431,0.010225
29847000,0.0324,0.013523,0.002678,0.000431,0.006699
29848000,0.0324,0.013523,0.002678,0.000431,0.004701
29849000,0.0324,0.013523,0.002678,0.000431,0.004584
29850000,0.0324,0.013523,0.002678,0.000431,0.019627
29851000,0.0324,0.013523,0.002678,0.000431,0.012223
29852000,0.0324,0.013523,0.002678,0.000431,0.012223
29853000,0.0324,0.013523,0.002678,0.000431,0.004701
29854000,0.0324,0.013523,0.002678,0.000431,0.004584
29855000,0.0324,0.013523,0.002678,0.000431,0.004584
29856000,0.0324,0.013523,0.002678,0.000431,0.004466
29857000,0.0324,0.013523,0.002678,0.000431,0.004701
29858000,0.0324,0.013523,0.002678,0.000431,0.031145
29859000,0.0324,0.013523,0.002678,0.000431,0.030910
29860000,0.0324,0.013523,0.002678,0.000431,0.057354
29861000,0.0324,0.013523,0.002678,0.000431,0.004701
29862000,0.0324,0.013523,0.002678,0.000431,0.004701
29863000,0.0324,0.013523,0.002678,0.000431,0.012223
29864000,0.0324,0.013523,0.002678,0.000431,0.004701
29865000,0.0324,0.013523,0.002678,0.000431,0.004701
29866000,0.0324,0.013523,0.002678,0.000431,0.004701
29867000,0.0324,0.013523,0.002678,0.000431,0.155607
29868000,0.0324,0.013523,0.002678,0.000431,0.026326
29869000,0.0324,0.013523,0.002678,0.000431,0.008462
29870000,0.0324,0.013523,0.002678,0.000431,0.008227
29871000,0.0324,0.013523,0.002678,0.000431,0.004701
29872000,0.0324,0.013523,0.002678,0.000431,0.004466
29873000,0.0324,0.013523,0.002678,0.000431,0.004701
29874000,0.0324,0.013523,0.002678,0.000431,0.055238
29875000,0.0324,0.013523,0.002678,0.000431,0.014338
29876000,0.0324,0.013523,0.002678,0.000431,0.064876
29877000,0.0324,0.013523,0.002678,0.000431,0.034788
29878000,0.0324,0.013523,0.002678,0.000431,0.012223
29879000,0.0324,0.013523,0.002678,0.000431,0.004701
29880000,0.0324,0.013523,0.002678,0.000431,0.013751
29881000,0.0324,0.013523,0.002678,0.000431,0.033260
29882000,0.0324,0.013523,0.002678,0.000431,0.030910
29883000,0.0324,0.013523,0.002678,0.000431,0.083327
29884000,0.0324,0.013523,0.002678,0.000431,0.004701
29885000,0.0324,0.013523,0.002678,0.000431,0.034788
29886000,0.0324,0.013523,0.002678,0.000431,0.004701
29887000,0.0324,0.013523,0.002678,0.000431,0.004701
29888000,0.0324,0.013523,0.002678,0.000431,0.004701
29889000,0.0324,0.013523,0.002678,0.000431,0.099546
29890000,0.0324,0.013523,0.002678,0.000431,0.071105
29891000,0.0324,0.013523,0.002678,0.000431,0.008462
29892000,0.0324,0.013523,0.002678,0.000431,0.004701
29893000,0.0324,0.013523,0.002678,0.000431,0.013868
29894000,0.0324,0.013523,0.002678,0.000431,0.040430
29895000,0.0324,0.013523,0.002678,0.000431,0.004701
29896000,0.0324,0.013523,0.002678,0.000431,0.004466
29897000,0.0324,0.013523,0.002678,0.000431,0.057589
29898000,0.0324,0.013523,0.002678,0.000431,0.004701
29899000,0.0324,0.013523,0.002678,0.000431,0.004701
29900000,0.0324,0.013523,0.002678,0.000431,0.012223
29901000,0.0324,0.013523,0.002678,0.000431,0.004701
29902000,0.0324,0.013523,0.002678,0.000431,0.004701
29903000,0.0324,0.013523,0.002678,0.000431,0.019392
29904000,0.0324,0.013523,0.002678,0.000431,0.043250
29905000,0.0324,0.013523,0.002678,0.000431,0.018922
29906000,0.0324,0.013523,0.002678,0.000431,0.004701
29907000,0.0324,0.013523,0.002678,0.000431,0.019745
29908000,0.0324,0.013523,0.002678,0.000431,0.004701
29909000,0.0324,0.013523,0.002678,0.000431,0.027267
29910000,0.0324,0.013523,0.002678,0.000431,0.016101
29911000,0.0324,0.013523,0.002678,0.000431,0.173354
29912000,0.0324,0.013523,0.002678,0.000431,0.004466
29913000,0.0324,0.013523,0.002678,0.000431,0.004701
29914000,0.0324,0.013523,0.002678,0.000431,0.004701
29915000,0.0324,0.013523,0.002678,0.000431,0.034788
29916000,0.0324,0.013523,0.002678,0.000431,0.004701
29917000,0.0324,0.013523,0.002678,0.000431,0.007287
29918000,0.0324,0.013523,0.002678,0.000431,0.098019
29919000,0.0324,0.013523,0.002678,0.000431,0.013281
29920000,0.0324,0.013523,0.002678,0.000431,0.004584
29921000,0.0324,0.013523,0.002678,0.000431,0.004701
29922000,0.0324,0.013523,0.002678,0.000431,0.042310
29923000,0.0324,0.013523,0.002678,0.000431,0.004701
29924000,0.0324,0.013523,0.002678,0.000431,0.004701
29925000,0.0324,0.013523,0.002678,0.000431,0.034788
29926000,0.0324,0.013523,0.002678,0.000431,0.019745
29927000,0.0324,0.013523,0.002678,0.000431,0.004701
29928000,0.0324,0.013523,0.002678,0.000431,0.012223
29929000,0.0324,0.013523,0.002678,0.000431,0.004701
29930000,0.0324,0.013523,0.002678,0.000431,0.015984
29931000,0.0324,0.013523,0.002678,0.000431,0.035964
29932000,0.0324,0.013523,0.002678,0.000431,0.007522
29933000,0.0324,0.013523,0.002678,0.000431,0.004466
29934000,0.0324,0.013523,0.002678,0.000431,0.008462
29935000,0.0324,0.013523,0.002678,0.000431,0.008462
29936000,0.0324,0.013523,0.002678,0.000431,0.004701
29937000,0.0324,0.013523,0.002678,0.000431,0.012811
29938000,0.0324,0.013523,0.002678,0.000431,0.146558
29939000,0.0324,0.013523,0.002678,0.000431,0.019510
29940000,0.0324,0.013523,0.002678,0.000431,0.004701
29941000,0.0324,0.013523,0.002678,0.000431,0.004701
29942000,0.0324,0.013523,0.002678,0.000431,0.004701
29943000,0.0324,0.013523,0.002678,0.000431,0.004701
29944000,0.0324,0.013523,0.002678,0.000431,0.008227
29945000,0.0324,0.013523,0.002678,0.000431,0.124815
29946000,0.0324,0.013523,0.002678,0.000431,0.031027
29947000,0.0324,0.013523,0.002678,0.000431,0.012223
29948000,0.0324,0.013523,0.002678,0.000431,0.004701
29949000,0.0324,0.013523,0.002678,0.000431,0.004701
29950000,0.0324,0.013523,0.002678,0.000431,0.004701
29951000,0.0324,0.013523,0.002678,0.000431,0.004466
29952000,0.0324,0.013523,0.002678,0.000431,0.102014
29953000,0.0324,0.013523,0.002678,0.000431,0.005171
29954000,0.0324,0.013523,0.002678,0.000431,0.004701
29955000,0.0324,0.013523,0.002678,0.000431,0.004701
29956000,0.0324,0.013523,0.002678,0.000431,0.004701
29957000,0.0324,0.013523,0.002678,0.000431,0.004701
29958000,0.0324,0.013523,0.002678,0.000431,0.004701
29959000,0.0324,0.013523,0.002678,0.000431,0.004466
29960000,0.0324,0.013523,0.002678,0.000431,0.034553
29961000,0.0324,0.013523,0.002678,0.000431,0.004701
29962000,0.0324,0.013523,0.002678,0.000431,0.004701
29963000,0.0324,0.013523,0.002678,0.000431,0.008462
29964000,0.0324,0.013523,0.002678,0.000431,0.015984
29965000,0.0324,0.013523,0.002678,0.000431,0.082387
29966000,0.0324,0.013523,0.002678,0.000431,0.009755
29967000,0.0324,0.013523,0.002678,0.000431,0.004701
29968000,0.0324,0.013523,0.002678,0.000431,0.004701
29969000,0.0324,0.013523,0.002678,0.000431,0.004701
29970000,0.0324,0.013523,0.002678,0.000431,0.004701
29971000,0.0324,0.013523,0.002678,0.000431,0.011518
29972000,0.0324,0.013523,0.002678,0.000431,0.035258
29973000,0.0324,0.013523,0.002678,0.000431,0.057119
29974000,0.0324,0.013523,0.002678,0.000431,0.004701
29975000,0.0324,0.013523,0.002678,0.000431,0.004701
29976000,0.0324,0.013523,0.002678,0.000431,0.015984
29977000,0.0324,0.013523,0.002678,0.000431,0.015984
29978000,0.0324,0.013523,0.002678,0.000431,0.062760
29979000,0.0324,0.013523,0.002678,0.000431,0.022330
29980000,0.0324,0.013523,0.002678,0.000431,0.066874
29981000,0.0324,0.013523,0.002678,0.000431,0.039842
29982000,0.0324,0.013523,0.002678,0.000431,0.004701
29983000,0.0324,0.013523,0.002678,0.000431,0.004701
29984000,0.0324,0.013523,0.002678,0.000431,0.015984
29985000,0.0324,0.013523,0.002678,0.000431,0.008462
29986000,0.0324,0.013523,0.002678,0.000431,0.042310
29987000,0.0324,0.013523,0.002678,0.000431,0.004701
29988000,0.0324,0.013523,0.002678,0.000431,0.004701
29989000,0.0324,0.013523,0.002678,0.000431,0.010225
29990000,0.0324,0.013523,0.002678,0.000431,0.014221
29991000,0.0324,0.013523,0.002678,0.000431,0.004584
29992000,0.0324,0.013523,0.002678,0.000431,0.024446
29993000,0.0324,0.013523,0.002678,0.000431,0.029970
29994000,0.0324,0.013523,0.002678,0.000431,0.012458
29995000,0.0324,0.013523,0.002678,0.000431,0.004701
29996000,0.0324,0.013523,0.002678,0.000431,0.034788
29997000,0.0324,0.013523,0.002678,0.000431,0.027267
29998000,0.0324,0.013523,0.002678,0.000431,0.025621
29999000,0.0324,0.013523,0.002678,0.000431,0.013868
