Cycle,Area(mm^2),PeakDynamic(W),SubthresholdLeakage(W),GateLeakage(W),RunTimeDynamic(W)
6000000,0.0324,0.013523,0.002678,0.000431,0.249277
6001000,0.0324,0.013523,0.002678,0.000431,0.042545
6002000,0.0324,0.013523,0.002678,0.000431,0.034788
6003000,0.0324,0.013523,0.002678,0.000431,0.035258
6004000,0.0324,0.013523,0.002678,0.000431,0.274193
6005000,0.0324,0.013523,0.002678,0.000431,0.501140
6006000,0.0324,0.013523,0.002678,0.000431,0.220013
6007000,0.0324,0.013523,0.002678,0.000431,0.138801
6008000,0.0324,0.013523,0.002678,0.000431,0.099194
6009000,0.0324,0.013523,0.002678,0.000431,0.076628
6010000,0.0324,0.013523,0.002678,0.000431,0.097313
6011000,0.0324,0.013523,0.002678,0.000431,0.127283
6012000,0.0324,0.013523,0.002678,0.000431,0.227182
6013000,0.0324,0.013523,0.002678,0.000431,0.172766
6014000,0.0324,0.013523,0.002678,0.000431,0.065698
6015000,0.0324,0.013523,0.002678,0.000431,0.320264
6016000,0.0324,0.013523,0.002678,0.000431,0.116353
6017000,0.0324,0.013523,0.002678,0.000431,0.117763
6018000,0.0324,0.013523,0.002678,0.000431,0.111417
6019000,0.0324,0.013523,0.002678,0.000431,0.334955
6020000,0.0324,0.013523,0.002678,0.000431,0.172766
6021000,0.0324,0.013523,0.002678,0.000431,0.053945
6022000,0.0324,0.013523,0.002678,0.000431,0.187222
6023000,0.0324,0.013523,0.002678,0.000431,0.204852
6024000,0.0324,0.013523,0.002678,0.000431,0.080389
6025000,0.0324,0.013523,0.002678,0.000431,0.154550
6026000,0.0324,0.013523,0.002678,0.000431,0.259972
6027000,0.0324,0.013523,0.002678,0.000431,0.057824
6028000,0.0324,0.013523,0.002678,0.000431,0.035141
6029000,0.0324,0.013523,0.002678,0.000431,0.064993
6030000,0.0324,0.013523,0.002678,0.000431,0.176762
6031000,0.0324,0.013523,0.002678,0.000431,0.121642
6032000,0.0324,0.013523,0.002678,0.000431,0.131749
6033000,0.0324,0.013523,0.002678,0.000431,0.236584
6034000,0.0324,0.013523,0.002678,0.000431,0.056414
6035000,0.0324,0.013523,0.002678,0.000431,0.214606
6036000,0.0324,0.013523,0.002678,0.000431,0.065816
6037000,0.0324,0.013523,0.002678,0.000431,0.135510
6038000,0.0324,0.013523,0.002678,0.000431,0.167948
6039000,0.0324,0.013523,0.002678,0.000431,0.170533
6040000,0.0324,0.013523,0.002678,0.000431,0.042780
6041000,0.0324,0.013523,0.002678,0.000431,0.035023
6042000,0.0324,0.013523,0.002678,0.000431,0.142092
6043000,0.0324,0.013523,0.002678,0.000431,0.126343
6044000,0.0324,0.013523,0.002678,0.000431,0.144090
6045000,0.0324,0.013523,0.002678,0.000431,0.287121
6046000,0.0324,0.013523,0.002678,0.000431,0.046541
6047000,0.0324,0.013523,0.002678,0.000431,0.098254
6048000,0.0324,0.013523,0.002678,0.000431,0.091319
6049000,0.0324,0.013523,0.002678,0.000431,0.050302
6050000,0.0324,0.013523,0.002678,0.000431,0.133630
6051000,0.0324,0.013523,0.002678,0.000431,0.101897
6052000,0.0324,0.013523,0.002678,0.000431,0.183697
6053000,0.0324,0.013523,0.002678,0.000431,0.066403
6054000,0.0324,0.013523,0.002678,0.000431,0.082975
6055000,0.0324,0.013523,0.002678,0.000431,0.137508
6056000,0.0324,0.013523,0.002678,0.000431,0.281715
6057000,0.0324,0.013523,0.002678,0.000431,0.312507
6058000,0.0324,0.013523,0.002678,0.000431,0.394660
6059000,0.0324,0.013523,0.002678,0.000431,0.175470
6060000,0.0324,0.013523,0.002678,0.000431,0.037256
6061000,0.0324,0.013523,0.002678,0.000431,0.035258
6062000,0.0324,0.013523,0.002678,0.000431,0.034906
6063000,0.0324,0.013523,0.002678,0.000431,0.110124
6064000,0.0324,0.013523,0.002678,0.000431,0.100722
6065000,0.0324,0.013523,0.002678,0.000431,0.380086
6066000,0.0324,0.013523,0.002678,0.000431,0.285241
6067000,0.0324,0.013523,0.002678,0.000431,0.035258
6068000,0.0324,0.013523,0.002678,0.000431,0.133042
6069000,0.0324,0.013523,0.002678,0.000431,0.117293
6070000,0.0324,0.013523,0.002678,0.000431,0.062290
6071000,0.0324,0.013523,0.002678,0.000431,0.090262
6072000,0.0324,0.013523,0.002678,0.000431,0.195567
6073000,0.0324,0.013523,0.002678,0.000431,0.122582
6074000,0.0324,0.013523,0.002678,0.000431,0.034906
6075000,0.0324,0.013523,0.002678,0.000431,0.225066
6076000,0.0324,0.013523,0.002678,0.000431,0.144912
6077000,0.0324,0.013523,0.002678,0.000431,0.050537
6078000,0.0324,0.013523,0.002678,0.000431,0.076041
6079000,0.0324,0.013523,0.002678,0.000431,0.251275
6080000,0.0324,0.013523,0.002678,0.000431,0.100487
6081000,0.0324,0.013523,0.002678,0.000431,0.050302
6082000,0.0324,0.013523,0.002678,0.000431,0.108831
6083000,0.0324,0.013523,0.002678,0.000431,0.208025
6084000,0.0324,0.013523,0.002678,0.000431,0.088499
6085000,0.0324,0.013523,0.002678,0.000431,0.101897
6086000,0.0324,0.013523,0.002678,0.000431,0.133982
6087000,0.0324,0.013523,0.002678,0.000431,0.035023
6088000,0.0324,0.013523,0.002678,0.000431,0.110712
6089000,0.0324,0.013523,0.002678,0.000431,0.239405
6090000,0.0324,0.013523,0.002678,0.000431,0.277131
6091000,0.0324,0.013523,0.002678,0.000431,0.261618
6092000,0.0324,0.013523,0.002678,0.000431,0.089792
6093000,0.0324,0.013523,0.002678,0.000431,0.060997
6094000,0.0324,0.013523,0.002678,0.000431,0.057589
6095000,0.0324,0.013523,0.002678,0.000431,0.232823
6096000,0.0324,0.013523,0.002678,0.000431,0.281480
6097000,0.0324,0.013523,0.002678,0.000431,0.235762
6098000,0.0324,0.013523,0.002678,0.000431,0.336601
6099000,0.0324,0.013523,0.002678,0.000431,0.304045
6100000,0.0324,0.013523,0.002678,0.000431,0.067344
6101000,0.0324,0.013523,0.002678,0.000431,0.070752
6102000,0.0324,0.013523,0.002678,0.000431,0.057824
6103000,0.0324,0.013523,0.002678,0.000431,0.125285
6104000,0.0324,0.013523,0.002678,0.000431,0.117763
6105000,0.0324,0.013523,0.002678,0.000431,0.127401
6106000,0.0324,0.013523,0.002678,0.000431,0.194392
6107000,0.0324,0.013523,0.002678,0.000431,0.060762
6108000,0.0324,0.013523,0.002678,0.000431,0.342360
6109000,0.0324,0.013523,0.002678,0.000431,0.212726
6110000,0.0324,0.013523,0.002678,0.000431,0.277014
6111000,0.0324,0.013523,0.002678,0.000431,0.242696
6112000,0.0324,0.013523,0.002678,0.000431,0.102955
6113000,0.0324,0.013523,0.002678,0.000431,0.226359
6114000,0.0324,0.013523,0.002678,0.000431,0.241873
6115000,0.0324,0.013523,0.002678,0.000431,0.198975
6116000,0.0324,0.013523,0.002678,0.000431,0.325788
6117000,0.0324,0.013523,0.002678,0.000431,0.221071
6118000,0.0324,0.013523,0.002678,0.000431,0.393249
6119000,0.0324,0.013523,0.002678,0.000431,0.072867
6120000,0.0324,0.013523,0.002678,0.000431,0.064758
6121000,0.0324,0.013523,0.002678,0.000431,0.147498
6122000,0.0324,0.013523,0.002678,0.000431,0.212961
6123000,0.0324,0.013523,0.002678,0.000431,0.181581
6124000,0.0324,0.013523,0.002678,0.000431,0.112592
6125000,0.0324,0.013523,0.002678,0.000431,0.162894
6126000,0.0324,0.013523,0.002678,0.000431,0.150671
6127000,0.0324,0.013523,0.002678,0.000431,0.042428
6128000,0.0324,0.013523,0.002678,0.000431,0.234116
6129000,0.0324,0.013523,0.002678,0.000431,0.180993
6130000,0.0324,0.013523,0.002678,0.000431,0.077686
6131000,0.0324,0.013523,0.002678,0.000431,0.210375
6132000,0.0324,0.013523,0.002678,0.000431,0.087558
6133000,0.0324,0.013523,0.002678,0.000431,0.042310
6134000,0.0324,0.013523,0.002678,0.000431,0.050067
6135000,0.0324,0.013523,0.002678,0.000431,0.179818
6136000,0.0324,0.013523,0.002678,0.000431,0.333192
6137000,0.0324,0.013523,0.002678,0.000431,0.128223
6138000,0.0324,0.013523,0.002678,0.000431,0.206379
6139000,0.0324,0.013523,0.002678,0.000431,0.062995
6140000,0.0324,0.013523,0.002678,0.000431,0.065111
6141000,0.0324,0.013523,0.002678,0.000431,0.107068
6142000,0.0324,0.013523,0.002678,0.000431,0.225184
6143000,0.0324,0.013523,0.002678,0.000431,0.171474
6144000,0.0324,0.013523,0.002678,0.000431,0.161954
6145000,0.0324,0.013523,0.002678,0.000431,0.072867
6146000,0.0324,0.013523,0.002678,0.000431,0.087911
6147000,0.0324,0.013523,0.002678,0.000431,0.049597
6148000,0.0324,0.013523,0.002678,0.000431,0.291117
6149000,0.0324,0.013523,0.002678,0.000431,0.230943
6150000,0.0324,0.013523,0.002678,0.000431,0.125520
6151000,0.0324,0.013523,0.002678,0.000431,0.218720
6152000,0.0324,0.013523,0.002678,0.000431,0.061702
6153000,0.0324,0.013523,0.002678,0.000431,0.068401
6154000,0.0324,0.013523,0.002678,0.000431,0.097548
6155000,0.0324,0.013523,0.002678,0.000431,0.123052
6156000,0.0324,0.013523,0.002678,0.000431,0.133159
6157000,0.0324,0.013523,0.002678,0.000431,0.294291
6158000,0.0324,0.013523,0.002678,0.000431,0.297111
6159000,0.0324,0.013523,0.002678,0.000431,0.123640
6160000,0.0324,0.013523,0.002678,0.000431,0.197682
6161000,0.0324,0.013523,0.002678,0.000431,0.116470
6162000,0.0324,0.013523,0.002678,0.000431,0.203794
6163000,0.0324,0.013523,0.002678,0.000431,0.394190
6164000,0.0324,0.013523,0.002678,0.000431,0.284066
6165000,0.0324,0.013523,0.002678,0.000431,0.117763
6166000,0.0324,0.013523,0.002678,0.000431,0.069459
6167000,0.0324,0.013523,0.002678,0.000431,0.075688
6168000,0.0324,0.013523,0.002678,0.000431,0.057354
6169000,0.0324,0.013523,0.002678,0.000431,0.067579
6170000,0.0324,0.013523,0.002678,0.000431,0.429330
6171000,0.0324,0.013523,0.002678,0.000431,0.564370
6172000,0.0324,0.013523,0.002678,0.000431,0.120231
6173000,0.0324,0.013523,0.002678,0.000431,0.051125
6174000,0.0324,0.013523,0.002678,0.000431,0.060057
6175000,0.0324,0.013523,0.002678,0.000431,0.069812
6176000,0.0324,0.013523,0.002678,0.000431,0.072632
6177000,0.0324,0.013523,0.002678,0.000431,0.042780
6178000,0.0324,0.013523,0.002678,0.000431,0.121172
6179000,0.0324,0.013523,0.002678,0.000431,0.153139
6180000,0.0324,0.013523,0.002678,0.000431,0.048422
6181000,0.0324,0.013523,0.002678,0.000431,0.112945
6182000,0.0324,0.013523,0.002678,0.000431,0.159721
6183000,0.0324,0.013523,0.002678,0.000431,0.084973
6184000,0.0324,0.013523,0.002678,0.000431,0.330607
6185000,0.0324,0.013523,0.002678,0.000431,0.286769
6186000,0.0324,0.013523,0.002678,0.000431,0.107068
6187000,0.0324,0.013523,0.002678,0.000431,0.177820
6188000,0.0324,0.013523,0.002678,0.000431,0.123287
6189000,0.0324,0.013523,0.002678,0.000431,0.222128
6190000,0.0324,0.013523,0.002678,0.000431,0.298404
6191000,0.0324,0.013523,0.002678,0.000431,0.170063
6192000,0.0324,0.013523,0.002678,0.000431,0.232823
6193000,0.0324,0.013523,0.002678,0.000431,0.136920
6194000,0.0324,0.013523,0.002678,0.000431,0.046189
6195000,0.0324,0.013523,0.002678,0.000431,0.174647
6196000,0.0324,0.013523,0.002678,0.000431,0.137273
6197000,0.0324,0.013523,0.002678,0.000431,0.096843
6198000,0.0324,0.013523,0.002678,0.000431,0.081447
6199000,0.0324,0.013523,0.002678,0.000431,0.177820
6200000,0.0324,0.013523,0.002678,0.000431,0.131279
6201000,0.0324,0.013523,0.002678,0.000431,0.068754
6202000,0.0324,0.013523,0.002678,0.000431,0.077804
6203000,0.0324,0.013523,0.002678,0.000431,0.232823
6204000,0.0324,0.013523,0.002678,0.000431,0.416050
6205000,0.0324,0.013523,0.002678,0.000431,0.163952
6206000,0.0324,0.013523,0.002678,0.000431,0.065933
6207000,0.0324,0.013523,0.002678,0.000431,0.184989
6208000,0.0324,0.013523,0.002678,0.000431,0.088264
6209000,0.0324,0.013523,0.002678,0.000431,0.087676
6210000,0.0324,0.013523,0.002678,0.000431,0.143972
6211000,0.0324,0.013523,0.002678,0.000431,0.120466
6212000,0.0324,0.013523,0.002678,0.000431,0.231178
6213000,0.0324,0.013523,0.002678,0.000431,0.087794
6214000,0.0324,0.013523,0.002678,0.000431,0.057589
6215000,0.0324,0.013523,0.002678,0.000431,0.307219
6216000,0.0324,0.013523,0.002678,0.000431,0.212608
6217000,0.0324,0.013523,0.002678,0.000431,0.249395
6218000,0.0324,0.013523,0.002678,0.000431,0.049949
6219000,0.0324,0.013523,0.002678,0.000431,0.084150
6220000,0.0324,0.013523,0.002678,0.000431,0.272548
6221000,0.0324,0.013523,0.002678,0.000431,0.184402
6222000,0.0324,0.013523,0.002678,0.000431,0.311097
6223000,0.0324,0.013523,0.002678,0.000431,0.221306
6224000,0.0324,0.013523,0.002678,0.000431,0.214136
6225000,0.0324,0.013523,0.002678,0.000431,0.054180
6226000,0.0324,0.013523,0.002678,0.000431,0.216604
6227000,0.0324,0.013523,0.002678,0.000431,0.193804
6228000,0.0324,0.013523,0.002678,0.000431,0.060997
6229000,0.0324,0.013523,0.002678,0.000431,0.157840
6230000,0.0324,0.013523,0.002678,0.000431,0.112710
6231000,0.0324,0.013523,0.002678,0.000431,0.049949
6232000,0.0324,0.013523,0.002678,0.000431,0.065228
6233000,0.0324,0.013523,0.002678,0.000431,0.079684
6234000,0.0324,0.013523,0.002678,0.000431,0.110006
6235000,0.0324,0.013523,0.002678,0.000431,0.119291
6236000,0.0324,0.013523,0.002678,0.000431,0.248690
6237000,0.0324,0.013523,0.002678,0.000431,0.069224
6238000,0.0324,0.013523,0.002678,0.000431,0.042663
6239000,0.0324,0.013523,0.002678,0.000431,0.117058
6240000,0.0324,0.013523,0.002678,0.000431,0.208377
6241000,0.0324,0.013523,0.002678,0.000431,0.217427
6242000,0.0324,0.013523,0.002678,0.000431,0.196860
6243000,0.0324,0.013523,0.002678,0.000431,0.110947
6244000,0.0324,0.013523,0.002678,0.000431,0.042428
6245000,0.0324,0.013523,0.002678,0.000431,0.132924
6246000,0.0324,0.013523,0.002678,0.000431,0.050537
6247000,0.0324,0.013523,0.002678,0.000431,0.147968
6248000,0.0324,0.013523,0.002678,0.000431,0.072162
6249000,0.0324,0.013523,0.002678,0.000431,0.106716
6250000,0.0324,0.013523,0.002678,0.000431,0.112827
6251000,0.0324,0.013523,0.002678,0.000431,0.055238
6252000,0.0324,0.013523,0.002678,0.000431,0.061585
6253000,0.0324,0.013523,0.002678,0.000431,0.071810
6254000,0.0324,0.013523,0.002678,0.000431,0.125755
6255000,0.0324,0.013523,0.002678,0.000431,0.168183
6256000,0.0324,0.013523,0.002678,0.000431,0.392662
6257000,0.0324,0.013523,0.002678,0.000431,0.092025
6258000,0.0324,0.013523,0.002678,0.000431,0.121289
6259000,0.0324,0.013523,0.002678,0.000431,0.095433
6260000,0.0324,0.013523,0.002678,0.000431,0.065581
6261000,0.0324,0.013523,0.002678,0.000431,0.147498
6262000,0.0324,0.013523,0.002678,0.000431,0.124697
6263000,0.0324,0.013523,0.002678,0.000431,0.046071
6264000,0.0324,0.013523,0.002678,0.000431,0.110359
6265000,0.0324,0.013523,0.002678,0.000431,0.109771
6266000,0.0324,0.013523,0.002678,0.000431,0.118116
6267000,0.0324,0.013523,0.002678,0.000431,0.173824
6268000,0.0324,0.013523,0.002678,0.000431,0.321910
6269000,0.0324,0.013523,0.002678,0.000431,0.370096
6270000,0.0324,0.013523,0.002678,0.000431,0.084033
6271000,0.0324,0.013523,0.002678,0.000431,0.082035
6272000,0.0324,0.013523,0.002678,0.000431,0.087676
6273000,0.0324,0.013523,0.002678,0.000431,0.035258
6274000,0.0324,0.013523,0.002678,0.000431,0.114120
6275000,0.0324,0.013523,0.002678,0.000431,0.097666
6276000,0.0324,0.013523,0.002678,0.000431,0.119174
6277000,0.0324,0.013523,0.002678,0.000431,0.054063
6278000,0.0324,0.013523,0.002678,0.000431,0.106716
6279000,0.0324,0.013523,0.002678,0.000431,0.072867
6280000,0.0324,0.013523,0.002678,0.000431,0.124345
6281000,0.0324,0.013523,0.002678,0.000431,0.107186
6282000,0.0324,0.013523,0.002678,0.000431,0.129399
6283000,0.0324,0.013523,0.002678,0.000431,0.144207
6284000,0.0324,0.013523,0.002678,0.000431,0.099194
6285000,0.0324,0.013523,0.002678,0.000431,0.072515
6286000,0.0324,0.013523,0.002678,0.000431,0.035258
6287000,0.0324,0.013523,0.002678,0.000431,0.219073
6288000,0.0324,0.013523,0.002678,0.000431,0.069224
6289000,0.0324,0.013523,0.002678,0.000431,0.118233
6290000,0.0324,0.013523,0.002678,0.000431,0.259150
6291000,0.0324,0.013523,0.002678,0.000431,0.095785
6292000,0.0324,0.013523,0.002678,0.000431,0.066286
6293000,0.0324,0.013523,0.002678,0.000431,0.045836
6294000,0.0324,0.013523,0.002678,0.000431,0.076276
6295000,0.0324,0.013523,0.002678,0.000431,0.157018
6296000,0.0324,0.013523,0.002678,0.000431,0.153609
6297000,0.0324,0.013523,0.002678,0.000431,0.170416
6298000,0.0324,0.013523,0.002678,0.000431,0.050067
6299000,0.0324,0.013523,0.002678,0.000431,0.050067
6300000,0.0324,0.013523,0.002678,0.000431,0.054180
6301000,0.0324,0.013523,0.002678,0.000431,0.144560
6302000,0.0324,0.013523,0.002678,0.000431,0.110712
6303000,0.0324,0.013523,0.002678,0.000431,0.151376
6304000,0.0324,0.013523,0.002678,0.000431,0.090262
6305000,0.0324,0.013523,0.002678,0.000431,0.082270
6306000,0.0324,0.013523,0.002678,0.000431,0.055238
6307000,0.0324,0.013523,0.002678,0.000431,0.110359
6308000,0.0324,0.013523,0.002678,0.000431,0.043015
6309000,0.0324,0.013523,0.002678,0.000431,0.117998
6310000,0.0324,0.013523,0.002678,0.000431,0.285006
6311000,0.0324,0.013523,0.002678,0.000431,0.094375
6312000,0.0324,0.013523,0.002678,0.000431,0.065111
6313000,0.0324,0.013523,0.002678,0.000431,0.091319
6314000,0.0324,0.013523,0.002678,0.000431,0.056178
6315000,0.0324,0.013523,0.002678,0.000431,0.078156
6316000,0.0324,0.013523,0.002678,0.000431,0.046189
6317000,0.0324,0.013523,0.002678,0.000431,0.099076
6318000,0.0324,0.013523,0.002678,0.000431,0.035258
6319000,0.0324,0.013523,0.002678,0.000431,0.050302
6320000,0.0324,0.013523,0.002678,0.000431,0.134100
6321000,0.0324,0.013523,0.002678,0.000431,0.124345
6322000,0.0324,0.013523,0.002678,0.000431,0.060409
6323000,0.0324,0.013523,0.002678,0.000431,0.070399
6324000,0.0324,0.013523,0.002678,0.000431,0.154079
6325000,0.0324,0.013523,0.002678,0.000431,0.103895
6326000,0.0324,0.013523,0.002678,0.000431,0.091202
6327000,0.0324,0.013523,0.002678,0.000431,0.100839
6328000,0.0324,0.013523,0.002678,0.000431,0.117998
6329000,0.0324,0.013523,0.002678,0.000431,0.078509
6330000,0.0324,0.013523,0.002678,0.000431,0.035258
6331000,0.0324,0.013523,0.002678,0.000431,0.095433
6332000,0.0324,0.013523,0.002678,0.000431,0.078509
6333000,0.0324,0.013523,0.002678,0.000431,0.096961
6334000,0.0324,0.013523,0.002678,0.000431,0.137390
6335000,0.0324,0.013523,0.002678,0.000431,0.150906
6336000,0.0324,0.013523,0.002678,0.000431,0.034906
6337000,0.0324,0.013523,0.002678,0.000431,0.035729
6338000,0.0324,0.013523,0.002678,0.000431,0.237877
6339000,0.0324,0.013523,0.002678,0.000431,0.094845
6340000,0.0324,0.013523,0.002678,0.000431,0.043368
6341000,0.0324,0.013523,0.002678,0.000431,0.034788
6342000,0.0324,0.013523,0.002678,0.000431,0.135863
6343000,0.0324,0.013523,0.002678,0.000431,0.047481
6344000,0.0324,0.013523,0.002678,0.000431,0.070164
6345000,0.0324,0.013523,0.002678,0.000431,0.078744
6346000,0.0324,0.013523,0.002678,0.000431,0.091437
6347000,0.0324,0.013523,0.002678,0.000431,0.061467
6348000,0.0324,0.013523,0.002678,0.000431,0.095315
6349000,0.0324,0.013523,0.002678,0.000431,0.136920
6350000,0.0324,0.013523,0.002678,0.000431,0.050067
6351000,0.0324,0.013523,0.002678,0.000431,0.057471
6352000,0.0324,0.013523,0.002678,0.000431,0.139976
6353000,0.0324,0.013523,0.002678,0.000431,0.262558
6354000,0.0324,0.013523,0.002678,0.000431,0.093082
6355000,0.0324,0.013523,0.002678,0.000431,0.087794
6356000,0.0324,0.013523,0.002678,0.000431,0.057706
6357000,0.0324,0.013523,0.002678,0.000431,0.065346
6358000,0.0324,0.013523,0.002678,0.000431,0.106716
6359000,0.0324,0.013523,0.002678,0.000431,0.091672
6360000,0.0324,0.013523,0.002678,0.000431,0.171474
6361000,0.0324,0.013523,0.002678,0.000431,0.136215
6362000,0.0324,0.013523,0.002678,0.000431,0.106716
6363000,0.0324,0.013523,0.002678,0.000431,0.057589
6364000,0.0324,0.013523,0.002678,0.000431,0.042428
6365000,0.0324,0.013523,0.002678,0.000431,0.125403
6366000,0.0324,0.013523,0.002678,0.000431,0.130221
6367000,0.0324,0.013523,0.002678,0.000431,0.098019
6368000,0.0324,0.013523,0.002678,0.000431,0.190161
6369000,0.0324,0.013523,0.002678,0.000431,0.105658
6370000,0.0324,0.013523,0.002678,0.000431,0.035141
6371000,0.0324,0.013523,0.002678,0.000431,0.071810
6372000,0.0324,0.013523,0.002678,0.000431,0.116235
6373000,0.0324,0.013523,0.002678,0.000431,0.210846
6374000,0.0324,0.013523,0.002678,0.000431,0.053945
6375000,0.0324,0.013523,0.002678,0.000431,0.121407
6376000,0.0324,0.013523,0.002678,0.000431,0.035023
6377000,0.0324,0.013523,0.002678,0.000431,0.193216
6378000,0.0324,0.013523,0.002678,0.000431,0.080154
6379000,0.0324,0.013523,0.002678,0.000431,0.096373
6380000,0.0324,0.013523,0.002678,0.000431,0.199563
6381000,0.0324,0.013523,0.002678,0.000431,0.063230
6382000,0.0324,0.013523,0.002678,0.000431,0.187810
6383000,0.0324,0.013523,0.002678,0.000431,0.094963
6384000,0.0324,0.013523,0.002678,0.000431,0.137743
6385000,0.0324,0.013523,0.002678,0.000431,0.067579
6386000,0.0324,0.013523,0.002678,0.000431,0.072867
6387000,0.0324,0.013523,0.002678,0.000431,0.129163
6388000,0.0324,0.013523,0.002678,0.000431,0.102955
6389000,0.0324,0.013523,0.002678,0.000431,0.046541
6390000,0.0324,0.013523,0.002678,0.000431,0.068872
6391000,0.0324,0.013523,0.002678,0.000431,0.087558
6392000,0.0324,0.013523,0.002678,0.000431,0.053945
6393000,0.0324,0.013523,0.002678,0.000431,0.091672
6394000,0.0324,0.013523,0.002678,0.000431,0.166772
6395000,0.0324,0.013523,0.002678,0.000431,0.158663
6396000,0.0324,0.013523,0.002678,0.000431,0.042663
6397000,0.0324,0.013523,0.002678,0.000431,0.151611
6398000,0.0324,0.013523,0.002678,0.000431,0.067109
6399000,0.0324,0.013523,0.002678,0.000431,0.135745
6400000,0.0324,0.013523,0.002678,0.000431,0.106010
6401000,0.0324,0.013523,0.002678,0.000431,0.118233
6402000,0.0324,0.013523,0.002678,0.000431,0.099194
6403000,0.0324,0.013523,0.002678,0.000431,0.093787
6404000,0.0324,0.013523,0.002678,0.000431,0.232001
6405000,0.0324,0.013523,0.002678,0.000431,0.198153
6406000,0.0324,0.013523,0.002678,0.000431,0.078979
6407000,0.0324,0.013523,0.002678,0.000431,0.082975
6408000,0.0324,0.013523,0.002678,0.000431,0.150319
6409000,0.0324,0.013523,0.002678,0.000431,0.105070
6410000,0.0324,0.013523,0.002678,0.000431,0.100369
6411000,0.0324,0.013523,0.002678,0.000431,0.288649
6412000,0.0324,0.013523,0.002678,0.000431,0.118351
6413000,0.0324,0.013523,0.002678,0.000431,0.092847
6414000,0.0324,0.013523,0.002678,0.000431,0.317914
6415000,0.0324,0.013523,0.002678,0.000431,0.121524
6416000,0.0324,0.013523,0.002678,0.000431,0.322027
6417000,0.0324,0.013523,0.002678,0.000431,0.153609
6418000,0.0324,0.013523,0.002678,0.000431,0.202501
6419000,0.0324,0.013523,0.002678,0.000431,0.064053
6420000,0.0324,0.013523,0.002678,0.000431,0.084033
6421000,0.0324,0.013523,0.002678,0.000431,0.129046
6422000,0.0324,0.013523,0.002678,0.000431,0.099194
6423000,0.0324,0.013523,0.002678,0.000431,0.112827
6424000,0.0324,0.013523,0.002678,0.000431,0.111417
6425000,0.0324,0.013523,0.002678,0.000431,0.155255
6426000,0.0324,0.013523,0.002678,0.000431,0.107068
6427000,0.0324,0.013523,0.002678,0.000431,0.196860
6428000,0.0324,0.013523,0.002678,0.000431,0.042780
6429000,0.0324,0.013523,0.002678,0.000431,0.114237
6430000,0.0324,0.013523,0.002678,0.000431,0.082270
6431000,0.0324,0.013523,0.002678,0.000431,0.103660
6432000,0.0324,0.013523,0.002678,0.000431,0.319559
6433000,0.0324,0.013523,0.002678,0.000431,0.144207
6434000,0.0324,0.013523,0.002678,0.000431,0.086266
6435000,0.0324,0.013523,0.002678,0.000431,0.233176
6436000,0.0324,0.013523,0.002678,0.000431,0.176057
6437000,0.0324,0.013523,0.002678,0.000431,0.042545
6438000,0.0324,0.013523,0.002678,0.000431,0.198858
6439000,0.0324,0.013523,0.002678,0.000431,0.301577
6440000,0.0324,0.013523,0.002678,0.000431,0.311567
6441000,0.0324,0.013523,0.002678,0.000431,0.097196
6442000,0.0324,0.013523,0.002678,0.000431,0.230120
6443000,0.0324,0.013523,0.002678,0.000431,0.061820
6444000,0.0324,0.013523,0.002678,0.000431,0.124932
6445000,0.0324,0.013523,0.002678,0.000431,0.191453
6446000,0.0324,0.013523,0.002678,0.000431,0.168770
6447000,0.0324,0.013523,0.002678,0.000431,0.103425
6448000,0.0324,0.013523,0.002678,0.000431,0.245516
6449000,0.0324,0.013523,0.002678,0.000431,0.205439
6450000,0.0324,0.013523,0.002678,0.000431,0.186870
6451000,0.0324,0.013523,0.002678,0.000431,0.226712
6452000,0.0324,0.013523,0.002678,0.000431,0.145030
6453000,0.0324,0.013523,0.002678,0.000431,0.074513
6454000,0.0324,0.013523,0.002678,0.000431,0.074513
6455000,0.0324,0.013523,0.002678,0.000431,0.291940
6456000,0.0324,0.013523,0.002678,0.000431,0.252921
6457000,0.0324,0.013523,0.002678,0.000431,0.259855
6458000,0.0324,0.013523,0.002678,0.000431,0.200386
6459000,0.0324,0.013523,0.002678,0.000431,0.173589
6460000,0.0324,0.013523,0.002678,0.000431,0.166537
6461000,0.0324,0.013523,0.002678,0.000431,0.080624
6462000,0.0324,0.013523,0.002678,0.000431,0.135510
6463000,0.0324,0.013523,0.002678,0.000431,0.094610
6464000,0.0324,0.013523,0.002678,0.000431,0.199328
6465000,0.0324,0.013523,0.002678,0.000431,0.124110
6466000,0.0324,0.013523,0.002678,0.000431,0.171944
6467000,0.0324,0.013523,0.002678,0.000431,0.102955
6468000,0.0324,0.013523,0.002678,0.000431,0.159016
6469000,0.0324,0.013523,0.002678,0.000431,0.046541
6470000,0.0324,0.013523,0.002678,0.000431,0.270432
6471000,0.0324,0.013523,0.002678,0.000431,0.113180
6472000,0.0324,0.013523,0.002678,0.000431,0.121994
6473000,0.0324,0.013523,0.002678,0.000431,0.103777
6474000,0.0324,0.013523,0.002678,0.000431,0.224126
6475000,0.0324,0.013523,0.002678,0.000431,0.229533
6476000,0.0324,0.013523,0.002678,0.000431,0.172061
6477000,0.0324,0.013523,0.002678,0.000431,0.208730
6478000,0.0324,0.013523,0.002678,0.000431,0.123875
6479000,0.0324,0.013523,0.002678,0.000431,0.196507
6480000,0.0324,0.013523,0.002678,0.000431,0.100839
6481000,0.0324,0.013523,0.002678,0.000431,0.059822
6482000,0.0324,0.013523,0.002678,0.000431,0.215429
6483000,0.0324,0.013523,0.002678,0.000431,0.268787
6484000,0.0324,0.013523,0.002678,0.000431,0.074983
6485000,0.0324,0.013523,0.002678,0.000431,0.174059
6486000,0.0324,0.013523,0.002678,0.000431,0.071340
6487000,0.0324,0.013523,0.002678,0.000431,0.195214
6488000,0.0324,0.013523,0.002678,0.000431,0.216252
6489000,0.0324,0.013523,0.002678,0.000431,0.153844
6490000,0.0324,0.013523,0.002678,0.000431,0.116353
6491000,0.0324,0.013523,0.002678,0.000431,0.213431
6492000,0.0324,0.013523,0.002678,0.000431,0.100134
6493000,0.0324,0.013523,0.002678,0.000431,0.153609
6494000,0.0324,0.013523,0.002678,0.000431,0.316033
6495000,0.0324,0.013523,0.002678,0.000431,0.116705
6496000,0.0324,0.013523,0.002678,0.000431,0.095198
6497000,0.0324,0.013523,0.002678,0.000431,0.162659
6498000,0.0324,0.013523,0.002678,0.000431,0.280187
6499000,0.0324,0.013523,0.002678,0.000431,0.092142
6500000,0.0324,0.013523,0.002678,0.000431,0.435795
6501000,0.0324,0.013523,0.002678,0.000431,0.251510
6502000,0.0324,0.013523,0.002678,0.000431,0.109771
6503000,0.0324,0.013523,0.002678,0.000431,0.083327
6504000,0.0324,0.013523,0.002678,0.000431,0.311450
6505000,0.0324,0.013523,0.002678,0.000431,0.310392
6506000,0.0324,0.013523,0.002678,0.000431,0.177820
6507000,0.0324,0.013523,0.002678,0.000431,0.223891
6508000,0.0324,0.013523,0.002678,0.000431,0.129751
6509000,0.0324,0.013523,0.002678,0.000431,0.094375
6510000,0.0324,0.013523,0.002678,0.000431,0.320147
6511000,0.0324,0.013523,0.002678,0.000431,0.269140
6512000,0.0324,0.013523,0.002678,0.000431,0.088146
6513000,0.0324,0.013523,0.002678,0.000431,0.195802
6514000,0.0324,0.013523,0.002678,0.000431,0.073925
6515000,0.0324,0.013523,0.002678,0.000431,0.281950
6516000,0.0324,0.013523,0.002678,0.000431,0.115530
6517000,0.0324,0.013523,0.002678,0.000431,0.187810
6518000,0.0324,0.013523,0.002678,0.000431,0.147380
6519000,0.0324,0.013523,0.002678,0.000431,0.125168
6520000,0.0324,0.013523,0.002678,0.000431,0.142092
6521000,0.0324,0.013523,0.002678,0.000431,0.139153
6522000,0.0324,0.013523,0.002678,0.000431,0.147968
6523000,0.0324,0.013523,0.002678,0.000431,0.195567
6524000,0.0324,0.013523,0.002678,0.000431,0.115178
6525000,0.0324,0.013523,0.002678,0.000431,0.071457
6526000,0.0324,0.013523,0.002678,0.000431,0.091437
6527000,0.0324,0.013523,0.002678,0.000431,0.184989
6528000,0.0324,0.013523,0.002678,0.000431,0.184167
6529000,0.0324,0.013523,0.002678,0.000431,0.277837
6530000,0.0324,0.013523,0.002678,0.000431,0.203089
6531000,0.0324,0.013523,0.002678,0.000431,0.145265
6532000,0.0324,0.013523,0.002678,0.000431,0.117881
6533000,0.0324,0.013523,0.002678,0.000431,0.069342
6534000,0.0324,0.013523,0.002678,0.000431,0.197565
6535000,0.0324,0.013523,0.002678,0.000431,0.131161
6536000,0.0324,0.013523,0.002678,0.000431,0.180171
6537000,0.0324,0.013523,0.002678,0.000431,0.143267
6538000,0.0324,0.013523,0.002678,0.000431,0.046541
6539000,0.0324,0.013523,0.002678,0.000431,0.133042
6540000,0.0324,0.013523,0.002678,0.000431,0.090144
6541000,0.0324,0.013523,0.002678,0.000431,0.114120
6542000,0.0324,0.013523,0.002678,0.000431,0.241873
6543000,0.0324,0.013523,0.002678,0.000431,0.323320
6544000,0.0324,0.013523,0.002678,0.000431,0.132924
6545000,0.0324,0.013523,0.002678,0.000431,0.120701
6546000,0.0324,0.013523,0.002678,0.000431,0.144795
6547000,0.0324,0.013523,0.002678,0.000431,0.198740
6548000,0.0324,0.013523,0.002678,0.000431,0.206497
6549000,0.0324,0.013523,0.002678,0.000431,0.260913
6550000,0.0324,0.013523,0.002678,0.000431,0.238817
6551000,0.0324,0.013523,0.002678,0.000431,0.070517
6552000,0.0324,0.013523,0.002678,0.000431,0.385140
6553000,0.0324,0.013523,0.002678,0.000431,0.351527
6554000,0.0324,0.013523,0.002678,0.000431,0.191453
6555000,0.0324,0.013523,0.002678,0.000431,0.299462
6556000,0.0324,0.013523,0.002678,0.000431,0.210023
6557000,0.0324,0.013523,0.002678,0.000431,0.097078
6558000,0.0324,0.013523,0.002678,0.000431,0.135157
6559000,0.0324,0.013523,0.002678,0.000431,0.080272
6560000,0.0324,0.013523,0.002678,0.000431,0.114355
6561000,0.0324,0.013523,0.002678,0.000431,0.093552
6562000,0.0324,0.013523,0.002678,0.000431,0.183697
6563000,0.0324,0.013523,0.002678,0.000431,0.050185
6564000,0.0324,0.013523,0.002678,0.000431,0.136568
6565000,0.0324,0.013523,0.002678,0.000431,0.138213
6566000,0.0324,0.013523,0.002678,0.000431,0.357756
6567000,0.0324,0.013523,0.002678,0.000431,0.274428
6568000,0.0324,0.013523,0.002678,0.000431,0.343652
6569000,0.0324,0.013523,0.002678,0.000431,0.135157
6570000,0.0324,0.013523,0.002678,0.000431,0.115295
6571000,0.0324,0.013523,0.002678,0.000431,0.222363
6572000,0.0324,0.013523,0.002678,0.000431,0.162189
6573000,0.0324,0.013523,0.002678,0.000431,0.062055
6574000,0.0324,0.013523,0.002678,0.000431,0.204852
6575000,0.0324,0.013523,0.002678,0.000431,0.076276
6576000,0.0324,0.013523,0.002678,0.000431,0.122229
6577000,0.0324,0.013523,0.002678,0.000431,0.094963
6578000,0.0324,0.013523,0.002678,0.000431,0.148673
6579000,0.0324,0.013523,0.002678,0.000431,0.248455
6580000,0.0324,0.013523,0.002678,0.000431,0.095433
6581000,0.0324,0.013523,0.002678,0.000431,0.094963
6582000,0.0324,0.013523,0.002678,0.000431,0.053945
6583000,0.0324,0.013523,0.002678,0.000431,0.057706
6584000,0.0324,0.013523,0.002678,0.000431,0.223774
6585000,0.0324,0.013523,0.002678,0.000431,0.246222
6586000,0.0324,0.013523,0.002678,0.000431,0.091907
6587000,0.0324,0.013523,0.002678,0.000431,0.086736
6588000,0.0324,0.013523,0.002678,0.000431,0.449663
6589000,0.0324,0.013523,0.002678,0.000431,0.102250
6590000,0.0324,0.013523,0.002678,0.000431,0.190631
6591000,0.0324,0.013523,0.002678,0.000431,0.226712
6592000,0.0324,0.013523,0.002678,0.000431,0.114237
6593000,0.0324,0.013523,0.002678,0.000431,0.114590
6594000,0.0324,0.013523,0.002678,0.000431,0.146205
6595000,0.0324,0.013523,0.002678,0.000431,0.190043
6596000,0.0324,0.013523,0.002678,0.000431,0.181464
6597000,0.0324,0.013523,0.002678,0.000431,0.112239
6598000,0.0324,0.013523,0.002678,0.000431,0.179113
6599000,0.0324,0.013523,0.002678,0.000431,0.229180
6600000,0.0324,0.013523,0.002678,0.000431,0.149613
6601000,0.0324,0.013523,0.002678,0.000431,0.034671
6602000,0.0324,0.013523,0.002678,0.000431,0.180523
6603000,0.0324,0.013523,0.002678,0.000431,0.160308
6604000,0.0324,0.013523,0.002678,0.000431,0.149496
6605000,0.0324,0.013523,0.002678,0.000431,0.247749
6606000,0.0324,0.013523,0.002678,0.000431,0.141739
6607000,0.0324,0.013523,0.002678,0.000431,0.139859
6608000,0.0324,0.013523,0.002678,0.000431,0.159603
6609000,0.0324,0.013523,0.002678,0.000431,0.080154
6610000,0.0324,0.013523,0.002678,0.000431,0.052183
6611000,0.0324,0.013523,0.002678,0.000431,0.170768
6612000,0.0324,0.013523,0.002678,0.000431,0.202501
6613000,0.0324,0.013523,0.002678,0.000431,0.246574
6614000,0.0324,0.013523,0.002678,0.000431,0.128341
6615000,0.0324,0.013523,0.002678,0.000431,0.112710
6616000,0.0324,0.013523,0.002678,0.000431,0.079567
6617000,0.0324,0.013523,0.002678,0.000431,0.193099
6618000,0.0324,0.013523,0.002678,0.000431,0.161249
6619000,0.0324,0.013523,0.002678,0.000431,0.171826
6620000,0.0324,0.013523,0.002678,0.000431,0.133394
6621000,0.0324,0.013523,0.002678,0.000431,0.189220
6622000,0.0324,0.013523,0.002678,0.000431,0.297111
6623000,0.0324,0.013523,0.002678,0.000431,0.359636
6624000,0.0324,0.013523,0.002678,0.000431,0.274193
6625000,0.0324,0.013523,0.002678,0.000431,0.188163
6626000,0.0324,0.013523,0.002678,0.000431,0.228945
6627000,0.0324,0.013523,0.002678,0.000431,0.146440
6628000,0.0324,0.013523,0.002678,0.000431,0.367276
6629000,0.0324,0.013523,0.002678,0.000431,0.122464
6630000,0.0324,0.013523,0.002678,0.000431,0.286886
6631000,0.0324,0.013523,0.002678,0.000431,0.158898
6632000,0.0324,0.013523,0.002678,0.000431,0.189808
6633000,0.0324,0.013523,0.002678,0.000431,0.060409
6634000,0.0324,0.013523,0.002678,0.000431,0.049832
6635000,0.0324,0.013523,0.002678,0.000431,0.161719
6636000,0.0324,0.013523,0.002678,0.000431,0.193804
6637000,0.0324,0.013523,0.002678,0.000431,0.285123
6638000,0.0324,0.013523,0.002678,0.000431,0.383377
6639000,0.0324,0.013523,0.002678,0.000431,0.157135
6640000,0.0324,0.013523,0.002678,0.000431,0.187105
6641000,0.0324,0.013523,0.002678,0.000431,0.146088
6642000,0.0324,0.013523,0.002678,0.000431,0.153139
6643000,0.0324,0.013523,0.002678,0.000431,0.168300
6644000,0.0324,0.013523,0.002678,0.000431,0.136450
6645000,0.0324,0.013523,0.002678,0.000431,0.139271
6646000,0.0324,0.013523,0.002678,0.000431,0.080977
6647000,0.0324,0.013523,0.002678,0.000431,0.167008
6648000,0.0324,0.013523,0.002678,0.000431,0.120466
6649000,0.0324,0.013523,0.002678,0.000431,0.193922
6650000,0.0324,0.013523,0.002678,0.000431,0.186635
6651000,0.0324,0.013523,0.002678,0.000431,0.321440
6652000,0.0324,0.013523,0.002678,0.000431,0.242696
6653000,0.0324,0.013523,0.002678,0.000431,0.106481
6654000,0.0324,0.013523,0.002678,0.000431,0.185459
6655000,0.0324,0.013523,0.002678,0.000431,0.070634
6656000,0.0324,0.013523,0.002678,0.000431,0.077569
6657000,0.0324,0.013523,0.002678,0.000431,0.195332
6658000,0.0324,0.013523,0.002678,0.000431,0.148908
6659000,0.0324,0.013523,0.002678,0.000431,0.116470
6660000,0.0324,0.013523,0.002678,0.000431,0.165715
6661000,0.0324,0.013523,0.002678,0.000431,0.182286
6662000,0.0324,0.013523,0.002678,0.000431,0.176762
6663000,0.0324,0.013523,0.002678,0.000431,0.247162
6664000,0.0324,0.013523,0.002678,0.000431,0.314035
6665000,0.0324,0.013523,0.002678,0.000431,0.117881
6666000,0.0324,0.013523,0.002678,0.000431,0.105305
6667000,0.0324,0.013523,0.002678,0.000431,0.160543
6668000,0.0324,0.013523,0.002678,0.000431,0.044778
6669000,0.0324,0.013523,0.002678,0.000431,0.259620
6670000,0.0324,0.013523,0.002678,0.000431,0.177232
6671000,0.0324,0.013523,0.002678,0.000431,0.069577
6672000,0.0324,0.013523,0.002678,0.000431,0.133159
6673000,0.0324,0.013523,0.002678,0.000431,0.197682
6674000,0.0324,0.013523,0.002678,0.000431,0.142562
6675000,0.0324,0.013523,0.002678,0.000431,0.128576
6676000,0.0324,0.013523,0.002678,0.000431,0.161484
6677000,0.0324,0.013523,0.002678,0.000431,0.157018
6678000,0.0324,0.013523,0.002678,0.000431,0.059939
6679000,0.0324,0.013523,0.002678,0.000431,0.163012
6680000,0.0324,0.013523,0.002678,0.000431,0.136568
6681000,0.0324,0.013523,0.002678,0.000431,0.084620
6682000,0.0324,0.013523,0.002678,0.000431,0.262088
6683000,0.0324,0.013523,0.002678,0.000431,0.214724
6684000,0.0324,0.013523,0.002678,0.000431,0.095785
6685000,0.0324,0.013523,0.002678,0.000431,0.076981
6686000,0.0324,0.013523,0.002678,0.000431,0.086971
6687000,0.0324,0.013523,0.002678,0.000431,0.113180
6688000,0.0324,0.013523,0.002678,0.000431,0.121877
6689000,0.0324,0.013523,0.002678,0.000431,0.244929
6690000,0.0324,0.013523,0.002678,0.000431,0.327551
6691000,0.0324,0.013523,0.002678,0.000431,0.183697
6692000,0.0324,0.013523,0.002678,0.000431,0.120819
6693000,0.0324,0.013523,0.002678,0.000431,0.069459
6694000,0.0324,0.013523,0.002678,0.000431,0.195097
6695000,0.0324,0.013523,0.002678,0.000431,0.192746
6696000,0.0324,0.013523,0.002678,0.000431,0.171474
6697000,0.0324,0.013523,0.002678,0.000431,0.220953
6698000,0.0324,0.013523,0.002678,0.000431,0.138331
6699000,0.0324,0.013523,0.002678,0.000431,0.051712
6700000,0.0324,0.013523,0.002678,0.000431,0.080154
6701000,0.0324,0.013523,0.002678,0.000431,0.147733
6702000,0.0324,0.013523,0.002678,0.000431,0.254331
6703000,0.0324,0.013523,0.002678,0.000431,0.098136
6704000,0.0324,0.013523,0.002678,0.000431,0.055121
6705000,0.0324,0.013523,0.002678,0.000431,0.116118
6706000,0.0324,0.013523,0.002678,0.000431,0.078626
6707000,0.0324,0.013523,0.002678,0.000431,0.128458
6708000,0.0324,0.013523,0.002678,0.000431,0.228240
6709000,0.0324,0.013523,0.002678,0.000431,0.220953
6710000,0.0324,0.013523,0.002678,0.000431,0.390664
6711000,0.0324,0.013523,0.002678,0.000431,0.105775
6712000,0.0324,0.013523,0.002678,0.000431,0.102955
6713000,0.0324,0.013523,0.002678,0.000431,0.080507
6714000,0.0324,0.013523,0.002678,0.000431,0.135510
6715000,0.0324,0.013523,0.002678,0.000431,0.220013
6716000,0.0324,0.013523,0.002678,0.000431,0.129281
6717000,0.0324,0.013523,0.002678,0.000431,0.241873
6718000,0.0324,0.013523,0.002678,0.000431,0.110476
6719000,0.0324,0.013523,0.002678,0.000431,0.140681
6720000,0.0324,0.013523,0.002678,0.000431,0.249042
6721000,0.0324,0.013523,0.002678,0.000431,0.257152
6722000,0.0324,0.013523,0.002678,0.000431,0.109654
6723000,0.0324,0.013523,0.002678,0.000431,0.104012
6724000,0.0324,0.013523,0.002678,0.000431,0.136098
6725000,0.0324,0.013523,0.002678,0.000431,0.300049
6726000,0.0324,0.013523,0.002678,0.000431,0.111182
6727000,0.0324,0.013523,0.002678,0.000431,0.316386
6728000,0.0324,0.013523,0.002678,0.000431,0.300755
6729000,0.0324,0.013523,0.002678,0.000431,0.151024
6730000,0.0324,0.013523,0.002678,0.000431,0.153844
6731000,0.0324,0.013523,0.002678,0.000431,0.061115
6732000,0.0324,0.013523,0.002678,0.000431,0.053593
6733000,0.0324,0.013523,0.002678,0.000431,0.143972
6734000,0.0324,0.013523,0.002678,0.000431,0.079096
6735000,0.0324,0.013523,0.002678,0.000431,0.095668
6736000,0.0324,0.013523,0.002678,0.000431,0.146675
6737000,0.0324,0.013523,0.002678,0.000431,0.180288
6738000,0.0324,0.013523,0.002678,0.000431,0.095433
6739000,0.0324,0.013523,0.002678,0.000431,0.061937
6740000,0.0324,0.013523,0.002678,0.000431,0.165362
6741000,0.0324,0.013523,0.002678,0.000431,0.336366
6742000,0.0324,0.013523,0.002678,0.000431,0.336601
6743000,0.0324,0.013523,0.002678,0.000431,0.154432
6744000,0.0324,0.013523,0.002678,0.000431,0.042663
6745000,0.0324,0.013523,0.002678,0.000431,0.057119
6746000,0.0324,0.013523,0.002678,0.000431,0.101309
6747000,0.0324,0.013523,0.002678,0.000431,0.264086
6748000,0.0324,0.013523,0.002678,0.000431,0.147498
6749000,0.0324,0.013523,0.002678,0.000431,0.316268
6750000,0.0324,0.013523,0.002678,0.000431,0.074630
6751000,0.0324,0.013523,0.002678,0.000431,0.089792
6752000,0.0324,0.013523,0.002678,0.000431,0.179230
6753000,0.0324,0.013523,0.002678,0.000431,0.165715
6754000,0.0324,0.013523,0.002678,0.000431,0.284653
6755000,0.0324,0.013523,0.002678,0.000431,0.165127
6756000,0.0324,0.013523,0.002678,0.000431,0.092025
6757000,0.0324,0.013523,0.002678,0.000431,0.151611
6758000,0.0324,0.013523,0.002678,0.000431,0.050302
6759000,0.0324,0.013523,0.002678,0.000431,0.114355
6760000,0.0324,0.013523,0.002678,0.000431,0.235762
6761000,0.0324,0.013523,0.002678,0.000431,0.169241
6762000,0.0324,0.013523,0.002678,0.000431,0.099076
6763000,0.0324,0.013523,0.002678,0.000431,0.078861
6764000,0.0324,0.013523,0.002678,0.000431,0.078274
6765000,0.0324,0.013523,0.002678,0.000431,0.130926
6766000,0.0324,0.013523,0.002678,0.000431,0.113650
6767000,0.0324,0.013523,0.002678,0.000431,0.225889
6768000,0.0324,0.013523,0.002678,0.000431,0.100722
6769000,0.0324,0.013523,0.002678,0.000431,0.074630
6770000,0.0324,0.013523,0.002678,0.000431,0.178995
6771000,0.0324,0.013523,0.002678,0.000431,0.041840
6772000,0.0324,0.013523,0.002678,0.000431,0.098136
6773000,0.0324,0.013523,0.002678,0.000431,0.164069
6774000,0.0324,0.013523,0.002678,0.000431,0.300520
6775000,0.0324,0.013523,0.002678,0.000431,0.103777
6776000,0.0324,0.013523,0.002678,0.000431,0.114120
6777000,0.0324,0.013523,0.002678,0.000431,0.106598
6778000,0.0324,0.013523,0.002678,0.000431,0.136685
6779000,0.0324,0.013523,0.002678,0.000431,0.207790
6780000,0.0324,0.013523,0.002678,0.000431,0.147145
6781000,0.0324,0.013523,0.002678,0.000431,0.236349
6782000,0.0324,0.013523,0.002678,0.000431,0.172766
6783000,0.0324,0.013523,0.002678,0.000431,0.079567
6784000,0.0324,0.013523,0.002678,0.000431,0.109301
6785000,0.0324,0.013523,0.002678,0.000431,0.191688
6786000,0.0324,0.013523,0.002678,0.000431,0.103777
6787000,0.0324,0.013523,0.002678,0.000431,0.364102
6788000,0.0324,0.013523,0.002678,0.000431,0.135392
6789000,0.0324,0.013523,0.002678,0.000431,0.157723
6790000,0.0324,0.013523,0.002678,0.000431,0.127165
6791000,0.0324,0.013523,0.002678,0.000431,0.131044
6792000,0.0324,0.013523,0.002678,0.000431,0.325906
6793000,0.0324,0.013523,0.002678,0.000431,0.248220
6794000,0.0324,0.013523,0.002678,0.000431,0.185577
6795000,0.0324,0.013523,0.002678,0.000431,0.057471
6796000,0.0324,0.013523,0.002678,0.000431,0.139153
6797000,0.0324,0.013523,0.002678,0.000431,0.171591
6798000,0.0324,0.013523,0.002678,0.000431,0.171356
6799000,0.0324,0.013523,0.002678,0.000431,0.263263
6800000,0.0324,0.013523,0.002678,0.000431,0.121172
6801000,0.0324,0.013523,0.002678,0.000431,0.073573
6802000,0.0324,0.013523,0.002678,0.000431,0.101192
6803000,0.0324,0.013523,0.002678,0.000431,0.191336
6804000,0.0324,0.013523,0.002678,0.000431,0.099076
6805000,0.0324,0.013523,0.002678,0.000431,0.165127
6806000,0.0324,0.013523,0.002678,0.000431,0.230238
6807000,0.0324,0.013523,0.002678,0.000431,0.169006
6808000,0.0324,0.013523,0.002678,0.000431,0.117998
6809000,0.0324,0.013523,0.002678,0.000431,0.058059
6810000,0.0324,0.013523,0.002678,0.000431,0.100957
6811000,0.0324,0.013523,0.002678,0.000431,0.207555
6812000,0.0324,0.013523,0.002678,0.000431,0.307454
6813000,0.0324,0.013523,0.002678,0.000431,0.208613
6814000,0.0324,0.013523,0.002678,0.000431,0.147968
6815000,0.0324,0.013523,0.002678,0.000431,0.035141
6816000,0.0324,0.013523,0.002678,0.000431,0.075218
6817000,0.0324,0.013523,0.002678,0.000431,0.085325
6818000,0.0324,0.013523,0.002678,0.000431,0.191218
6819000,0.0324,0.013523,0.002678,0.000431,0.241050
6820000,0.0324,0.013523,0.002678,0.000431,0.308159
6821000,0.0324,0.013523,0.002678,0.000431,0.100369
6822000,0.0324,0.013523,0.002678,0.000431,0.072162
6823000,0.0324,0.013523,0.002678,0.000431,0.051007
6824000,0.0324,0.013523,0.002678,0.000431,0.318501
6825000,0.0324,0.013523,0.002678,0.000431,0.262088
6826000,0.0324,0.013523,0.002678,0.000431,0.247984
6827000,0.0324,0.013523,0.002678,0.000431,0.138213
6828000,0.0324,0.013523,0.002678,0.000431,0.057824
6829000,0.0324,0.013523,0.002678,0.000431,0.067579
6830000,0.0324,0.013523,0.002678,0.000431,0.081094
6831000,0.0324,0.013523,0.002678,0.000431,0.198975
6832000,0.0324,0.013523,0.002678,0.000431,0.284418
6833000,0.0324,0.013523,0.002678,0.000431,0.194039
6834000,0.0324,0.013523,0.002678,0.000431,0.109419
6835000,0.0324,0.013523,0.002678,0.000431,0.062172
6836000,0.0324,0.013523,0.002678,0.000431,0.050185
6837000,0.0324,0.013523,0.002678,0.000431,0.273488
6838000,0.0324,0.013523,0.002678,0.000431,0.173237
6839000,0.0324,0.013523,0.002678,0.000431,0.292880
6840000,0.0324,0.013523,0.002678,0.000431,0.176175
6841000,0.0324,0.013523,0.002678,0.000431,0.110241
6842000,0.0324,0.013523,0.002678,0.000431,0.069107
6843000,0.0324,0.013523,0.002678,0.000431,0.069224
6844000,0.0324,0.013523,0.002678,0.000431,0.227300
6845000,0.0324,0.013523,0.002678,0.000431,0.295348
6846000,0.0324,0.013523,0.002678,0.000431,0.186870
6847000,0.0324,0.013523,0.002678,0.000431,0.083798
6848000,0.0324,0.013523,0.002678,0.000431,0.049949
6849000,0.0324,0.013523,0.002678,0.000431,0.168300
6850000,0.0324,0.013523,0.002678,0.000431,0.353642
6851000,0.0324,0.013523,0.002678,0.000431,0.209670
6852000,0.0324,0.013523,0.002678,0.000431,0.092612
6853000,0.0324,0.013523,0.002678,0.000431,0.050185
6854000,0.0324,0.013523,0.002678,0.000431,0.042663
6855000,0.0324,0.013523,0.002678,0.000431,0.080154
6856000,0.0324,0.013523,0.002678,0.000431,0.129281
6857000,0.0324,0.013523,0.002678,0.000431,0.351879
6858000,0.0324,0.013523,0.002678,0.000431,0.229533
6859000,0.0324,0.013523,0.002678,0.000431,0.226829
6860000,0.0324,0.013523,0.002678,0.000431,0.050537
6861000,0.0324,0.013523,0.002678,0.000431,0.038784
6862000,0.0324,0.013523,0.002678,0.000431,0.053475
6863000,0.0324,0.013523,0.002678,0.000431,0.132924
6864000,0.0324,0.013523,0.002678,0.000431,0.203559
6865000,0.0324,0.013523,0.002678,0.000431,0.107656
6866000,0.0324,0.013523,0.002678,0.000431,0.064876
6867000,0.0324,0.013523,0.002678,0.000431,0.095198
6868000,0.0324,0.013523,0.002678,0.000431,0.095433
6869000,0.0324,0.013523,0.002678,0.000431,0.085090
6870000,0.0324,0.013523,0.002678,0.000431,0.152669
6871000,0.0324,0.013523,0.002678,0.000431,0.334720
6872000,0.0324,0.013523,0.002678,0.000431,0.139271
6873000,0.0324,0.013523,0.002678,0.000431,0.161131
6874000,0.0324,0.013523,0.002678,0.000431,0.148791
6875000,0.0324,0.013523,0.002678,0.000431,0.156195
6876000,0.0324,0.013523,0.002678,0.000431,0.095903
6877000,0.0324,0.013523,0.002678,0.000431,0.117998
6878000,0.0324,0.013523,0.002678,0.000431,0.072515
6879000,0.0324,0.013523,0.002678,0.000431,0.042428
6880000,0.0324,0.013523,0.002678,0.000431,0.170886
6881000,0.0324,0.013523,0.002678,0.000431,0.147615
6882000,0.0324,0.013523,0.002678,0.000431,0.163599
6883000,0.0324,0.013523,0.002678,0.000431,0.253156
6884000,0.0324,0.013523,0.002678,0.000431,0.423572
6885000,0.0324,0.013523,0.002678,0.000431,0.247044
6886000,0.0324,0.013523,0.002678,0.000431,0.155725
6887000,0.0324,0.013523,0.002678,0.000431,0.249512
6888000,0.0324,0.013523,0.002678,0.000431,0.091437
6889000,0.0324,0.013523,0.002678,0.000431,0.277837
6890000,0.0324,0.013523,0.002678,0.000431,0.208260
6891000,0.0324,0.013523,0.002678,0.000431,0.137038
6892000,0.0324,0.013523,0.002678,0.000431,0.057824
6893000,0.0324,0.013523,0.002678,0.000431,0.164775
6894000,0.0324,0.013523,0.002678,0.000431,0.101544
6895000,0.0324,0.013523,0.002678,0.000431,0.267142
6896000,0.0324,0.013523,0.002678,0.000431,0.337541
6897000,0.0324,0.013523,0.002678,0.000431,0.226242
6898000,0.0324,0.013523,0.002678,0.000431,0.069577
6899000,0.0324,0.013523,0.002678,0.000431,0.087911
6900000,0.0324,0.013523,0.002678,0.000431,0.089321
6901000,0.0324,0.013523,0.002678,0.000431,0.070282
6902000,0.0324,0.013523,0.002678,0.000431,0.216487
6903000,0.0324,0.013523,0.002678,0.000431,0.262911
6904000,0.0324,0.013523,0.002678,0.000431,0.251040
6905000,0.0324,0.013523,0.002678,0.000431,0.050185
6906000,0.0324,0.013523,0.002678,0.000431,0.095315
6907000,0.0324,0.013523,0.002678,0.000431,0.064758
6908000,0.0324,0.013523,0.002678,0.000431,0.206379
6909000,0.0324,0.013523,0.002678,0.000431,0.260207
6910000,0.0324,0.013523,0.002678,0.000431,0.290060
6911000,0.0324,0.013523,0.002678,0.000431,0.220718
6912000,0.0324,0.013523,0.002678,0.000431,0.094493
6913000,0.0324,0.013523,0.002678,0.000431,0.086031
6914000,0.0324,0.013523,0.002678,0.000431,0.190278
6915000,0.0324,0.013523,0.002678,0.000431,0.326728
6916000,0.0324,0.013523,0.002678,0.000431,0.165950
6917000,0.0324,0.013523,0.002678,0.000431,0.431799
6918000,0.0324,0.013523,0.002678,0.000431,0.069694
6919000,0.0324,0.013523,0.002678,0.000431,0.095315
6920000,0.0324,0.013523,0.002678,0.000431,0.118351
6921000,0.0324,0.013523,0.002678,0.000431,0.182874
6922000,0.0324,0.013523,0.002678,0.000431,0.248690
6923000,0.0324,0.013523,0.002678,0.000431,0.240698
6924000,0.0324,0.013523,0.002678,0.000431,0.145382
6925000,0.0324,0.013523,0.002678,0.000431,0.049949
6926000,0.0324,0.013523,0.002678,0.000431,0.058059
6927000,0.0324,0.013523,0.002678,0.000431,0.115883
6928000,0.0324,0.013523,0.002678,0.000431,0.167125
6929000,0.0324,0.013523,0.002678,0.000431,0.172649
6930000,0.0324,0.013523,0.002678,0.000431,0.152904
6931000,0.0324,0.013523,0.002678,0.000431,0.076041
6932000,0.0324,0.013523,0.002678,0.000431,0.053828
6933000,0.0324,0.013523,0.002678,0.000431,0.059469
6934000,0.0324,0.013523,0.002678,0.000431,0.234469
6935000,0.0324,0.013523,0.002678,0.000431,0.141857
6936000,0.0324,0.013523,0.002678,0.000431,0.155490
6937000,0.0324,0.013523,0.002678,0.000431,0.061585
6938000,0.0324,0.013523,0.002678,0.000431,0.046306
6939000,0.0324,0.013523,0.002678,0.000431,0.034906
6940000,0.0324,0.013523,0.002678,0.000431,0.091084
6941000,0.0324,0.013523,0.002678,0.000431,0.229415
6942000,0.0324,0.013523,0.002678,0.000431,0.106481
6943000,0.0324,0.013523,0.002678,0.000431,0.181464
6944000,0.0324,0.013523,0.002678,0.000431,0.095785
6945000,0.0324,0.013523,0.002678,0.000431,0.063583
6946000,0.0324,0.013523,0.002678,0.000431,0.042780
6947000,0.0324,0.013523,0.002678,0.000431,0.183109
6948000,0.0324,0.013523,0.002678,0.000431,0.119409
6949000,0.0324,0.013523,0.002678,0.000431,0.337071
6950000,0.0324,0.013523,0.002678,0.000431,0.082152
6951000,0.0324,0.013523,0.002678,0.000431,0.154079
6952000,0.0324,0.013523,0.002678,0.000431,0.059704
6953000,0.0324,0.013523,0.002678,0.000431,0.119761
6954000,0.0324,0.013523,0.002678,0.000431,0.345180
6955000,0.0324,0.013523,0.002678,0.000431,0.146323
6956000,0.0324,0.013523,0.002678,0.000431,0.076276
6957000,0.0324,0.013523,0.002678,0.000431,0.098959
6958000,0.0324,0.013523,0.002678,0.000431,0.112122
6959000,0.0324,0.013523,0.002678,0.000431,0.257857
6960000,0.0324,0.013523,0.002678,0.000431,0.145500
6961000,0.0324,0.013523,0.002678,0.000431,0.169828
6962000,0.0324,0.013523,0.002678,0.000431,0.194274
6963000,0.0324,0.013523,0.002678,0.000431,0.061585
6964000,0.0324,0.013523,0.002678,0.000431,0.083798
6965000,0.0324,0.013523,0.002678,0.000431,0.038902
6966000,0.0324,0.013523,0.002678,0.000431,0.146088
6967000,0.0324,0.013523,0.002678,0.000431,0.116941
6968000,0.0324,0.013523,0.002678,0.000431,0.130809
6969000,0.0324,0.013523,0.002678,0.000431,0.063583
6970000,0.0324,0.013523,0.002678,0.000431,0.087676
6971000,0.0324,0.013523,0.002678,0.000431,0.186165
6972000,0.0324,0.013523,0.002678,0.000431,0.190748
6973000,0.0324,0.013523,0.002678,0.000431,0.269257
6974000,0.0324,0.013523,0.002678,0.000431,0.254213
6975000,0.0324,0.013523,0.002678,0.000431,0.254919
6976000,0.0324,0.013523,0.002678,0.000431,0.058882
6977000,0.0324,0.013523,0.002678,0.000431,0.183932
6978000,0.0324,0.013523,0.002678,0.000431,0.095433
6979000,0.0324,0.013523,0.002678,0.000431,0.170298
6980000,0.0324,0.013523,0.002678,0.000431,0.139976
6981000,0.0324,0.013523,0.002678,0.000431,0.072867
6982000,0.0324,0.013523,0.002678,0.000431,0.043603
6983000,0.0324,0.013523,0.002678,0.000431,0.199445
6984000,0.0324,0.013523,0.002678,0.000431,0.164539
6985000,0.0324,0.013523,0.002678,0.000431,0.182874
6986000,0.0324,0.013523,0.002678,0.000431,0.237995
6987000,0.0324,0.013523,0.002678,0.000431,0.091554
6988000,0.0324,0.013523,0.002678,0.000431,0.146205
6989000,0.0324,0.013523,0.002678,0.000431,0.062643
6990000,0.0324,0.013523,0.002678,0.000431,0.094140
6991000,0.0324,0.013523,0.002678,0.000431,0.098841
6992000,0.0324,0.013523,0.002678,0.000431,0.116470
6993000,0.0324,0.013523,0.002678,0.000431,0.104130
6994000,0.0324,0.013523,0.002678,0.000431,0.287944
6995000,0.0324,0.013523,0.002678,0.000431,0.053358
6996000,0.0324,0.013523,0.002678,0.000431,0.050067
6997000,0.0324,0.013523,0.002678,0.000431,0.043250
6998000,0.0324,0.013523,0.002678,0.000431,0.087676
6999000,0.0324,0.013523,0.002678,0.000431,0.116588
