Cycle,Area(mm^2),PeakDynamic(W),SubthresholdLeakage(W),GateLeakage(W),RunTimeDynamic(W)
15000000,0.0324,0.013523,0.002678,0.000431,0.004701
15001000,0.0324,0.013523,0.002678,0.000431,0.004701
15002000,0.0324,0.013523,0.002678,0.000431,0.064641
15003000,0.0324,0.013523,0.002678,0.000431,0.004701
15004000,0.0324,0.013523,0.002678,0.000431,0.004701
15005000,0.0324,0.013523,0.002678,0.000431,0.004701
15006000,0.0324,0.013523,0.002678,0.000431,0.004701
15007000,0.0324,0.013523,0.002678,0.000431,0.014221
15008000,0.0324,0.013523,0.002678,0.000431,0.029617
15009000,0.0324,0.013523,0.002678,0.000431,0.023153
15010000,0.0324,0.013523,0.002678,0.000431,0.004701
15011000,0.0324,0.013523,0.002678,0.000431,0.012223
15012000,0.0324,0.013523,0.002678,0.000431,0.004701
15013000,0.0324,0.013523,0.002678,0.000431,0.004701
15014000,0.0324,0.013523,0.002678,0.000431,0.004701
15015000,0.0324,0.013523,0.002678,0.000431,0.045013
15016000,0.0324,0.013523,0.002678,0.000431,0.017042
15017000,0.0324,0.013523,0.002678,0.000431,0.004466
15018000,0.0324,0.013523,0.002678,0.000431,0.004701
15019000,0.0324,0.013523,0.002678,0.000431,0.004701
15020000,0.0324,0.013523,0.002678,0.000431,0.057706
15021000,0.0324,0.013523,0.002678,0.000431,0.019392
15022000,0.0324,0.013523,0.002678,0.000431,0.004701
15023000,0.0324,0.013523,0.002678,0.000431,0.004701
15024000,0.0324,0.013523,0.002678,0.000431,0.027267
15025000,0.0324,0.013523,0.002678,0.000431,0.004701
15026000,0.0324,0.013523,0.002678,0.000431,0.004701
15027000,0.0324,0.013523,0.002678,0.000431,0.004701
15028000,0.0324,0.013523,0.002678,0.000431,0.042310
15029000,0.0324,0.013523,0.002678,0.000431,0.004701
15030000,0.0324,0.013523,0.002678,0.000431,0.035376
15031000,0.0324,0.013523,0.002678,0.000431,0.056531
15032000,0.0324,0.013523,0.002678,0.000431,0.004701
15033000,0.0324,0.013523,0.002678,0.000431,0.104247
15034000,0.0324,0.013523,0.002678,0.000431,0.055591
15035000,0.0324,0.013523,0.002678,0.000431,0.004701
15036000,0.0324,0.013523,0.002678,0.000431,0.004701
15037000,0.0324,0.013523,0.002678,0.000431,0.012223
15038000,0.0324,0.013523,0.002678,0.000431,0.004701
15039000,0.0324,0.013523,0.002678,0.000431,0.004701
15040000,0.0324,0.013523,0.002678,0.000431,0.019745
15041000,0.0324,0.013523,0.002678,0.000431,0.012223
15042000,0.0324,0.013523,0.002678,0.000431,0.004701
15043000,0.0324,0.013523,0.002678,0.000431,0.020450
15044000,0.0324,0.013523,0.002678,0.000431,0.011518
15045000,0.0324,0.013523,0.002678,0.000431,0.004701
15046000,0.0324,0.013523,0.002678,0.000431,0.019275
15047000,0.0324,0.013523,0.002678,0.000431,0.058059
15048000,0.0324,0.013523,0.002678,0.000431,0.004701
15049000,0.0324,0.013523,0.002678,0.000431,0.004701
15050000,0.0324,0.013523,0.002678,0.000431,0.004701
15051000,0.0324,0.013523,0.002678,0.000431,0.004701
15052000,0.0324,0.013523,0.002678,0.000431,0.008227
15053000,0.0324,0.013523,0.002678,0.000431,0.023506
15054000,0.0324,0.013523,0.002678,0.000431,0.004701
15055000,0.0324,0.013523,0.002678,0.000431,0.004701
15056000,0.0324,0.013523,0.002678,0.000431,0.034318
15057000,0.0324,0.013523,0.002678,0.000431,0.005171
15058000,0.0324,0.013523,0.002678,0.000431,0.004701
15059000,0.0324,0.013523,0.002678,0.000431,0.023271
15060000,0.0324,0.013523,0.002678,0.000431,0.008462
15061000,0.0324,0.013523,0.002678,0.000431,0.004701
15062000,0.0324,0.013523,0.002678,0.000431,0.004701
15063000,0.0324,0.013523,0.002678,0.000431,0.087911
15064000,0.0324,0.013523,0.002678,0.000431,0.004701
15065000,0.0324,0.013523,0.002678,0.000431,0.008462
15066000,0.0324,0.013523,0.002678,0.000431,0.098489
15067000,0.0324,0.013523,0.002678,0.000431,0.004936
15068000,0.0324,0.013523,0.002678,0.000431,0.004584
15069000,0.0324,0.013523,0.002678,0.000431,0.012105
15070000,0.0324,0.013523,0.002678,0.000431,0.012223
15071000,0.0324,0.013523,0.002678,0.000431,0.004701
15072000,0.0324,0.013523,0.002678,0.000431,0.027267
15073000,0.0324,0.013523,0.002678,0.000431,0.004701
15074000,0.0324,0.013523,0.002678,0.000431,0.004701
15075000,0.0324,0.013523,0.002678,0.000431,0.020097
15076000,0.0324,0.013523,0.002678,0.000431,0.034671
15077000,0.0324,0.013523,0.002678,0.000431,0.004701
15078000,0.0324,0.013523,0.002678,0.000431,0.004701
15079000,0.0324,0.013523,0.002678,0.000431,0.012223
15080000,0.0324,0.013523,0.002678,0.000431,0.004701
15081000,0.0324,0.013523,0.002678,0.000431,0.004701
15082000,0.0324,0.013523,0.002678,0.000431,0.012223
15083000,0.0324,0.013523,0.002678,0.000431,0.004701
15084000,0.0324,0.013523,0.002678,0.000431,0.013163
15085000,0.0324,0.013523,0.002678,0.000431,0.056178
15086000,0.0324,0.013523,0.002678,0.000431,0.004701
15087000,0.0324,0.013523,0.002678,0.000431,0.026796
15088000,0.0324,0.013523,0.002678,0.000431,0.012693
15089000,0.0324,0.013523,0.002678,0.000431,0.004701
15090000,0.0324,0.013523,0.002678,0.000431,0.004701
15091000,0.0324,0.013523,0.002678,0.000431,0.039254
15092000,0.0324,0.013523,0.002678,0.000431,0.068636
15093000,0.0324,0.013523,0.002678,0.000431,0.004701
15094000,0.0324,0.013523,0.002678,0.000431,0.012223
15095000,0.0324,0.013523,0.002678,0.000431,0.128576
15096000,0.0324,0.013523,0.002678,0.000431,0.008462
15097000,0.0324,0.013523,0.002678,0.000431,0.015984
15098000,0.0324,0.013523,0.002678,0.000431,0.053710
15099000,0.0324,0.013523,0.002678,0.000431,0.004466
15100000,0.0324,0.013523,0.002678,0.000431,0.045718
15101000,0.0324,0.013523,0.002678,0.000431,0.008697
15102000,0.0324,0.013523,0.002678,0.000431,0.012223
15103000,0.0324,0.013523,0.002678,0.000431,0.004701
15104000,0.0324,0.013523,0.002678,0.000431,0.087441
15105000,0.0324,0.013523,0.002678,0.000431,0.004701
15106000,0.0324,0.013523,0.002678,0.000431,0.080154
15107000,0.0324,0.013523,0.002678,0.000431,0.004701
15108000,0.0324,0.013523,0.002678,0.000431,0.004701
15109000,0.0324,0.013523,0.002678,0.000431,0.004701
15110000,0.0324,0.013523,0.002678,0.000431,0.012458
15111000,0.0324,0.013523,0.002678,0.000431,0.049832
15112000,0.0324,0.013523,0.002678,0.000431,0.011988
15113000,0.0324,0.013523,0.002678,0.000431,0.004701
15114000,0.0324,0.013523,0.002678,0.000431,0.004701
15115000,0.0324,0.013523,0.002678,0.000431,0.004701
15116000,0.0324,0.013523,0.002678,0.000431,0.004701
15117000,0.0324,0.013523,0.002678,0.000431,0.012223
15118000,0.0324,0.013523,0.002678,0.000431,0.006347
15119000,0.0324,0.013523,0.002678,0.000431,0.063348
15120000,0.0324,0.013523,0.002678,0.000431,0.027149
15121000,0.0324,0.013523,0.002678,0.000431,0.004584
15122000,0.0324,0.013523,0.002678,0.000431,0.004584
15123000,0.0324,0.013523,0.002678,0.000431,0.004701
15124000,0.0324,0.013523,0.002678,0.000431,0.049832
15125000,0.0324,0.013523,0.002678,0.000431,0.027267
15126000,0.0324,0.013523,0.002678,0.000431,0.004701
15127000,0.0324,0.013523,0.002678,0.000431,0.004701
15128000,0.0324,0.013523,0.002678,0.000431,0.004701
15129000,0.0324,0.013523,0.002678,0.000431,0.004701
15130000,0.0324,0.013523,0.002678,0.000431,0.057589
15131000,0.0324,0.013523,0.002678,0.000431,0.021273
15132000,0.0324,0.013523,0.002678,0.000431,0.040782
15133000,0.0324,0.013523,0.002678,0.000431,0.004701
15134000,0.0324,0.013523,0.002678,0.000431,0.087206
15135000,0.0324,0.013523,0.002678,0.000431,0.004701
15136000,0.0324,0.013523,0.002678,0.000431,0.013281
15137000,0.0324,0.013523,0.002678,0.000431,0.071340
15138000,0.0324,0.013523,0.002678,0.000431,0.110241
15139000,0.0324,0.013523,0.002678,0.000431,0.004584
15140000,0.0324,0.013523,0.002678,0.000431,0.004584
15141000,0.0324,0.013523,0.002678,0.000431,0.004584
15142000,0.0324,0.013523,0.002678,0.000431,0.025621
15143000,0.0324,0.013523,0.002678,0.000431,0.044073
15144000,0.0324,0.013523,0.002678,0.000431,0.012223
15145000,0.0324,0.013523,0.002678,0.000431,0.004701
15146000,0.0324,0.013523,0.002678,0.000431,0.004701
15147000,0.0324,0.013523,0.002678,0.000431,0.004701
15148000,0.0324,0.013523,0.002678,0.000431,0.032908
15149000,0.0324,0.013523,0.002678,0.000431,0.076393
15150000,0.0324,0.013523,0.002678,0.000431,0.025151
15151000,0.0324,0.013523,0.002678,0.000431,0.004701
15152000,0.0324,0.013523,0.002678,0.000431,0.004701
15153000,0.0324,0.013523,0.002678,0.000431,0.004701
15154000,0.0324,0.013523,0.002678,0.000431,0.004701
15155000,0.0324,0.013523,0.002678,0.000431,0.097666
15156000,0.0324,0.013523,0.002678,0.000431,0.043603
15157000,0.0324,0.013523,0.002678,0.000431,0.012223
15158000,0.0324,0.013523,0.002678,0.000431,0.008462
15159000,0.0324,0.013523,0.002678,0.000431,0.004701
15160000,0.0324,0.013523,0.002678,0.000431,0.004701
15161000,0.0324,0.013523,0.002678,0.000431,0.004584
15162000,0.0324,0.013523,0.002678,0.000431,0.004584
15163000,0.0324,0.013523,0.002678,0.000431,0.004701
15164000,0.0324,0.013523,0.002678,0.000431,0.004701
15165000,0.0324,0.013523,0.002678,0.000431,0.004701
15166000,0.0324,0.013523,0.002678,0.000431,0.004701
15167000,0.0324,0.013523,0.002678,0.000431,0.004701
15168000,0.0324,0.013523,0.002678,0.000431,0.027267
15169000,0.0324,0.013523,0.002678,0.000431,0.019745
15170000,0.0324,0.013523,0.002678,0.000431,0.004701
15171000,0.0324,0.013523,0.002678,0.000431,0.019745
15172000,0.0324,0.013523,0.002678,0.000431,0.042310
15173000,0.0324,0.013523,0.002678,0.000431,0.004701
15174000,0.0324,0.013523,0.002678,0.000431,0.012223
15175000,0.0324,0.013523,0.002678,0.000431,0.004701
15176000,0.0324,0.013523,0.002678,0.000431,0.027267
15177000,0.0324,0.013523,0.002678,0.000431,0.004701
15178000,0.0324,0.013523,0.002678,0.000431,0.019745
15179000,0.0324,0.013523,0.002678,0.000431,0.004349
15180000,0.0324,0.013523,0.002678,0.000431,0.004584
15181000,0.0324,0.013523,0.002678,0.000431,0.004701
15182000,0.0324,0.013523,0.002678,0.000431,0.012223
15183000,0.0324,0.013523,0.002678,0.000431,0.072397
15184000,0.0324,0.013523,0.002678,0.000431,0.006111
15185000,0.0324,0.013523,0.002678,0.000431,0.018334
15186000,0.0324,0.013523,0.002678,0.000431,0.004701
15187000,0.0324,0.013523,0.002678,0.000431,0.004701
15188000,0.0324,0.013523,0.002678,0.000431,0.082857
15189000,0.0324,0.013523,0.002678,0.000431,0.039372
15190000,0.0324,0.013523,0.002678,0.000431,0.057354
15191000,0.0324,0.013523,0.002678,0.000431,0.012223
15192000,0.0324,0.013523,0.002678,0.000431,0.012223
15193000,0.0324,0.013523,0.002678,0.000431,0.031733
15194000,0.0324,0.013523,0.002678,0.000431,0.067696
15195000,0.0324,0.013523,0.002678,0.000431,0.004701
15196000,0.0324,0.013523,0.002678,0.000431,0.019745
15197000,0.0324,0.013523,0.002678,0.000431,0.019745
15198000,0.0324,0.013523,0.002678,0.000431,0.004701
15199000,0.0324,0.013523,0.002678,0.000431,0.005759
15200000,0.0324,0.013523,0.002678,0.000431,0.018687
15201000,0.0324,0.013523,0.002678,0.000431,0.049832
15202000,0.0324,0.013523,0.002678,0.000431,0.015749
15203000,0.0324,0.013523,0.002678,0.000431,0.023506
15204000,0.0324,0.013523,0.002678,0.000431,0.114590
15205000,0.0324,0.013523,0.002678,0.000431,0.008109
15206000,0.0324,0.013523,0.002678,0.000431,0.004701
15207000,0.0324,0.013523,0.002678,0.000431,0.004701
15208000,0.0324,0.013523,0.002678,0.000431,0.004701
15209000,0.0324,0.013523,0.002678,0.000431,0.089204
15210000,0.0324,0.013523,0.002678,0.000431,0.085443
15211000,0.0324,0.013523,0.002678,0.000431,0.004466
15212000,0.0324,0.013523,0.002678,0.000431,0.004701
15213000,0.0324,0.013523,0.002678,0.000431,0.004701
15214000,0.0324,0.013523,0.002678,0.000431,0.034788
15215000,0.0324,0.013523,0.002678,0.000431,0.006464
15216000,0.0324,0.013523,0.002678,0.000431,0.053240
15217000,0.0324,0.013523,0.002678,0.000431,0.052653
15218000,0.0324,0.013523,0.002678,0.000431,0.004701
15219000,0.0324,0.013523,0.002678,0.000431,0.004584
15220000,0.0324,0.013523,0.002678,0.000431,0.057236
15221000,0.0324,0.013523,0.002678,0.000431,0.004701
15222000,0.0324,0.013523,0.002678,0.000431,0.019745
15223000,0.0324,0.013523,0.002678,0.000431,0.050067
15224000,0.0324,0.013523,0.002678,0.000431,0.004701
15225000,0.0324,0.013523,0.002678,0.000431,0.004701
15226000,0.0324,0.013523,0.002678,0.000431,0.027267
15227000,0.0324,0.013523,0.002678,0.000431,0.004701
15228000,0.0324,0.013523,0.002678,0.000431,0.021625
15229000,0.0324,0.013523,0.002678,0.000431,0.055708
15230000,0.0324,0.013523,0.002678,0.000431,0.031027
15231000,0.0324,0.013523,0.002678,0.000431,0.008462
15232000,0.0324,0.013523,0.002678,0.000431,0.012223
15233000,0.0324,0.013523,0.002678,0.000431,0.012223
15234000,0.0324,0.013523,0.002678,0.000431,0.004584
15235000,0.0324,0.013523,0.002678,0.000431,0.004584
15236000,0.0324,0.013523,0.002678,0.000431,0.004701
15237000,0.0324,0.013523,0.002678,0.000431,0.064876
15238000,0.0324,0.013523,0.002678,0.000431,0.004701
15239000,0.0324,0.013523,0.002678,0.000431,0.019745
15240000,0.0324,0.013523,0.002678,0.000431,0.034788
15241000,0.0324,0.013523,0.002678,0.000431,0.018099
15242000,0.0324,0.013523,0.002678,0.000431,0.081565
15243000,0.0324,0.013523,0.002678,0.000431,0.035258
15244000,0.0324,0.013523,0.002678,0.000431,0.004701
15245000,0.0324,0.013523,0.002678,0.000431,0.040312
15246000,0.0324,0.013523,0.002678,0.000431,0.044308
15247000,0.0324,0.013523,0.002678,0.000431,0.027267
15248000,0.0324,0.013523,0.002678,0.000431,0.004701
15249000,0.0324,0.013523,0.002678,0.000431,0.019745
15250000,0.0324,0.013523,0.002678,0.000431,0.004701
15251000,0.0324,0.013523,0.002678,0.000431,0.004584
15252000,0.0324,0.013523,0.002678,0.000431,0.034671
15253000,0.0324,0.013523,0.002678,0.000431,0.004701
15254000,0.0324,0.013523,0.002678,0.000431,0.004466
15255000,0.0324,0.013523,0.002678,0.000431,0.042310
15256000,0.0324,0.013523,0.002678,0.000431,0.042310
15257000,0.0324,0.013523,0.002678,0.000431,0.004701
15258000,0.0324,0.013523,0.002678,0.000431,0.004584
15259000,0.0324,0.013523,0.002678,0.000431,0.004584
15260000,0.0324,0.013523,0.002678,0.000431,0.004701
15261000,0.0324,0.013523,0.002678,0.000431,0.017159
15262000,0.0324,0.013523,0.002678,0.000431,0.090027
15263000,0.0324,0.013523,0.002678,0.000431,0.079919
15264000,0.0324,0.013523,0.002678,0.000431,0.004701
15265000,0.0324,0.013523,0.002678,0.000431,0.004701
15266000,0.0324,0.013523,0.002678,0.000431,0.004701
15267000,0.0324,0.013523,0.002678,0.000431,0.004701
15268000,0.0324,0.013523,0.002678,0.000431,0.049127
15269000,0.0324,0.013523,0.002678,0.000431,0.028207
15270000,0.0324,0.013523,0.002678,0.000431,0.004701
15271000,0.0324,0.013523,0.002678,0.000431,0.004701
15272000,0.0324,0.013523,0.002678,0.000431,0.004701
15273000,0.0324,0.013523,0.002678,0.000431,0.004701
15274000,0.0324,0.013523,0.002678,0.000431,0.005876
15275000,0.0324,0.013523,0.002678,0.000431,0.069224
15276000,0.0324,0.013523,0.002678,0.000431,0.029265
15277000,0.0324,0.013523,0.002678,0.000431,0.004466
15278000,0.0324,0.013523,0.002678,0.000431,0.027267
15279000,0.0324,0.013523,0.002678,0.000431,0.004701
15280000,0.0324,0.013523,0.002678,0.000431,0.004701
15281000,0.0324,0.013523,0.002678,0.000431,0.004701
15282000,0.0324,0.013523,0.002678,0.000431,0.019745
15283000,0.0324,0.013523,0.002678,0.000431,0.004701
15284000,0.0324,0.013523,0.002678,0.000431,0.080624
15285000,0.0324,0.013523,0.002678,0.000431,0.026326
15286000,0.0324,0.013523,0.002678,0.000431,0.004701
15287000,0.0324,0.013523,0.002678,0.000431,0.004701
15288000,0.0324,0.013523,0.002678,0.000431,0.004701
15289000,0.0324,0.013523,0.002678,0.000431,0.004701
15290000,0.0324,0.013523,0.002678,0.000431,0.006699
15291000,0.0324,0.013523,0.002678,0.000431,0.180171
15292000,0.0324,0.013523,0.002678,0.000431,0.007992
15293000,0.0324,0.013523,0.002678,0.000431,0.004701
15294000,0.0324,0.013523,0.002678,0.000431,0.034553
15295000,0.0324,0.013523,0.002678,0.000431,0.012223
15296000,0.0324,0.013523,0.002678,0.000431,0.004701
15297000,0.0324,0.013523,0.002678,0.000431,0.004936
15298000,0.0324,0.013523,0.002678,0.000431,0.012223
15299000,0.0324,0.013523,0.002678,0.000431,0.004466
15300000,0.0324,0.013523,0.002678,0.000431,0.004701
15301000,0.0324,0.013523,0.002678,0.000431,0.012223
15302000,0.0324,0.013523,0.002678,0.000431,0.004701
15303000,0.0324,0.013523,0.002678,0.000431,0.004701
15304000,0.0324,0.013523,0.002678,0.000431,0.049832
15305000,0.0324,0.013523,0.002678,0.000431,0.004701
15306000,0.0324,0.013523,0.002678,0.000431,0.004701
15307000,0.0324,0.013523,0.002678,0.000431,0.020215
15308000,0.0324,0.013523,0.002678,0.000431,0.072515
15309000,0.0324,0.013523,0.002678,0.000431,0.038902
15310000,0.0324,0.013523,0.002678,0.000431,0.046071
15311000,0.0324,0.013523,0.002678,0.000431,0.012223
15312000,0.0324,0.013523,0.002678,0.000431,0.004701
15313000,0.0324,0.013523,0.002678,0.000431,0.019745
15314000,0.0324,0.013523,0.002678,0.000431,0.004466
15315000,0.0324,0.013523,0.002678,0.000431,0.012223
15316000,0.0324,0.013523,0.002678,0.000431,0.012223
15317000,0.0324,0.013523,0.002678,0.000431,0.035141
15318000,0.0324,0.013523,0.002678,0.000431,0.004584
15319000,0.0324,0.013523,0.002678,0.000431,0.012223
15320000,0.0324,0.013523,0.002678,0.000431,0.019157
15321000,0.0324,0.013523,0.002678,0.000431,0.020332
15322000,0.0324,0.013523,0.002678,0.000431,0.019745
15323000,0.0324,0.013523,0.002678,0.000431,0.220953
15324000,0.0324,0.013523,0.002678,0.000431,0.081565
15325000,0.0324,0.013523,0.002678,0.000431,0.004701
15326000,0.0324,0.013523,0.002678,0.000431,0.019745
15327000,0.0324,0.013523,0.002678,0.000431,0.004701
15328000,0.0324,0.013523,0.002678,0.000431,0.004701
15329000,0.0324,0.013523,0.002678,0.000431,0.051712
15330000,0.0324,0.013523,0.002678,0.000431,0.078039
15331000,0.0324,0.013523,0.002678,0.000431,0.004701
15332000,0.0324,0.013523,0.002678,0.000431,0.034788
15333000,0.0324,0.013523,0.002678,0.000431,0.004701
15334000,0.0324,0.013523,0.002678,0.000431,0.027267
15335000,0.0324,0.013523,0.002678,0.000431,0.012223
15336000,0.0324,0.013523,0.002678,0.000431,0.004701
15337000,0.0324,0.013523,0.002678,0.000431,0.004701
15338000,0.0324,0.013523,0.002678,0.000431,0.004701
15339000,0.0324,0.013523,0.002678,0.000431,0.027267
15340000,0.0324,0.013523,0.002678,0.000431,0.004701
15341000,0.0324,0.013523,0.002678,0.000431,0.017042
15342000,0.0324,0.013523,0.002678,0.000431,0.046894
15343000,0.0324,0.013523,0.002678,0.000431,0.025856
15344000,0.0324,0.013523,0.002678,0.000431,0.004701
15345000,0.0324,0.013523,0.002678,0.000431,0.004701
15346000,0.0324,0.013523,0.002678,0.000431,0.034553
15347000,0.0324,0.013523,0.002678,0.000431,0.008462
15348000,0.0324,0.013523,0.002678,0.000431,0.095198
15349000,0.0324,0.013523,0.002678,0.000431,0.046071
15350000,0.0324,0.013523,0.002678,0.000431,0.004701
15351000,0.0324,0.013523,0.002678,0.000431,0.004701
15352000,0.0324,0.013523,0.002678,0.000431,0.049832
15353000,0.0324,0.013523,0.002678,0.000431,0.004701
15354000,0.0324,0.013523,0.002678,0.000431,0.057354
15355000,0.0324,0.013523,0.002678,0.000431,0.034788
15356000,0.0324,0.013523,0.002678,0.000431,0.004584
15357000,0.0324,0.013523,0.002678,0.000431,0.004584
15358000,0.0324,0.013523,0.002678,0.000431,0.004466
15359000,0.0324,0.013523,0.002678,0.000431,0.004701
15360000,0.0324,0.013523,0.002678,0.000431,0.013516
15361000,0.0324,0.013523,0.002678,0.000431,0.033496
15362000,0.0324,0.013523,0.002678,0.000431,0.004701
15363000,0.0324,0.013523,0.002678,0.000431,0.004466
15364000,0.0324,0.013523,0.002678,0.000431,0.004701
15365000,0.0324,0.013523,0.002678,0.000431,0.012223
15366000,0.0324,0.013523,0.002678,0.000431,0.004701
15367000,0.0324,0.013523,0.002678,0.000431,0.057354
15368000,0.0324,0.013523,0.002678,0.000431,0.004701
15369000,0.0324,0.013523,0.002678,0.000431,0.004701
15370000,0.0324,0.013523,0.002678,0.000431,0.004701
15371000,0.0324,0.013523,0.002678,0.000431,0.004701
15372000,0.0324,0.013523,0.002678,0.000431,0.049832
15373000,0.0324,0.013523,0.002678,0.000431,0.048774
15374000,0.0324,0.013523,0.002678,0.000431,0.072045
15375000,0.0324,0.013523,0.002678,0.000431,0.028677
15376000,0.0324,0.013523,0.002678,0.000431,0.042310
15377000,0.0324,0.013523,0.002678,0.000431,0.004701
15378000,0.0324,0.013523,0.002678,0.000431,0.004701
15379000,0.0324,0.013523,0.002678,0.000431,0.004701
15380000,0.0324,0.013523,0.002678,0.000431,0.004701
15381000,0.0324,0.013523,0.002678,0.000431,0.034788
15382000,0.0324,0.013523,0.002678,0.000431,0.039489
15383000,0.0324,0.013523,0.002678,0.000431,0.015044
15384000,0.0324,0.013523,0.002678,0.000431,0.004701
15385000,0.0324,0.013523,0.002678,0.000431,0.042310
15386000,0.0324,0.013523,0.002678,0.000431,0.004466
15387000,0.0324,0.013523,0.002678,0.000431,0.019745
15388000,0.0324,0.013523,0.002678,0.000431,0.012223
15389000,0.0324,0.013523,0.002678,0.000431,0.027267
15390000,0.0324,0.013523,0.002678,0.000431,0.004701
15391000,0.0324,0.013523,0.002678,0.000431,0.004584
15392000,0.0324,0.013523,0.002678,0.000431,0.012105
15393000,0.0324,0.013523,0.002678,0.000431,0.004701
15394000,0.0324,0.013523,0.002678,0.000431,0.027267
15395000,0.0324,0.013523,0.002678,0.000431,0.057589
15396000,0.0324,0.013523,0.002678,0.000431,0.008462
15397000,0.0324,0.013523,0.002678,0.000431,0.015749
15398000,0.0324,0.013523,0.002678,0.000431,0.042310
15399000,0.0324,0.013523,0.002678,0.000431,0.034788
15400000,0.0324,0.013523,0.002678,0.000431,0.012223
15401000,0.0324,0.013523,0.002678,0.000431,0.004819
15402000,0.0324,0.013523,0.002678,0.000431,0.012340
15403000,0.0324,0.013523,0.002678,0.000431,0.004466
15404000,0.0324,0.013523,0.002678,0.000431,0.015984
15405000,0.0324,0.013523,0.002678,0.000431,0.121289
15406000,0.0324,0.013523,0.002678,0.000431,0.004701
15407000,0.0324,0.013523,0.002678,0.000431,0.004701
15408000,0.0324,0.013523,0.002678,0.000431,0.080977
15409000,0.0324,0.013523,0.002678,0.000431,0.011165
15410000,0.0324,0.013523,0.002678,0.000431,0.004701
15411000,0.0324,0.013523,0.002678,0.000431,0.057354
15412000,0.0324,0.013523,0.002678,0.000431,0.004701
15413000,0.0324,0.013523,0.002678,0.000431,0.042545
15414000,0.0324,0.013523,0.002678,0.000431,0.051360
15415000,0.0324,0.013523,0.002678,0.000431,0.055826
15416000,0.0324,0.013523,0.002678,0.000431,0.004701
15417000,0.0324,0.013523,0.002678,0.000431,0.004701
15418000,0.0324,0.013523,0.002678,0.000431,0.004701
15419000,0.0324,0.013523,0.002678,0.000431,0.029735
15420000,0.0324,0.013523,0.002678,0.000431,0.017042
15421000,0.0324,0.013523,0.002678,0.000431,0.027502
15422000,0.0324,0.013523,0.002678,0.000431,0.012223
15423000,0.0324,0.013523,0.002678,0.000431,0.004701
15424000,0.0324,0.013523,0.002678,0.000431,0.004701
15425000,0.0324,0.013523,0.002678,0.000431,0.004701
15426000,0.0324,0.013523,0.002678,0.000431,0.027267
15427000,0.0324,0.013523,0.002678,0.000431,0.031262
15428000,0.0324,0.013523,0.002678,0.000431,0.023271
15429000,0.0324,0.013523,0.002678,0.000431,0.004701
15430000,0.0324,0.013523,0.002678,0.000431,0.004701
15431000,0.0324,0.013523,0.002678,0.000431,0.004701
15432000,0.0324,0.013523,0.002678,0.000431,0.034553
15433000,0.0324,0.013523,0.002678,0.000431,0.042310
15434000,0.0324,0.013523,0.002678,0.000431,0.102485
15435000,0.0324,0.013523,0.002678,0.000431,0.004701
15436000,0.0324,0.013523,0.002678,0.000431,0.004701
15437000,0.0324,0.013523,0.002678,0.000431,0.004701
15438000,0.0324,0.013523,0.002678,0.000431,0.004701
15439000,0.0324,0.013523,0.002678,0.000431,0.034788
15440000,0.0324,0.013523,0.002678,0.000431,0.012223
15441000,0.0324,0.013523,0.002678,0.000431,0.004701
15442000,0.0324,0.013523,0.002678,0.000431,0.004701
15443000,0.0324,0.013523,0.002678,0.000431,0.004701
15444000,0.0324,0.013523,0.002678,0.000431,0.004701
15445000,0.0324,0.013523,0.002678,0.000431,0.008815
15446000,0.0324,0.013523,0.002678,0.000431,0.015631
15447000,0.0324,0.013523,0.002678,0.000431,0.004701
15448000,0.0324,0.013523,0.002678,0.000431,0.004701
15449000,0.0324,0.013523,0.002678,0.000431,0.012223
15450000,0.0324,0.013523,0.002678,0.000431,0.004466
15451000,0.0324,0.013523,0.002678,0.000431,0.004701
15452000,0.0324,0.013523,0.002678,0.000431,0.042428
15453000,0.0324,0.013523,0.002678,0.000431,0.012105
15454000,0.0324,0.013523,0.002678,0.000431,0.004701
15455000,0.0324,0.013523,0.002678,0.000431,0.008462
15456000,0.0324,0.013523,0.002678,0.000431,0.008462
15457000,0.0324,0.013523,0.002678,0.000431,0.004701
15458000,0.0324,0.013523,0.002678,0.000431,0.117293
15459000,0.0324,0.013523,0.002678,0.000431,0.019510
15460000,0.0324,0.013523,0.002678,0.000431,0.012223
15461000,0.0324,0.013523,0.002678,0.000431,0.004701
15462000,0.0324,0.013523,0.002678,0.000431,0.057354
15463000,0.0324,0.013523,0.002678,0.000431,0.004701
15464000,0.0324,0.013523,0.002678,0.000431,0.004701
15465000,0.0324,0.013523,0.002678,0.000431,0.012340
15466000,0.0324,0.013523,0.002678,0.000431,0.004584
15467000,0.0324,0.013523,0.002678,0.000431,0.004701
15468000,0.0324,0.013523,0.002678,0.000431,0.012340
15469000,0.0324,0.013523,0.002678,0.000431,0.023623
15470000,0.0324,0.013523,0.002678,0.000431,0.008462
15471000,0.0324,0.013523,0.002678,0.000431,0.004701
15472000,0.0324,0.013523,0.002678,0.000431,0.004701
15473000,0.0324,0.013523,0.002678,0.000431,0.057119
15474000,0.0324,0.013523,0.002678,0.000431,0.004701
15475000,0.0324,0.013523,0.002678,0.000431,0.004701
15476000,0.0324,0.013523,0.002678,0.000431,0.004701
15477000,0.0324,0.013523,0.002678,0.000431,0.012223
15478000,0.0324,0.013523,0.002678,0.000431,0.012223
15479000,0.0324,0.013523,0.002678,0.000431,0.019745
15480000,0.0324,0.013523,0.002678,0.000431,0.004701
15481000,0.0324,0.013523,0.002678,0.000431,0.019980
15482000,0.0324,0.013523,0.002678,0.000431,0.012223
15483000,0.0324,0.013523,0.002678,0.000431,0.004701
15484000,0.0324,0.013523,0.002678,0.000431,0.027502
15485000,0.0324,0.013523,0.002678,0.000431,0.008462
15486000,0.0324,0.013523,0.002678,0.000431,0.008462
15487000,0.0324,0.013523,0.002678,0.000431,0.004701
15488000,0.0324,0.013523,0.002678,0.000431,0.072397
15489000,0.0324,0.013523,0.002678,0.000431,0.004701
15490000,0.0324,0.013523,0.002678,0.000431,0.019510
15491000,0.0324,0.013523,0.002678,0.000431,0.005406
15492000,0.0324,0.013523,0.002678,0.000431,0.019040
15493000,0.0324,0.013523,0.002678,0.000431,0.004701
15494000,0.0324,0.013523,0.002678,0.000431,0.047364
15495000,0.0324,0.013523,0.002678,0.000431,0.015161
15496000,0.0324,0.013523,0.002678,0.000431,0.004701
15497000,0.0324,0.013523,0.002678,0.000431,0.004701
15498000,0.0324,0.013523,0.002678,0.000431,0.018099
15499000,0.0324,0.013523,0.002678,0.000431,0.013751
15500000,0.0324,0.013523,0.002678,0.000431,0.004584
15501000,0.0324,0.013523,0.002678,0.000431,0.027267
15502000,0.0324,0.013523,0.002678,0.000431,0.004701
15503000,0.0324,0.013523,0.002678,0.000431,0.012223
15504000,0.0324,0.013523,0.002678,0.000431,0.004701
15505000,0.0324,0.013523,0.002678,0.000431,0.019745
15506000,0.0324,0.013523,0.002678,0.000431,0.064876
15507000,0.0324,0.013523,0.002678,0.000431,0.012223
15508000,0.0324,0.013523,0.002678,0.000431,0.004701
15509000,0.0324,0.013523,0.002678,0.000431,0.004466
15510000,0.0324,0.013523,0.002678,0.000431,0.004701
15511000,0.0324,0.013523,0.002678,0.000431,0.019745
15512000,0.0324,0.013523,0.002678,0.000431,0.019745
15513000,0.0324,0.013523,0.002678,0.000431,0.004701
15514000,0.0324,0.013523,0.002678,0.000431,0.004701
15515000,0.0324,0.013523,0.002678,0.000431,0.004701
15516000,0.0324,0.013523,0.002678,0.000431,0.012105
15517000,0.0324,0.013523,0.002678,0.000431,0.004584
15518000,0.0324,0.013523,0.002678,0.000431,0.027267
15519000,0.0324,0.013523,0.002678,0.000431,0.004701
15520000,0.0324,0.013523,0.002678,0.000431,0.027502
15521000,0.0324,0.013523,0.002678,0.000431,0.004701
15522000,0.0324,0.013523,0.002678,0.000431,0.004701
15523000,0.0324,0.013523,0.002678,0.000431,0.094728
15524000,0.0324,0.013523,0.002678,0.000431,0.004701
15525000,0.0324,0.013523,0.002678,0.000431,0.012223
15526000,0.0324,0.013523,0.002678,0.000431,0.004701
15527000,0.0324,0.013523,0.002678,0.000431,0.004701
15528000,0.0324,0.013523,0.002678,0.000431,0.004701
15529000,0.0324,0.013523,0.002678,0.000431,0.034788
15530000,0.0324,0.013523,0.002678,0.000431,0.004701
15531000,0.0324,0.013523,0.002678,0.000431,0.027267
15532000,0.0324,0.013523,0.002678,0.000431,0.004701
15533000,0.0324,0.013523,0.002678,0.000431,0.012223
15534000,0.0324,0.013523,0.002678,0.000431,0.004701
15535000,0.0324,0.013523,0.002678,0.000431,0.009050
15536000,0.0324,0.013523,0.002678,0.000431,0.075806
15537000,0.0324,0.013523,0.002678,0.000431,0.004701
15538000,0.0324,0.013523,0.002678,0.000431,0.004701
15539000,0.0324,0.013523,0.002678,0.000431,0.036904
15540000,0.0324,0.013523,0.002678,0.000431,0.017277
15541000,0.0324,0.013523,0.002678,0.000431,0.004584
15542000,0.0324,0.013523,0.002678,0.000431,0.019745
15543000,0.0324,0.013523,0.002678,0.000431,0.004701
15544000,0.0324,0.013523,0.002678,0.000431,0.004701
15545000,0.0324,0.013523,0.002678,0.000431,0.004701
15546000,0.0324,0.013523,0.002678,0.000431,0.004936
15547000,0.0324,0.013523,0.002678,0.000431,0.004701
15548000,0.0324,0.013523,0.002678,0.000431,0.022213
15549000,0.0324,0.013523,0.002678,0.000431,0.062172
15550000,0.0324,0.013523,0.002678,0.000431,0.027502
15551000,0.0324,0.013523,0.002678,0.000431,0.004701
15552000,0.0324,0.013523,0.002678,0.000431,0.004701
15553000,0.0324,0.013523,0.002678,0.000431,0.004701
15554000,0.0324,0.013523,0.002678,0.000431,0.004701
15555000,0.0324,0.013523,0.002678,0.000431,0.004701
15556000,0.0324,0.013523,0.002678,0.000431,0.019627
15557000,0.0324,0.013523,0.002678,0.000431,0.004584
15558000,0.0324,0.013523,0.002678,0.000431,0.004701
15559000,0.0324,0.013523,0.002678,0.000431,0.012223
15560000,0.0324,0.013523,0.002678,0.000431,0.034788
15561000,0.0324,0.013523,0.002678,0.000431,0.017629
15562000,0.0324,0.013523,0.002678,0.000431,0.074513
15563000,0.0324,0.013523,0.002678,0.000431,0.004701
15564000,0.0324,0.013523,0.002678,0.000431,0.004701
15565000,0.0324,0.013523,0.002678,0.000431,0.004701
15566000,0.0324,0.013523,0.002678,0.000431,0.004701
15567000,0.0324,0.013523,0.002678,0.000431,0.004701
15568000,0.0324,0.013523,0.002678,0.000431,0.027267
15569000,0.0324,0.013523,0.002678,0.000431,0.042310
15570000,0.0324,0.013523,0.002678,0.000431,0.012223
15571000,0.0324,0.013523,0.002678,0.000431,0.004701
15572000,0.0324,0.013523,0.002678,0.000431,0.004701
15573000,0.0324,0.013523,0.002678,0.000431,0.004701
15574000,0.0324,0.013523,0.002678,0.000431,0.012223
15575000,0.0324,0.013523,0.002678,0.000431,0.035611
15576000,0.0324,0.013523,0.002678,0.000431,0.005876
15577000,0.0324,0.013523,0.002678,0.000431,0.013633
15578000,0.0324,0.013523,0.002678,0.000431,0.012928
15579000,0.0324,0.013523,0.002678,0.000431,0.005876
15580000,0.0324,0.013523,0.002678,0.000431,0.005876
15581000,0.0324,0.013523,0.002678,0.000431,0.028324
15582000,0.0324,0.013523,0.002678,0.000431,0.004701
15583000,0.0324,0.013523,0.002678,0.000431,0.012458
15584000,0.0324,0.013523,0.002678,0.000431,0.004701
15585000,0.0324,0.013523,0.002678,0.000431,0.004701
15586000,0.0324,0.013523,0.002678,0.000431,0.004701
15587000,0.0324,0.013523,0.002678,0.000431,0.046894
15588000,0.0324,0.013523,0.002678,0.000431,0.022683
15589000,0.0324,0.013523,0.002678,0.000431,0.004466
15590000,0.0324,0.013523,0.002678,0.000431,0.004701
15591000,0.0324,0.013523,0.002678,0.000431,0.064405
15592000,0.0324,0.013523,0.002678,0.000431,0.004701
15593000,0.0324,0.013523,0.002678,0.000431,0.004701
15594000,0.0324,0.013523,0.002678,0.000431,0.027267
15595000,0.0324,0.013523,0.002678,0.000431,0.004466
15596000,0.0324,0.013523,0.002678,0.000431,0.027267
15597000,0.0324,0.013523,0.002678,0.000431,0.004701
15598000,0.0324,0.013523,0.002678,0.000431,0.004701
15599000,0.0324,0.013523,0.002678,0.000431,0.004466
15600000,0.0324,0.013523,0.002678,0.000431,0.004701
15601000,0.0324,0.013523,0.002678,0.000431,0.004701
15602000,0.0324,0.013523,0.002678,0.000431,0.027267
15603000,0.0324,0.013523,0.002678,0.000431,0.004701
15604000,0.0324,0.013523,0.002678,0.000431,0.012223
15605000,0.0324,0.013523,0.002678,0.000431,0.004701
15606000,0.0324,0.013523,0.002678,0.000431,0.004701
15607000,0.0324,0.013523,0.002678,0.000431,0.027502
15608000,0.0324,0.013523,0.002678,0.000431,0.004701
15609000,0.0324,0.013523,0.002678,0.000431,0.013046
15610000,0.0324,0.013523,0.002678,0.000431,0.005876
15611000,0.0324,0.013523,0.002678,0.000431,0.005876
15612000,0.0324,0.013523,0.002678,0.000431,0.005876
15613000,0.0324,0.013523,0.002678,0.000431,0.020920
15614000,0.0324,0.013523,0.002678,0.000431,0.007757
15615000,0.0324,0.013523,0.002678,0.000431,0.011400
15616000,0.0324,0.013523,0.002678,0.000431,0.004701
15617000,0.0324,0.013523,0.002678,0.000431,0.008227
15618000,0.0324,0.013523,0.002678,0.000431,0.008932
15619000,0.0324,0.013523,0.002678,0.000431,0.008462
15620000,0.0324,0.013523,0.002678,0.000431,0.008462
15621000,0.0324,0.013523,0.002678,0.000431,0.008462
15622000,0.0324,0.013523,0.002678,0.000431,0.015984
15623000,0.0324,0.013523,0.002678,0.000431,0.005759
15624000,0.0324,0.013523,0.002678,0.000431,0.007757
15625000,0.0324,0.013523,0.002678,0.000431,0.025504
15626000,0.0324,0.013523,0.002678,0.000431,0.004701
15627000,0.0324,0.013523,0.002678,0.000431,0.019745
15628000,0.0324,0.013523,0.002678,0.000431,0.011988
15629000,0.0324,0.013523,0.002678,0.000431,0.004701
15630000,0.0324,0.013523,0.002678,0.000431,0.004701
15631000,0.0324,0.013523,0.002678,0.000431,0.004701
15632000,0.0324,0.013523,0.002678,0.000431,0.004701
15633000,0.0324,0.013523,0.002678,0.000431,0.019745
15634000,0.0324,0.013523,0.002678,0.000431,0.015984
15635000,0.0324,0.013523,0.002678,0.000431,0.008227
15636000,0.0324,0.013523,0.002678,0.000431,0.004701
15637000,0.0324,0.013523,0.002678,0.000431,0.004701
15638000,0.0324,0.013523,0.002678,0.000431,0.004701
15639000,0.0324,0.013523,0.002678,0.000431,0.011988
15640000,0.0324,0.013523,0.002678,0.000431,0.019745
15641000,0.0324,0.013523,0.002678,0.000431,0.005289
15642000,0.0324,0.013523,0.002678,0.000431,0.005876
15643000,0.0324,0.013523,0.002678,0.000431,0.005876
15644000,0.0324,0.013523,0.002678,0.000431,0.029029
15645000,0.0324,0.013523,0.002678,0.000431,0.012105
15646000,0.0324,0.013523,0.002678,0.000431,0.018922
15647000,0.0324,0.013523,0.002678,0.000431,0.016924
15648000,0.0324,0.013523,0.002678,0.000431,0.004701
15649000,0.0324,0.013523,0.002678,0.000431,0.004701
15650000,0.0324,0.013523,0.002678,0.000431,0.004701
15651000,0.0324,0.013523,0.002678,0.000431,0.004701
15652000,0.0324,0.013523,0.002678,0.000431,0.027267
15653000,0.0324,0.013523,0.002678,0.000431,0.004701
15654000,0.0324,0.013523,0.002678,0.000431,0.004701
15655000,0.0324,0.013523,0.002678,0.000431,0.004466
15656000,0.0324,0.013523,0.002678,0.000431,0.004701
15657000,0.0324,0.013523,0.002678,0.000431,0.004701
15658000,0.0324,0.013523,0.002678,0.000431,0.019745
15659000,0.0324,0.013523,0.002678,0.000431,0.023506
15660000,0.0324,0.013523,0.002678,0.000431,0.031027
15661000,0.0324,0.013523,0.002678,0.000431,0.004701
15662000,0.0324,0.013523,0.002678,0.000431,0.004701
15663000,0.0324,0.013523,0.002678,0.000431,0.004466
15664000,0.0324,0.013523,0.002678,0.000431,0.005406
15665000,0.0324,0.013523,0.002678,0.000431,0.041605
15666000,0.0324,0.013523,0.002678,0.000431,0.035376
15667000,0.0324,0.013523,0.002678,0.000431,0.005876
15668000,0.0324,0.013523,0.002678,0.000431,0.005876
15669000,0.0324,0.013523,0.002678,0.000431,0.005876
15670000,0.0324,0.013523,0.002678,0.000431,0.005876
15671000,0.0324,0.013523,0.002678,0.000431,0.028442
15672000,0.0324,0.013523,0.002678,0.000431,0.013281
15673000,0.0324,0.013523,0.002678,0.000431,0.004701
15674000,0.0324,0.013523,0.002678,0.000431,0.004701
15675000,0.0324,0.013523,0.002678,0.000431,0.004584
15676000,0.0324,0.013523,0.002678,0.000431,0.004584
15677000,0.0324,0.013523,0.002678,0.000431,0.008462
15678000,0.0324,0.013523,0.002678,0.000431,0.053828
15679000,0.0324,0.013523,0.002678,0.000431,0.005759
15680000,0.0324,0.013523,0.002678,0.000431,0.005876
15681000,0.0324,0.013523,0.002678,0.000431,0.005876
15682000,0.0324,0.013523,0.002678,0.000431,0.005876
15683000,0.0324,0.013523,0.002678,0.000431,0.005876
15684000,0.0324,0.013523,0.002678,0.000431,0.005876
15685000,0.0324,0.013523,0.002678,0.000431,0.050420
15686000,0.0324,0.013523,0.002678,0.000431,0.004701
15687000,0.0324,0.013523,0.002678,0.000431,0.004701
15688000,0.0324,0.013523,0.002678,0.000431,0.004584
15689000,0.0324,0.013523,0.002678,0.000431,0.004466
15690000,0.0324,0.013523,0.002678,0.000431,0.004349
15691000,0.0324,0.013523,0.002678,0.000431,0.008462
15692000,0.0324,0.013523,0.002678,0.000431,0.009050
15693000,0.0324,0.013523,0.002678,0.000431,0.005876
15694000,0.0324,0.013523,0.002678,0.000431,0.005876
15695000,0.0324,0.013523,0.002678,0.000431,0.005876
15696000,0.0324,0.013523,0.002678,0.000431,0.005876
15697000,0.0324,0.013523,0.002678,0.000431,0.029500
15698000,0.0324,0.013523,0.002678,0.000431,0.012223
15699000,0.0324,0.013523,0.002678,0.000431,0.005759
15700000,0.0324,0.013523,0.002678,0.000431,0.005641
15701000,0.0324,0.013523,0.002678,0.000431,0.005876
15702000,0.0324,0.013523,0.002678,0.000431,0.005876
15703000,0.0324,0.013523,0.002678,0.000431,0.006699
15704000,0.0324,0.013523,0.002678,0.000431,0.005641
15705000,0.0324,0.013523,0.002678,0.000431,0.004701
15706000,0.0324,0.013523,0.002678,0.000431,0.004701
15707000,0.0324,0.013523,0.002678,0.000431,0.004701
15708000,0.0324,0.013523,0.002678,0.000431,0.004701
15709000,0.0324,0.013523,0.002678,0.000431,0.004701
15710000,0.0324,0.013523,0.002678,0.000431,0.087441
15711000,0.0324,0.013523,0.002678,0.000431,0.004701
15712000,0.0324,0.013523,0.002678,0.000431,0.004701
15713000,0.0324,0.013523,0.002678,0.000431,0.004701
15714000,0.0324,0.013523,0.002678,0.000431,0.004701
15715000,0.0324,0.013523,0.002678,0.000431,0.004701
15716000,0.0324,0.013523,0.002678,0.000431,0.031027
15717000,0.0324,0.013523,0.002678,0.000431,0.015984
15718000,0.0324,0.013523,0.002678,0.000431,0.004701
15719000,0.0324,0.013523,0.002678,0.000431,0.004701
15720000,0.0324,0.013523,0.002678,0.000431,0.004701
15721000,0.0324,0.013523,0.002678,0.000431,0.004701
15722000,0.0324,0.013523,0.002678,0.000431,0.004936
15723000,0.0324,0.013523,0.002678,0.000431,0.019275
15724000,0.0324,0.013523,0.002678,0.000431,0.005876
15725000,0.0324,0.013523,0.002678,0.000431,0.007052
15726000,0.0324,0.013523,0.002678,0.000431,0.007052
15727000,0.0324,0.013523,0.002678,0.000431,0.006582
15728000,0.0324,0.013523,0.002678,0.000431,0.007052
15729000,0.0324,0.013523,0.002678,0.000431,0.105423
15730000,0.0324,0.013523,0.002678,0.000431,0.013751
15731000,0.0324,0.013523,0.002678,0.000431,0.020097
15732000,0.0324,0.013523,0.002678,0.000431,0.005876
15733000,0.0324,0.013523,0.002678,0.000431,0.011870
15734000,0.0324,0.013523,0.002678,0.000431,0.010813
15735000,0.0324,0.013523,0.002678,0.000431,0.007874
15736000,0.0324,0.013523,0.002678,0.000431,0.009050
15737000,0.0324,0.013523,0.002678,0.000431,0.012223
15738000,0.0324,0.013523,0.002678,0.000431,0.004701
15739000,0.0324,0.013523,0.002678,0.000431,0.004701
15740000,0.0324,0.013523,0.002678,0.000431,0.005289
15741000,0.0324,0.013523,0.002678,0.000431,0.005876
15742000,0.0324,0.013523,0.002678,0.000431,0.020920
15743000,0.0324,0.013523,0.002678,0.000431,0.007522
15744000,0.0324,0.013523,0.002678,0.000431,0.006464
15745000,0.0324,0.013523,0.002678,0.000431,0.004701
15746000,0.0324,0.013523,0.002678,0.000431,0.004701
15747000,0.0324,0.013523,0.002678,0.000431,0.004701
15748000,0.0324,0.013523,0.002678,0.000431,0.004466
15749000,0.0324,0.013523,0.002678,0.000431,0.017042
15750000,0.0324,0.013523,0.002678,0.000431,0.037491
15751000,0.0324,0.013523,0.002678,0.000431,0.004466
15752000,0.0324,0.013523,0.002678,0.000431,0.004701
15753000,0.0324,0.013523,0.002678,0.000431,0.004701
15754000,0.0324,0.013523,0.002678,0.000431,0.004701
15755000,0.0324,0.013523,0.002678,0.000431,0.034788
15756000,0.0324,0.013523,0.002678,0.000431,0.019745
15757000,0.0324,0.013523,0.002678,0.000431,0.004701
15758000,0.0324,0.013523,0.002678,0.000431,0.004701
15759000,0.0324,0.013523,0.002678,0.000431,0.004701
15760000,0.0324,0.013523,0.002678,0.000431,0.004466
15761000,0.0324,0.013523,0.002678,0.000431,0.031145
15762000,0.0324,0.013523,0.002678,0.000431,0.023623
15763000,0.0324,0.013523,0.002678,0.000431,0.020567
15764000,0.0324,0.013523,0.002678,0.000431,0.005876
15765000,0.0324,0.013523,0.002678,0.000431,0.005876
15766000,0.0324,0.013523,0.002678,0.000431,0.005876
15767000,0.0324,0.013523,0.002678,0.000431,0.005876
15768000,0.0324,0.013523,0.002678,0.000431,0.043133
15769000,0.0324,0.013523,0.002678,0.000431,0.006347
15770000,0.0324,0.013523,0.002678,0.000431,0.004701
15771000,0.0324,0.013523,0.002678,0.000431,0.004701
15772000,0.0324,0.013523,0.002678,0.000431,0.004701
15773000,0.0324,0.013523,0.002678,0.000431,0.004701
15774000,0.0324,0.013523,0.002678,0.000431,0.004466
15775000,0.0324,0.013523,0.002678,0.000431,0.023506
15776000,0.0324,0.013523,0.002678,0.000431,0.008462
15777000,0.0324,0.013523,0.002678,0.000431,0.004701
15778000,0.0324,0.013523,0.002678,0.000431,0.004701
15779000,0.0324,0.013523,0.002678,0.000431,0.004701
15780000,0.0324,0.013523,0.002678,0.000431,0.009050
15781000,0.0324,0.013523,0.002678,0.000431,0.017159
15782000,0.0324,0.013523,0.002678,0.000431,0.055591
15783000,0.0324,0.013523,0.002678,0.000431,0.004701
15784000,0.0324,0.013523,0.002678,0.000431,0.004701
15785000,0.0324,0.013523,0.002678,0.000431,0.004466
15786000,0.0324,0.013523,0.002678,0.000431,0.004701
15787000,0.0324,0.013523,0.002678,0.000431,0.045836
15788000,0.0324,0.013523,0.002678,0.000431,0.041605
15789000,0.0324,0.013523,0.002678,0.000431,0.009167
15790000,0.0324,0.013523,0.002678,0.000431,0.004701
15791000,0.0324,0.013523,0.002678,0.000431,0.004701
15792000,0.0324,0.013523,0.002678,0.000431,0.004701
15793000,0.0324,0.013523,0.002678,0.000431,0.004701
15794000,0.0324,0.013523,0.002678,0.000431,0.004819
15795000,0.0324,0.013523,0.002678,0.000431,0.004819
15796000,0.0324,0.013523,0.002678,0.000431,0.004701
15797000,0.0324,0.013523,0.002678,0.000431,0.005759
15798000,0.0324,0.013523,0.002678,0.000431,0.005876
15799000,0.0324,0.013523,0.002678,0.000431,0.005876
15800000,0.0324,0.013523,0.002678,0.000431,0.013046
15801000,0.0324,0.013523,0.002678,0.000431,0.065463
15802000,0.0324,0.013523,0.002678,0.000431,0.005876
15803000,0.0324,0.013523,0.002678,0.000431,0.005876
15804000,0.0324,0.013523,0.002678,0.000431,0.005876
15805000,0.0324,0.013523,0.002678,0.000431,0.005876
15806000,0.0324,0.013523,0.002678,0.000431,0.005641
15807000,0.0324,0.013523,0.002678,0.000431,0.005994
15808000,0.0324,0.013523,0.002678,0.000431,0.013516
15809000,0.0324,0.013523,0.002678,0.000431,0.005876
15810000,0.0324,0.013523,0.002678,0.000431,0.005759
15811000,0.0324,0.013523,0.002678,0.000431,0.005524
15812000,0.0324,0.013523,0.002678,0.000431,0.005876
15813000,0.0324,0.013523,0.002678,0.000431,0.013751
15814000,0.0324,0.013523,0.002678,0.000431,0.004701
15815000,0.0324,0.013523,0.002678,0.000431,0.004701
15816000,0.0324,0.013523,0.002678,0.000431,0.004701
15817000,0.0324,0.013523,0.002678,0.000431,0.004701
15818000,0.0324,0.013523,0.002678,0.000431,0.004701
15819000,0.0324,0.013523,0.002678,0.000431,0.061232
15820000,0.0324,0.013523,0.002678,0.000431,0.013398
15821000,0.0324,0.013523,0.002678,0.000431,0.017159
15822000,0.0324,0.013523,0.002678,0.000431,0.039607
15823000,0.0324,0.013523,0.002678,0.000431,0.004701
15824000,0.0324,0.013523,0.002678,0.000431,0.004701
15825000,0.0324,0.013523,0.002678,0.000431,0.004701
15826000,0.0324,0.013523,0.002678,0.000431,0.004701
15827000,0.0324,0.013523,0.002678,0.000431,0.027149
15828000,0.0324,0.013523,0.002678,0.000431,0.004584
15829000,0.0324,0.013523,0.002678,0.000431,0.004701
15830000,0.0324,0.013523,0.002678,0.000431,0.004701
15831000,0.0324,0.013523,0.002678,0.000431,0.004701
15832000,0.0324,0.013523,0.002678,0.000431,0.004701
15833000,0.0324,0.013523,0.002678,0.000431,0.012223
15834000,0.0324,0.013523,0.002678,0.000431,0.004701
15835000,0.0324,0.013523,0.002678,0.000431,0.034788
15836000,0.0324,0.013523,0.002678,0.000431,0.004701
15837000,0.0324,0.013523,0.002678,0.000431,0.004701
15838000,0.0324,0.013523,0.002678,0.000431,0.008227
15839000,0.0324,0.013523,0.002678,0.000431,0.008462
15840000,0.0324,0.013523,0.002678,0.000431,0.019745
15841000,0.0324,0.013523,0.002678,0.000431,0.004701
15842000,0.0324,0.013523,0.002678,0.000431,0.004701
15843000,0.0324,0.013523,0.002678,0.000431,0.004701
15844000,0.0324,0.013523,0.002678,0.000431,0.004701
15845000,0.0324,0.013523,0.002678,0.000431,0.027149
15846000,0.0324,0.013523,0.002678,0.000431,0.004349
15847000,0.0324,0.013523,0.002678,0.000431,0.005759
15848000,0.0324,0.013523,0.002678,0.000431,0.013398
15849000,0.0324,0.013523,0.002678,0.000431,0.005876
15850000,0.0324,0.013523,0.002678,0.000431,0.005876
15851000,0.0324,0.013523,0.002678,0.000431,0.005876
15852000,0.0324,0.013523,0.002678,0.000431,0.005876
15853000,0.0324,0.013523,0.002678,0.000431,0.036199
15854000,0.0324,0.013523,0.002678,0.000431,0.005641
15855000,0.0324,0.013523,0.002678,0.000431,0.005876
15856000,0.0324,0.013523,0.002678,0.000431,0.005876
15857000,0.0324,0.013523,0.002678,0.000431,0.005876
15858000,0.0324,0.013523,0.002678,0.000431,0.005994
15859000,0.0324,0.013523,0.002678,0.000431,0.036786
15860000,0.0324,0.013523,0.002678,0.000431,0.005876
15861000,0.0324,0.013523,0.002678,0.000431,0.013398
15862000,0.0324,0.013523,0.002678,0.000431,0.005876
15863000,0.0324,0.013523,0.002678,0.000431,0.005876
15864000,0.0324,0.013523,0.002678,0.000431,0.021625
15865000,0.0324,0.013523,0.002678,0.000431,0.011635
15866000,0.0324,0.013523,0.002678,0.000431,0.004701
15867000,0.0324,0.013523,0.002678,0.000431,0.004701
15868000,0.0324,0.013523,0.002678,0.000431,0.004701
15869000,0.0324,0.013523,0.002678,0.000431,0.004701
15870000,0.0324,0.013523,0.002678,0.000431,0.004701
15871000,0.0324,0.013523,0.002678,0.000431,0.012223
15872000,0.0324,0.013523,0.002678,0.000431,0.027267
15873000,0.0324,0.013523,0.002678,0.000431,0.004466
15874000,0.0324,0.013523,0.002678,0.000431,0.004701
15875000,0.0324,0.013523,0.002678,0.000431,0.004701
15876000,0.0324,0.013523,0.002678,0.000431,0.004701
15877000,0.0324,0.013523,0.002678,0.000431,0.004701
15878000,0.0324,0.013523,0.002678,0.000431,0.015984
15879000,0.0324,0.013523,0.002678,0.000431,0.008462
15880000,0.0324,0.013523,0.002678,0.000431,0.011518
15881000,0.0324,0.013523,0.002678,0.000431,0.005406
15882000,0.0324,0.013523,0.002678,0.000431,0.004701
15883000,0.0324,0.013523,0.002678,0.000431,0.008462
15884000,0.0324,0.013523,0.002678,0.000431,0.015984
15885000,0.0324,0.013523,0.002678,0.000431,0.012105
15886000,0.0324,0.013523,0.002678,0.000431,0.004584
15887000,0.0324,0.013523,0.002678,0.000431,0.012223
15888000,0.0324,0.013523,0.002678,0.000431,0.004701
15889000,0.0324,0.013523,0.002678,0.000431,0.004701
15890000,0.0324,0.013523,0.002678,0.000431,0.004701
15891000,0.0324,0.013523,0.002678,0.000431,0.012223
15892000,0.0324,0.013523,0.002678,0.000431,0.012105
15893000,0.0324,0.013523,0.002678,0.000431,0.015984
15894000,0.0324,0.013523,0.002678,0.000431,0.009520
15895000,0.0324,0.013523,0.002678,0.000431,0.005759
15896000,0.0324,0.013523,0.002678,0.000431,0.005876
15897000,0.0324,0.013523,0.002678,0.000431,0.005876
15898000,0.0324,0.013523,0.002678,0.000431,0.005876
15899000,0.0324,0.013523,0.002678,0.000431,0.005994
15900000,0.0324,0.013523,0.002678,0.000431,0.004936
15901000,0.0324,0.013523,0.002678,0.000431,0.004701
15902000,0.0324,0.013523,0.002678,0.000431,0.004701
15903000,0.0324,0.013523,0.002678,0.000431,0.012223
15904000,0.0324,0.013523,0.002678,0.000431,0.031027
15905000,0.0324,0.013523,0.002678,0.000431,0.008462
15906000,0.0324,0.013523,0.002678,0.000431,0.004466
15907000,0.0324,0.013523,0.002678,0.000431,0.004701
15908000,0.0324,0.013523,0.002678,0.000431,0.004701
15909000,0.0324,0.013523,0.002678,0.000431,0.004701
15910000,0.0324,0.013523,0.002678,0.000431,0.004701
15911000,0.0324,0.013523,0.002678,0.000431,0.027267
15912000,0.0324,0.013523,0.002678,0.000431,0.027619
15913000,0.0324,0.013523,0.002678,0.000431,0.005876
15914000,0.0324,0.013523,0.002678,0.000431,0.005876
15915000,0.0324,0.013523,0.002678,0.000431,0.005759
15916000,0.0324,0.013523,0.002678,0.000431,0.013046
15917000,0.0324,0.013523,0.002678,0.000431,0.013398
15918000,0.0324,0.013523,0.002678,0.000431,0.005876
15919000,0.0324,0.013523,0.002678,0.000431,0.005054
15920000,0.0324,0.013523,0.002678,0.000431,0.004701
15921000,0.0324,0.013523,0.002678,0.000431,0.004701
15922000,0.0324,0.013523,0.002678,0.000431,0.012340
15923000,0.0324,0.013523,0.002678,0.000431,0.030675
15924000,0.0324,0.013523,0.002678,0.000431,0.018687
15925000,0.0324,0.013523,0.002678,0.000431,0.005876
15926000,0.0324,0.013523,0.002678,0.000431,0.005876
15927000,0.0324,0.013523,0.002678,0.000431,0.005641
15928000,0.0324,0.013523,0.002678,0.000431,0.005406
15929000,0.0324,0.013523,0.002678,0.000431,0.020332
15930000,0.0324,0.013523,0.002678,0.000431,0.004701
15931000,0.0324,0.013523,0.002678,0.000431,0.012223
15932000,0.0324,0.013523,0.002678,0.000431,0.012223
15933000,0.0324,0.013523,0.002678,0.000431,0.004701
15934000,0.0324,0.013523,0.002678,0.000431,0.004701
15935000,0.0324,0.013523,0.002678,0.000431,0.027267
15936000,0.0324,0.013523,0.002678,0.000431,0.004701
15937000,0.0324,0.013523,0.002678,0.000431,0.027267
15938000,0.0324,0.013523,0.002678,0.000431,0.004701
15939000,0.0324,0.013523,0.002678,0.000431,0.004701
15940000,0.0324,0.013523,0.002678,0.000431,0.004466
15941000,0.0324,0.013523,0.002678,0.000431,0.004701
15942000,0.0324,0.013523,0.002678,0.000431,0.004701
15943000,0.0324,0.013523,0.002678,0.000431,0.034788
15944000,0.0324,0.013523,0.002678,0.000431,0.004701
15945000,0.0324,0.013523,0.002678,0.000431,0.004701
15946000,0.0324,0.013523,0.002678,0.000431,0.004701
15947000,0.0324,0.013523,0.002678,0.000431,0.004701
15948000,0.0324,0.013523,0.002678,0.000431,0.019745
15949000,0.0324,0.013523,0.002678,0.000431,0.004701
15950000,0.0324,0.013523,0.002678,0.000431,0.013281
15951000,0.0324,0.013523,0.002678,0.000431,0.005876
15952000,0.0324,0.013523,0.002678,0.000431,0.005524
15953000,0.0324,0.013523,0.002678,0.000431,0.005524
15954000,0.0324,0.013523,0.002678,0.000431,0.005994
15955000,0.0324,0.013523,0.002678,0.000431,0.007052
15956000,0.0324,0.013523,0.002678,0.000431,0.006699
15957000,0.0324,0.013523,0.002678,0.000431,0.005406
15958000,0.0324,0.013523,0.002678,0.000431,0.005876
15959000,0.0324,0.013523,0.002678,0.000431,0.005876
15960000,0.0324,0.013523,0.002678,0.000431,0.005876
15961000,0.0324,0.013523,0.002678,0.000431,0.005289
15962000,0.0324,0.013523,0.002678,0.000431,0.012811
15963000,0.0324,0.013523,0.002678,0.000431,0.005876
15964000,0.0324,0.013523,0.002678,0.000431,0.013398
15965000,0.0324,0.013523,0.002678,0.000431,0.005876
15966000,0.0324,0.013523,0.002678,0.000431,0.005876
15967000,0.0324,0.013523,0.002678,0.000431,0.005876
15968000,0.0324,0.013523,0.002678,0.000431,0.005406
15969000,0.0324,0.013523,0.002678,0.000431,0.012340
15970000,0.0324,0.013523,0.002678,0.000431,0.004701
15971000,0.0324,0.013523,0.002678,0.000431,0.004701
15972000,0.0324,0.013523,0.002678,0.000431,0.004701
15973000,0.0324,0.013523,0.002678,0.000431,0.004701
15974000,0.0324,0.013523,0.002678,0.000431,0.012223
15975000,0.0324,0.013523,0.002678,0.000431,0.004701
15976000,0.0324,0.013523,0.002678,0.000431,0.012223
15977000,0.0324,0.013523,0.002678,0.000431,0.012223
15978000,0.0324,0.013523,0.002678,0.000431,0.004701
15979000,0.0324,0.013523,0.002678,0.000431,0.004701
15980000,0.0324,0.013523,0.002678,0.000431,0.004701
15981000,0.0324,0.013523,0.002678,0.000431,0.008462
15982000,0.0324,0.013523,0.002678,0.000431,0.008227
15983000,0.0324,0.013523,0.002678,0.000431,0.034553
15984000,0.0324,0.013523,0.002678,0.000431,0.004701
15985000,0.0324,0.013523,0.002678,0.000431,0.004701
15986000,0.0324,0.013523,0.002678,0.000431,0.004466
15987000,0.0324,0.013523,0.002678,0.000431,0.004701
15988000,0.0324,0.013523,0.002678,0.000431,0.004701
15989000,0.0324,0.013523,0.002678,0.000431,0.004701
15990000,0.0324,0.013523,0.002678,0.000431,0.004701
15991000,0.0324,0.013523,0.002678,0.000431,0.004701
15992000,0.0324,0.013523,0.002678,0.000431,0.004701
15993000,0.0324,0.013523,0.002678,0.000431,0.004701
15994000,0.0324,0.013523,0.002678,0.000431,0.019157
15995000,0.0324,0.013523,0.002678,0.000431,0.019157
15996000,0.0324,0.013523,0.002678,0.000431,0.042310
15997000,0.0324,0.013523,0.002678,0.000431,0.004701
15998000,0.0324,0.013523,0.002678,0.000431,0.004466
15999000,0.0324,0.013523,0.002678,0.000431,0.004701
