Cycle,Area(mm^2),PeakDynamic(W),SubthresholdLeakage(W),GateLeakage(W),RunTimeDynamic(W)
24000000,0.0324,0.013523,0.002678,0.000431,0.102367
24001000,0.0324,0.013523,0.002678,0.000431,0.214489
24002000,0.0324,0.013523,0.002678,0.000431,0.061585
24003000,0.0324,0.013523,0.002678,0.000431,0.066874
24004000,0.0324,0.013523,0.002678,0.000431,0.062525
24005000,0.0324,0.013523,0.002678,0.000431,0.078039
24006000,0.0324,0.013523,0.002678,0.000431,0.058059
24007000,0.0324,0.013523,0.002678,0.000431,0.083092
24008000,0.0324,0.013523,0.002678,0.000431,0.072280
24009000,0.0324,0.013523,0.002678,0.000431,0.044191
24010000,0.0324,0.013523,0.002678,0.000431,0.039019
24011000,0.0324,0.013523,0.002678,0.000431,0.069459
24012000,0.0324,0.013523,0.002678,0.000431,0.036434
24013000,0.0324,0.013523,0.002678,0.000431,0.040077
24014000,0.0324,0.013523,0.002678,0.000431,0.103895
24015000,0.0324,0.013523,0.002678,0.000431,0.072162
24016000,0.0324,0.013523,0.002678,0.000431,0.151494
24017000,0.0324,0.013523,0.002678,0.000431,0.065581
24018000,0.0324,0.013523,0.002678,0.000431,0.060409
24019000,0.0324,0.013523,0.002678,0.000431,0.078979
24020000,0.0324,0.013523,0.002678,0.000431,0.103072
24021000,0.0324,0.013523,0.002678,0.000431,0.088734
24022000,0.0324,0.013523,0.002678,0.000431,0.092730
24023000,0.0324,0.013523,0.002678,0.000431,0.110124
24024000,0.0324,0.013523,0.002678,0.000431,0.059587
24025000,0.0324,0.013523,0.002678,0.000431,0.106363
24026000,0.0324,0.013523,0.002678,0.000431,0.098136
24027000,0.0324,0.013523,0.002678,0.000431,0.103425
24028000,0.0324,0.013523,0.002678,0.000431,0.154902
24029000,0.0324,0.013523,0.002678,0.000431,0.059352
24030000,0.0324,0.013523,0.002678,0.000431,0.081447
24031000,0.0324,0.013523,0.002678,0.000431,0.035023
24032000,0.0324,0.013523,0.002678,0.000431,0.140446
24033000,0.0324,0.013523,0.002678,0.000431,0.076393
24034000,0.0324,0.013523,0.002678,0.000431,0.102602
24035000,0.0324,0.013523,0.002678,0.000431,0.066051
24036000,0.0324,0.013523,0.002678,0.000431,0.073103
24037000,0.0324,0.013523,0.002678,0.000431,0.086501
24038000,0.0324,0.013523,0.002678,0.000431,0.071105
24039000,0.0324,0.013523,0.002678,0.000431,0.053240
24040000,0.0324,0.013523,0.002678,0.000431,0.070282
24041000,0.0324,0.013523,0.002678,0.000431,0.038314
24042000,0.0324,0.013523,0.002678,0.000431,0.179113
24043000,0.0324,0.013523,0.002678,0.000431,0.077098
24044000,0.0324,0.013523,0.002678,0.000431,0.061585
24045000,0.0324,0.013523,0.002678,0.000431,0.195567
24046000,0.0324,0.013523,0.002678,0.000431,0.048422
24047000,0.0324,0.013523,0.002678,0.000431,0.061350
24048000,0.0324,0.013523,0.002678,0.000431,0.095433
24049000,0.0324,0.013523,0.002678,0.000431,0.042780
24050000,0.0324,0.013523,0.002678,0.000431,0.087558
24051000,0.0324,0.013523,0.002678,0.000431,0.042428
24052000,0.0324,0.013523,0.002678,0.000431,0.102837
24053000,0.0324,0.013523,0.002678,0.000431,0.058059
24054000,0.0324,0.013523,0.002678,0.000431,0.075101
24055000,0.0324,0.013523,0.002678,0.000431,0.060762
24056000,0.0324,0.013523,0.002678,0.000431,0.061937
24057000,0.0324,0.013523,0.002678,0.000431,0.091672
24058000,0.0324,0.013523,0.002678,0.000431,0.070869
24059000,0.0324,0.013523,0.002678,0.000431,0.067461
24060000,0.0324,0.013523,0.002678,0.000431,0.068049
24061000,0.0324,0.013523,0.002678,0.000431,0.041605
24062000,0.0324,0.013523,0.002678,0.000431,0.041723
24063000,0.0324,0.013523,0.002678,0.000431,0.084855
24064000,0.0324,0.013523,0.002678,0.000431,0.142092
24065000,0.0324,0.013523,0.002678,0.000431,0.055356
24066000,0.0324,0.013523,0.002678,0.000431,0.078391
24067000,0.0324,0.013523,0.002678,0.000431,0.100252
24068000,0.0324,0.013523,0.002678,0.000431,0.082387
24069000,0.0324,0.013523,0.002678,0.000431,0.056649
24070000,0.0324,0.013523,0.002678,0.000431,0.044778
24071000,0.0324,0.013523,0.002678,0.000431,0.127753
24072000,0.0324,0.013523,0.002678,0.000431,0.082387
24073000,0.0324,0.013523,0.002678,0.000431,0.052065
24074000,0.0324,0.013523,0.002678,0.000431,0.066521
24075000,0.0324,0.013523,0.002678,0.000431,0.058882
24076000,0.0324,0.013523,0.002678,0.000431,0.060880
24077000,0.0324,0.013523,0.002678,0.000431,0.069929
24078000,0.0324,0.013523,0.002678,0.000431,0.055826
24079000,0.0324,0.013523,0.002678,0.000431,0.058529
24080000,0.0324,0.013523,0.002678,0.000431,0.064053
24081000,0.0324,0.013523,0.002678,0.000431,0.037609
24082000,0.0324,0.013523,0.002678,0.000431,0.124462
24083000,0.0324,0.013523,0.002678,0.000431,0.081917
24084000,0.0324,0.013523,0.002678,0.000431,0.125520
24085000,0.0324,0.013523,0.002678,0.000431,0.052770
24086000,0.0324,0.013523,0.002678,0.000431,0.066638
24087000,0.0324,0.013523,0.002678,0.000431,0.099781
24088000,0.0324,0.013523,0.002678,0.000431,0.040430
24089000,0.0324,0.013523,0.002678,0.000431,0.066168
24090000,0.0324,0.013523,0.002678,0.000431,0.102837
24091000,0.0324,0.013523,0.002678,0.000431,0.123052
24092000,0.0324,0.013523,0.002678,0.000431,0.060527
24093000,0.0324,0.013523,0.002678,0.000431,0.076511
24094000,0.0324,0.013523,0.002678,0.000431,0.048304
24095000,0.0324,0.013523,0.002678,0.000431,0.123405
24096000,0.0324,0.013523,0.002678,0.000431,0.050067
24097000,0.0324,0.013523,0.002678,0.000431,0.203911
24098000,0.0324,0.013523,0.002678,0.000431,0.124815
24099000,0.0324,0.013523,0.002678,0.000431,0.153139
24100000,0.0324,0.013523,0.002678,0.000431,0.051360
24101000,0.0324,0.013523,0.002678,0.000431,0.062643
24102000,0.0324,0.013523,0.002678,0.000431,0.038667
24103000,0.0324,0.013523,0.002678,0.000431,0.074748
24104000,0.0324,0.013523,0.002678,0.000431,0.084385
24105000,0.0324,0.013523,0.002678,0.000431,0.044543
24106000,0.0324,0.013523,0.002678,0.000431,0.104835
24107000,0.0324,0.013523,0.002678,0.000431,0.048657
24108000,0.0324,0.013523,0.002678,0.000431,0.124697
24109000,0.0324,0.013523,0.002678,0.000431,0.042428
24110000,0.0324,0.013523,0.002678,0.000431,0.101074
24111000,0.0324,0.013523,0.002678,0.000431,0.078391
24112000,0.0324,0.013523,0.002678,0.000431,0.064641
24113000,0.0324,0.013523,0.002678,0.000431,0.101074
24114000,0.0324,0.013523,0.002678,0.000431,0.090732
24115000,0.0324,0.013523,0.002678,0.000431,0.044896
24116000,0.0324,0.013523,0.002678,0.000431,0.064641
24117000,0.0324,0.013523,0.002678,0.000431,0.063583
24118000,0.0324,0.013523,0.002678,0.000431,0.066168
24119000,0.0324,0.013523,0.002678,0.000431,0.083563
24120000,0.0324,0.013523,0.002678,0.000431,0.044661
24121000,0.0324,0.013523,0.002678,0.000431,0.115060
24122000,0.0324,0.013523,0.002678,0.000431,0.039960
24123000,0.0324,0.013523,0.002678,0.000431,0.062407
24124000,0.0324,0.013523,0.002678,0.000431,0.043368
24125000,0.0324,0.013523,0.002678,0.000431,0.065346
24126000,0.0324,0.013523,0.002678,0.000431,0.051125
24127000,0.0324,0.013523,0.002678,0.000431,0.048774
24128000,0.0324,0.013523,0.002678,0.000431,0.041252
24129000,0.0324,0.013523,0.002678,0.000431,0.037727
24130000,0.0324,0.013523,0.002678,0.000431,0.075923
24131000,0.0324,0.013523,0.002678,0.000431,0.062172
24132000,0.0324,0.013523,0.002678,0.000431,0.038784
24133000,0.0324,0.013523,0.002678,0.000431,0.119526
24134000,0.0324,0.013523,0.002678,0.000431,0.061350
24135000,0.0324,0.013523,0.002678,0.000431,0.046659
24136000,0.0324,0.013523,0.002678,0.000431,0.068166
24137000,0.0324,0.013523,0.002678,0.000431,0.074043
24138000,0.0324,0.013523,0.002678,0.000431,0.056884
24139000,0.0324,0.013523,0.002678,0.000431,0.061232
24140000,0.0324,0.013523,0.002678,0.000431,0.167830
24141000,0.0324,0.013523,0.002678,0.000431,0.045366
24142000,0.0324,0.013523,0.002678,0.000431,0.256211
24143000,0.0324,0.013523,0.002678,0.000431,0.089674
24144000,0.0324,0.013523,0.002678,0.000431,0.061467
24145000,0.0324,0.013523,0.002678,0.000431,0.042310
24146000,0.0324,0.013523,0.002678,0.000431,0.042428
24147000,0.0324,0.013523,0.002678,0.000431,0.055943
24148000,0.0324,0.013523,0.002678,0.000431,0.047716
24149000,0.0324,0.013523,0.002678,0.000431,0.075453
24150000,0.0324,0.013523,0.002678,0.000431,0.055591
24151000,0.0324,0.013523,0.002678,0.000431,0.084855
24152000,0.0324,0.013523,0.002678,0.000431,0.039960
24153000,0.0324,0.013523,0.002678,0.000431,0.058529
24154000,0.0324,0.013523,0.002678,0.000431,0.042075
24155000,0.0324,0.013523,0.002678,0.000431,0.052535
24156000,0.0324,0.013523,0.002678,0.000431,0.076276
24157000,0.0324,0.013523,0.002678,0.000431,0.084033
24158000,0.0324,0.013523,0.002678,0.000431,0.054063
24159000,0.0324,0.013523,0.002678,0.000431,0.084620
24160000,0.0324,0.013523,0.002678,0.000431,0.047481
24161000,0.0324,0.013523,0.002678,0.000431,0.040665
24162000,0.0324,0.013523,0.002678,0.000431,0.110006
24163000,0.0324,0.013523,0.002678,0.000431,0.042310
24164000,0.0324,0.013523,0.002678,0.000431,0.038667
24165000,0.0324,0.013523,0.002678,0.000431,0.081330
24166000,0.0324,0.013523,0.002678,0.000431,0.055003
24167000,0.0324,0.013523,0.002678,0.000431,0.050890
24168000,0.0324,0.013523,0.002678,0.000431,0.073925
24169000,0.0324,0.013523,0.002678,0.000431,0.097901
24170000,0.0324,0.013523,0.002678,0.000431,0.040547
24171000,0.0324,0.013523,0.002678,0.000431,0.053828
24172000,0.0324,0.013523,0.002678,0.000431,0.054180
24173000,0.0324,0.013523,0.002678,0.000431,0.083445
24174000,0.0324,0.013523,0.002678,0.000431,0.067931
24175000,0.0324,0.013523,0.002678,0.000431,0.176175
24176000,0.0324,0.013523,0.002678,0.000431,0.112592
24177000,0.0324,0.013523,0.002678,0.000431,0.066403
24178000,0.0324,0.013523,0.002678,0.000431,0.067344
24179000,0.0324,0.013523,0.002678,0.000431,0.049949
24180000,0.0324,0.013523,0.002678,0.000431,0.089674
24181000,0.0324,0.013523,0.002678,0.000431,0.145265
24182000,0.0324,0.013523,0.002678,0.000431,0.095080
24183000,0.0324,0.013523,0.002678,0.000431,0.079919
24184000,0.0324,0.013523,0.002678,0.000431,0.035729
24185000,0.0324,0.013523,0.002678,0.000431,0.073573
24186000,0.0324,0.013523,0.002678,0.000431,0.115413
24187000,0.0324,0.013523,0.002678,0.000431,0.135275
24188000,0.0324,0.013523,0.002678,0.000431,0.092377
24189000,0.0324,0.013523,0.002678,0.000431,0.105423
24190000,0.0324,0.013523,0.002678,0.000431,0.083563
24191000,0.0324,0.013523,0.002678,0.000431,0.057824
24192000,0.0324,0.013523,0.002678,0.000431,0.129986
24193000,0.0324,0.013523,0.002678,0.000431,0.053593
24194000,0.0324,0.013523,0.002678,0.000431,0.146675
24195000,0.0324,0.013523,0.002678,0.000431,0.084620
24196000,0.0324,0.013523,0.002678,0.000431,0.151024
24197000,0.0324,0.013523,0.002678,0.000431,0.082387
24198000,0.0324,0.013523,0.002678,0.000431,0.040195
24199000,0.0324,0.013523,0.002678,0.000431,0.072162
24200000,0.0324,0.013523,0.002678,0.000431,0.078391
24201000,0.0324,0.013523,0.002678,0.000431,0.099194
24202000,0.0324,0.013523,0.002678,0.000431,0.063465
24203000,0.0324,0.013523,0.002678,0.000431,0.074748
24204000,0.0324,0.013523,0.002678,0.000431,0.052653
24205000,0.0324,0.013523,0.002678,0.000431,0.074278
24206000,0.0324,0.013523,0.002678,0.000431,0.080742
24207000,0.0324,0.013523,0.002678,0.000431,0.072280
24208000,0.0324,0.013523,0.002678,0.000431,0.070869
24209000,0.0324,0.013523,0.002678,0.000431,0.105893
24210000,0.0324,0.013523,0.002678,0.000431,0.113885
24211000,0.0324,0.013523,0.002678,0.000431,0.059352
24212000,0.0324,0.013523,0.002678,0.000431,0.103072
24213000,0.0324,0.013523,0.002678,0.000431,0.119761
24214000,0.0324,0.013523,0.002678,0.000431,0.068989
24215000,0.0324,0.013523,0.002678,0.000431,0.075218
24216000,0.0324,0.013523,0.002678,0.000431,0.086148
24217000,0.0324,0.013523,0.002678,0.000431,0.039607
24218000,0.0324,0.013523,0.002678,0.000431,0.054533
24219000,0.0324,0.013523,0.002678,0.000431,0.062760
24220000,0.0324,0.013523,0.002678,0.000431,0.090849
24221000,0.0324,0.013523,0.002678,0.000431,0.051477
24222000,0.0324,0.013523,0.002678,0.000431,0.043250
24223000,0.0324,0.013523,0.002678,0.000431,0.078391
24224000,0.0324,0.013523,0.002678,0.000431,0.077804
24225000,0.0324,0.013523,0.002678,0.000431,0.059939
24226000,0.0324,0.013523,0.002678,0.000431,0.064405
24227000,0.0324,0.013523,0.002678,0.000431,0.044191
24228000,0.0324,0.013523,0.002678,0.000431,0.056649
24229000,0.0324,0.013523,0.002678,0.000431,0.095315
24230000,0.0324,0.013523,0.002678,0.000431,0.070869
24231000,0.0324,0.013523,0.002678,0.000431,0.063113
24232000,0.0324,0.013523,0.002678,0.000431,0.086618
24233000,0.0324,0.013523,0.002678,0.000431,0.093670
24234000,0.0324,0.013523,0.002678,0.000431,0.063700
24235000,0.0324,0.013523,0.002678,0.000431,0.048069
24236000,0.0324,0.013523,0.002678,0.000431,0.041370
24237000,0.0324,0.013523,0.002678,0.000431,0.065933
24238000,0.0324,0.013523,0.002678,0.000431,0.064758
24239000,0.0324,0.013523,0.002678,0.000431,0.096961
24240000,0.0324,0.013523,0.002678,0.000431,0.044778
24241000,0.0324,0.013523,0.002678,0.000431,0.064405
24242000,0.0324,0.013523,0.002678,0.000431,0.037374
24243000,0.0324,0.013523,0.002678,0.000431,0.045013
24244000,0.0324,0.013523,0.002678,0.000431,0.053358
24245000,0.0324,0.013523,0.002678,0.000431,0.070399
24246000,0.0324,0.013523,0.002678,0.000431,0.083798
24247000,0.0324,0.013523,0.002678,0.000431,0.062055
24248000,0.0324,0.013523,0.002678,0.000431,0.039607
24249000,0.0324,0.013523,0.002678,0.000431,0.041017
24250000,0.0324,0.013523,0.002678,0.000431,0.063348
24251000,0.0324,0.013523,0.002678,0.000431,0.061702
24252000,0.0324,0.013523,0.002678,0.000431,0.080389
24253000,0.0324,0.013523,0.002678,0.000431,0.067344
24254000,0.0324,0.013523,0.002678,0.000431,0.050537
24255000,0.0324,0.013523,0.002678,0.000431,0.039254
24256000,0.0324,0.013523,0.002678,0.000431,0.052183
24257000,0.0324,0.013523,0.002678,0.000431,0.159368
24258000,0.0324,0.013523,0.002678,0.000431,0.100252
24259000,0.0324,0.013523,0.002678,0.000431,0.057589
24260000,0.0324,0.013523,0.002678,0.000431,0.047129
24261000,0.0324,0.013523,0.002678,0.000431,0.063230
24262000,0.0324,0.013523,0.002678,0.000431,0.047364
24263000,0.0324,0.013523,0.002678,0.000431,0.047364
24264000,0.0324,0.013523,0.002678,0.000431,0.053475
24265000,0.0324,0.013523,0.002678,0.000431,0.110712
24266000,0.0324,0.013523,0.002678,0.000431,0.074630
24267000,0.0324,0.013523,0.002678,0.000431,0.053828
24268000,0.0324,0.013523,0.002678,0.000431,0.052770
24269000,0.0324,0.013523,0.002678,0.000431,0.047951
24270000,0.0324,0.013523,0.002678,0.000431,0.068872
24271000,0.0324,0.013523,0.002678,0.000431,0.108831
24272000,0.0324,0.013523,0.002678,0.000431,0.047599
24273000,0.0324,0.013523,0.002678,0.000431,0.066638
24274000,0.0324,0.013523,0.002678,0.000431,0.072280
24275000,0.0324,0.013523,0.002678,0.000431,0.036316
24276000,0.0324,0.013523,0.002678,0.000431,0.041017
24277000,0.0324,0.013523,0.002678,0.000431,0.059939
24278000,0.0324,0.013523,0.002678,0.000431,0.053710
24279000,0.0324,0.013523,0.002678,0.000431,0.064758
24280000,0.0324,0.013523,0.002678,0.000431,0.049714
24281000,0.0324,0.013523,0.002678,0.000431,0.062290
24282000,0.0324,0.013523,0.002678,0.000431,0.057001
24283000,0.0324,0.013523,0.002678,0.000431,0.036669
24284000,0.0324,0.013523,0.002678,0.000431,0.071457
24285000,0.0324,0.013523,0.002678,0.000431,0.081565
24286000,0.0324,0.013523,0.002678,0.000431,0.058059
24287000,0.0324,0.013523,0.002678,0.000431,0.039137
24288000,0.0324,0.013523,0.002678,0.000431,0.046776
24289000,0.0324,0.013523,0.002678,0.000431,0.033025
24290000,0.0324,0.013523,0.002678,0.000431,0.043133
24291000,0.0324,0.013523,0.002678,0.000431,0.047716
24292000,0.0324,0.013523,0.002678,0.000431,0.030440
24293000,0.0324,0.013523,0.002678,0.000431,0.111534
24294000,0.0324,0.013523,0.002678,0.000431,0.091554
24295000,0.0324,0.013523,0.002678,0.000431,0.030557
24296000,0.0324,0.013523,0.002678,0.000431,0.048657
24297000,0.0324,0.013523,0.002678,0.000431,0.088381
24298000,0.0324,0.013523,0.002678,0.000431,0.081565
24299000,0.0324,0.013523,0.002678,0.000431,0.106598
24300000,0.0324,0.013523,0.002678,0.000431,0.111534
24301000,0.0324,0.013523,0.002678,0.000431,0.030675
24302000,0.0324,0.013523,0.002678,0.000431,0.049832
24303000,0.0324,0.013523,0.002678,0.000431,0.076981
24304000,0.0324,0.013523,0.002678,0.000431,0.041840
24305000,0.0324,0.013523,0.002678,0.000431,0.052653
24306000,0.0324,0.013523,0.002678,0.000431,0.200856
24307000,0.0324,0.013523,0.002678,0.000431,0.205557
24308000,0.0324,0.013523,0.002678,0.000431,0.030557
24309000,0.0324,0.013523,0.002678,0.000431,0.053123
24310000,0.0324,0.013523,0.002678,0.000431,0.082622
24311000,0.0324,0.013523,0.002678,0.000431,0.062055
24312000,0.0324,0.013523,0.002678,0.000431,0.052535
24313000,0.0324,0.013523,0.002678,0.000431,0.064758
24314000,0.0324,0.013523,0.002678,0.000431,0.026796
24315000,0.0324,0.013523,0.002678,0.000431,0.056531
24316000,0.0324,0.013523,0.002678,0.000431,0.097901
24317000,0.0324,0.013523,0.002678,0.000431,0.030792
24318000,0.0324,0.013523,0.002678,0.000431,0.049597
24319000,0.0324,0.013523,0.002678,0.000431,0.055826
24320000,0.0324,0.013523,0.002678,0.000431,0.033966
24321000,0.0324,0.013523,0.002678,0.000431,0.027031
24322000,0.0324,0.013523,0.002678,0.000431,0.026914
24323000,0.0324,0.013523,0.002678,0.000431,0.027972
24324000,0.0324,0.013523,0.002678,0.000431,0.055238
24325000,0.0324,0.013523,0.002678,0.000431,0.069342
24326000,0.0324,0.013523,0.002678,0.000431,0.045131
24327000,0.0324,0.013523,0.002678,0.000431,0.036786
24328000,0.0324,0.013523,0.002678,0.000431,0.031027
24329000,0.0324,0.013523,0.002678,0.000431,0.090967
24330000,0.0324,0.013523,0.002678,0.000431,0.038784
24331000,0.0324,0.013523,0.002678,0.000431,0.050067
24332000,0.0324,0.013523,0.002678,0.000431,0.044426
24333000,0.0324,0.013523,0.002678,0.000431,0.075101
24334000,0.0324,0.013523,0.002678,0.000431,0.026444
24335000,0.0324,0.013523,0.002678,0.000431,0.039254
24336000,0.0324,0.013523,0.002678,0.000431,0.057941
24337000,0.0324,0.013523,0.002678,0.000431,0.032085
24338000,0.0324,0.013523,0.002678,0.000431,0.038432
24339000,0.0324,0.013523,0.002678,0.000431,0.086853
24340000,0.0324,0.013523,0.002678,0.000431,0.080272
24341000,0.0324,0.013523,0.002678,0.000431,0.025739
24342000,0.0324,0.013523,0.002678,0.000431,0.033260
24343000,0.0324,0.013523,0.002678,0.000431,0.033260
24344000,0.0324,0.013523,0.002678,0.000431,0.039607
24345000,0.0324,0.013523,0.002678,0.000431,0.093317
24346000,0.0324,0.013523,0.002678,0.000431,0.270902
24347000,0.0324,0.013523,0.002678,0.000431,0.143267
24348000,0.0324,0.013523,0.002678,0.000431,0.025621
24349000,0.0324,0.013523,0.002678,0.000431,0.036669
24350000,0.0324,0.013523,0.002678,0.000431,0.049832
24351000,0.0324,0.013523,0.002678,0.000431,0.029852
24352000,0.0324,0.013523,0.002678,0.000431,0.029382
24353000,0.0324,0.013523,0.002678,0.000431,0.108479
24354000,0.0324,0.013523,0.002678,0.000431,0.070752
24355000,0.0324,0.013523,0.002678,0.000431,0.039725
24356000,0.0324,0.013523,0.002678,0.000431,0.024681
24357000,0.0324,0.013523,0.002678,0.000431,0.039489
24358000,0.0324,0.013523,0.002678,0.000431,0.029617
24359000,0.0324,0.013523,0.002678,0.000431,0.021155
24360000,0.0324,0.013523,0.002678,0.000431,0.037139
24361000,0.0324,0.013523,0.002678,0.000431,0.030675
24362000,0.0324,0.013523,0.002678,0.000431,0.031850
24363000,0.0324,0.013523,0.002678,0.000431,0.021743
24364000,0.0324,0.013523,0.002678,0.000431,0.032673
24365000,0.0324,0.013523,0.002678,0.000431,0.050655
24366000,0.0324,0.013523,0.002678,0.000431,0.096491
24367000,0.0324,0.013523,0.002678,0.000431,0.025974
24368000,0.0324,0.013523,0.002678,0.000431,0.029735
24369000,0.0324,0.013523,0.002678,0.000431,0.033848
24370000,0.0324,0.013523,0.002678,0.000431,0.029617
24371000,0.0324,0.013523,0.002678,0.000431,0.046306
24372000,0.0324,0.013523,0.002678,0.000431,0.071457
24373000,0.0324,0.013523,0.002678,0.000431,0.239287
24374000,0.0324,0.013523,0.002678,0.000431,0.141269
24375000,0.0324,0.013523,0.002678,0.000431,0.081330
24376000,0.0324,0.013523,0.002678,0.000431,0.016336
24377000,0.0324,0.013523,0.002678,0.000431,0.016336
24378000,0.0324,0.013523,0.002678,0.000431,0.016219
24379000,0.0324,0.013523,0.002678,0.000431,0.057589
24380000,0.0324,0.013523,0.002678,0.000431,0.053710
24381000,0.0324,0.013523,0.002678,0.000431,0.045483
24382000,0.0324,0.013523,0.002678,0.000431,0.232471
24383000,0.0324,0.013523,0.002678,0.000431,0.074395
24384000,0.0324,0.013523,0.002678,0.000431,0.030440
24385000,0.0324,0.013523,0.002678,0.000431,0.029147
24386000,0.0324,0.013523,0.002678,0.000431,0.021625
24387000,0.0324,0.013523,0.002678,0.000431,0.058529
24388000,0.0324,0.013523,0.002678,0.000431,0.014103
24389000,0.0324,0.013523,0.002678,0.000431,0.014691
24390000,0.0324,0.013523,0.002678,0.000431,0.015279
24391000,0.0324,0.013523,0.002678,0.000431,0.021978
24392000,0.0324,0.013523,0.002678,0.000431,0.036669
24393000,0.0324,0.013523,0.002678,0.000431,0.043250
24394000,0.0324,0.013523,0.002678,0.000431,0.014926
24395000,0.0324,0.013523,0.002678,0.000431,0.020450
24396000,0.0324,0.013523,0.002678,0.000431,0.020450
24397000,0.0324,0.013523,0.002678,0.000431,0.012928
24398000,0.0324,0.013523,0.002678,0.000431,0.020332
24399000,0.0324,0.013523,0.002678,0.000431,0.087911
24400000,0.0324,0.013523,0.002678,0.000431,0.023506
24401000,0.0324,0.013523,0.002678,0.000431,0.030675
24402000,0.0324,0.013523,0.002678,0.000431,0.027972
24403000,0.0324,0.013523,0.002678,0.000431,0.012693
24404000,0.0324,0.013523,0.002678,0.000431,0.024798
24405000,0.0324,0.013523,0.002678,0.000431,0.014573
24406000,0.0324,0.013523,0.002678,0.000431,0.011753
24407000,0.0324,0.013523,0.002678,0.000431,0.018452
24408000,0.0324,0.013523,0.002678,0.000431,0.025974
24409000,0.0324,0.013523,0.002678,0.000431,0.019275
24410000,0.0324,0.013523,0.002678,0.000431,0.011753
24411000,0.0324,0.013523,0.002678,0.000431,0.011753
24412000,0.0324,0.013523,0.002678,0.000431,0.011753
24413000,0.0324,0.013523,0.002678,0.000431,0.018099
24414000,0.0324,0.013523,0.002678,0.000431,0.013986
24415000,0.0324,0.013523,0.002678,0.000431,0.050655
24416000,0.0324,0.013523,0.002678,0.000431,0.009402
24417000,0.0324,0.013523,0.002678,0.000431,0.009402
24418000,0.0324,0.013523,0.002678,0.000431,0.054298
24419000,0.0324,0.013523,0.002678,0.000431,0.121994
24420000,0.0324,0.013523,0.002678,0.000431,0.009402
24421000,0.0324,0.013523,0.002678,0.000431,0.030910
24422000,0.0324,0.013523,0.002678,0.000431,0.045836
24423000,0.0324,0.013523,0.002678,0.000431,0.008227
24424000,0.0324,0.013523,0.002678,0.000431,0.008580
24425000,0.0324,0.013523,0.002678,0.000431,0.099664
24426000,0.0324,0.013523,0.002678,0.000431,0.016924
24427000,0.0324,0.013523,0.002678,0.000431,0.009285
24428000,0.0324,0.013523,0.002678,0.000431,0.024328
24429000,0.0324,0.013523,0.002678,0.000431,0.016924
24430000,0.0324,0.013523,0.002678,0.000431,0.009520
24431000,0.0324,0.013523,0.002678,0.000431,0.029147
24432000,0.0324,0.013523,0.002678,0.000431,0.065581
24433000,0.0324,0.013523,0.002678,0.000431,0.007992
24434000,0.0324,0.013523,0.002678,0.000431,0.015514
24435000,0.0324,0.013523,0.002678,0.000431,0.008227
24436000,0.0324,0.013523,0.002678,0.000431,0.008227
24437000,0.0324,0.013523,0.002678,0.000431,0.023271
24438000,0.0324,0.013523,0.002678,0.000431,0.013281
24439000,0.0324,0.013523,0.002678,0.000431,0.018217
24440000,0.0324,0.013523,0.002678,0.000431,0.007992
24441000,0.0324,0.013523,0.002678,0.000431,0.015514
24442000,0.0324,0.013523,0.002678,0.000431,0.008227
24443000,0.0324,0.013523,0.002678,0.000431,0.018687
24444000,0.0324,0.013523,0.002678,0.000431,0.018922
24445000,0.0324,0.013523,0.002678,0.000431,0.035258
24446000,0.0324,0.013523,0.002678,0.000431,0.008227
24447000,0.0324,0.013523,0.002678,0.000431,0.015749
24448000,0.0324,0.013523,0.002678,0.000431,0.030792
24449000,0.0324,0.013523,0.002678,0.000431,0.008227
24450000,0.0324,0.013523,0.002678,0.000431,0.008109
24451000,0.0324,0.013523,0.002678,0.000431,0.069929
24452000,0.0324,0.013523,0.002678,0.000431,0.088381
24453000,0.0324,0.013523,0.002678,0.000431,0.008227
24454000,0.0324,0.013523,0.002678,0.000431,0.029735
24455000,0.0324,0.013523,0.002678,0.000431,0.021038
24456000,0.0324,0.013523,0.002678,0.000431,0.008227
24457000,0.0324,0.013523,0.002678,0.000431,0.008227
24458000,0.0324,0.013523,0.002678,0.000431,0.018569
24459000,0.0324,0.013523,0.002678,0.000431,0.007992
24460000,0.0324,0.013523,0.002678,0.000431,0.011988
24461000,0.0324,0.013523,0.002678,0.000431,0.025504
24462000,0.0324,0.013523,0.002678,0.000431,0.007052
24463000,0.0324,0.013523,0.002678,0.000431,0.006934
24464000,0.0324,0.013523,0.002678,0.000431,0.068636
24465000,0.0324,0.013523,0.002678,0.000431,0.010813
24466000,0.0324,0.013523,0.002678,0.000431,0.005876
24467000,0.0324,0.013523,0.002678,0.000431,0.005759
24468000,0.0324,0.013523,0.002678,0.000431,0.055473
24469000,0.0324,0.013523,0.002678,0.000431,0.016101
24470000,0.0324,0.013523,0.002678,0.000431,0.005876
24471000,0.0324,0.013523,0.002678,0.000431,0.033848
24472000,0.0324,0.013523,0.002678,0.000431,0.026444
24473000,0.0324,0.013523,0.002678,0.000431,0.004701
24474000,0.0324,0.013523,0.002678,0.000431,0.060057
24475000,0.0324,0.013523,0.002678,0.000431,0.029029
24476000,0.0324,0.013523,0.002678,0.000431,0.004701
24477000,0.0324,0.013523,0.002678,0.000431,0.004701
24478000,0.0324,0.013523,0.002678,0.000431,0.004701
24479000,0.0324,0.013523,0.002678,0.000431,0.004701
24480000,0.0324,0.013523,0.002678,0.000431,0.006229
24481000,0.0324,0.013523,0.002678,0.000431,0.085913
24482000,0.0324,0.013523,0.002678,0.000431,0.004701
24483000,0.0324,0.013523,0.002678,0.000431,0.004584
24484000,0.0324,0.013523,0.002678,0.000431,0.004584
24485000,0.0324,0.013523,0.002678,0.000431,0.004701
24486000,0.0324,0.013523,0.002678,0.000431,0.008462
24487000,0.0324,0.013523,0.002678,0.000431,0.078626
24488000,0.0324,0.013523,0.002678,0.000431,0.027737
24489000,0.0324,0.013523,0.002678,0.000431,0.024093
24490000,0.0324,0.013523,0.002678,0.000431,0.012928
24491000,0.0324,0.013523,0.002678,0.000431,0.065111
24492000,0.0324,0.013523,0.002678,0.000431,0.045836
24493000,0.0324,0.013523,0.002678,0.000431,0.004701
24494000,0.0324,0.013523,0.002678,0.000431,0.004701
24495000,0.0324,0.013523,0.002678,0.000431,0.012223
24496000,0.0324,0.013523,0.002678,0.000431,0.004701
24497000,0.0324,0.013523,0.002678,0.000431,0.042310
24498000,0.0324,0.013523,0.002678,0.000431,0.132219
24499000,0.0324,0.013523,0.002678,0.000431,0.004584
24500000,0.0324,0.013523,0.002678,0.000431,0.004701
24501000,0.0324,0.013523,0.002678,0.000431,0.004701
24502000,0.0324,0.013523,0.002678,0.000431,0.012223
24503000,0.0324,0.013523,0.002678,0.000431,0.013751
24504000,0.0324,0.013523,0.002678,0.000431,0.013751
24505000,0.0324,0.013523,0.002678,0.000431,0.004701
24506000,0.0324,0.013523,0.002678,0.000431,0.004701
24507000,0.0324,0.013523,0.002678,0.000431,0.023741
24508000,0.0324,0.013523,0.002678,0.000431,0.035729
24509000,0.0324,0.013523,0.002678,0.000431,0.007052
24510000,0.0324,0.013523,0.002678,0.000431,0.004701
24511000,0.0324,0.013523,0.002678,0.000431,0.019510
24512000,0.0324,0.013523,0.002678,0.000431,0.004701
24513000,0.0324,0.013523,0.002678,0.000431,0.004701
24514000,0.0324,0.013523,0.002678,0.000431,0.004701
24515000,0.0324,0.013523,0.002678,0.000431,0.034788
24516000,0.0324,0.013523,0.002678,0.000431,0.007757
24517000,0.0324,0.013523,0.002678,0.000431,0.012223
24518000,0.0324,0.013523,0.002678,0.000431,0.016454
24519000,0.0324,0.013523,0.002678,0.000431,0.004701
24520000,0.0324,0.013523,0.002678,0.000431,0.004701
24521000,0.0324,0.013523,0.002678,0.000431,0.019745
24522000,0.0324,0.013523,0.002678,0.000431,0.004701
24523000,0.0324,0.013523,0.002678,0.000431,0.060057
24524000,0.0324,0.013523,0.002678,0.000431,0.179230
24525000,0.0324,0.013523,0.002678,0.000431,0.012223
24526000,0.0324,0.013523,0.002678,0.000431,0.004701
24527000,0.0324,0.013523,0.002678,0.000431,0.004701
24528000,0.0324,0.013523,0.002678,0.000431,0.027267
24529000,0.0324,0.013523,0.002678,0.000431,0.009520
24530000,0.0324,0.013523,0.002678,0.000431,0.095080
24531000,0.0324,0.013523,0.002678,0.000431,0.085090
24532000,0.0324,0.013523,0.002678,0.000431,0.004701
24533000,0.0324,0.013523,0.002678,0.000431,0.004701
24534000,0.0324,0.013523,0.002678,0.000431,0.067931
24535000,0.0324,0.013523,0.002678,0.000431,0.004701
24536000,0.0324,0.013523,0.002678,0.000431,0.004584
24537000,0.0324,0.013523,0.002678,0.000431,0.004584
24538000,0.0324,0.013523,0.002678,0.000431,0.007639
24539000,0.0324,0.013523,0.002678,0.000431,0.004584
24540000,0.0324,0.013523,0.002678,0.000431,0.004701
24541000,0.0324,0.013523,0.002678,0.000431,0.004701
24542000,0.0324,0.013523,0.002678,0.000431,0.027267
24543000,0.0324,0.013523,0.002678,0.000431,0.004701
24544000,0.0324,0.013523,0.002678,0.000431,0.027267
24545000,0.0324,0.013523,0.002678,0.000431,0.004701
24546000,0.0324,0.013523,0.002678,0.000431,0.006229
24547000,0.0324,0.013523,0.002678,0.000431,0.006229
24548000,0.0324,0.013523,0.002678,0.000431,0.060527
24549000,0.0324,0.013523,0.002678,0.000431,0.091319
24550000,0.0324,0.013523,0.002678,0.000431,0.040547
24551000,0.0324,0.013523,0.002678,0.000431,0.081682
24552000,0.0324,0.013523,0.002678,0.000431,0.004701
24553000,0.0324,0.013523,0.002678,0.000431,0.004701
24554000,0.0324,0.013523,0.002678,0.000431,0.016454
24555000,0.0324,0.013523,0.002678,0.000431,0.004701
24556000,0.0324,0.013523,0.002678,0.000431,0.004701
24557000,0.0324,0.013523,0.002678,0.000431,0.027267
24558000,0.0324,0.013523,0.002678,0.000431,0.004701
24559000,0.0324,0.013523,0.002678,0.000431,0.004701
24560000,0.0324,0.013523,0.002678,0.000431,0.027972
24561000,0.0324,0.013523,0.002678,0.000431,0.081330
24562000,0.0324,0.013523,0.002678,0.000431,0.043015
24563000,0.0324,0.013523,0.002678,0.000431,0.025504
24564000,0.0324,0.013523,0.002678,0.000431,0.021273
24565000,0.0324,0.013523,0.002678,0.000431,0.004701
24566000,0.0324,0.013523,0.002678,0.000431,0.004701
24567000,0.0324,0.013523,0.002678,0.000431,0.047481
24568000,0.0324,0.013523,0.002678,0.000431,0.176057
24569000,0.0324,0.013523,0.002678,0.000431,0.004701
24570000,0.0324,0.013523,0.002678,0.000431,0.034788
24571000,0.0324,0.013523,0.002678,0.000431,0.004701
24572000,0.0324,0.013523,0.002678,0.000431,0.004701
24573000,0.0324,0.013523,0.002678,0.000431,0.004701
24574000,0.0324,0.013523,0.002678,0.000431,0.030675
24575000,0.0324,0.013523,0.002678,0.000431,0.023858
24576000,0.0324,0.013523,0.002678,0.000431,0.004701
24577000,0.0324,0.013523,0.002678,0.000431,0.019745
24578000,0.0324,0.013523,0.002678,0.000431,0.004701
24579000,0.0324,0.013523,0.002678,0.000431,0.004701
24580000,0.0324,0.013523,0.002678,0.000431,0.004701
24581000,0.0324,0.013523,0.002678,0.000431,0.049832
24582000,0.0324,0.013523,0.002678,0.000431,0.004701
24583000,0.0324,0.013523,0.002678,0.000431,0.088381
24584000,0.0324,0.013523,0.002678,0.000431,0.071457
24585000,0.0324,0.013523,0.002678,0.000431,0.004466
24586000,0.0324,0.013523,0.002678,0.000431,0.004584
24587000,0.0324,0.013523,0.002678,0.000431,0.034671
24588000,0.0324,0.013523,0.002678,0.000431,0.004701
24589000,0.0324,0.013523,0.002678,0.000431,0.014691
24590000,0.0324,0.013523,0.002678,0.000431,0.109301
24591000,0.0324,0.013523,0.002678,0.000431,0.070399
24592000,0.0324,0.013523,0.002678,0.000431,0.004701
24593000,0.0324,0.013523,0.002678,0.000431,0.004701
24594000,0.0324,0.013523,0.002678,0.000431,0.019745
24595000,0.0324,0.013523,0.002678,0.000431,0.004701
24596000,0.0324,0.013523,0.002678,0.000431,0.004701
24597000,0.0324,0.013523,0.002678,0.000431,0.015514
24598000,0.0324,0.013523,0.002678,0.000431,0.004701
24599000,0.0324,0.013523,0.002678,0.000431,0.004701
24600000,0.0324,0.013523,0.002678,0.000431,0.034788
24601000,0.0324,0.013523,0.002678,0.000431,0.007992
24602000,0.0324,0.013523,0.002678,0.000431,0.004701
24603000,0.0324,0.013523,0.002678,0.000431,0.012223
24604000,0.0324,0.013523,0.002678,0.000431,0.004701
24605000,0.0324,0.013523,0.002678,0.000431,0.004701
24606000,0.0324,0.013523,0.002678,0.000431,0.012223
24607000,0.0324,0.013523,0.002678,0.000431,0.019510
24608000,0.0324,0.013523,0.002678,0.000431,0.004701
24609000,0.0324,0.013523,0.002678,0.000431,0.087676
24610000,0.0324,0.013523,0.002678,0.000431,0.004701
24611000,0.0324,0.013523,0.002678,0.000431,0.019745
24612000,0.0324,0.013523,0.002678,0.000431,0.004701
24613000,0.0324,0.013523,0.002678,0.000431,0.027267
24614000,0.0324,0.013523,0.002678,0.000431,0.008932
24615000,0.0324,0.013523,0.002678,0.000431,0.004701
24616000,0.0324,0.013523,0.002678,0.000431,0.109419
24617000,0.0324,0.013523,0.002678,0.000431,0.017042
24618000,0.0324,0.013523,0.002678,0.000431,0.004701
24619000,0.0324,0.013523,0.002678,0.000431,0.035376
24620000,0.0324,0.013523,0.002678,0.000431,0.124227
24621000,0.0324,0.013523,0.002678,0.000431,0.004701
24622000,0.0324,0.013523,0.002678,0.000431,0.004701
24623000,0.0324,0.013523,0.002678,0.000431,0.057354
24624000,0.0324,0.013523,0.002678,0.000431,0.004701
24625000,0.0324,0.013523,0.002678,0.000431,0.004701
24626000,0.0324,0.013523,0.002678,0.000431,0.076628
24627000,0.0324,0.013523,0.002678,0.000431,0.004701
24628000,0.0324,0.013523,0.002678,0.000431,0.004584
24629000,0.0324,0.013523,0.002678,0.000431,0.041370
24630000,0.0324,0.013523,0.002678,0.000431,0.035846
24631000,0.0324,0.013523,0.002678,0.000431,0.004701
24632000,0.0324,0.013523,0.002678,0.000431,0.013986
24633000,0.0324,0.013523,0.002678,0.000431,0.063113
24634000,0.0324,0.013523,0.002678,0.000431,0.012223
24635000,0.0324,0.013523,0.002678,0.000431,0.006817
24636000,0.0324,0.013523,0.002678,0.000431,0.044661
24637000,0.0324,0.013523,0.002678,0.000431,0.004701
24638000,0.0324,0.013523,0.002678,0.000431,0.004701
24639000,0.0324,0.013523,0.002678,0.000431,0.012223
24640000,0.0324,0.013523,0.002678,0.000431,0.057354
24641000,0.0324,0.013523,0.002678,0.000431,0.004466
24642000,0.0324,0.013523,0.002678,0.000431,0.087206
24643000,0.0324,0.013523,0.002678,0.000431,0.012223
24644000,0.0324,0.013523,0.002678,0.000431,0.004701
24645000,0.0324,0.013523,0.002678,0.000431,0.004701
24646000,0.0324,0.013523,0.002678,0.000431,0.004701
24647000,0.0324,0.013523,0.002678,0.000431,0.004701
24648000,0.0324,0.013523,0.002678,0.000431,0.004584
24649000,0.0324,0.013523,0.002678,0.000431,0.090614
24650000,0.0324,0.013523,0.002678,0.000431,0.004701
24651000,0.0324,0.013523,0.002678,0.000431,0.004701
24652000,0.0324,0.013523,0.002678,0.000431,0.034788
24653000,0.0324,0.013523,0.002678,0.000431,0.080154
24654000,0.0324,0.013523,0.002678,0.000431,0.004701
24655000,0.0324,0.013523,0.002678,0.000431,0.023976
24656000,0.0324,0.013523,0.002678,0.000431,0.004701
24657000,0.0324,0.013523,0.002678,0.000431,0.004701
24658000,0.0324,0.013523,0.002678,0.000431,0.004701
24659000,0.0324,0.013523,0.002678,0.000431,0.006699
24660000,0.0324,0.013523,0.002678,0.000431,0.032790
24661000,0.0324,0.013523,0.002678,0.000431,0.012223
24662000,0.0324,0.013523,0.002678,0.000431,0.019745
24663000,0.0324,0.013523,0.002678,0.000431,0.004701
24664000,0.0324,0.013523,0.002678,0.000431,0.004701
24665000,0.0324,0.013523,0.002678,0.000431,0.055473
24666000,0.0324,0.013523,0.002678,0.000431,0.193334
24667000,0.0324,0.013523,0.002678,0.000431,0.074395
24668000,0.0324,0.013523,0.002678,0.000431,0.037844
24669000,0.0324,0.013523,0.002678,0.000431,0.004701
24670000,0.0324,0.013523,0.002678,0.000431,0.004701
24671000,0.0324,0.013523,0.002678,0.000431,0.027267
24672000,0.0324,0.013523,0.002678,0.000431,0.004701
24673000,0.0324,0.013523,0.002678,0.000431,0.057354
24674000,0.0324,0.013523,0.002678,0.000431,0.004701
24675000,0.0324,0.013523,0.002678,0.000431,0.004701
24676000,0.0324,0.013523,0.002678,0.000431,0.004701
24677000,0.0324,0.013523,0.002678,0.000431,0.004701
24678000,0.0324,0.013523,0.002678,0.000431,0.057354
24679000,0.0324,0.013523,0.002678,0.000431,0.012223
24680000,0.0324,0.013523,0.002678,0.000431,0.009050
24681000,0.0324,0.013523,0.002678,0.000431,0.112474
24682000,0.0324,0.013523,0.002678,0.000431,0.004701
24683000,0.0324,0.013523,0.002678,0.000431,0.004701
24684000,0.0324,0.013523,0.002678,0.000431,0.004701
24685000,0.0324,0.013523,0.002678,0.000431,0.008462
24686000,0.0324,0.013523,0.002678,0.000431,0.109536
24687000,0.0324,0.013523,0.002678,0.000431,0.025504
24688000,0.0324,0.013523,0.002678,0.000431,0.040782
24689000,0.0324,0.013523,0.002678,0.000431,0.057354
24690000,0.0324,0.013523,0.002678,0.000431,0.004701
24691000,0.0324,0.013523,0.002678,0.000431,0.004701
24692000,0.0324,0.013523,0.002678,0.000431,0.004584
24693000,0.0324,0.013523,0.002678,0.000431,0.004584
24694000,0.0324,0.013523,0.002678,0.000431,0.078979
24695000,0.0324,0.013523,0.002678,0.000431,0.006934
24696000,0.0324,0.013523,0.002678,0.000431,0.078156
24697000,0.0324,0.013523,0.002678,0.000431,0.048304
24698000,0.0324,0.013523,0.002678,0.000431,0.092495
24699000,0.0324,0.013523,0.002678,0.000431,0.004584
24700000,0.0324,0.013523,0.002678,0.000431,0.010460
24701000,0.0324,0.013523,0.002678,0.000431,0.010578
24702000,0.0324,0.013523,0.002678,0.000431,0.004701
24703000,0.0324,0.013523,0.002678,0.000431,0.004701
24704000,0.0324,0.013523,0.002678,0.000431,0.007992
24705000,0.0324,0.013523,0.002678,0.000431,0.004701
24706000,0.0324,0.013523,0.002678,0.000431,0.004701
24707000,0.0324,0.013523,0.002678,0.000431,0.012223
24708000,0.0324,0.013523,0.002678,0.000431,0.117058
24709000,0.0324,0.013523,0.002678,0.000431,0.035023
24710000,0.0324,0.013523,0.002678,0.000431,0.069107
24711000,0.0324,0.013523,0.002678,0.000431,0.004701
24712000,0.0324,0.013523,0.002678,0.000431,0.004701
24713000,0.0324,0.013523,0.002678,0.000431,0.004701
24714000,0.0324,0.013523,0.002678,0.000431,0.004701
24715000,0.0324,0.013523,0.002678,0.000431,0.102250
24716000,0.0324,0.013523,0.002678,0.000431,0.030322
24717000,0.0324,0.013523,0.002678,0.000431,0.004701
24718000,0.0324,0.013523,0.002678,0.000431,0.004701
24719000,0.0324,0.013523,0.002678,0.000431,0.004701
24720000,0.0324,0.013523,0.002678,0.000431,0.019745
24721000,0.0324,0.013523,0.002678,0.000431,0.013633
24722000,0.0324,0.013523,0.002678,0.000431,0.186400
24723000,0.0324,0.013523,0.002678,0.000431,0.004701
24724000,0.0324,0.013523,0.002678,0.000431,0.004701
24725000,0.0324,0.013523,0.002678,0.000431,0.046071
24726000,0.0324,0.013523,0.002678,0.000431,0.008462
24727000,0.0324,0.013523,0.002678,0.000431,0.004701
24728000,0.0324,0.013523,0.002678,0.000431,0.009637
24729000,0.0324,0.013523,0.002678,0.000431,0.029852
24730000,0.0324,0.013523,0.002678,0.000431,0.004701
24731000,0.0324,0.013523,0.002678,0.000431,0.004701
24732000,0.0324,0.013523,0.002678,0.000431,0.019627
24733000,0.0324,0.013523,0.002678,0.000431,0.019510
24734000,0.0324,0.013523,0.002678,0.000431,0.006699
24735000,0.0324,0.013523,0.002678,0.000431,0.018099
24736000,0.0324,0.013523,0.002678,0.000431,0.008462
24737000,0.0324,0.013523,0.002678,0.000431,0.004701
24738000,0.0324,0.013523,0.002678,0.000431,0.004701
24739000,0.0324,0.013523,0.002678,0.000431,0.019627
24740000,0.0324,0.013523,0.002678,0.000431,0.004584
24741000,0.0324,0.013523,0.002678,0.000431,0.038079
24742000,0.0324,0.013523,0.002678,0.000431,0.004701
24743000,0.0324,0.013523,0.002678,0.000431,0.004701
24744000,0.0324,0.013523,0.002678,0.000431,0.004701
24745000,0.0324,0.013523,0.002678,0.000431,0.004701
24746000,0.0324,0.013523,0.002678,0.000431,0.004701
24747000,0.0324,0.013523,0.002678,0.000431,0.004701
24748000,0.0324,0.013523,0.002678,0.000431,0.133042
24749000,0.0324,0.013523,0.002678,0.000431,0.041370
24750000,0.0324,0.013523,0.002678,0.000431,0.004701
24751000,0.0324,0.013523,0.002678,0.000431,0.004701
24752000,0.0324,0.013523,0.002678,0.000431,0.027267
24753000,0.0324,0.013523,0.002678,0.000431,0.004701
24754000,0.0324,0.013523,0.002678,0.000431,0.019745
24755000,0.0324,0.013523,0.002678,0.000431,0.012223
24756000,0.0324,0.013523,0.002678,0.000431,0.004701
24757000,0.0324,0.013523,0.002678,0.000431,0.004701
24758000,0.0324,0.013523,0.002678,0.000431,0.031615
24759000,0.0324,0.013523,0.002678,0.000431,0.033731
24760000,0.0324,0.013523,0.002678,0.000431,0.004701
24761000,0.0324,0.013523,0.002678,0.000431,0.019510
24762000,0.0324,0.013523,0.002678,0.000431,0.064876
24763000,0.0324,0.013523,0.002678,0.000431,0.004701
24764000,0.0324,0.013523,0.002678,0.000431,0.004466
24765000,0.0324,0.013523,0.002678,0.000431,0.053945
24766000,0.0324,0.013523,0.002678,0.000431,0.008109
24767000,0.0324,0.013523,0.002678,0.000431,0.004701
24768000,0.0324,0.013523,0.002678,0.000431,0.045836
24769000,0.0324,0.013523,0.002678,0.000431,0.023741
24770000,0.0324,0.013523,0.002678,0.000431,0.004701
24771000,0.0324,0.013523,0.002678,0.000431,0.004701
24772000,0.0324,0.013523,0.002678,0.000431,0.012223
24773000,0.0324,0.013523,0.002678,0.000431,0.004349
24774000,0.0324,0.013523,0.002678,0.000431,0.023388
24775000,0.0324,0.013523,0.002678,0.000431,0.146675
24776000,0.0324,0.013523,0.002678,0.000431,0.031498
24777000,0.0324,0.013523,0.002678,0.000431,0.004701
24778000,0.0324,0.013523,0.002678,0.000431,0.065698
24779000,0.0324,0.013523,0.002678,0.000431,0.063818
24780000,0.0324,0.013523,0.002678,0.000431,0.004701
24781000,0.0324,0.013523,0.002678,0.000431,0.004701
24782000,0.0324,0.013523,0.002678,0.000431,0.004701
24783000,0.0324,0.013523,0.002678,0.000431,0.004701
24784000,0.0324,0.013523,0.002678,0.000431,0.004701
24785000,0.0324,0.013523,0.002678,0.000431,0.019745
24786000,0.0324,0.013523,0.002678,0.000431,0.004701
24787000,0.0324,0.013523,0.002678,0.000431,0.004701
24788000,0.0324,0.013523,0.002678,0.000431,0.114472
24789000,0.0324,0.013523,0.002678,0.000431,0.007287
24790000,0.0324,0.013523,0.002678,0.000431,0.004701
24791000,0.0324,0.013523,0.002678,0.000431,0.004701
24792000,0.0324,0.013523,0.002678,0.000431,0.004701
24793000,0.0324,0.013523,0.002678,0.000431,0.004701
24794000,0.0324,0.013523,0.002678,0.000431,0.004701
24795000,0.0324,0.013523,0.002678,0.000431,0.012223
24796000,0.0324,0.013523,0.002678,0.000431,0.004584
24797000,0.0324,0.013523,0.002678,0.000431,0.004584
24798000,0.0324,0.013523,0.002678,0.000431,0.004701
24799000,0.0324,0.013523,0.002678,0.000431,0.004701
24800000,0.0324,0.013523,0.002678,0.000431,0.034553
24801000,0.0324,0.013523,0.002678,0.000431,0.019745
24802000,0.0324,0.013523,0.002678,0.000431,0.004701
24803000,0.0324,0.013523,0.002678,0.000431,0.004701
24804000,0.0324,0.013523,0.002678,0.000431,0.008462
24805000,0.0324,0.013523,0.002678,0.000431,0.008462
24806000,0.0324,0.013523,0.002678,0.000431,0.004701
24807000,0.0324,0.013523,0.002678,0.000431,0.023506
24808000,0.0324,0.013523,0.002678,0.000431,0.008462
24809000,0.0324,0.013523,0.002678,0.000431,0.004701
24810000,0.0324,0.013523,0.002678,0.000431,0.004701
24811000,0.0324,0.013523,0.002678,0.000431,0.004701
24812000,0.0324,0.013523,0.002678,0.000431,0.004701
24813000,0.0324,0.013523,0.002678,0.000431,0.012223
24814000,0.0324,0.013523,0.002678,0.000431,0.094728
24815000,0.0324,0.013523,0.002678,0.000431,0.064876
24816000,0.0324,0.013523,0.002678,0.000431,0.004701
24817000,0.0324,0.013523,0.002678,0.000431,0.004701
24818000,0.0324,0.013523,0.002678,0.000431,0.004701
24819000,0.0324,0.013523,0.002678,0.000431,0.004701
24820000,0.0324,0.013523,0.002678,0.000431,0.004701
24821000,0.0324,0.013523,0.002678,0.000431,0.004701
24822000,0.0324,0.013523,0.002678,0.000431,0.004701
24823000,0.0324,0.013523,0.002678,0.000431,0.004701
24824000,0.0324,0.013523,0.002678,0.000431,0.012223
24825000,0.0324,0.013523,0.002678,0.000431,0.004701
24826000,0.0324,0.013523,0.002678,0.000431,0.004701
24827000,0.0324,0.013523,0.002678,0.000431,0.012223
24828000,0.0324,0.013523,0.002678,0.000431,0.004466
24829000,0.0324,0.013523,0.002678,0.000431,0.004701
24830000,0.0324,0.013523,0.002678,0.000431,0.013516
24831000,0.0324,0.013523,0.002678,0.000431,0.018217
24832000,0.0324,0.013523,0.002678,0.000431,0.004701
24833000,0.0324,0.013523,0.002678,0.000431,0.034788
24834000,0.0324,0.013523,0.002678,0.000431,0.004701
24835000,0.0324,0.013523,0.002678,0.000431,0.004701
24836000,0.0324,0.013523,0.002678,0.000431,0.004701
24837000,0.0324,0.013523,0.002678,0.000431,0.012223
24838000,0.0324,0.013523,0.002678,0.000431,0.004701
24839000,0.0324,0.013523,0.002678,0.000431,0.004701
24840000,0.0324,0.013523,0.002678,0.000431,0.049597
24841000,0.0324,0.013523,0.002678,0.000431,0.004701
24842000,0.0324,0.013523,0.002678,0.000431,0.004701
24843000,0.0324,0.013523,0.002678,0.000431,0.008462
24844000,0.0324,0.013523,0.002678,0.000431,0.061115
24845000,0.0324,0.013523,0.002678,0.000431,0.034788
24846000,0.0324,0.013523,0.002678,0.000431,0.012223
24847000,0.0324,0.013523,0.002678,0.000431,0.049832
24848000,0.0324,0.013523,0.002678,0.000431,0.004701
24849000,0.0324,0.013523,0.002678,0.000431,0.004701
24850000,0.0324,0.013523,0.002678,0.000431,0.004701
24851000,0.0324,0.013523,0.002678,0.000431,0.004701
24852000,0.0324,0.013523,0.002678,0.000431,0.009167
24853000,0.0324,0.013523,0.002678,0.000431,0.135392
24854000,0.0324,0.013523,0.002678,0.000431,0.004701
24855000,0.0324,0.013523,0.002678,0.000431,0.004701
24856000,0.0324,0.013523,0.002678,0.000431,0.004701
24857000,0.0324,0.013523,0.002678,0.000431,0.015984
24858000,0.0324,0.013523,0.002678,0.000431,0.008462
24859000,0.0324,0.013523,0.002678,0.000431,0.034788
24860000,0.0324,0.013523,0.002678,0.000431,0.049832
24861000,0.0324,0.013523,0.002678,0.000431,0.004701
24862000,0.0324,0.013523,0.002678,0.000431,0.004701
24863000,0.0324,0.013523,0.002678,0.000431,0.004701
24864000,0.0324,0.013523,0.002678,0.000431,0.004701
24865000,0.0324,0.013523,0.002678,0.000431,0.014809
24866000,0.0324,0.013523,0.002678,0.000431,0.018099
24867000,0.0324,0.013523,0.002678,0.000431,0.086501
24868000,0.0324,0.013523,0.002678,0.000431,0.004584
24869000,0.0324,0.013523,0.002678,0.000431,0.004584
24870000,0.0324,0.013523,0.002678,0.000431,0.004466
24871000,0.0324,0.013523,0.002678,0.000431,0.004701
24872000,0.0324,0.013523,0.002678,0.000431,0.004701
24873000,0.0324,0.013523,0.002678,0.000431,0.019745
24874000,0.0324,0.013523,0.002678,0.000431,0.004701
24875000,0.0324,0.013523,0.002678,0.000431,0.004701
24876000,0.0324,0.013523,0.002678,0.000431,0.004701
24877000,0.0324,0.013523,0.002678,0.000431,0.004701
24878000,0.0324,0.013523,0.002678,0.000431,0.057001
24879000,0.0324,0.013523,0.002678,0.000431,0.057589
24880000,0.0324,0.013523,0.002678,0.000431,0.072045
24881000,0.0324,0.013523,0.002678,0.000431,0.004701
24882000,0.0324,0.013523,0.002678,0.000431,0.004701
24883000,0.0324,0.013523,0.002678,0.000431,0.090379
24884000,0.0324,0.013523,0.002678,0.000431,0.009285
24885000,0.0324,0.013523,0.002678,0.000431,0.004701
24886000,0.0324,0.013523,0.002678,0.000431,0.017394
24887000,0.0324,0.013523,0.002678,0.000431,0.029852
24888000,0.0324,0.013523,0.002678,0.000431,0.004701
24889000,0.0324,0.013523,0.002678,0.000431,0.004701
24890000,0.0324,0.013523,0.002678,0.000431,0.004701
24891000,0.0324,0.013523,0.002678,0.000431,0.078039
24892000,0.0324,0.013523,0.002678,0.000431,0.043956
24893000,0.0324,0.013523,0.002678,0.000431,0.018569
24894000,0.0324,0.013523,0.002678,0.000431,0.004701
24895000,0.0324,0.013523,0.002678,0.000431,0.004701
24896000,0.0324,0.013523,0.002678,0.000431,0.004701
24897000,0.0324,0.013523,0.002678,0.000431,0.004701
24898000,0.0324,0.013523,0.002678,0.000431,0.004701
24899000,0.0324,0.013523,0.002678,0.000431,0.034788
24900000,0.0324,0.013523,0.002678,0.000431,0.004466
24901000,0.0324,0.013523,0.002678,0.000431,0.011048
24902000,0.0324,0.013523,0.002678,0.000431,0.057589
24903000,0.0324,0.013523,0.002678,0.000431,0.004466
24904000,0.0324,0.013523,0.002678,0.000431,0.034788
24905000,0.0324,0.013523,0.002678,0.000431,0.019745
24906000,0.0324,0.013523,0.002678,0.000431,0.004701
24907000,0.0324,0.013523,0.002678,0.000431,0.004701
24908000,0.0324,0.013523,0.002678,0.000431,0.024798
24909000,0.0324,0.013523,0.002678,0.000431,0.053828
24910000,0.0324,0.013523,0.002678,0.000431,0.009755
24911000,0.0324,0.013523,0.002678,0.000431,0.011048
24912000,0.0324,0.013523,0.002678,0.000431,0.127518
24913000,0.0324,0.013523,0.002678,0.000431,0.047129
24914000,0.0324,0.013523,0.002678,0.000431,0.004701
24915000,0.0324,0.013523,0.002678,0.000431,0.004701
24916000,0.0324,0.013523,0.002678,0.000431,0.087676
24917000,0.0324,0.013523,0.002678,0.000431,0.004701
24918000,0.0324,0.013523,0.002678,0.000431,0.042310
24919000,0.0324,0.013523,0.002678,0.000431,0.004701
24920000,0.0324,0.013523,0.002678,0.000431,0.004584
24921000,0.0324,0.013523,0.002678,0.000431,0.004584
24922000,0.0324,0.013523,0.002678,0.000431,0.004701
24923000,0.0324,0.013523,0.002678,0.000431,0.019745
24924000,0.0324,0.013523,0.002678,0.000431,0.008462
24925000,0.0324,0.013523,0.002678,0.000431,0.018217
24926000,0.0324,0.013523,0.002678,0.000431,0.025034
24927000,0.0324,0.013523,0.002678,0.000431,0.004701
24928000,0.0324,0.013523,0.002678,0.000431,0.004701
24929000,0.0324,0.013523,0.002678,0.000431,0.055003
24930000,0.0324,0.013523,0.002678,0.000431,0.019745
24931000,0.0324,0.013523,0.002678,0.000431,0.087794
24932000,0.0324,0.013523,0.002678,0.000431,0.013281
24933000,0.0324,0.013523,0.002678,0.000431,0.004701
24934000,0.0324,0.013523,0.002678,0.000431,0.004701
24935000,0.0324,0.013523,0.002678,0.000431,0.004701
24936000,0.0324,0.013523,0.002678,0.000431,0.004701
24937000,0.0324,0.013523,0.002678,0.000431,0.097548
24938000,0.0324,0.013523,0.002678,0.000431,0.054298
24939000,0.0324,0.013523,0.002678,0.000431,0.004701
24940000,0.0324,0.013523,0.002678,0.000431,0.004584
24941000,0.0324,0.013523,0.002678,0.000431,0.004584
24942000,0.0324,0.013523,0.002678,0.000431,0.042310
24943000,0.0324,0.013523,0.002678,0.000431,0.021155
24944000,0.0324,0.013523,0.002678,0.000431,0.063700
24945000,0.0324,0.013523,0.002678,0.000431,0.005876
24946000,0.0324,0.013523,0.002678,0.000431,0.004701
24947000,0.0324,0.013523,0.002678,0.000431,0.004701
24948000,0.0324,0.013523,0.002678,0.000431,0.004701
24949000,0.0324,0.013523,0.002678,0.000431,0.057119
24950000,0.0324,0.013523,0.002678,0.000431,0.016219
24951000,0.0324,0.013523,0.002678,0.000431,0.008462
24952000,0.0324,0.013523,0.002678,0.000431,0.004701
24953000,0.0324,0.013523,0.002678,0.000431,0.004701
24954000,0.0324,0.013523,0.002678,0.000431,0.004701
24955000,0.0324,0.013523,0.002678,0.000431,0.004701
24956000,0.0324,0.013523,0.002678,0.000431,0.050067
24957000,0.0324,0.013523,0.002678,0.000431,0.049832
24958000,0.0324,0.013523,0.002678,0.000431,0.004701
24959000,0.0324,0.013523,0.002678,0.000431,0.004701
24960000,0.0324,0.013523,0.002678,0.000431,0.004584
24961000,0.0324,0.013523,0.002678,0.000431,0.004584
24962000,0.0324,0.013523,0.002678,0.000431,0.004701
24963000,0.0324,0.013523,0.002678,0.000431,0.019980
24964000,0.0324,0.013523,0.002678,0.000431,0.034788
24965000,0.0324,0.013523,0.002678,0.000431,0.004701
24966000,0.0324,0.013523,0.002678,0.000431,0.004701
24967000,0.0324,0.013523,0.002678,0.000431,0.004584
24968000,0.0324,0.013523,0.002678,0.000431,0.005759
24969000,0.0324,0.013523,0.002678,0.000431,0.004701
24970000,0.0324,0.013523,0.002678,0.000431,0.027267
24971000,0.0324,0.013523,0.002678,0.000431,0.034788
24972000,0.0324,0.013523,0.002678,0.000431,0.004701
24973000,0.0324,0.013523,0.002678,0.000431,0.004701
24974000,0.0324,0.013523,0.002678,0.000431,0.004701
24975000,0.0324,0.013523,0.002678,0.000431,0.063935
24976000,0.0324,0.013523,0.002678,0.000431,0.056531
24977000,0.0324,0.013523,0.002678,0.000431,0.028089
24978000,0.0324,0.013523,0.002678,0.000431,0.004701
24979000,0.0324,0.013523,0.002678,0.000431,0.004701
24980000,0.0324,0.013523,0.002678,0.000431,0.004701
24981000,0.0324,0.013523,0.002678,0.000431,0.020685
24982000,0.0324,0.013523,0.002678,0.000431,0.004701
24983000,0.0324,0.013523,0.002678,0.000431,0.034788
24984000,0.0324,0.013523,0.002678,0.000431,0.004936
24985000,0.0324,0.013523,0.002678,0.000431,0.004701
24986000,0.0324,0.013523,0.002678,0.000431,0.004701
24987000,0.0324,0.013523,0.002678,0.000431,0.004936
24988000,0.0324,0.013523,0.002678,0.000431,0.013398
24989000,0.0324,0.013523,0.002678,0.000431,0.034553
24990000,0.0324,0.013523,0.002678,0.000431,0.026091
24991000,0.0324,0.013523,0.002678,0.000431,0.027267
24992000,0.0324,0.013523,0.002678,0.000431,0.004701
24993000,0.0324,0.013523,0.002678,0.000431,0.013398
24994000,0.0324,0.013523,0.002678,0.000431,0.004701
24995000,0.0324,0.013523,0.002678,0.000431,0.004701
24996000,0.0324,0.013523,0.002678,0.000431,0.022683
24997000,0.0324,0.013523,0.002678,0.000431,0.016807
24998000,0.0324,0.013523,0.002678,0.000431,0.004701
24999000,0.0324,0.013523,0.002678,0.000431,0.042310
