Cycle,Area(mm^2),PeakDynamic(W),SubthresholdLeakage(W),GateLeakage(W),RunTimeDynamic(W)
18000000,0.0324,0.013523,0.002678,0.000431,0.123757
18001000,0.0324,0.013523,0.002678,0.000431,0.274193
18002000,0.0324,0.013523,0.002678,0.000431,0.105423
18003000,0.0324,0.013523,0.002678,0.000431,0.100134
18004000,0.0324,0.013523,0.002678,0.000431,0.068519
18005000,0.0324,0.013523,0.002678,0.000431,0.159603
18006000,0.0324,0.013523,0.002678,0.000431,0.088146
18007000,0.0324,0.013523,0.002678,0.000431,0.151611
18008000,0.0324,0.013523,0.002678,0.000431,0.166420
18009000,0.0324,0.013523,0.002678,0.000431,0.061937
18010000,0.0324,0.013523,0.002678,0.000431,0.103895
18011000,0.0324,0.013523,0.002678,0.000431,0.152081
18012000,0.0324,0.013523,0.002678,0.000431,0.181816
18013000,0.0324,0.013523,0.002678,0.000431,0.269257
18014000,0.0324,0.013523,0.002678,0.000431,0.081917
18015000,0.0324,0.013523,0.002678,0.000431,0.098959
18016000,0.0324,0.013523,0.002678,0.000431,0.136803
18017000,0.0324,0.013523,0.002678,0.000431,0.115178
18018000,0.0324,0.013523,0.002678,0.000431,0.082270
18019000,0.0324,0.013523,0.002678,0.000431,0.140799
18020000,0.0324,0.013523,0.002678,0.000431,0.125403
18021000,0.0324,0.013523,0.002678,0.000431,0.177468
18022000,0.0324,0.013523,0.002678,0.000431,0.073103
18023000,0.0324,0.013523,0.002678,0.000431,0.083210
18024000,0.0324,0.013523,0.002678,0.000431,0.043720
18025000,0.0324,0.013523,0.002678,0.000431,0.077451
18026000,0.0324,0.013523,0.002678,0.000431,0.237054
18027000,0.0324,0.013523,0.002678,0.000431,0.105305
18028000,0.0324,0.013523,0.002678,0.000431,0.103072
18029000,0.0324,0.013523,0.002678,0.000431,0.035258
18030000,0.0324,0.013523,0.002678,0.000431,0.095198
18031000,0.0324,0.013523,0.002678,0.000431,0.057824
18032000,0.0324,0.013523,0.002678,0.000431,0.188515
18033000,0.0324,0.013523,0.002678,0.000431,0.187222
18034000,0.0324,0.013523,0.002678,0.000431,0.265379
18035000,0.0324,0.013523,0.002678,0.000431,0.079332
18036000,0.0324,0.013523,0.002678,0.000431,0.093082
18037000,0.0324,0.013523,0.002678,0.000431,0.112122
18038000,0.0324,0.013523,0.002678,0.000431,0.077451
18039000,0.0324,0.013523,0.002678,0.000431,0.084738
18040000,0.0324,0.013523,0.002678,0.000431,0.089792
18041000,0.0324,0.013523,0.002678,0.000431,0.046189
18042000,0.0324,0.013523,0.002678,0.000431,0.072632
18043000,0.0324,0.013523,0.002678,0.000431,0.053945
18044000,0.0324,0.013523,0.002678,0.000431,0.099664
18045000,0.0324,0.013523,0.002678,0.000431,0.109301
18046000,0.0324,0.013523,0.002678,0.000431,0.229885
18047000,0.0324,0.013523,0.002678,0.000431,0.157018
18048000,0.0324,0.013523,0.002678,0.000431,0.061585
18049000,0.0324,0.013523,0.002678,0.000431,0.091554
18050000,0.0324,0.013523,0.002678,0.000431,0.057706
18051000,0.0324,0.013523,0.002678,0.000431,0.187457
18052000,0.0324,0.013523,0.002678,0.000431,0.119761
18053000,0.0324,0.013523,0.002678,0.000431,0.135745
18054000,0.0324,0.013523,0.002678,0.000431,0.156312
18055000,0.0324,0.013523,0.002678,0.000431,0.066638
18056000,0.0324,0.013523,0.002678,0.000431,0.074983
18057000,0.0324,0.013523,0.002678,0.000431,0.148203
18058000,0.0324,0.013523,0.002678,0.000431,0.135392
18059000,0.0324,0.013523,0.002678,0.000431,0.254684
18060000,0.0324,0.013523,0.002678,0.000431,0.159368
18061000,0.0324,0.013523,0.002678,0.000431,0.076041
18062000,0.0324,0.013523,0.002678,0.000431,0.087558
18063000,0.0324,0.013523,0.002678,0.000431,0.072397
18064000,0.0324,0.013523,0.002678,0.000431,0.144090
18065000,0.0324,0.013523,0.002678,0.000431,0.211668
18066000,0.0324,0.013523,0.002678,0.000431,0.130104
18067000,0.0324,0.013523,0.002678,0.000431,0.201796
18068000,0.0324,0.013523,0.002678,0.000431,0.089439
18069000,0.0324,0.013523,0.002678,0.000431,0.151729
18070000,0.0324,0.013523,0.002678,0.000431,0.091437
18071000,0.0324,0.013523,0.002678,0.000431,0.232588
18072000,0.0324,0.013523,0.002678,0.000431,0.099429
18073000,0.0324,0.013523,0.002678,0.000431,0.191924
18074000,0.0324,0.013523,0.002678,0.000431,0.045483
18075000,0.0324,0.013523,0.002678,0.000431,0.042780
18076000,0.0324,0.013523,0.002678,0.000431,0.121759
18077000,0.0324,0.013523,0.002678,0.000431,0.119526
18078000,0.0324,0.013523,0.002678,0.000431,0.157958
18079000,0.0324,0.013523,0.002678,0.000431,0.170298
18080000,0.0324,0.013523,0.002678,0.000431,0.117998
18081000,0.0324,0.013523,0.002678,0.000431,0.087794
18082000,0.0324,0.013523,0.002678,0.000431,0.083915
18083000,0.0324,0.013523,0.002678,0.000431,0.081094
18084000,0.0324,0.013523,0.002678,0.000431,0.154315
18085000,0.0324,0.013523,0.002678,0.000431,0.157018
18086000,0.0324,0.013523,0.002678,0.000431,0.094258
18087000,0.0324,0.013523,0.002678,0.000431,0.076393
18088000,0.0324,0.013523,0.002678,0.000431,0.070634
18089000,0.0324,0.013523,0.002678,0.000431,0.044896
18090000,0.0324,0.013523,0.002678,0.000431,0.127165
18091000,0.0324,0.013523,0.002678,0.000431,0.149496
18092000,0.0324,0.013523,0.002678,0.000431,0.087794
18093000,0.0324,0.013523,0.002678,0.000431,0.091554
18094000,0.0324,0.013523,0.002678,0.000431,0.057236
18095000,0.0324,0.013523,0.002678,0.000431,0.128106
18096000,0.0324,0.013523,0.002678,0.000431,0.051007
18097000,0.0324,0.013523,0.002678,0.000431,0.241285
18098000,0.0324,0.013523,0.002678,0.000431,0.236584
18099000,0.0324,0.013523,0.002678,0.000431,0.137743
18100000,0.0324,0.013523,0.002678,0.000431,0.055356
18101000,0.0324,0.013523,0.002678,0.000431,0.087558
18102000,0.0324,0.013523,0.002678,0.000431,0.051712
18103000,0.0324,0.013523,0.002678,0.000431,0.143032
18104000,0.0324,0.013523,0.002678,0.000431,0.228592
18105000,0.0324,0.013523,0.002678,0.000431,0.152434
18106000,0.0324,0.013523,0.002678,0.000431,0.110241
18107000,0.0324,0.013523,0.002678,0.000431,0.082857
18108000,0.0324,0.013523,0.002678,0.000431,0.092847
18109000,0.0324,0.013523,0.002678,0.000431,0.035258
18110000,0.0324,0.013523,0.002678,0.000431,0.199680
18111000,0.0324,0.013523,0.002678,0.000431,0.145382
18112000,0.0324,0.013523,0.002678,0.000431,0.074395
18113000,0.0324,0.013523,0.002678,0.000431,0.052418
18114000,0.0324,0.013523,0.002678,0.000431,0.067696
18115000,0.0324,0.013523,0.002678,0.000431,0.093552
18116000,0.0324,0.013523,0.002678,0.000431,0.106010
18117000,0.0324,0.013523,0.002678,0.000431,0.226594
18118000,0.0324,0.013523,0.002678,0.000431,0.061467
18119000,0.0324,0.013523,0.002678,0.000431,0.166655
18120000,0.0324,0.013523,0.002678,0.000431,0.060645
18121000,0.0324,0.013523,0.002678,0.000431,0.092612
18122000,0.0324,0.013523,0.002678,0.000431,0.065228
18123000,0.0324,0.013523,0.002678,0.000431,0.110359
18124000,0.0324,0.013523,0.002678,0.000431,0.198153
18125000,0.0324,0.013523,0.002678,0.000431,0.146910
18126000,0.0324,0.013523,0.002678,0.000431,0.046541
18127000,0.0324,0.013523,0.002678,0.000431,0.045366
18128000,0.0324,0.013523,0.002678,0.000431,0.161249
18129000,0.0324,0.013523,0.002678,0.000431,0.094023
18130000,0.0324,0.013523,0.002678,0.000431,0.219778
18131000,0.0324,0.013523,0.002678,0.000431,0.123992
18132000,0.0324,0.013523,0.002678,0.000431,0.084738
18133000,0.0324,0.013523,0.002678,0.000431,0.065346
18134000,0.0324,0.013523,0.002678,0.000431,0.119291
18135000,0.0324,0.013523,0.002678,0.000431,0.127048
18136000,0.0324,0.013523,0.002678,0.000431,0.121759
18137000,0.0324,0.013523,0.002678,0.000431,0.170416
18138000,0.0324,0.013523,0.002678,0.000431,0.087441
18139000,0.0324,0.013523,0.002678,0.000431,0.042780
18140000,0.0324,0.013523,0.002678,0.000431,0.060880
18141000,0.0324,0.013523,0.002678,0.000431,0.086971
18142000,0.0324,0.013523,0.002678,0.000431,0.122582
18143000,0.0324,0.013523,0.002678,0.000431,0.169593
18144000,0.0324,0.013523,0.002678,0.000431,0.219543
18145000,0.0324,0.013523,0.002678,0.000431,0.077098
18146000,0.0324,0.013523,0.002678,0.000431,0.094728
18147000,0.0324,0.013523,0.002678,0.000431,0.058059
18148000,0.0324,0.013523,0.002678,0.000431,0.065463
18149000,0.0324,0.013523,0.002678,0.000431,0.215077
18150000,0.0324,0.013523,0.002678,0.000431,0.370096
18151000,0.0324,0.013523,0.002678,0.000431,0.125285
18152000,0.0324,0.013523,0.002678,0.000431,0.069812
18153000,0.0324,0.013523,0.002678,0.000431,0.110476
18154000,0.0324,0.013523,0.002678,0.000431,0.105540
18155000,0.0324,0.013523,0.002678,0.000431,0.122699
18156000,0.0324,0.013523,0.002678,0.000431,0.160543
18157000,0.0324,0.013523,0.002678,0.000431,0.107656
18158000,0.0324,0.013523,0.002678,0.000431,0.062995
18159000,0.0324,0.013523,0.002678,0.000431,0.117763
18160000,0.0324,0.013523,0.002678,0.000431,0.125755
18161000,0.0324,0.013523,0.002678,0.000431,0.112592
18162000,0.0324,0.013523,0.002678,0.000431,0.255389
18163000,0.0324,0.013523,0.002678,0.000431,0.305338
18164000,0.0324,0.013523,0.002678,0.000431,0.192864
18165000,0.0324,0.013523,0.002678,0.000431,0.123287
18166000,0.0324,0.013523,0.002678,0.000431,0.211198
18167000,0.0324,0.013523,0.002678,0.000431,0.112945
18168000,0.0324,0.013523,0.002678,0.000431,0.140446
18169000,0.0324,0.013523,0.002678,0.000431,0.213549
18170000,0.0324,0.013523,0.002678,0.000431,0.138448
18171000,0.0324,0.013523,0.002678,0.000431,0.129163
18172000,0.0324,0.013523,0.002678,0.000431,0.140211
18173000,0.0324,0.013523,0.002678,0.000431,0.179701
18174000,0.0324,0.013523,0.002678,0.000431,0.074630
18175000,0.0324,0.013523,0.002678,0.000431,0.136685
18176000,0.0324,0.013523,0.002678,0.000431,0.192746
18177000,0.0324,0.013523,0.002678,0.000431,0.087558
18178000,0.0324,0.013523,0.002678,0.000431,0.042310
18179000,0.0324,0.013523,0.002678,0.000431,0.042428
18180000,0.0324,0.013523,0.002678,0.000431,0.155490
18181000,0.0324,0.013523,0.002678,0.000431,0.174764
18182000,0.0324,0.013523,0.002678,0.000431,0.158310
18183000,0.0324,0.013523,0.002678,0.000431,0.162777
18184000,0.0324,0.013523,0.002678,0.000431,0.035258
18185000,0.0324,0.013523,0.002678,0.000431,0.125520
18186000,0.0324,0.013523,0.002678,0.000431,0.243518
18187000,0.0324,0.013523,0.002678,0.000431,0.195567
18188000,0.0324,0.013523,0.002678,0.000431,0.139623
18189000,0.0324,0.013523,0.002678,0.000431,0.065346
18190000,0.0324,0.013523,0.002678,0.000431,0.087676
18191000,0.0324,0.013523,0.002678,0.000431,0.035258
18192000,0.0324,0.013523,0.002678,0.000431,0.042545
18193000,0.0324,0.013523,0.002678,0.000431,0.189455
18194000,0.0324,0.013523,0.002678,0.000431,0.130221
18195000,0.0324,0.013523,0.002678,0.000431,0.365278
18196000,0.0324,0.013523,0.002678,0.000431,0.127165
18197000,0.0324,0.013523,0.002678,0.000431,0.206144
18198000,0.0324,0.013523,0.002678,0.000431,0.035258
18199000,0.0324,0.013523,0.002678,0.000431,0.117763
18200000,0.0324,0.013523,0.002678,0.000431,0.087911
18201000,0.0324,0.013523,0.002678,0.000431,0.227064
18202000,0.0324,0.013523,0.002678,0.000431,0.129163
18203000,0.0324,0.013523,0.002678,0.000431,0.104247
18204000,0.0324,0.013523,0.002678,0.000431,0.093200
18205000,0.0324,0.013523,0.002678,0.000431,0.040195
18206000,0.0324,0.013523,0.002678,0.000431,0.075218
18207000,0.0324,0.013523,0.002678,0.000431,0.122464
18208000,0.0324,0.013523,0.002678,0.000431,0.165597
18209000,0.0324,0.013523,0.002678,0.000431,0.140446
18210000,0.0324,0.013523,0.002678,0.000431,0.117528
18211000,0.0324,0.013523,0.002678,0.000431,0.050067
18212000,0.0324,0.013523,0.002678,0.000431,0.099546
18213000,0.0324,0.013523,0.002678,0.000431,0.071927
18214000,0.0324,0.013523,0.002678,0.000431,0.233411
18215000,0.0324,0.013523,0.002678,0.000431,0.141034
18216000,0.0324,0.013523,0.002678,0.000431,0.084150
18217000,0.0324,0.013523,0.002678,0.000431,0.140094
18218000,0.0324,0.013523,0.002678,0.000431,0.077334
18219000,0.0324,0.013523,0.002678,0.000431,0.218837
18220000,0.0324,0.013523,0.002678,0.000431,0.077216
18221000,0.0324,0.013523,0.002678,0.000431,0.323790
18222000,0.0324,0.013523,0.002678,0.000431,0.111887
18223000,0.0324,0.013523,0.002678,0.000431,0.097548
18224000,0.0324,0.013523,0.002678,0.000431,0.035258
18225000,0.0324,0.013523,0.002678,0.000431,0.163364
18226000,0.0324,0.013523,0.002678,0.000431,0.215429
18227000,0.0324,0.013523,0.002678,0.000431,0.231531
18228000,0.0324,0.013523,0.002678,0.000431,0.184167
18229000,0.0324,0.013523,0.002678,0.000431,0.159956
18230000,0.0324,0.013523,0.002678,0.000431,0.129281
18231000,0.0324,0.013523,0.002678,0.000431,0.106833
18232000,0.0324,0.013523,0.002678,0.000431,0.184754
18233000,0.0324,0.013523,0.002678,0.000431,0.097196
18234000,0.0324,0.013523,0.002678,0.000431,0.232823
18235000,0.0324,0.013523,0.002678,0.000431,0.169711
18236000,0.0324,0.013523,0.002678,0.000431,0.051712
18237000,0.0324,0.013523,0.002678,0.000431,0.057119
18238000,0.0324,0.013523,0.002678,0.000431,0.065816
18239000,0.0324,0.013523,0.002678,0.000431,0.132454
18240000,0.0324,0.013523,0.002678,0.000431,0.221188
18241000,0.0324,0.013523,0.002678,0.000431,0.118468
18242000,0.0324,0.013523,0.002678,0.000431,0.072985
18243000,0.0324,0.013523,0.002678,0.000431,0.118703
18244000,0.0324,0.013523,0.002678,0.000431,0.065346
18245000,0.0324,0.013523,0.002678,0.000431,0.334485
18246000,0.0324,0.013523,0.002678,0.000431,0.147263
18247000,0.0324,0.013523,0.002678,0.000431,0.165245
18248000,0.0324,0.013523,0.002678,0.000431,0.071340
18249000,0.0324,0.013523,0.002678,0.000431,0.057824
18250000,0.0324,0.013523,0.002678,0.000431,0.035023
18251000,0.0324,0.013523,0.002678,0.000431,0.085796
18252000,0.0324,0.013523,0.002678,0.000431,0.067461
18253000,0.0324,0.013523,0.002678,0.000431,0.262793
18254000,0.0324,0.013523,0.002678,0.000431,0.243283
18255000,0.0324,0.013523,0.002678,0.000431,0.123992
18256000,0.0324,0.013523,0.002678,0.000431,0.081447
18257000,0.0324,0.013523,0.002678,0.000431,0.108596
18258000,0.0324,0.013523,0.002678,0.000431,0.185812
18259000,0.0324,0.013523,0.002678,0.000431,0.144207
18260000,0.0324,0.013523,0.002678,0.000431,0.110947
18261000,0.0324,0.013523,0.002678,0.000431,0.082975
18262000,0.0324,0.013523,0.002678,0.000431,0.066521
18263000,0.0324,0.013523,0.002678,0.000431,0.046189
18264000,0.0324,0.013523,0.002678,0.000431,0.174294
18265000,0.0324,0.013523,0.002678,0.000431,0.120936
18266000,0.0324,0.013523,0.002678,0.000431,0.333192
18267000,0.0324,0.013523,0.002678,0.000431,0.057354
18268000,0.0324,0.013523,0.002678,0.000431,0.173472
18269000,0.0324,0.013523,0.002678,0.000431,0.100839
18270000,0.0324,0.013523,0.002678,0.000431,0.100722
18271000,0.0324,0.013523,0.002678,0.000431,0.168418
18272000,0.0324,0.013523,0.002678,0.000431,0.178760
18273000,0.0324,0.013523,0.002678,0.000431,0.249512
18274000,0.0324,0.013523,0.002678,0.000431,0.118468
18275000,0.0324,0.013523,0.002678,0.000431,0.136333
18276000,0.0324,0.013523,0.002678,0.000431,0.039019
18277000,0.0324,0.013523,0.002678,0.000431,0.174294
18278000,0.0324,0.013523,0.002678,0.000431,0.075218
18279000,0.0324,0.013523,0.002678,0.000431,0.145500
18280000,0.0324,0.013523,0.002678,0.000431,0.068754
18281000,0.0324,0.013523,0.002678,0.000431,0.080389
18282000,0.0324,0.013523,0.002678,0.000431,0.057706
18283000,0.0324,0.013523,0.002678,0.000431,0.149966
18284000,0.0324,0.013523,0.002678,0.000431,0.187457
18285000,0.0324,0.013523,0.002678,0.000431,0.295701
18286000,0.0324,0.013523,0.002678,0.000431,0.168770
18287000,0.0324,0.013523,0.002678,0.000431,0.095198
18288000,0.0324,0.013523,0.002678,0.000431,0.155372
18289000,0.0324,0.013523,0.002678,0.000431,0.070517
18290000,0.0324,0.013523,0.002678,0.000431,0.225772
18291000,0.0324,0.013523,0.002678,0.000431,0.225654
18292000,0.0324,0.013523,0.002678,0.000431,0.253978
18293000,0.0324,0.013523,0.002678,0.000431,0.068872
18294000,0.0324,0.013523,0.002678,0.000431,0.072632
18295000,0.0324,0.013523,0.002678,0.000431,0.042545
18296000,0.0324,0.013523,0.002678,0.000431,0.053475
18297000,0.0324,0.013523,0.002678,0.000431,0.054651
18298000,0.0324,0.013523,0.002678,0.000431,0.150671
18299000,0.0324,0.013523,0.002678,0.000431,0.287827
18300000,0.0324,0.013523,0.002678,0.000431,0.125403
18301000,0.0324,0.013523,0.002678,0.000431,0.080389
18302000,0.0324,0.013523,0.002678,0.000431,0.066991
18303000,0.0324,0.013523,0.002678,0.000431,0.184167
18304000,0.0324,0.013523,0.002678,0.000431,0.157958
18305000,0.0324,0.013523,0.002678,0.000431,0.367981
18306000,0.0324,0.013523,0.002678,0.000431,0.296524
18307000,0.0324,0.013523,0.002678,0.000431,0.203911
18308000,0.0324,0.013523,0.002678,0.000431,0.051477
18309000,0.0324,0.013523,0.002678,0.000431,0.215312
18310000,0.0324,0.013523,0.002678,0.000431,0.140329
18311000,0.0324,0.013523,0.002678,0.000431,0.144325
18312000,0.0324,0.013523,0.002678,0.000431,0.136685
18313000,0.0324,0.013523,0.002678,0.000431,0.242343
18314000,0.0324,0.013523,0.002678,0.000431,0.128928
18315000,0.0324,0.013523,0.002678,0.000431,0.083327
18316000,0.0324,0.013523,0.002678,0.000431,0.167008
18317000,0.0324,0.013523,0.002678,0.000431,0.151141
18318000,0.0324,0.013523,0.002678,0.000431,0.121994
18319000,0.0324,0.013523,0.002678,0.000431,0.065346
18320000,0.0324,0.013523,0.002678,0.000431,0.117646
18321000,0.0324,0.013523,0.002678,0.000431,0.035141
18322000,0.0324,0.013523,0.002678,0.000431,0.099311
18323000,0.0324,0.013523,0.002678,0.000431,0.234351
18324000,0.0324,0.013523,0.002678,0.000431,0.168183
18325000,0.0324,0.013523,0.002678,0.000431,0.199328
18326000,0.0324,0.013523,0.002678,0.000431,0.124580
18327000,0.0324,0.013523,0.002678,0.000431,0.054063
18328000,0.0324,0.013523,0.002678,0.000431,0.070517
18329000,0.0324,0.013523,0.002678,0.000431,0.082387
18330000,0.0324,0.013523,0.002678,0.000431,0.190983
18331000,0.0324,0.013523,0.002678,0.000431,0.208613
18332000,0.0324,0.013523,0.002678,0.000431,0.135392
18333000,0.0324,0.013523,0.002678,0.000431,0.093905
18334000,0.0324,0.013523,0.002678,0.000431,0.069577
18335000,0.0324,0.013523,0.002678,0.000431,0.433797
18336000,0.0324,0.013523,0.002678,0.000431,0.146088
18337000,0.0324,0.013523,0.002678,0.000431,0.213431
18338000,0.0324,0.013523,0.002678,0.000431,0.072867
18339000,0.0324,0.013523,0.002678,0.000431,0.118821
18340000,0.0324,0.013523,0.002678,0.000431,0.071575
18341000,0.0324,0.013523,0.002678,0.000431,0.119996
18342000,0.0324,0.013523,0.002678,0.000431,0.123757
18343000,0.0324,0.013523,0.002678,0.000431,0.200856
18344000,0.0324,0.013523,0.002678,0.000431,0.132807
18345000,0.0324,0.013523,0.002678,0.000431,0.068872
18346000,0.0324,0.013523,0.002678,0.000431,0.106481
18347000,0.0324,0.013523,0.002678,0.000431,0.034788
18348000,0.0324,0.013523,0.002678,0.000431,0.179466
18349000,0.0324,0.013523,0.002678,0.000431,0.209318
18350000,0.0324,0.013523,0.002678,0.000431,0.300637
18351000,0.0324,0.013523,0.002678,0.000431,0.204617
18352000,0.0324,0.013523,0.002678,0.000431,0.246574
18353000,0.0324,0.013523,0.002678,0.000431,0.109301
18354000,0.0324,0.013523,0.002678,0.000431,0.212138
18355000,0.0324,0.013523,0.002678,0.000431,0.218720
18356000,0.0324,0.013523,0.002678,0.000431,0.166537
18357000,0.0324,0.013523,0.002678,0.000431,0.336131
18358000,0.0324,0.013523,0.002678,0.000431,0.106951
18359000,0.0324,0.013523,0.002678,0.000431,0.182756
18360000,0.0324,0.013523,0.002678,0.000431,0.047951
18361000,0.0324,0.013523,0.002678,0.000431,0.204617
18362000,0.0324,0.013523,0.002678,0.000431,0.250923
18363000,0.0324,0.013523,0.002678,0.000431,0.250218
18364000,0.0324,0.013523,0.002678,0.000431,0.160896
18365000,0.0324,0.013523,0.002678,0.000431,0.070869
18366000,0.0324,0.013523,0.002678,0.000431,0.067344
18367000,0.0324,0.013523,0.002678,0.000431,0.123757
18368000,0.0324,0.013523,0.002678,0.000431,0.172179
18369000,0.0324,0.013523,0.002678,0.000431,0.173942
18370000,0.0324,0.013523,0.002678,0.000431,0.230003
18371000,0.0324,0.013523,0.002678,0.000431,0.073573
18372000,0.0324,0.013523,0.002678,0.000431,0.077804
18373000,0.0324,0.013523,0.002678,0.000431,0.085796
18374000,0.0324,0.013523,0.002678,0.000431,0.145382
18375000,0.0324,0.013523,0.002678,0.000431,0.179936
18376000,0.0324,0.013523,0.002678,0.000431,0.252451
18377000,0.0324,0.013523,0.002678,0.000431,0.075218
18378000,0.0324,0.013523,0.002678,0.000431,0.101544
18379000,0.0324,0.013523,0.002678,0.000431,0.100487
18380000,0.0324,0.013523,0.002678,0.000431,0.106481
18381000,0.0324,0.013523,0.002678,0.000431,0.116000
18382000,0.0324,0.013523,0.002678,0.000431,0.318736
18383000,0.0324,0.013523,0.002678,0.000431,0.097313
18384000,0.0324,0.013523,0.002678,0.000431,0.074513
18385000,0.0324,0.013523,0.002678,0.000431,0.170416
18386000,0.0324,0.013523,0.002678,0.000431,0.072515
18387000,0.0324,0.013523,0.002678,0.000431,0.087558
18388000,0.0324,0.013523,0.002678,0.000431,0.133865
18389000,0.0324,0.013523,0.002678,0.000431,0.265379
18390000,0.0324,0.013523,0.002678,0.000431,0.097313
18391000,0.0324,0.013523,0.002678,0.000431,0.248925
18392000,0.0324,0.013523,0.002678,0.000431,0.084385
18393000,0.0324,0.013523,0.002678,0.000431,0.189103
18394000,0.0324,0.013523,0.002678,0.000431,0.103072
18395000,0.0324,0.013523,0.002678,0.000431,0.167360
18396000,0.0324,0.013523,0.002678,0.000431,0.207202
18397000,0.0324,0.013523,0.002678,0.000431,0.091437
18398000,0.0324,0.013523,0.002678,0.000431,0.046424
18399000,0.0324,0.013523,0.002678,0.000431,0.125168
18400000,0.0324,0.013523,0.002678,0.000431,0.147850
18401000,0.0324,0.013523,0.002678,0.000431,0.242813
18402000,0.0324,0.013523,0.002678,0.000431,0.340714
18403000,0.0324,0.013523,0.002678,0.000431,0.247632
18404000,0.0324,0.013523,0.002678,0.000431,0.091790
18405000,0.0324,0.013523,0.002678,0.000431,0.039725
18406000,0.0324,0.013523,0.002678,0.000431,0.276896
18407000,0.0324,0.013523,0.002678,0.000431,0.191101
18408000,0.0324,0.013523,0.002678,0.000431,0.324260
18409000,0.0324,0.013523,0.002678,0.000431,0.103542
18410000,0.0324,0.013523,0.002678,0.000431,0.123757
18411000,0.0324,0.013523,0.002678,0.000431,0.089439
18412000,0.0324,0.013523,0.002678,0.000431,0.199798
18413000,0.0324,0.013523,0.002678,0.000431,0.118821
18414000,0.0324,0.013523,0.002678,0.000431,0.153844
18415000,0.0324,0.013523,0.002678,0.000431,0.371507
18416000,0.0324,0.013523,0.002678,0.000431,0.083798
18417000,0.0324,0.013523,0.002678,0.000431,0.096608
18418000,0.0324,0.013523,0.002678,0.000431,0.082975
18419000,0.0324,0.013523,0.002678,0.000431,0.161484
18420000,0.0324,0.013523,0.002678,0.000431,0.286769
18421000,0.0324,0.013523,0.002678,0.000431,0.306396
18422000,0.0324,0.013523,0.002678,0.000431,0.313918
18423000,0.0324,0.013523,0.002678,0.000431,0.131514
18424000,0.0324,0.013523,0.002678,0.000431,0.059117
18425000,0.0324,0.013523,0.002678,0.000431,0.090262
18426000,0.0324,0.013523,0.002678,0.000431,0.155960
18427000,0.0324,0.013523,0.002678,0.000431,0.247044
18428000,0.0324,0.013523,0.002678,0.000431,0.181699
18429000,0.0324,0.013523,0.002678,0.000431,0.103542
18430000,0.0324,0.013523,0.002678,0.000431,0.219308
18431000,0.0324,0.013523,0.002678,0.000431,0.041605
18432000,0.0324,0.013523,0.002678,0.000431,0.243518
18433000,0.0324,0.013523,0.002678,0.000431,0.200268
18434000,0.0324,0.013523,0.002678,0.000431,0.163129
18435000,0.0324,0.013523,0.002678,0.000431,0.112945
18436000,0.0324,0.013523,0.002678,0.000431,0.112592
18437000,0.0324,0.013523,0.002678,0.000431,0.051360
18438000,0.0324,0.013523,0.002678,0.000431,0.167125
18439000,0.0324,0.013523,0.002678,0.000431,0.038902
18440000,0.0324,0.013523,0.002678,0.000431,0.161249
18441000,0.0324,0.013523,0.002678,0.000431,0.156665
18442000,0.0324,0.013523,0.002678,0.000431,0.058999
18443000,0.0324,0.013523,0.002678,0.000431,0.162189
18444000,0.0324,0.013523,0.002678,0.000431,0.078156
18445000,0.0324,0.013523,0.002678,0.000431,0.254919
18446000,0.0324,0.013523,0.002678,0.000431,0.345415
18447000,0.0324,0.013523,0.002678,0.000431,0.429095
18448000,0.0324,0.013523,0.002678,0.000431,0.189338
18449000,0.0324,0.013523,0.002678,0.000431,0.157723
18450000,0.0324,0.013523,0.002678,0.000431,0.047599
18451000,0.0324,0.013523,0.002678,0.000431,0.203676
18452000,0.0324,0.013523,0.002678,0.000431,0.173589
18453000,0.0324,0.013523,0.002678,0.000431,0.268669
18454000,0.0324,0.013523,0.002678,0.000431,0.247162
18455000,0.0324,0.013523,0.002678,0.000431,0.162189
18456000,0.0324,0.013523,0.002678,0.000431,0.088499
18457000,0.0324,0.013523,0.002678,0.000431,0.103895
18458000,0.0324,0.013523,0.002678,0.000431,0.261265
18459000,0.0324,0.013523,0.002678,0.000431,0.215664
18460000,0.0324,0.013523,0.002678,0.000431,0.306396
18461000,0.0324,0.013523,0.002678,0.000431,0.155842
18462000,0.0324,0.013523,0.002678,0.000431,0.152552
18463000,0.0324,0.013523,0.002678,0.000431,0.044073
18464000,0.0324,0.013523,0.002678,0.000431,0.095433
18465000,0.0324,0.013523,0.002678,0.000431,0.142444
18466000,0.0324,0.013523,0.002678,0.000431,0.168183
18467000,0.0324,0.013523,0.002678,0.000431,0.080977
18468000,0.0324,0.013523,0.002678,0.000431,0.048422
18469000,0.0324,0.013523,0.002678,0.000431,0.036904
18470000,0.0324,0.013523,0.002678,0.000431,0.087794
18471000,0.0324,0.013523,0.002678,0.000431,0.218837
18472000,0.0324,0.013523,0.002678,0.000431,0.144207
18473000,0.0324,0.013523,0.002678,0.000431,0.181346
18474000,0.0324,0.013523,0.002678,0.000431,0.046189
18475000,0.0324,0.013523,0.002678,0.000431,0.102132
18476000,0.0324,0.013523,0.002678,0.000431,0.035141
18477000,0.0324,0.013523,0.002678,0.000431,0.217310
18478000,0.0324,0.013523,0.002678,0.000431,0.243283
18479000,0.0324,0.013523,0.002678,0.000431,0.283831
18480000,0.0324,0.013523,0.002678,0.000431,0.148203
18481000,0.0324,0.013523,0.002678,0.000431,0.080507
18482000,0.0324,0.013523,0.002678,0.000431,0.035258
18483000,0.0324,0.013523,0.002678,0.000431,0.118939
18484000,0.0324,0.013523,0.002678,0.000431,0.152434
18485000,0.0324,0.013523,0.002678,0.000431,0.212726
18486000,0.0324,0.013523,0.002678,0.000431,0.233528
18487000,0.0324,0.013523,0.002678,0.000431,0.067344
18488000,0.0324,0.013523,0.002678,0.000431,0.151611
18489000,0.0324,0.013523,0.002678,0.000431,0.046659
18490000,0.0324,0.013523,0.002678,0.000431,0.142444
18491000,0.0324,0.013523,0.002678,0.000431,0.130809
18492000,0.0324,0.013523,0.002678,0.000431,0.256564
18493000,0.0324,0.013523,0.002678,0.000431,0.061585
18494000,0.0324,0.013523,0.002678,0.000431,0.094845
18495000,0.0324,0.013523,0.002678,0.000431,0.126578
18496000,0.0324,0.013523,0.002678,0.000431,0.136568
18497000,0.0324,0.013523,0.002678,0.000431,0.204499
18498000,0.0324,0.013523,0.002678,0.000431,0.290060
18499000,0.0324,0.013523,0.002678,0.000431,0.148086
18500000,0.0324,0.013523,0.002678,0.000431,0.064170
18501000,0.0324,0.013523,0.002678,0.000431,0.066991
18502000,0.0324,0.013523,0.002678,0.000431,0.087911
18503000,0.0324,0.013523,0.002678,0.000431,0.271843
18504000,0.0324,0.013523,0.002678,0.000431,0.214136
18505000,0.0324,0.013523,0.002678,0.000431,0.251628
18506000,0.0324,0.013523,0.002678,0.000431,0.170416
18507000,0.0324,0.013523,0.002678,0.000431,0.162777
18508000,0.0324,0.013523,0.002678,0.000431,0.044308
18509000,0.0324,0.013523,0.002678,0.000431,0.286886
18510000,0.0324,0.013523,0.002678,0.000431,0.157370
18511000,0.0324,0.013523,0.002678,0.000431,0.333545
18512000,0.0324,0.013523,0.002678,0.000431,0.311450
18513000,0.0324,0.013523,0.002678,0.000431,0.100016
18514000,0.0324,0.013523,0.002678,0.000431,0.034906
18515000,0.0324,0.013523,0.002678,0.000431,0.085561
18516000,0.0324,0.013523,0.002678,0.000431,0.364455
18517000,0.0324,0.013523,0.002678,0.000431,0.255154
18518000,0.0324,0.013523,0.002678,0.000431,0.167478
18519000,0.0324,0.013523,0.002678,0.000431,0.160426
18520000,0.0324,0.013523,0.002678,0.000431,0.095433
18521000,0.0324,0.013523,0.002678,0.000431,0.125520
18522000,0.0324,0.013523,0.002678,0.000431,0.245164
18523000,0.0324,0.013523,0.002678,0.000431,0.155020
18524000,0.0324,0.013523,0.002678,0.000431,0.282655
18525000,0.0324,0.013523,0.002678,0.000431,0.158663
18526000,0.0324,0.013523,0.002678,0.000431,0.204029
18527000,0.0324,0.013523,0.002678,0.000431,0.179818
18528000,0.0324,0.013523,0.002678,0.000431,0.151964
18529000,0.0324,0.013523,0.002678,0.000431,0.323790
18530000,0.0324,0.013523,0.002678,0.000431,0.255506
18531000,0.0324,0.013523,0.002678,0.000431,0.221306
18532000,0.0324,0.013523,0.002678,0.000431,0.132454
18533000,0.0324,0.013523,0.002678,0.000431,0.064876
18534000,0.0324,0.013523,0.002678,0.000431,0.065346
18535000,0.0324,0.013523,0.002678,0.000431,0.320852
18536000,0.0324,0.013523,0.002678,0.000431,0.115530
18537000,0.0324,0.013523,0.002678,0.000431,0.330607
18538000,0.0324,0.013523,0.002678,0.000431,0.238817
18539000,0.0324,0.013523,0.002678,0.000431,0.128458
18540000,0.0324,0.013523,0.002678,0.000431,0.061467
18541000,0.0324,0.013523,0.002678,0.000431,0.120349
18542000,0.0324,0.013523,0.002678,0.000431,0.160308
18543000,0.0324,0.013523,0.002678,0.000431,0.396775
18544000,0.0324,0.013523,0.002678,0.000431,0.289942
18545000,0.0324,0.013523,0.002678,0.000431,0.208613
18546000,0.0324,0.013523,0.002678,0.000431,0.193216
18547000,0.0324,0.013523,0.002678,0.000431,0.035141
18548000,0.0324,0.013523,0.002678,0.000431,0.331900
18549000,0.0324,0.013523,0.002678,0.000431,0.113885
18550000,0.0324,0.013523,0.002678,0.000431,0.316974
18551000,0.0324,0.013523,0.002678,0.000431,0.174882
18552000,0.0324,0.013523,0.002678,0.000431,0.068872
18553000,0.0324,0.013523,0.002678,0.000431,0.106363
18554000,0.0324,0.013523,0.002678,0.000431,0.161954
18555000,0.0324,0.013523,0.002678,0.000431,0.153492
18556000,0.0324,0.013523,0.002678,0.000431,0.143972
18557000,0.0324,0.013523,0.002678,0.000431,0.205439
18558000,0.0324,0.013523,0.002678,0.000431,0.212138
18559000,0.0324,0.013523,0.002678,0.000431,0.117293
18560000,0.0324,0.013523,0.002678,0.000431,0.059352
18561000,0.0324,0.013523,0.002678,0.000431,0.315798
18562000,0.0324,0.013523,0.002678,0.000431,0.162189
18563000,0.0324,0.013523,0.002678,0.000431,0.100016
18564000,0.0324,0.013523,0.002678,0.000431,0.110124
18565000,0.0324,0.013523,0.002678,0.000431,0.057589
18566000,0.0324,0.013523,0.002678,0.000431,0.035258
18567000,0.0324,0.013523,0.002678,0.000431,0.181111
18568000,0.0324,0.013523,0.002678,0.000431,0.054886
18569000,0.0324,0.013523,0.002678,0.000431,0.133277
18570000,0.0324,0.013523,0.002678,0.000431,0.201326
18571000,0.0324,0.013523,0.002678,0.000431,0.109654
18572000,0.0324,0.013523,0.002678,0.000431,0.035141
18573000,0.0324,0.013523,0.002678,0.000431,0.070164
18574000,0.0324,0.013523,0.002678,0.000431,0.358461
18575000,0.0324,0.013523,0.002678,0.000431,0.067226
18576000,0.0324,0.013523,0.002678,0.000431,0.161131
18577000,0.0324,0.013523,0.002678,0.000431,0.083092
18578000,0.0324,0.013523,0.002678,0.000431,0.240345
18579000,0.0324,0.013523,0.002678,0.000431,0.055591
18580000,0.0324,0.013523,0.002678,0.000431,0.226712
18581000,0.0324,0.013523,0.002678,0.000431,0.138448
18582000,0.0324,0.013523,0.002678,0.000431,0.095080
18583000,0.0324,0.013523,0.002678,0.000431,0.137155
18584000,0.0324,0.013523,0.002678,0.000431,0.228945
18585000,0.0324,0.013523,0.002678,0.000431,0.091554
18586000,0.0324,0.013523,0.002678,0.000431,0.101662
18587000,0.0324,0.013523,0.002678,0.000431,0.254449
18588000,0.0324,0.013523,0.002678,0.000431,0.102367
18589000,0.0324,0.013523,0.002678,0.000431,0.176880
18590000,0.0324,0.013523,0.002678,0.000431,0.088264
18591000,0.0324,0.013523,0.002678,0.000431,0.208142
18592000,0.0324,0.013523,0.002678,0.000431,0.058059
18593000,0.0324,0.013523,0.002678,0.000431,0.156665
18594000,0.0324,0.013523,0.002678,0.000431,0.244341
18595000,0.0324,0.013523,0.002678,0.000431,0.070164
18596000,0.0324,0.013523,0.002678,0.000431,0.153022
18597000,0.0324,0.013523,0.002678,0.000431,0.152434
18598000,0.0324,0.013523,0.002678,0.000431,0.103895
18599000,0.0324,0.013523,0.002678,0.000431,0.100722
18600000,0.0324,0.013523,0.002678,0.000431,0.309804
18601000,0.0324,0.013523,0.002678,0.000431,0.063818
18602000,0.0324,0.013523,0.002678,0.000431,0.158781
18603000,0.0324,0.013523,0.002678,0.000431,0.177938
18604000,0.0324,0.013523,0.002678,0.000431,0.106833
18605000,0.0324,0.013523,0.002678,0.000431,0.107421
18606000,0.0324,0.013523,0.002678,0.000431,0.143384
18607000,0.0324,0.013523,0.002678,0.000431,0.109301
18608000,0.0324,0.013523,0.002678,0.000431,0.291705
18609000,0.0324,0.013523,0.002678,0.000431,0.149966
18610000,0.0324,0.013523,0.002678,0.000431,0.106363
18611000,0.0324,0.013523,0.002678,0.000431,0.106598
18612000,0.0324,0.013523,0.002678,0.000431,0.161249
18613000,0.0324,0.013523,0.002678,0.000431,0.105070
18614000,0.0324,0.013523,0.002678,0.000431,0.125638
18615000,0.0324,0.013523,0.002678,0.000431,0.184284
18616000,0.0324,0.013523,0.002678,0.000431,0.087911
18617000,0.0324,0.013523,0.002678,0.000431,0.118821
18618000,0.0324,0.013523,0.002678,0.000431,0.121524
18619000,0.0324,0.013523,0.002678,0.000431,0.277719
18620000,0.0324,0.013523,0.002678,0.000431,0.100369
18621000,0.0324,0.013523,0.002678,0.000431,0.137626
18622000,0.0324,0.013523,0.002678,0.000431,0.065346
18623000,0.0324,0.013523,0.002678,0.000431,0.287356
18624000,0.0324,0.013523,0.002678,0.000431,0.110476
18625000,0.0324,0.013523,0.002678,0.000431,0.196390
18626000,0.0324,0.013523,0.002678,0.000431,0.207907
18627000,0.0324,0.013523,0.002678,0.000431,0.116470
18628000,0.0324,0.013523,0.002678,0.000431,0.152552
18629000,0.0324,0.013523,0.002678,0.000431,0.165362
18630000,0.0324,0.013523,0.002678,0.000431,0.126225
18631000,0.0324,0.013523,0.002678,0.000431,0.068636
18632000,0.0324,0.013523,0.002678,0.000431,0.204852
18633000,0.0324,0.013523,0.002678,0.000431,0.335660
18634000,0.0324,0.013523,0.002678,0.000431,0.163129
18635000,0.0324,0.013523,0.002678,0.000431,0.087676
18636000,0.0324,0.013523,0.002678,0.000431,0.262088
18637000,0.0324,0.013523,0.002678,0.000431,0.071692
18638000,0.0324,0.013523,0.002678,0.000431,0.111769
18639000,0.0324,0.013523,0.002678,0.000431,0.214724
18640000,0.0324,0.013523,0.002678,0.000431,0.198975
18641000,0.0324,0.013523,0.002678,0.000431,0.130809
18642000,0.0324,0.013523,0.002678,0.000431,0.110241
18643000,0.0324,0.013523,0.002678,0.000431,0.114002
18644000,0.0324,0.013523,0.002678,0.000431,0.064641
18645000,0.0324,0.013523,0.002678,0.000431,0.225419
18646000,0.0324,0.013523,0.002678,0.000431,0.169593
18647000,0.0324,0.013523,0.002678,0.000431,0.161836
18648000,0.0324,0.013523,0.002678,0.000431,0.075453
18649000,0.0324,0.013523,0.002678,0.000431,0.198623
18650000,0.0324,0.013523,0.002678,0.000431,0.110241
18651000,0.0324,0.013523,0.002678,0.000431,0.131749
18652000,0.0324,0.013523,0.002678,0.000431,0.095903
18653000,0.0324,0.013523,0.002678,0.000431,0.267377
18654000,0.0324,0.013523,0.002678,0.000431,0.069577
18655000,0.0324,0.013523,0.002678,0.000431,0.095080
18656000,0.0324,0.013523,0.002678,0.000431,0.200503
18657000,0.0324,0.013523,0.002678,0.000431,0.159603
18658000,0.0324,0.013523,0.002678,0.000431,0.158663
18659000,0.0324,0.013523,0.002678,0.000431,0.049949
18660000,0.0324,0.013523,0.002678,0.000431,0.110712
18661000,0.0324,0.013523,0.002678,0.000431,0.109889
18662000,0.0324,0.013523,0.002678,0.000431,0.208142
18663000,0.0324,0.013523,0.002678,0.000431,0.207907
18664000,0.0324,0.013523,0.002678,0.000431,0.212961
18665000,0.0324,0.013523,0.002678,0.000431,0.172884
18666000,0.0324,0.013523,0.002678,0.000431,0.194627
18667000,0.0324,0.013523,0.002678,0.000431,0.112827
18668000,0.0324,0.013523,0.002678,0.000431,0.204264
18669000,0.0324,0.013523,0.002678,0.000431,0.138801
18670000,0.0324,0.013523,0.002678,0.000431,0.085678
18671000,0.0324,0.013523,0.002678,0.000431,0.054298
18672000,0.0324,0.013523,0.002678,0.000431,0.256564
18673000,0.0324,0.013523,0.002678,0.000431,0.249982
18674000,0.0324,0.013523,0.002678,0.000431,0.183932
18675000,0.0324,0.013523,0.002678,0.000431,0.199210
18676000,0.0324,0.013523,0.002678,0.000431,0.163129
18677000,0.0324,0.013523,0.002678,0.000431,0.270197
18678000,0.0324,0.013523,0.002678,0.000431,0.137861
18679000,0.0324,0.013523,0.002678,0.000431,0.215312
18680000,0.0324,0.013523,0.002678,0.000431,0.096961
18681000,0.0324,0.013523,0.002678,0.000431,0.087558
18682000,0.0324,0.013523,0.002678,0.000431,0.087676
18683000,0.0324,0.013523,0.002678,0.000431,0.307924
18684000,0.0324,0.013523,0.002678,0.000431,0.256564
18685000,0.0324,0.013523,0.002678,0.000431,0.120349
18686000,0.0324,0.013523,0.002678,0.000431,0.117646
18687000,0.0324,0.013523,0.002678,0.000431,0.050302
18688000,0.0324,0.013523,0.002678,0.000431,0.252921
18689000,0.0324,0.013523,0.002678,0.000431,0.233411
18690000,0.0324,0.013523,0.002678,0.000431,0.160073
18691000,0.0324,0.013523,0.002678,0.000431,0.042310
18692000,0.0324,0.013523,0.002678,0.000431,0.149026
18693000,0.0324,0.013523,0.002678,0.000431,0.064758
18694000,0.0324,0.013523,0.002678,0.000431,0.102955
18695000,0.0324,0.013523,0.002678,0.000431,0.099546
18696000,0.0324,0.013523,0.002678,0.000431,0.186752
18697000,0.0324,0.013523,0.002678,0.000431,0.106245
18698000,0.0324,0.013523,0.002678,0.000431,0.083680
18699000,0.0324,0.013523,0.002678,0.000431,0.131161
18700000,0.0324,0.013523,0.002678,0.000431,0.173237
18701000,0.0324,0.013523,0.002678,0.000431,0.137390
18702000,0.0324,0.013523,0.002678,0.000431,0.206027
18703000,0.0324,0.013523,0.002678,0.000431,0.193216
18704000,0.0324,0.013523,0.002678,0.000431,0.066403
18705000,0.0324,0.013523,0.002678,0.000431,0.095198
18706000,0.0324,0.013523,0.002678,0.000431,0.067461
18707000,0.0324,0.013523,0.002678,0.000431,0.135157
18708000,0.0324,0.013523,0.002678,0.000431,0.106951
18709000,0.0324,0.013523,0.002678,0.000431,0.134687
18710000,0.0324,0.013523,0.002678,0.000431,0.111887
18711000,0.0324,0.013523,0.002678,0.000431,0.035258
18712000,0.0324,0.013523,0.002678,0.000431,0.050302
18713000,0.0324,0.013523,0.002678,0.000431,0.179113
18714000,0.0324,0.013523,0.002678,0.000431,0.208613
18715000,0.0324,0.013523,0.002678,0.000431,0.118586
18716000,0.0324,0.013523,0.002678,0.000431,0.152787
18717000,0.0324,0.013523,0.002678,0.000431,0.111769
18718000,0.0324,0.013523,0.002678,0.000431,0.134335
18719000,0.0324,0.013523,0.002678,0.000431,0.062290
18720000,0.0324,0.013523,0.002678,0.000431,0.310980
18721000,0.0324,0.013523,0.002678,0.000431,0.169828
18722000,0.0324,0.013523,0.002678,0.000431,0.283713
18723000,0.0324,0.013523,0.002678,0.000431,0.218250
18724000,0.0324,0.013523,0.002678,0.000431,0.067696
18725000,0.0324,0.013523,0.002678,0.000431,0.042545
18726000,0.0324,0.013523,0.002678,0.000431,0.166067
18727000,0.0324,0.013523,0.002678,0.000431,0.122934
18728000,0.0324,0.013523,0.002678,0.000431,0.101897
18729000,0.0324,0.013523,0.002678,0.000431,0.103307
18730000,0.0324,0.013523,0.002678,0.000431,0.179818
18731000,0.0324,0.013523,0.002678,0.000431,0.311215
18732000,0.0324,0.013523,0.002678,0.000431,0.160073
18733000,0.0324,0.013523,0.002678,0.000431,0.218250
18734000,0.0324,0.013523,0.002678,0.000431,0.048657
18735000,0.0324,0.013523,0.002678,0.000431,0.067696
18736000,0.0324,0.013523,0.002678,0.000431,0.085913
18737000,0.0324,0.013523,0.002678,0.000431,0.224714
18738000,0.0324,0.013523,0.002678,0.000431,0.200150
18739000,0.0324,0.013523,0.002678,0.000431,0.245634
18740000,0.0324,0.013523,0.002678,0.000431,0.166655
18741000,0.0324,0.013523,0.002678,0.000431,0.194039
18742000,0.0324,0.013523,0.002678,0.000431,0.211433
18743000,0.0324,0.013523,0.002678,0.000431,0.177820
18744000,0.0324,0.013523,0.002678,0.000431,0.124815
18745000,0.0324,0.013523,0.002678,0.000431,0.076511
18746000,0.0324,0.013523,0.002678,0.000431,0.114120
18747000,0.0324,0.013523,0.002678,0.000431,0.110359
18748000,0.0324,0.013523,0.002678,0.000431,0.135745
18749000,0.0324,0.013523,0.002678,0.000431,0.210728
18750000,0.0324,0.013523,0.002678,0.000431,0.239993
18751000,0.0324,0.013523,0.002678,0.000431,0.083445
18752000,0.0324,0.013523,0.002678,0.000431,0.217662
18753000,0.0324,0.013523,0.002678,0.000431,0.101779
18754000,0.0324,0.013523,0.002678,0.000431,0.100604
18755000,0.0324,0.013523,0.002678,0.000431,0.117998
18756000,0.0324,0.013523,0.002678,0.000431,0.183226
18757000,0.0324,0.013523,0.002678,0.000431,0.098136
18758000,0.0324,0.013523,0.002678,0.000431,0.102250
18759000,0.0324,0.013523,0.002678,0.000431,0.207202
18760000,0.0324,0.013523,0.002678,0.000431,0.139036
18761000,0.0324,0.013523,0.002678,0.000431,0.235056
18762000,0.0324,0.013523,0.002678,0.000431,0.186517
18763000,0.0324,0.013523,0.002678,0.000431,0.139741
18764000,0.0324,0.013523,0.002678,0.000431,0.080742
18765000,0.0324,0.013523,0.002678,0.000431,0.168065
18766000,0.0324,0.013523,0.002678,0.000431,0.149496
18767000,0.0324,0.013523,0.002678,0.000431,0.082975
18768000,0.0324,0.013523,0.002678,0.000431,0.096491
18769000,0.0324,0.013523,0.002678,0.000431,0.177938
18770000,0.0324,0.013523,0.002678,0.000431,0.057589
18771000,0.0324,0.013523,0.002678,0.000431,0.136803
18772000,0.0324,0.013523,0.002678,0.000431,0.207085
18773000,0.0324,0.013523,0.002678,0.000431,0.204617
18774000,0.0324,0.013523,0.002678,0.000431,0.050890
18775000,0.0324,0.013523,0.002678,0.000431,0.078039
18776000,0.0324,0.013523,0.002678,0.000431,0.195684
18777000,0.0324,0.013523,0.002678,0.000431,0.052770
18778000,0.0324,0.013523,0.002678,0.000431,0.360694
18779000,0.0324,0.013523,0.002678,0.000431,0.053240
18780000,0.0324,0.013523,0.002678,0.000431,0.174059
18781000,0.0324,0.013523,0.002678,0.000431,0.102837
18782000,0.0324,0.013523,0.002678,0.000431,0.106716
18783000,0.0324,0.013523,0.002678,0.000431,0.065111
18784000,0.0324,0.013523,0.002678,0.000431,0.111417
18785000,0.0324,0.013523,0.002678,0.000431,0.126460
18786000,0.0324,0.013523,0.002678,0.000431,0.132924
18787000,0.0324,0.013523,0.002678,0.000431,0.064993
18788000,0.0324,0.013523,0.002678,0.000431,0.094023
18789000,0.0324,0.013523,0.002678,0.000431,0.098959
18790000,0.0324,0.013523,0.002678,0.000431,0.184049
18791000,0.0324,0.013523,0.002678,0.000431,0.225184
18792000,0.0324,0.013523,0.002678,0.000431,0.068872
18793000,0.0324,0.013523,0.002678,0.000431,0.042780
18794000,0.0324,0.013523,0.002678,0.000431,0.101779
18795000,0.0324,0.013523,0.002678,0.000431,0.298757
18796000,0.0324,0.013523,0.002678,0.000431,0.118586
18797000,0.0324,0.013523,0.002678,0.000431,0.154197
18798000,0.0324,0.013523,0.002678,0.000431,0.153022
18799000,0.0324,0.013523,0.002678,0.000431,0.198505
18800000,0.0324,0.013523,0.002678,0.000431,0.064641
18801000,0.0324,0.013523,0.002678,0.000431,0.117998
18802000,0.0324,0.013523,0.002678,0.000431,0.049949
18803000,0.0324,0.013523,0.002678,0.000431,0.069224
18804000,0.0324,0.013523,0.002678,0.000431,0.211786
18805000,0.0324,0.013523,0.002678,0.000431,0.035258
18806000,0.0324,0.013523,0.002678,0.000431,0.095080
18807000,0.0324,0.013523,0.002678,0.000431,0.158781
18808000,0.0324,0.013523,0.002678,0.000431,0.142444
18809000,0.0324,0.013523,0.002678,0.000431,0.074983
18810000,0.0324,0.013523,0.002678,0.000431,0.125285
18811000,0.0324,0.013523,0.002678,0.000431,0.187575
18812000,0.0324,0.013523,0.002678,0.000431,0.196507
18813000,0.0324,0.013523,0.002678,0.000431,0.110359
18814000,0.0324,0.013523,0.002678,0.000431,0.224479
18815000,0.0324,0.013523,0.002678,0.000431,0.089909
18816000,0.0324,0.013523,0.002678,0.000431,0.133982
18817000,0.0324,0.013523,0.002678,0.000431,0.292998
18818000,0.0324,0.013523,0.002678,0.000431,0.114825
18819000,0.0324,0.013523,0.002678,0.000431,0.066756
18820000,0.0324,0.013523,0.002678,0.000431,0.052418
18821000,0.0324,0.013523,0.002678,0.000431,0.058999
18822000,0.0324,0.013523,0.002678,0.000431,0.053475
18823000,0.0324,0.013523,0.002678,0.000431,0.250805
18824000,0.0324,0.013523,0.002678,0.000431,0.070752
18825000,0.0324,0.013523,0.002678,0.000431,0.132689
18826000,0.0324,0.013523,0.002678,0.000431,0.054063
18827000,0.0324,0.013523,0.002678,0.000431,0.147968
18828000,0.0324,0.013523,0.002678,0.000431,0.051830
18829000,0.0324,0.013523,0.002678,0.000431,0.185224
18830000,0.0324,0.013523,0.002678,0.000431,0.125873
18831000,0.0324,0.013523,0.002678,0.000431,0.109301
18832000,0.0324,0.013523,0.002678,0.000431,0.141504
18833000,0.0324,0.013523,0.002678,0.000431,0.154902
18834000,0.0324,0.013523,0.002678,0.000431,0.140446
18835000,0.0324,0.013523,0.002678,0.000431,0.049832
18836000,0.0324,0.013523,0.002678,0.000431,0.317914
18837000,0.0324,0.013523,0.002678,0.000431,0.146323
18838000,0.0324,0.013523,0.002678,0.000431,0.079214
18839000,0.0324,0.013523,0.002678,0.000431,0.080742
18840000,0.0324,0.013523,0.002678,0.000431,0.143854
18841000,0.0324,0.013523,0.002678,0.000431,0.101779
18842000,0.0324,0.013523,0.002678,0.000431,0.133512
18843000,0.0324,0.013523,0.002678,0.000431,0.183697
18844000,0.0324,0.013523,0.002678,0.000431,0.053828
18845000,0.0324,0.013523,0.002678,0.000431,0.084150
18846000,0.0324,0.013523,0.002678,0.000431,0.144090
18847000,0.0324,0.013523,0.002678,0.000431,0.161954
18848000,0.0324,0.013523,0.002678,0.000431,0.152434
18849000,0.0324,0.013523,0.002678,0.000431,0.148908
18850000,0.0324,0.013523,0.002678,0.000431,0.067461
18851000,0.0324,0.013523,0.002678,0.000431,0.134687
18852000,0.0324,0.013523,0.002678,0.000431,0.098959
18853000,0.0324,0.013523,0.002678,0.000431,0.079567
18854000,0.0324,0.013523,0.002678,0.000431,0.082035
18855000,0.0324,0.013523,0.002678,0.000431,0.206732
18856000,0.0324,0.013523,0.002678,0.000431,0.108126
18857000,0.0324,0.013523,0.002678,0.000431,0.170651
18858000,0.0324,0.013523,0.002678,0.000431,0.069107
18859000,0.0324,0.013523,0.002678,0.000431,0.212844
18860000,0.0324,0.013523,0.002678,0.000431,0.075806
18861000,0.0324,0.013523,0.002678,0.000431,0.158193
18862000,0.0324,0.013523,0.002678,0.000431,0.295701
18863000,0.0324,0.013523,0.002678,0.000431,0.170886
18864000,0.0324,0.013523,0.002678,0.000431,0.102485
18865000,0.0324,0.013523,0.002678,0.000431,0.049244
18866000,0.0324,0.013523,0.002678,0.000431,0.164775
18867000,0.0324,0.013523,0.002678,0.000431,0.075453
18868000,0.0324,0.013523,0.002678,0.000431,0.234586
18869000,0.0324,0.013523,0.002678,0.000431,0.144207
18870000,0.0324,0.013523,0.002678,0.000431,0.084033
18871000,0.0324,0.013523,0.002678,0.000431,0.050185
18872000,0.0324,0.013523,0.002678,0.000431,0.118116
18873000,0.0324,0.013523,0.002678,0.000431,0.091554
18874000,0.0324,0.013523,0.002678,0.000431,0.155255
18875000,0.0324,0.013523,0.002678,0.000431,0.235644
18876000,0.0324,0.013523,0.002678,0.000431,0.152317
18877000,0.0324,0.013523,0.002678,0.000431,0.092260
18878000,0.0324,0.013523,0.002678,0.000431,0.094493
18879000,0.0324,0.013523,0.002678,0.000431,0.081917
18880000,0.0324,0.013523,0.002678,0.000431,0.076393
18881000,0.0324,0.013523,0.002678,0.000431,0.179583
18882000,0.0324,0.013523,0.002678,0.000431,0.179348
18883000,0.0324,0.013523,0.002678,0.000431,0.057119
18884000,0.0324,0.013523,0.002678,0.000431,0.080859
18885000,0.0324,0.013523,0.002678,0.000431,0.191101
18886000,0.0324,0.013523,0.002678,0.000431,0.119996
18887000,0.0324,0.013523,0.002678,0.000431,0.131279
18888000,0.0324,0.013523,0.002678,0.000431,0.126930
18889000,0.0324,0.013523,0.002678,0.000431,0.064405
18890000,0.0324,0.013523,0.002678,0.000431,0.170416
18891000,0.0324,0.013523,0.002678,0.000431,0.108361
18892000,0.0324,0.013523,0.002678,0.000431,0.109654
18893000,0.0324,0.013523,0.002678,0.000431,0.055003
18894000,0.0324,0.013523,0.002678,0.000431,0.299697
18895000,0.0324,0.013523,0.002678,0.000431,0.205439
18896000,0.0324,0.013523,0.002678,0.000431,0.109771
18897000,0.0324,0.013523,0.002678,0.000431,0.071340
18898000,0.0324,0.013523,0.002678,0.000431,0.172766
18899000,0.0324,0.013523,0.002678,0.000431,0.075571
18900000,0.0324,0.013523,0.002678,0.000431,0.174999
18901000,0.0324,0.013523,0.002678,0.000431,0.261970
18902000,0.0324,0.013523,0.002678,0.000431,0.119526
18903000,0.0324,0.013523,0.002678,0.000431,0.178525
18904000,0.0324,0.013523,0.002678,0.000431,0.117411
18905000,0.0324,0.013523,0.002678,0.000431,0.152669
18906000,0.0324,0.013523,0.002678,0.000431,0.049949
18907000,0.0324,0.013523,0.002678,0.000431,0.185930
18908000,0.0324,0.013523,0.002678,0.000431,0.072750
18909000,0.0324,0.013523,0.002678,0.000431,0.217192
18910000,0.0324,0.013523,0.002678,0.000431,0.084033
18911000,0.0324,0.013523,0.002678,0.000431,0.175822
18912000,0.0324,0.013523,0.002678,0.000431,0.093435
18913000,0.0324,0.013523,0.002678,0.000431,0.241403
18914000,0.0324,0.013523,0.002678,0.000431,0.175352
18915000,0.0324,0.013523,0.002678,0.000431,0.131161
18916000,0.0324,0.013523,0.002678,0.000431,0.106010
18917000,0.0324,0.013523,0.002678,0.000431,0.079567
18918000,0.0324,0.013523,0.002678,0.000431,0.163717
18919000,0.0324,0.013523,0.002678,0.000431,0.205674
18920000,0.0324,0.013523,0.002678,0.000431,0.103425
18921000,0.0324,0.013523,0.002678,0.000431,0.131397
18922000,0.0324,0.013523,0.002678,0.000431,0.063583
18923000,0.0324,0.013523,0.002678,0.000431,0.041135
18924000,0.0324,0.013523,0.002678,0.000431,0.125638
18925000,0.0324,0.013523,0.002678,0.000431,0.085090
18926000,0.0324,0.013523,0.002678,0.000431,0.154432
18927000,0.0324,0.013523,0.002678,0.000431,0.083798
18928000,0.0324,0.013523,0.002678,0.000431,0.147380
18929000,0.0324,0.013523,0.002678,0.000431,0.111417
18930000,0.0324,0.013523,0.002678,0.000431,0.073220
18931000,0.0324,0.013523,0.002678,0.000431,0.203676
18932000,0.0324,0.013523,0.002678,0.000431,0.237054
18933000,0.0324,0.013523,0.002678,0.000431,0.193334
18934000,0.0324,0.013523,0.002678,0.000431,0.182991
18935000,0.0324,0.013523,0.002678,0.000431,0.111299
18936000,0.0324,0.013523,0.002678,0.000431,0.058764
18937000,0.0324,0.013523,0.002678,0.000431,0.094493
18938000,0.0324,0.013523,0.002678,0.000431,0.113650
18939000,0.0324,0.013523,0.002678,0.000431,0.222481
18940000,0.0324,0.013523,0.002678,0.000431,0.083915
18941000,0.0324,0.013523,0.002678,0.000431,0.152434
18942000,0.0324,0.013523,0.002678,0.000431,0.052770
18943000,0.0324,0.013523,0.002678,0.000431,0.211786
18944000,0.0324,0.013523,0.002678,0.000431,0.135628
18945000,0.0324,0.013523,0.002678,0.000431,0.162777
18946000,0.0324,0.013523,0.002678,0.000431,0.071340
18947000,0.0324,0.013523,0.002678,0.000431,0.131749
18948000,0.0324,0.013523,0.002678,0.000431,0.087323
18949000,0.0324,0.013523,0.002678,0.000431,0.196860
18950000,0.0324,0.013523,0.002678,0.000431,0.235056
18951000,0.0324,0.013523,0.002678,0.000431,0.143972
18952000,0.0324,0.013523,0.002678,0.000431,0.164187
18953000,0.0324,0.013523,0.002678,0.000431,0.047599
18954000,0.0324,0.013523,0.002678,0.000431,0.121407
18955000,0.0324,0.013523,0.002678,0.000431,0.070987
18956000,0.0324,0.013523,0.002678,0.000431,0.273723
18957000,0.0324,0.013523,0.002678,0.000431,0.232236
18958000,0.0324,0.013523,0.002678,0.000431,0.102250
18959000,0.0324,0.013523,0.002678,0.000431,0.035258
18960000,0.0324,0.013523,0.002678,0.000431,0.171474
18961000,0.0324,0.013523,0.002678,0.000431,0.158546
18962000,0.0324,0.013523,0.002678,0.000431,0.083445
18963000,0.0324,0.013523,0.002678,0.000431,0.209905
18964000,0.0324,0.013523,0.002678,0.000431,0.097431
18965000,0.0324,0.013523,0.002678,0.000431,0.144442
18966000,0.0324,0.013523,0.002678,0.000431,0.073573
18967000,0.0324,0.013523,0.002678,0.000431,0.190278
18968000,0.0324,0.013523,0.002678,0.000431,0.097431
18969000,0.0324,0.013523,0.002678,0.000431,0.220835
18970000,0.0324,0.013523,0.002678,0.000431,0.103542
18971000,0.0324,0.013523,0.002678,0.000431,0.221423
18972000,0.0324,0.013523,0.002678,0.000431,0.038784
18973000,0.0324,0.013523,0.002678,0.000431,0.092260
18974000,0.0324,0.013523,0.002678,0.000431,0.216487
18975000,0.0324,0.013523,0.002678,0.000431,0.189220
18976000,0.0324,0.013523,0.002678,0.000431,0.216134
18977000,0.0324,0.013523,0.002678,0.000431,0.185930
18978000,0.0324,0.013523,0.002678,0.000431,0.121994
18979000,0.0324,0.013523,0.002678,0.000431,0.077569
18980000,0.0324,0.013523,0.002678,0.000431,0.153962
18981000,0.0324,0.013523,0.002678,0.000431,0.139623
18982000,0.0324,0.013523,0.002678,0.000431,0.125520
18983000,0.0324,0.013523,0.002678,0.000431,0.187105
18984000,0.0324,0.013523,0.002678,0.000431,0.205087
18985000,0.0324,0.013523,0.002678,0.000431,0.050185
18986000,0.0324,0.013523,0.002678,0.000431,0.052418
18987000,0.0324,0.013523,0.002678,0.000431,0.178055
18988000,0.0324,0.013523,0.002678,0.000431,0.140564
18989000,0.0324,0.013523,0.002678,0.000431,0.158428
18990000,0.0324,0.013523,0.002678,0.000431,0.187222
18991000,0.0324,0.013523,0.002678,0.000431,0.163952
18992000,0.0324,0.013523,0.002678,0.000431,0.055473
18993000,0.0324,0.013523,0.002678,0.000431,0.097666
18994000,0.0324,0.013523,0.002678,0.000431,0.135745
18995000,0.0324,0.013523,0.002678,0.000431,0.195684
18996000,0.0324,0.013523,0.002678,0.000431,0.115883
18997000,0.0324,0.013523,0.002678,0.000431,0.201678
18998000,0.0324,0.013523,0.002678,0.000431,0.035258
18999000,0.0324,0.013523,0.002678,0.000431,0.168065
