Cycle,Area(mm^2),PeakDynamic(W),SubthresholdLeakage(W),GateLeakage(W),RunTimeDynamic(W)
3000000,0.0324,0.013523,0.002678,0.000431,0.523823
3001000,0.0324,0.013523,0.002678,0.000431,0.661214
3002000,0.0324,0.013523,0.002678,0.000431,0.641234
3003000,0.0324,0.013523,0.002678,0.000431,0.543920
3004000,0.0324,0.013523,0.002678,0.000431,0.548739
3005000,0.0324,0.013523,0.002678,0.000431,0.520885
3006000,0.0324,0.013523,0.002678,0.000431,0.522295
3007000,0.0324,0.013523,0.002678,0.000431,0.466469
3008000,0.0324,0.013523,0.002678,0.000431,0.401006
3009000,0.0324,0.013523,0.002678,0.000431,0.416637
3010000,0.0324,0.013523,0.002678,0.000431,0.430976
3011000,0.0324,0.013523,0.002678,0.000431,0.352232
3012000,0.0324,0.013523,0.002678,0.000431,0.462473
3013000,0.0324,0.013523,0.002678,0.000431,0.563548
3014000,0.0324,0.013523,0.002678,0.000431,0.599629
3015000,0.0324,0.013523,0.002678,0.000431,0.647698
3016000,0.0324,0.013523,0.002678,0.000431,0.676610
3017000,0.0324,0.013523,0.002678,0.000431,0.519945
3018000,0.0324,0.013523,0.002678,0.000431,0.547211
3019000,0.0324,0.013523,0.002678,0.000431,0.584703
3020000,0.0324,0.013523,0.002678,0.000431,0.568836
3021000,0.0324,0.013523,0.002678,0.000431,0.480220
3022000,0.0324,0.013523,0.002678,0.000431,0.655690
3023000,0.0324,0.013523,0.002678,0.000431,0.686365
3024000,0.0324,0.013523,0.002678,0.000431,0.668265
3025000,0.0324,0.013523,0.002678,0.000431,0.629363
3026000,0.0324,0.013523,0.002678,0.000431,0.804128
3027000,0.0324,0.013523,0.002678,0.000431,0.791200
3028000,0.0324,0.013523,0.002678,0.000431,0.725972
3029000,0.0324,0.013523,0.002678,0.000431,0.608561
3030000,0.0324,0.013523,0.002678,0.000431,0.572127
3031000,0.0324,0.013523,0.002678,0.000431,0.550972
3032000,0.0324,0.013523,0.002678,0.000431,0.612322
3033000,0.0324,0.013523,0.002678,0.000431,0.492678
3034000,0.0324,0.013523,0.002678,0.000431,0.518182
3035000,0.0324,0.013523,0.002678,0.000431,0.469995
3036000,0.0324,0.013523,0.002678,0.000431,0.494206
3037000,0.0324,0.013523,0.002678,0.000431,0.553323
3038000,0.0324,0.013523,0.002678,0.000431,0.425805
3039000,0.0324,0.013523,0.002678,0.000431,0.420163
3040000,0.0324,0.013523,0.002678,0.000431,0.418048
3041000,0.0324,0.013523,0.002678,0.000431,0.453189
3042000,0.0324,0.013523,0.002678,0.000431,0.373975
3043000,0.0324,0.013523,0.002678,0.000431,0.361399
3044000,0.0324,0.013523,0.002678,0.000431,0.444021
3045000,0.0324,0.013523,0.002678,0.000431,0.480455
3046000,0.0324,0.013523,0.002678,0.000431,0.465412
3047000,0.0324,0.013523,0.002678,0.000431,0.443199
3048000,0.0324,0.013523,0.002678,0.000431,0.405590
3049000,0.0324,0.013523,0.002678,0.000431,0.472111
3050000,0.0324,0.013523,0.002678,0.000431,0.387843
3051000,0.0324,0.013523,0.002678,0.000431,0.353407
3052000,0.0324,0.013523,0.002678,0.000431,0.402416
3053000,0.0324,0.013523,0.002678,0.000431,0.496909
3054000,0.0324,0.013523,0.002678,0.000431,0.386903
3055000,0.0324,0.013523,0.002678,0.000431,0.344710
3056000,0.0324,0.013523,0.002678,0.000431,0.364220
3057000,0.0324,0.013523,0.002678,0.000431,0.423689
3058000,0.0324,0.013523,0.002678,0.000431,0.418753
3059000,0.0324,0.013523,0.002678,0.000431,0.488095
3060000,0.0324,0.013523,0.002678,0.000431,0.538984
3061000,0.0324,0.013523,0.002678,0.000431,0.517006
3062000,0.0324,0.013523,0.002678,0.000431,0.651576
3063000,0.0324,0.013523,0.002678,0.000431,0.671321
3064000,0.0324,0.013523,0.002678,0.000431,0.574125
3065000,0.0324,0.013523,0.002678,0.000431,0.598924
3066000,0.0324,0.013523,0.002678,0.000431,0.563313
3067000,0.0324,0.013523,0.002678,0.000431,0.557436
3068000,0.0324,0.013523,0.002678,0.000431,0.543333
3069000,0.0324,0.013523,0.002678,0.000431,0.540277
3070000,0.0324,0.013523,0.002678,0.000431,0.458477
3071000,0.0324,0.013523,0.002678,0.000431,0.498084
3072000,0.0324,0.013523,0.002678,0.000431,0.507487
3073000,0.0324,0.013523,0.002678,0.000431,0.464471
3074000,0.0324,0.013523,0.002678,0.000431,0.505606
3075000,0.0324,0.013523,0.002678,0.000431,0.565193
3076000,0.0324,0.013523,0.002678,0.000431,0.599746
3077000,0.0324,0.013523,0.002678,0.000431,0.577298
3078000,0.0324,0.013523,0.002678,0.000431,0.489622
3079000,0.0324,0.013523,0.002678,0.000431,0.470700
3080000,0.0324,0.013523,0.002678,0.000431,0.488565
3081000,0.0324,0.013523,0.002678,0.000431,0.534283
3082000,0.0324,0.013523,0.002678,0.000431,0.482806
3083000,0.0324,0.013523,0.002678,0.000431,0.511600
3084000,0.0324,0.013523,0.002678,0.000431,0.447312
3085000,0.0324,0.013523,0.002678,0.000431,0.482688
3086000,0.0324,0.013523,0.002678,0.000431,0.537104
3087000,0.0324,0.013523,0.002678,0.000431,0.505489
3088000,0.0324,0.013523,0.002678,0.000431,0.511600
3089000,0.0324,0.013523,0.002678,0.000431,0.566016
3090000,0.0324,0.013523,0.002678,0.000431,0.477752
3091000,0.0324,0.013523,0.002678,0.000431,0.536986
3092000,0.0324,0.013523,0.002678,0.000431,0.484451
3093000,0.0324,0.013523,0.002678,0.000431,0.489622
3094000,0.0324,0.013523,0.002678,0.000431,0.607738
3095000,0.0324,0.013523,0.002678,0.000431,0.635945
3096000,0.0324,0.013523,0.002678,0.000431,0.503961
3097000,0.0324,0.013523,0.002678,0.000431,0.628541
3098000,0.0324,0.013523,0.002678,0.000431,0.703054
3099000,0.0324,0.013523,0.002678,0.000431,0.569424
3100000,0.0324,0.013523,0.002678,0.000431,0.682956
3101000,0.0324,0.013523,0.002678,0.000431,0.726677
3102000,0.0324,0.013523,0.002678,0.000431,0.721270
3103000,0.0324,0.013523,0.002678,0.000431,0.682251
3104000,0.0324,0.013523,0.002678,0.000431,0.652399
3105000,0.0324,0.013523,0.002678,0.000431,0.662506
3106000,0.0324,0.013523,0.002678,0.000431,0.637825
3107000,0.0324,0.013523,0.002678,0.000431,0.560727
3108000,0.0324,0.013523,0.002678,0.000431,0.505724
3109000,0.0324,0.013523,0.002678,0.000431,0.437440
3110000,0.0324,0.013523,0.002678,0.000431,0.394660
3111000,0.0324,0.013523,0.002678,0.000431,0.367393
3112000,0.0324,0.013523,0.002678,0.000431,0.346591
3113000,0.0324,0.013523,0.002678,0.000431,0.320147
3114000,0.0324,0.013523,0.002678,0.000431,0.289942
3115000,0.0324,0.013523,0.002678,0.000431,0.284066
3116000,0.0324,0.013523,0.002678,0.000431,0.275251
3117000,0.0324,0.013523,0.002678,0.000431,0.256799
3118000,0.0324,0.013523,0.002678,0.000431,0.250923
3119000,0.0324,0.013523,0.002678,0.000431,0.245634
3120000,0.0324,0.013523,0.002678,0.000431,0.232941
3121000,0.0324,0.013523,0.002678,0.000431,0.226359
3122000,0.0324,0.013523,0.002678,0.000431,0.225889
3123000,0.0324,0.013523,0.002678,0.000431,0.212138
3124000,0.0324,0.013523,0.002678,0.000431,0.208495
3125000,0.0324,0.013523,0.002678,0.000431,0.204617
3126000,0.0324,0.013523,0.002678,0.000431,0.186047
3127000,0.0324,0.013523,0.002678,0.000431,0.182639
3128000,0.0324,0.013523,0.002678,0.000431,0.182521
3129000,0.0324,0.013523,0.002678,0.000431,0.178408
3130000,0.0324,0.013523,0.002678,0.000431,0.173237
3131000,0.0324,0.013523,0.002678,0.000431,0.170651
3132000,0.0324,0.013523,0.002678,0.000431,0.165950
3133000,0.0324,0.013523,0.002678,0.000431,0.164775
3134000,0.0324,0.013523,0.002678,0.000431,0.162894
3135000,0.0324,0.013523,0.002678,0.000431,0.158663
3136000,0.0324,0.013523,0.002678,0.000431,0.151846
3137000,0.0324,0.013523,0.002678,0.000431,0.153609
3138000,0.0324,0.013523,0.002678,0.000431,0.146910
3139000,0.0324,0.013523,0.002678,0.000431,0.143854
3140000,0.0324,0.013523,0.002678,0.000431,0.142797
3141000,0.0324,0.013523,0.002678,0.000431,0.140564
3142000,0.0324,0.013523,0.002678,0.000431,0.137273
3143000,0.0324,0.013523,0.002678,0.000431,0.133394
3144000,0.0324,0.013523,0.002678,0.000431,0.134922
3145000,0.0324,0.013523,0.002678,0.000431,0.128458
3146000,0.0324,0.013523,0.002678,0.000431,0.126108
3147000,0.0324,0.013523,0.002678,0.000431,0.125873
3148000,0.0324,0.013523,0.002678,0.000431,0.119291
3149000,0.0324,0.013523,0.002678,0.000431,0.120231
3150000,0.0324,0.013523,0.002678,0.000431,0.121759
3151000,0.0324,0.013523,0.002678,0.000431,0.117998
3152000,0.0324,0.013523,0.002678,0.000431,0.119409
3153000,0.0324,0.013523,0.002678,0.000431,0.114825
3154000,0.0324,0.013523,0.002678,0.000431,0.112592
3155000,0.0324,0.013523,0.002678,0.000431,0.112945
3156000,0.0324,0.013523,0.002678,0.000431,0.109654
3157000,0.0324,0.013523,0.002678,0.000431,0.109184
3158000,0.0324,0.013523,0.002678,0.000431,0.105893
3159000,0.0324,0.013523,0.002678,0.000431,0.105658
3160000,0.0324,0.013523,0.002678,0.000431,0.105540
3161000,0.0324,0.013523,0.002678,0.000431,0.104247
3162000,0.0324,0.013523,0.002678,0.000431,0.101897
3163000,0.0324,0.013523,0.002678,0.000431,0.100134
3164000,0.0324,0.013523,0.002678,0.000431,0.095315
3165000,0.0324,0.013523,0.002678,0.000431,0.092612
3166000,0.0324,0.013523,0.002678,0.000431,0.093200
3167000,0.0324,0.013523,0.002678,0.000431,0.091672
3168000,0.0324,0.013523,0.002678,0.000431,0.089086
3169000,0.0324,0.013523,0.002678,0.000431,0.092377
3170000,0.0324,0.013523,0.002678,0.000431,0.089439
3171000,0.0324,0.013523,0.002678,0.000431,0.088029
3172000,0.0324,0.013523,0.002678,0.000431,0.086618
3173000,0.0324,0.013523,0.002678,0.000431,0.084268
3174000,0.0324,0.013523,0.002678,0.000431,0.086971
3175000,0.0324,0.013523,0.002678,0.000431,0.085796
3176000,0.0324,0.013523,0.002678,0.000431,0.087206
3177000,0.0324,0.013523,0.002678,0.000431,0.083327
3178000,0.0324,0.013523,0.002678,0.000431,0.079919
3179000,0.0324,0.013523,0.002678,0.000431,0.084385
3180000,0.0324,0.013523,0.002678,0.000431,0.079096
3181000,0.0324,0.013523,0.002678,0.000431,0.081330
3182000,0.0324,0.013523,0.002678,0.000431,0.077451
3183000,0.0324,0.013523,0.002678,0.000431,0.077569
3184000,0.0324,0.013523,0.002678,0.000431,0.076511
3185000,0.0324,0.013523,0.002678,0.000431,0.072397
3186000,0.0324,0.013523,0.002678,0.000431,0.076511
3187000,0.0324,0.013523,0.002678,0.000431,0.076041
3188000,0.0324,0.013523,0.002678,0.000431,0.070282
3189000,0.0324,0.013523,0.002678,0.000431,0.073455
3190000,0.0324,0.013523,0.002678,0.000431,0.069929
3191000,0.0324,0.013523,0.002678,0.000431,0.070869
3192000,0.0324,0.013523,0.002678,0.000431,0.070869
3193000,0.0324,0.013523,0.002678,0.000431,0.068284
3194000,0.0324,0.013523,0.002678,0.000431,0.070752
3195000,0.0324,0.013523,0.002678,0.000431,0.067931
3196000,0.0324,0.013523,0.002678,0.000431,0.066874
3197000,0.0324,0.013523,0.002678,0.000431,0.069929
3198000,0.0324,0.013523,0.002678,0.000431,0.065111
3199000,0.0324,0.013523,0.002678,0.000431,0.064523
3200000,0.0324,0.013523,0.002678,0.000431,0.066168
3201000,0.0324,0.013523,0.002678,0.000431,0.064405
3202000,0.0324,0.013523,0.002678,0.000431,0.065346
3203000,0.0324,0.013523,0.002678,0.000431,0.063348
3204000,0.0324,0.013523,0.002678,0.000431,0.065111
3205000,0.0324,0.013523,0.002678,0.000431,0.061232
3206000,0.0324,0.013523,0.002678,0.000431,0.062055
3207000,0.0324,0.013523,0.002678,0.000431,0.061937
3208000,0.0324,0.013523,0.002678,0.000431,0.060292
3209000,0.0324,0.013523,0.002678,0.000431,0.060292
3210000,0.0324,0.013523,0.002678,0.000431,0.059939
3211000,0.0324,0.013523,0.002678,0.000431,0.058999
3212000,0.0324,0.013523,0.002678,0.000431,0.058294
3213000,0.0324,0.013523,0.002678,0.000431,0.056414
3214000,0.0324,0.013523,0.002678,0.000431,0.057824
3215000,0.0324,0.013523,0.002678,0.000431,0.056884
3216000,0.0324,0.013523,0.002678,0.000431,0.058882
3217000,0.0324,0.013523,0.002678,0.000431,0.058059
3218000,0.0324,0.013523,0.002678,0.000431,0.057824
3219000,0.0324,0.013523,0.002678,0.000431,0.058647
3220000,0.0324,0.013523,0.002678,0.000431,0.059822
3221000,0.0324,0.013523,0.002678,0.000431,0.055943
3222000,0.0324,0.013523,0.002678,0.000431,0.057706
3223000,0.0324,0.013523,0.002678,0.000431,0.054886
3224000,0.0324,0.013523,0.002678,0.000431,0.053123
3225000,0.0324,0.013523,0.002678,0.000431,0.053593
3226000,0.0324,0.013523,0.002678,0.000431,0.053240
3227000,0.0324,0.013523,0.002678,0.000431,0.051830
3228000,0.0324,0.013523,0.002678,0.000431,0.052065
3229000,0.0324,0.013523,0.002678,0.000431,0.049479
3230000,0.0324,0.013523,0.002678,0.000431,0.051007
3231000,0.0324,0.013523,0.002678,0.000431,0.049244
3232000,0.0324,0.013523,0.002678,0.000431,0.049009
3233000,0.0324,0.013523,0.002678,0.000431,0.049362
3234000,0.0324,0.013523,0.002678,0.000431,0.047364
3235000,0.0324,0.013523,0.002678,0.000431,0.045483
3236000,0.0324,0.013523,0.002678,0.000431,0.048187
3237000,0.0324,0.013523,0.002678,0.000431,0.050420
3238000,0.0324,0.013523,0.002678,0.000431,0.045248
3239000,0.0324,0.013523,0.002678,0.000431,0.047364
3240000,0.0324,0.013523,0.002678,0.000431,0.047364
3241000,0.0324,0.013523,0.002678,0.000431,0.045601
3242000,0.0324,0.013523,0.002678,0.000431,0.044778
3243000,0.0324,0.013523,0.002678,0.000431,0.046071
3244000,0.0324,0.013523,0.002678,0.000431,0.045483
3245000,0.0324,0.013523,0.002678,0.000431,0.045013
3246000,0.0324,0.013523,0.002678,0.000431,0.045483
3247000,0.0324,0.013523,0.002678,0.000431,0.045718
3248000,0.0324,0.013523,0.002678,0.000431,0.045131
3249000,0.0324,0.013523,0.002678,0.000431,0.046071
3250000,0.0324,0.013523,0.002678,0.000431,0.046071
3251000,0.0324,0.013523,0.002678,0.000431,0.043015
3252000,0.0324,0.013523,0.002678,0.000431,0.042898
3253000,0.0324,0.013523,0.002678,0.000431,0.044896
3254000,0.0324,0.013523,0.002678,0.000431,0.046306
3255000,0.0324,0.013523,0.002678,0.000431,0.043015
3256000,0.0324,0.013523,0.002678,0.000431,0.045601
3257000,0.0324,0.013523,0.002678,0.000431,0.044073
3258000,0.0324,0.013523,0.002678,0.000431,0.043956
3259000,0.0324,0.013523,0.002678,0.000431,0.044543
3260000,0.0324,0.013523,0.002678,0.000431,0.046541
3261000,0.0324,0.013523,0.002678,0.000431,0.042898
3262000,0.0324,0.013523,0.002678,0.000431,0.042428
3263000,0.0324,0.013523,0.002678,0.000431,0.041958
3264000,0.0324,0.013523,0.002678,0.000431,0.041252
3265000,0.0324,0.013523,0.002678,0.000431,0.041840
3266000,0.0324,0.013523,0.002678,0.000431,0.041723
3267000,0.0324,0.013523,0.002678,0.000431,0.042075
3268000,0.0324,0.013523,0.002678,0.000431,0.039842
3269000,0.0324,0.013523,0.002678,0.000431,0.041017
3270000,0.0324,0.013523,0.002678,0.000431,0.041723
3271000,0.0324,0.013523,0.002678,0.000431,0.038902
3272000,0.0324,0.013523,0.002678,0.000431,0.041135
3273000,0.0324,0.013523,0.002678,0.000431,0.043015
3274000,0.0324,0.013523,0.002678,0.000431,0.040900
3275000,0.0324,0.013523,0.002678,0.000431,0.039489
3276000,0.0324,0.013523,0.002678,0.000431,0.040077
3277000,0.0324,0.013523,0.002678,0.000431,0.039725
3278000,0.0324,0.013523,0.002678,0.000431,0.039960
3279000,0.0324,0.013523,0.002678,0.000431,0.041135
3280000,0.0324,0.013523,0.002678,0.000431,0.040195
3281000,0.0324,0.013523,0.002678,0.000431,0.038549
3282000,0.0324,0.013523,0.002678,0.000431,0.041252
3283000,0.0324,0.013523,0.002678,0.000431,0.040430
3284000,0.0324,0.013523,0.002678,0.000431,0.037491
3285000,0.0324,0.013523,0.002678,0.000431,0.038432
3286000,0.0324,0.013523,0.002678,0.000431,0.038784
3287000,0.0324,0.013523,0.002678,0.000431,0.039372
3288000,0.0324,0.013523,0.002678,0.000431,0.037374
3289000,0.0324,0.013523,0.002678,0.000431,0.038549
3290000,0.0324,0.013523,0.002678,0.000431,0.038667
3291000,0.0324,0.013523,0.002678,0.000431,0.039254
3292000,0.0324,0.013523,0.002678,0.000431,0.037491
3293000,0.0324,0.013523,0.002678,0.000431,0.038314
3294000,0.0324,0.013523,0.002678,0.000431,0.038197
3295000,0.0324,0.013523,0.002678,0.000431,0.038432
3296000,0.0324,0.013523,0.002678,0.000431,0.038197
3297000,0.0324,0.013523,0.002678,0.000431,0.039725
3298000,0.0324,0.013523,0.002678,0.000431,0.039019
3299000,0.0324,0.013523,0.002678,0.000431,0.037374
3300000,0.0324,0.013523,0.002678,0.000431,0.037727
3301000,0.0324,0.013523,0.002678,0.000431,0.037844
3302000,0.0324,0.013523,0.002678,0.000431,0.037021
3303000,0.0324,0.013523,0.002678,0.000431,0.036199
3304000,0.0324,0.013523,0.002678,0.000431,0.037844
3305000,0.0324,0.013523,0.002678,0.000431,0.037139
3306000,0.0324,0.013523,0.002678,0.000431,0.037962
3307000,0.0324,0.013523,0.002678,0.000431,0.038197
3308000,0.0324,0.013523,0.002678,0.000431,0.035729
3309000,0.0324,0.013523,0.002678,0.000431,0.036316
3310000,0.0324,0.013523,0.002678,0.000431,0.036551
3311000,0.0324,0.013523,0.002678,0.000431,0.037962
3312000,0.0324,0.013523,0.002678,0.000431,0.037021
3313000,0.0324,0.013523,0.002678,0.000431,0.036316
3314000,0.0324,0.013523,0.002678,0.000431,0.035964
3315000,0.0324,0.013523,0.002678,0.000431,0.036199
3316000,0.0324,0.013523,0.002678,0.000431,0.035023
3317000,0.0324,0.013523,0.002678,0.000431,0.037844
3318000,0.0324,0.013523,0.002678,0.000431,0.035376
3319000,0.0324,0.013523,0.002678,0.000431,0.034318
3320000,0.0324,0.013523,0.002678,0.000431,0.036786
3321000,0.0324,0.013523,0.002678,0.000431,0.034201
3322000,0.0324,0.013523,0.002678,0.000431,0.035023
3323000,0.0324,0.013523,0.002678,0.000431,0.036669
3324000,0.0324,0.013523,0.002678,0.000431,0.035258
3325000,0.0324,0.013523,0.002678,0.000431,0.034671
3326000,0.0324,0.013523,0.002678,0.000431,0.036199
3327000,0.0324,0.013523,0.002678,0.000431,0.034671
3328000,0.0324,0.013523,0.002678,0.000431,0.037021
3329000,0.0324,0.013523,0.002678,0.000431,0.036551
3330000,0.0324,0.013523,0.002678,0.000431,0.034436
3331000,0.0324,0.013523,0.002678,0.000431,0.035141
3332000,0.0324,0.013523,0.002678,0.000431,0.034436
3333000,0.0324,0.013523,0.002678,0.000431,0.035729
3334000,0.0324,0.013523,0.002678,0.000431,0.035964
3335000,0.0324,0.013523,0.002678,0.000431,0.034436
3336000,0.0324,0.013523,0.002678,0.000431,0.034788
3337000,0.0324,0.013523,0.002678,0.000431,0.031850
3338000,0.0324,0.013523,0.002678,0.000431,0.034553
3339000,0.0324,0.013523,0.002678,0.000431,0.034671
3340000,0.0324,0.013523,0.002678,0.000431,0.034201
3341000,0.0324,0.013523,0.002678,0.000431,0.033613
3342000,0.0324,0.013523,0.002678,0.000431,0.035258
3343000,0.0324,0.013523,0.002678,0.000431,0.034083
3344000,0.0324,0.013523,0.002678,0.000431,0.031733
3345000,0.0324,0.013523,0.002678,0.000431,0.033966
3346000,0.0324,0.013523,0.002678,0.000431,0.033613
3347000,0.0324,0.013523,0.002678,0.000431,0.032438
3348000,0.0324,0.013523,0.002678,0.000431,0.032203
3349000,0.0324,0.013523,0.002678,0.000431,0.033731
3350000,0.0324,0.013523,0.002678,0.000431,0.030675
3351000,0.0324,0.013523,0.002678,0.000431,0.033613
3352000,0.0324,0.013523,0.002678,0.000431,0.034083
3353000,0.0324,0.013523,0.002678,0.000431,0.031733
3354000,0.0324,0.013523,0.002678,0.000431,0.033025
3355000,0.0324,0.013523,0.002678,0.000431,0.033496
3356000,0.0324,0.013523,0.002678,0.000431,0.032673
3357000,0.0324,0.013523,0.002678,0.000431,0.032673
3358000,0.0324,0.013523,0.002678,0.000431,0.031733
3359000,0.0324,0.013523,0.002678,0.000431,0.031262
3360000,0.0324,0.013523,0.002678,0.000431,0.031615
3361000,0.0324,0.013523,0.002678,0.000431,0.030440
3362000,0.0324,0.013523,0.002678,0.000431,0.032908
3363000,0.0324,0.013523,0.002678,0.000431,0.031262
3364000,0.0324,0.013523,0.002678,0.000431,0.029735
3365000,0.0324,0.013523,0.002678,0.000431,0.032085
3366000,0.0324,0.013523,0.002678,0.000431,0.031498
3367000,0.0324,0.013523,0.002678,0.000431,0.029852
3368000,0.0324,0.013523,0.002678,0.000431,0.029735
3369000,0.0324,0.013523,0.002678,0.000431,0.031027
3370000,0.0324,0.013523,0.002678,0.000431,0.030087
3371000,0.0324,0.013523,0.002678,0.000431,0.029735
3372000,0.0324,0.013523,0.002678,0.000431,0.029852
3373000,0.0324,0.013523,0.002678,0.000431,0.027972
3374000,0.0324,0.013523,0.002678,0.000431,0.029265
3375000,0.0324,0.013523,0.002678,0.000431,0.028677
3376000,0.0324,0.013523,0.002678,0.000431,0.027619
3377000,0.0324,0.013523,0.002678,0.000431,0.029735
3378000,0.0324,0.013523,0.002678,0.000431,0.028677
3379000,0.0324,0.013523,0.002678,0.000431,0.029735
3380000,0.0324,0.013523,0.002678,0.000431,0.028324
3381000,0.0324,0.013523,0.002678,0.000431,0.026679
3382000,0.0324,0.013523,0.002678,0.000431,0.025269
3383000,0.0324,0.013523,0.002678,0.000431,0.026091
3384000,0.0324,0.013523,0.002678,0.000431,0.026679
3385000,0.0324,0.013523,0.002678,0.000431,0.026679
3386000,0.0324,0.013523,0.002678,0.000431,0.025151
3387000,0.0324,0.013523,0.002678,0.000431,0.027854
3388000,0.0324,0.013523,0.002678,0.000431,0.025269
3389000,0.0324,0.013523,0.002678,0.000431,0.026914
3390000,0.0324,0.013523,0.002678,0.000431,0.026444
3391000,0.0324,0.013523,0.002678,0.000431,0.025621
3392000,0.0324,0.013523,0.002678,0.000431,0.027267
3393000,0.0324,0.013523,0.002678,0.000431,0.024328
3394000,0.0324,0.013523,0.002678,0.000431,0.026561
3395000,0.0324,0.013523,0.002678,0.000431,0.025151
3396000,0.0324,0.013523,0.002678,0.000431,0.025504
3397000,0.0324,0.013523,0.002678,0.000431,0.027149
3398000,0.0324,0.013523,0.002678,0.000431,0.026561
3399000,0.0324,0.013523,0.002678,0.000431,0.026209
3400000,0.0324,0.013523,0.002678,0.000431,0.027149
3401000,0.0324,0.013523,0.002678,0.000431,0.026561
3402000,0.0324,0.013523,0.002678,0.000431,0.025386
3403000,0.0324,0.013523,0.002678,0.000431,0.025504
3404000,0.0324,0.013523,0.002678,0.000431,0.025386
3405000,0.0324,0.013523,0.002678,0.000431,0.024916
3406000,0.0324,0.013523,0.002678,0.000431,0.025974
3407000,0.0324,0.013523,0.002678,0.000431,0.024798
3408000,0.0324,0.013523,0.002678,0.000431,0.026914
3409000,0.0324,0.013523,0.002678,0.000431,0.025151
3410000,0.0324,0.013523,0.002678,0.000431,0.025739
3411000,0.0324,0.013523,0.002678,0.000431,0.025386
3412000,0.0324,0.013523,0.002678,0.000431,0.024798
3413000,0.0324,0.013523,0.002678,0.000431,0.024563
3414000,0.0324,0.013523,0.002678,0.000431,0.024916
3415000,0.0324,0.013523,0.002678,0.000431,0.025621
3416000,0.0324,0.013523,0.002678,0.000431,0.025151
3417000,0.0324,0.013523,0.002678,0.000431,0.025269
3418000,0.0324,0.013523,0.002678,0.000431,0.025739
3419000,0.0324,0.013523,0.002678,0.000431,0.025386
3420000,0.0324,0.013523,0.002678,0.000431,0.025504
3421000,0.0324,0.013523,0.002678,0.000431,0.024681
3422000,0.0324,0.013523,0.002678,0.000431,0.024211
3423000,0.0324,0.013523,0.002678,0.000431,0.024093
3424000,0.0324,0.013523,0.002678,0.000431,0.024563
3425000,0.0324,0.013523,0.002678,0.000431,0.024563
3426000,0.0324,0.013523,0.002678,0.000431,0.024446
3427000,0.0324,0.013523,0.002678,0.000431,0.024563
3428000,0.0324,0.013523,0.002678,0.000431,0.024211
3429000,0.0324,0.013523,0.002678,0.000431,0.023623
3430000,0.0324,0.013523,0.002678,0.000431,0.024916
3431000,0.0324,0.013523,0.002678,0.000431,0.024681
3432000,0.0324,0.013523,0.002678,0.000431,0.023388
3433000,0.0324,0.013523,0.002678,0.000431,0.024563
3434000,0.0324,0.013523,0.002678,0.000431,0.024211
3435000,0.0324,0.013523,0.002678,0.000431,0.023036
3436000,0.0324,0.013523,0.002678,0.000431,0.025151
3437000,0.0324,0.013523,0.002678,0.000431,0.023858
3438000,0.0324,0.013523,0.002678,0.000431,0.024211
3439000,0.0324,0.013523,0.002678,0.000431,0.024563
3440000,0.0324,0.013523,0.002678,0.000431,0.024681
3441000,0.0324,0.013523,0.002678,0.000431,0.024798
3442000,0.0324,0.013523,0.002678,0.000431,0.023623
3443000,0.0324,0.013523,0.002678,0.000431,0.024563
3444000,0.0324,0.013523,0.002678,0.000431,0.025151
3445000,0.0324,0.013523,0.002678,0.000431,0.023388
3446000,0.0324,0.013523,0.002678,0.000431,0.023506
3447000,0.0324,0.013523,0.002678,0.000431,0.024798
3448000,0.0324,0.013523,0.002678,0.000431,0.022565
3449000,0.0324,0.013523,0.002678,0.000431,0.023153
3450000,0.0324,0.013523,0.002678,0.000431,0.023976
3451000,0.0324,0.013523,0.002678,0.000431,0.022800
3452000,0.0324,0.013523,0.002678,0.000431,0.023036
3453000,0.0324,0.013523,0.002678,0.000431,0.023741
3454000,0.0324,0.013523,0.002678,0.000431,0.024328
3455000,0.0324,0.013523,0.002678,0.000431,0.024093
3456000,0.0324,0.013523,0.002678,0.000431,0.023623
3457000,0.0324,0.013523,0.002678,0.000431,0.022918
3458000,0.0324,0.013523,0.002678,0.000431,0.024446
3459000,0.0324,0.013523,0.002678,0.000431,0.022800
3460000,0.0324,0.013523,0.002678,0.000431,0.020567
3461000,0.0324,0.013523,0.002678,0.000431,0.020685
3462000,0.0324,0.013523,0.002678,0.000431,0.020802
3463000,0.0324,0.013523,0.002678,0.000431,0.019745
3464000,0.0324,0.013523,0.002678,0.000431,0.018687
3465000,0.0324,0.013523,0.002678,0.000431,0.020802
3466000,0.0324,0.013523,0.002678,0.000431,0.020450
3467000,0.0324,0.013523,0.002678,0.000431,0.019862
3468000,0.0324,0.013523,0.002678,0.000431,0.019627
3469000,0.0324,0.013523,0.002678,0.000431,0.019627
3470000,0.0324,0.013523,0.002678,0.000431,0.020332
3471000,0.0324,0.013523,0.002678,0.000431,0.019392
3472000,0.0324,0.013523,0.002678,0.000431,0.020920
3473000,0.0324,0.013523,0.002678,0.000431,0.019627
3474000,0.0324,0.013523,0.002678,0.000431,0.020097
3475000,0.0324,0.013523,0.002678,0.000431,0.020685
3476000,0.0324,0.013523,0.002678,0.000431,0.020215
3477000,0.0324,0.013523,0.002678,0.000431,0.019745
3478000,0.0324,0.013523,0.002678,0.000431,0.020332
3479000,0.0324,0.013523,0.002678,0.000431,0.018569
3480000,0.0324,0.013523,0.002678,0.000431,0.019980
3481000,0.0324,0.013523,0.002678,0.000431,0.020097
3482000,0.0324,0.013523,0.002678,0.000431,0.019510
3483000,0.0324,0.013523,0.002678,0.000431,0.019627
3484000,0.0324,0.013523,0.002678,0.000431,0.019862
3485000,0.0324,0.013523,0.002678,0.000431,0.020097
3486000,0.0324,0.013523,0.002678,0.000431,0.019392
3487000,0.0324,0.013523,0.002678,0.000431,0.020567
3488000,0.0324,0.013523,0.002678,0.000431,0.018922
3489000,0.0324,0.013523,0.002678,0.000431,0.020450
3490000,0.0324,0.013523,0.002678,0.000431,0.020215
3491000,0.0324,0.013523,0.002678,0.000431,0.020097
3492000,0.0324,0.013523,0.002678,0.000431,0.019980
3493000,0.0324,0.013523,0.002678,0.000431,0.019627
3494000,0.0324,0.013523,0.002678,0.000431,0.019392
3495000,0.0324,0.013523,0.002678,0.000431,0.020097
3496000,0.0324,0.013523,0.002678,0.000431,0.018805
3497000,0.0324,0.013523,0.002678,0.000431,0.019980
3498000,0.0324,0.013523,0.002678,0.000431,0.018569
3499000,0.0324,0.013523,0.002678,0.000431,0.018687
3500000,0.0324,0.013523,0.002678,0.000431,0.019745
3501000,0.0324,0.013523,0.002678,0.000431,0.021038
3502000,0.0324,0.013523,0.002678,0.000431,0.017747
3503000,0.0324,0.013523,0.002678,0.000431,0.018805
3504000,0.0324,0.013523,0.002678,0.000431,0.020920
3505000,0.0324,0.013523,0.002678,0.000431,0.018452
3506000,0.0324,0.013523,0.002678,0.000431,0.019392
3507000,0.0324,0.013523,0.002678,0.000431,0.019392
3508000,0.0324,0.013523,0.002678,0.000431,0.018922
3509000,0.0324,0.013523,0.002678,0.000431,0.017864
3510000,0.0324,0.013523,0.002678,0.000431,0.020567
3511000,0.0324,0.013523,0.002678,0.000431,0.019392
3512000,0.0324,0.013523,0.002678,0.000431,0.018099
3513000,0.0324,0.013523,0.002678,0.000431,0.020215
3514000,0.0324,0.013523,0.002678,0.000431,0.019862
3515000,0.0324,0.013523,0.002678,0.000431,0.018334
3516000,0.0324,0.013523,0.002678,0.000431,0.020215
3517000,0.0324,0.013523,0.002678,0.000431,0.019040
3518000,0.0324,0.013523,0.002678,0.000431,0.018099
3519000,0.0324,0.013523,0.002678,0.000431,0.018334
3520000,0.0324,0.013523,0.002678,0.000431,0.019275
3521000,0.0324,0.013523,0.002678,0.000431,0.017277
3522000,0.0324,0.013523,0.002678,0.000431,0.018805
3523000,0.0324,0.013523,0.002678,0.000431,0.019862
3524000,0.0324,0.013523,0.002678,0.000431,0.018452
3525000,0.0324,0.013523,0.002678,0.000431,0.018217
3526000,0.0324,0.013523,0.002678,0.000431,0.019392
3527000,0.0324,0.013523,0.002678,0.000431,0.017512
3528000,0.0324,0.013523,0.002678,0.000431,0.018805
3529000,0.0324,0.013523,0.002678,0.000431,0.019392
3530000,0.0324,0.013523,0.002678,0.000431,0.018334
3531000,0.0324,0.013523,0.002678,0.000431,0.017512
3532000,0.0324,0.013523,0.002678,0.000431,0.018099
3533000,0.0324,0.013523,0.002678,0.000431,0.019040
3534000,0.0324,0.013523,0.002678,0.000431,0.018569
3535000,0.0324,0.013523,0.002678,0.000431,0.018217
3536000,0.0324,0.013523,0.002678,0.000431,0.019040
3537000,0.0324,0.013523,0.002678,0.000431,0.017982
3538000,0.0324,0.013523,0.002678,0.000431,0.018569
3539000,0.0324,0.013523,0.002678,0.000431,0.019862
3540000,0.0324,0.013523,0.002678,0.000431,0.017042
3541000,0.0324,0.013523,0.002678,0.000431,0.017394
3542000,0.0324,0.013523,0.002678,0.000431,0.016219
3543000,0.0324,0.013523,0.002678,0.000431,0.017042
3544000,0.0324,0.013523,0.002678,0.000431,0.015631
3545000,0.0324,0.013523,0.002678,0.000431,0.015984
3546000,0.0324,0.013523,0.002678,0.000431,0.016689
3547000,0.0324,0.013523,0.002678,0.000431,0.015866
3548000,0.0324,0.013523,0.002678,0.000431,0.016336
3549000,0.0324,0.013523,0.002678,0.000431,0.016336
3550000,0.0324,0.013523,0.002678,0.000431,0.015631
3551000,0.0324,0.013523,0.002678,0.000431,0.016454
3552000,0.0324,0.013523,0.002678,0.000431,0.015749
3553000,0.0324,0.013523,0.002678,0.000431,0.016336
3554000,0.0324,0.013523,0.002678,0.000431,0.015514
3555000,0.0324,0.013523,0.002678,0.000431,0.016336
3556000,0.0324,0.013523,0.002678,0.000431,0.016219
3557000,0.0324,0.013523,0.002678,0.000431,0.016689
3558000,0.0324,0.013523,0.002678,0.000431,0.015984
3559000,0.0324,0.013523,0.002678,0.000431,0.015866
3560000,0.0324,0.013523,0.002678,0.000431,0.016454
3561000,0.0324,0.013523,0.002678,0.000431,0.015749
3562000,0.0324,0.013523,0.002678,0.000431,0.015866
3563000,0.0324,0.013523,0.002678,0.000431,0.016454
3564000,0.0324,0.013523,0.002678,0.000431,0.016101
3565000,0.0324,0.013523,0.002678,0.000431,0.015749
3566000,0.0324,0.013523,0.002678,0.000431,0.016454
3567000,0.0324,0.013523,0.002678,0.000431,0.017042
3568000,0.0324,0.013523,0.002678,0.000431,0.015866
3569000,0.0324,0.013523,0.002678,0.000431,0.015749
3570000,0.0324,0.013523,0.002678,0.000431,0.016924
3571000,0.0324,0.013523,0.002678,0.000431,0.015161
3572000,0.0324,0.013523,0.002678,0.000431,0.015161
3573000,0.0324,0.013523,0.002678,0.000431,0.016924
3574000,0.0324,0.013523,0.002678,0.000431,0.016336
3575000,0.0324,0.013523,0.002678,0.000431,0.016689
3576000,0.0324,0.013523,0.002678,0.000431,0.015631
3577000,0.0324,0.013523,0.002678,0.000431,0.015044
3578000,0.0324,0.013523,0.002678,0.000431,0.015279
3579000,0.0324,0.013523,0.002678,0.000431,0.015279
3580000,0.0324,0.013523,0.002678,0.000431,0.015749
3581000,0.0324,0.013523,0.002678,0.000431,0.014691
3582000,0.0324,0.013523,0.002678,0.000431,0.015514
3583000,0.0324,0.013523,0.002678,0.000431,0.015866
3584000,0.0324,0.013523,0.002678,0.000431,0.014809
3585000,0.0324,0.013523,0.002678,0.000431,0.014456
3586000,0.0324,0.013523,0.002678,0.000431,0.016924
3587000,0.0324,0.013523,0.002678,0.000431,0.014456
3588000,0.0324,0.013523,0.002678,0.000431,0.015044
3589000,0.0324,0.013523,0.002678,0.000431,0.015866
3590000,0.0324,0.013523,0.002678,0.000431,0.015631
3591000,0.0324,0.013523,0.002678,0.000431,0.014926
3592000,0.0324,0.013523,0.002678,0.000431,0.015749
3593000,0.0324,0.013523,0.002678,0.000431,0.015279
3594000,0.0324,0.013523,0.002678,0.000431,0.014809
3595000,0.0324,0.013523,0.002678,0.000431,0.013986
3596000,0.0324,0.013523,0.002678,0.000431,0.016219
3597000,0.0324,0.013523,0.002678,0.000431,0.015279
3598000,0.0324,0.013523,0.002678,0.000431,0.014926
3599000,0.0324,0.013523,0.002678,0.000431,0.015514
3600000,0.0324,0.013523,0.002678,0.000431,0.015631
3601000,0.0324,0.013523,0.002678,0.000431,0.015514
3602000,0.0324,0.013523,0.002678,0.000431,0.016101
3603000,0.0324,0.013523,0.002678,0.000431,0.015749
3604000,0.0324,0.013523,0.002678,0.000431,0.014926
3605000,0.0324,0.013523,0.002678,0.000431,0.015044
3606000,0.0324,0.013523,0.002678,0.000431,0.016219
3607000,0.0324,0.013523,0.002678,0.000431,0.014809
3608000,0.0324,0.013523,0.002678,0.000431,0.014809
3609000,0.0324,0.013523,0.002678,0.000431,0.016924
3610000,0.0324,0.013523,0.002678,0.000431,0.015044
3611000,0.0324,0.013523,0.002678,0.000431,0.013986
3612000,0.0324,0.013523,0.002678,0.000431,0.015514
3613000,0.0324,0.013523,0.002678,0.000431,0.014691
3614000,0.0324,0.013523,0.002678,0.000431,0.013398
3615000,0.0324,0.013523,0.002678,0.000431,0.016336
3616000,0.0324,0.013523,0.002678,0.000431,0.014573
3617000,0.0324,0.013523,0.002678,0.000431,0.014221
3618000,0.0324,0.013523,0.002678,0.000431,0.015279
3619000,0.0324,0.013523,0.002678,0.000431,0.014456
3620000,0.0324,0.013523,0.002678,0.000431,0.013986
3621000,0.0324,0.013523,0.002678,0.000431,0.014926
3622000,0.0324,0.013523,0.002678,0.000431,0.015396
3623000,0.0324,0.013523,0.002678,0.000431,0.014221
3624000,0.0324,0.013523,0.002678,0.000431,0.013986
3625000,0.0324,0.013523,0.002678,0.000431,0.014573
3626000,0.0324,0.013523,0.002678,0.000431,0.015279
3627000,0.0324,0.013523,0.002678,0.000431,0.014691
3628000,0.0324,0.013523,0.002678,0.000431,0.014456
3629000,0.0324,0.013523,0.002678,0.000431,0.013516
3630000,0.0324,0.013523,0.002678,0.000431,0.012576
3631000,0.0324,0.013523,0.002678,0.000431,0.015279
3632000,0.0324,0.013523,0.002678,0.000431,0.013633
3633000,0.0324,0.013523,0.002678,0.000431,0.013281
3634000,0.0324,0.013523,0.002678,0.000431,0.014456
3635000,0.0324,0.013523,0.002678,0.000431,0.014103
3636000,0.0324,0.013523,0.002678,0.000431,0.013516
3637000,0.0324,0.013523,0.002678,0.000431,0.012928
3638000,0.0324,0.013523,0.002678,0.000431,0.012458
3639000,0.0324,0.013523,0.002678,0.000431,0.013046
3640000,0.0324,0.013523,0.002678,0.000431,0.013281
3641000,0.0324,0.013523,0.002678,0.000431,0.013751
3642000,0.0324,0.013523,0.002678,0.000431,0.012576
3643000,0.0324,0.013523,0.002678,0.000431,0.013163
3644000,0.0324,0.013523,0.002678,0.000431,0.013398
3645000,0.0324,0.013523,0.002678,0.000431,0.013281
3646000,0.0324,0.013523,0.002678,0.000431,0.012693
3647000,0.0324,0.013523,0.002678,0.000431,0.013751
3648000,0.0324,0.013523,0.002678,0.000431,0.013516
3649000,0.0324,0.013523,0.002678,0.000431,0.012811
3650000,0.0324,0.013523,0.002678,0.000431,0.013398
3651000,0.0324,0.013523,0.002678,0.000431,0.013281
3652000,0.0324,0.013523,0.002678,0.000431,0.013163
3653000,0.0324,0.013523,0.002678,0.000431,0.013868
3654000,0.0324,0.013523,0.002678,0.000431,0.012576
3655000,0.0324,0.013523,0.002678,0.000431,0.012223
3656000,0.0324,0.013523,0.002678,0.000431,0.012576
3657000,0.0324,0.013523,0.002678,0.000431,0.012105
3658000,0.0324,0.013523,0.002678,0.000431,0.012928
3659000,0.0324,0.013523,0.002678,0.000431,0.012576
3660000,0.0324,0.013523,0.002678,0.000431,0.012340
3661000,0.0324,0.013523,0.002678,0.000431,0.012340
3662000,0.0324,0.013523,0.002678,0.000431,0.013163
3663000,0.0324,0.013523,0.002678,0.000431,0.012693
3664000,0.0324,0.013523,0.002678,0.000431,0.012458
3665000,0.0324,0.013523,0.002678,0.000431,0.013163
3666000,0.0324,0.013523,0.002678,0.000431,0.012458
3667000,0.0324,0.013523,0.002678,0.000431,0.012576
3668000,0.0324,0.013523,0.002678,0.000431,0.012693
3669000,0.0324,0.013523,0.002678,0.000431,0.012105
3670000,0.0324,0.013523,0.002678,0.000431,0.012340
3671000,0.0324,0.013523,0.002678,0.000431,0.011753
3672000,0.0324,0.013523,0.002678,0.000431,0.013163
3673000,0.0324,0.013523,0.002678,0.000431,0.012340
3674000,0.0324,0.013523,0.002678,0.000431,0.012693
3675000,0.0324,0.013523,0.002678,0.000431,0.012693
3676000,0.0324,0.013523,0.002678,0.000431,0.012811
3677000,0.0324,0.013523,0.002678,0.000431,0.012693
3678000,0.0324,0.013523,0.002678,0.000431,0.013046
3679000,0.0324,0.013523,0.002678,0.000431,0.012340
3680000,0.0324,0.013523,0.002678,0.000431,0.013046
3681000,0.0324,0.013523,0.002678,0.000431,0.012693
3682000,0.0324,0.013523,0.002678,0.000431,0.012223
3683000,0.0324,0.013523,0.002678,0.000431,0.010813
3684000,0.0324,0.013523,0.002678,0.000431,0.011518
3685000,0.0324,0.013523,0.002678,0.000431,0.011518
3686000,0.0324,0.013523,0.002678,0.000431,0.012811
3687000,0.0324,0.013523,0.002678,0.000431,0.011870
3688000,0.0324,0.013523,0.002678,0.000431,0.011753
3689000,0.0324,0.013523,0.002678,0.000431,0.012105
3690000,0.0324,0.013523,0.002678,0.000431,0.011753
3691000,0.0324,0.013523,0.002678,0.000431,0.011635
3692000,0.0324,0.013523,0.002678,0.000431,0.012340
3693000,0.0324,0.013523,0.002678,0.000431,0.011988
3694000,0.0324,0.013523,0.002678,0.000431,0.011283
3695000,0.0324,0.013523,0.002678,0.000431,0.012811
3696000,0.0324,0.013523,0.002678,0.000431,0.012458
3697000,0.0324,0.013523,0.002678,0.000431,0.011283
3698000,0.0324,0.013523,0.002678,0.000431,0.011753
3699000,0.0324,0.013523,0.002678,0.000431,0.012458
3700000,0.0324,0.013523,0.002678,0.000431,0.010578
3701000,0.0324,0.013523,0.002678,0.000431,0.012223
3702000,0.0324,0.013523,0.002678,0.000431,0.012576
3703000,0.0324,0.013523,0.002678,0.000431,0.011283
3704000,0.0324,0.013523,0.002678,0.000431,0.011283
3705000,0.0324,0.013523,0.002678,0.000431,0.012693
3706000,0.0324,0.013523,0.002678,0.000431,0.011870
3707000,0.0324,0.013523,0.002678,0.000431,0.011283
3708000,0.0324,0.013523,0.002678,0.000431,0.013046
3709000,0.0324,0.013523,0.002678,0.000431,0.011635
3710000,0.0324,0.013523,0.002678,0.000431,0.011048
3711000,0.0324,0.013523,0.002678,0.000431,0.012105
3712000,0.0324,0.013523,0.002678,0.000431,0.012458
3713000,0.0324,0.013523,0.002678,0.000431,0.011165
3714000,0.0324,0.013523,0.002678,0.000431,0.011870
3715000,0.0324,0.013523,0.002678,0.000431,0.012693
3716000,0.0324,0.013523,0.002678,0.000431,0.011400
3717000,0.0324,0.013523,0.002678,0.000431,0.011518
3718000,0.0324,0.013523,0.002678,0.000431,0.013163
3719000,0.0324,0.013523,0.002678,0.000431,0.010578
3720000,0.0324,0.013523,0.002678,0.000431,0.010695
3721000,0.0324,0.013523,0.002678,0.000431,0.011165
3722000,0.0324,0.013523,0.002678,0.000431,0.011048
3723000,0.0324,0.013523,0.002678,0.000431,0.011400
3724000,0.0324,0.013523,0.002678,0.000431,0.010813
3725000,0.0324,0.013523,0.002678,0.000431,0.011283
3726000,0.0324,0.013523,0.002678,0.000431,0.011165
3727000,0.0324,0.013523,0.002678,0.000431,0.011048
3728000,0.0324,0.013523,0.002678,0.000431,0.009990
3729000,0.0324,0.013523,0.002678,0.000431,0.009520
3730000,0.0324,0.013523,0.002678,0.000431,0.009637
3731000,0.0324,0.013523,0.002678,0.000431,0.009285
3732000,0.0324,0.013523,0.002678,0.000431,0.009402
3733000,0.0324,0.013523,0.002678,0.000431,0.009050
3734000,0.0324,0.013523,0.002678,0.000431,0.010342
3735000,0.0324,0.013523,0.002678,0.000431,0.008697
3736000,0.0324,0.013523,0.002678,0.000431,0.009872
3737000,0.0324,0.013523,0.002678,0.000431,0.009285
3738000,0.0324,0.013523,0.002678,0.000431,0.009402
3739000,0.0324,0.013523,0.002678,0.000431,0.009520
3740000,0.0324,0.013523,0.002678,0.000431,0.009520
3741000,0.0324,0.013523,0.002678,0.000431,0.009755
3742000,0.0324,0.013523,0.002678,0.000431,0.009872
3743000,0.0324,0.013523,0.002678,0.000431,0.009520
3744000,0.0324,0.013523,0.002678,0.000431,0.009755
3745000,0.0324,0.013523,0.002678,0.000431,0.009285
3746000,0.0324,0.013523,0.002678,0.000431,0.009520
3747000,0.0324,0.013523,0.002678,0.000431,0.009872
3748000,0.0324,0.013523,0.002678,0.000431,0.009520
3749000,0.0324,0.013523,0.002678,0.000431,0.008932
3750000,0.0324,0.013523,0.002678,0.000431,0.010107
3751000,0.0324,0.013523,0.002678,0.000431,0.009402
3752000,0.0324,0.013523,0.002678,0.000431,0.009167
3753000,0.0324,0.013523,0.002678,0.000431,0.010342
3754000,0.0324,0.013523,0.002678,0.000431,0.008815
3755000,0.0324,0.013523,0.002678,0.000431,0.008345
3756000,0.0324,0.013523,0.002678,0.000431,0.008462
3757000,0.0324,0.013523,0.002678,0.000431,0.009285
3758000,0.0324,0.013523,0.002678,0.000431,0.008345
3759000,0.0324,0.013523,0.002678,0.000431,0.008345
3760000,0.0324,0.013523,0.002678,0.000431,0.009050
3761000,0.0324,0.013523,0.002678,0.000431,0.008697
3762000,0.0324,0.013523,0.002678,0.000431,0.008462
3763000,0.0324,0.013523,0.002678,0.000431,0.009050
3764000,0.0324,0.013523,0.002678,0.000431,0.008697
3765000,0.0324,0.013523,0.002678,0.000431,0.008345
3766000,0.0324,0.013523,0.002678,0.000431,0.009285
3767000,0.0324,0.013523,0.002678,0.000431,0.009402
3768000,0.0324,0.013523,0.002678,0.000431,0.007874
3769000,0.0324,0.013523,0.002678,0.000431,0.008932
3770000,0.0324,0.013523,0.002678,0.000431,0.009285
3771000,0.0324,0.013523,0.002678,0.000431,0.008462
3772000,0.0324,0.013523,0.002678,0.000431,0.008580
3773000,0.0324,0.013523,0.002678,0.000431,0.009167
3774000,0.0324,0.013523,0.002678,0.000431,0.007757
3775000,0.0324,0.013523,0.002678,0.000431,0.007522
3776000,0.0324,0.013523,0.002678,0.000431,0.008697
3777000,0.0324,0.013523,0.002678,0.000431,0.007404
3778000,0.0324,0.013523,0.002678,0.000431,0.007639
3779000,0.0324,0.013523,0.002678,0.000431,0.009050
3780000,0.0324,0.013523,0.002678,0.000431,0.008462
3781000,0.0324,0.013523,0.002678,0.000431,0.007169
3782000,0.0324,0.013523,0.002678,0.000431,0.008345
3783000,0.0324,0.013523,0.002678,0.000431,0.008932
3784000,0.0324,0.013523,0.002678,0.000431,0.007404
3785000,0.0324,0.013523,0.002678,0.000431,0.008227
3786000,0.0324,0.013523,0.002678,0.000431,0.008580
3787000,0.0324,0.013523,0.002678,0.000431,0.007757
3788000,0.0324,0.013523,0.002678,0.000431,0.007404
3789000,0.0324,0.013523,0.002678,0.000431,0.008462
3790000,0.0324,0.013523,0.002678,0.000431,0.007992
3791000,0.0324,0.013523,0.002678,0.000431,0.007992
3792000,0.0324,0.013523,0.002678,0.000431,0.007639
3793000,0.0324,0.013523,0.002678,0.000431,0.008227
3794000,0.0324,0.013523,0.002678,0.000431,0.007757
3795000,0.0324,0.013523,0.002678,0.000431,0.008109
3796000,0.0324,0.013523,0.002678,0.000431,0.008462
3797000,0.0324,0.013523,0.002678,0.000431,0.007757
3798000,0.0324,0.013523,0.002678,0.000431,0.007639
3799000,0.0324,0.013523,0.002678,0.000431,0.008580
3800000,0.0324,0.013523,0.002678,0.000431,0.007052
3801000,0.0324,0.013523,0.002678,0.000431,0.007639
3802000,0.0324,0.013523,0.002678,0.000431,0.008580
3803000,0.0324,0.013523,0.002678,0.000431,0.008227
3804000,0.0324,0.013523,0.002678,0.000431,0.007639
3805000,0.0324,0.013523,0.002678,0.000431,0.007169
3806000,0.0324,0.013523,0.002678,0.000431,0.007639
3807000,0.0324,0.013523,0.002678,0.000431,0.007874
3808000,0.0324,0.013523,0.002678,0.000431,0.007404
3809000,0.0324,0.013523,0.002678,0.000431,0.007874
3810000,0.0324,0.013523,0.002678,0.000431,0.007639
3811000,0.0324,0.013523,0.002678,0.000431,0.007169
3812000,0.0324,0.013523,0.002678,0.000431,0.007404
3813000,0.0324,0.013523,0.002678,0.000431,0.007757
3814000,0.0324,0.013523,0.002678,0.000431,0.007287
3815000,0.0324,0.013523,0.002678,0.000431,0.006699
3816000,0.0324,0.013523,0.002678,0.000431,0.007757
3817000,0.0324,0.013523,0.002678,0.000431,0.007522
3818000,0.0324,0.013523,0.002678,0.000431,0.006934
3819000,0.0324,0.013523,0.002678,0.000431,0.007404
3820000,0.0324,0.013523,0.002678,0.000431,0.007052
3821000,0.0324,0.013523,0.002678,0.000431,0.007757
3822000,0.0324,0.013523,0.002678,0.000431,0.007874
3823000,0.0324,0.013523,0.002678,0.000431,0.006934
3824000,0.0324,0.013523,0.002678,0.000431,0.007052
3825000,0.0324,0.013523,0.002678,0.000431,0.007757
3826000,0.0324,0.013523,0.002678,0.000431,0.006934
3827000,0.0324,0.013523,0.002678,0.000431,0.007522
3828000,0.0324,0.013523,0.002678,0.000431,0.007639
3829000,0.0324,0.013523,0.002678,0.000431,0.007287
3830000,0.0324,0.013523,0.002678,0.000431,0.006817
3831000,0.0324,0.013523,0.002678,0.000431,0.007639
3832000,0.0324,0.013523,0.002678,0.000431,0.007287
3833000,0.0324,0.013523,0.002678,0.000431,0.007639
3834000,0.0324,0.013523,0.002678,0.000431,0.006934
3835000,0.0324,0.013523,0.002678,0.000431,0.007404
3836000,0.0324,0.013523,0.002678,0.000431,0.007757
3837000,0.0324,0.013523,0.002678,0.000431,0.007169
3838000,0.0324,0.013523,0.002678,0.000431,0.008109
3839000,0.0324,0.013523,0.002678,0.000431,0.007522
3840000,0.0324,0.013523,0.002678,0.000431,0.007287
3841000,0.0324,0.013523,0.002678,0.000431,0.007639
3842000,0.0324,0.013523,0.002678,0.000431,0.007639
3843000,0.0324,0.013523,0.002678,0.000431,0.007639
3844000,0.0324,0.013523,0.002678,0.000431,0.007404
3845000,0.0324,0.013523,0.002678,0.000431,0.006699
3846000,0.0324,0.013523,0.002678,0.000431,0.007639
3847000,0.0324,0.013523,0.002678,0.000431,0.007992
3848000,0.0324,0.013523,0.002678,0.000431,0.007522
3849000,0.0324,0.013523,0.002678,0.000431,0.007052
3850000,0.0324,0.013523,0.002678,0.000431,0.007052
3851000,0.0324,0.013523,0.002678,0.000431,0.007052
3852000,0.0324,0.013523,0.002678,0.000431,0.007874
3853000,0.0324,0.013523,0.002678,0.000431,0.007757
3854000,0.0324,0.013523,0.002678,0.000431,0.006817
3855000,0.0324,0.013523,0.002678,0.000431,0.007874
3856000,0.0324,0.013523,0.002678,0.000431,0.007757
3857000,0.0324,0.013523,0.002678,0.000431,0.006817
3858000,0.0324,0.013523,0.002678,0.000431,0.007757
3859000,0.0324,0.013523,0.002678,0.000431,0.007757
3860000,0.0324,0.013523,0.002678,0.000431,0.007052
3861000,0.0324,0.013523,0.002678,0.000431,0.007404
3862000,0.0324,0.013523,0.002678,0.000431,0.007757
3863000,0.0324,0.013523,0.002678,0.000431,0.007052
3864000,0.0324,0.013523,0.002678,0.000431,0.007522
3865000,0.0324,0.013523,0.002678,0.000431,0.006817
3866000,0.0324,0.013523,0.002678,0.000431,0.007757
3867000,0.0324,0.013523,0.002678,0.000431,0.007404
3868000,0.0324,0.013523,0.002678,0.000431,0.007052
3869000,0.0324,0.013523,0.002678,0.000431,0.008109
3870000,0.0324,0.013523,0.002678,0.000431,0.007287
3871000,0.0324,0.013523,0.002678,0.000431,0.007522
3872000,0.0324,0.013523,0.002678,0.000431,0.007874
3873000,0.0324,0.013523,0.002678,0.000431,0.006934
3874000,0.0324,0.013523,0.002678,0.000431,0.007404
3875000,0.0324,0.013523,0.002678,0.000431,0.007522
3876000,0.0324,0.013523,0.002678,0.000431,0.007639
3877000,0.0324,0.013523,0.002678,0.000431,0.007639
3878000,0.0324,0.013523,0.002678,0.000431,0.006817
3879000,0.0324,0.013523,0.002678,0.000431,0.008345
3880000,0.0324,0.013523,0.002678,0.000431,0.006582
3881000,0.0324,0.013523,0.002678,0.000431,0.007404
3882000,0.0324,0.013523,0.002678,0.000431,0.007992
3883000,0.0324,0.013523,0.002678,0.000431,0.006934
3884000,0.0324,0.013523,0.002678,0.000431,0.007052
3885000,0.0324,0.013523,0.002678,0.000431,0.008462
3886000,0.0324,0.013523,0.002678,0.000431,0.007404
3887000,0.0324,0.013523,0.002678,0.000431,0.006111
3888000,0.0324,0.013523,0.002678,0.000431,0.007287
3889000,0.0324,0.013523,0.002678,0.000431,0.008227
3890000,0.0324,0.013523,0.002678,0.000431,0.007052
3891000,0.0324,0.013523,0.002678,0.000431,0.007639
3892000,0.0324,0.013523,0.002678,0.000431,0.007169
3893000,0.0324,0.013523,0.002678,0.000431,0.007404
3894000,0.0324,0.013523,0.002678,0.000431,0.007404
3895000,0.0324,0.013523,0.002678,0.000431,0.007757
3896000,0.0324,0.013523,0.002678,0.000431,0.007757
3897000,0.0324,0.013523,0.002678,0.000431,0.008109
3898000,0.0324,0.013523,0.002678,0.000431,0.006817
3899000,0.0324,0.013523,0.002678,0.000431,0.007522
3900000,0.0324,0.013523,0.002678,0.000431,0.007757
3901000,0.0324,0.013523,0.002678,0.000431,0.006582
3902000,0.0324,0.013523,0.002678,0.000431,0.007639
3903000,0.0324,0.013523,0.002678,0.000431,0.007757
3904000,0.0324,0.013523,0.002678,0.000431,0.007052
3905000,0.0324,0.013523,0.002678,0.000431,0.007169
3906000,0.0324,0.013523,0.002678,0.000431,0.008227
3907000,0.0324,0.013523,0.002678,0.000431,0.007052
3908000,0.0324,0.013523,0.002678,0.000431,0.007169
3909000,0.0324,0.013523,0.002678,0.000431,0.008109
3910000,0.0324,0.013523,0.002678,0.000431,0.007992
3911000,0.0324,0.013523,0.002678,0.000431,0.006817
3912000,0.0324,0.013523,0.002678,0.000431,0.007404
3913000,0.0324,0.013523,0.002678,0.000431,0.007287
3914000,0.0324,0.013523,0.002678,0.000431,0.007287
3915000,0.0324,0.013523,0.002678,0.000431,0.008227
3916000,0.0324,0.013523,0.002678,0.000431,0.006464
3917000,0.0324,0.013523,0.002678,0.000431,0.007874
3918000,0.0324,0.013523,0.002678,0.000431,0.007287
3919000,0.0324,0.013523,0.002678,0.000431,0.007639
3920000,0.0324,0.013523,0.002678,0.000431,0.007757
3921000,0.0324,0.013523,0.002678,0.000431,0.007404
3922000,0.0324,0.013523,0.002678,0.000431,0.007522
3923000,0.0324,0.013523,0.002678,0.000431,0.007169
3924000,0.0324,0.013523,0.002678,0.000431,0.007639
3925000,0.0324,0.013523,0.002678,0.000431,0.007287
3926000,0.0324,0.013523,0.002678,0.000431,0.007052
3927000,0.0324,0.013523,0.002678,0.000431,0.007757
3928000,0.0324,0.013523,0.002678,0.000431,0.007404
3929000,0.0324,0.013523,0.002678,0.000431,0.007287
3930000,0.0324,0.013523,0.002678,0.000431,0.007287
3931000,0.0324,0.013523,0.002678,0.000431,0.007287
3932000,0.0324,0.013523,0.002678,0.000431,0.007287
3933000,0.0324,0.013523,0.002678,0.000431,0.007404
3934000,0.0324,0.013523,0.002678,0.000431,0.007052
3935000,0.0324,0.013523,0.002678,0.000431,0.007522
3936000,0.0324,0.013523,0.002678,0.000431,0.008109
3937000,0.0324,0.013523,0.002678,0.000431,0.007052
3938000,0.0324,0.013523,0.002678,0.000431,0.007757
3939000,0.0324,0.013523,0.002678,0.000431,0.007522
3940000,0.0324,0.013523,0.002678,0.000431,0.007169
3941000,0.0324,0.013523,0.002678,0.000431,0.007404
3942000,0.0324,0.013523,0.002678,0.000431,0.007757
3943000,0.0324,0.013523,0.002678,0.000431,0.006582
3944000,0.0324,0.013523,0.002678,0.000431,0.007639
3945000,0.0324,0.013523,0.002678,0.000431,0.007757
3946000,0.0324,0.013523,0.002678,0.000431,0.007287
3947000,0.0324,0.013523,0.002678,0.000431,0.007404
3948000,0.0324,0.013523,0.002678,0.000431,0.007404
3949000,0.0324,0.013523,0.002678,0.000431,0.007404
3950000,0.0324,0.013523,0.002678,0.000431,0.007404
3951000,0.0324,0.013523,0.002678,0.000431,0.007404
3952000,0.0324,0.013523,0.002678,0.000431,0.007404
3953000,0.0324,0.013523,0.002678,0.000431,0.006934
3954000,0.0324,0.013523,0.002678,0.000431,0.007757
3955000,0.0324,0.013523,0.002678,0.000431,0.007522
3956000,0.0324,0.013523,0.002678,0.000431,0.006817
3957000,0.0324,0.013523,0.002678,0.000431,0.006111
3958000,0.0324,0.013523,0.002678,0.000431,0.006934
3959000,0.0324,0.013523,0.002678,0.000431,0.006111
3960000,0.0324,0.013523,0.002678,0.000431,0.006582
3961000,0.0324,0.013523,0.002678,0.000431,0.006817
3962000,0.0324,0.013523,0.002678,0.000431,0.006817
3963000,0.0324,0.013523,0.002678,0.000431,0.007052
3964000,0.0324,0.013523,0.002678,0.000431,0.006817
3965000,0.0324,0.013523,0.002678,0.000431,0.006347
3966000,0.0324,0.013523,0.002678,0.000431,0.006582
3967000,0.0324,0.013523,0.002678,0.000431,0.006934
3968000,0.0324,0.013523,0.002678,0.000431,0.007052
3969000,0.0324,0.013523,0.002678,0.000431,0.006817
3970000,0.0324,0.013523,0.002678,0.000431,0.006229
3971000,0.0324,0.013523,0.002678,0.000431,0.007052
3972000,0.0324,0.013523,0.002678,0.000431,0.007287
3973000,0.0324,0.013523,0.002678,0.000431,0.005876
3974000,0.0324,0.013523,0.002678,0.000431,0.006817
3975000,0.0324,0.013523,0.002678,0.000431,0.006817
3976000,0.0324,0.013523,0.002678,0.000431,0.006699
3977000,0.0324,0.013523,0.002678,0.000431,0.006347
3978000,0.0324,0.013523,0.002678,0.000431,0.006582
3979000,0.0324,0.013523,0.002678,0.000431,0.005994
3980000,0.0324,0.013523,0.002678,0.000431,0.007052
3981000,0.0324,0.013523,0.002678,0.000431,0.006699
3982000,0.0324,0.013523,0.002678,0.000431,0.007052
3983000,0.0324,0.013523,0.002678,0.000431,0.006934
3984000,0.0324,0.013523,0.002678,0.000431,0.006817
3985000,0.0324,0.013523,0.002678,0.000431,0.006229
3986000,0.0324,0.013523,0.002678,0.000431,0.006699
3987000,0.0324,0.013523,0.002678,0.000431,0.007052
3988000,0.0324,0.013523,0.002678,0.000431,0.006582
3989000,0.0324,0.013523,0.002678,0.000431,0.006699
3990000,0.0324,0.013523,0.002678,0.000431,0.006582
3991000,0.0324,0.013523,0.002678,0.000431,0.006582
3992000,0.0324,0.013523,0.002678,0.000431,0.006934
3993000,0.0324,0.013523,0.002678,0.000431,0.006699
3994000,0.0324,0.013523,0.002678,0.000431,0.006699
3995000,0.0324,0.013523,0.002678,0.000431,0.006699
3996000,0.0324,0.013523,0.002678,0.000431,0.006582
3997000,0.0324,0.013523,0.002678,0.000431,0.006934
3998000,0.0324,0.013523,0.002678,0.000431,0.007052
3999000,0.0324,0.013523,0.002678,0.000431,0.006934
