Cycle,Area(mm^2),PeakDynamic(W),SubthresholdLeakage(W),GateLeakage(W),RunTimeDynamic(W)
15000000,0.0324,0.013523,0.002678,0.000431,0.019745
15001000,0.0324,0.013523,0.002678,0.000431,0.004701
15002000,0.0324,0.013523,0.002678,0.000431,0.020215
15003000,0.0324,0.013523,0.002678,0.000431,0.012223
15004000,0.0324,0.013523,0.002678,0.000431,0.004701
15005000,0.0324,0.013523,0.002678,0.000431,0.004701
15006000,0.0324,0.013523,0.002678,0.000431,0.006817
15007000,0.0324,0.013523,0.002678,0.000431,0.053475
15008000,0.0324,0.013523,0.002678,0.000431,0.066874
15009000,0.0324,0.013523,0.002678,0.000431,0.004701
15010000,0.0324,0.013523,0.002678,0.000431,0.027267
15011000,0.0324,0.013523,0.002678,0.000431,0.004701
15012000,0.0324,0.013523,0.002678,0.000431,0.004701
15013000,0.0324,0.013523,0.002678,0.000431,0.004936
15014000,0.0324,0.013523,0.002678,0.000431,0.004701
15015000,0.0324,0.013523,0.002678,0.000431,0.057354
15016000,0.0324,0.013523,0.002678,0.000431,0.027149
15017000,0.0324,0.013523,0.002678,0.000431,0.004349
15018000,0.0324,0.013523,0.002678,0.000431,0.004701
15019000,0.0324,0.013523,0.002678,0.000431,0.008462
15020000,0.0324,0.013523,0.002678,0.000431,0.008227
15021000,0.0324,0.013523,0.002678,0.000431,0.049832
15022000,0.0324,0.013523,0.002678,0.000431,0.047951
15023000,0.0324,0.013523,0.002678,0.000431,0.021860
15024000,0.0324,0.013523,0.002678,0.000431,0.004701
15025000,0.0324,0.013523,0.002678,0.000431,0.004701
15026000,0.0324,0.013523,0.002678,0.000431,0.027267
15027000,0.0324,0.013523,0.002678,0.000431,0.027502
15028000,0.0324,0.013523,0.002678,0.000431,0.072397
15029000,0.0324,0.013523,0.002678,0.000431,0.012223
15030000,0.0324,0.013523,0.002678,0.000431,0.004701
15031000,0.0324,0.013523,0.002678,0.000431,0.004701
15032000,0.0324,0.013523,0.002678,0.000431,0.019745
15033000,0.0324,0.013523,0.002678,0.000431,0.050067
15034000,0.0324,0.013523,0.002678,0.000431,0.027502
15035000,0.0324,0.013523,0.002678,0.000431,0.027972
15036000,0.0324,0.013523,0.002678,0.000431,0.019275
15037000,0.0324,0.013523,0.002678,0.000431,0.004701
15038000,0.0324,0.013523,0.002678,0.000431,0.004701
15039000,0.0324,0.013523,0.002678,0.000431,0.010695
15040000,0.0324,0.013523,0.002678,0.000431,0.013751
15041000,0.0324,0.013523,0.002678,0.000431,0.004701
15042000,0.0324,0.013523,0.002678,0.000431,0.004701
15043000,0.0324,0.013523,0.002678,0.000431,0.004701
15044000,0.0324,0.013523,0.002678,0.000431,0.012458
15045000,0.0324,0.013523,0.002678,0.000431,0.004701
15046000,0.0324,0.013523,0.002678,0.000431,0.004701
15047000,0.0324,0.013523,0.002678,0.000431,0.012223
15048000,0.0324,0.013523,0.002678,0.000431,0.004701
15049000,0.0324,0.013523,0.002678,0.000431,0.004701
15050000,0.0324,0.013523,0.002678,0.000431,0.004819
15051000,0.0324,0.013523,0.002678,0.000431,0.019627
15052000,0.0324,0.013523,0.002678,0.000431,0.018334
15053000,0.0324,0.013523,0.002678,0.000431,0.081094
15054000,0.0324,0.013523,0.002678,0.000431,0.039842
15055000,0.0324,0.013523,0.002678,0.000431,0.082152
15056000,0.0324,0.013523,0.002678,0.000431,0.004584
15057000,0.0324,0.013523,0.002678,0.000431,0.004466
15058000,0.0324,0.013523,0.002678,0.000431,0.004584
15059000,0.0324,0.013523,0.002678,0.000431,0.004701
15060000,0.0324,0.013523,0.002678,0.000431,0.019745
15061000,0.0324,0.013523,0.002678,0.000431,0.012223
15062000,0.0324,0.013523,0.002678,0.000431,0.004701
15063000,0.0324,0.013523,0.002678,0.000431,0.004701
15064000,0.0324,0.013523,0.002678,0.000431,0.004701
15065000,0.0324,0.013523,0.002678,0.000431,0.004701
15066000,0.0324,0.013523,0.002678,0.000431,0.004701
15067000,0.0324,0.013523,0.002678,0.000431,0.004701
15068000,0.0324,0.013523,0.002678,0.000431,0.004701
15069000,0.0324,0.013523,0.002678,0.000431,0.004701
15070000,0.0324,0.013523,0.002678,0.000431,0.012223
15071000,0.0324,0.013523,0.002678,0.000431,0.004701
15072000,0.0324,0.013523,0.002678,0.000431,0.004701
15073000,0.0324,0.013523,0.002678,0.000431,0.019745
15074000,0.0324,0.013523,0.002678,0.000431,0.027267
15075000,0.0324,0.013523,0.002678,0.000431,0.004701
15076000,0.0324,0.013523,0.002678,0.000431,0.046894
15077000,0.0324,0.013523,0.002678,0.000431,0.037727
15078000,0.0324,0.013523,0.002678,0.000431,0.004701
15079000,0.0324,0.013523,0.002678,0.000431,0.053123
15080000,0.0324,0.013523,0.002678,0.000431,0.029500
15081000,0.0324,0.013523,0.002678,0.000431,0.082152
15082000,0.0324,0.013523,0.002678,0.000431,0.004701
15083000,0.0324,0.013523,0.002678,0.000431,0.004701
15084000,0.0324,0.013523,0.002678,0.000431,0.011635
15085000,0.0324,0.013523,0.002678,0.000431,0.012811
15086000,0.0324,0.013523,0.002678,0.000431,0.004701
15087000,0.0324,0.013523,0.002678,0.000431,0.004701
15088000,0.0324,0.013523,0.002678,0.000431,0.004701
15089000,0.0324,0.013523,0.002678,0.000431,0.019980
15090000,0.0324,0.013523,0.002678,0.000431,0.004701
15091000,0.0324,0.013523,0.002678,0.000431,0.027384
15092000,0.0324,0.013523,0.002678,0.000431,0.060997
15093000,0.0324,0.013523,0.002678,0.000431,0.015866
15094000,0.0324,0.013523,0.002678,0.000431,0.012105
15095000,0.0324,0.013523,0.002678,0.000431,0.004701
15096000,0.0324,0.013523,0.002678,0.000431,0.004584
15097000,0.0324,0.013523,0.002678,0.000431,0.012105
15098000,0.0324,0.013523,0.002678,0.000431,0.012223
15099000,0.0324,0.013523,0.002678,0.000431,0.004701
15100000,0.0324,0.013523,0.002678,0.000431,0.042310
15101000,0.0324,0.013523,0.002678,0.000431,0.004701
15102000,0.0324,0.013523,0.002678,0.000431,0.004701
15103000,0.0324,0.013523,0.002678,0.000431,0.004701
15104000,0.0324,0.013523,0.002678,0.000431,0.012223
15105000,0.0324,0.013523,0.002678,0.000431,0.072632
15106000,0.0324,0.013523,0.002678,0.000431,0.012223
15107000,0.0324,0.013523,0.002678,0.000431,0.004701
15108000,0.0324,0.013523,0.002678,0.000431,0.012223
15109000,0.0324,0.013523,0.002678,0.000431,0.019745
15110000,0.0324,0.013523,0.002678,0.000431,0.012223
15111000,0.0324,0.013523,0.002678,0.000431,0.004701
15112000,0.0324,0.013523,0.002678,0.000431,0.004701
15113000,0.0324,0.013523,0.002678,0.000431,0.042310
15114000,0.0324,0.013523,0.002678,0.000431,0.004701
15115000,0.0324,0.013523,0.002678,0.000431,0.057824
15116000,0.0324,0.013523,0.002678,0.000431,0.004701
15117000,0.0324,0.013523,0.002678,0.000431,0.012458
15118000,0.0324,0.013523,0.002678,0.000431,0.012223
15119000,0.0324,0.013523,0.002678,0.000431,0.019745
15120000,0.0324,0.013523,0.002678,0.000431,0.004701
15121000,0.0324,0.013523,0.002678,0.000431,0.013751
15122000,0.0324,0.013523,0.002678,0.000431,0.010930
15123000,0.0324,0.013523,0.002678,0.000431,0.004466
15124000,0.0324,0.013523,0.002678,0.000431,0.004466
15125000,0.0324,0.013523,0.002678,0.000431,0.004701
15126000,0.0324,0.013523,0.002678,0.000431,0.012223
15127000,0.0324,0.013523,0.002678,0.000431,0.004701
15128000,0.0324,0.013523,0.002678,0.000431,0.027267
15129000,0.0324,0.013523,0.002678,0.000431,0.008462
15130000,0.0324,0.013523,0.002678,0.000431,0.070047
15131000,0.0324,0.013523,0.002678,0.000431,0.025621
15132000,0.0324,0.013523,0.002678,0.000431,0.086031
15133000,0.0324,0.013523,0.002678,0.000431,0.013516
15134000,0.0324,0.013523,0.002678,0.000431,0.023388
15135000,0.0324,0.013523,0.002678,0.000431,0.008462
15136000,0.0324,0.013523,0.002678,0.000431,0.064876
15137000,0.0324,0.013523,0.002678,0.000431,0.004701
15138000,0.0324,0.013523,0.002678,0.000431,0.004701
15139000,0.0324,0.013523,0.002678,0.000431,0.012223
15140000,0.0324,0.013523,0.002678,0.000431,0.004701
15141000,0.0324,0.013523,0.002678,0.000431,0.049832
15142000,0.0324,0.013523,0.002678,0.000431,0.008462
15143000,0.0324,0.013523,0.002678,0.000431,0.031027
15144000,0.0324,0.013523,0.002678,0.000431,0.004701
15145000,0.0324,0.013523,0.002678,0.000431,0.004701
15146000,0.0324,0.013523,0.002678,0.000431,0.004701
15147000,0.0324,0.013523,0.002678,0.000431,0.078274
15148000,0.0324,0.013523,0.002678,0.000431,0.006347
15149000,0.0324,0.013523,0.002678,0.000431,0.012223
15150000,0.0324,0.013523,0.002678,0.000431,0.027267
15151000,0.0324,0.013523,0.002678,0.000431,0.015984
15152000,0.0324,0.013523,0.002678,0.000431,0.008462
15153000,0.0324,0.013523,0.002678,0.000431,0.004701
15154000,0.0324,0.013523,0.002678,0.000431,0.027267
15155000,0.0324,0.013523,0.002678,0.000431,0.019275
15156000,0.0324,0.013523,0.002678,0.000431,0.020215
15157000,0.0324,0.013523,0.002678,0.000431,0.004701
15158000,0.0324,0.013523,0.002678,0.000431,0.072397
15159000,0.0324,0.013523,0.002678,0.000431,0.004701
15160000,0.0324,0.013523,0.002678,0.000431,0.004701
15161000,0.0324,0.013523,0.002678,0.000431,0.004584
15162000,0.0324,0.013523,0.002678,0.000431,0.110359
15163000,0.0324,0.013523,0.002678,0.000431,0.041605
15164000,0.0324,0.013523,0.002678,0.000431,0.004466
15165000,0.0324,0.013523,0.002678,0.000431,0.004701
15166000,0.0324,0.013523,0.002678,0.000431,0.004701
15167000,0.0324,0.013523,0.002678,0.000431,0.004701
15168000,0.0324,0.013523,0.002678,0.000431,0.057354
15169000,0.0324,0.013523,0.002678,0.000431,0.012223
15170000,0.0324,0.013523,0.002678,0.000431,0.004466
15171000,0.0324,0.013523,0.002678,0.000431,0.027267
15172000,0.0324,0.013523,0.002678,0.000431,0.004701
15173000,0.0324,0.013523,0.002678,0.000431,0.004701
15174000,0.0324,0.013523,0.002678,0.000431,0.004701
15175000,0.0324,0.013523,0.002678,0.000431,0.034788
15176000,0.0324,0.013523,0.002678,0.000431,0.004701
15177000,0.0324,0.013523,0.002678,0.000431,0.072397
15178000,0.0324,0.013523,0.002678,0.000431,0.004701
15179000,0.0324,0.013523,0.002678,0.000431,0.004701
15180000,0.0324,0.013523,0.002678,0.000431,0.004701
15181000,0.0324,0.013523,0.002678,0.000431,0.004701
15182000,0.0324,0.013523,0.002678,0.000431,0.043368
15183000,0.0324,0.013523,0.002678,0.000431,0.069577
15184000,0.0324,0.013523,0.002678,0.000431,0.104483
15185000,0.0324,0.013523,0.002678,0.000431,0.004701
15186000,0.0324,0.013523,0.002678,0.000431,0.073925
15187000,0.0324,0.013523,0.002678,0.000431,0.019157
15188000,0.0324,0.013523,0.002678,0.000431,0.011753
15189000,0.0324,0.013523,0.002678,0.000431,0.020802
15190000,0.0324,0.013523,0.002678,0.000431,0.026209
15191000,0.0324,0.013523,0.002678,0.000431,0.004701
15192000,0.0324,0.013523,0.002678,0.000431,0.004701
15193000,0.0324,0.013523,0.002678,0.000431,0.012458
15194000,0.0324,0.013523,0.002678,0.000431,0.034906
15195000,0.0324,0.013523,0.002678,0.000431,0.019627
15196000,0.0324,0.013523,0.002678,0.000431,0.015984
15197000,0.0324,0.013523,0.002678,0.000431,0.015984
15198000,0.0324,0.013523,0.002678,0.000431,0.004701
15199000,0.0324,0.013523,0.002678,0.000431,0.004701
15200000,0.0324,0.013523,0.002678,0.000431,0.034788
15201000,0.0324,0.013523,0.002678,0.000431,0.019627
15202000,0.0324,0.013523,0.002678,0.000431,0.004584
15203000,0.0324,0.013523,0.002678,0.000431,0.004584
15204000,0.0324,0.013523,0.002678,0.000431,0.004466
15205000,0.0324,0.013523,0.002678,0.000431,0.004584
15206000,0.0324,0.013523,0.002678,0.000431,0.004701
15207000,0.0324,0.013523,0.002678,0.000431,0.057354
15208000,0.0324,0.013523,0.002678,0.000431,0.012223
15209000,0.0324,0.013523,0.002678,0.000431,0.004584
15210000,0.0324,0.013523,0.002678,0.000431,0.004584
15211000,0.0324,0.013523,0.002678,0.000431,0.004701
15212000,0.0324,0.013523,0.002678,0.000431,0.057354
15213000,0.0324,0.013523,0.002678,0.000431,0.004701
15214000,0.0324,0.013523,0.002678,0.000431,0.004701
15215000,0.0324,0.013523,0.002678,0.000431,0.004701
15216000,0.0324,0.013523,0.002678,0.000431,0.004701
15217000,0.0324,0.013523,0.002678,0.000431,0.004701
15218000,0.0324,0.013523,0.002678,0.000431,0.004701
15219000,0.0324,0.013523,0.002678,0.000431,0.052770
15220000,0.0324,0.013523,0.002678,0.000431,0.045836
15221000,0.0324,0.013523,0.002678,0.000431,0.021038
15222000,0.0324,0.013523,0.002678,0.000431,0.004701
15223000,0.0324,0.013523,0.002678,0.000431,0.004701
15224000,0.0324,0.013523,0.002678,0.000431,0.004701
15225000,0.0324,0.013523,0.002678,0.000431,0.004936
15226000,0.0324,0.013523,0.002678,0.000431,0.058529
15227000,0.0324,0.013523,0.002678,0.000431,0.050772
15228000,0.0324,0.013523,0.002678,0.000431,0.078274
15229000,0.0324,0.013523,0.002678,0.000431,0.004701
15230000,0.0324,0.013523,0.002678,0.000431,0.004701
15231000,0.0324,0.013523,0.002678,0.000431,0.004701
15232000,0.0324,0.013523,0.002678,0.000431,0.037962
15233000,0.0324,0.013523,0.002678,0.000431,0.081447
15234000,0.0324,0.013523,0.002678,0.000431,0.015514
15235000,0.0324,0.013523,0.002678,0.000431,0.004701
15236000,0.0324,0.013523,0.002678,0.000431,0.004701
15237000,0.0324,0.013523,0.002678,0.000431,0.004701
15238000,0.0324,0.013523,0.002678,0.000431,0.004701
15239000,0.0324,0.013523,0.002678,0.000431,0.027502
15240000,0.0324,0.013523,0.002678,0.000431,0.152552
15241000,0.0324,0.013523,0.002678,0.000431,0.006699
15242000,0.0324,0.013523,0.002678,0.000431,0.004584
15243000,0.0324,0.013523,0.002678,0.000431,0.004701
15244000,0.0324,0.013523,0.002678,0.000431,0.004701
15245000,0.0324,0.013523,0.002678,0.000431,0.023506
15246000,0.0324,0.013523,0.002678,0.000431,0.025034
15247000,0.0324,0.013523,0.002678,0.000431,0.086148
15248000,0.0324,0.013523,0.002678,0.000431,0.004701
15249000,0.0324,0.013523,0.002678,0.000431,0.004349
15250000,0.0324,0.013523,0.002678,0.000431,0.004349
15251000,0.0324,0.013523,0.002678,0.000431,0.004701
15252000,0.0324,0.013523,0.002678,0.000431,0.079919
15253000,0.0324,0.013523,0.002678,0.000431,0.057354
15254000,0.0324,0.013523,0.002678,0.000431,0.004701
15255000,0.0324,0.013523,0.002678,0.000431,0.004701
15256000,0.0324,0.013523,0.002678,0.000431,0.004701
15257000,0.0324,0.013523,0.002678,0.000431,0.012223
15258000,0.0324,0.013523,0.002678,0.000431,0.031733
15259000,0.0324,0.013523,0.002678,0.000431,0.041958
15260000,0.0324,0.013523,0.002678,0.000431,0.023388
15261000,0.0324,0.013523,0.002678,0.000431,0.004701
15262000,0.0324,0.013523,0.002678,0.000431,0.004701
15263000,0.0324,0.013523,0.002678,0.000431,0.004701
15264000,0.0324,0.013523,0.002678,0.000431,0.016571
15265000,0.0324,0.013523,0.002678,0.000431,0.147028
15266000,0.0324,0.013523,0.002678,0.000431,0.008227
15267000,0.0324,0.013523,0.002678,0.000431,0.004701
15268000,0.0324,0.013523,0.002678,0.000431,0.004701
15269000,0.0324,0.013523,0.002678,0.000431,0.004701
15270000,0.0324,0.013523,0.002678,0.000431,0.011988
15271000,0.0324,0.013523,0.002678,0.000431,0.019745
15272000,0.0324,0.013523,0.002678,0.000431,0.019745
15273000,0.0324,0.013523,0.002678,0.000431,0.004701
15274000,0.0324,0.013523,0.002678,0.000431,0.004701
15275000,0.0324,0.013523,0.002678,0.000431,0.004701
15276000,0.0324,0.013523,0.002678,0.000431,0.008462
15277000,0.0324,0.013523,0.002678,0.000431,0.042075
15278000,0.0324,0.013523,0.002678,0.000431,0.144090
15279000,0.0324,0.013523,0.002678,0.000431,0.004701
15280000,0.0324,0.013523,0.002678,0.000431,0.004701
15281000,0.0324,0.013523,0.002678,0.000431,0.012223
15282000,0.0324,0.013523,0.002678,0.000431,0.102720
15283000,0.0324,0.013523,0.002678,0.000431,0.012223
15284000,0.0324,0.013523,0.002678,0.000431,0.012223
15285000,0.0324,0.013523,0.002678,0.000431,0.019745
15286000,0.0324,0.013523,0.002678,0.000431,0.008462
15287000,0.0324,0.013523,0.002678,0.000431,0.046071
15288000,0.0324,0.013523,0.002678,0.000431,0.004701
15289000,0.0324,0.013523,0.002678,0.000431,0.004701
15290000,0.0324,0.013523,0.002678,0.000431,0.004466
15291000,0.0324,0.013523,0.002678,0.000431,0.035023
15292000,0.0324,0.013523,0.002678,0.000431,0.031262
15293000,0.0324,0.013523,0.002678,0.000431,0.038549
15294000,0.0324,0.013523,0.002678,0.000431,0.004701
15295000,0.0324,0.013523,0.002678,0.000431,0.019745
15296000,0.0324,0.013523,0.002678,0.000431,0.004701
15297000,0.0324,0.013523,0.002678,0.000431,0.004701
15298000,0.0324,0.013523,0.002678,0.000431,0.004701
15299000,0.0324,0.013523,0.002678,0.000431,0.055473
15300000,0.0324,0.013523,0.002678,0.000431,0.028912
15301000,0.0324,0.013523,0.002678,0.000431,0.004701
15302000,0.0324,0.013523,0.002678,0.000431,0.053828
15303000,0.0324,0.013523,0.002678,0.000431,0.008462
15304000,0.0324,0.013523,0.002678,0.000431,0.004701
15305000,0.0324,0.013523,0.002678,0.000431,0.004701
15306000,0.0324,0.013523,0.002678,0.000431,0.049832
15307000,0.0324,0.013523,0.002678,0.000431,0.004701
15308000,0.0324,0.013523,0.002678,0.000431,0.128576
15309000,0.0324,0.013523,0.002678,0.000431,0.106128
15310000,0.0324,0.013523,0.002678,0.000431,0.004819
15311000,0.0324,0.013523,0.002678,0.000431,0.004701
15312000,0.0324,0.013523,0.002678,0.000431,0.004701
15313000,0.0324,0.013523,0.002678,0.000431,0.004701
15314000,0.0324,0.013523,0.002678,0.000431,0.040430
15315000,0.0324,0.013523,0.002678,0.000431,0.081682
15316000,0.0324,0.013523,0.002678,0.000431,0.064993
15317000,0.0324,0.013523,0.002678,0.000431,0.004701
15318000,0.0324,0.013523,0.002678,0.000431,0.087676
15319000,0.0324,0.013523,0.002678,0.000431,0.034788
15320000,0.0324,0.013523,0.002678,0.000431,0.004701
15321000,0.0324,0.013523,0.002678,0.000431,0.034788
15322000,0.0324,0.013523,0.002678,0.000431,0.004466
15323000,0.0324,0.013523,0.002678,0.000431,0.004701
15324000,0.0324,0.013523,0.002678,0.000431,0.004701
15325000,0.0324,0.013523,0.002678,0.000431,0.074395
15326000,0.0324,0.013523,0.002678,0.000431,0.025974
15327000,0.0324,0.013523,0.002678,0.000431,0.004701
15328000,0.0324,0.013523,0.002678,0.000431,0.019745
15329000,0.0324,0.013523,0.002678,0.000431,0.004701
15330000,0.0324,0.013523,0.002678,0.000431,0.012223
15331000,0.0324,0.013523,0.002678,0.000431,0.023506
15332000,0.0324,0.013523,0.002678,0.000431,0.038549
15333000,0.0324,0.013523,0.002678,0.000431,0.004701
15334000,0.0324,0.013523,0.002678,0.000431,0.004701
15335000,0.0324,0.013523,0.002678,0.000431,0.034553
15336000,0.0324,0.013523,0.002678,0.000431,0.004701
15337000,0.0324,0.013523,0.002678,0.000431,0.004701
15338000,0.0324,0.013523,0.002678,0.000431,0.031498
15339000,0.0324,0.013523,0.002678,0.000431,0.022918
15340000,0.0324,0.013523,0.002678,0.000431,0.063818
15341000,0.0324,0.013523,0.002678,0.000431,0.020685
15342000,0.0324,0.013523,0.002678,0.000431,0.004701
15343000,0.0324,0.013523,0.002678,0.000431,0.012223
15344000,0.0324,0.013523,0.002678,0.000431,0.017982
15345000,0.0324,0.013523,0.002678,0.000431,0.006464
15346000,0.0324,0.013523,0.002678,0.000431,0.004701
15347000,0.0324,0.013523,0.002678,0.000431,0.004936
15348000,0.0324,0.013523,0.002678,0.000431,0.004701
15349000,0.0324,0.013523,0.002678,0.000431,0.064876
15350000,0.0324,0.013523,0.002678,0.000431,0.019745
15351000,0.0324,0.013523,0.002678,0.000431,0.004701
15352000,0.0324,0.013523,0.002678,0.000431,0.004701
15353000,0.0324,0.013523,0.002678,0.000431,0.057354
15354000,0.0324,0.013523,0.002678,0.000431,0.012223
15355000,0.0324,0.013523,0.002678,0.000431,0.004584
15356000,0.0324,0.013523,0.002678,0.000431,0.004584
15357000,0.0324,0.013523,0.002678,0.000431,0.004701
15358000,0.0324,0.013523,0.002678,0.000431,0.004701
15359000,0.0324,0.013523,0.002678,0.000431,0.004701
15360000,0.0324,0.013523,0.002678,0.000431,0.064876
15361000,0.0324,0.013523,0.002678,0.000431,0.004701
15362000,0.0324,0.013523,0.002678,0.000431,0.057119
15363000,0.0324,0.013523,0.002678,0.000431,0.019745
15364000,0.0324,0.013523,0.002678,0.000431,0.004701
15365000,0.0324,0.013523,0.002678,0.000431,0.004701
15366000,0.0324,0.013523,0.002678,0.000431,0.004701
15367000,0.0324,0.013523,0.002678,0.000431,0.004701
15368000,0.0324,0.013523,0.002678,0.000431,0.022918
15369000,0.0324,0.013523,0.002678,0.000431,0.095550
15370000,0.0324,0.013523,0.002678,0.000431,0.008462
15371000,0.0324,0.013523,0.002678,0.000431,0.004701
15372000,0.0324,0.013523,0.002678,0.000431,0.004701
15373000,0.0324,0.013523,0.002678,0.000431,0.012223
15374000,0.0324,0.013523,0.002678,0.000431,0.004701
15375000,0.0324,0.013523,0.002678,0.000431,0.023388
15376000,0.0324,0.013523,0.002678,0.000431,0.083563
15377000,0.0324,0.013523,0.002678,0.000431,0.004701
15378000,0.0324,0.013523,0.002678,0.000431,0.004701
15379000,0.0324,0.013523,0.002678,0.000431,0.004701
15380000,0.0324,0.013523,0.002678,0.000431,0.004466
15381000,0.0324,0.013523,0.002678,0.000431,0.019745
15382000,0.0324,0.013523,0.002678,0.000431,0.019745
15383000,0.0324,0.013523,0.002678,0.000431,0.004701
15384000,0.0324,0.013523,0.002678,0.000431,0.004701
15385000,0.0324,0.013523,0.002678,0.000431,0.012223
15386000,0.0324,0.013523,0.002678,0.000431,0.004701
15387000,0.0324,0.013523,0.002678,0.000431,0.004701
15388000,0.0324,0.013523,0.002678,0.000431,0.042310
15389000,0.0324,0.013523,0.002678,0.000431,0.042545
15390000,0.0324,0.013523,0.002678,0.000431,0.004701
15391000,0.0324,0.013523,0.002678,0.000431,0.004701
15392000,0.0324,0.013523,0.002678,0.000431,0.004701
15393000,0.0324,0.013523,0.002678,0.000431,0.004701
15394000,0.0324,0.013523,0.002678,0.000431,0.038314
15395000,0.0324,0.013523,0.002678,0.000431,0.038667
15396000,0.0324,0.013523,0.002678,0.000431,0.012105
15397000,0.0324,0.013523,0.002678,0.000431,0.004701
15398000,0.0324,0.013523,0.002678,0.000431,0.049597
15399000,0.0324,0.013523,0.002678,0.000431,0.027502
15400000,0.0324,0.013523,0.002678,0.000431,0.004466
15401000,0.0324,0.013523,0.002678,0.000431,0.072280
15402000,0.0324,0.013523,0.002678,0.000431,0.094845
15403000,0.0324,0.013523,0.002678,0.000431,0.004701
15404000,0.0324,0.013523,0.002678,0.000431,0.004701
15405000,0.0324,0.013523,0.002678,0.000431,0.004701
15406000,0.0324,0.013523,0.002678,0.000431,0.004701
15407000,0.0324,0.013523,0.002678,0.000431,0.012223
15408000,0.0324,0.013523,0.002678,0.000431,0.019745
15409000,0.0324,0.013523,0.002678,0.000431,0.019510
15410000,0.0324,0.013523,0.002678,0.000431,0.004701
15411000,0.0324,0.013523,0.002678,0.000431,0.065816
15412000,0.0324,0.013523,0.002678,0.000431,0.019040
15413000,0.0324,0.013523,0.002678,0.000431,0.004701
15414000,0.0324,0.013523,0.002678,0.000431,0.012223
15415000,0.0324,0.013523,0.002678,0.000431,0.092260
15416000,0.0324,0.013523,0.002678,0.000431,0.045248
15417000,0.0324,0.013523,0.002678,0.000431,0.004701
15418000,0.0324,0.013523,0.002678,0.000431,0.004701
15419000,0.0324,0.013523,0.002678,0.000431,0.019980
15420000,0.0324,0.013523,0.002678,0.000431,0.093670
15421000,0.0324,0.013523,0.002678,0.000431,0.042898
15422000,0.0324,0.013523,0.002678,0.000431,0.004701
15423000,0.0324,0.013523,0.002678,0.000431,0.004701
15424000,0.0324,0.013523,0.002678,0.000431,0.004701
15425000,0.0324,0.013523,0.002678,0.000431,0.004701
15426000,0.0324,0.013523,0.002678,0.000431,0.012458
15427000,0.0324,0.013523,0.002678,0.000431,0.057354
15428000,0.0324,0.013523,0.002678,0.000431,0.004701
15429000,0.0324,0.013523,0.002678,0.000431,0.004701
15430000,0.0324,0.013523,0.002678,0.000431,0.004701
15431000,0.0324,0.013523,0.002678,0.000431,0.004701
15432000,0.0324,0.013523,0.002678,0.000431,0.019745
15433000,0.0324,0.013523,0.002678,0.000431,0.034788
15434000,0.0324,0.013523,0.002678,0.000431,0.027267
15435000,0.0324,0.013523,0.002678,0.000431,0.019745
15436000,0.0324,0.013523,0.002678,0.000431,0.004701
15437000,0.0324,0.013523,0.002678,0.000431,0.004701
15438000,0.0324,0.013523,0.002678,0.000431,0.006464
15439000,0.0324,0.013523,0.002678,0.000431,0.010460
15440000,0.0324,0.013523,0.002678,0.000431,0.089439
15441000,0.0324,0.013523,0.002678,0.000431,0.032555
15442000,0.0324,0.013523,0.002678,0.000431,0.067109
15443000,0.0324,0.013523,0.002678,0.000431,0.009755
15444000,0.0324,0.013523,0.002678,0.000431,0.004701
15445000,0.0324,0.013523,0.002678,0.000431,0.012458
15446000,0.0324,0.013523,0.002678,0.000431,0.038784
15447000,0.0324,0.013523,0.002678,0.000431,0.229885
15448000,0.0324,0.013523,0.002678,0.000431,0.027031
15449000,0.0324,0.013523,0.002678,0.000431,0.008462
15450000,0.0324,0.013523,0.002678,0.000431,0.004701
15451000,0.0324,0.013523,0.002678,0.000431,0.004701
15452000,0.0324,0.013523,0.002678,0.000431,0.004701
15453000,0.0324,0.013523,0.002678,0.000431,0.042310
15454000,0.0324,0.013523,0.002678,0.000431,0.042310
15455000,0.0324,0.013523,0.002678,0.000431,0.012458
15456000,0.0324,0.013523,0.002678,0.000431,0.004701
15457000,0.0324,0.013523,0.002678,0.000431,0.004701
15458000,0.0324,0.013523,0.002678,0.000431,0.027031
15459000,0.0324,0.013523,0.002678,0.000431,0.012340
15460000,0.0324,0.013523,0.002678,0.000431,0.034788
15461000,0.0324,0.013523,0.002678,0.000431,0.008345
15462000,0.0324,0.013523,0.002678,0.000431,0.008462
15463000,0.0324,0.013523,0.002678,0.000431,0.004701
15464000,0.0324,0.013523,0.002678,0.000431,0.012223
15465000,0.0324,0.013523,0.002678,0.000431,0.004701
15466000,0.0324,0.013523,0.002678,0.000431,0.004701
15467000,0.0324,0.013523,0.002678,0.000431,0.012223
15468000,0.0324,0.013523,0.002678,0.000431,0.012223
15469000,0.0324,0.013523,0.002678,0.000431,0.004701
15470000,0.0324,0.013523,0.002678,0.000431,0.004701
15471000,0.0324,0.013523,0.002678,0.000431,0.004701
15472000,0.0324,0.013523,0.002678,0.000431,0.004701
15473000,0.0324,0.013523,0.002678,0.000431,0.012223
15474000,0.0324,0.013523,0.002678,0.000431,0.019745
15475000,0.0324,0.013523,0.002678,0.000431,0.004701
15476000,0.0324,0.013523,0.002678,0.000431,0.004701
15477000,0.0324,0.013523,0.002678,0.000431,0.019745
15478000,0.0324,0.013523,0.002678,0.000431,0.004701
15479000,0.0324,0.013523,0.002678,0.000431,0.004701
15480000,0.0324,0.013523,0.002678,0.000431,0.004701
15481000,0.0324,0.013523,0.002678,0.000431,0.064876
15482000,0.0324,0.013523,0.002678,0.000431,0.004466
15483000,0.0324,0.013523,0.002678,0.000431,0.004701
15484000,0.0324,0.013523,0.002678,0.000431,0.012223
15485000,0.0324,0.013523,0.002678,0.000431,0.004466
15486000,0.0324,0.013523,0.002678,0.000431,0.012223
15487000,0.0324,0.013523,0.002678,0.000431,0.020215
15488000,0.0324,0.013523,0.002678,0.000431,0.019275
15489000,0.0324,0.013523,0.002678,0.000431,0.004701
15490000,0.0324,0.013523,0.002678,0.000431,0.012223
15491000,0.0324,0.013523,0.002678,0.000431,0.004701
15492000,0.0324,0.013523,0.002678,0.000431,0.015984
15493000,0.0324,0.013523,0.002678,0.000431,0.008462
15494000,0.0324,0.013523,0.002678,0.000431,0.057354
15495000,0.0324,0.013523,0.002678,0.000431,0.004701
15496000,0.0324,0.013523,0.002678,0.000431,0.015984
15497000,0.0324,0.013523,0.002678,0.000431,0.015984
15498000,0.0324,0.013523,0.002678,0.000431,0.004701
15499000,0.0324,0.013523,0.002678,0.000431,0.027267
15500000,0.0324,0.013523,0.002678,0.000431,0.031850
15501000,0.0324,0.013523,0.002678,0.000431,0.060057
15502000,0.0324,0.013523,0.002678,0.000431,0.004701
15503000,0.0324,0.013523,0.002678,0.000431,0.019745
15504000,0.0324,0.013523,0.002678,0.000431,0.004701
15505000,0.0324,0.013523,0.002678,0.000431,0.012223
15506000,0.0324,0.013523,0.002678,0.000431,0.022918
15507000,0.0324,0.013523,0.002678,0.000431,0.061702
15508000,0.0324,0.013523,0.002678,0.000431,0.004701
15509000,0.0324,0.013523,0.002678,0.000431,0.008227
15510000,0.0324,0.013523,0.002678,0.000431,0.008697
15511000,0.0324,0.013523,0.002678,0.000431,0.004701
15512000,0.0324,0.013523,0.002678,0.000431,0.034788
15513000,0.0324,0.013523,0.002678,0.000431,0.064758
15514000,0.0324,0.013523,0.002678,0.000431,0.012340
15515000,0.0324,0.013523,0.002678,0.000431,0.004701
15516000,0.0324,0.013523,0.002678,0.000431,0.147380
15517000,0.0324,0.013523,0.002678,0.000431,0.004701
15518000,0.0324,0.013523,0.002678,0.000431,0.012223
15519000,0.0324,0.013523,0.002678,0.000431,0.004701
15520000,0.0324,0.013523,0.002678,0.000431,0.019745
15521000,0.0324,0.013523,0.002678,0.000431,0.004701
15522000,0.0324,0.013523,0.002678,0.000431,0.027031
15523000,0.0324,0.013523,0.002678,0.000431,0.004701
15524000,0.0324,0.013523,0.002678,0.000431,0.014221
15525000,0.0324,0.013523,0.002678,0.000431,0.047599
15526000,0.0324,0.013523,0.002678,0.000431,0.027267
15527000,0.0324,0.013523,0.002678,0.000431,0.004701
15528000,0.0324,0.013523,0.002678,0.000431,0.004701
15529000,0.0324,0.013523,0.002678,0.000431,0.004701
15530000,0.0324,0.013523,0.002678,0.000431,0.012223
15531000,0.0324,0.013523,0.002678,0.000431,0.012223
15532000,0.0324,0.013523,0.002678,0.000431,0.004701
15533000,0.0324,0.013523,0.002678,0.000431,0.065346
15534000,0.0324,0.013523,0.002678,0.000431,0.004701
15535000,0.0324,0.013523,0.002678,0.000431,0.004466
15536000,0.0324,0.013523,0.002678,0.000431,0.004701
15537000,0.0324,0.013523,0.002678,0.000431,0.030440
15538000,0.0324,0.013523,0.002678,0.000431,0.098841
15539000,0.0324,0.013523,0.002678,0.000431,0.019980
15540000,0.0324,0.013523,0.002678,0.000431,0.004701
15541000,0.0324,0.013523,0.002678,0.000431,0.004701
15542000,0.0324,0.013523,0.002678,0.000431,0.049832
15543000,0.0324,0.013523,0.002678,0.000431,0.073808
15544000,0.0324,0.013523,0.002678,0.000431,0.055708
15545000,0.0324,0.013523,0.002678,0.000431,0.027619
15546000,0.0324,0.013523,0.002678,0.000431,0.005876
15547000,0.0324,0.013523,0.002678,0.000431,0.005876
15548000,0.0324,0.013523,0.002678,0.000431,0.017159
15549000,0.0324,0.013523,0.002678,0.000431,0.017159
15550000,0.0324,0.013523,0.002678,0.000431,0.032203
15551000,0.0324,0.013523,0.002678,0.000431,0.013868
15552000,0.0324,0.013523,0.002678,0.000431,0.082857
15553000,0.0324,0.013523,0.002678,0.000431,0.004701
15554000,0.0324,0.013523,0.002678,0.000431,0.004701
15555000,0.0324,0.013523,0.002678,0.000431,0.019980
15556000,0.0324,0.013523,0.002678,0.000431,0.004701
15557000,0.0324,0.013523,0.002678,0.000431,0.019745
15558000,0.0324,0.013523,0.002678,0.000431,0.004701
15559000,0.0324,0.013523,0.002678,0.000431,0.004701
15560000,0.0324,0.013523,0.002678,0.000431,0.004701
15561000,0.0324,0.013523,0.002678,0.000431,0.004701
15562000,0.0324,0.013523,0.002678,0.000431,0.004701
15563000,0.0324,0.013523,0.002678,0.000431,0.042545
15564000,0.0324,0.013523,0.002678,0.000431,0.012223
15565000,0.0324,0.013523,0.002678,0.000431,0.012223
15566000,0.0324,0.013523,0.002678,0.000431,0.012223
15567000,0.0324,0.013523,0.002678,0.000431,0.012928
15568000,0.0324,0.013523,0.002678,0.000431,0.019275
15569000,0.0324,0.013523,0.002678,0.000431,0.006347
15570000,0.0324,0.013523,0.002678,0.000431,0.070517
15571000,0.0324,0.013523,0.002678,0.000431,0.012223
15572000,0.0324,0.013523,0.002678,0.000431,0.004701
15573000,0.0324,0.013523,0.002678,0.000431,0.004701
15574000,0.0324,0.013523,0.002678,0.000431,0.087441
15575000,0.0324,0.013523,0.002678,0.000431,0.004466
15576000,0.0324,0.013523,0.002678,0.000431,0.004701
15577000,0.0324,0.013523,0.002678,0.000431,0.004701
15578000,0.0324,0.013523,0.002678,0.000431,0.004584
15579000,0.0324,0.013523,0.002678,0.000431,0.004584
15580000,0.0324,0.013523,0.002678,0.000431,0.016807
15581000,0.0324,0.013523,0.002678,0.000431,0.030205
15582000,0.0324,0.013523,0.002678,0.000431,0.004701
15583000,0.0324,0.013523,0.002678,0.000431,0.004701
15584000,0.0324,0.013523,0.002678,0.000431,0.042310
15585000,0.0324,0.013523,0.002678,0.000431,0.004701
15586000,0.0324,0.013523,0.002678,0.000431,0.011988
15587000,0.0324,0.013523,0.002678,0.000431,0.004701
15588000,0.0324,0.013523,0.002678,0.000431,0.004701
15589000,0.0324,0.013523,0.002678,0.000431,0.004701
15590000,0.0324,0.013523,0.002678,0.000431,0.035023
15591000,0.0324,0.013523,0.002678,0.000431,0.004701
15592000,0.0324,0.013523,0.002678,0.000431,0.004701
15593000,0.0324,0.013523,0.002678,0.000431,0.004584
15594000,0.0324,0.013523,0.002678,0.000431,0.004584
15595000,0.0324,0.013523,0.002678,0.000431,0.008462
15596000,0.0324,0.013523,0.002678,0.000431,0.023506
15597000,0.0324,0.013523,0.002678,0.000431,0.004701
15598000,0.0324,0.013523,0.002678,0.000431,0.004701
15599000,0.0324,0.013523,0.002678,0.000431,0.004701
15600000,0.0324,0.013523,0.002678,0.000431,0.034788
15601000,0.0324,0.013523,0.002678,0.000431,0.004701
15602000,0.0324,0.013523,0.002678,0.000431,0.012223
15603000,0.0324,0.013523,0.002678,0.000431,0.012223
15604000,0.0324,0.013523,0.002678,0.000431,0.004701
15605000,0.0324,0.013523,0.002678,0.000431,0.015984
15606000,0.0324,0.013523,0.002678,0.000431,0.015984
15607000,0.0324,0.013523,0.002678,0.000431,0.004701
15608000,0.0324,0.013523,0.002678,0.000431,0.004701
15609000,0.0324,0.013523,0.002678,0.000431,0.014456
15610000,0.0324,0.013523,0.002678,0.000431,0.017512
15611000,0.0324,0.013523,0.002678,0.000431,0.004701
15612000,0.0324,0.013523,0.002678,0.000431,0.020567
15613000,0.0324,0.013523,0.002678,0.000431,0.005876
15614000,0.0324,0.013523,0.002678,0.000431,0.028442
15615000,0.0324,0.013523,0.002678,0.000431,0.012693
15616000,0.0324,0.013523,0.002678,0.000431,0.005876
15617000,0.0324,0.013523,0.002678,0.000431,0.005876
15618000,0.0324,0.013523,0.002678,0.000431,0.013281
15619000,0.0324,0.013523,0.002678,0.000431,0.034788
15620000,0.0324,0.013523,0.002678,0.000431,0.004701
15621000,0.0324,0.013523,0.002678,0.000431,0.012223
15622000,0.0324,0.013523,0.002678,0.000431,0.004701
15623000,0.0324,0.013523,0.002678,0.000431,0.012223
15624000,0.0324,0.013523,0.002678,0.000431,0.004701
15625000,0.0324,0.013523,0.002678,0.000431,0.004701
15626000,0.0324,0.013523,0.002678,0.000431,0.004584
15627000,0.0324,0.013523,0.002678,0.000431,0.007992
15628000,0.0324,0.013523,0.002678,0.000431,0.016336
15629000,0.0324,0.013523,0.002678,0.000431,0.034788
15630000,0.0324,0.013523,0.002678,0.000431,0.004701
15631000,0.0324,0.013523,0.002678,0.000431,0.004701
15632000,0.0324,0.013523,0.002678,0.000431,0.027267
15633000,0.0324,0.013523,0.002678,0.000431,0.004701
15634000,0.0324,0.013523,0.002678,0.000431,0.011988
15635000,0.0324,0.013523,0.002678,0.000431,0.004701
15636000,0.0324,0.013523,0.002678,0.000431,0.004701
15637000,0.0324,0.013523,0.002678,0.000431,0.004701
15638000,0.0324,0.013523,0.002678,0.000431,0.045718
15639000,0.0324,0.013523,0.002678,0.000431,0.038667
15640000,0.0324,0.013523,0.002678,0.000431,0.008462
15641000,0.0324,0.013523,0.002678,0.000431,0.023506
15642000,0.0324,0.013523,0.002678,0.000431,0.012223
15643000,0.0324,0.013523,0.002678,0.000431,0.004701
15644000,0.0324,0.013523,0.002678,0.000431,0.049832
15645000,0.0324,0.013523,0.002678,0.000431,0.004701
15646000,0.0324,0.013523,0.002678,0.000431,0.004701
15647000,0.0324,0.013523,0.002678,0.000431,0.027267
15648000,0.0324,0.013523,0.002678,0.000431,0.004701
15649000,0.0324,0.013523,0.002678,0.000431,0.004701
15650000,0.0324,0.013523,0.002678,0.000431,0.008815
15651000,0.0324,0.013523,0.002678,0.000431,0.009402
15652000,0.0324,0.013523,0.002678,0.000431,0.005641
15653000,0.0324,0.013523,0.002678,0.000431,0.005876
15654000,0.0324,0.013523,0.002678,0.000431,0.052653
15655000,0.0324,0.013523,0.002678,0.000431,0.011988
15656000,0.0324,0.013523,0.002678,0.000431,0.005876
15657000,0.0324,0.013523,0.002678,0.000431,0.005289
15658000,0.0324,0.013523,0.002678,0.000431,0.004701
15659000,0.0324,0.013523,0.002678,0.000431,0.004701
15660000,0.0324,0.013523,0.002678,0.000431,0.004701
15661000,0.0324,0.013523,0.002678,0.000431,0.004701
15662000,0.0324,0.013523,0.002678,0.000431,0.004701
15663000,0.0324,0.013523,0.002678,0.000431,0.004701
15664000,0.0324,0.013523,0.002678,0.000431,0.004701
15665000,0.0324,0.013523,0.002678,0.000431,0.004701
15666000,0.0324,0.013523,0.002678,0.000431,0.008345
15667000,0.0324,0.013523,0.002678,0.000431,0.015866
15668000,0.0324,0.013523,0.002678,0.000431,0.012223
15669000,0.0324,0.013523,0.002678,0.000431,0.004701
15670000,0.0324,0.013523,0.002678,0.000431,0.012223
15671000,0.0324,0.013523,0.002678,0.000431,0.004701
15672000,0.0324,0.013523,0.002678,0.000431,0.004701
15673000,0.0324,0.013523,0.002678,0.000431,0.004701
15674000,0.0324,0.013523,0.002678,0.000431,0.056884
15675000,0.0324,0.013523,0.002678,0.000431,0.004701
15676000,0.0324,0.013523,0.002678,0.000431,0.004701
15677000,0.0324,0.013523,0.002678,0.000431,0.004701
15678000,0.0324,0.013523,0.002678,0.000431,0.004701
15679000,0.0324,0.013523,0.002678,0.000431,0.004701
15680000,0.0324,0.013523,0.002678,0.000431,0.027737
15681000,0.0324,0.013523,0.002678,0.000431,0.004701
15682000,0.0324,0.013523,0.002678,0.000431,0.004701
15683000,0.0324,0.013523,0.002678,0.000431,0.004701
15684000,0.0324,0.013523,0.002678,0.000431,0.004701
15685000,0.0324,0.013523,0.002678,0.000431,0.004701
15686000,0.0324,0.013523,0.002678,0.000431,0.004466
15687000,0.0324,0.013523,0.002678,0.000431,0.012223
15688000,0.0324,0.013523,0.002678,0.000431,0.004701
15689000,0.0324,0.013523,0.002678,0.000431,0.027267
15690000,0.0324,0.013523,0.002678,0.000431,0.004701
15691000,0.0324,0.013523,0.002678,0.000431,0.004701
15692000,0.0324,0.013523,0.002678,0.000431,0.004701
15693000,0.0324,0.013523,0.002678,0.000431,0.072750
15694000,0.0324,0.013523,0.002678,0.000431,0.005876
15695000,0.0324,0.013523,0.002678,0.000431,0.005876
15696000,0.0324,0.013523,0.002678,0.000431,0.011635
15697000,0.0324,0.013523,0.002678,0.000431,0.017864
15698000,0.0324,0.013523,0.002678,0.000431,0.004701
15699000,0.0324,0.013523,0.002678,0.000431,0.008932
15700000,0.0324,0.013523,0.002678,0.000431,0.015279
15701000,0.0324,0.013523,0.002678,0.000431,0.019510
15702000,0.0324,0.013523,0.002678,0.000431,0.027267
15703000,0.0324,0.013523,0.002678,0.000431,0.012223
15704000,0.0324,0.013523,0.002678,0.000431,0.004701
15705000,0.0324,0.013523,0.002678,0.000431,0.004701
15706000,0.0324,0.013523,0.002678,0.000431,0.019745
15707000,0.0324,0.013523,0.002678,0.000431,0.004701
15708000,0.0324,0.013523,0.002678,0.000431,0.004701
15709000,0.0324,0.013523,0.002678,0.000431,0.019745
15710000,0.0324,0.013523,0.002678,0.000431,0.005054
15711000,0.0324,0.013523,0.002678,0.000431,0.005876
15712000,0.0324,0.013523,0.002678,0.000431,0.050890
15713000,0.0324,0.013523,0.002678,0.000431,0.079684
15714000,0.0324,0.013523,0.002678,0.000431,0.004701
15715000,0.0324,0.013523,0.002678,0.000431,0.004701
15716000,0.0324,0.013523,0.002678,0.000431,0.064876
15717000,0.0324,0.013523,0.002678,0.000431,0.004701
15718000,0.0324,0.013523,0.002678,0.000431,0.004701
15719000,0.0324,0.013523,0.002678,0.000431,0.079919
15720000,0.0324,0.013523,0.002678,0.000431,0.004701
15721000,0.0324,0.013523,0.002678,0.000431,0.004701
15722000,0.0324,0.013523,0.002678,0.000431,0.004701
15723000,0.0324,0.013523,0.002678,0.000431,0.004701
15724000,0.0324,0.013523,0.002678,0.000431,0.004701
15725000,0.0324,0.013523,0.002678,0.000431,0.046659
15726000,0.0324,0.013523,0.002678,0.000431,0.135980
15727000,0.0324,0.013523,0.002678,0.000431,0.004701
15728000,0.0324,0.013523,0.002678,0.000431,0.004701
15729000,0.0324,0.013523,0.002678,0.000431,0.004701
15730000,0.0324,0.013523,0.002678,0.000431,0.004701
15731000,0.0324,0.013523,0.002678,0.000431,0.004701
15732000,0.0324,0.013523,0.002678,0.000431,0.012223
15733000,0.0324,0.013523,0.002678,0.000431,0.004701
15734000,0.0324,0.013523,0.002678,0.000431,0.004701
15735000,0.0324,0.013523,0.002678,0.000431,0.004701
15736000,0.0324,0.013523,0.002678,0.000431,0.004701
15737000,0.0324,0.013523,0.002678,0.000431,0.004701
15738000,0.0324,0.013523,0.002678,0.000431,0.008697
15739000,0.0324,0.013523,0.002678,0.000431,0.008345
15740000,0.0324,0.013523,0.002678,0.000431,0.004349
15741000,0.0324,0.013523,0.002678,0.000431,0.004466
15742000,0.0324,0.013523,0.002678,0.000431,0.004701
15743000,0.0324,0.013523,0.002678,0.000431,0.019745
15744000,0.0324,0.013523,0.002678,0.000431,0.004701
15745000,0.0324,0.013523,0.002678,0.000431,0.012223
15746000,0.0324,0.013523,0.002678,0.000431,0.027267
15747000,0.0324,0.013523,0.002678,0.000431,0.004701
15748000,0.0324,0.013523,0.002678,0.000431,0.004701
15749000,0.0324,0.013523,0.002678,0.000431,0.008462
15750000,0.0324,0.013523,0.002678,0.000431,0.008462
15751000,0.0324,0.013523,0.002678,0.000431,0.012223
15752000,0.0324,0.013523,0.002678,0.000431,0.004466
15753000,0.0324,0.013523,0.002678,0.000431,0.004701
15754000,0.0324,0.013523,0.002678,0.000431,0.004701
15755000,0.0324,0.013523,0.002678,0.000431,0.004701
15756000,0.0324,0.013523,0.002678,0.000431,0.026444
15757000,0.0324,0.013523,0.002678,0.000431,0.028324
15758000,0.0324,0.013523,0.002678,0.000431,0.004701
15759000,0.0324,0.013523,0.002678,0.000431,0.004701
15760000,0.0324,0.013523,0.002678,0.000431,0.004701
15761000,0.0324,0.013523,0.002678,0.000431,0.004701
15762000,0.0324,0.013523,0.002678,0.000431,0.004701
15763000,0.0324,0.013523,0.002678,0.000431,0.012223
15764000,0.0324,0.013523,0.002678,0.000431,0.027267
15765000,0.0324,0.013523,0.002678,0.000431,0.004701
15766000,0.0324,0.013523,0.002678,0.000431,0.004701
15767000,0.0324,0.013523,0.002678,0.000431,0.004701
15768000,0.0324,0.013523,0.002678,0.000431,0.004701
15769000,0.0324,0.013523,0.002678,0.000431,0.004701
15770000,0.0324,0.013523,0.002678,0.000431,0.004701
15771000,0.0324,0.013523,0.002678,0.000431,0.009990
15772000,0.0324,0.013523,0.002678,0.000431,0.006934
15773000,0.0324,0.013523,0.002678,0.000431,0.004701
15774000,0.0324,0.013523,0.002678,0.000431,0.004701
15775000,0.0324,0.013523,0.002678,0.000431,0.004701
15776000,0.0324,0.013523,0.002678,0.000431,0.004701
15777000,0.0324,0.013523,0.002678,0.000431,0.005289
15778000,0.0324,0.013523,0.002678,0.000431,0.013398
15779000,0.0324,0.013523,0.002678,0.000431,0.005994
15780000,0.0324,0.013523,0.002678,0.000431,0.008932
15781000,0.0324,0.013523,0.002678,0.000431,0.004466
15782000,0.0324,0.013523,0.002678,0.000431,0.004701
15783000,0.0324,0.013523,0.002678,0.000431,0.004701
15784000,0.0324,0.013523,0.002678,0.000431,0.004701
15785000,0.0324,0.013523,0.002678,0.000431,0.020215
15786000,0.0324,0.013523,0.002678,0.000431,0.005759
15787000,0.0324,0.013523,0.002678,0.000431,0.005876
15788000,0.0324,0.013523,0.002678,0.000431,0.005876
15789000,0.0324,0.013523,0.002678,0.000431,0.005876
15790000,0.0324,0.013523,0.002678,0.000431,0.028442
15791000,0.0324,0.013523,0.002678,0.000431,0.005759
15792000,0.0324,0.013523,0.002678,0.000431,0.004701
15793000,0.0324,0.013523,0.002678,0.000431,0.012223
15794000,0.0324,0.013523,0.002678,0.000431,0.004701
15795000,0.0324,0.013523,0.002678,0.000431,0.004701
15796000,0.0324,0.013523,0.002678,0.000431,0.019745
15797000,0.0324,0.013523,0.002678,0.000431,0.012223
15798000,0.0324,0.013523,0.002678,0.000431,0.004701
15799000,0.0324,0.013523,0.002678,0.000431,0.004701
15800000,0.0324,0.013523,0.002678,0.000431,0.004701
15801000,0.0324,0.013523,0.002678,0.000431,0.004701
15802000,0.0324,0.013523,0.002678,0.000431,0.011400
15803000,0.0324,0.013523,0.002678,0.000431,0.050655
15804000,0.0324,0.013523,0.002678,0.000431,0.004701
15805000,0.0324,0.013523,0.002678,0.000431,0.004819
15806000,0.0324,0.013523,0.002678,0.000431,0.005876
15807000,0.0324,0.013523,0.002678,0.000431,0.005876
15808000,0.0324,0.013523,0.002678,0.000431,0.005994
15809000,0.0324,0.013523,0.002678,0.000431,0.014809
15810000,0.0324,0.013523,0.002678,0.000431,0.014573
15811000,0.0324,0.013523,0.002678,0.000431,0.007052
15812000,0.0324,0.013523,0.002678,0.000431,0.008932
15813000,0.0324,0.013523,0.002678,0.000431,0.004466
15814000,0.0324,0.013523,0.002678,0.000431,0.004349
15815000,0.0324,0.013523,0.002678,0.000431,0.004584
15816000,0.0324,0.013523,0.002678,0.000431,0.004701
15817000,0.0324,0.013523,0.002678,0.000431,0.004701
15818000,0.0324,0.013523,0.002678,0.000431,0.004701
15819000,0.0324,0.013523,0.002678,0.000431,0.019745
15820000,0.0324,0.013523,0.002678,0.000431,0.004466
15821000,0.0324,0.013523,0.002678,0.000431,0.004701
15822000,0.0324,0.013523,0.002678,0.000431,0.027267
15823000,0.0324,0.013523,0.002678,0.000431,0.004701
15824000,0.0324,0.013523,0.002678,0.000431,0.004701
15825000,0.0324,0.013523,0.002678,0.000431,0.019745
15826000,0.0324,0.013523,0.002678,0.000431,0.004701
15827000,0.0324,0.013523,0.002678,0.000431,0.004701
15828000,0.0324,0.013523,0.002678,0.000431,0.004701
15829000,0.0324,0.013523,0.002678,0.000431,0.005054
15830000,0.0324,0.013523,0.002678,0.000431,0.005876
15831000,0.0324,0.013523,0.002678,0.000431,0.011753
15832000,0.0324,0.013523,0.002678,0.000431,0.059939
15833000,0.0324,0.013523,0.002678,0.000431,0.005876
15834000,0.0324,0.013523,0.002678,0.000431,0.005994
15835000,0.0324,0.013523,0.002678,0.000431,0.013633
15836000,0.0324,0.013523,0.002678,0.000431,0.012223
15837000,0.0324,0.013523,0.002678,0.000431,0.004701
15838000,0.0324,0.013523,0.002678,0.000431,0.004701
15839000,0.0324,0.013523,0.002678,0.000431,0.004701
15840000,0.0324,0.013523,0.002678,0.000431,0.004701
15841000,0.0324,0.013523,0.002678,0.000431,0.027267
15842000,0.0324,0.013523,0.002678,0.000431,0.004701
15843000,0.0324,0.013523,0.002678,0.000431,0.004701
15844000,0.0324,0.013523,0.002678,0.000431,0.005289
15845000,0.0324,0.013523,0.002678,0.000431,0.005876
15846000,0.0324,0.013523,0.002678,0.000431,0.005876
15847000,0.0324,0.013523,0.002678,0.000431,0.005759
15848000,0.0324,0.013523,0.002678,0.000431,0.006699
15849000,0.0324,0.013523,0.002678,0.000431,0.014221
15850000,0.0324,0.013523,0.002678,0.000431,0.007052
15851000,0.0324,0.013523,0.002678,0.000431,0.005994
15852000,0.0324,0.013523,0.002678,0.000431,0.023153
15853000,0.0324,0.013523,0.002678,0.000431,0.056531
15854000,0.0324,0.013523,0.002678,0.000431,0.005171
15855000,0.0324,0.013523,0.002678,0.000431,0.004701
15856000,0.0324,0.013523,0.002678,0.000431,0.005876
15857000,0.0324,0.013523,0.002678,0.000431,0.005876
15858000,0.0324,0.013523,0.002678,0.000431,0.005876
15859000,0.0324,0.013523,0.002678,0.000431,0.005876
15860000,0.0324,0.013523,0.002678,0.000431,0.005876
15861000,0.0324,0.013523,0.002678,0.000431,0.028794
15862000,0.0324,0.013523,0.002678,0.000431,0.004701
15863000,0.0324,0.013523,0.002678,0.000431,0.004701
15864000,0.0324,0.013523,0.002678,0.000431,0.004701
15865000,0.0324,0.013523,0.002678,0.000431,0.004701
15866000,0.0324,0.013523,0.002678,0.000431,0.004701
15867000,0.0324,0.013523,0.002678,0.000431,0.004701
15868000,0.0324,0.013523,0.002678,0.000431,0.004701
15869000,0.0324,0.013523,0.002678,0.000431,0.004701
15870000,0.0324,0.013523,0.002678,0.000431,0.011988
15871000,0.0324,0.013523,0.002678,0.000431,0.004701
15872000,0.0324,0.013523,0.002678,0.000431,0.004701
15873000,0.0324,0.013523,0.002678,0.000431,0.017042
15874000,0.0324,0.013523,0.002678,0.000431,0.007992
15875000,0.0324,0.013523,0.002678,0.000431,0.005876
15876000,0.0324,0.013523,0.002678,0.000431,0.013398
15877000,0.0324,0.013523,0.002678,0.000431,0.005876
15878000,0.0324,0.013523,0.002678,0.000431,0.005876
15879000,0.0324,0.013523,0.002678,0.000431,0.005876
15880000,0.0324,0.013523,0.002678,0.000431,0.005759
15881000,0.0324,0.013523,0.002678,0.000431,0.004231
15882000,0.0324,0.013523,0.002678,0.000431,0.004701
15883000,0.0324,0.013523,0.002678,0.000431,0.004701
15884000,0.0324,0.013523,0.002678,0.000431,0.004701
15885000,0.0324,0.013523,0.002678,0.000431,0.004701
15886000,0.0324,0.013523,0.002678,0.000431,0.034788
15887000,0.0324,0.013523,0.002678,0.000431,0.004466
15888000,0.0324,0.013523,0.002678,0.000431,0.004701
15889000,0.0324,0.013523,0.002678,0.000431,0.004701
15890000,0.0324,0.013523,0.002678,0.000431,0.004701
15891000,0.0324,0.013523,0.002678,0.000431,0.004701
15892000,0.0324,0.013523,0.002678,0.000431,0.004701
15893000,0.0324,0.013523,0.002678,0.000431,0.004701
15894000,0.0324,0.013523,0.002678,0.000431,0.004701
15895000,0.0324,0.013523,0.002678,0.000431,0.004701
15896000,0.0324,0.013523,0.002678,0.000431,0.012223
15897000,0.0324,0.013523,0.002678,0.000431,0.004701
15898000,0.0324,0.013523,0.002678,0.000431,0.004701
15899000,0.0324,0.013523,0.002678,0.000431,0.004701
15900000,0.0324,0.013523,0.002678,0.000431,0.004701
15901000,0.0324,0.013523,0.002678,0.000431,0.004701
15902000,0.0324,0.013523,0.002678,0.000431,0.049597
15903000,0.0324,0.013523,0.002678,0.000431,0.004701
15904000,0.0324,0.013523,0.002678,0.000431,0.004701
15905000,0.0324,0.013523,0.002678,0.000431,0.017864
15906000,0.0324,0.013523,0.002678,0.000431,0.006582
15907000,0.0324,0.013523,0.002678,0.000431,0.004701
15908000,0.0324,0.013523,0.002678,0.000431,0.008462
15909000,0.0324,0.013523,0.002678,0.000431,0.008462
15910000,0.0324,0.013523,0.002678,0.000431,0.004466
15911000,0.0324,0.013523,0.002678,0.000431,0.005054
15912000,0.0324,0.013523,0.002678,0.000431,0.028207
15913000,0.0324,0.013523,0.002678,0.000431,0.005876
15914000,0.0324,0.013523,0.002678,0.000431,0.005876
15915000,0.0324,0.013523,0.002678,0.000431,0.044896
15916000,0.0324,0.013523,0.002678,0.000431,0.013516
15917000,0.0324,0.013523,0.002678,0.000431,0.004701
15918000,0.0324,0.013523,0.002678,0.000431,0.008462
15919000,0.0324,0.013523,0.002678,0.000431,0.008462
15920000,0.0324,0.013523,0.002678,0.000431,0.004701
15921000,0.0324,0.013523,0.002678,0.000431,0.023153
15922000,0.0324,0.013523,0.002678,0.000431,0.068754
15923000,0.0324,0.013523,0.002678,0.000431,0.004701
15924000,0.0324,0.013523,0.002678,0.000431,0.004701
15925000,0.0324,0.013523,0.002678,0.000431,0.027267
15926000,0.0324,0.013523,0.002678,0.000431,0.004701
15927000,0.0324,0.013523,0.002678,0.000431,0.004701
15928000,0.0324,0.013523,0.002678,0.000431,0.004701
15929000,0.0324,0.013523,0.002678,0.000431,0.004701
15930000,0.0324,0.013523,0.002678,0.000431,0.004701
15931000,0.0324,0.013523,0.002678,0.000431,0.011988
15932000,0.0324,0.013523,0.002678,0.000431,0.004701
15933000,0.0324,0.013523,0.002678,0.000431,0.004701
15934000,0.0324,0.013523,0.002678,0.000431,0.004701
15935000,0.0324,0.013523,0.002678,0.000431,0.012223
15936000,0.0324,0.013523,0.002678,0.000431,0.004466
15937000,0.0324,0.013523,0.002678,0.000431,0.004701
15938000,0.0324,0.013523,0.002678,0.000431,0.012223
15939000,0.0324,0.013523,0.002678,0.000431,0.004701
15940000,0.0324,0.013523,0.002678,0.000431,0.004701
15941000,0.0324,0.013523,0.002678,0.000431,0.004701
15942000,0.0324,0.013523,0.002678,0.000431,0.004701
15943000,0.0324,0.013523,0.002678,0.000431,0.004701
15944000,0.0324,0.013523,0.002678,0.000431,0.012223
15945000,0.0324,0.013523,0.002678,0.000431,0.004701
15946000,0.0324,0.013523,0.002678,0.000431,0.004701
15947000,0.0324,0.013523,0.002678,0.000431,0.004701
15948000,0.0324,0.013523,0.002678,0.000431,0.004701
15949000,0.0324,0.013523,0.002678,0.000431,0.004701
15950000,0.0324,0.013523,0.002678,0.000431,0.007287
15951000,0.0324,0.013523,0.002678,0.000431,0.040547
15952000,0.0324,0.013523,0.002678,0.000431,0.005876
15953000,0.0324,0.013523,0.002678,0.000431,0.005876
15954000,0.0324,0.013523,0.002678,0.000431,0.043485
15955000,0.0324,0.013523,0.002678,0.000431,0.005876
15956000,0.0324,0.013523,0.002678,0.000431,0.005406
15957000,0.0324,0.013523,0.002678,0.000431,0.050655
15958000,0.0324,0.013523,0.002678,0.000431,0.004701
15959000,0.0324,0.013523,0.002678,0.000431,0.004701
15960000,0.0324,0.013523,0.002678,0.000431,0.018569
15961000,0.0324,0.013523,0.002678,0.000431,0.005641
15962000,0.0324,0.013523,0.002678,0.000431,0.004701
15963000,0.0324,0.013523,0.002678,0.000431,0.004819
15964000,0.0324,0.013523,0.002678,0.000431,0.012340
15965000,0.0324,0.013523,0.002678,0.000431,0.004701
15966000,0.0324,0.013523,0.002678,0.000431,0.004701
15967000,0.0324,0.013523,0.002678,0.000431,0.019745
15968000,0.0324,0.013523,0.002678,0.000431,0.057589
15969000,0.0324,0.013523,0.002678,0.000431,0.004701
15970000,0.0324,0.013523,0.002678,0.000431,0.064876
15971000,0.0324,0.013523,0.002678,0.000431,0.004466
15972000,0.0324,0.013523,0.002678,0.000431,0.004701
15973000,0.0324,0.013523,0.002678,0.000431,0.004701
15974000,0.0324,0.013523,0.002678,0.000431,0.004701
15975000,0.0324,0.013523,0.002678,0.000431,0.004701
15976000,0.0324,0.013523,0.002678,0.000431,0.004701
15977000,0.0324,0.013523,0.002678,0.000431,0.004701
15978000,0.0324,0.013523,0.002678,0.000431,0.004701
15979000,0.0324,0.013523,0.002678,0.000431,0.004819
15980000,0.0324,0.013523,0.002678,0.000431,0.005876
15981000,0.0324,0.013523,0.002678,0.000431,0.005876
15982000,0.0324,0.013523,0.002678,0.000431,0.005876
15983000,0.0324,0.013523,0.002678,0.000431,0.012811
15984000,0.0324,0.013523,0.002678,0.000431,0.004701
15985000,0.0324,0.013523,0.002678,0.000431,0.004701
15986000,0.0324,0.013523,0.002678,0.000431,0.004466
15987000,0.0324,0.013523,0.002678,0.000431,0.012223
15988000,0.0324,0.013523,0.002678,0.000431,0.004701
15989000,0.0324,0.013523,0.002678,0.000431,0.012223
15990000,0.0324,0.013523,0.002678,0.000431,0.005759
15991000,0.0324,0.013523,0.002678,0.000431,0.005876
15992000,0.0324,0.013523,0.002678,0.000431,0.011283
15993000,0.0324,0.013523,0.002678,0.000431,0.010930
15994000,0.0324,0.013523,0.002678,0.000431,0.004701
15995000,0.0324,0.013523,0.002678,0.000431,0.004584
15996000,0.0324,0.013523,0.002678,0.000431,0.019627
15997000,0.0324,0.013523,0.002678,0.000431,0.004701
15998000,0.0324,0.013523,0.002678,0.000431,0.004701
15999000,0.0324,0.013523,0.002678,0.000431,0.012223
