Cycle,Area(mm^2),PeakDynamic(W),SubthresholdLeakage(W),GateLeakage(W),RunTimeDynamic(W)
3000000,0.0324,0.013523,0.002678,0.000431,0.134335
3001000,0.0324,0.013523,0.002678,0.000431,0.242108
3002000,0.0324,0.013523,0.002678,0.000431,0.126813
3003000,0.0324,0.013523,0.002678,0.000431,0.156195
3004000,0.0324,0.013523,0.002678,0.000431,0.084385
3005000,0.0324,0.013523,0.002678,0.000431,0.097666
3006000,0.0324,0.013523,0.002678,0.000431,0.108243
3007000,0.0324,0.013523,0.002678,0.000431,0.097431
3008000,0.0324,0.013523,0.002678,0.000431,0.071340
3009000,0.0324,0.013523,0.002678,0.000431,0.074748
3010000,0.0324,0.013523,0.002678,0.000431,0.135628
3011000,0.0324,0.013523,0.002678,0.000431,0.095433
3012000,0.0324,0.013523,0.002678,0.000431,0.040665
3013000,0.0324,0.013523,0.002678,0.000431,0.155490
3014000,0.0324,0.013523,0.002678,0.000431,0.163364
3015000,0.0324,0.013523,0.002678,0.000431,0.151729
3016000,0.0324,0.013523,0.002678,0.000431,0.205204
3017000,0.0324,0.013523,0.002678,0.000431,0.102602
3018000,0.0324,0.013523,0.002678,0.000431,0.125638
3019000,0.0324,0.013523,0.002678,0.000431,0.072632
3020000,0.0324,0.013523,0.002678,0.000431,0.131279
3021000,0.0324,0.013523,0.002678,0.000431,0.196037
3022000,0.0324,0.013523,0.002678,0.000431,0.130691
3023000,0.0324,0.013523,0.002678,0.000431,0.163247
3024000,0.0324,0.013523,0.002678,0.000431,0.095315
3025000,0.0324,0.013523,0.002678,0.000431,0.117998
3026000,0.0324,0.013523,0.002678,0.000431,0.127753
3027000,0.0324,0.013523,0.002678,0.000431,0.131632
3028000,0.0324,0.013523,0.002678,0.000431,0.082505
3029000,0.0324,0.013523,0.002678,0.000431,0.262558
3030000,0.0324,0.013523,0.002678,0.000431,0.149378
3031000,0.0324,0.013523,0.002678,0.000431,0.159133
3032000,0.0324,0.013523,0.002678,0.000431,0.276661
3033000,0.0324,0.013523,0.002678,0.000431,0.348001
3034000,0.0324,0.013523,0.002678,0.000431,0.088851
3035000,0.0324,0.013523,0.002678,0.000431,0.121877
3036000,0.0324,0.013523,0.002678,0.000431,0.213901
3037000,0.0324,0.013523,0.002678,0.000431,0.116588
3038000,0.0324,0.013523,0.002678,0.000431,0.153609
3039000,0.0324,0.013523,0.002678,0.000431,0.152434
3040000,0.0324,0.013523,0.002678,0.000431,0.118586
3041000,0.0324,0.013523,0.002678,0.000431,0.113532
3042000,0.0324,0.013523,0.002678,0.000431,0.210846
3043000,0.0324,0.013523,0.002678,0.000431,0.101897
3044000,0.0324,0.013523,0.002678,0.000431,0.253273
3045000,0.0324,0.013523,0.002678,0.000431,0.094728
3046000,0.0324,0.013523,0.002678,0.000431,0.170416
3047000,0.0324,0.013523,0.002678,0.000431,0.114237
3048000,0.0324,0.013523,0.002678,0.000431,0.126695
3049000,0.0324,0.013523,0.002678,0.000431,0.104483
3050000,0.0324,0.013523,0.002678,0.000431,0.116470
3051000,0.0324,0.013523,0.002678,0.000431,0.153844
3052000,0.0324,0.013523,0.002678,0.000431,0.143149
3053000,0.0324,0.013523,0.002678,0.000431,0.199680
3054000,0.0324,0.013523,0.002678,0.000431,0.107891
3055000,0.0324,0.013523,0.002678,0.000431,0.168770
3056000,0.0324,0.013523,0.002678,0.000431,0.172061
3057000,0.0324,0.013523,0.002678,0.000431,0.213901
3058000,0.0324,0.013523,0.002678,0.000431,0.140564
3059000,0.0324,0.013523,0.002678,0.000431,0.080389
3060000,0.0324,0.013523,0.002678,0.000431,0.200386
3061000,0.0324,0.013523,0.002678,0.000431,0.043485
3062000,0.0324,0.013523,0.002678,0.000431,0.178408
3063000,0.0324,0.013523,0.002678,0.000431,0.298051
3064000,0.0324,0.013523,0.002678,0.000431,0.209905
3065000,0.0324,0.013523,0.002678,0.000431,0.121289
3066000,0.0324,0.013523,0.002678,0.000431,0.103190
3067000,0.0324,0.013523,0.002678,0.000431,0.075571
3068000,0.0324,0.013523,0.002678,0.000431,0.140329
3069000,0.0324,0.013523,0.002678,0.000431,0.120819
3070000,0.0324,0.013523,0.002678,0.000431,0.143032
3071000,0.0324,0.013523,0.002678,0.000431,0.180523
3072000,0.0324,0.013523,0.002678,0.000431,0.171709
3073000,0.0324,0.013523,0.002678,0.000431,0.113297
3074000,0.0324,0.013523,0.002678,0.000431,0.104718
3075000,0.0324,0.013523,0.002678,0.000431,0.088146
3076000,0.0324,0.013523,0.002678,0.000431,0.320382
3077000,0.0324,0.013523,0.002678,0.000431,0.095315
3078000,0.0324,0.013523,0.002678,0.000431,0.106716
3079000,0.0324,0.013523,0.002678,0.000431,0.118703
3080000,0.0324,0.013523,0.002678,0.000431,0.157605
3081000,0.0324,0.013523,0.002678,0.000431,0.239522
3082000,0.0324,0.013523,0.002678,0.000431,0.133277
3083000,0.0324,0.013523,0.002678,0.000431,0.300520
3084000,0.0324,0.013523,0.002678,0.000431,0.161366
3085000,0.0324,0.013523,0.002678,0.000431,0.119291
3086000,0.0324,0.013523,0.002678,0.000431,0.153374
3087000,0.0324,0.013523,0.002678,0.000431,0.190513
3088000,0.0324,0.013523,0.002678,0.000431,0.064993
3089000,0.0324,0.013523,0.002678,0.000431,0.076393
3090000,0.0324,0.013523,0.002678,0.000431,0.097313
3091000,0.0324,0.013523,0.002678,0.000431,0.167243
3092000,0.0324,0.013523,0.002678,0.000431,0.135863
3093000,0.0324,0.013523,0.002678,0.000431,0.207555
3094000,0.0324,0.013523,0.002678,0.000431,0.184167
3095000,0.0324,0.013523,0.002678,0.000431,0.148438
3096000,0.0324,0.013523,0.002678,0.000431,0.069342
3097000,0.0324,0.013523,0.002678,0.000431,0.133159
3098000,0.0324,0.013523,0.002678,0.000431,0.244811
3099000,0.0324,0.013523,0.002678,0.000431,0.157723
3100000,0.0324,0.013523,0.002678,0.000431,0.067461
3101000,0.0324,0.013523,0.002678,0.000431,0.092142
3102000,0.0324,0.013523,0.002678,0.000431,0.154315
3103000,0.0324,0.013523,0.002678,0.000431,0.127753
3104000,0.0324,0.013523,0.002678,0.000431,0.115178
3105000,0.0324,0.013523,0.002678,0.000431,0.208730
3106000,0.0324,0.013523,0.002678,0.000431,0.110712
3107000,0.0324,0.013523,0.002678,0.000431,0.223539
3108000,0.0324,0.013523,0.002678,0.000431,0.088851
3109000,0.0324,0.013523,0.002678,0.000431,0.169946
3110000,0.0324,0.013523,0.002678,0.000431,0.090967
3111000,0.0324,0.013523,0.002678,0.000431,0.164775
3112000,0.0324,0.013523,0.002678,0.000431,0.192981
3113000,0.0324,0.013523,0.002678,0.000431,0.141034
3114000,0.0324,0.013523,0.002678,0.000431,0.157840
3115000,0.0324,0.013523,0.002678,0.000431,0.194157
3116000,0.0324,0.013523,0.002678,0.000431,0.191101
3117000,0.0324,0.013523,0.002678,0.000431,0.179701
3118000,0.0324,0.013523,0.002678,0.000431,0.075923
3119000,0.0324,0.013523,0.002678,0.000431,0.061585
3120000,0.0324,0.013523,0.002678,0.000431,0.271608
3121000,0.0324,0.013523,0.002678,0.000431,0.103425
3122000,0.0324,0.013523,0.002678,0.000431,0.049714
3123000,0.0324,0.013523,0.002678,0.000431,0.192864
3124000,0.0324,0.013523,0.002678,0.000431,0.175587
3125000,0.0324,0.013523,0.002678,0.000431,0.060292
3126000,0.0324,0.013523,0.002678,0.000431,0.113885
3127000,0.0324,0.013523,0.002678,0.000431,0.093905
3128000,0.0324,0.013523,0.002678,0.000431,0.100604
3129000,0.0324,0.013523,0.002678,0.000431,0.211786
3130000,0.0324,0.013523,0.002678,0.000431,0.153257
3131000,0.0324,0.013523,0.002678,0.000431,0.119644
3132000,0.0324,0.013523,0.002678,0.000431,0.137038
3133000,0.0324,0.013523,0.002678,0.000431,0.261735
3134000,0.0324,0.013523,0.002678,0.000431,0.364807
3135000,0.0324,0.013523,0.002678,0.000431,0.117528
3136000,0.0324,0.013523,0.002678,0.000431,0.207320
3137000,0.0324,0.013523,0.002678,0.000431,0.175822
3138000,0.0324,0.013523,0.002678,0.000431,0.156077
3139000,0.0324,0.013523,0.002678,0.000431,0.375032
3140000,0.0324,0.013523,0.002678,0.000431,0.053828
3141000,0.0324,0.013523,0.002678,0.000431,0.060645
3142000,0.0324,0.013523,0.002678,0.000431,0.087794
3143000,0.0324,0.013523,0.002678,0.000431,0.279364
3144000,0.0324,0.013523,0.002678,0.000431,0.087558
3145000,0.0324,0.013523,0.002678,0.000431,0.124580
3146000,0.0324,0.013523,0.002678,0.000431,0.266084
3147000,0.0324,0.013523,0.002678,0.000431,0.248337
3148000,0.0324,0.013523,0.002678,0.000431,0.146675
3149000,0.0324,0.013523,0.002678,0.000431,0.166772
3150000,0.0324,0.013523,0.002678,0.000431,0.137273
3151000,0.0324,0.013523,0.002678,0.000431,0.132454
3152000,0.0324,0.013523,0.002678,0.000431,0.155020
3153000,0.0324,0.013523,0.002678,0.000431,0.160191
3154000,0.0324,0.013523,0.002678,0.000431,0.158898
3155000,0.0324,0.013523,0.002678,0.000431,0.207085
3156000,0.0324,0.013523,0.002678,0.000431,0.129399
3157000,0.0324,0.013523,0.002678,0.000431,0.142327
3158000,0.0324,0.013523,0.002678,0.000431,0.140564
3159000,0.0324,0.013523,0.002678,0.000431,0.122347
3160000,0.0324,0.013523,0.002678,0.000431,0.096256
3161000,0.0324,0.013523,0.002678,0.000431,0.067931
3162000,0.0324,0.013523,0.002678,0.000431,0.214606
3163000,0.0324,0.013523,0.002678,0.000431,0.149378
3164000,0.0324,0.013523,0.002678,0.000431,0.166185
3165000,0.0324,0.013523,0.002678,0.000431,0.103660
3166000,0.0324,0.013523,0.002678,0.000431,0.135980
3167000,0.0324,0.013523,0.002678,0.000431,0.171944
3168000,0.0324,0.013523,0.002678,0.000431,0.115648
3169000,0.0324,0.013523,0.002678,0.000431,0.196742
3170000,0.0324,0.013523,0.002678,0.000431,0.052065
3171000,0.0324,0.013523,0.002678,0.000431,0.178173
3172000,0.0324,0.013523,0.002678,0.000431,0.163129
3173000,0.0324,0.013523,0.002678,0.000431,0.088616
3174000,0.0324,0.013523,0.002678,0.000431,0.263733
3175000,0.0324,0.013523,0.002678,0.000431,0.347178
3176000,0.0324,0.013523,0.002678,0.000431,0.265379
3177000,0.0324,0.013523,0.002678,0.000431,0.206732
3178000,0.0324,0.013523,0.002678,0.000431,0.104247
3179000,0.0324,0.013523,0.002678,0.000431,0.199093
3180000,0.0324,0.013523,0.002678,0.000431,0.159603
3181000,0.0324,0.013523,0.002678,0.000431,0.231295
3182000,0.0324,0.013523,0.002678,0.000431,0.355053
3183000,0.0324,0.013523,0.002678,0.000431,0.141504
3184000,0.0324,0.013523,0.002678,0.000431,0.080272
3185000,0.0324,0.013523,0.002678,0.000431,0.139623
3186000,0.0324,0.013523,0.002678,0.000431,0.194627
3187000,0.0324,0.013523,0.002678,0.000431,0.077569
3188000,0.0324,0.013523,0.002678,0.000431,0.191453
3189000,0.0324,0.013523,0.002678,0.000431,0.138566
3190000,0.0324,0.013523,0.002678,0.000431,0.067109
3191000,0.0324,0.013523,0.002678,0.000431,0.072632
3192000,0.0324,0.013523,0.002678,0.000431,0.136803
3193000,0.0324,0.013523,0.002678,0.000431,0.113650
3194000,0.0324,0.013523,0.002678,0.000431,0.115883
3195000,0.0324,0.013523,0.002678,0.000431,0.192864
3196000,0.0324,0.013523,0.002678,0.000431,0.112239
3197000,0.0324,0.013523,0.002678,0.000431,0.155255
3198000,0.0324,0.013523,0.002678,0.000431,0.053945
3199000,0.0324,0.013523,0.002678,0.000431,0.225654
3200000,0.0324,0.013523,0.002678,0.000431,0.267847
3201000,0.0324,0.013523,0.002678,0.000431,0.195567
3202000,0.0324,0.013523,0.002678,0.000431,0.155490
3203000,0.0324,0.013523,0.002678,0.000431,0.177938
3204000,0.0324,0.013523,0.002678,0.000431,0.137743
3205000,0.0324,0.013523,0.002678,0.000431,0.259385
3206000,0.0324,0.013523,0.002678,0.000431,0.145382
3207000,0.0324,0.013523,0.002678,0.000431,0.108596
3208000,0.0324,0.013523,0.002678,0.000431,0.158193
3209000,0.0324,0.013523,0.002678,0.000431,0.045366
3210000,0.0324,0.013523,0.002678,0.000431,0.188750
3211000,0.0324,0.013523,0.002678,0.000431,0.200973
3212000,0.0324,0.013523,0.002678,0.000431,0.286769
3213000,0.0324,0.013523,0.002678,0.000431,0.173237
3214000,0.0324,0.013523,0.002678,0.000431,0.167125
3215000,0.0324,0.013523,0.002678,0.000431,0.108361
3216000,0.0324,0.013523,0.002678,0.000431,0.124345
3217000,0.0324,0.013523,0.002678,0.000431,0.080507
3218000,0.0324,0.013523,0.002678,0.000431,0.231295
3219000,0.0324,0.013523,0.002678,0.000431,0.209200
3220000,0.0324,0.013523,0.002678,0.000431,0.338246
3221000,0.0324,0.013523,0.002678,0.000431,0.057001
3222000,0.0324,0.013523,0.002678,0.000431,0.125520
3223000,0.0324,0.013523,0.002678,0.000431,0.161484
3224000,0.0324,0.013523,0.002678,0.000431,0.172884
3225000,0.0324,0.013523,0.002678,0.000431,0.332370
3226000,0.0324,0.013523,0.002678,0.000431,0.120584
3227000,0.0324,0.013523,0.002678,0.000431,0.237877
3228000,0.0324,0.013523,0.002678,0.000431,0.113885
3229000,0.0324,0.013523,0.002678,0.000431,0.096491
3230000,0.0324,0.013523,0.002678,0.000431,0.112122
3231000,0.0324,0.013523,0.002678,0.000431,0.192746
3232000,0.0324,0.013523,0.002678,0.000431,0.311215
3233000,0.0324,0.013523,0.002678,0.000431,0.577298
3234000,0.0324,0.013523,0.002678,0.000431,0.113532
3235000,0.0324,0.013523,0.002678,0.000431,0.092730
3236000,0.0324,0.013523,0.002678,0.000431,0.252215
3237000,0.0324,0.013523,0.002678,0.000431,0.061115
3238000,0.0324,0.013523,0.002678,0.000431,0.129516
3239000,0.0324,0.013523,0.002678,0.000431,0.142914
3240000,0.0324,0.013523,0.002678,0.000431,0.239993
3241000,0.0324,0.013523,0.002678,0.000431,0.073103
3242000,0.0324,0.013523,0.002678,0.000431,0.113885
3243000,0.0324,0.013523,0.002678,0.000431,0.207907
3244000,0.0324,0.013523,0.002678,0.000431,0.315916
3245000,0.0324,0.013523,0.002678,0.000431,0.236819
3246000,0.0324,0.013523,0.002678,0.000431,0.202501
3247000,0.0324,0.013523,0.002678,0.000431,0.194979
3248000,0.0324,0.013523,0.002678,0.000431,0.123875
3249000,0.0324,0.013523,0.002678,0.000431,0.089439
3250000,0.0324,0.013523,0.002678,0.000431,0.109419
3251000,0.0324,0.013523,0.002678,0.000431,0.238935
3252000,0.0324,0.013523,0.002678,0.000431,0.277602
3253000,0.0324,0.013523,0.002678,0.000431,0.137273
3254000,0.0324,0.013523,0.002678,0.000431,0.136568
3255000,0.0324,0.013523,0.002678,0.000431,0.102367
3256000,0.0324,0.013523,0.002678,0.000431,0.057471
3257000,0.0324,0.013523,0.002678,0.000431,0.234351
3258000,0.0324,0.013523,0.002678,0.000431,0.198740
3259000,0.0324,0.013523,0.002678,0.000431,0.131397
3260000,0.0324,0.013523,0.002678,0.000431,0.073808
3261000,0.0324,0.013523,0.002678,0.000431,0.124227
3262000,0.0324,0.013523,0.002678,0.000431,0.096256
3263000,0.0324,0.013523,0.002678,0.000431,0.114825
3264000,0.0324,0.013523,0.002678,0.000431,0.381732
3265000,0.0324,0.013523,0.002678,0.000431,0.262675
3266000,0.0324,0.013523,0.002678,0.000431,0.131749
3267000,0.0324,0.013523,0.002678,0.000431,0.133277
3268000,0.0324,0.013523,0.002678,0.000431,0.144090
3269000,0.0324,0.013523,0.002678,0.000431,0.173589
3270000,0.0324,0.013523,0.002678,0.000431,0.111182
3271000,0.0324,0.013523,0.002678,0.000431,0.294291
3272000,0.0324,0.013523,0.002678,0.000431,0.179466
3273000,0.0324,0.013523,0.002678,0.000431,0.074513
3274000,0.0324,0.013523,0.002678,0.000431,0.172296
3275000,0.0324,0.013523,0.002678,0.000431,0.087911
3276000,0.0324,0.013523,0.002678,0.000431,0.290060
3277000,0.0324,0.013523,0.002678,0.000431,0.067931
3278000,0.0324,0.013523,0.002678,0.000431,0.280305
3279000,0.0324,0.013523,0.002678,0.000431,0.208613
3280000,0.0324,0.013523,0.002678,0.000431,0.072750
3281000,0.0324,0.013523,0.002678,0.000431,0.107186
3282000,0.0324,0.013523,0.002678,0.000431,0.067931
3283000,0.0324,0.013523,0.002678,0.000431,0.096491
3284000,0.0324,0.013523,0.002678,0.000431,0.197095
3285000,0.0324,0.013523,0.002678,0.000431,0.220953
3286000,0.0324,0.013523,0.002678,0.000431,0.094375
3287000,0.0324,0.013523,0.002678,0.000431,0.160073
3288000,0.0324,0.013523,0.002678,0.000431,0.064170
3289000,0.0324,0.013523,0.002678,0.000431,0.124697
3290000,0.0324,0.013523,0.002678,0.000431,0.251393
3291000,0.0324,0.013523,0.002678,0.000431,0.222951
3292000,0.0324,0.013523,0.002678,0.000431,0.227300
3293000,0.0324,0.013523,0.002678,0.000431,0.207437
3294000,0.0324,0.013523,0.002678,0.000431,0.154550
3295000,0.0324,0.013523,0.002678,0.000431,0.208730
3296000,0.0324,0.013523,0.002678,0.000431,0.162424
3297000,0.0324,0.013523,0.002678,0.000431,0.106951
3298000,0.0324,0.013523,0.002678,0.000431,0.091554
3299000,0.0324,0.013523,0.002678,0.000431,0.114002
3300000,0.0324,0.013523,0.002678,0.000431,0.113415
3301000,0.0324,0.013523,0.002678,0.000431,0.206497
3302000,0.0324,0.013523,0.002678,0.000431,0.136803
3303000,0.0324,0.013523,0.002678,0.000431,0.125520
3304000,0.0324,0.013523,0.002678,0.000431,0.068872
3305000,0.0324,0.013523,0.002678,0.000431,0.057824
3306000,0.0324,0.013523,0.002678,0.000431,0.100487
3307000,0.0324,0.013523,0.002678,0.000431,0.109184
3308000,0.0324,0.013523,0.002678,0.000431,0.110124
3309000,0.0324,0.013523,0.002678,0.000431,0.110359
3310000,0.0324,0.013523,0.002678,0.000431,0.091202
3311000,0.0324,0.013523,0.002678,0.000431,0.209318
3312000,0.0324,0.013523,0.002678,0.000431,0.113180
3313000,0.0324,0.013523,0.002678,0.000431,0.116470
3314000,0.0324,0.013523,0.002678,0.000431,0.146675
3315000,0.0324,0.013523,0.002678,0.000431,0.184402
3316000,0.0324,0.013523,0.002678,0.000431,0.209200
3317000,0.0324,0.013523,0.002678,0.000431,0.162894
3318000,0.0324,0.013523,0.002678,0.000431,0.068872
3319000,0.0324,0.013523,0.002678,0.000431,0.116588
3320000,0.0324,0.013523,0.002678,0.000431,0.238230
3321000,0.0324,0.013523,0.002678,0.000431,0.141857
3322000,0.0324,0.013523,0.002678,0.000431,0.188985
3323000,0.0324,0.013523,0.002678,0.000431,0.126578
3324000,0.0324,0.013523,0.002678,0.000431,0.092025
3325000,0.0324,0.013523,0.002678,0.000431,0.221658
3326000,0.0324,0.013523,0.002678,0.000431,0.127871
3327000,0.0324,0.013523,0.002678,0.000431,0.069812
3328000,0.0324,0.013523,0.002678,0.000431,0.117998
3329000,0.0324,0.013523,0.002678,0.000431,0.107421
3330000,0.0324,0.013523,0.002678,0.000431,0.102602
3331000,0.0324,0.013523,0.002678,0.000431,0.139623
3332000,0.0324,0.013523,0.002678,0.000431,0.232353
3333000,0.0324,0.013523,0.002678,0.000431,0.074630
3334000,0.0324,0.013523,0.002678,0.000431,0.159016
3335000,0.0324,0.013523,0.002678,0.000431,0.195802
3336000,0.0324,0.013523,0.002678,0.000431,0.121172
3337000,0.0324,0.013523,0.002678,0.000431,0.095550
3338000,0.0324,0.013523,0.002678,0.000431,0.239405
3339000,0.0324,0.013523,0.002678,0.000431,0.342242
3340000,0.0324,0.013523,0.002678,0.000431,0.064993
3341000,0.0324,0.013523,0.002678,0.000431,0.177938
3342000,0.0324,0.013523,0.002678,0.000431,0.135745
3343000,0.0324,0.013523,0.002678,0.000431,0.254684
3344000,0.0324,0.013523,0.002678,0.000431,0.121759
3345000,0.0324,0.013523,0.002678,0.000431,0.177820
3346000,0.0324,0.013523,0.002678,0.000431,0.231178
3347000,0.0324,0.013523,0.002678,0.000431,0.112357
3348000,0.0324,0.013523,0.002678,0.000431,0.082975
3349000,0.0324,0.013523,0.002678,0.000431,0.183579
3350000,0.0324,0.013523,0.002678,0.000431,0.062172
3351000,0.0324,0.013523,0.002678,0.000431,0.114472
3352000,0.0324,0.013523,0.002678,0.000431,0.277014
3353000,0.0324,0.013523,0.002678,0.000431,0.180406
3354000,0.0324,0.013523,0.002678,0.000431,0.309452
3355000,0.0324,0.013523,0.002678,0.000431,0.195567
3356000,0.0324,0.013523,0.002678,0.000431,0.146440
3357000,0.0324,0.013523,0.002678,0.000431,0.123287
3358000,0.0324,0.013523,0.002678,0.000431,0.109771
3359000,0.0324,0.013523,0.002678,0.000431,0.232236
3360000,0.0324,0.013523,0.002678,0.000431,0.328844
3361000,0.0324,0.013523,0.002678,0.000431,0.291117
3362000,0.0324,0.013523,0.002678,0.000431,0.130809
3363000,0.0324,0.013523,0.002678,0.000431,0.057706
3364000,0.0324,0.013523,0.002678,0.000431,0.095315
3365000,0.0324,0.013523,0.002678,0.000431,0.064758
3366000,0.0324,0.013523,0.002678,0.000431,0.079096
3367000,0.0324,0.013523,0.002678,0.000431,0.269257
3368000,0.0324,0.013523,0.002678,0.000431,0.186752
3369000,0.0324,0.013523,0.002678,0.000431,0.275369
3370000,0.0324,0.013523,0.002678,0.000431,0.196625
3371000,0.0324,0.013523,0.002678,0.000431,0.189690
3372000,0.0324,0.013523,0.002678,0.000431,0.088029
3373000,0.0324,0.013523,0.002678,0.000431,0.116000
3374000,0.0324,0.013523,0.002678,0.000431,0.089556
3375000,0.0324,0.013523,0.002678,0.000431,0.109066
3376000,0.0324,0.013523,0.002678,0.000431,0.125755
3377000,0.0324,0.013523,0.002678,0.000431,0.097196
3378000,0.0324,0.013523,0.002678,0.000431,0.087911
3379000,0.0324,0.013523,0.002678,0.000431,0.108126
3380000,0.0324,0.013523,0.002678,0.000431,0.192159
3381000,0.0324,0.013523,0.002678,0.000431,0.169828
3382000,0.0324,0.013523,0.002678,0.000431,0.133159
3383000,0.0324,0.013523,0.002678,0.000431,0.144912
3384000,0.0324,0.013523,0.002678,0.000431,0.106363
3385000,0.0324,0.013523,0.002678,0.000431,0.107068
3386000,0.0324,0.013523,0.002678,0.000431,0.171239
3387000,0.0324,0.013523,0.002678,0.000431,0.134217
3388000,0.0324,0.013523,0.002678,0.000431,0.112710
3389000,0.0324,0.013523,0.002678,0.000431,0.145265
3390000,0.0324,0.013523,0.002678,0.000431,0.157840
3391000,0.0324,0.013523,0.002678,0.000431,0.050067
3392000,0.0324,0.013523,0.002678,0.000431,0.136568
3393000,0.0324,0.013523,0.002678,0.000431,0.253156
3394000,0.0324,0.013523,0.002678,0.000431,0.225654
3395000,0.0324,0.013523,0.002678,0.000431,0.092025
3396000,0.0324,0.013523,0.002678,0.000431,0.134570
3397000,0.0324,0.013523,0.002678,0.000431,0.109889
3398000,0.0324,0.013523,0.002678,0.000431,0.109301
3399000,0.0324,0.013523,0.002678,0.000431,0.287121
3400000,0.0324,0.013523,0.002678,0.000431,0.190983
3401000,0.0324,0.013523,0.002678,0.000431,0.161484
3402000,0.0324,0.013523,0.002678,0.000431,0.072397
3403000,0.0324,0.013523,0.002678,0.000431,0.065228
3404000,0.0324,0.013523,0.002678,0.000431,0.095315
3405000,0.0324,0.013523,0.002678,0.000431,0.176057
3406000,0.0324,0.013523,0.002678,0.000431,0.276074
3407000,0.0324,0.013523,0.002678,0.000431,0.128106
3408000,0.0324,0.013523,0.002678,0.000431,0.110594
3409000,0.0324,0.013523,0.002678,0.000431,0.050302
3410000,0.0324,0.013523,0.002678,0.000431,0.155607
3411000,0.0324,0.013523,0.002678,0.000431,0.057706
3412000,0.0324,0.013523,0.002678,0.000431,0.254213
3413000,0.0324,0.013523,0.002678,0.000431,0.128928
3414000,0.0324,0.013523,0.002678,0.000431,0.239757
3415000,0.0324,0.013523,0.002678,0.000431,0.113767
3416000,0.0324,0.013523,0.002678,0.000431,0.103072
3417000,0.0324,0.013523,0.002678,0.000431,0.110476
3418000,0.0324,0.013523,0.002678,0.000431,0.101662
3419000,0.0324,0.013523,0.002678,0.000431,0.224949
3420000,0.0324,0.013523,0.002678,0.000431,0.087088
3421000,0.0324,0.013523,0.002678,0.000431,0.110124
3422000,0.0324,0.013523,0.002678,0.000431,0.133982
3423000,0.0324,0.013523,0.002678,0.000431,0.194392
3424000,0.0324,0.013523,0.002678,0.000431,0.084738
3425000,0.0324,0.013523,0.002678,0.000431,0.176175
3426000,0.0324,0.013523,0.002678,0.000431,0.094375
3427000,0.0324,0.013523,0.002678,0.000431,0.222833
3428000,0.0324,0.013523,0.002678,0.000431,0.077569
3429000,0.0324,0.013523,0.002678,0.000431,0.094728
3430000,0.0324,0.013523,0.002678,0.000431,0.044778
3431000,0.0324,0.013523,0.002678,0.000431,0.239405
3432000,0.0324,0.013523,0.002678,0.000431,0.110476
3433000,0.0324,0.013523,0.002678,0.000431,0.105188
3434000,0.0324,0.013523,0.002678,0.000431,0.186635
3435000,0.0324,0.013523,0.002678,0.000431,0.121289
3436000,0.0324,0.013523,0.002678,0.000431,0.122582
3437000,0.0324,0.013523,0.002678,0.000431,0.185224
3438000,0.0324,0.013523,0.002678,0.000431,0.110476
3439000,0.0324,0.013523,0.002678,0.000431,0.153727
3440000,0.0324,0.013523,0.002678,0.000431,0.257974
3441000,0.0324,0.013523,0.002678,0.000431,0.065933
3442000,0.0324,0.013523,0.002678,0.000431,0.109301
3443000,0.0324,0.013523,0.002678,0.000431,0.162894
3444000,0.0324,0.013523,0.002678,0.000431,0.194274
3445000,0.0324,0.013523,0.002678,0.000431,0.182286
3446000,0.0324,0.013523,0.002678,0.000431,0.154902
3447000,0.0324,0.013523,0.002678,0.000431,0.187575
3448000,0.0324,0.013523,0.002678,0.000431,0.115178
3449000,0.0324,0.013523,0.002678,0.000431,0.211668
3450000,0.0324,0.013523,0.002678,0.000431,0.082622
3451000,0.0324,0.013523,0.002678,0.000431,0.269022
3452000,0.0324,0.013523,0.002678,0.000431,0.062407
3453000,0.0324,0.013523,0.002678,0.000431,0.166890
3454000,0.0324,0.013523,0.002678,0.000431,0.053945
3455000,0.0324,0.013523,0.002678,0.000431,0.093670
3456000,0.0324,0.013523,0.002678,0.000431,0.070282
3457000,0.0324,0.013523,0.002678,0.000431,0.134335
3458000,0.0324,0.013523,0.002678,0.000431,0.192276
3459000,0.0324,0.013523,0.002678,0.000431,0.070047
3460000,0.0324,0.013523,0.002678,0.000431,0.117646
3461000,0.0324,0.013523,0.002678,0.000431,0.112945
3462000,0.0324,0.013523,0.002678,0.000431,0.122582
3463000,0.0324,0.013523,0.002678,0.000431,0.136333
3464000,0.0324,0.013523,0.002678,0.000431,0.275721
3465000,0.0324,0.013523,0.002678,0.000431,0.043015
3466000,0.0324,0.013523,0.002678,0.000431,0.217897
3467000,0.0324,0.013523,0.002678,0.000431,0.145735
3468000,0.0324,0.013523,0.002678,0.000431,0.179113
3469000,0.0324,0.013523,0.002678,0.000431,0.110124
3470000,0.0324,0.013523,0.002678,0.000431,0.170181
3471000,0.0324,0.013523,0.002678,0.000431,0.268199
3472000,0.0324,0.013523,0.002678,0.000431,0.080154
3473000,0.0324,0.013523,0.002678,0.000431,0.102485
3474000,0.0324,0.013523,0.002678,0.000431,0.110712
3475000,0.0324,0.013523,0.002678,0.000431,0.058529
3476000,0.0324,0.013523,0.002678,0.000431,0.041840
3477000,0.0324,0.013523,0.002678,0.000431,0.208142
3478000,0.0324,0.013523,0.002678,0.000431,0.106128
3479000,0.0324,0.013523,0.002678,0.000431,0.243518
3480000,0.0324,0.013523,0.002678,0.000431,0.178525
3481000,0.0324,0.013523,0.002678,0.000431,0.087911
3482000,0.0324,0.013523,0.002678,0.000431,0.072867
3483000,0.0324,0.013523,0.002678,0.000431,0.185695
3484000,0.0324,0.013523,0.002678,0.000431,0.065346
3485000,0.0324,0.013523,0.002678,0.000431,0.134922
3486000,0.0324,0.013523,0.002678,0.000431,0.087323
3487000,0.0324,0.013523,0.002678,0.000431,0.263381
3488000,0.0324,0.013523,0.002678,0.000431,0.076628
3489000,0.0324,0.013523,0.002678,0.000431,0.141151
3490000,0.0324,0.013523,0.002678,0.000431,0.292763
3491000,0.0324,0.013523,0.002678,0.000431,0.181464
3492000,0.0324,0.013523,0.002678,0.000431,0.197800
3493000,0.0324,0.013523,0.002678,0.000431,0.132689
3494000,0.0324,0.013523,0.002678,0.000431,0.243753
3495000,0.0324,0.013523,0.002678,0.000431,0.173942
3496000,0.0324,0.013523,0.002678,0.000431,0.083915
3497000,0.0324,0.013523,0.002678,0.000431,0.104600
3498000,0.0324,0.013523,0.002678,0.000431,0.139388
3499000,0.0324,0.013523,0.002678,0.000431,0.065111
3500000,0.0324,0.013523,0.002678,0.000431,0.167360
3501000,0.0324,0.013523,0.002678,0.000431,0.109419
3502000,0.0324,0.013523,0.002678,0.000431,0.084973
3503000,0.0324,0.013523,0.002678,0.000431,0.065581
3504000,0.0324,0.013523,0.002678,0.000431,0.110359
3505000,0.0324,0.013523,0.002678,0.000431,0.245986
3506000,0.0324,0.013523,0.002678,0.000431,0.054063
3507000,0.0324,0.013523,0.002678,0.000431,0.091907
3508000,0.0324,0.013523,0.002678,0.000431,0.073103
3509000,0.0324,0.013523,0.002678,0.000431,0.131984
3510000,0.0324,0.013523,0.002678,0.000431,0.226359
3511000,0.0324,0.013523,0.002678,0.000431,0.168300
3512000,0.0324,0.013523,0.002678,0.000431,0.087206
3513000,0.0324,0.013523,0.002678,0.000431,0.234586
3514000,0.0324,0.013523,0.002678,0.000431,0.112592
3515000,0.0324,0.013523,0.002678,0.000431,0.082622
3516000,0.0324,0.013523,0.002678,0.000431,0.261853
3517000,0.0324,0.013523,0.002678,0.000431,0.145500
3518000,0.0324,0.013523,0.002678,0.000431,0.057824
3519000,0.0324,0.013523,0.002678,0.000431,0.204499
3520000,0.0324,0.013523,0.002678,0.000431,0.136568
3521000,0.0324,0.013523,0.002678,0.000431,0.123757
3522000,0.0324,0.013523,0.002678,0.000431,0.089321
3523000,0.0324,0.013523,0.002678,0.000431,0.169241
3524000,0.0324,0.013523,0.002678,0.000431,0.081917
3525000,0.0324,0.013523,0.002678,0.000431,0.045836
3526000,0.0324,0.013523,0.002678,0.000431,0.080507
3527000,0.0324,0.013523,0.002678,0.000431,0.069459
3528000,0.0324,0.013523,0.002678,0.000431,0.099194
3529000,0.0324,0.013523,0.002678,0.000431,0.099429
3530000,0.0324,0.013523,0.002678,0.000431,0.226594
3531000,0.0324,0.013523,0.002678,0.000431,0.148321
3532000,0.0324,0.013523,0.002678,0.000431,0.200738
3533000,0.0324,0.013523,0.002678,0.000431,0.204969
3534000,0.0324,0.013523,0.002678,0.000431,0.124580
3535000,0.0324,0.013523,0.002678,0.000431,0.104247
3536000,0.0324,0.013523,0.002678,0.000431,0.179466
3537000,0.0324,0.013523,0.002678,0.000431,0.054768
3538000,0.0324,0.013523,0.002678,0.000431,0.116470
3539000,0.0324,0.013523,0.002678,0.000431,0.122817
3540000,0.0324,0.013523,0.002678,0.000431,0.107656
3541000,0.0324,0.013523,0.002678,0.000431,0.131867
3542000,0.0324,0.013523,0.002678,0.000431,0.120466
3543000,0.0324,0.013523,0.002678,0.000431,0.137861
3544000,0.0324,0.013523,0.002678,0.000431,0.126813
3545000,0.0324,0.013523,0.002678,0.000431,0.295583
3546000,0.0324,0.013523,0.002678,0.000431,0.102485
3547000,0.0324,0.013523,0.002678,0.000431,0.100604
3548000,0.0324,0.013523,0.002678,0.000431,0.173119
3549000,0.0324,0.013523,0.002678,0.000431,0.156430
3550000,0.0324,0.013523,0.002678,0.000431,0.056884
3551000,0.0324,0.013523,0.002678,0.000431,0.087794
3552000,0.0324,0.013523,0.002678,0.000431,0.084033
3553000,0.0324,0.013523,0.002678,0.000431,0.147145
3554000,0.0324,0.013523,0.002678,0.000431,0.115060
3555000,0.0324,0.013523,0.002678,0.000431,0.084268
3556000,0.0324,0.013523,0.002678,0.000431,0.125520
3557000,0.0324,0.013523,0.002678,0.000431,0.130339
3558000,0.0324,0.013523,0.002678,0.000431,0.222598
3559000,0.0324,0.013523,0.002678,0.000431,0.062760
3560000,0.0324,0.013523,0.002678,0.000431,0.248572
3561000,0.0324,0.013523,0.002678,0.000431,0.243166
3562000,0.0324,0.013523,0.002678,0.000431,0.240580
3563000,0.0324,0.013523,0.002678,0.000431,0.087794
3564000,0.0324,0.013523,0.002678,0.000431,0.136685
3565000,0.0324,0.013523,0.002678,0.000431,0.127636
3566000,0.0324,0.013523,0.002678,0.000431,0.176175
3567000,0.0324,0.013523,0.002678,0.000431,0.069224
3568000,0.0324,0.013523,0.002678,0.000431,0.217075
3569000,0.0324,0.013523,0.002678,0.000431,0.139741
3570000,0.0324,0.013523,0.002678,0.000431,0.044308
3571000,0.0324,0.013523,0.002678,0.000431,0.087794
3572000,0.0324,0.013523,0.002678,0.000431,0.131161
3573000,0.0324,0.013523,0.002678,0.000431,0.115530
3574000,0.0324,0.013523,0.002678,0.000431,0.155020
3575000,0.0324,0.013523,0.002678,0.000431,0.196272
3576000,0.0324,0.013523,0.002678,0.000431,0.103542
3577000,0.0324,0.013523,0.002678,0.000431,0.196272
3578000,0.0324,0.013523,0.002678,0.000431,0.090849
3579000,0.0324,0.013523,0.002678,0.000431,0.068636
3580000,0.0324,0.013523,0.002678,0.000431,0.091672
3581000,0.0324,0.013523,0.002678,0.000431,0.099076
3582000,0.0324,0.013523,0.002678,0.000431,0.080272
3583000,0.0324,0.013523,0.002678,0.000431,0.068989
3584000,0.0324,0.013523,0.002678,0.000431,0.186400
3585000,0.0324,0.013523,0.002678,0.000431,0.155020
3586000,0.0324,0.013523,0.002678,0.000431,0.104483
3587000,0.0324,0.013523,0.002678,0.000431,0.086501
3588000,0.0324,0.013523,0.002678,0.000431,0.087441
3589000,0.0324,0.013523,0.002678,0.000431,0.155490
3590000,0.0324,0.013523,0.002678,0.000431,0.203559
3591000,0.0324,0.013523,0.002678,0.000431,0.079096
3592000,0.0324,0.013523,0.002678,0.000431,0.155725
3593000,0.0324,0.013523,0.002678,0.000431,0.204852
3594000,0.0324,0.013523,0.002678,0.000431,0.130809
3595000,0.0324,0.013523,0.002678,0.000431,0.130574
3596000,0.0324,0.013523,0.002678,0.000431,0.131514
3597000,0.0324,0.013523,0.002678,0.000431,0.151729
3598000,0.0324,0.013523,0.002678,0.000431,0.099311
3599000,0.0324,0.013523,0.002678,0.000431,0.094963
3600000,0.0324,0.013523,0.002678,0.000431,0.144677
3601000,0.0324,0.013523,0.002678,0.000431,0.130221
3602000,0.0324,0.013523,0.002678,0.000431,0.135510
3603000,0.0324,0.013523,0.002678,0.000431,0.061585
3604000,0.0324,0.013523,0.002678,0.000431,0.123287
3605000,0.0324,0.013523,0.002678,0.000431,0.180171
3606000,0.0324,0.013523,0.002678,0.000431,0.123287
3607000,0.0324,0.013523,0.002678,0.000431,0.262323
3608000,0.0324,0.013523,0.002678,0.000431,0.117998
3609000,0.0324,0.013523,0.002678,0.000431,0.185812
3610000,0.0324,0.013523,0.002678,0.000431,0.133042
3611000,0.0324,0.013523,0.002678,0.000431,0.074630
3612000,0.0324,0.013523,0.002678,0.000431,0.183109
3613000,0.0324,0.013523,0.002678,0.000431,0.167008
3614000,0.0324,0.013523,0.002678,0.000431,0.091437
3615000,0.0324,0.013523,0.002678,0.000431,0.073925
3616000,0.0324,0.013523,0.002678,0.000431,0.277131
3617000,0.0324,0.013523,0.002678,0.000431,0.137978
3618000,0.0324,0.013523,0.002678,0.000431,0.241755
3619000,0.0324,0.013523,0.002678,0.000431,0.150906
3620000,0.0324,0.013523,0.002678,0.000431,0.066168
3621000,0.0324,0.013523,0.002678,0.000431,0.081917
3622000,0.0324,0.013523,0.002678,0.000431,0.191571
3623000,0.0324,0.013523,0.002678,0.000431,0.122464
3624000,0.0324,0.013523,0.002678,0.000431,0.119526
3625000,0.0324,0.013523,0.002678,0.000431,0.136333
3626000,0.0324,0.013523,0.002678,0.000431,0.076041
3627000,0.0324,0.013523,0.002678,0.000431,0.177820
3628000,0.0324,0.013523,0.002678,0.000431,0.171826
3629000,0.0324,0.013523,0.002678,0.000431,0.088851
3630000,0.0324,0.013523,0.002678,0.000431,0.062172
3631000,0.0324,0.013523,0.002678,0.000431,0.151846
3632000,0.0324,0.013523,0.002678,0.000431,0.058294
3633000,0.0324,0.013523,0.002678,0.000431,0.078391
3634000,0.0324,0.013523,0.002678,0.000431,0.165245
3635000,0.0324,0.013523,0.002678,0.000431,0.080272
3636000,0.0324,0.013523,0.002678,0.000431,0.050302
3637000,0.0324,0.013523,0.002678,0.000431,0.141034
3638000,0.0324,0.013523,0.002678,0.000431,0.239640
3639000,0.0324,0.013523,0.002678,0.000431,0.131514
3640000,0.0324,0.013523,0.002678,0.000431,0.078744
3641000,0.0324,0.013523,0.002678,0.000431,0.245751
3642000,0.0324,0.013523,0.002678,0.000431,0.042663
3643000,0.0324,0.013523,0.002678,0.000431,0.096961
3644000,0.0324,0.013523,0.002678,0.000431,0.124815
3645000,0.0324,0.013523,0.002678,0.000431,0.154550
3646000,0.0324,0.013523,0.002678,0.000431,0.050302
3647000,0.0324,0.013523,0.002678,0.000431,0.137390
3648000,0.0324,0.013523,0.002678,0.000431,0.222951
3649000,0.0324,0.013523,0.002678,0.000431,0.098019
3650000,0.0324,0.013523,0.002678,0.000431,0.066403
3651000,0.0324,0.013523,0.002678,0.000431,0.188280
3652000,0.0324,0.013523,0.002678,0.000431,0.069812
3653000,0.0324,0.013523,0.002678,0.000431,0.131984
3654000,0.0324,0.013523,0.002678,0.000431,0.205909
3655000,0.0324,0.013523,0.002678,0.000431,0.053828
3656000,0.0324,0.013523,0.002678,0.000431,0.107538
3657000,0.0324,0.013523,0.002678,0.000431,0.170768
3658000,0.0324,0.013523,0.002678,0.000431,0.082975
3659000,0.0324,0.013523,0.002678,0.000431,0.128341
3660000,0.0324,0.013523,0.002678,0.000431,0.335896
3661000,0.0324,0.013523,0.002678,0.000431,0.251040
3662000,0.0324,0.013523,0.002678,0.000431,0.072867
3663000,0.0324,0.013523,0.002678,0.000431,0.234116
3664000,0.0324,0.013523,0.002678,0.000431,0.212491
3665000,0.0324,0.013523,0.002678,0.000431,0.035023
3666000,0.0324,0.013523,0.002678,0.000431,0.158546
3667000,0.0324,0.013523,0.002678,0.000431,0.178643
3668000,0.0324,0.013523,0.002678,0.000431,0.217897
3669000,0.0324,0.013523,0.002678,0.000431,0.117293
3670000,0.0324,0.013523,0.002678,0.000431,0.199798
3671000,0.0324,0.013523,0.002678,0.000431,0.053005
3672000,0.0324,0.013523,0.002678,0.000431,0.042310
3673000,0.0324,0.013523,0.002678,0.000431,0.152904
3674000,0.0324,0.013523,0.002678,0.000431,0.135863
3675000,0.0324,0.013523,0.002678,0.000431,0.058647
3676000,0.0324,0.013523,0.002678,0.000431,0.141504
3677000,0.0324,0.013523,0.002678,0.000431,0.283008
3678000,0.0324,0.013523,0.002678,0.000431,0.087558
3679000,0.0324,0.013523,0.002678,0.000431,0.109536
3680000,0.0324,0.013523,0.002678,0.000431,0.123875
3681000,0.0324,0.013523,0.002678,0.000431,0.127753
3682000,0.0324,0.013523,0.002678,0.000431,0.108949
3683000,0.0324,0.013523,0.002678,0.000431,0.263263
3684000,0.0324,0.013523,0.002678,0.000431,0.220130
3685000,0.0324,0.013523,0.002678,0.000431,0.116823
3686000,0.0324,0.013523,0.002678,0.000431,0.121994
3687000,0.0324,0.013523,0.002678,0.000431,0.081682
3688000,0.0324,0.013523,0.002678,0.000431,0.093670
3689000,0.0324,0.013523,0.002678,0.000431,0.059117
3690000,0.0324,0.013523,0.002678,0.000431,0.120466
3691000,0.0324,0.013523,0.002678,0.000431,0.134922
3692000,0.0324,0.013523,0.002678,0.000431,0.224596
3693000,0.0324,0.013523,0.002678,0.000431,0.185577
3694000,0.0324,0.013523,0.002678,0.000431,0.102720
3695000,0.0324,0.013523,0.002678,0.000431,0.057824
3696000,0.0324,0.013523,0.002678,0.000431,0.222598
3697000,0.0324,0.013523,0.002678,0.000431,0.072867
3698000,0.0324,0.013523,0.002678,0.000431,0.120701
3699000,0.0324,0.013523,0.002678,0.000431,0.092495
3700000,0.0324,0.013523,0.002678,0.000431,0.125520
3701000,0.0324,0.013523,0.002678,0.000431,0.133042
3702000,0.0324,0.013523,0.002678,0.000431,0.055591
3703000,0.0324,0.013523,0.002678,0.000431,0.121877
3704000,0.0324,0.013523,0.002678,0.000431,0.117176
3705000,0.0324,0.013523,0.002678,0.000431,0.232236
3706000,0.0324,0.013523,0.002678,0.000431,0.108479
3707000,0.0324,0.013523,0.002678,0.000431,0.180406
3708000,0.0324,0.013523,0.002678,0.000431,0.108243
3709000,0.0324,0.013523,0.002678,0.000431,0.081212
3710000,0.0324,0.013523,0.002678,0.000431,0.201326
3711000,0.0324,0.013523,0.002678,0.000431,0.180406
3712000,0.0324,0.013523,0.002678,0.000431,0.113885
3713000,0.0324,0.013523,0.002678,0.000431,0.192981
3714000,0.0324,0.013523,0.002678,0.000431,0.192864
3715000,0.0324,0.013523,0.002678,0.000431,0.109771
3716000,0.0324,0.013523,0.002678,0.000431,0.049362
3717000,0.0324,0.013523,0.002678,0.000431,0.273723
3718000,0.0324,0.013523,0.002678,0.000431,0.198505
3719000,0.0324,0.013523,0.002678,0.000431,0.177115
3720000,0.0324,0.013523,0.002678,0.000431,0.087323
3721000,0.0324,0.013523,0.002678,0.000431,0.111652
3722000,0.0324,0.013523,0.002678,0.000431,0.188868
3723000,0.0324,0.013523,0.002678,0.000431,0.121994
3724000,0.0324,0.013523,0.002678,0.000431,0.102955
3725000,0.0324,0.013523,0.002678,0.000431,0.106128
3726000,0.0324,0.013523,0.002678,0.000431,0.213314
3727000,0.0324,0.013523,0.002678,0.000431,0.181464
3728000,0.0324,0.013523,0.002678,0.000431,0.180993
3729000,0.0324,0.013523,0.002678,0.000431,0.134687
3730000,0.0324,0.013523,0.002678,0.000431,0.101074
3731000,0.0324,0.013523,0.002678,0.000431,0.199445
3732000,0.0324,0.013523,0.002678,0.000431,0.236584
3733000,0.0324,0.013523,0.002678,0.000431,0.152787
3734000,0.0324,0.013523,0.002678,0.000431,0.229533
3735000,0.0324,0.013523,0.002678,0.000431,0.049244
3736000,0.0324,0.013523,0.002678,0.000431,0.106716
3737000,0.0324,0.013523,0.002678,0.000431,0.123405
3738000,0.0324,0.013523,0.002678,0.000431,0.078979
3739000,0.0324,0.013523,0.002678,0.000431,0.126813
3740000,0.0324,0.013523,0.002678,0.000431,0.266671
3741000,0.0324,0.013523,0.002678,0.000431,0.138448
3742000,0.0324,0.013523,0.002678,0.000431,0.149026
3743000,0.0324,0.013523,0.002678,0.000431,0.082035
3744000,0.0324,0.013523,0.002678,0.000431,0.131749
3745000,0.0324,0.013523,0.002678,0.000431,0.178408
3746000,0.0324,0.013523,0.002678,0.000431,0.117176
3747000,0.0324,0.013523,0.002678,0.000431,0.204146
3748000,0.0324,0.013523,0.002678,0.000431,0.072045
3749000,0.0324,0.013523,0.002678,0.000431,0.095903
3750000,0.0324,0.013523,0.002678,0.000431,0.316033
3751000,0.0324,0.013523,0.002678,0.000431,0.176527
3752000,0.0324,0.013523,0.002678,0.000431,0.075453
3753000,0.0324,0.013523,0.002678,0.000431,0.061702
3754000,0.0324,0.013523,0.002678,0.000431,0.170651
3755000,0.0324,0.013523,0.002678,0.000431,0.159603
3756000,0.0324,0.013523,0.002678,0.000431,0.134805
3757000,0.0324,0.013523,0.002678,0.000431,0.059822
3758000,0.0324,0.013523,0.002678,0.000431,0.116470
3759000,0.0324,0.013523,0.002678,0.000431,0.287356
3760000,0.0324,0.013523,0.002678,0.000431,0.091437
3761000,0.0324,0.013523,0.002678,0.000431,0.103895
3762000,0.0324,0.013523,0.002678,0.000431,0.131514
3763000,0.0324,0.013523,0.002678,0.000431,0.282538
3764000,0.0324,0.013523,0.002678,0.000431,0.189455
3765000,0.0324,0.013523,0.002678,0.000431,0.166067
3766000,0.0324,0.013523,0.002678,0.000431,0.090262
3767000,0.0324,0.013523,0.002678,0.000431,0.140446
3768000,0.0324,0.013523,0.002678,0.000431,0.199210
3769000,0.0324,0.013523,0.002678,0.000431,0.095785
3770000,0.0324,0.013523,0.002678,0.000431,0.125873
3771000,0.0324,0.013523,0.002678,0.000431,0.050067
3772000,0.0324,0.013523,0.002678,0.000431,0.091672
3773000,0.0324,0.013523,0.002678,0.000431,0.061467
3774000,0.0324,0.013523,0.002678,0.000431,0.139623
3775000,0.0324,0.013523,0.002678,0.000431,0.129869
3776000,0.0324,0.013523,0.002678,0.000431,0.189573
3777000,0.0324,0.013523,0.002678,0.000431,0.147380
3778000,0.0324,0.013523,0.002678,0.000431,0.090497
3779000,0.0324,0.013523,0.002678,0.000431,0.158546
3780000,0.0324,0.013523,0.002678,0.000431,0.136450
3781000,0.0324,0.013523,0.002678,0.000431,0.087911
3782000,0.0324,0.013523,0.002678,0.000431,0.185107
3783000,0.0324,0.013523,0.002678,0.000431,0.102955
3784000,0.0324,0.013523,0.002678,0.000431,0.147850
3785000,0.0324,0.013523,0.002678,0.000431,0.065346
3786000,0.0324,0.013523,0.002678,0.000431,0.182169
3787000,0.0324,0.013523,0.002678,0.000431,0.114472
3788000,0.0324,0.013523,0.002678,0.000431,0.189573
3789000,0.0324,0.013523,0.002678,0.000431,0.119644
3790000,0.0324,0.013523,0.002678,0.000431,0.210728
3791000,0.0324,0.013523,0.002678,0.000431,0.068754
3792000,0.0324,0.013523,0.002678,0.000431,0.156195
3793000,0.0324,0.013523,0.002678,0.000431,0.302518
3794000,0.0324,0.013523,0.002678,0.000431,0.175822
3795000,0.0324,0.013523,0.002678,0.000431,0.097783
3796000,0.0324,0.013523,0.002678,0.000431,0.132337
3797000,0.0324,0.013523,0.002678,0.000431,0.100134
3798000,0.0324,0.013523,0.002678,0.000431,0.076863
3799000,0.0324,0.013523,0.002678,0.000431,0.228122
3800000,0.0324,0.013523,0.002678,0.000431,0.173824
3801000,0.0324,0.013523,0.002678,0.000431,0.115883
3802000,0.0324,0.013523,0.002678,0.000431,0.077216
3803000,0.0324,0.013523,0.002678,0.000431,0.151729
3804000,0.0324,0.013523,0.002678,0.000431,0.129634
3805000,0.0324,0.013523,0.002678,0.000431,0.105423
3806000,0.0324,0.013523,0.002678,0.000431,0.193099
3807000,0.0324,0.013523,0.002678,0.000431,0.201091
3808000,0.0324,0.013523,0.002678,0.000431,0.231883
3809000,0.0324,0.013523,0.002678,0.000431,0.207907
3810000,0.0324,0.013523,0.002678,0.000431,0.067226
3811000,0.0324,0.013523,0.002678,0.000431,0.221423
3812000,0.0324,0.013523,0.002678,0.000431,0.247984
3813000,0.0324,0.013523,0.002678,0.000431,0.226007
3814000,0.0324,0.013523,0.002678,0.000431,0.207202
3815000,0.0324,0.013523,0.002678,0.000431,0.084620
3816000,0.0324,0.013523,0.002678,0.000431,0.071457
3817000,0.0324,0.013523,0.002678,0.000431,0.217780
3818000,0.0324,0.013523,0.002678,0.000431,0.116353
3819000,0.0324,0.013523,0.002678,0.000431,0.141504
3820000,0.0324,0.013523,0.002678,0.000431,0.277837
3821000,0.0324,0.013523,0.002678,0.000431,0.293115
3822000,0.0324,0.013523,0.002678,0.000431,0.123875
3823000,0.0324,0.013523,0.002678,0.000431,0.073925
3824000,0.0324,0.013523,0.002678,0.000431,0.069107
3825000,0.0324,0.013523,0.002678,0.000431,0.155607
3826000,0.0324,0.013523,0.002678,0.000431,0.140564
3827000,0.0324,0.013523,0.002678,0.000431,0.108126
3828000,0.0324,0.013523,0.002678,0.000431,0.172766
3829000,0.0324,0.013523,0.002678,0.000431,0.102720
3830000,0.0324,0.013523,0.002678,0.000431,0.094140
3831000,0.0324,0.013523,0.002678,0.000431,0.151964
3832000,0.0324,0.013523,0.002678,0.000431,0.067931
3833000,0.0324,0.013523,0.002678,0.000431,0.152669
3834000,0.0324,0.013523,0.002678,0.000431,0.116118
3835000,0.0324,0.013523,0.002678,0.000431,0.269022
3836000,0.0324,0.013523,0.002678,0.000431,0.089086
3837000,0.0324,0.013523,0.002678,0.000431,0.064641
3838000,0.0324,0.013523,0.002678,0.000431,0.185930
3839000,0.0324,0.013523,0.002678,0.000431,0.202384
3840000,0.0324,0.013523,0.002678,0.000431,0.176175
3841000,0.0324,0.013523,0.002678,0.000431,0.125285
3842000,0.0324,0.013523,0.002678,0.000431,0.087088
3843000,0.0324,0.013523,0.002678,0.000431,0.182639
3844000,0.0324,0.013523,0.002678,0.000431,0.183697
3845000,0.0324,0.013523,0.002678,0.000431,0.159368
3846000,0.0324,0.013523,0.002678,0.000431,0.167948
3847000,0.0324,0.013523,0.002678,0.000431,0.094845
3848000,0.0324,0.013523,0.002678,0.000431,0.066756
3849000,0.0324,0.013523,0.002678,0.000431,0.066638
3850000,0.0324,0.013523,0.002678,0.000431,0.151611
3851000,0.0324,0.013523,0.002678,0.000431,0.241755
3852000,0.0324,0.013523,0.002678,0.000431,0.144442
3853000,0.0324,0.013523,0.002678,0.000431,0.132807
3854000,0.0324,0.013523,0.002678,0.000431,0.267847
3855000,0.0324,0.013523,0.002678,0.000431,0.084268
3856000,0.0324,0.013523,0.002678,0.000431,0.117411
3857000,0.0324,0.013523,0.002678,0.000431,0.227182
3858000,0.0324,0.013523,0.002678,0.000431,0.158193
3859000,0.0324,0.013523,0.002678,0.000431,0.127283
3860000,0.0324,0.013523,0.002678,0.000431,0.096726
3861000,0.0324,0.013523,0.002678,0.000431,0.247749
3862000,0.0324,0.013523,0.002678,0.000431,0.042545
3863000,0.0324,0.013523,0.002678,0.000431,0.148203
3864000,0.0324,0.013523,0.002678,0.000431,0.148203
3865000,0.0324,0.013523,0.002678,0.000431,0.111417
3866000,0.0324,0.013523,0.002678,0.000431,0.084855
3867000,0.0324,0.013523,0.002678,0.000431,0.210258
3868000,0.0324,0.013523,0.002678,0.000431,0.087794
3869000,0.0324,0.013523,0.002678,0.000431,0.057589
3870000,0.0324,0.013523,0.002678,0.000431,0.144677
3871000,0.0324,0.013523,0.002678,0.000431,0.121642
3872000,0.0324,0.013523,0.002678,0.000431,0.107773
3873000,0.0324,0.013523,0.002678,0.000431,0.137978
3874000,0.0324,0.013523,0.002678,0.000431,0.303928
3875000,0.0324,0.013523,0.002678,0.000431,0.119761
3876000,0.0324,0.013523,0.002678,0.000431,0.157840
3877000,0.0324,0.013523,0.002678,0.000431,0.150554
3878000,0.0324,0.013523,0.002678,0.000431,0.043956
3879000,0.0324,0.013523,0.002678,0.000431,0.191806
3880000,0.0324,0.013523,0.002678,0.000431,0.110594
3881000,0.0324,0.013523,0.002678,0.000431,0.191101
3882000,0.0324,0.013523,0.002678,0.000431,0.122112
3883000,0.0324,0.013523,0.002678,0.000431,0.165715
3884000,0.0324,0.013523,0.002678,0.000431,0.264673
3885000,0.0324,0.013523,0.002678,0.000431,0.215782
3886000,0.0324,0.013523,0.002678,0.000431,0.129281
3887000,0.0324,0.013523,0.002678,0.000431,0.068989
3888000,0.0324,0.013523,0.002678,0.000431,0.054651
3889000,0.0324,0.013523,0.002678,0.000431,0.161719
3890000,0.0324,0.013523,0.002678,0.000431,0.113767
3891000,0.0324,0.013523,0.002678,0.000431,0.130221
3892000,0.0324,0.013523,0.002678,0.000431,0.143032
3893000,0.0324,0.013523,0.002678,0.000431,0.225654
3894000,0.0324,0.013523,0.002678,0.000431,0.071575
3895000,0.0324,0.013523,0.002678,0.000431,0.150319
3896000,0.0324,0.013523,0.002678,0.000431,0.338364
3897000,0.0324,0.013523,0.002678,0.000431,0.195567
3898000,0.0324,0.013523,0.002678,0.000431,0.184989
3899000,0.0324,0.013523,0.002678,0.000431,0.191924
3900000,0.0324,0.013523,0.002678,0.000431,0.165597
3901000,0.0324,0.013523,0.002678,0.000431,0.057941
3902000,0.0324,0.013523,0.002678,0.000431,0.149261
3903000,0.0324,0.013523,0.002678,0.000431,0.249512
3904000,0.0324,0.013523,0.002678,0.000431,0.344005
3905000,0.0324,0.013523,0.002678,0.000431,0.188515
3906000,0.0324,0.013523,0.002678,0.000431,0.185695
3907000,0.0324,0.013523,0.002678,0.000431,0.042075
3908000,0.0324,0.013523,0.002678,0.000431,0.111887
3909000,0.0324,0.013523,0.002678,0.000431,0.125520
3910000,0.0324,0.013523,0.002678,0.000431,0.251040
3911000,0.0324,0.013523,0.002678,0.000431,0.107891
3912000,0.0324,0.013523,0.002678,0.000431,0.100016
3913000,0.0324,0.013523,0.002678,0.000431,0.168065
3914000,0.0324,0.013523,0.002678,0.000431,0.135745
3915000,0.0324,0.013523,0.002678,0.000431,0.084973
3916000,0.0324,0.013523,0.002678,0.000431,0.163482
3917000,0.0324,0.013523,0.002678,0.000431,0.297581
3918000,0.0324,0.013523,0.002678,0.000431,0.223304
3919000,0.0324,0.013523,0.002678,0.000431,0.184989
3920000,0.0324,0.013523,0.002678,0.000431,0.070869
3921000,0.0324,0.013523,0.002678,0.000431,0.201913
3922000,0.0324,0.013523,0.002678,0.000431,0.050302
3923000,0.0324,0.013523,0.002678,0.000431,0.079332
3924000,0.0324,0.013523,0.002678,0.000431,0.133865
3925000,0.0324,0.013523,0.002678,0.000431,0.137038
3926000,0.0324,0.013523,0.002678,0.000431,0.136098
3927000,0.0324,0.013523,0.002678,0.000431,0.149731
3928000,0.0324,0.013523,0.002678,0.000431,0.180758
3929000,0.0324,0.013523,0.002678,0.000431,0.076393
3930000,0.0324,0.013523,0.002678,0.000431,0.109889
3931000,0.0324,0.013523,0.002678,0.000431,0.203794
3932000,0.0324,0.013523,0.002678,0.000431,0.216722
3933000,0.0324,0.013523,0.002678,0.000431,0.052770
3934000,0.0324,0.013523,0.002678,0.000431,0.103895
3935000,0.0324,0.013523,0.002678,0.000431,0.340832
3936000,0.0324,0.013523,0.002678,0.000431,0.097901
3937000,0.0324,0.013523,0.002678,0.000431,0.069224
3938000,0.0324,0.013523,0.002678,0.000431,0.102250
3939000,0.0324,0.013523,0.002678,0.000431,0.106716
3940000,0.0324,0.013523,0.002678,0.000431,0.102955
3941000,0.0324,0.013523,0.002678,0.000431,0.140446
3942000,0.0324,0.013523,0.002678,0.000431,0.210493
3943000,0.0324,0.013523,0.002678,0.000431,0.207085
3944000,0.0324,0.013523,0.002678,0.000431,0.189338
3945000,0.0324,0.013523,0.002678,0.000431,0.307454
3946000,0.0324,0.013523,0.002678,0.000431,0.112239
3947000,0.0324,0.013523,0.002678,0.000431,0.363867
3948000,0.0324,0.013523,0.002678,0.000431,0.169241
3949000,0.0324,0.013523,0.002678,0.000431,0.292058
3950000,0.0324,0.013523,0.002678,0.000431,0.291352
3951000,0.0324,0.013523,0.002678,0.000431,0.181934
3952000,0.0324,0.013523,0.002678,0.000431,0.091437
3953000,0.0324,0.013523,0.002678,0.000431,0.177703
3954000,0.0324,0.013523,0.002678,0.000431,0.223186
3955000,0.0324,0.013523,0.002678,0.000431,0.249042
3956000,0.0324,0.013523,0.002678,0.000431,0.300990
3957000,0.0324,0.013523,0.002678,0.000431,0.194627
3958000,0.0324,0.013523,0.002678,0.000431,0.184402
3959000,0.0324,0.013523,0.002678,0.000431,0.117646
3960000,0.0324,0.013523,0.002678,0.000431,0.065933
3961000,0.0324,0.013523,0.002678,0.000431,0.217310
3962000,0.0324,0.013523,0.002678,0.000431,0.100839
3963000,0.0324,0.013523,0.002678,0.000431,0.112239
3964000,0.0324,0.013523,0.002678,0.000431,0.302047
3965000,0.0324,0.013523,0.002678,0.000431,0.113767
3966000,0.0324,0.013523,0.002678,0.000431,0.142797
3967000,0.0324,0.013523,0.002678,0.000431,0.093082
3968000,0.0324,0.013523,0.002678,0.000431,0.137390
3969000,0.0324,0.013523,0.002678,0.000431,0.117528
3970000,0.0324,0.013523,0.002678,0.000431,0.101544
3971000,0.0324,0.013523,0.002678,0.000431,0.190278
3972000,0.0324,0.013523,0.002678,0.000431,0.149378
3973000,0.0324,0.013523,0.002678,0.000431,0.191806
3974000,0.0324,0.013523,0.002678,0.000431,0.089086
3975000,0.0324,0.013523,0.002678,0.000431,0.134217
3976000,0.0324,0.013523,0.002678,0.000431,0.244576
3977000,0.0324,0.013523,0.002678,0.000431,0.132102
3978000,0.0324,0.013523,0.002678,0.000431,0.066286
3979000,0.0324,0.013523,0.002678,0.000431,0.163247
3980000,0.0324,0.013523,0.002678,0.000431,0.203089
3981000,0.0324,0.013523,0.002678,0.000431,0.102955
3982000,0.0324,0.013523,0.002678,0.000431,0.144090
3983000,0.0324,0.013523,0.002678,0.000431,0.211316
3984000,0.0324,0.013523,0.002678,0.000431,0.098959
3985000,0.0324,0.013523,0.002678,0.000431,0.152317
3986000,0.0324,0.013523,0.002678,0.000431,0.222598
3987000,0.0324,0.013523,0.002678,0.000431,0.266789
3988000,0.0324,0.013523,0.002678,0.000431,0.084385
3989000,0.0324,0.013523,0.002678,0.000431,0.144325
3990000,0.0324,0.013523,0.002678,0.000431,0.084385
3991000,0.0324,0.013523,0.002678,0.000431,0.069577
3992000,0.0324,0.013523,0.002678,0.000431,0.340009
3993000,0.0324,0.013523,0.002678,0.000431,0.243636
3994000,0.0324,0.013523,0.002678,0.000431,0.201678
3995000,0.0324,0.013523,0.002678,0.000431,0.170181
3996000,0.0324,0.013523,0.002678,0.000431,0.219425
3997000,0.0324,0.013523,0.002678,0.000431,0.167243
3998000,0.0324,0.013523,0.002678,0.000431,0.117998
3999000,0.0324,0.013523,0.002678,0.000431,0.102955
