Cycle,Area(mm^2),PeakDynamic(W),SubthresholdLeakage(W),GateLeakage(W),RunTimeDynamic(W)
7000000,0.0324,0.013523,0.002678,0.000431,1.097831
7001000,0.0324,0.013523,0.002678,0.000431,1.008274
7002000,0.0324,0.013523,0.002678,0.000431,1.039067
7003000,0.0324,0.013523,0.002678,0.000431,1.006159
7004000,0.0324,0.013523,0.002678,0.000431,0.910961
7005000,0.0324,0.013523,0.002678,0.000431,0.920598
7006000,0.0324,0.013523,0.002678,0.000431,0.894507
7007000,0.0324,0.013523,0.002678,0.000431,1.002515
7008000,0.0324,0.013523,0.002678,0.000431,0.958207
7009000,0.0324,0.013523,0.002678,0.000431,0.878758
7010000,0.0324,0.013523,0.002678,0.000431,0.922479
7011000,0.0324,0.013523,0.002678,0.000431,0.850904
7012000,0.0324,0.013523,0.002678,0.000431,0.927532
7013000,0.0324,0.013523,0.002678,0.000431,0.969608
7014000,0.0324,0.013523,0.002678,0.000431,1.021202
7015000,0.0324,0.013523,0.002678,0.000431,1.012388
7016000,0.0324,0.013523,0.002678,0.000431,1.030370
7017000,0.0324,0.013523,0.002678,0.000431,1.049174
7018000,0.0324,0.013523,0.002678,0.000431,0.990998
7019000,0.0324,0.013523,0.002678,0.000431,1.001105
7020000,0.0324,0.013523,0.002678,0.000431,1.056578
7021000,0.0324,0.013523,0.002678,0.000431,1.007334
7022000,0.0324,0.013523,0.002678,0.000431,1.059399
7023000,0.0324,0.013523,0.002678,0.000431,1.160356
7024000,0.0324,0.013523,0.002678,0.000431,1.263428
7025000,0.0324,0.013523,0.002678,0.000431,1.157535
7026000,0.0324,0.013523,0.002678,0.000431,1.063042
7027000,0.0324,0.013523,0.002678,0.000431,1.156712
7028000,0.0324,0.013523,0.002678,0.000431,1.207249
7029000,0.0324,0.013523,0.002678,0.000431,1.111111
7030000,0.0324,0.013523,0.002678,0.000431,1.165762
7031000,0.0324,0.013523,0.002678,0.000431,1.081024
7032000,0.0324,0.013523,0.002678,0.000431,1.205604
7033000,0.0324,0.013523,0.002678,0.000431,1.128035
7034000,0.0324,0.013523,0.002678,0.000431,1.139906
7035000,0.0324,0.013523,0.002678,0.000431,1.086666
7036000,0.0324,0.013523,0.002678,0.000431,1.144842
7037000,0.0324,0.013523,0.002678,0.000431,1.006041
7038000,0.0324,0.013523,0.002678,0.000431,1.040830
7039000,0.0324,0.013523,0.002678,0.000431,1.113344
7040000,0.0324,0.013523,0.002678,0.000431,1.161413
7041000,0.0324,0.013523,0.002678,0.000431,1.176457
7042000,0.0324,0.013523,0.002678,0.000431,1.004513
7043000,0.0324,0.013523,0.002678,0.000431,1.075383
7044000,0.0324,0.013523,0.002678,0.000431,1.080319
7045000,0.0324,0.013523,0.002678,0.000431,1.101004
7046000,0.0324,0.013523,0.002678,0.000431,1.159651
7047000,0.0324,0.013523,0.002678,0.000431,1.117693
7048000,0.0324,0.013523,0.002678,0.000431,1.125802
7049000,0.0324,0.013523,0.002678,0.000431,1.080437
7050000,0.0324,0.013523,0.002678,0.000431,1.099711
7051000,0.0324,0.013523,0.002678,0.000431,1.092895
7052000,0.0324,0.013523,0.002678,0.000431,1.028959
7053000,0.0324,0.013523,0.002678,0.000431,1.143549
7054000,0.0324,0.013523,0.002678,0.000431,1.016854
7055000,0.0324,0.013523,0.002678,0.000431,1.031545
7056000,0.0324,0.013523,0.002678,0.000431,1.119573
7057000,0.0324,0.013523,0.002678,0.000431,1.072915
7058000,0.0324,0.013523,0.002678,0.000431,1.007804
7059000,0.0324,0.013523,0.002678,0.000431,1.035893
7060000,0.0324,0.013523,0.002678,0.000431,1.094540
7061000,0.0324,0.013523,0.002678,0.000431,1.101474
7062000,0.0324,0.013523,0.002678,0.000431,1.032838
7063000,0.0324,0.013523,0.002678,0.000431,1.085843
7064000,0.0324,0.013523,0.002678,0.000431,1.036716
7065000,0.0324,0.013523,0.002678,0.000431,1.038832
7066000,0.0324,0.013523,0.002678,0.000431,0.987237
7067000,0.0324,0.013523,0.002678,0.000431,1.026139
7068000,0.0324,0.013523,0.002678,0.000431,1.040359
7069000,0.0324,0.013523,0.002678,0.000431,1.005219
7070000,0.0324,0.013523,0.002678,0.000431,0.921421
7071000,0.0324,0.013523,0.002678,0.000431,1.228170
7072000,0.0324,0.013523,0.002678,0.000431,1.010272
7073000,0.0324,0.013523,0.002678,0.000431,1.083492
7074000,0.0324,0.013523,0.002678,0.000431,0.943986
7075000,0.0324,0.013523,0.002678,0.000431,0.937287
7076000,0.0324,0.013523,0.002678,0.000431,1.096891
7077000,0.0324,0.013523,0.002678,0.000431,1.046588
7078000,0.0324,0.013523,0.002678,0.000431,1.138260
7079000,0.0324,0.013523,0.002678,0.000431,1.050232
7080000,0.0324,0.013523,0.002678,0.000431,1.104060
7081000,0.0324,0.013523,0.002678,0.000431,1.144254
7082000,0.0324,0.013523,0.002678,0.000431,1.244271
7083000,0.0324,0.013523,0.002678,0.000431,1.219237
7084000,0.0324,0.013523,0.002678,0.000431,1.226642
7085000,0.0324,0.013523,0.002678,0.000431,1.168348
7086000,0.0324,0.013523,0.002678,0.000431,1.201256
7087000,0.0324,0.013523,0.002678,0.000431,1.078086
7088000,0.0324,0.013523,0.002678,0.000431,1.188210
7089000,0.0324,0.013523,0.002678,0.000431,1.112757
7090000,0.0324,0.013523,0.002678,0.000431,1.120396
7091000,0.0324,0.013523,0.002678,0.000431,1.103355
7092000,0.0324,0.013523,0.002678,0.000431,1.167995
7093000,0.0324,0.013523,0.002678,0.000431,1.247679
7094000,0.0324,0.013523,0.002678,0.000431,1.285993
7095000,0.0324,0.013523,0.002678,0.000431,1.196789
7096000,0.0324,0.013523,0.002678,0.000431,1.157418
7097000,0.0324,0.013523,0.002678,0.000431,1.243448
7098000,0.0324,0.013523,0.002678,0.000431,1.148838
7099000,0.0324,0.013523,0.002678,0.000431,1.177045
7100000,0.0324,0.013523,0.002678,0.000431,1.074325
7101000,0.0324,0.013523,0.002678,0.000431,1.026844
7102000,0.0324,0.013523,0.002678,0.000431,1.096420
7103000,0.0324,0.013523,0.002678,0.000431,1.136850
7104000,0.0324,0.013523,0.002678,0.000431,1.052935
7105000,0.0324,0.013523,0.002678,0.000431,1.084903
7106000,0.0324,0.013523,0.002678,0.000431,1.098536
7107000,0.0324,0.013523,0.002678,0.000431,0.985121
7108000,0.0324,0.013523,0.002678,0.000431,1.037421
7109000,0.0324,0.013523,0.002678,0.000431,1.059046
7110000,0.0324,0.013523,0.002678,0.000431,0.980068
7111000,0.0324,0.013523,0.002678,0.000431,0.963966
7112000,0.0324,0.013523,0.002678,0.000431,0.999225
7113000,0.0324,0.013523,0.002678,0.000431,1.003573
7114000,0.0324,0.013523,0.002678,0.000431,0.989705
7115000,0.0324,0.013523,0.002678,0.000431,0.993936
7116000,0.0324,0.013523,0.002678,0.000431,0.958325
7117000,0.0324,0.013523,0.002678,0.000431,0.986061
7118000,0.0324,0.013523,0.002678,0.000431,1.006864
7119000,0.0324,0.013523,0.002678,0.000431,0.896975
7120000,0.0324,0.013523,0.002678,0.000431,0.937170
7121000,0.0324,0.013523,0.002678,0.000431,0.776039
7122000,0.0324,0.013523,0.002678,0.000431,0.877936
7123000,0.0324,0.013523,0.002678,0.000431,0.754648
7124000,0.0324,0.013523,0.002678,0.000431,0.673672
7125000,0.0324,0.013523,0.002678,0.000431,0.590932
7126000,0.0324,0.013523,0.002678,0.000431,0.593400
7127000,0.0324,0.013523,0.002678,0.000431,0.661801
7128000,0.0324,0.013523,0.002678,0.000431,0.641586
7129000,0.0324,0.013523,0.002678,0.000431,0.628776
7130000,0.0324,0.013523,0.002678,0.000431,0.562372
7131000,0.0324,0.013523,0.002678,0.000431,0.457655
7132000,0.0324,0.013523,0.002678,0.000431,0.447900
7133000,0.0324,0.013523,0.002678,0.000431,0.603390
7134000,0.0324,0.013523,0.002678,0.000431,0.781562
7135000,0.0324,0.013523,0.002678,0.000431,0.760760
7136000,0.0324,0.013523,0.002678,0.000431,0.721153
7137000,0.0324,0.013523,0.002678,0.000431,0.705404
7138000,0.0324,0.013523,0.002678,0.000431,0.801895
7139000,0.0324,0.013523,0.002678,0.000431,0.779917
7140000,0.0324,0.013523,0.002678,0.000431,0.925417
7141000,0.0324,0.013523,0.002678,0.000431,0.933879
7142000,0.0324,0.013523,0.002678,0.000431,0.932939
7143000,0.0324,0.013523,0.002678,0.000431,1.008274
7144000,0.0324,0.013523,0.002678,0.000431,1.144842
7145000,0.0324,0.013523,0.002678,0.000431,0.909080
7146000,0.0324,0.013523,0.002678,0.000431,0.988647
7147000,0.0324,0.013523,0.002678,0.000431,1.194086
7148000,0.0324,0.013523,0.002678,0.000431,1.169758
7149000,0.0324,0.013523,0.002678,0.000431,0.935407
7150000,0.0324,0.013523,0.002678,0.000431,1.026139
7151000,0.0324,0.013523,0.002678,0.000431,0.993818
7152000,0.0324,0.013523,0.002678,0.000431,1.166350
7153000,0.0324,0.013523,0.002678,0.000431,1.199845
7154000,0.0324,0.013523,0.002678,0.000431,1.016384
7155000,0.0324,0.013523,0.002678,0.000431,1.072092
7156000,0.0324,0.013523,0.002678,0.000431,1.172226
7157000,0.0324,0.013523,0.002678,0.000431,1.244271
7158000,0.0324,0.013523,0.002678,0.000431,1.113344
7159000,0.0324,0.013523,0.002678,0.000431,1.250382
7160000,0.0324,0.013523,0.002678,0.000431,1.146252
7161000,0.0324,0.013523,0.002678,0.000431,1.219943
7162000,0.0324,0.013523,0.002678,0.000431,1.098653
7163000,0.0324,0.013523,0.002678,0.000431,1.054345
7164000,0.0324,0.013523,0.002678,0.000431,1.168348
7165000,0.0324,0.013523,0.002678,0.000431,1.181276
7166000,0.0324,0.013523,0.002678,0.000431,1.150366
7167000,0.0324,0.013523,0.002678,0.000431,1.080554
7168000,0.0324,0.013523,0.002678,0.000431,1.229462
7169000,0.0324,0.013523,0.002678,0.000431,1.173519
7170000,0.0324,0.013523,0.002678,0.000431,1.166702
7171000,0.0324,0.013523,0.002678,0.000431,1.213596
7172000,0.0324,0.013523,0.002678,0.000431,1.126390
7173000,0.0324,0.013523,0.002678,0.000431,1.183156
7174000,0.0324,0.013523,0.002678,0.000431,1.256141
7175000,0.0324,0.013523,0.002678,0.000431,1.172931
7176000,0.0324,0.013523,0.002678,0.000431,1.215241
7177000,0.0324,0.013523,0.002678,0.000431,1.106998
7178000,0.0324,0.013523,0.002678,0.000431,1.123334
7179000,0.0324,0.013523,0.002678,0.000431,1.225584
7180000,0.0324,0.013523,0.002678,0.000431,1.263075
7181000,0.0324,0.013523,0.002678,0.000431,1.123099
7182000,0.0324,0.013523,0.002678,0.000431,1.181393
7183000,0.0324,0.013523,0.002678,0.000431,0.992643
7184000,0.0324,0.013523,0.002678,0.000431,1.006981
7185000,0.0324,0.013523,0.002678,0.000431,1.078909
7186000,0.0324,0.013523,0.002678,0.000431,1.048116
7187000,0.0324,0.013523,0.002678,0.000431,0.997227
7188000,0.0324,0.013523,0.002678,0.000431,1.047411
7189000,0.0324,0.013523,0.002678,0.000431,0.973839
7190000,0.0324,0.013523,0.002678,0.000431,1.054463
7191000,0.0324,0.013523,0.002678,0.000431,0.945749
7192000,0.0324,0.013523,0.002678,0.000431,0.931528
7193000,0.0324,0.013523,0.002678,0.000431,0.854077
7194000,0.0324,0.013523,0.002678,0.000431,0.966082
7195000,0.0324,0.013523,0.002678,0.000431,0.936347
7196000,0.0324,0.013523,0.002678,0.000431,1.031780
7197000,0.0324,0.013523,0.002678,0.000431,1.042945
7198000,0.0324,0.013523,0.002678,0.000431,0.898738
7199000,0.0324,0.013523,0.002678,0.000431,0.977599
7200000,0.0324,0.013523,0.002678,0.000431,0.951978
7201000,0.0324,0.013523,0.002678,0.000431,0.969725
7202000,0.0324,0.013523,0.002678,0.000431,0.907553
7203000,0.0324,0.013523,0.002678,0.000431,0.982065
7204000,0.0324,0.013523,0.002678,0.000431,0.893449
7205000,0.0324,0.013523,0.002678,0.000431,0.807419
7206000,0.0324,0.013523,0.002678,0.000431,0.994523
7207000,0.0324,0.013523,0.002678,0.000431,0.987589
7208000,0.0324,0.013523,0.002678,0.000431,1.071622
7209000,0.0324,0.013523,0.002678,0.000431,0.970900
7210000,0.0324,0.013523,0.002678,0.000431,1.006629
7211000,0.0324,0.013523,0.002678,0.000431,0.971723
7212000,0.0324,0.013523,0.002678,0.000431,1.020262
7213000,0.0324,0.013523,0.002678,0.000431,1.047999
7214000,0.0324,0.013523,0.002678,0.000431,0.963143
7215000,0.0324,0.013523,0.002678,0.000431,1.047529
7216000,0.0324,0.013523,0.002678,0.000431,1.014268
7217000,0.0324,0.013523,0.002678,0.000431,1.061632
7218000,0.0324,0.013523,0.002678,0.000431,1.006394
7219000,0.0324,0.013523,0.002678,0.000431,1.045296
7220000,0.0324,0.013523,0.002678,0.000431,1.052112
7221000,0.0324,0.013523,0.002678,0.000431,1.003338
7222000,0.0324,0.013523,0.002678,0.000431,1.058694
7223000,0.0324,0.013523,0.002678,0.000431,0.936700
7224000,0.0324,0.013523,0.002678,0.000431,0.979832
7225000,0.0324,0.013523,0.002678,0.000431,0.961028
7226000,0.0324,0.013523,0.002678,0.000431,0.951978
7227000,0.0324,0.013523,0.002678,0.000431,0.835038
7228000,0.0324,0.013523,0.002678,0.000431,0.790965
7229000,0.0324,0.013523,0.002678,0.000431,0.707520
7230000,0.0324,0.013523,0.002678,0.000431,0.701291
7231000,0.0324,0.013523,0.002678,0.000431,0.701408
7232000,0.0324,0.013523,0.002678,0.000431,0.694592
7233000,0.0324,0.013523,0.002678,0.000431,0.626543
7234000,0.0324,0.013523,0.002678,0.000431,0.507134
7235000,0.0324,0.013523,0.002678,0.000431,0.474814
7236000,0.0324,0.013523,0.002678,0.000431,0.757587
7237000,0.0324,0.013523,0.002678,0.000431,0.816351
7238000,0.0324,0.013523,0.002678,0.000431,0.655102
7239000,0.0324,0.013523,0.002678,0.000431,0.549797
7240000,0.0324,0.013523,0.002678,0.000431,0.589756
7241000,0.0324,0.013523,0.002678,0.000431,0.558847
7242000,0.0324,0.013523,0.002678,0.000431,0.710693
7243000,0.0324,0.013523,0.002678,0.000431,0.656042
7244000,0.0324,0.013523,0.002678,0.000431,0.562960
7245000,0.0324,0.013523,0.002678,0.000431,0.790495
7246000,0.0324,0.013523,0.002678,0.000431,0.977364
7247000,0.0324,0.013523,0.002678,0.000431,0.843382
7248000,0.0324,0.013523,0.002678,0.000431,0.947395
7249000,0.0324,0.013523,0.002678,0.000431,0.896858
7250000,0.0324,0.013523,0.002678,0.000431,1.030487
7251000,0.0324,0.013523,0.002678,0.000431,1.013798
7252000,0.0324,0.013523,0.002678,0.000431,0.992996
7253000,0.0324,0.013523,0.002678,0.000431,1.082552
7254000,0.0324,0.013523,0.002678,0.000431,1.162354
7255000,0.0324,0.013523,0.002678,0.000431,0.968785
7256000,0.0324,0.013523,0.002678,0.000431,1.153892
7257000,0.0324,0.013523,0.002678,0.000431,1.074325
7258000,0.0324,0.013523,0.002678,0.000431,1.108408
7259000,0.0324,0.013523,0.002678,0.000431,1.067508
7260000,0.0324,0.013523,0.002678,0.000431,0.986297
7261000,0.0324,0.013523,0.002678,0.000431,1.177867
7262000,0.0324,0.013523,0.002678,0.000431,1.012975
7263000,0.0324,0.013523,0.002678,0.000431,1.055991
7264000,0.0324,0.013523,0.002678,0.000431,1.056343
7265000,0.0324,0.013523,0.002678,0.000431,1.023200
7266000,0.0324,0.013523,0.002678,0.000431,0.990645
7267000,0.0324,0.013523,0.002678,0.000431,1.042122
7268000,0.0324,0.013523,0.002678,0.000431,1.077028
7269000,0.0324,0.013523,0.002678,0.000431,0.984651
7270000,0.0324,0.013523,0.002678,0.000431,1.088546
7271000,0.0324,0.013523,0.002678,0.000431,1.046236
7272000,0.0324,0.013523,0.002678,0.000431,1.060692
7273000,0.0324,0.013523,0.002678,0.000431,1.012740
7274000,0.0324,0.013523,0.002678,0.000431,1.016501
7275000,0.0324,0.013523,0.002678,0.000431,1.054463
7276000,0.0324,0.013523,0.002678,0.000431,0.952566
7277000,0.0324,0.013523,0.002678,0.000431,0.935524
7278000,0.0324,0.013523,0.002678,0.000431,0.888043
7279000,0.0324,0.013523,0.002678,0.000431,0.936935
7280000,0.0324,0.013523,0.002678,0.000431,0.933879
7281000,0.0324,0.013523,0.002678,0.000431,0.870296
7282000,0.0324,0.013523,0.002678,0.000431,0.760760
7283000,0.0324,0.013523,0.002678,0.000431,0.642174
7284000,0.0324,0.013523,0.002678,0.000431,0.726559
7285000,0.0324,0.013523,0.002678,0.000431,0.660038
7286000,0.0324,0.013523,0.002678,0.000431,0.592342
7287000,0.0324,0.013523,0.002678,0.000431,0.535223
7288000,0.0324,0.013523,0.002678,0.000431,0.528407
7289000,0.0324,0.013523,0.002678,0.000431,0.653809
7290000,0.0324,0.013523,0.002678,0.000431,0.694474
7291000,0.0324,0.013523,0.002678,0.000431,0.715277
7292000,0.0324,0.013523,0.002678,0.000431,0.594105
7293000,0.0324,0.013523,0.002678,0.000431,0.460240
7294000,0.0324,0.013523,0.002678,0.000431,0.461533
7295000,0.0324,0.013523,0.002678,0.000431,0.476224
7296000,0.0324,0.013523,0.002678,0.000431,0.465177
7297000,0.0324,0.013523,0.002678,0.000431,0.561080
7298000,0.0324,0.013523,0.002678,0.000431,0.663447
7299000,0.0324,0.013523,0.002678,0.000431,0.647228
7300000,0.0324,0.013523,0.002678,0.000431,0.591754
7301000,0.0324,0.013523,0.002678,0.000431,0.478222
7302000,0.0324,0.013523,0.002678,0.000431,0.524293
7303000,0.0324,0.013523,0.002678,0.000431,0.724796
7304000,0.0324,0.013523,0.002678,0.000431,0.705052
7305000,0.0324,0.013523,0.002678,0.000431,0.621607
7306000,0.0324,0.013523,0.002678,0.000431,0.596691
7307000,0.0324,0.013523,0.002678,0.000431,0.615025
7308000,0.0324,0.013523,0.002678,0.000431,0.568131
7309000,0.0324,0.013523,0.002678,0.000431,0.513363
7310000,0.0324,0.013523,0.002678,0.000431,0.587993
7311000,0.0324,0.013523,0.002678,0.000431,0.660626
7312000,0.0324,0.013523,0.002678,0.000431,0.853725
7313000,0.0324,0.013523,0.002678,0.000431,0.862539
7314000,0.0324,0.013523,0.002678,0.000431,0.735609
7315000,0.0324,0.013523,0.002678,0.000431,0.808124
7316000,0.0324,0.013523,0.002678,0.000431,0.939050
7317000,0.0324,0.013523,0.002678,0.000431,1.018147
7318000,0.0324,0.013523,0.002678,0.000431,0.961851
7319000,0.0324,0.013523,0.002678,0.000431,0.968667
7320000,0.0324,0.013523,0.002678,0.000431,1.025668
7321000,0.0324,0.013523,0.002678,0.000431,1.115930
7322000,0.0324,0.013523,0.002678,0.000431,0.987002
7323000,0.0324,0.013523,0.002678,0.000431,0.997579
7324000,0.0324,0.013523,0.002678,0.000431,1.075618
7325000,0.0324,0.013523,0.002678,0.000431,1.152834
7326000,0.0324,0.013523,0.002678,0.000431,0.968432
7327000,0.0324,0.013523,0.002678,0.000431,1.067273
7328000,0.0324,0.013523,0.002678,0.000431,1.122042
7329000,0.0324,0.013523,0.002678,0.000431,1.254261
7330000,0.0324,0.013523,0.002678,0.000431,1.188563
7331000,0.0324,0.013523,0.002678,0.000431,1.143314
7332000,0.0324,0.013523,0.002678,0.000431,1.088428
7333000,0.0324,0.013523,0.002678,0.000431,1.162471
7334000,0.0324,0.013523,0.002678,0.000431,1.160121
7335000,0.0324,0.013523,0.002678,0.000431,1.124040
7336000,0.0324,0.013523,0.002678,0.000431,1.221235
7337000,0.0324,0.013523,0.002678,0.000431,1.084668
7338000,0.0324,0.013523,0.002678,0.000431,1.194556
7339000,0.0324,0.013523,0.002678,0.000431,1.288932
7340000,0.0324,0.013523,0.002678,0.000431,1.111817
7341000,0.0324,0.013523,0.002678,0.000431,1.157888
7342000,0.0324,0.013523,0.002678,0.000431,1.064335
7343000,0.0324,0.013523,0.002678,0.000431,1.140258
7344000,0.0324,0.013523,0.002678,0.000431,1.180218
7345000,0.0324,0.013523,0.002678,0.000431,1.129446
7346000,0.0324,0.013523,0.002678,0.000431,1.291870
7347000,0.0324,0.013523,0.002678,0.000431,1.167525
7348000,0.0324,0.013523,0.002678,0.000431,1.073032
7349000,0.0324,0.013523,0.002678,0.000431,1.166350
7350000,0.0324,0.013523,0.002678,0.000431,1.148485
7351000,0.0324,0.013523,0.002678,0.000431,1.121571
7352000,0.0324,0.013523,0.002678,0.000431,1.031545
7353000,0.0324,0.013523,0.002678,0.000431,1.077733
7354000,0.0324,0.013523,0.002678,0.000431,1.001928
7355000,0.0324,0.013523,0.002678,0.000431,0.978657
7356000,0.0324,0.013523,0.002678,0.000431,0.971253
7357000,0.0324,0.013523,0.002678,0.000431,1.024258
7358000,0.0324,0.013523,0.002678,0.000431,0.967492
7359000,0.0324,0.013523,0.002678,0.000431,1.026021
7360000,0.0324,0.013523,0.002678,0.000431,1.041535
7361000,0.0324,0.013523,0.002678,0.000431,0.960205
7362000,0.0324,0.013523,0.002678,0.000431,1.009450
7363000,0.0324,0.013523,0.002678,0.000431,0.961498
7364000,0.0324,0.013523,0.002678,0.000431,1.039419
7365000,0.0324,0.013523,0.002678,0.000431,1.125802
7366000,0.0324,0.013523,0.002678,0.000431,1.055991
7367000,0.0324,0.013523,0.002678,0.000431,1.048821
7368000,0.0324,0.013523,0.002678,0.000431,1.043415
7369000,0.0324,0.013523,0.002678,0.000431,0.984534
7370000,0.0324,0.013523,0.002678,0.000431,0.984886
7371000,0.0324,0.013523,0.002678,0.000431,1.069036
7372000,0.0324,0.013523,0.002678,0.000431,1.002398
7373000,0.0324,0.013523,0.002678,0.000431,1.165174
7374000,0.0324,0.013523,0.002678,0.000431,1.013798
7375000,0.0324,0.013523,0.002678,0.000431,1.052582
7376000,0.0324,0.013523,0.002678,0.000431,0.961968
7377000,0.0324,0.013523,0.002678,0.000431,1.035658
7378000,0.0324,0.013523,0.002678,0.000431,1.080672
7379000,0.0324,0.013523,0.002678,0.000431,1.210188
7380000,0.0324,0.013523,0.002678,0.000431,1.138848
7381000,0.0324,0.013523,0.002678,0.000431,1.080084
7382000,0.0324,0.013523,0.002678,0.000431,1.086783
7383000,0.0324,0.013523,0.002678,0.000431,1.081494
7384000,0.0324,0.013523,0.002678,0.000431,1.187270
7385000,0.0324,0.013523,0.002678,0.000431,1.197495
7386000,0.0324,0.013523,0.002678,0.000431,1.185977
7387000,0.0324,0.013523,0.002678,0.000431,1.148250
7388000,0.0324,0.013523,0.002678,0.000431,1.225231
7389000,0.0324,0.013523,0.002678,0.000431,1.153892
7390000,0.0324,0.013523,0.002678,0.000431,1.163529
7391000,0.0324,0.013523,0.002678,0.000431,1.131326
7392000,0.0324,0.013523,0.002678,0.000431,1.293985
7393000,0.0324,0.013523,0.002678,0.000431,1.270597
7394000,0.0324,0.013523,0.002678,0.000431,1.246621
7395000,0.0324,0.013523,0.002678,0.000431,1.259432
7396000,0.0324,0.013523,0.002678,0.000431,1.222411
7397000,0.0324,0.013523,0.002678,0.000431,1.090191
7398000,0.0324,0.013523,0.002678,0.000431,1.114755
7399000,0.0324,0.013523,0.002678,0.000431,1.154479
7400000,0.0324,0.013523,0.002678,0.000431,1.105000
7401000,0.0324,0.013523,0.002678,0.000431,1.057754
7402000,0.0324,0.013523,0.002678,0.000431,1.018852
7403000,0.0324,0.013523,0.002678,0.000431,0.999577
7404000,0.0324,0.013523,0.002678,0.000431,0.983006
7405000,0.0324,0.013523,0.002678,0.000431,1.102649
7406000,0.0324,0.013523,0.002678,0.000431,0.996286
7407000,0.0324,0.013523,0.002678,0.000431,0.947395
7408000,0.0324,0.013523,0.002678,0.000431,0.917543
7409000,0.0324,0.013523,0.002678,0.000431,0.866535
7410000,0.0324,0.013523,0.002678,0.000431,0.843735
7411000,0.0324,0.013523,0.002678,0.000431,0.944104
7412000,0.0324,0.013523,0.002678,0.000431,0.950803
7413000,0.0324,0.013523,0.002678,0.000431,0.927767
7414000,0.0324,0.013523,0.002678,0.000431,0.825871
7415000,0.0324,0.013523,0.002678,0.000431,0.713161
7416000,0.0324,0.013523,0.002678,0.000431,0.841384
7417000,0.0324,0.013523,0.002678,0.000431,0.819759
7418000,0.0324,0.013523,0.002678,0.000431,0.806831
7419000,0.0324,0.013523,0.002678,0.000431,0.750182
7420000,0.0324,0.013523,0.002678,0.000431,0.802717
7421000,0.0324,0.013523,0.002678,0.000431,0.766166
7422000,0.0324,0.013523,0.002678,0.000431,0.735961
7423000,0.0324,0.013523,0.002678,0.000431,0.644289
7424000,0.0324,0.013523,0.002678,0.000431,0.706462
7425000,0.0324,0.013523,0.002678,0.000431,0.748537
7426000,0.0324,0.013523,0.002678,0.000431,0.609854
7427000,0.0324,0.013523,0.002678,0.000431,0.589286
7428000,0.0324,0.013523,0.002678,0.000431,0.678020
7429000,0.0324,0.013523,0.002678,0.000431,0.595045
7430000,0.0324,0.013523,0.002678,0.000431,0.529112
7431000,0.0324,0.013523,0.002678,0.000431,0.652399
7432000,0.0324,0.013523,0.002678,0.000431,0.618433
7433000,0.0324,0.013523,0.002678,0.000431,0.591402
7434000,0.0324,0.013523,0.002678,0.000431,0.548857
7435000,0.0324,0.013523,0.002678,0.000431,0.443904
7436000,0.0324,0.013523,0.002678,0.000431,0.606328
7437000,0.0324,0.013523,0.002678,0.000431,0.690361
7438000,0.0324,0.013523,0.002678,0.000431,0.731143
7439000,0.0324,0.013523,0.002678,0.000431,0.698940
7440000,0.0324,0.013523,0.002678,0.000431,0.662624
7441000,0.0324,0.013523,0.002678,0.000431,0.672379
7442000,0.0324,0.013523,0.002678,0.000431,0.596220
7443000,0.0324,0.013523,0.002678,0.000431,0.656630
7444000,0.0324,0.013523,0.002678,0.000431,0.652281
7445000,0.0324,0.013523,0.002678,0.000431,0.638766
7446000,0.0324,0.013523,0.002678,0.000431,0.595633
7447000,0.0324,0.013523,0.002678,0.000431,0.669088
7448000,0.0324,0.013523,0.002678,0.000431,0.750770
7449000,0.0324,0.013523,0.002678,0.000431,0.817409
7450000,0.0324,0.013523,0.002678,0.000431,0.839386
7451000,0.0324,0.013523,0.002678,0.000431,0.853372
7452000,0.0324,0.013523,0.002678,0.000431,0.837858
7453000,0.0324,0.013523,0.002678,0.000431,0.900383
7454000,0.0324,0.013523,0.002678,0.000431,0.852667
7455000,0.0324,0.013523,0.002678,0.000431,0.991115
7456000,0.0324,0.013523,0.002678,0.000431,0.992526
7457000,0.0324,0.013523,0.002678,0.000431,0.928590
7458000,0.0324,0.013523,0.002678,0.000431,1.002986
7459000,0.0324,0.013523,0.002678,0.000431,0.910373
7460000,0.0324,0.013523,0.002678,0.000431,1.064100
7461000,0.0324,0.013523,0.002678,0.000431,1.018734
7462000,0.0324,0.013523,0.002678,0.000431,0.971018
7463000,0.0324,0.013523,0.002678,0.000431,0.978657
7464000,0.0324,0.013523,0.002678,0.000431,1.085020
7465000,0.0324,0.013523,0.002678,0.000431,0.996404
7466000,0.0324,0.013523,0.002678,0.000431,1.095480
7467000,0.0324,0.013523,0.002678,0.000431,0.989000
7468000,0.0324,0.013523,0.002678,0.000431,0.866300
7469000,0.0324,0.013523,0.002678,0.000431,1.136968
7470000,0.0324,0.013523,0.002678,0.000431,1.208072
7471000,0.0324,0.013523,0.002678,0.000431,1.036951
7472000,0.0324,0.013523,0.002678,0.000431,0.915309
7473000,0.0324,0.013523,0.002678,0.000431,0.970665
7474000,0.0324,0.013523,0.002678,0.000431,0.968785
7475000,0.0324,0.013523,0.002678,0.000431,0.969255
7476000,0.0324,0.013523,0.002678,0.000431,1.032955
7477000,0.0324,0.013523,0.002678,0.000431,1.029429
7478000,0.0324,0.013523,0.002678,0.000431,1.023083
7479000,0.0324,0.013523,0.002678,0.000431,1.049527
7480000,0.0324,0.013523,0.002678,0.000431,0.954799
7481000,0.0324,0.013523,0.002678,0.000431,0.898033
7482000,0.0324,0.013523,0.002678,0.000431,0.753473
7483000,0.0324,0.013523,0.002678,0.000431,0.715747
7484000,0.0324,0.013523,0.002678,0.000431,0.755824
7485000,0.0324,0.013523,0.002678,0.000431,0.645700
7486000,0.0324,0.013523,0.002678,0.000431,0.607621
7487000,0.0324,0.013523,0.002678,0.000431,0.694239
7488000,0.0324,0.013523,0.002678,0.000431,0.742308
7489000,0.0324,0.013523,0.002678,0.000431,0.909080
7490000,0.0324,0.013523,0.002678,0.000431,0.838211
7491000,0.0324,0.013523,0.002678,0.000431,0.961851
7492000,0.0324,0.013523,0.002678,0.000431,0.898856
7493000,0.0324,0.013523,0.002678,0.000431,0.998519
7494000,0.0324,0.013523,0.002678,0.000431,0.919540
7495000,0.0324,0.013523,0.002678,0.000431,0.937640
7496000,0.0324,0.013523,0.002678,0.000431,0.960323
7497000,0.0324,0.013523,0.002678,0.000431,0.831159
7498000,0.0324,0.013523,0.002678,0.000431,0.959030
7499000,0.0324,0.013523,0.002678,0.000431,0.883694
7500000,0.0324,0.013523,0.002678,0.000431,0.899091
7501000,0.0324,0.013523,0.002678,0.000431,1.082317
7502000,0.0324,0.013523,0.002678,0.000431,0.985356
7503000,0.0324,0.013523,0.002678,0.000431,0.990763
7504000,0.0324,0.013523,0.002678,0.000431,0.953036
7505000,0.0324,0.013523,0.002678,0.000431,0.903322
7506000,0.0324,0.013523,0.002678,0.000431,0.904967
7507000,0.0324,0.013523,0.002678,0.000431,0.915897
7508000,0.0324,0.013523,0.002678,0.000431,0.911314
7509000,0.0324,0.013523,0.002678,0.000431,0.990175
7510000,0.0324,0.013523,0.002678,0.000431,0.895447
7511000,0.0324,0.013523,0.002678,0.000431,0.940931
7512000,0.0324,0.013523,0.002678,0.000431,1.051407
7513000,0.0324,0.013523,0.002678,0.000431,0.851609
7514000,0.0324,0.013523,0.002678,0.000431,1.031310
7515000,0.0324,0.013523,0.002678,0.000431,1.040477
7516000,0.0324,0.013523,0.002678,0.000431,0.843617
7517000,0.0324,0.013523,0.002678,0.000431,0.966199
7518000,0.0324,0.013523,0.002678,0.000431,1.018617
7519000,0.0324,0.013523,0.002678,0.000431,0.918835
7520000,0.0324,0.013523,0.002678,0.000431,0.969725
7521000,0.0324,0.013523,0.002678,0.000431,0.917543
7522000,0.0324,0.013523,0.002678,0.000431,0.996521
7523000,0.0324,0.013523,0.002678,0.000431,0.977717
7524000,0.0324,0.013523,0.002678,0.000431,0.868298
7525000,0.0324,0.013523,0.002678,0.000431,0.894860
7526000,0.0324,0.013523,0.002678,0.000431,0.827046
7527000,0.0324,0.013523,0.002678,0.000431,0.775216
7528000,0.0324,0.013523,0.002678,0.000431,0.782503
7529000,0.0324,0.013523,0.002678,0.000431,0.801542
7530000,0.0324,0.013523,0.002678,0.000431,0.867946
7531000,0.0324,0.013523,0.002678,0.000431,0.817173
7532000,0.0324,0.013523,0.002678,0.000431,0.728557
7533000,0.0324,0.013523,0.002678,0.000431,0.759467
7534000,0.0324,0.013523,0.002678,0.000431,0.784501
7535000,0.0324,0.013523,0.002678,0.000431,0.784266
7536000,0.0324,0.013523,0.002678,0.000431,0.864067
7537000,0.0324,0.013523,0.002678,0.000431,1.051290
7538000,0.0324,0.013523,0.002678,0.000431,0.924124
7539000,0.0324,0.013523,0.002678,0.000431,0.858778
7540000,0.0324,0.013523,0.002678,0.000431,0.947865
7541000,0.0324,0.013523,0.002678,0.000431,0.992643
7542000,0.0324,0.013523,0.002678,0.000431,0.997697
7543000,0.0324,0.013523,0.002678,0.000431,1.052347
7544000,0.0324,0.013523,0.002678,0.000431,1.105117
7545000,0.0324,0.013523,0.002678,0.000431,1.032368
7546000,0.0324,0.013523,0.002678,0.000431,0.981243
7547000,0.0324,0.013523,0.002678,0.000431,0.991938
7548000,0.0324,0.013523,0.002678,0.000431,1.054698
7549000,0.0324,0.013523,0.002678,0.000431,1.099476
7550000,0.0324,0.013523,0.002678,0.000431,1.177750
7551000,0.0324,0.013523,0.002678,0.000431,1.040595
7552000,0.0324,0.013523,0.002678,0.000431,1.032485
7553000,0.0324,0.013523,0.002678,0.000431,1.168230
7554000,0.0324,0.013523,0.002678,0.000431,1.309499
7555000,0.0324,0.013523,0.002678,0.000431,1.170581
7556000,0.0324,0.013523,0.002678,0.000431,1.183391
7557000,0.0324,0.013523,0.002678,0.000431,1.040124
7558000,0.0324,0.013523,0.002678,0.000431,1.065746
7559000,0.0324,0.013523,0.002678,0.000431,1.021555
7560000,0.0324,0.013523,0.002678,0.000431,1.186447
7561000,0.0324,0.013523,0.002678,0.000431,1.096773
7562000,0.0324,0.013523,0.002678,0.000431,1.149191
7563000,0.0324,0.013523,0.002678,0.000431,1.049644
7564000,0.0324,0.013523,0.002678,0.000431,1.015679
7565000,0.0324,0.013523,0.002678,0.000431,1.154714
7566000,0.0324,0.013523,0.002678,0.000431,1.191501
7567000,0.0324,0.013523,0.002678,0.000431,0.960558
7568000,0.0324,0.013523,0.002678,0.000431,1.039419
7569000,0.0324,0.013523,0.002678,0.000431,1.108291
7570000,0.0324,0.013523,0.002678,0.000431,0.986414
7571000,0.0324,0.013523,0.002678,0.000431,0.992996
7572000,0.0324,0.013523,0.002678,0.000431,1.044943
7573000,0.0324,0.013523,0.002678,0.000431,0.898856
7574000,0.0324,0.013523,0.002678,0.000431,0.898503
7575000,0.0324,0.013523,0.002678,0.000431,0.898150
7576000,0.0324,0.013523,0.002678,0.000431,0.924712
7577000,0.0324,0.013523,0.002678,0.000431,0.855018
7578000,0.0324,0.013523,0.002678,0.000431,0.964671
7579000,0.0324,0.013523,0.002678,0.000431,0.872529
7580000,0.0324,0.013523,0.002678,0.000431,0.975954
7581000,0.0324,0.013523,0.002678,0.000431,1.044003
7582000,0.0324,0.013523,0.002678,0.000431,0.970665
7583000,0.0324,0.013523,0.002678,0.000431,1.093717
7584000,0.0324,0.013523,0.002678,0.000431,1.008274
7585000,0.0324,0.013523,0.002678,0.000431,0.908258
7586000,0.0324,0.013523,0.002678,0.000431,1.011095
7587000,0.0324,0.013523,0.002678,0.000431,0.916132
7588000,0.0324,0.013523,0.002678,0.000431,1.035423
7589000,0.0324,0.013523,0.002678,0.000431,1.069742
7590000,0.0324,0.013523,0.002678,0.000431,0.994406
7591000,0.0324,0.013523,0.002678,0.000431,1.116400
7592000,0.0324,0.013523,0.002678,0.000431,0.979950
7593000,0.0324,0.013523,0.002678,0.000431,1.017794
7594000,0.0324,0.013523,0.002678,0.000431,1.110759
7595000,0.0324,0.013523,0.002678,0.000431,1.178573
7596000,0.0324,0.013523,0.002678,0.000431,1.116870
7597000,0.0324,0.013523,0.002678,0.000431,1.079496
7598000,0.0324,0.013523,0.002678,0.000431,1.027079
7599000,0.0324,0.013523,0.002678,0.000431,1.219707
7600000,0.0324,0.013523,0.002678,0.000431,1.111229
7601000,0.0324,0.013523,0.002678,0.000431,1.219590
7602000,0.0324,0.013523,0.002678,0.000431,1.249207
7603000,0.0324,0.013523,0.002678,0.000431,1.245799
7604000,0.0324,0.013523,0.002678,0.000431,1.117693
7605000,0.0324,0.013523,0.002678,0.000431,1.196789
7606000,0.0324,0.013523,0.002678,0.000431,0.983476
7607000,0.0324,0.013523,0.002678,0.000431,0.934232
7608000,0.0324,0.013523,0.002678,0.000431,1.041887
7609000,0.0324,0.013523,0.002678,0.000431,1.118163
7610000,0.0324,0.013523,0.002678,0.000431,1.073150
7611000,0.0324,0.013523,0.002678,0.000431,1.134970
7612000,0.0324,0.013523,0.002678,0.000431,1.054228
7613000,0.0324,0.013523,0.002678,0.000431,1.114990
7614000,0.0324,0.013523,0.002678,0.000431,1.137203
7615000,0.0324,0.013523,0.002678,0.000431,1.018734
7616000,0.0324,0.013523,0.002678,0.000431,1.007569
7617000,0.0324,0.013523,0.002678,0.000431,0.942458
7618000,0.0324,0.013523,0.002678,0.000431,1.094893
7619000,0.0324,0.013523,0.002678,0.000431,0.970900
7620000,0.0324,0.013523,0.002678,0.000431,0.918953
7621000,0.0324,0.013523,0.002678,0.000431,1.049174
7622000,0.0324,0.013523,0.002678,0.000431,0.979832
7623000,0.0324,0.013523,0.002678,0.000431,0.968667
7624000,0.0324,0.013523,0.002678,0.000431,1.059164
7625000,0.0324,0.013523,0.002678,0.000431,1.001693
7626000,0.0324,0.013523,0.002678,0.000431,0.980420
7627000,0.0324,0.013523,0.002678,0.000431,0.991233
7628000,0.0324,0.013523,0.002678,0.000431,0.943634
7629000,0.0324,0.013523,0.002678,0.000431,1.096068
7630000,0.0324,0.013523,0.002678,0.000431,0.989235
7631000,0.0324,0.013523,0.002678,0.000431,1.019675
7632000,0.0324,0.013523,0.002678,0.000431,1.084550
7633000,0.0324,0.013523,0.002678,0.000431,1.027549
7634000,0.0324,0.013523,0.002678,0.000431,0.929883
7635000,0.0324,0.013523,0.002678,0.000431,1.027784
7636000,0.0324,0.013523,0.002678,0.000431,1.088899
7637000,0.0324,0.013523,0.002678,0.000431,1.003221
7638000,0.0324,0.013523,0.002678,0.000431,0.977247
7639000,0.0324,0.013523,0.002678,0.000431,1.062807
7640000,0.0324,0.013523,0.002678,0.000431,1.105117
7641000,0.0324,0.013523,0.002678,0.000431,0.921774
7642000,0.0324,0.013523,0.002678,0.000431,1.119103
7643000,0.0324,0.013523,0.002678,0.000431,1.138848
7644000,0.0324,0.013523,0.002678,0.000431,1.061397
7645000,0.0324,0.013523,0.002678,0.000431,0.991938
7646000,0.0324,0.013523,0.002678,0.000431,1.017677
7647000,0.0324,0.013523,0.002678,0.000431,1.048586
7648000,0.0324,0.013523,0.002678,0.000431,1.084550
7649000,0.0324,0.013523,0.002678,0.000431,1.208425
7650000,0.0324,0.013523,0.002678,0.000431,0.979832
7651000,0.0324,0.013523,0.002678,0.000431,1.033895
7652000,0.0324,0.013523,0.002678,0.000431,1.140258
7653000,0.0324,0.013523,0.002678,0.000431,1.337588
7654000,0.0324,0.013523,0.002678,0.000431,1.102767
7655000,0.0324,0.013523,0.002678,0.000431,1.179160
7656000,0.0324,0.013523,0.002678,0.000431,1.269187
7657000,0.0324,0.013523,0.002678,0.000431,1.164117
7658000,0.0324,0.013523,0.002678,0.000431,1.267424
7659000,0.0324,0.013523,0.002678,0.000431,1.145312
7660000,0.0324,0.013523,0.002678,0.000431,1.211481
7661000,0.0324,0.013523,0.002678,0.000431,1.249207
7662000,0.0324,0.013523,0.002678,0.000431,1.182098
7663000,0.0324,0.013523,0.002678,0.000431,1.214184
7664000,0.0324,0.013523,0.002678,0.000431,1.092424
7665000,0.0324,0.013523,0.002678,0.000431,0.915662
7666000,0.0324,0.013523,0.002678,0.000431,0.747009
7667000,0.0324,0.013523,0.002678,0.000431,0.614202
7668000,0.0324,0.013523,0.002678,0.000431,0.486214
7669000,0.0324,0.013523,0.002678,0.000431,0.372329
7670000,0.0324,0.013523,0.002678,0.000431,0.306043
7671000,0.0324,0.013523,0.002678,0.000431,0.234586
7672000,0.0324,0.013523,0.002678,0.000431,0.176057
7673000,0.0324,0.013523,0.002678,0.000431,0.141621
7674000,0.0324,0.013523,0.002678,0.000431,0.109654
7675000,0.0324,0.013523,0.002678,0.000431,0.089674
7676000,0.0324,0.013523,0.002678,0.000431,0.072515
7677000,0.0324,0.013523,0.002678,0.000431,0.058647
7678000,0.0324,0.013523,0.002678,0.000431,0.053593
7679000,0.0324,0.013523,0.002678,0.000431,0.045718
7680000,0.0324,0.013523,0.002678,0.000431,0.037727
7681000,0.0324,0.013523,0.002678,0.000431,0.035494
7682000,0.0324,0.013523,0.002678,0.000431,0.031145
7683000,0.0324,0.013523,0.002678,0.000431,0.030440
7684000,0.0324,0.013523,0.002678,0.000431,0.028912
7685000,0.0324,0.013523,0.002678,0.000431,0.026326
7686000,0.0324,0.013523,0.002678,0.000431,0.022565
7687000,0.0324,0.013523,0.002678,0.000431,0.021860
7688000,0.0324,0.013523,0.002678,0.000431,0.019275
7689000,0.0324,0.013523,0.002678,0.000431,0.019862
7690000,0.0324,0.013523,0.002678,0.000431,0.021038
7691000,0.0324,0.013523,0.002678,0.000431,0.019275
7692000,0.0324,0.013523,0.002678,0.000431,0.017394
7693000,0.0324,0.013523,0.002678,0.000431,0.016571
7694000,0.0324,0.013523,0.002678,0.000431,0.016101
7695000,0.0324,0.013523,0.002678,0.000431,0.013986
7696000,0.0324,0.013523,0.002678,0.000431,0.010460
7697000,0.0324,0.013523,0.002678,0.000431,0.009050
7698000,0.0324,0.013523,0.002678,0.000431,0.008932
7699000,0.0324,0.013523,0.002678,0.000431,0.008109
7700000,0.0324,0.013523,0.002678,0.000431,0.006582
7701000,0.0324,0.013523,0.002678,0.000431,0.006582
7702000,0.0324,0.013523,0.002678,0.000431,0.005406
7703000,0.0324,0.013523,0.002678,0.000431,0.006111
7704000,0.0324,0.013523,0.002678,0.000431,0.006699
7705000,0.0324,0.013523,0.002678,0.000431,0.005994
7706000,0.0324,0.013523,0.002678,0.000431,0.005524
7707000,0.0324,0.013523,0.002678,0.000431,0.007169
7708000,0.0324,0.013523,0.002678,0.000431,0.005876
7709000,0.0324,0.013523,0.002678,0.000431,0.007052
7710000,0.0324,0.013523,0.002678,0.000431,0.007404
7711000,0.0324,0.013523,0.002678,0.000431,0.007169
7712000,0.0324,0.013523,0.002678,0.000431,0.005759
7713000,0.0324,0.013523,0.002678,0.000431,0.005054
7714000,0.0324,0.013523,0.002678,0.000431,0.005641
7715000,0.0324,0.013523,0.002678,0.000431,0.004466
7716000,0.0324,0.013523,0.002678,0.000431,0.004113
7717000,0.0324,0.013523,0.002678,0.000431,0.002821
7718000,0.0324,0.013523,0.002678,0.000431,0.002116
7719000,0.0324,0.013523,0.002678,0.000431,0.002703
7720000,0.0324,0.013523,0.002678,0.000431,0.002468
7721000,0.0324,0.013523,0.002678,0.000431,0.002116
7722000,0.0324,0.013523,0.002678,0.000431,0.001880
7723000,0.0324,0.013523,0.002678,0.000431,0.001645
7724000,0.0324,0.013523,0.002678,0.000431,0.001410
7725000,0.0324,0.013523,0.002678,0.000431,0.001763
7726000,0.0324,0.013523,0.002678,0.000431,0.001645
7727000,0.0324,0.013523,0.002678,0.000431,0.001293
7728000,0.0324,0.013523,0.002678,0.000431,0.001880
7729000,0.0324,0.013523,0.002678,0.000431,0.001058
7730000,0.0324,0.013523,0.002678,0.000431,0.000940
7731000,0.0324,0.013523,0.002678,0.000431,0.001175
7732000,0.0324,0.013523,0.002678,0.000431,0.001175
7733000,0.0324,0.013523,0.002678,0.000431,0.000940
7734000,0.0324,0.013523,0.002678,0.000431,0.001293
7735000,0.0324,0.013523,0.002678,0.000431,0.000940
7736000,0.0324,0.013523,0.002678,0.000431,0.001058
7737000,0.0324,0.013523,0.002678,0.000431,0.001058
7738000,0.0324,0.013523,0.002678,0.000431,0.001293
7739000,0.0324,0.013523,0.002678,0.000431,0.001058
7740000,0.0324,0.013523,0.002678,0.000431,0.001058
7741000,0.0324,0.013523,0.002678,0.000431,0.000823
7742000,0.0324,0.013523,0.002678,0.000431,0.001175
7743000,0.0324,0.013523,0.002678,0.000431,0.001058
7744000,0.0324,0.013523,0.002678,0.000431,0.001058
7745000,0.0324,0.013523,0.002678,0.000431,0.001058
7746000,0.0324,0.013523,0.002678,0.000431,0.001175
7747000,0.0324,0.013523,0.002678,0.000431,0.000940
7748000,0.0324,0.013523,0.002678,0.000431,0.001058
7749000,0.0324,0.013523,0.002678,0.000431,0.000940
7750000,0.0324,0.013523,0.002678,0.000431,0.001175
7751000,0.0324,0.013523,0.002678,0.000431,0.001058
7752000,0.0324,0.013523,0.002678,0.000431,0.001175
7753000,0.0324,0.013523,0.002678,0.000431,0.000940
7754000,0.0324,0.013523,0.002678,0.000431,0.000940
7755000,0.0324,0.013523,0.002678,0.000431,0.001175
7756000,0.0324,0.013523,0.002678,0.000431,0.001058
7757000,0.0324,0.013523,0.002678,0.000431,0.001058
7758000,0.0324,0.013523,0.002678,0.000431,0.001175
7759000,0.0324,0.013523,0.002678,0.000431,0.001058
7760000,0.0324,0.013523,0.002678,0.000431,0.001058
7761000,0.0324,0.013523,0.002678,0.000431,0.001293
7762000,0.0324,0.013523,0.002678,0.000431,0.000823
7763000,0.0324,0.013523,0.002678,0.000431,0.001175
7764000,0.0324,0.013523,0.002678,0.000431,0.001058
7765000,0.0324,0.013523,0.002678,0.000431,0.001293
7766000,0.0324,0.013523,0.002678,0.000431,0.000823
7767000,0.0324,0.013523,0.002678,0.000431,0.001058
7768000,0.0324,0.013523,0.002678,0.000431,0.000940
7769000,0.0324,0.013523,0.002678,0.000431,0.001175
7770000,0.0324,0.013523,0.002678,0.000431,0.000940
7771000,0.0324,0.013523,0.002678,0.000431,0.001293
7772000,0.0324,0.013523,0.002678,0.000431,0.000823
7773000,0.0324,0.013523,0.002678,0.000431,0.001058
7774000,0.0324,0.013523,0.002678,0.000431,0.001058
7775000,0.0324,0.013523,0.002678,0.000431,0.001058
7776000,0.0324,0.013523,0.002678,0.000431,0.001058
7777000,0.0324,0.013523,0.002678,0.000431,0.001175
7778000,0.0324,0.013523,0.002678,0.000431,0.001175
7779000,0.0324,0.013523,0.002678,0.000431,0.001175
7780000,0.0324,0.013523,0.002678,0.000431,0.001058
7781000,0.0324,0.013523,0.002678,0.000431,0.000940
7782000,0.0324,0.013523,0.002678,0.000431,0.001058
7783000,0.0324,0.013523,0.002678,0.000431,0.001175
7784000,0.0324,0.013523,0.002678,0.000431,0.001175
7785000,0.0324,0.013523,0.002678,0.000431,0.000940
7786000,0.0324,0.013523,0.002678,0.000431,0.000940
7787000,0.0324,0.013523,0.002678,0.000431,0.001175
7788000,0.0324,0.013523,0.002678,0.000431,0.000940
7789000,0.0324,0.013523,0.002678,0.000431,0.001175
7790000,0.0324,0.013523,0.002678,0.000431,0.001058
7791000,0.0324,0.013523,0.002678,0.000431,0.001058
7792000,0.0324,0.013523,0.002678,0.000431,0.001175
7793000,0.0324,0.013523,0.002678,0.000431,0.000940
7794000,0.0324,0.013523,0.002678,0.000431,0.001058
7795000,0.0324,0.013523,0.002678,0.000431,0.001175
7796000,0.0324,0.013523,0.002678,0.000431,0.001058
7797000,0.0324,0.013523,0.002678,0.000431,0.001058
7798000,0.0324,0.013523,0.002678,0.000431,0.001175
7799000,0.0324,0.013523,0.002678,0.000431,0.000940
7800000,0.0324,0.013523,0.002678,0.000431,0.001058
7801000,0.0324,0.013523,0.002678,0.000431,0.001175
7802000,0.0324,0.013523,0.002678,0.000431,0.001058
7803000,0.0324,0.013523,0.002678,0.000431,0.000940
7804000,0.0324,0.013523,0.002678,0.000431,0.001175
7805000,0.0324,0.013523,0.002678,0.000431,0.001058
7806000,0.0324,0.013523,0.002678,0.000431,0.001058
7807000,0.0324,0.013523,0.002678,0.000431,0.001058
7808000,0.0324,0.013523,0.002678,0.000431,0.001175
7809000,0.0324,0.013523,0.002678,0.000431,0.000940
7810000,0.0324,0.013523,0.002678,0.000431,0.001058
7811000,0.0324,0.013523,0.002678,0.000431,0.001058
7812000,0.0324,0.013523,0.002678,0.000431,0.000940
7813000,0.0324,0.013523,0.002678,0.000431,0.001058
7814000,0.0324,0.013523,0.002678,0.000431,0.001058
7815000,0.0324,0.013523,0.002678,0.000431,0.000940
7816000,0.0324,0.013523,0.002678,0.000431,0.000940
7817000,0.0324,0.013523,0.002678,0.000431,0.001058
