Cycle,Area(mm^2),PeakDynamic(W),SubthresholdLeakage(W),GateLeakage(W),RunTimeDynamic(W)
1000000,0.0324,0.013523,0.002678,0.000431,0.944574
1001000,0.0324,0.013523,0.002678,0.000431,0.935642
1002000,0.0324,0.013523,0.002678,0.000431,0.923419
1003000,0.0324,0.013523,0.002678,0.000431,0.925417
1004000,0.0324,0.013523,0.002678,0.000431,0.902029
1005000,0.0324,0.013523,0.002678,0.000431,0.903557
1006000,0.0324,0.013523,0.002678,0.000431,0.894272
1007000,0.0324,0.013523,0.002678,0.000431,0.868298
1008000,0.0324,0.013523,0.002678,0.000431,0.882284
1009000,0.0324,0.013523,0.002678,0.000431,0.852667
1010000,0.0324,0.013523,0.002678,0.000431,0.861247
1011000,0.0324,0.013523,0.002678,0.000431,0.843265
1012000,0.0324,0.013523,0.002678,0.000431,0.843147
1013000,0.0324,0.013523,0.002678,0.000431,0.842089
1014000,0.0324,0.013523,0.002678,0.000431,0.817644
1015000,0.0324,0.013523,0.002678,0.000431,0.817173
1016000,0.0324,0.013523,0.002678,0.000431,0.798957
1017000,0.0324,0.013523,0.002678,0.000431,0.797546
1018000,0.0324,0.013523,0.002678,0.000431,0.796606
1019000,0.0324,0.013523,0.002678,0.000431,0.783913
1020000,0.0324,0.013523,0.002678,0.000431,0.780152
1021000,0.0324,0.013523,0.002678,0.000431,0.783090
1022000,0.0324,0.013523,0.002678,0.000431,0.756646
1023000,0.0324,0.013523,0.002678,0.000431,0.760642
1024000,0.0324,0.013523,0.002678,0.000431,0.749712
1025000,0.0324,0.013523,0.002678,0.000431,0.755354
1026000,0.0324,0.013523,0.002678,0.000431,0.729145
1027000,0.0324,0.013523,0.002678,0.000431,0.725619
1028000,0.0324,0.013523,0.002678,0.000431,0.723386
1029000,0.0324,0.013523,0.002678,0.000431,0.708812
1030000,0.0324,0.013523,0.002678,0.000431,0.708460
1031000,0.0324,0.013523,0.002678,0.000431,0.695062
1032000,0.0324,0.013523,0.002678,0.000431,0.698940
1033000,0.0324,0.013523,0.002678,0.000431,0.688010
1034000,0.0324,0.013523,0.002678,0.000431,0.669911
1035000,0.0324,0.013523,0.002678,0.000431,0.672614
1036000,0.0324,0.013523,0.002678,0.000431,0.662036
1037000,0.0324,0.013523,0.002678,0.000431,0.663212
1038000,0.0324,0.013523,0.002678,0.000431,0.643819
1039000,0.0324,0.013523,0.002678,0.000431,0.631361
1040000,0.0324,0.013523,0.002678,0.000431,0.619961
1041000,0.0324,0.013523,0.002678,0.000431,0.630421
1042000,0.0324,0.013523,0.002678,0.000431,0.616200
1043000,0.0324,0.013523,0.002678,0.000431,0.606210
1044000,0.0324,0.013523,0.002678,0.000431,0.603390
1045000,0.0324,0.013523,0.002678,0.000431,0.598101
1046000,0.0324,0.013523,0.002678,0.000431,0.582235
1047000,0.0324,0.013523,0.002678,0.000431,0.577651
1048000,0.0324,0.013523,0.002678,0.000431,0.583527
1049000,0.0324,0.013523,0.002678,0.000431,0.578474
1050000,0.0324,0.013523,0.002678,0.000431,0.567896
1051000,0.0324,0.013523,0.002678,0.000431,0.565428
1052000,0.0324,0.013523,0.002678,0.000431,0.547446
1053000,0.0324,0.013523,0.002678,0.000431,0.546976
1054000,0.0324,0.013523,0.002678,0.000431,0.547799
1055000,0.0324,0.013523,0.002678,0.000431,0.532285
1056000,0.0324,0.013523,0.002678,0.000431,0.534753
1057000,0.0324,0.013523,0.002678,0.000431,0.528054
1058000,0.0324,0.013523,0.002678,0.000431,0.515596
1059000,0.0324,0.013523,0.002678,0.000431,0.517477
1060000,0.0324,0.013523,0.002678,0.000431,0.513246
1061000,0.0324,0.013523,0.002678,0.000431,0.512070
1062000,0.0324,0.013523,0.002678,0.000431,0.546859
1063000,0.0324,0.013523,0.002678,0.000431,0.578121
1064000,0.0324,0.013523,0.002678,0.000431,0.550267
1065000,0.0324,0.013523,0.002678,0.000431,0.522883
1066000,0.0324,0.013523,0.002678,0.000431,0.527114
1067000,0.0324,0.013523,0.002678,0.000431,0.549327
1068000,0.0324,0.013523,0.002678,0.000431,0.534753
1069000,0.0324,0.013523,0.002678,0.000431,0.534518
1070000,0.0324,0.013523,0.002678,0.000431,0.540395
1071000,0.0324,0.013523,0.002678,0.000431,0.523941
1072000,0.0324,0.013523,0.002678,0.000431,0.528877
1073000,0.0324,0.013523,0.002678,0.000431,0.514891
1074000,0.0324,0.013523,0.002678,0.000431,0.545801
1075000,0.0324,0.013523,0.002678,0.000431,0.610441
1076000,0.0324,0.013523,0.002678,0.000431,0.583527
1077000,0.0324,0.013523,0.002678,0.000431,0.544273
1078000,0.0324,0.013523,0.002678,0.000431,0.549092
1079000,0.0324,0.013523,0.002678,0.000431,0.584938
1080000,0.0324,0.013523,0.002678,0.000431,0.551325
1081000,0.0324,0.013523,0.002678,0.000431,0.569777
1082000,0.0324,0.013523,0.002678,0.000431,0.543920
1083000,0.0324,0.013523,0.002678,0.000431,0.562607
1084000,0.0324,0.013523,0.002678,0.000431,0.529817
1085000,0.0324,0.013523,0.002678,0.000431,0.551325
1086000,0.0324,0.013523,0.002678,0.000431,0.542745
1087000,0.0324,0.013523,0.002678,0.000431,0.513481
1088000,0.0324,0.013523,0.002678,0.000431,0.533460
1089000,0.0324,0.013523,0.002678,0.000431,0.507252
1090000,0.0324,0.013523,0.002678,0.000431,0.527937
1091000,0.0324,0.013523,0.002678,0.000431,0.506782
1092000,0.0324,0.013523,0.002678,0.000431,0.494559
1093000,0.0324,0.013523,0.002678,0.000431,0.518652
1094000,0.0324,0.013523,0.002678,0.000431,0.483276
1095000,0.0324,0.013523,0.002678,0.000431,0.506429
1096000,0.0324,0.013523,0.002678,0.000431,0.542393
1097000,0.0324,0.013523,0.002678,0.000431,0.622547
1098000,0.0324,0.013523,0.002678,0.000431,0.616200
1099000,0.0324,0.013523,0.002678,0.000431,0.521355
1100000,0.0324,0.013523,0.002678,0.000431,0.605388
1101000,0.0324,0.013523,0.002678,0.000431,0.699645
1102000,0.0324,0.013523,0.002678,0.000431,0.730908
1103000,0.0324,0.013523,0.002678,0.000431,0.664387
1104000,0.0324,0.013523,0.002678,0.000431,0.621254
1105000,0.0324,0.013523,0.002678,0.000431,0.704229
1106000,0.0324,0.013523,0.002678,0.000431,0.679548
1107000,0.0324,0.013523,0.002678,0.000431,0.614555
1108000,0.0324,0.013523,0.002678,0.000431,0.679078
1109000,0.0324,0.013523,0.002678,0.000431,0.612674
1110000,0.0324,0.013523,0.002678,0.000431,0.613732
1111000,0.0324,0.013523,0.002678,0.000431,0.666267
1112000,0.0324,0.013523,0.002678,0.000431,0.666032
1113000,0.0324,0.013523,0.002678,0.000431,0.751123
1114000,0.0324,0.013523,0.002678,0.000431,0.705639
1115000,0.0324,0.013523,0.002678,0.000431,0.791435
1116000,0.0324,0.013523,0.002678,0.000431,0.788967
1117000,0.0324,0.013523,0.002678,0.000431,0.749007
1118000,0.0324,0.013523,0.002678,0.000431,0.854665
1119000,0.0324,0.013523,0.002678,0.000431,0.865007
1120000,0.0324,0.013523,0.002678,0.000431,0.770280
1121000,0.0324,0.013523,0.002678,0.000431,0.896505
1122000,0.0324,0.013523,0.002678,0.000431,0.801660
1123000,0.0324,0.013523,0.002678,0.000431,0.902499
1124000,0.0324,0.013523,0.002678,0.000431,0.878523
1125000,0.0324,0.013523,0.002678,0.000431,0.813413
1126000,0.0324,0.013523,0.002678,0.000431,0.854665
1127000,0.0324,0.013523,0.002678,0.000431,0.865830
1128000,0.0324,0.013523,0.002678,0.000431,0.904497
1129000,0.0324,0.013523,0.002678,0.000431,0.834920
1130000,0.0324,0.013523,0.002678,0.000431,0.819759
1131000,0.0324,0.013523,0.002678,0.000431,0.829396
1132000,0.0324,0.013523,0.002678,0.000431,0.806713
1133000,0.0324,0.013523,0.002678,0.000431,0.807536
1134000,0.0324,0.013523,0.002678,0.000431,0.778272
1135000,0.0324,0.013523,0.002678,0.000431,0.781210
1136000,0.0324,0.013523,0.002678,0.000431,0.777449
1137000,0.0324,0.013523,0.002678,0.000431,0.842912
1138000,0.0324,0.013523,0.002678,0.000431,0.867946
1139000,0.0324,0.013523,0.002678,0.000431,0.856545
1140000,0.0324,0.013523,0.002678,0.000431,0.963026
1141000,0.0324,0.013523,0.002678,0.000431,0.907083
1142000,0.0324,0.013523,0.002678,0.000431,1.006864
1143000,0.0324,0.013523,0.002678,0.000431,1.074325
1144000,0.0324,0.013523,0.002678,0.000431,0.971018
1145000,0.0324,0.013523,0.002678,0.000431,1.012270
1146000,0.0324,0.013523,0.002678,0.000431,1.038126
1147000,0.0324,0.013523,0.002678,0.000431,1.124040
1148000,0.0324,0.013523,0.002678,0.000431,1.133207
1149000,0.0324,0.013523,0.002678,0.000431,1.074678
1150000,0.0324,0.013523,0.002678,0.000431,1.101357
1151000,0.0324,0.013523,0.002678,0.000431,1.044003
1152000,0.0324,0.013523,0.002678,0.000431,1.109113
1153000,0.0324,0.013523,0.002678,0.000431,1.086431
1154000,0.0324,0.013523,0.002678,0.000431,1.064923
1155000,0.0324,0.013523,0.002678,0.000431,1.131326
1156000,0.0324,0.013523,0.002678,0.000431,1.152834
1157000,0.0324,0.013523,0.002678,0.000431,1.171403
1158000,0.0324,0.013523,0.002678,0.000431,1.234869
1159000,0.0324,0.013523,0.002678,0.000431,1.217004
1160000,0.0324,0.013523,0.002678,0.000431,1.254496
1161000,0.0324,0.013523,0.002678,0.000431,1.285993
1162000,0.0324,0.013523,0.002678,0.000431,1.304210
1163000,0.0324,0.013523,0.002678,0.000431,1.215359
1164000,0.0324,0.013523,0.002678,0.000431,1.264016
1165000,0.0324,0.013523,0.002678,0.000431,1.331124
1166000,0.0324,0.013523,0.002678,0.000431,1.329479
1167000,0.0324,0.013523,0.002678,0.000431,1.342524
1168000,0.0324,0.013523,0.002678,0.000431,1.355217
1169000,0.0324,0.013523,0.002678,0.000431,1.417625
1170000,0.0324,0.013523,0.002678,0.000431,1.366383
1171000,0.0324,0.013523,0.002678,0.000431,1.391769
1172000,0.0324,0.013523,0.002678,0.000431,1.429965
1173000,0.0324,0.013523,0.002678,0.000431,1.376960
1174000,0.0324,0.013523,0.002678,0.000431,1.324073
1175000,0.0324,0.013523,0.002678,0.000431,1.441953
1176000,0.0324,0.013523,0.002678,0.000431,1.356040
1177000,0.0324,0.013523,0.002678,0.000431,1.407400
1178000,0.0324,0.013523,0.002678,0.000431,1.438898
1179000,0.0324,0.013523,0.002678,0.000431,1.415980
1180000,0.0324,0.013523,0.002678,0.000431,1.486261
1181000,0.0324,0.013523,0.002678,0.000431,1.362152
1182000,0.0324,0.013523,0.002678,0.000431,1.457937
1183000,0.0324,0.013523,0.002678,0.000431,1.448887
1184000,0.0324,0.013523,0.002678,0.000431,1.392826
1185000,0.0324,0.013523,0.002678,0.000431,1.537386
1186000,0.0324,0.013523,0.002678,0.000431,1.456057
1187000,0.0324,0.013523,0.002678,0.000431,1.494371
1188000,0.0324,0.013523,0.002678,0.000431,1.392826
1189000,0.0324,0.013523,0.002678,0.000431,1.492490
1190000,0.0324,0.013523,0.002678,0.000431,1.479680
1191000,0.0324,0.013523,0.002678,0.000431,1.386715
1192000,0.0324,0.013523,0.002678,0.000431,1.440778
1193000,0.0324,0.013523,0.002678,0.000431,1.518112
1194000,0.0324,0.013523,0.002678,0.000431,1.566768
1195000,0.0324,0.013523,0.002678,0.000431,1.476977
1196000,0.0324,0.013523,0.002678,0.000431,1.516584
1197000,0.0324,0.013523,0.002678,0.000431,1.429025
1198000,0.0324,0.013523,0.002678,0.000431,1.495781
1199000,0.0324,0.013523,0.002678,0.000431,1.484734
1200000,0.0324,0.013523,0.002678,0.000431,1.416097
1201000,0.0324,0.013523,0.002678,0.000431,1.469807
1202000,0.0324,0.013523,0.002678,0.000431,1.402699
1203000,0.0324,0.013523,0.002678,0.000431,1.447007
1204000,0.0324,0.013523,0.002678,0.000431,1.456292
1205000,0.0324,0.013523,0.002678,0.000431,1.404697
1206000,0.0324,0.013523,0.002678,0.000431,1.461110
1207000,0.0324,0.013523,0.002678,0.000431,1.452766
1208000,0.0324,0.013523,0.002678,0.000431,1.460170
1209000,0.0324,0.013523,0.002678,0.000431,1.307854
1210000,0.0324,0.013523,0.002678,0.000431,1.400231
1211000,0.0324,0.013523,0.002678,0.000431,1.488024
1212000,0.0324,0.013523,0.002678,0.000431,1.406460
1213000,0.0324,0.013523,0.002678,0.000431,1.490140
1214000,0.0324,0.013523,0.002678,0.000431,1.400113
1215000,0.0324,0.013523,0.002678,0.000431,1.459582
1216000,0.0324,0.013523,0.002678,0.000431,1.503656
1217000,0.0324,0.013523,0.002678,0.000431,1.464166
1218000,0.0324,0.013523,0.002678,0.000431,1.478269
1219000,0.0324,0.013523,0.002678,0.000431,1.468750
1220000,0.0324,0.013523,0.002678,0.000431,1.441366
1221000,0.0324,0.013523,0.002678,0.000431,1.473216
1222000,0.0324,0.013523,0.002678,0.000431,1.489905
1223000,0.0324,0.013523,0.002678,0.000431,1.319489
1224000,0.0324,0.013523,0.002678,0.000431,1.478152
1225000,0.0324,0.013523,0.002678,0.000431,1.382249
1226000,0.0324,0.013523,0.002678,0.000431,1.435842
1227000,0.0324,0.013523,0.002678,0.000431,1.305621
1228000,0.0324,0.013523,0.002678,0.000431,1.396705
1229000,0.0324,0.013523,0.002678,0.000431,1.366030
1230000,0.0324,0.013523,0.002678,0.000431,1.419388
1231000,0.0324,0.013523,0.002678,0.000431,1.303623
1232000,0.0324,0.013523,0.002678,0.000431,1.291987
1233000,0.0324,0.013523,0.002678,0.000431,1.465341
1234000,0.0324,0.013523,0.002678,0.000431,1.365090
1235000,0.0324,0.013523,0.002678,0.000431,1.463578
1236000,0.0324,0.013523,0.002678,0.000431,1.502715
1237000,0.0324,0.013523,0.002678,0.000431,1.420563
1238000,0.0324,0.013523,0.002678,0.000431,1.412571
1239000,0.0324,0.013523,0.002678,0.000431,1.402581
1240000,0.0324,0.013523,0.002678,0.000431,1.430436
1241000,0.0324,0.013523,0.002678,0.000431,1.380721
1242000,0.0324,0.013523,0.002678,0.000431,1.300567
1243000,0.0324,0.013523,0.002678,0.000431,1.345228
1244000,0.0324,0.013523,0.002678,0.000431,1.363209
1245000,0.0324,0.013523,0.002678,0.000431,1.435842
1246000,0.0324,0.013523,0.002678,0.000431,1.364620
1247000,0.0324,0.013523,0.002678,0.000431,1.264603
1248000,0.0324,0.013523,0.002678,0.000431,1.282703
1249000,0.0324,0.013523,0.002678,0.000431,1.334885
1250000,0.0324,0.013523,0.002678,0.000431,1.299862
1251000,0.0324,0.013523,0.002678,0.000431,1.458290
1252000,0.0324,0.013523,0.002678,0.000431,1.489905
1253000,0.0324,0.013523,0.002678,0.000431,1.502128
1254000,0.0324,0.013523,0.002678,0.000431,1.488612
1255000,0.0324,0.013523,0.002678,0.000431,1.502010
1256000,0.0324,0.013523,0.002678,0.000431,1.551137
1257000,0.0324,0.013523,0.002678,0.000431,1.377665
1258000,0.0324,0.013523,0.002678,0.000431,1.316433
1259000,0.0324,0.013523,0.002678,0.000431,1.430553
1260000,0.0324,0.013523,0.002678,0.000431,1.515408
1261000,0.0324,0.013523,0.002678,0.000431,1.544555
1262000,0.0324,0.013523,0.002678,0.000431,1.462403
1263000,0.0324,0.013523,0.002678,0.000431,1.569354
1264000,0.0324,0.013523,0.002678,0.000431,1.535741
1265000,0.0324,0.013523,0.002678,0.000431,1.548786
1266000,0.0324,0.013523,0.002678,0.000431,1.518464
1267000,0.0324,0.013523,0.002678,0.000431,1.498014
1268000,0.0324,0.013523,0.002678,0.000431,1.419035
1269000,0.0324,0.013523,0.002678,0.000431,1.472393
1270000,0.0324,0.013523,0.002678,0.000431,1.523635
1271000,0.0324,0.013523,0.002678,0.000431,1.467574
1272000,0.0324,0.013523,0.002678,0.000431,1.511530
1273000,0.0324,0.013523,0.002678,0.000431,1.564888
1274000,0.0324,0.013523,0.002678,0.000431,1.510825
1275000,0.0324,0.013523,0.002678,0.000431,1.537269
1276000,0.0324,0.013523,0.002678,0.000431,1.495781
1277000,0.0324,0.013523,0.002678,0.000431,1.603907
1278000,0.0324,0.013523,0.002678,0.000431,1.522813
1279000,0.0324,0.013523,0.002678,0.000431,1.495429
1280000,0.0324,0.013523,0.002678,0.000431,1.543615
1281000,0.0324,0.013523,0.002678,0.000431,1.331124
1282000,0.0324,0.013523,0.002678,0.000431,1.492961
1283000,0.0324,0.013523,0.002678,0.000431,1.429965
1284000,0.0324,0.013523,0.002678,0.000431,1.380956
1285000,0.0324,0.013523,0.002678,0.000431,1.536093
1286000,0.0324,0.013523,0.002678,0.000431,1.443599
1287000,0.0324,0.013523,0.002678,0.000431,1.483558
1288000,0.0324,0.013523,0.002678,0.000431,1.460053
1289000,0.0324,0.013523,0.002678,0.000431,1.466047
1290000,0.0324,0.013523,0.002678,0.000431,1.512000
1291000,0.0324,0.013523,0.002678,0.000431,1.377078
1292000,0.0324,0.013523,0.002678,0.000431,1.470395
1293000,0.0324,0.013523,0.002678,0.000431,1.472040
1294000,0.0324,0.013523,0.002678,0.000431,1.515173
1295000,0.0324,0.013523,0.002678,0.000431,1.460053
1296000,0.0324,0.013523,0.002678,0.000431,1.413276
1297000,0.0324,0.013523,0.002678,0.000431,1.521402
1298000,0.0324,0.013523,0.002678,0.000431,1.485086
1299000,0.0324,0.013523,0.002678,0.000431,1.587571
1300000,0.0324,0.013523,0.002678,0.000431,1.425147
1301000,0.0324,0.013523,0.002678,0.000431,1.420681
1302000,0.0324,0.013523,0.002678,0.000431,1.343465
1303000,0.0324,0.013523,0.002678,0.000431,1.485909
1304000,0.0324,0.013523,0.002678,0.000431,1.467574
1305000,0.0324,0.013523,0.002678,0.000431,1.605788
1306000,0.0324,0.013523,0.002678,0.000431,1.558659
1307000,0.0324,0.013523,0.002678,0.000431,1.495311
1308000,0.0324,0.013523,0.002678,0.000431,1.512235
1309000,0.0324,0.013523,0.002678,0.000431,1.482383
1310000,0.0324,0.013523,0.002678,0.000431,1.502950
1311000,0.0324,0.013523,0.002678,0.000431,1.581812
1312000,0.0324,0.013523,0.002678,0.000431,1.578051
1313000,0.0324,0.013523,0.002678,0.000431,1.455351
1314000,0.0324,0.013523,0.002678,0.000431,1.524223
1315000,0.0324,0.013523,0.002678,0.000431,1.538561
1316000,0.0324,0.013523,0.002678,0.000431,1.470278
1317000,0.0324,0.013523,0.002678,0.000431,1.461580
1318000,0.0324,0.013523,0.002678,0.000431,1.258139
1319000,0.0324,0.013523,0.002678,0.000431,1.511412
1320000,0.0324,0.013523,0.002678,0.000431,1.536446
1321000,0.0324,0.013523,0.002678,0.000431,1.599441
1322000,0.0324,0.013523,0.002678,0.000431,1.672661
1323000,0.0324,0.013523,0.002678,0.000431,1.456292
1324000,0.0324,0.013523,0.002678,0.000431,1.430906
1325000,0.0324,0.013523,0.002678,0.000431,1.650331
1326000,0.0324,0.013523,0.002678,0.000431,1.619068
1327000,0.0324,0.013523,0.002678,0.000431,1.428908
1328000,0.0324,0.013523,0.002678,0.000431,1.579696
1329000,0.0324,0.013523,0.002678,0.000431,1.671251
1330000,0.0324,0.013523,0.002678,0.000431,1.621889
1331000,0.0324,0.013523,0.002678,0.000431,1.551254
1332000,0.0324,0.013523,0.002678,0.000431,1.718732
1333000,0.0324,0.013523,0.002678,0.000431,1.677950
1334000,0.0324,0.013523,0.002678,0.000431,1.616130
1335000,0.0324,0.013523,0.002678,0.000431,1.661143
1336000,0.0324,0.013523,0.002678,0.000431,1.653622
1337000,0.0324,0.013523,0.002678,0.000431,1.690760
1338000,0.0324,0.013523,0.002678,0.000431,1.649978
1339000,0.0324,0.013523,0.002678,0.000431,1.784548
1340000,0.0324,0.013523,0.002678,0.000431,1.730250
1341000,0.0324,0.013523,0.002678,0.000431,1.590861
1342000,0.0324,0.013523,0.002678,0.000431,1.652799
1343000,0.0324,0.013523,0.002678,0.000431,1.664904
1344000,0.0324,0.013523,0.002678,0.000431,1.707449
1345000,0.0324,0.013523,0.002678,0.000431,1.689233
1346000,0.0324,0.013523,0.002678,0.000431,1.570882
1347000,0.0324,0.013523,0.002678,0.000431,1.479445
1348000,0.0324,0.013523,0.002678,0.000431,1.510472
1349000,0.0324,0.013523,0.002678,0.000431,1.534565
1350000,0.0324,0.013523,0.002678,0.000431,1.627883
1351000,0.0324,0.013523,0.002678,0.000431,1.660321
1352000,0.0324,0.013523,0.002678,0.000431,1.641634
1353000,0.0324,0.013523,0.002678,0.000431,1.593212
1354000,0.0324,0.013523,0.002678,0.000431,1.758574
1355000,0.0324,0.013523,0.002678,0.000431,1.671251
1356000,0.0324,0.013523,0.002678,0.000431,1.727077
1357000,0.0324,0.013523,0.002678,0.000431,1.654209
1358000,0.0324,0.013523,0.002678,0.000431,1.631879
1359000,0.0324,0.013523,0.002678,0.000431,1.760455
1360000,0.0324,0.013523,0.002678,0.000431,1.705804
1361000,0.0324,0.013523,0.002678,0.000431,1.622947
1362000,0.0324,0.013523,0.002678,0.000431,1.556661
1363000,0.0324,0.013523,0.002678,0.000431,1.566533
1364000,0.0324,0.013523,0.002678,0.000431,1.585103
1365000,0.0324,0.013523,0.002678,0.000431,1.607786
1366000,0.0324,0.013523,0.002678,0.000431,1.631996
1367000,0.0324,0.013523,0.002678,0.000431,1.679478
1368000,0.0324,0.013523,0.002678,0.000431,1.569236
1369000,0.0324,0.013523,0.002678,0.000431,1.603555
1370000,0.0324,0.013523,0.002678,0.000431,1.542440
1371000,0.0324,0.013523,0.002678,0.000431,1.657500
1372000,0.0324,0.013523,0.002678,0.000431,1.548081
1373000,0.0324,0.013523,0.002678,0.000431,1.682886
1374000,0.0324,0.013523,0.002678,0.000431,1.621889
1375000,0.0324,0.013523,0.002678,0.000431,1.640458
1376000,0.0324,0.013523,0.002678,0.000431,1.629763
1377000,0.0324,0.013523,0.002678,0.000431,1.358508
1378000,0.0324,0.013523,0.002678,0.000431,1.381661
1379000,0.0324,0.013523,0.002678,0.000431,1.439368
1380000,0.0324,0.013523,0.002678,0.000431,1.404344
1381000,0.0324,0.013523,0.002678,0.000431,1.385892
1382000,0.0324,0.013523,0.002678,0.000431,1.476036
1383000,0.0324,0.013523,0.002678,0.000431,1.508004
1384000,0.0324,0.013523,0.002678,0.000431,1.391064
1385000,0.0324,0.013523,0.002678,0.000431,1.370496
1386000,0.0324,0.013523,0.002678,0.000431,1.635757
1387000,0.0324,0.013523,0.002678,0.000431,1.561832
1388000,0.0324,0.013523,0.002678,0.000431,1.558189
1389000,0.0324,0.013523,0.002678,0.000431,1.666785
1390000,0.0324,0.013523,0.002678,0.000431,1.578051
1391000,0.0324,0.013523,0.002678,0.000431,1.621301
1392000,0.0324,0.013523,0.002678,0.000431,1.470043
1393000,0.0324,0.013523,0.002678,0.000431,1.458172
1394000,0.0324,0.013523,0.002678,0.000431,1.462051
1395000,0.0324,0.013523,0.002678,0.000431,1.572174
1396000,0.0324,0.013523,0.002678,0.000431,1.569001
1397000,0.0324,0.013523,0.002678,0.000431,1.732836
1398000,0.0324,0.013523,0.002678,0.000431,1.656677
1399000,0.0324,0.013523,0.002678,0.000431,1.615190
1400000,0.0324,0.013523,0.002678,0.000431,1.590274
1401000,0.0324,0.013523,0.002678,0.000431,1.494018
1402000,0.0324,0.013523,0.002678,0.000431,1.249090
1403000,0.0324,0.013523,0.002678,0.000431,1.436194
1404000,0.0324,0.013523,0.002678,0.000431,1.417978
1405000,0.0324,0.013523,0.002678,0.000431,1.372964
1406000,0.0324,0.013523,0.002678,0.000431,1.525398
1407000,0.0324,0.013523,0.002678,0.000431,1.547611
1408000,0.0324,0.013523,0.002678,0.000431,1.577933
1409000,0.0324,0.013523,0.002678,0.000431,1.581107
1410000,0.0324,0.013523,0.002678,0.000431,1.543498
1411000,0.0324,0.013523,0.002678,0.000431,1.656090
1412000,0.0324,0.013523,0.002678,0.000431,1.648450
1413000,0.0324,0.013523,0.002678,0.000431,1.574525
1414000,0.0324,0.013523,0.002678,0.000431,1.619186
1415000,0.0324,0.013523,0.002678,0.000431,1.641164
1416000,0.0324,0.013523,0.002678,0.000431,1.677832
1417000,0.0324,0.013523,0.002678,0.000431,1.516466
1418000,0.0324,0.013523,0.002678,0.000431,1.553488
1419000,0.0324,0.013523,0.002678,0.000431,1.582987
1420000,0.0324,0.013523,0.002678,0.000431,1.405520
1421000,0.0324,0.013523,0.002678,0.000431,1.602027
1422000,0.0324,0.013523,0.002678,0.000431,1.675952
1423000,0.0324,0.013523,0.002678,0.000431,1.640341
1424000,0.0324,0.013523,0.002678,0.000431,1.576758
1425000,0.0324,0.013523,0.002678,0.000431,1.633994
1426000,0.0324,0.013523,0.002678,0.000431,1.563712
1427000,0.0324,0.013523,0.002678,0.000431,1.581342
1428000,0.0324,0.013523,0.002678,0.000431,1.611311
1429000,0.0324,0.013523,0.002678,0.000431,1.426557
1430000,0.0324,0.013523,0.002678,0.000431,1.469455
1431000,0.0324,0.013523,0.002678,0.000431,1.531157
1432000,0.0324,0.013523,0.002678,0.000431,1.482736
1433000,0.0324,0.013523,0.002678,0.000431,1.386715
1434000,0.0324,0.013523,0.002678,0.000431,1.599676
1435000,0.0324,0.013523,0.002678,0.000431,1.496721
1436000,0.0324,0.013523,0.002678,0.000431,1.418095
1437000,0.0324,0.013523,0.002678,0.000431,1.286463
1438000,0.0324,0.013523,0.002678,0.000431,1.423854
1439000,0.0324,0.013523,0.002678,0.000431,1.484381
1440000,0.0324,0.013523,0.002678,0.000431,1.561244
1441000,0.0324,0.013523,0.002678,0.000431,1.502480
1442000,0.0324,0.013523,0.002678,0.000431,1.443834
1443000,0.0324,0.013523,0.002678,0.000431,1.615190
1444000,0.0324,0.013523,0.002678,0.000431,1.557131
1445000,0.0324,0.013523,0.002678,0.000431,1.514468
1446000,0.0324,0.013523,0.002678,0.000431,1.439485
1447000,0.0324,0.013523,0.002678,0.000431,1.538796
1448000,0.0324,0.013523,0.002678,0.000431,1.526691
1449000,0.0324,0.013523,0.002678,0.000431,1.505301
1450000,0.0324,0.013523,0.002678,0.000431,1.588393
1451000,0.0324,0.013523,0.002678,0.000431,1.539854
1452000,0.0324,0.013523,0.002678,0.000431,1.529159
1453000,0.0324,0.013523,0.002678,0.000431,1.630351
1454000,0.0324,0.013523,0.002678,0.000431,1.595210
1455000,0.0324,0.013523,0.002678,0.000431,1.611429
1456000,0.0324,0.013523,0.002678,0.000431,1.561950
1457000,0.0324,0.013523,0.002678,0.000431,1.503421
1458000,0.0324,0.013523,0.002678,0.000431,1.588628
1459000,0.0324,0.013523,0.002678,0.000431,1.600381
1460000,0.0324,0.013523,0.002678,0.000431,1.524105
1461000,0.0324,0.013523,0.002678,0.000431,1.427615
1462000,0.0324,0.013523,0.002678,0.000431,1.479092
1463000,0.0324,0.013523,0.002678,0.000431,1.590039
1464000,0.0324,0.013523,0.002678,0.000431,1.584515
1465000,0.0324,0.013523,0.002678,0.000431,1.457820
1466000,0.0324,0.013523,0.002678,0.000431,1.517406
1467000,0.0324,0.013523,0.002678,0.000431,1.412689
1468000,0.0324,0.013523,0.002678,0.000431,1.288109
1469000,0.0324,0.013523,0.002678,0.000431,1.452178
1470000,0.0324,0.013523,0.002678,0.000431,1.458290
1471000,0.0324,0.013523,0.002678,0.000431,1.463814
1472000,0.0324,0.013523,0.002678,0.000431,1.488612
1473000,0.0324,0.013523,0.002678,0.000431,1.576523
1474000,0.0324,0.013523,0.002678,0.000431,1.371554
1475000,0.0324,0.013523,0.002678,0.000431,1.444539
1476000,0.0324,0.013523,0.002678,0.000431,1.528807
1477000,0.0324,0.013523,0.002678,0.000431,1.531862
1478000,0.0324,0.013523,0.002678,0.000431,1.433256
1479000,0.0324,0.013523,0.002678,0.000431,1.440660
1480000,0.0324,0.013523,0.002678,0.000431,1.594622
1481000,0.0324,0.013523,0.002678,0.000431,1.467809
1482000,0.0324,0.013523,0.002678,0.000431,1.484851
1483000,0.0324,0.013523,0.002678,0.000431,1.509885
1484000,0.0324,0.013523,0.002678,0.000431,1.509885
1485000,0.0324,0.013523,0.002678,0.000431,1.631526
1486000,0.0324,0.013523,0.002678,0.000431,1.535741
1487000,0.0324,0.013523,0.002678,0.000431,1.430671
1488000,0.0324,0.013523,0.002678,0.000431,1.384600
1489000,0.0324,0.013523,0.002678,0.000431,1.378606
1490000,0.0324,0.013523,0.002678,0.000431,1.461110
1491000,0.0324,0.013523,0.002678,0.000431,1.554663
1492000,0.0324,0.013523,0.002678,0.000431,1.470630
1493000,0.0324,0.013523,0.002678,0.000431,1.549021
1494000,0.0324,0.013523,0.002678,0.000431,1.660203
1495000,0.0324,0.013523,0.002678,0.000431,1.455822
1496000,0.0324,0.013523,0.002678,0.000431,1.621536
1497000,0.0324,0.013523,0.002678,0.000431,1.624122
1498000,0.0324,0.013523,0.002678,0.000431,1.616835
1499000,0.0324,0.013523,0.002678,0.000431,1.522225
1500000,0.0324,0.013523,0.002678,0.000431,1.512940
1501000,0.0324,0.013523,0.002678,0.000431,1.665727
1502000,0.0324,0.013523,0.002678,0.000431,1.544555
1503000,0.0324,0.013523,0.002678,0.000431,1.647863
1504000,0.0324,0.013523,0.002678,0.000431,1.623652
1505000,0.0324,0.013523,0.002678,0.000431,1.640928
1506000,0.0324,0.013523,0.002678,0.000431,1.551725
1507000,0.0324,0.013523,0.002678,0.000431,1.570999
1508000,0.0324,0.013523,0.002678,0.000431,1.665727
1509000,0.0324,0.013523,0.002678,0.000431,1.603437
1510000,0.0324,0.013523,0.002678,0.000431,1.549727
1511000,0.0324,0.013523,0.002678,0.000431,1.492255
1512000,0.0324,0.013523,0.002678,0.000431,1.654914
1513000,0.0324,0.013523,0.002678,0.000431,1.537504
1514000,0.0324,0.013523,0.002678,0.000431,1.409280
1515000,0.0324,0.013523,0.002678,0.000431,1.504478
1516000,0.0324,0.013523,0.002678,0.000431,1.617423
1517000,0.0324,0.013523,0.002678,0.000431,1.523988
1518000,0.0324,0.013523,0.002678,0.000431,1.572527
1519000,0.0324,0.013523,0.002678,0.000431,1.530334
1520000,0.0324,0.013523,0.002678,0.000431,1.495311
1521000,0.0324,0.013523,0.002678,0.000431,1.556426
1522000,0.0324,0.013523,0.002678,0.000431,1.512823
1523000,0.0324,0.013523,0.002678,0.000431,1.521755
1524000,0.0324,0.013523,0.002678,0.000431,1.524693
1525000,0.0324,0.013523,0.002678,0.000431,1.520227
1526000,0.0324,0.013523,0.002678,0.000431,1.523048
1527000,0.0324,0.013523,0.002678,0.000431,1.531745
1528000,0.0324,0.013523,0.002678,0.000431,1.438075
1529000,0.0324,0.013523,0.002678,0.000431,1.287169
1530000,0.0324,0.013523,0.002678,0.000431,1.455822
1531000,0.0324,0.013523,0.002678,0.000431,1.522578
1532000,0.0324,0.013523,0.002678,0.000431,1.486849
1533000,0.0324,0.013523,0.002678,0.000431,1.423736
1534000,0.0324,0.013523,0.002678,0.000431,1.396705
1535000,0.0324,0.013523,0.002678,0.000431,1.437370
1536000,0.0324,0.013523,0.002678,0.000431,1.522930
1537000,0.0324,0.013523,0.002678,0.000431,1.350164
1538000,0.0324,0.013523,0.002678,0.000431,1.467339
1539000,0.0324,0.013523,0.002678,0.000431,1.571822
1540000,0.0324,0.013523,0.002678,0.000431,1.386127
1541000,0.0324,0.013523,0.002678,0.000431,1.390241
1542000,0.0324,0.013523,0.002678,0.000431,1.504713
1543000,0.0324,0.013523,0.002678,0.000431,1.454881
1544000,0.0324,0.013523,0.002678,0.000431,1.490022
1545000,0.0324,0.013523,0.002678,0.000431,1.528924
1546000,0.0324,0.013523,0.002678,0.000431,1.456997
1547000,0.0324,0.013523,0.002678,0.000431,1.448300
1548000,0.0324,0.013523,0.002678,0.000431,1.519874
1549000,0.0324,0.013523,0.002678,0.000431,1.558659
1550000,0.0324,0.013523,0.002678,0.000431,1.483088
1551000,0.0324,0.013523,0.002678,0.000431,1.519404
1552000,0.0324,0.013523,0.002678,0.000431,1.524223
1553000,0.0324,0.013523,0.002678,0.000431,1.473686
1554000,0.0324,0.013523,0.002678,0.000431,1.488965
1555000,0.0324,0.013523,0.002678,0.000431,1.489082
1556000,0.0324,0.013523,0.002678,0.000431,1.383072
1557000,0.0324,0.013523,0.002678,0.000431,1.331594
1558000,0.0324,0.013523,0.002678,0.000431,1.497427
1559000,0.0324,0.013523,0.002678,0.000431,1.488259
1560000,0.0324,0.013523,0.002678,0.000431,1.411396
1561000,0.0324,0.013523,0.002678,0.000431,1.559481
1562000,0.0324,0.013523,0.002678,0.000431,1.377665
1563000,0.0324,0.013523,0.002678,0.000431,1.386362
1564000,0.0324,0.013523,0.002678,0.000431,1.490610
1565000,0.0324,0.013523,0.002678,0.000431,1.468515
1566000,0.0324,0.013523,0.002678,0.000431,1.467809
1567000,0.0324,0.013523,0.002678,0.000431,1.421503
1568000,0.0324,0.013523,0.002678,0.000431,1.423031
1569000,0.0324,0.013523,0.002678,0.000431,1.465694
1570000,0.0324,0.013523,0.002678,0.000431,1.471688
1571000,0.0324,0.013523,0.002678,0.000431,1.428438
1572000,0.0324,0.013523,0.002678,0.000431,1.465106
1573000,0.0324,0.013523,0.002678,0.000431,1.425499
1574000,0.0324,0.013523,0.002678,0.000431,1.529629
1575000,0.0324,0.013523,0.002678,0.000431,1.429025
1576000,0.0324,0.013523,0.002678,0.000431,1.396587
1577000,0.0324,0.013523,0.002678,0.000431,1.416215
1578000,0.0324,0.013523,0.002678,0.000431,1.427967
1579000,0.0324,0.013523,0.002678,0.000431,1.460523
1580000,0.0324,0.013523,0.002678,0.000431,1.364737
1581000,0.0324,0.013523,0.002678,0.000431,1.418800
1582000,0.0324,0.013523,0.002678,0.000431,1.318666
1583000,0.0324,0.013523,0.002678,0.000431,1.389771
1584000,0.0324,0.013523,0.002678,0.000431,1.383777
1585000,0.0324,0.013523,0.002678,0.000431,1.367205
1586000,0.0324,0.013523,0.002678,0.000431,1.364385
1587000,0.0324,0.013523,0.002678,0.000431,1.334650
1588000,0.0324,0.013523,0.002678,0.000431,1.251675
1589000,0.0324,0.013523,0.002678,0.000431,1.298686
1590000,0.0324,0.013523,0.002678,0.000431,1.358508
1591000,0.0324,0.013523,0.002678,0.000431,1.149073
1592000,0.0324,0.013523,0.002678,0.000431,1.308089
1593000,0.0324,0.013523,0.002678,0.000431,1.403639
1594000,0.0324,0.013523,0.002678,0.000431,1.250852
1595000,0.0324,0.013523,0.002678,0.000431,1.220530
1596000,0.0324,0.013523,0.002678,0.000431,1.285053
1597000,0.0324,0.013523,0.002678,0.000431,1.329596
1598000,0.0324,0.013523,0.002678,0.000431,1.305503
1599000,0.0324,0.013523,0.002678,0.000431,1.343230
1600000,0.0324,0.013523,0.002678,0.000431,1.308441
1601000,0.0324,0.013523,0.002678,0.000431,1.300684
1602000,0.0324,0.013523,0.002678,0.000431,1.330537
1603000,0.0324,0.013523,0.002678,0.000431,1.311615
1604000,0.0324,0.013523,0.002678,0.000431,1.194439
1605000,0.0324,0.013523,0.002678,0.000431,1.273183
1606000,0.0324,0.013523,0.002678,0.000431,1.276003
1607000,0.0324,0.013523,0.002678,0.000431,1.317373
1608000,0.0324,0.013523,0.002678,0.000431,1.309969
1609000,0.0324,0.013523,0.002678,0.000431,1.131209
1610000,0.0324,0.013523,0.002678,0.000431,1.293985
1611000,0.0324,0.013523,0.002678,0.000431,1.224879
1612000,0.0324,0.013523,0.002678,0.000431,1.297629
1613000,0.0324,0.013523,0.002678,0.000431,1.310204
1614000,0.0324,0.013523,0.002678,0.000431,1.271302
1615000,0.0324,0.013523,0.002678,0.000431,1.360389
1616000,0.0324,0.013523,0.002678,0.000431,1.273300
1617000,0.0324,0.013523,0.002678,0.000431,1.328774
1618000,0.0324,0.013523,0.002678,0.000431,1.279412
1619000,0.0324,0.013523,0.002678,0.000431,1.273065
1620000,0.0324,0.013523,0.002678,0.000431,1.185272
1621000,0.0324,0.013523,0.002678,0.000431,1.246856
1622000,0.0324,0.013523,0.002678,0.000431,1.220648
1623000,0.0324,0.013523,0.002678,0.000431,1.187152
1624000,0.0324,0.013523,0.002678,0.000431,1.241098
1625000,0.0324,0.013523,0.002678,0.000431,1.173284
1626000,0.0324,0.013523,0.002678,0.000431,1.181863
1627000,0.0324,0.013523,0.002678,0.000431,1.207602
1628000,0.0324,0.013523,0.002678,0.000431,1.205252
1629000,0.0324,0.013523,0.002678,0.000431,1.042945
1630000,0.0324,0.013523,0.002678,0.000431,1.161061
1631000,0.0324,0.013523,0.002678,0.000431,1.165174
1632000,0.0324,0.013523,0.002678,0.000431,1.162941
1633000,0.0324,0.013523,0.002678,0.000431,1.130386
1634000,0.0324,0.013523,0.002678,0.000431,1.136145
1635000,0.0324,0.013523,0.002678,0.000431,1.173284
1636000,0.0324,0.013523,0.002678,0.000431,1.143549
1637000,0.0324,0.013523,0.002678,0.000431,1.138966
1638000,0.0324,0.013523,0.002678,0.000431,1.156595
1639000,0.0324,0.013523,0.002678,0.000431,1.098418
1640000,0.0324,0.013523,0.002678,0.000431,1.111582
1641000,0.0324,0.013523,0.002678,0.000431,1.129798
1642000,0.0324,0.013523,0.002678,0.000431,1.136145
1643000,0.0324,0.013523,0.002678,0.000431,1.057166
1644000,0.0324,0.013523,0.002678,0.000431,1.138143
1645000,0.0324,0.013523,0.002678,0.000431,1.131914
1646000,0.0324,0.013523,0.002678,0.000431,1.085373
1647000,0.0324,0.013523,0.002678,0.000431,1.118633
1648000,0.0324,0.013523,0.002678,0.000431,1.163999
1649000,0.0324,0.013523,0.002678,0.000431,1.142491
1650000,0.0324,0.013523,0.002678,0.000431,1.197025
1651000,0.0324,0.013523,0.002678,0.000431,1.181276
1652000,0.0324,0.013523,0.002678,0.000431,1.166820
1653000,0.0324,0.013523,0.002678,0.000431,1.158710
1654000,0.0324,0.013523,0.002678,0.000431,1.170346
1655000,0.0324,0.013523,0.002678,0.000431,1.150953
1656000,0.0324,0.013523,0.002678,0.000431,1.148838
1657000,0.0324,0.013523,0.002678,0.000431,1.059752
1658000,0.0324,0.013523,0.002678,0.000431,1.172461
1659000,0.0324,0.013523,0.002678,0.000431,1.141199
1660000,0.0324,0.013523,0.002678,0.000431,1.165292
1661000,0.0324,0.013523,0.002678,0.000431,1.110289
1662000,0.0324,0.013523,0.002678,0.000431,1.210070
1663000,0.0324,0.013523,0.002678,0.000431,1.114520
1664000,0.0324,0.013523,0.002678,0.000431,1.182334
1665000,0.0324,0.013523,0.002678,0.000431,1.134970
1666000,0.0324,0.013523,0.002678,0.000431,1.221705
1667000,0.0324,0.013523,0.002678,0.000431,1.199963
1668000,0.0324,0.013523,0.002678,0.000431,1.201491
1669000,0.0324,0.013523,0.002678,0.000431,1.217474
1670000,0.0324,0.013523,0.002678,0.000431,1.217709
1671000,0.0324,0.013523,0.002678,0.000431,1.283995
1672000,0.0324,0.013523,0.002678,0.000431,1.231343
1673000,0.0324,0.013523,0.002678,0.000431,1.244388
1674000,0.0324,0.013523,0.002678,0.000431,1.312202
1675000,0.0324,0.013523,0.002678,0.000431,1.192088
1676000,0.0324,0.013523,0.002678,0.000431,1.282350
1677000,0.0324,0.013523,0.002678,0.000431,1.190208
1678000,0.0324,0.013523,0.002678,0.000431,1.194439
1679000,0.0324,0.013523,0.002678,0.000431,1.176222
1680000,0.0324,0.013523,0.002678,0.000431,1.216769
1681000,0.0324,0.013523,0.002678,0.000431,1.189033
1682000,0.0324,0.013523,0.002678,0.000431,1.130151
1683000,0.0324,0.013523,0.002678,0.000431,1.151189
1684000,0.0324,0.013523,0.002678,0.000431,1.138260
1685000,0.0324,0.013523,0.002678,0.000431,1.131914
1686000,0.0324,0.013523,0.002678,0.000431,1.103120
1687000,0.0324,0.013523,0.002678,0.000431,1.080437
1688000,0.0324,0.013523,0.002678,0.000431,1.095010
1689000,0.0324,0.013523,0.002678,0.000431,1.052935
1690000,0.0324,0.013523,0.002678,0.000431,1.130739
1691000,0.0324,0.013523,0.002678,0.000431,1.050937
1692000,0.0324,0.013523,0.002678,0.000431,1.160121
1693000,0.0324,0.013523,0.002678,0.000431,1.107938
1694000,0.0324,0.013523,0.002678,0.000431,1.136850
1695000,0.0324,0.013523,0.002678,0.000431,1.145430
1696000,0.0324,0.013523,0.002678,0.000431,1.211128
1697000,0.0324,0.013523,0.002678,0.000431,1.197847
1698000,0.0324,0.013523,0.002678,0.000431,1.271185
1699000,0.0324,0.013523,0.002678,0.000431,1.091367
1700000,0.0324,0.013523,0.002678,0.000431,1.239452
1701000,0.0324,0.013523,0.002678,0.000431,1.282820
1702000,0.0324,0.013523,0.002678,0.000431,1.160826
1703000,0.0324,0.013523,0.002678,0.000431,1.331007
1704000,0.0324,0.013523,0.002678,0.000431,1.264721
1705000,0.0324,0.013523,0.002678,0.000431,1.346873
1706000,0.0324,0.013523,0.002678,0.000431,1.226054
1707000,0.0324,0.013523,0.002678,0.000431,1.331829
1708000,0.0324,0.013523,0.002678,0.000431,1.385070
1709000,0.0324,0.013523,0.002678,0.000431,1.255906
1710000,0.0324,0.013523,0.002678,0.000431,1.377078
1711000,0.0324,0.013523,0.002678,0.000431,1.290459
1712000,0.0324,0.013523,0.002678,0.000431,1.343465
1713000,0.0324,0.013523,0.002678,0.000431,1.344757
1714000,0.0324,0.013523,0.002678,0.000431,1.382366
1715000,0.0324,0.013523,0.002678,0.000431,1.197495
1716000,0.0324,0.013523,0.002678,0.000431,1.424324
1717000,0.0324,0.013523,0.002678,0.000431,1.451943
1718000,0.0324,0.013523,0.002678,0.000431,1.474509
1719000,0.0324,0.013523,0.002678,0.000431,1.421621
1720000,0.0324,0.013523,0.002678,0.000431,1.385540
1721000,0.0324,0.013523,0.002678,0.000431,1.475801
1722000,0.0324,0.013523,0.002678,0.000431,1.464401
1723000,0.0324,0.013523,0.002678,0.000431,1.355100
1724000,0.0324,0.013523,0.002678,0.000431,1.418565
1725000,0.0324,0.013523,0.002678,0.000431,1.508474
1726000,0.0324,0.013523,0.002678,0.000431,1.456879
1727000,0.0324,0.013523,0.002678,0.000431,1.458525
1728000,0.0324,0.013523,0.002678,0.000431,1.303270
1729000,0.0324,0.013523,0.002678,0.000431,1.401053
1730000,0.0324,0.013523,0.002678,0.000431,1.459582
1731000,0.0324,0.013523,0.002678,0.000431,1.331594
1732000,0.0324,0.013523,0.002678,0.000431,1.488024
1733000,0.0324,0.013523,0.002678,0.000431,1.471453
1734000,0.0324,0.013523,0.002678,0.000431,1.557131
1735000,0.0324,0.013523,0.002678,0.000431,1.453001
1736000,0.0324,0.013523,0.002678,0.000431,1.465811
1737000,0.0324,0.013523,0.002678,0.000431,1.509414
1738000,0.0324,0.013523,0.002678,0.000431,1.496251
1739000,0.0324,0.013523,0.002678,0.000431,1.348636
1740000,0.0324,0.013523,0.002678,0.000431,1.524576
1741000,0.0324,0.013523,0.002678,0.000431,1.369908
1742000,0.0324,0.013523,0.002678,0.000431,1.401053
1743000,0.0324,0.013523,0.002678,0.000431,1.395882
1744000,0.0324,0.013523,0.002678,0.000431,1.409163
1745000,0.0324,0.013523,0.002678,0.000431,1.346755
1746000,0.0324,0.013523,0.002678,0.000431,1.401053
1747000,0.0324,0.013523,0.002678,0.000431,1.369438
1748000,0.0324,0.013523,0.002678,0.000431,1.450180
1749000,0.0324,0.013523,0.002678,0.000431,1.461580
1750000,0.0324,0.013523,0.002678,0.000431,1.498954
1751000,0.0324,0.013523,0.002678,0.000431,1.563007
1752000,0.0324,0.013523,0.002678,0.000431,1.416332
1753000,0.0324,0.013523,0.002678,0.000431,1.391769
1754000,0.0324,0.013523,0.002678,0.000431,1.541617
1755000,0.0324,0.013523,0.002678,0.000431,1.534330
1756000,0.0324,0.013523,0.002678,0.000431,1.476507
1757000,0.0324,0.013523,0.002678,0.000431,1.374962
1758000,0.0324,0.013523,0.002678,0.000431,1.503656
1759000,0.0324,0.013523,0.002678,0.000431,1.482618
1760000,0.0324,0.013523,0.002678,0.000431,1.390123
1761000,0.0324,0.013523,0.002678,0.000431,1.537621
1762000,0.0324,0.013523,0.002678,0.000431,1.460523
1763000,0.0324,0.013523,0.002678,0.000431,1.543028
1764000,0.0324,0.013523,0.002678,0.000431,1.371319
1765000,0.0324,0.013523,0.002678,0.000431,1.421503
1766000,0.0324,0.013523,0.002678,0.000431,1.599911
1767000,0.0324,0.013523,0.002678,0.000431,1.334885
1768000,0.0324,0.013523,0.002678,0.000431,1.517289
1769000,0.0324,0.013523,0.002678,0.000431,1.565005
1770000,0.0324,0.013523,0.002678,0.000431,1.478152
1771000,0.0324,0.013523,0.002678,0.000431,1.510942
1772000,0.0324,0.013523,0.002678,0.000431,1.526221
1773000,0.0324,0.013523,0.002678,0.000431,1.499542
1774000,0.0324,0.013523,0.002678,0.000431,1.447242
1775000,0.0324,0.013523,0.002678,0.000431,1.417272
1776000,0.0324,0.013523,0.002678,0.000431,1.501893
1777000,0.0324,0.013523,0.002678,0.000431,1.439250
1778000,0.0324,0.013523,0.002678,0.000431,1.554898
1779000,0.0324,0.013523,0.002678,0.000431,1.385422
1780000,0.0324,0.013523,0.002678,0.000431,1.361446
1781000,0.0324,0.013523,0.002678,0.000431,1.539032
1782000,0.0324,0.013523,0.002678,0.000431,1.398233
1783000,0.0324,0.013523,0.002678,0.000431,1.520697
1784000,0.0324,0.013523,0.002678,0.000431,1.448770
1785000,0.0324,0.013523,0.002678,0.000431,1.456292
1786000,0.0324,0.013523,0.002678,0.000431,1.516701
1787000,0.0324,0.013523,0.002678,0.000431,1.497427
1788000,0.0324,0.013523,0.002678,0.000431,1.221118
1789000,0.0324,0.013523,0.002678,0.000431,1.385775
1790000,0.0324,0.013523,0.002678,0.000431,1.319019
1791000,0.0324,0.013523,0.002678,0.000431,1.335120
1792000,0.0324,0.013523,0.002678,0.000431,1.431611
1793000,0.0324,0.013523,0.002678,0.000431,1.481795
1794000,0.0324,0.013523,0.002678,0.000431,1.449005
1795000,0.0324,0.013523,0.002678,0.000431,1.404227
1796000,0.0324,0.013523,0.002678,0.000431,1.565710
1797000,0.0324,0.013523,0.002678,0.000431,1.462403
1798000,0.0324,0.013523,0.002678,0.000431,1.457820
1799000,0.0324,0.013523,0.002678,0.000431,1.467457
1800000,0.0324,0.013523,0.002678,0.000431,1.338293
1801000,0.0324,0.013523,0.002678,0.000431,1.513881
1802000,0.0324,0.013523,0.002678,0.000431,1.401171
1803000,0.0324,0.013523,0.002678,0.000431,1.426675
1804000,0.0324,0.013523,0.002678,0.000431,1.483206
1805000,0.0324,0.013523,0.002678,0.000431,1.432433
1806000,0.0324,0.013523,0.002678,0.000431,1.316433
1807000,0.0324,0.013523,0.002678,0.000431,1.425499
1808000,0.0324,0.013523,0.002678,0.000431,1.404814
1809000,0.0324,0.013523,0.002678,0.000431,1.375785
1810000,0.0324,0.013523,0.002678,0.000431,1.531275
1811000,0.0324,0.013523,0.002678,0.000431,1.212421
1812000,0.0324,0.013523,0.002678,0.000431,1.338058
1813000,0.0324,0.013523,0.002678,0.000431,1.370849
1814000,0.0324,0.013523,0.002678,0.000431,1.458642
1815000,0.0324,0.013523,0.002678,0.000431,1.262488
1816000,0.0324,0.013523,0.002678,0.000431,1.454529
1817000,0.0324,0.013523,0.002678,0.000431,1.452766
1818000,0.0324,0.013523,0.002678,0.000431,1.417742
1819000,0.0324,0.013523,0.002678,0.000431,1.513058
1820000,0.0324,0.013523,0.002678,0.000431,1.346285
1821000,0.0324,0.013523,0.002678,0.000431,1.464401
1822000,0.0324,0.013523,0.002678,0.000431,1.387303
1823000,0.0324,0.013523,0.002678,0.000431,1.412454
1824000,0.0324,0.013523,0.002678,0.000431,1.417860
1825000,0.0324,0.013523,0.002678,0.000431,1.408575
1826000,0.0324,0.013523,0.002678,0.000431,1.408928
1827000,0.0324,0.013523,0.002678,0.000431,1.366853
1828000,0.0324,0.013523,0.002678,0.000431,1.465576
1829000,0.0324,0.013523,0.002678,0.000431,1.193499
1830000,0.0324,0.013523,0.002678,0.000431,1.246386
1831000,0.0324,0.013523,0.002678,0.000431,1.371436
1832000,0.0324,0.013523,0.002678,0.000431,1.407165
1833000,0.0324,0.013523,0.002678,0.000431,1.441836
1834000,0.0324,0.013523,0.002678,0.000431,1.342642
1835000,0.0324,0.013523,0.002678,0.000431,1.288226
1836000,0.0324,0.013523,0.002678,0.000431,1.336766
1837000,0.0324,0.013523,0.002678,0.000431,1.318901
1838000,0.0324,0.013523,0.002678,0.000431,1.321957
1839000,0.0324,0.013523,0.002678,0.000431,1.421621
1840000,0.0324,0.013523,0.002678,0.000431,1.315023
1841000,0.0324,0.013523,0.002678,0.000431,1.372377
1842000,0.0324,0.013523,0.002678,0.000431,1.493783
1843000,0.0324,0.013523,0.002678,0.000431,1.430553
1844000,0.0324,0.013523,0.002678,0.000431,1.468985
1845000,0.0324,0.013523,0.002678,0.000431,1.483676
1846000,0.0324,0.013523,0.002678,0.000431,1.541030
1847000,0.0324,0.013523,0.002678,0.000431,1.465224
1848000,0.0324,0.013523,0.002678,0.000431,1.510002
1849000,0.0324,0.013523,0.002678,0.000431,1.304563
1850000,0.0324,0.013523,0.002678,0.000431,1.315846
1851000,0.0324,0.013523,0.002678,0.000431,1.557836
1852000,0.0324,0.013523,0.002678,0.000431,1.365913
1853000,0.0324,0.013523,0.002678,0.000431,1.354395
1854000,0.0324,0.013523,0.002678,0.000431,1.426204
1855000,0.0324,0.013523,0.002678,0.000431,1.551725
1856000,0.0324,0.013523,0.002678,0.000431,1.413629
1857000,0.0324,0.013523,0.002678,0.000431,1.494136
1858000,0.0324,0.013523,0.002678,0.000431,1.606728
1859000,0.0324,0.013523,0.002678,0.000431,1.454999
1860000,0.0324,0.013523,0.002678,0.000431,1.312437
1861000,0.0324,0.013523,0.002678,0.000431,1.470395
1862000,0.0324,0.013523,0.002678,0.000431,1.507534
1863000,0.0324,0.013523,0.002678,0.000431,1.464049
1864000,0.0324,0.013523,0.002678,0.000431,1.466987
1865000,0.0324,0.013523,0.002678,0.000431,1.503421
1866000,0.0324,0.013523,0.002678,0.000431,1.523048
1867000,0.0324,0.013523,0.002678,0.000431,1.482383
1868000,0.0324,0.013523,0.002678,0.000431,1.347578
1869000,0.0324,0.013523,0.002678,0.000431,1.619773
1870000,0.0324,0.013523,0.002678,0.000431,1.456527
1871000,0.0324,0.013523,0.002678,0.000431,1.569941
1872000,0.0324,0.013523,0.002678,0.000431,1.508827
1873000,0.0324,0.013523,0.002678,0.000431,1.635875
1874000,0.0324,0.013523,0.002678,0.000431,1.497779
1875000,0.0324,0.013523,0.002678,0.000431,1.413511
1876000,0.0324,0.013523,0.002678,0.000431,1.361446
1877000,0.0324,0.013523,0.002678,0.000431,1.355805
1878000,0.0324,0.013523,0.002678,0.000431,1.366148
1879000,0.0324,0.013523,0.002678,0.000431,1.540207
1880000,0.0324,0.013523,0.002678,0.000431,1.450298
1881000,0.0324,0.013523,0.002678,0.000431,1.404814
1882000,0.0324,0.013523,0.002678,0.000431,1.361329
1883000,0.0324,0.013523,0.002678,0.000431,1.480973
1884000,0.0324,0.013523,0.002678,0.000431,1.409515
1885000,0.0324,0.013523,0.002678,0.000431,1.626002
1886000,0.0324,0.013523,0.002678,0.000431,1.612369
1887000,0.0324,0.013523,0.002678,0.000431,1.431141
1888000,0.0324,0.013523,0.002678,0.000431,1.631174
1889000,0.0324,0.013523,0.002678,0.000431,1.563125
1890000,0.0324,0.013523,0.002678,0.000431,1.593682
1891000,0.0324,0.013523,0.002678,0.000431,1.615072
1892000,0.0324,0.013523,0.002678,0.000431,1.528807
1893000,0.0324,0.013523,0.002678,0.000431,1.546436
1894000,0.0324,0.013523,0.002678,0.000431,1.575935
1895000,0.0324,0.013523,0.002678,0.000431,1.527631
1896000,0.0324,0.013523,0.002678,0.000431,1.606375
1897000,0.0324,0.013523,0.002678,0.000431,1.464519
1898000,0.0324,0.013523,0.002678,0.000431,1.467339
1899000,0.0324,0.013523,0.002678,0.000431,1.511530
1900000,0.0324,0.013523,0.002678,0.000431,1.547729
1901000,0.0324,0.013523,0.002678,0.000431,1.504008
1902000,0.0324,0.013523,0.002678,0.000431,1.547141
1903000,0.0324,0.013523,0.002678,0.000431,1.488612
1904000,0.0324,0.013523,0.002678,0.000431,1.573702
1905000,0.0324,0.013523,0.002678,0.000431,1.486849
1906000,0.0324,0.013523,0.002678,0.000431,1.513763
1907000,0.0324,0.013523,0.002678,0.000431,1.352279
1908000,0.0324,0.013523,0.002678,0.000431,1.457114
1909000,0.0324,0.013523,0.002678,0.000431,1.473451
1910000,0.0324,0.013523,0.002678,0.000431,1.376255
1911000,0.0324,0.013523,0.002678,0.000431,1.352867
1912000,0.0324,0.013523,0.002678,0.000431,1.443834
1913000,0.0324,0.013523,0.002678,0.000431,1.481678
1914000,0.0324,0.013523,0.002678,0.000431,1.386833
1915000,0.0324,0.013523,0.002678,0.000431,1.519052
1916000,0.0324,0.013523,0.002678,0.000431,1.400583
1917000,0.0324,0.013523,0.002678,0.000431,1.417390
1918000,0.0324,0.013523,0.002678,0.000431,1.391769
1919000,0.0324,0.013523,0.002678,0.000431,1.455587
1920000,0.0324,0.013523,0.002678,0.000431,1.431141
1921000,0.0324,0.013523,0.002678,0.000431,1.488259
1922000,0.0324,0.013523,0.002678,0.000431,1.362387
1923000,0.0324,0.013523,0.002678,0.000431,1.378135
1924000,0.0324,0.013523,0.002678,0.000431,1.510002
1925000,0.0324,0.013523,0.002678,0.000431,1.370144
1926000,0.0324,0.013523,0.002678,0.000431,1.515408
1927000,0.0324,0.013523,0.002678,0.000431,1.305033
1928000,0.0324,0.013523,0.002678,0.000431,1.436547
1929000,0.0324,0.013523,0.002678,0.000431,1.367205
1930000,0.0324,0.013523,0.002678,0.000431,1.251440
1931000,0.0324,0.013523,0.002678,0.000431,1.334062
1932000,0.0324,0.013523,0.002678,0.000431,1.494723
1933000,0.0324,0.013523,0.002678,0.000431,1.327363
1934000,0.0324,0.013523,0.002678,0.000431,1.430553
1935000,0.0324,0.013523,0.002678,0.000431,1.531157
1936000,0.0324,0.013523,0.002678,0.000431,1.486496
1937000,0.0324,0.013523,0.002678,0.000431,1.471100
1938000,0.0324,0.013523,0.002678,0.000431,1.547964
1939000,0.0324,0.013523,0.002678,0.000431,1.422091
1940000,0.0324,0.013523,0.002678,0.000431,1.397880
1941000,0.0324,0.013523,0.002678,0.000431,1.467222
1942000,0.0324,0.013523,0.002678,0.000431,1.369321
1943000,0.0324,0.013523,0.002678,0.000431,1.540677
1944000,0.0324,0.013523,0.002678,0.000431,1.369673
1945000,0.0324,0.013523,0.002678,0.000431,1.402699
1946000,0.0324,0.013523,0.002678,0.000431,1.392826
1947000,0.0324,0.013523,0.002678,0.000431,1.429025
1948000,0.0324,0.013523,0.002678,0.000431,1.355923
1949000,0.0324,0.013523,0.002678,0.000431,1.277296
1950000,0.0324,0.013523,0.002678,0.000431,1.454059
1951000,0.0324,0.013523,0.002678,0.000431,1.277179
1952000,0.0324,0.013523,0.002678,0.000431,1.267071
1953000,0.0324,0.013523,0.002678,0.000431,1.443834
1954000,0.0324,0.013523,0.002678,0.000431,1.319724
1955000,0.0324,0.013523,0.002678,0.000431,1.390476
1956000,0.0324,0.013523,0.002678,0.000431,1.325953
1957000,0.0324,0.013523,0.002678,0.000431,1.313377
1958000,0.0324,0.013523,0.002678,0.000431,1.386715
1959000,0.0324,0.013523,0.002678,0.000431,1.333005
1960000,0.0324,0.013523,0.002678,0.000431,1.317844
1961000,0.0324,0.013523,0.002678,0.000431,1.465576
1962000,0.0324,0.013523,0.002678,0.000431,1.358391
1963000,0.0324,0.013523,0.002678,0.000431,1.257552
1964000,0.0324,0.013523,0.002678,0.000431,1.416567
1965000,0.0324,0.013523,0.002678,0.000431,1.373552
1966000,0.0324,0.013523,0.002678,0.000431,1.305386
1967000,0.0324,0.013523,0.002678,0.000431,1.377430
1968000,0.0324,0.013523,0.002678,0.000431,1.331829
1969000,0.0324,0.013523,0.002678,0.000431,1.386715
1970000,0.0324,0.013523,0.002678,0.000431,1.388008
1971000,0.0324,0.013523,0.002678,0.000431,1.278942
1972000,0.0324,0.013523,0.002678,0.000431,1.305856
1973000,0.0324,0.013523,0.002678,0.000431,1.313377
1974000,0.0324,0.013523,0.002678,0.000431,1.320194
1975000,0.0324,0.013523,0.002678,0.000431,1.351692
1976000,0.0324,0.013523,0.002678,0.000431,1.334415
1977000,0.0324,0.013523,0.002678,0.000431,1.272360
1978000,0.0324,0.013523,0.002678,0.000431,1.321017
1979000,0.0324,0.013523,0.002678,0.000431,1.272125
1980000,0.0324,0.013523,0.002678,0.000431,1.292222
1981000,0.0324,0.013523,0.002678,0.000431,1.279177
1982000,0.0324,0.013523,0.002678,0.000431,1.249207
1983000,0.0324,0.013523,0.002678,0.000431,1.290694
1984000,0.0324,0.013523,0.002678,0.000431,1.242038
1985000,0.0324,0.013523,0.002678,0.000431,1.161061
1986000,0.0324,0.013523,0.002678,0.000431,1.235809
1987000,0.0324,0.013523,0.002678,0.000431,1.238982
1988000,0.0324,0.013523,0.002678,0.000431,1.217945
1989000,0.0324,0.013523,0.002678,0.000431,1.313377
1990000,0.0324,0.013523,0.002678,0.000431,1.230990
1991000,0.0324,0.013523,0.002678,0.000431,1.270715
1992000,0.0324,0.013523,0.002678,0.000431,1.254378
1993000,0.0324,0.013523,0.002678,0.000431,1.250265
1994000,0.0324,0.013523,0.002678,0.000431,1.192558
1995000,0.0324,0.013523,0.002678,0.000431,1.259550
1996000,0.0324,0.013523,0.002678,0.000431,1.175047
1997000,0.0324,0.013523,0.002678,0.000431,1.190325
1998000,0.0324,0.013523,0.002678,0.000431,1.119809
1999000,0.0324,0.013523,0.002678,0.000431,1.174577
