Cycle,Area(mm^2),PeakDynamic(W),SubthresholdLeakage(W),GateLeakage(W),RunTimeDynamic(W)
7000000,0.0324,0.013523,0.002678,0.000431,0.025974
7001000,0.0324,0.013523,0.002678,0.000431,0.024446
7002000,0.0324,0.013523,0.002678,0.000431,0.024563
7003000,0.0324,0.013523,0.002678,0.000431,0.023623
7004000,0.0324,0.013523,0.002678,0.000431,0.024916
7005000,0.0324,0.013523,0.002678,0.000431,0.024328
7006000,0.0324,0.013523,0.002678,0.000431,0.024328
7007000,0.0324,0.013523,0.002678,0.000431,0.023741
7008000,0.0324,0.013523,0.002678,0.000431,0.023271
7009000,0.0324,0.013523,0.002678,0.000431,0.024446
7010000,0.0324,0.013523,0.002678,0.000431,0.023388
7011000,0.0324,0.013523,0.002678,0.000431,0.026091
7012000,0.0324,0.013523,0.002678,0.000431,0.024916
7013000,0.0324,0.013523,0.002678,0.000431,0.023976
7014000,0.0324,0.013523,0.002678,0.000431,0.023506
7015000,0.0324,0.013523,0.002678,0.000431,0.025034
7016000,0.0324,0.013523,0.002678,0.000431,0.024681
7017000,0.0324,0.013523,0.002678,0.000431,0.024328
7018000,0.0324,0.013523,0.002678,0.000431,0.025151
7019000,0.0324,0.013523,0.002678,0.000431,0.024446
7020000,0.0324,0.013523,0.002678,0.000431,0.022448
7021000,0.0324,0.013523,0.002678,0.000431,0.025856
7022000,0.0324,0.013523,0.002678,0.000431,0.022918
7023000,0.0324,0.013523,0.002678,0.000431,0.023623
7024000,0.0324,0.013523,0.002678,0.000431,0.023388
7025000,0.0324,0.013523,0.002678,0.000431,0.024798
7026000,0.0324,0.013523,0.002678,0.000431,0.025621
7027000,0.0324,0.013523,0.002678,0.000431,0.023506
7028000,0.0324,0.013523,0.002678,0.000431,0.025386
7029000,0.0324,0.013523,0.002678,0.000431,0.023976
7030000,0.0324,0.013523,0.002678,0.000431,0.025151
7031000,0.0324,0.013523,0.002678,0.000431,0.023623
7032000,0.0324,0.013523,0.002678,0.000431,0.024916
7033000,0.0324,0.013523,0.002678,0.000431,0.023388
7034000,0.0324,0.013523,0.002678,0.000431,0.025269
7035000,0.0324,0.013523,0.002678,0.000431,0.023388
7036000,0.0324,0.013523,0.002678,0.000431,0.024328
7037000,0.0324,0.013523,0.002678,0.000431,0.024211
7038000,0.0324,0.013523,0.002678,0.000431,0.024798
7039000,0.0324,0.013523,0.002678,0.000431,0.024798
7040000,0.0324,0.013523,0.002678,0.000431,0.025386
7041000,0.0324,0.013523,0.002678,0.000431,0.024916
7042000,0.0324,0.013523,0.002678,0.000431,0.023976
7043000,0.0324,0.013523,0.002678,0.000431,0.023623
7044000,0.0324,0.013523,0.002678,0.000431,0.022918
7045000,0.0324,0.013523,0.002678,0.000431,0.026914
7046000,0.0324,0.013523,0.002678,0.000431,0.023271
7047000,0.0324,0.013523,0.002678,0.000431,0.024446
7048000,0.0324,0.013523,0.002678,0.000431,0.024211
7049000,0.0324,0.013523,0.002678,0.000431,0.025151
7050000,0.0324,0.013523,0.002678,0.000431,0.023858
7051000,0.0324,0.013523,0.002678,0.000431,0.023036
7052000,0.0324,0.013523,0.002678,0.000431,0.022918
7053000,0.0324,0.013523,0.002678,0.000431,0.023623
7054000,0.0324,0.013523,0.002678,0.000431,0.023858
7055000,0.0324,0.013523,0.002678,0.000431,0.023976
7056000,0.0324,0.013523,0.002678,0.000431,0.026326
7057000,0.0324,0.013523,0.002678,0.000431,0.023388
7058000,0.0324,0.013523,0.002678,0.000431,0.024563
7059000,0.0324,0.013523,0.002678,0.000431,0.023506
7060000,0.0324,0.013523,0.002678,0.000431,0.023623
7061000,0.0324,0.013523,0.002678,0.000431,0.025621
7062000,0.0324,0.013523,0.002678,0.000431,0.022918
7063000,0.0324,0.013523,0.002678,0.000431,0.023741
7064000,0.0324,0.013523,0.002678,0.000431,0.023036
7065000,0.0324,0.013523,0.002678,0.000431,0.023153
7066000,0.0324,0.013523,0.002678,0.000431,0.021978
7067000,0.0324,0.013523,0.002678,0.000431,0.022918
7068000,0.0324,0.013523,0.002678,0.000431,0.024328
7069000,0.0324,0.013523,0.002678,0.000431,0.024211
7070000,0.0324,0.013523,0.002678,0.000431,0.023506
7071000,0.0324,0.013523,0.002678,0.000431,0.024681
7072000,0.0324,0.013523,0.002678,0.000431,0.023623
7073000,0.0324,0.013523,0.002678,0.000431,0.023858
7074000,0.0324,0.013523,0.002678,0.000431,0.021508
7075000,0.0324,0.013523,0.002678,0.000431,0.021508
7076000,0.0324,0.013523,0.002678,0.000431,0.024681
7077000,0.0324,0.013523,0.002678,0.000431,0.022448
7078000,0.0324,0.013523,0.002678,0.000431,0.024093
7079000,0.0324,0.013523,0.002678,0.000431,0.023741
7080000,0.0324,0.013523,0.002678,0.000431,0.023036
7081000,0.0324,0.013523,0.002678,0.000431,0.022800
7082000,0.0324,0.013523,0.002678,0.000431,0.024328
7083000,0.0324,0.013523,0.002678,0.000431,0.023036
7084000,0.0324,0.013523,0.002678,0.000431,0.024446
7085000,0.0324,0.013523,0.002678,0.000431,0.022330
7086000,0.0324,0.013523,0.002678,0.000431,0.024093
7087000,0.0324,0.013523,0.002678,0.000431,0.024211
7088000,0.0324,0.013523,0.002678,0.000431,0.023976
7089000,0.0324,0.013523,0.002678,0.000431,0.023271
7090000,0.0324,0.013523,0.002678,0.000431,0.025269
7091000,0.0324,0.013523,0.002678,0.000431,0.023858
7092000,0.0324,0.013523,0.002678,0.000431,0.024093
7093000,0.0324,0.013523,0.002678,0.000431,0.023271
7094000,0.0324,0.013523,0.002678,0.000431,0.025269
7095000,0.0324,0.013523,0.002678,0.000431,0.023741
7096000,0.0324,0.013523,0.002678,0.000431,0.022800
7097000,0.0324,0.013523,0.002678,0.000431,0.024093
7098000,0.0324,0.013523,0.002678,0.000431,0.022448
7099000,0.0324,0.013523,0.002678,0.000431,0.022683
7100000,0.0324,0.013523,0.002678,0.000431,0.024328
7101000,0.0324,0.013523,0.002678,0.000431,0.023506
7102000,0.0324,0.013523,0.002678,0.000431,0.023036
7103000,0.0324,0.013523,0.002678,0.000431,0.024916
7104000,0.0324,0.013523,0.002678,0.000431,0.025034
7105000,0.0324,0.013523,0.002678,0.000431,0.022683
7106000,0.0324,0.013523,0.002678,0.000431,0.021625
7107000,0.0324,0.013523,0.002678,0.000431,0.023153
7108000,0.0324,0.013523,0.002678,0.000431,0.023271
7109000,0.0324,0.013523,0.002678,0.000431,0.021625
7110000,0.0324,0.013523,0.002678,0.000431,0.020567
7111000,0.0324,0.013523,0.002678,0.000431,0.022918
7112000,0.0324,0.013523,0.002678,0.000431,0.024328
7113000,0.0324,0.013523,0.002678,0.000431,0.022095
7114000,0.0324,0.013523,0.002678,0.000431,0.022565
7115000,0.0324,0.013523,0.002678,0.000431,0.022213
7116000,0.0324,0.013523,0.002678,0.000431,0.024211
7117000,0.0324,0.013523,0.002678,0.000431,0.021390
7118000,0.0324,0.013523,0.002678,0.000431,0.020802
7119000,0.0324,0.013523,0.002678,0.000431,0.023153
7120000,0.0324,0.013523,0.002678,0.000431,0.022683
7121000,0.0324,0.013523,0.002678,0.000431,0.022565
7122000,0.0324,0.013523,0.002678,0.000431,0.021625
7123000,0.0324,0.013523,0.002678,0.000431,0.022330
7124000,0.0324,0.013523,0.002678,0.000431,0.023858
7125000,0.0324,0.013523,0.002678,0.000431,0.022565
7126000,0.0324,0.013523,0.002678,0.000431,0.023271
7127000,0.0324,0.013523,0.002678,0.000431,0.022683
7128000,0.0324,0.013523,0.002678,0.000431,0.021743
7129000,0.0324,0.013523,0.002678,0.000431,0.022800
7130000,0.0324,0.013523,0.002678,0.000431,0.022213
7131000,0.0324,0.013523,0.002678,0.000431,0.024916
7132000,0.0324,0.013523,0.002678,0.000431,0.023388
7133000,0.0324,0.013523,0.002678,0.000431,0.023388
7134000,0.0324,0.013523,0.002678,0.000431,0.023388
7135000,0.0324,0.013523,0.002678,0.000431,0.022095
7136000,0.0324,0.013523,0.002678,0.000431,0.024446
7137000,0.0324,0.013523,0.002678,0.000431,0.022800
7138000,0.0324,0.013523,0.002678,0.000431,0.024093
7139000,0.0324,0.013523,0.002678,0.000431,0.021155
7140000,0.0324,0.013523,0.002678,0.000431,0.023623
7141000,0.0324,0.013523,0.002678,0.000431,0.023388
7142000,0.0324,0.013523,0.002678,0.000431,0.023976
7143000,0.0324,0.013523,0.002678,0.000431,0.021860
7144000,0.0324,0.013523,0.002678,0.000431,0.022565
7145000,0.0324,0.013523,0.002678,0.000431,0.023271
7146000,0.0324,0.013523,0.002678,0.000431,0.024328
7147000,0.0324,0.013523,0.002678,0.000431,0.022448
7148000,0.0324,0.013523,0.002678,0.000431,0.022565
7149000,0.0324,0.013523,0.002678,0.000431,0.022213
7150000,0.0324,0.013523,0.002678,0.000431,0.023623
7151000,0.0324,0.013523,0.002678,0.000431,0.022565
7152000,0.0324,0.013523,0.002678,0.000431,0.022448
7153000,0.0324,0.013523,0.002678,0.000431,0.022565
7154000,0.0324,0.013523,0.002678,0.000431,0.023741
7155000,0.0324,0.013523,0.002678,0.000431,0.023976
7156000,0.0324,0.013523,0.002678,0.000431,0.022683
7157000,0.0324,0.013523,0.002678,0.000431,0.025386
7158000,0.0324,0.013523,0.002678,0.000431,0.023623
7159000,0.0324,0.013523,0.002678,0.000431,0.023388
7160000,0.0324,0.013523,0.002678,0.000431,0.023153
7161000,0.0324,0.013523,0.002678,0.000431,0.022800
7162000,0.0324,0.013523,0.002678,0.000431,0.023388
7163000,0.0324,0.013523,0.002678,0.000431,0.021860
7164000,0.0324,0.013523,0.002678,0.000431,0.024563
7165000,0.0324,0.013523,0.002678,0.000431,0.023741
7166000,0.0324,0.013523,0.002678,0.000431,0.022918
7167000,0.0324,0.013523,0.002678,0.000431,0.022683
7168000,0.0324,0.013523,0.002678,0.000431,0.022330
7169000,0.0324,0.013523,0.002678,0.000431,0.023858
7170000,0.0324,0.013523,0.002678,0.000431,0.022448
7171000,0.0324,0.013523,0.002678,0.000431,0.023271
7172000,0.0324,0.013523,0.002678,0.000431,0.022683
7173000,0.0324,0.013523,0.002678,0.000431,0.022918
7174000,0.0324,0.013523,0.002678,0.000431,0.023976
7175000,0.0324,0.013523,0.002678,0.000431,0.024798
7176000,0.0324,0.013523,0.002678,0.000431,0.021038
7177000,0.0324,0.013523,0.002678,0.000431,0.023036
7178000,0.0324,0.013523,0.002678,0.000431,0.023741
7179000,0.0324,0.013523,0.002678,0.000431,0.022213
7180000,0.0324,0.013523,0.002678,0.000431,0.022565
7181000,0.0324,0.013523,0.002678,0.000431,0.022448
7182000,0.0324,0.013523,0.002678,0.000431,0.023036
7183000,0.0324,0.013523,0.002678,0.000431,0.022683
7184000,0.0324,0.013523,0.002678,0.000431,0.023153
7185000,0.0324,0.013523,0.002678,0.000431,0.022330
7186000,0.0324,0.013523,0.002678,0.000431,0.024211
7187000,0.0324,0.013523,0.002678,0.000431,0.022330
7188000,0.0324,0.013523,0.002678,0.000431,0.023388
7189000,0.0324,0.013523,0.002678,0.000431,0.023858
7190000,0.0324,0.013523,0.002678,0.000431,0.023036
7191000,0.0324,0.013523,0.002678,0.000431,0.023623
7192000,0.0324,0.013523,0.002678,0.000431,0.022918
7193000,0.0324,0.013523,0.002678,0.000431,0.022565
7194000,0.0324,0.013523,0.002678,0.000431,0.022095
7195000,0.0324,0.013523,0.002678,0.000431,0.023153
7196000,0.0324,0.013523,0.002678,0.000431,0.021978
7197000,0.0324,0.013523,0.002678,0.000431,0.022683
7198000,0.0324,0.013523,0.002678,0.000431,0.023858
7199000,0.0324,0.013523,0.002678,0.000431,0.021743
7200000,0.0324,0.013523,0.002678,0.000431,0.022683
7201000,0.0324,0.013523,0.002678,0.000431,0.023036
7202000,0.0324,0.013523,0.002678,0.000431,0.022448
7203000,0.0324,0.013523,0.002678,0.000431,0.024446
7204000,0.0324,0.013523,0.002678,0.000431,0.023623
7205000,0.0324,0.013523,0.002678,0.000431,0.022918
7206000,0.0324,0.013523,0.002678,0.000431,0.023506
7207000,0.0324,0.013523,0.002678,0.000431,0.021978
7208000,0.0324,0.013523,0.002678,0.000431,0.022565
7209000,0.0324,0.013523,0.002678,0.000431,0.021273
7210000,0.0324,0.013523,0.002678,0.000431,0.024446
7211000,0.0324,0.013523,0.002678,0.000431,0.021625
7212000,0.0324,0.013523,0.002678,0.000431,0.024093
7213000,0.0324,0.013523,0.002678,0.000431,0.023976
7214000,0.0324,0.013523,0.002678,0.000431,0.021743
7215000,0.0324,0.013523,0.002678,0.000431,0.023388
7216000,0.0324,0.013523,0.002678,0.000431,0.023036
7217000,0.0324,0.013523,0.002678,0.000431,0.022918
7218000,0.0324,0.013523,0.002678,0.000431,0.022213
7219000,0.0324,0.013523,0.002678,0.000431,0.023271
7220000,0.0324,0.013523,0.002678,0.000431,0.021273
7221000,0.0324,0.013523,0.002678,0.000431,0.023506
7222000,0.0324,0.013523,0.002678,0.000431,0.021978
7223000,0.0324,0.013523,0.002678,0.000431,0.022918
7224000,0.0324,0.013523,0.002678,0.000431,0.022565
7225000,0.0324,0.013523,0.002678,0.000431,0.024328
7226000,0.0324,0.013523,0.002678,0.000431,0.022213
7227000,0.0324,0.013523,0.002678,0.000431,0.023153
7228000,0.0324,0.013523,0.002678,0.000431,0.023741
7229000,0.0324,0.013523,0.002678,0.000431,0.023741
7230000,0.0324,0.013523,0.002678,0.000431,0.022800
7231000,0.0324,0.013523,0.002678,0.000431,0.023036
7232000,0.0324,0.013523,0.002678,0.000431,0.021390
7233000,0.0324,0.013523,0.002678,0.000431,0.022330
7234000,0.0324,0.013523,0.002678,0.000431,0.022448
7235000,0.0324,0.013523,0.002678,0.000431,0.024328
7236000,0.0324,0.013523,0.002678,0.000431,0.023036
7237000,0.0324,0.013523,0.002678,0.000431,0.022683
7238000,0.0324,0.013523,0.002678,0.000431,0.021978
7239000,0.0324,0.013523,0.002678,0.000431,0.022095
7240000,0.0324,0.013523,0.002678,0.000431,0.023741
7241000,0.0324,0.013523,0.002678,0.000431,0.022330
7242000,0.0324,0.013523,0.002678,0.000431,0.023506
7243000,0.0324,0.013523,0.002678,0.000431,0.023036
7244000,0.0324,0.013523,0.002678,0.000431,0.024328
7245000,0.0324,0.013523,0.002678,0.000431,0.021508
7246000,0.0324,0.013523,0.002678,0.000431,0.024798
7247000,0.0324,0.013523,0.002678,0.000431,0.021860
7248000,0.0324,0.013523,0.002678,0.000431,0.022565
7249000,0.0324,0.013523,0.002678,0.000431,0.021860
7250000,0.0324,0.013523,0.002678,0.000431,0.021273
7251000,0.0324,0.013523,0.002678,0.000431,0.023036
7252000,0.0324,0.013523,0.002678,0.000431,0.022565
7253000,0.0324,0.013523,0.002678,0.000431,0.021978
7254000,0.0324,0.013523,0.002678,0.000431,0.022918
7255000,0.0324,0.013523,0.002678,0.000431,0.020450
7256000,0.0324,0.013523,0.002678,0.000431,0.022448
7257000,0.0324,0.013523,0.002678,0.000431,0.023153
7258000,0.0324,0.013523,0.002678,0.000431,0.023858
7259000,0.0324,0.013523,0.002678,0.000431,0.022213
7260000,0.0324,0.013523,0.002678,0.000431,0.022918
7261000,0.0324,0.013523,0.002678,0.000431,0.023858
7262000,0.0324,0.013523,0.002678,0.000431,0.022800
7263000,0.0324,0.013523,0.002678,0.000431,0.022918
7264000,0.0324,0.013523,0.002678,0.000431,0.021625
7265000,0.0324,0.013523,0.002678,0.000431,0.023271
7266000,0.0324,0.013523,0.002678,0.000431,0.020920
7267000,0.0324,0.013523,0.002678,0.000431,0.024093
7268000,0.0324,0.013523,0.002678,0.000431,0.021860
7269000,0.0324,0.013523,0.002678,0.000431,0.022448
7270000,0.0324,0.013523,0.002678,0.000431,0.022213
7271000,0.0324,0.013523,0.002678,0.000431,0.022918
7272000,0.0324,0.013523,0.002678,0.000431,0.021038
7273000,0.0324,0.013523,0.002678,0.000431,0.022683
7274000,0.0324,0.013523,0.002678,0.000431,0.022330
7275000,0.0324,0.013523,0.002678,0.000431,0.022918
7276000,0.0324,0.013523,0.002678,0.000431,0.022330
7277000,0.0324,0.013523,0.002678,0.000431,0.023388
7278000,0.0324,0.013523,0.002678,0.000431,0.023623
7279000,0.0324,0.013523,0.002678,0.000431,0.021743
7280000,0.0324,0.013523,0.002678,0.000431,0.022213
7281000,0.0324,0.013523,0.002678,0.000431,0.023506
7282000,0.0324,0.013523,0.002678,0.000431,0.022213
7283000,0.0324,0.013523,0.002678,0.000431,0.021860
7284000,0.0324,0.013523,0.002678,0.000431,0.024328
7285000,0.0324,0.013523,0.002678,0.000431,0.021625
7286000,0.0324,0.013523,0.002678,0.000431,0.023506
7287000,0.0324,0.013523,0.002678,0.000431,0.021743
7288000,0.0324,0.013523,0.002678,0.000431,0.021273
7289000,0.0324,0.013523,0.002678,0.000431,0.021625
7290000,0.0324,0.013523,0.002678,0.000431,0.023036
7291000,0.0324,0.013523,0.002678,0.000431,0.021273
7292000,0.0324,0.013523,0.002678,0.000431,0.022213
7293000,0.0324,0.013523,0.002678,0.000431,0.021860
7294000,0.0324,0.013523,0.002678,0.000431,0.020332
7295000,0.0324,0.013523,0.002678,0.000431,0.020450
7296000,0.0324,0.013523,0.002678,0.000431,0.021273
7297000,0.0324,0.013523,0.002678,0.000431,0.021508
7298000,0.0324,0.013523,0.002678,0.000431,0.024211
7299000,0.0324,0.013523,0.002678,0.000431,0.021038
7300000,0.0324,0.013523,0.002678,0.000431,0.021508
7301000,0.0324,0.013523,0.002678,0.000431,0.021508
7302000,0.0324,0.013523,0.002678,0.000431,0.021508
7303000,0.0324,0.013523,0.002678,0.000431,0.021978
7304000,0.0324,0.013523,0.002678,0.000431,0.022800
7305000,0.0324,0.013523,0.002678,0.000431,0.022330
7306000,0.0324,0.013523,0.002678,0.000431,0.020332
7307000,0.0324,0.013523,0.002678,0.000431,0.021508
7308000,0.0324,0.013523,0.002678,0.000431,0.023153
7309000,0.0324,0.013523,0.002678,0.000431,0.021155
7310000,0.0324,0.013523,0.002678,0.000431,0.021508
7311000,0.0324,0.013523,0.002678,0.000431,0.020920
7312000,0.0324,0.013523,0.002678,0.000431,0.024093
7313000,0.0324,0.013523,0.002678,0.000431,0.022213
7314000,0.0324,0.013523,0.002678,0.000431,0.020450
7315000,0.0324,0.013523,0.002678,0.000431,0.021508
7316000,0.0324,0.013523,0.002678,0.000431,0.023506
7317000,0.0324,0.013523,0.002678,0.000431,0.022565
7318000,0.0324,0.013523,0.002678,0.000431,0.020332
7319000,0.0324,0.013523,0.002678,0.000431,0.021390
7320000,0.0324,0.013523,0.002678,0.000431,0.023623
7321000,0.0324,0.013523,0.002678,0.000431,0.019862
7322000,0.0324,0.013523,0.002678,0.000431,0.021625
7323000,0.0324,0.013523,0.002678,0.000431,0.023623
7324000,0.0324,0.013523,0.002678,0.000431,0.021390
7325000,0.0324,0.013523,0.002678,0.000431,0.022565
7326000,0.0324,0.013523,0.002678,0.000431,0.020802
7327000,0.0324,0.013523,0.002678,0.000431,0.022330
7328000,0.0324,0.013523,0.002678,0.000431,0.022095
7329000,0.0324,0.013523,0.002678,0.000431,0.021273
7330000,0.0324,0.013523,0.002678,0.000431,0.021273
7331000,0.0324,0.013523,0.002678,0.000431,0.024446
7332000,0.0324,0.013523,0.002678,0.000431,0.020567
7333000,0.0324,0.013523,0.002678,0.000431,0.021860
7334000,0.0324,0.013523,0.002678,0.000431,0.020450
7335000,0.0324,0.013523,0.002678,0.000431,0.023153
7336000,0.0324,0.013523,0.002678,0.000431,0.019980
7337000,0.0324,0.013523,0.002678,0.000431,0.021860
7338000,0.0324,0.013523,0.002678,0.000431,0.020215
7339000,0.0324,0.013523,0.002678,0.000431,0.021273
7340000,0.0324,0.013523,0.002678,0.000431,0.020920
7341000,0.0324,0.013523,0.002678,0.000431,0.019862
7342000,0.0324,0.013523,0.002678,0.000431,0.021273
7343000,0.0324,0.013523,0.002678,0.000431,0.022918
7344000,0.0324,0.013523,0.002678,0.000431,0.021625
7345000,0.0324,0.013523,0.002678,0.000431,0.021625
7346000,0.0324,0.013523,0.002678,0.000431,0.021978
7347000,0.0324,0.013523,0.002678,0.000431,0.022213
7348000,0.0324,0.013523,0.002678,0.000431,0.022213
7349000,0.0324,0.013523,0.002678,0.000431,0.020215
7350000,0.0324,0.013523,0.002678,0.000431,0.021625
7351000,0.0324,0.013523,0.002678,0.000431,0.022330
7352000,0.0324,0.013523,0.002678,0.000431,0.021978
7353000,0.0324,0.013523,0.002678,0.000431,0.020920
7354000,0.0324,0.013523,0.002678,0.000431,0.022565
7355000,0.0324,0.013523,0.002678,0.000431,0.021390
7356000,0.0324,0.013523,0.002678,0.000431,0.020097
7357000,0.0324,0.013523,0.002678,0.000431,0.022565
7358000,0.0324,0.013523,0.002678,0.000431,0.023153
7359000,0.0324,0.013523,0.002678,0.000431,0.021625
7360000,0.0324,0.013523,0.002678,0.000431,0.021155
7361000,0.0324,0.013523,0.002678,0.000431,0.022448
7362000,0.0324,0.013523,0.002678,0.000431,0.020567
7363000,0.0324,0.013523,0.002678,0.000431,0.021743
7364000,0.0324,0.013523,0.002678,0.000431,0.021860
7365000,0.0324,0.013523,0.002678,0.000431,0.021978
7366000,0.0324,0.013523,0.002678,0.000431,0.021038
7367000,0.0324,0.013523,0.002678,0.000431,0.021978
7368000,0.0324,0.013523,0.002678,0.000431,0.020215
7369000,0.0324,0.013523,0.002678,0.000431,0.023506
7370000,0.0324,0.013523,0.002678,0.000431,0.021625
7371000,0.0324,0.013523,0.002678,0.000431,0.021508
7372000,0.0324,0.013523,0.002678,0.000431,0.021038
7373000,0.0324,0.013523,0.002678,0.000431,0.021273
7374000,0.0324,0.013523,0.002678,0.000431,0.021390
7375000,0.0324,0.013523,0.002678,0.000431,0.023036
7376000,0.0324,0.013523,0.002678,0.000431,0.022448
7377000,0.0324,0.013523,0.002678,0.000431,0.023388
7378000,0.0324,0.013523,0.002678,0.000431,0.020567
7379000,0.0324,0.013523,0.002678,0.000431,0.021860
7380000,0.0324,0.013523,0.002678,0.000431,0.021860
7381000,0.0324,0.013523,0.002678,0.000431,0.023388
7382000,0.0324,0.013523,0.002678,0.000431,0.021743
7383000,0.0324,0.013523,0.002678,0.000431,0.019745
7384000,0.0324,0.013523,0.002678,0.000431,0.022095
7385000,0.0324,0.013523,0.002678,0.000431,0.022095
7386000,0.0324,0.013523,0.002678,0.000431,0.020097
7387000,0.0324,0.013523,0.002678,0.000431,0.022330
7388000,0.0324,0.013523,0.002678,0.000431,0.022213
7389000,0.0324,0.013523,0.002678,0.000431,0.021860
7390000,0.0324,0.013523,0.002678,0.000431,0.020802
7391000,0.0324,0.013523,0.002678,0.000431,0.022918
7392000,0.0324,0.013523,0.002678,0.000431,0.022565
7393000,0.0324,0.013523,0.002678,0.000431,0.022565
7394000,0.0324,0.013523,0.002678,0.000431,0.021038
7395000,0.0324,0.013523,0.002678,0.000431,0.020567
7396000,0.0324,0.013523,0.002678,0.000431,0.022565
7397000,0.0324,0.013523,0.002678,0.000431,0.022565
7398000,0.0324,0.013523,0.002678,0.000431,0.021038
7399000,0.0324,0.013523,0.002678,0.000431,0.023153
7400000,0.0324,0.013523,0.002678,0.000431,0.021625
7401000,0.0324,0.013523,0.002678,0.000431,0.022448
7402000,0.0324,0.013523,0.002678,0.000431,0.022565
7403000,0.0324,0.013523,0.002678,0.000431,0.021978
7404000,0.0324,0.013523,0.002678,0.000431,0.021273
7405000,0.0324,0.013523,0.002678,0.000431,0.020567
7406000,0.0324,0.013523,0.002678,0.000431,0.021978
7407000,0.0324,0.013523,0.002678,0.000431,0.022095
7408000,0.0324,0.013523,0.002678,0.000431,0.021860
7409000,0.0324,0.013523,0.002678,0.000431,0.020920
7410000,0.0324,0.013523,0.002678,0.000431,0.019392
7411000,0.0324,0.013523,0.002678,0.000431,0.021978
7412000,0.0324,0.013523,0.002678,0.000431,0.022800
7413000,0.0324,0.013523,0.002678,0.000431,0.020685
7414000,0.0324,0.013523,0.002678,0.000431,0.021978
7415000,0.0324,0.013523,0.002678,0.000431,0.022330
7416000,0.0324,0.013523,0.002678,0.000431,0.022213
7417000,0.0324,0.013523,0.002678,0.000431,0.020920
7418000,0.0324,0.013523,0.002678,0.000431,0.022330
7419000,0.0324,0.013523,0.002678,0.000431,0.022918
7420000,0.0324,0.013523,0.002678,0.000431,0.020332
7421000,0.0324,0.013523,0.002678,0.000431,0.020685
7422000,0.0324,0.013523,0.002678,0.000431,0.024328
7423000,0.0324,0.013523,0.002678,0.000431,0.020215
7424000,0.0324,0.013523,0.002678,0.000431,0.021155
7425000,0.0324,0.013523,0.002678,0.000431,0.021743
7426000,0.0324,0.013523,0.002678,0.000431,0.020332
7427000,0.0324,0.013523,0.002678,0.000431,0.020450
7428000,0.0324,0.013523,0.002678,0.000431,0.022448
7429000,0.0324,0.013523,0.002678,0.000431,0.021038
7430000,0.0324,0.013523,0.002678,0.000431,0.021155
7431000,0.0324,0.013523,0.002678,0.000431,0.021743
7432000,0.0324,0.013523,0.002678,0.000431,0.021625
7433000,0.0324,0.013523,0.002678,0.000431,0.020567
7434000,0.0324,0.013523,0.002678,0.000431,0.020920
7435000,0.0324,0.013523,0.002678,0.000431,0.020332
7436000,0.0324,0.013523,0.002678,0.000431,0.023741
7437000,0.0324,0.013523,0.002678,0.000431,0.019980
7438000,0.0324,0.013523,0.002678,0.000431,0.020920
7439000,0.0324,0.013523,0.002678,0.000431,0.021743
7440000,0.0324,0.013523,0.002678,0.000431,0.021978
7441000,0.0324,0.013523,0.002678,0.000431,0.019510
7442000,0.0324,0.013523,0.002678,0.000431,0.022565
7443000,0.0324,0.013523,0.002678,0.000431,0.024093
7444000,0.0324,0.013523,0.002678,0.000431,0.020097
7445000,0.0324,0.013523,0.002678,0.000431,0.020920
7446000,0.0324,0.013523,0.002678,0.000431,0.022095
7447000,0.0324,0.013523,0.002678,0.000431,0.020685
7448000,0.0324,0.013523,0.002678,0.000431,0.022095
7449000,0.0324,0.013523,0.002678,0.000431,0.022565
7450000,0.0324,0.013523,0.002678,0.000431,0.021625
7451000,0.0324,0.013523,0.002678,0.000431,0.020685
7452000,0.0324,0.013523,0.002678,0.000431,0.021860
7453000,0.0324,0.013523,0.002678,0.000431,0.021508
7454000,0.0324,0.013523,0.002678,0.000431,0.022800
7455000,0.0324,0.013523,0.002678,0.000431,0.019980
7456000,0.0324,0.013523,0.002678,0.000431,0.022213
7457000,0.0324,0.013523,0.002678,0.000431,0.022918
7458000,0.0324,0.013523,0.002678,0.000431,0.020450
7459000,0.0324,0.013523,0.002678,0.000431,0.021743
7460000,0.0324,0.013523,0.002678,0.000431,0.021743
7461000,0.0324,0.013523,0.002678,0.000431,0.020685
7462000,0.0324,0.013523,0.002678,0.000431,0.023271
7463000,0.0324,0.013523,0.002678,0.000431,0.021860
7464000,0.0324,0.013523,0.002678,0.000431,0.023388
7465000,0.0324,0.013523,0.002678,0.000431,0.020450
7466000,0.0324,0.013523,0.002678,0.000431,0.021155
7467000,0.0324,0.013523,0.002678,0.000431,0.021860
7468000,0.0324,0.013523,0.002678,0.000431,0.021860
7469000,0.0324,0.013523,0.002678,0.000431,0.023153
7470000,0.0324,0.013523,0.002678,0.000431,0.022330
7471000,0.0324,0.013523,0.002678,0.000431,0.020215
7472000,0.0324,0.013523,0.002678,0.000431,0.021038
7473000,0.0324,0.013523,0.002678,0.000431,0.020685
7474000,0.0324,0.013523,0.002678,0.000431,0.021860
7475000,0.0324,0.013523,0.002678,0.000431,0.021625
7476000,0.0324,0.013523,0.002678,0.000431,0.021743
7477000,0.0324,0.013523,0.002678,0.000431,0.020920
7478000,0.0324,0.013523,0.002678,0.000431,0.021625
7479000,0.0324,0.013523,0.002678,0.000431,0.020332
7480000,0.0324,0.013523,0.002678,0.000431,0.021390
7481000,0.0324,0.013523,0.002678,0.000431,0.022565
7482000,0.0324,0.013523,0.002678,0.000431,0.019862
7483000,0.0324,0.013523,0.002678,0.000431,0.021155
7484000,0.0324,0.013523,0.002678,0.000431,0.021978
7485000,0.0324,0.013523,0.002678,0.000431,0.021273
7486000,0.0324,0.013523,0.002678,0.000431,0.021273
7487000,0.0324,0.013523,0.002678,0.000431,0.022330
7488000,0.0324,0.013523,0.002678,0.000431,0.024211
7489000,0.0324,0.013523,0.002678,0.000431,0.019862
7490000,0.0324,0.013523,0.002678,0.000431,0.021390
7491000,0.0324,0.013523,0.002678,0.000431,0.021860
7492000,0.0324,0.013523,0.002678,0.000431,0.021625
7493000,0.0324,0.013523,0.002678,0.000431,0.021273
7494000,0.0324,0.013523,0.002678,0.000431,0.022683
7495000,0.0324,0.013523,0.002678,0.000431,0.021273
7496000,0.0324,0.013523,0.002678,0.000431,0.021508
7497000,0.0324,0.013523,0.002678,0.000431,0.020450
7498000,0.0324,0.013523,0.002678,0.000431,0.021743
7499000,0.0324,0.013523,0.002678,0.000431,0.021155
7500000,0.0324,0.013523,0.002678,0.000431,0.021273
7501000,0.0324,0.013523,0.002678,0.000431,0.021978
7502000,0.0324,0.013523,0.002678,0.000431,0.021508
7503000,0.0324,0.013523,0.002678,0.000431,0.022448
7504000,0.0324,0.013523,0.002678,0.000431,0.021625
7505000,0.0324,0.013523,0.002678,0.000431,0.020332
7506000,0.0324,0.013523,0.002678,0.000431,0.021625
7507000,0.0324,0.013523,0.002678,0.000431,0.020215
7508000,0.0324,0.013523,0.002678,0.000431,0.022213
7509000,0.0324,0.013523,0.002678,0.000431,0.021743
7510000,0.0324,0.013523,0.002678,0.000431,0.020802
7511000,0.0324,0.013523,0.002678,0.000431,0.021038
7512000,0.0324,0.013523,0.002678,0.000431,0.021625
7513000,0.0324,0.013523,0.002678,0.000431,0.022565
7514000,0.0324,0.013523,0.002678,0.000431,0.022095
7515000,0.0324,0.013523,0.002678,0.000431,0.022330
7516000,0.0324,0.013523,0.002678,0.000431,0.019980
7517000,0.0324,0.013523,0.002678,0.000431,0.022095
7518000,0.0324,0.013523,0.002678,0.000431,0.020332
7519000,0.0324,0.013523,0.002678,0.000431,0.022918
7520000,0.0324,0.013523,0.002678,0.000431,0.022213
7521000,0.0324,0.013523,0.002678,0.000431,0.019510
7522000,0.0324,0.013523,0.002678,0.000431,0.022095
7523000,0.0324,0.013523,0.002678,0.000431,0.021743
7524000,0.0324,0.013523,0.002678,0.000431,0.022683
7525000,0.0324,0.013523,0.002678,0.000431,0.020215
7526000,0.0324,0.013523,0.002678,0.000431,0.022213
7527000,0.0324,0.013523,0.002678,0.000431,0.021273
7528000,0.0324,0.013523,0.002678,0.000431,0.020802
7529000,0.0324,0.013523,0.002678,0.000431,0.022448
7530000,0.0324,0.013523,0.002678,0.000431,0.020685
7531000,0.0324,0.013523,0.002678,0.000431,0.023506
7532000,0.0324,0.013523,0.002678,0.000431,0.021273
7533000,0.0324,0.013523,0.002678,0.000431,0.022095
7534000,0.0324,0.013523,0.002678,0.000431,0.020685
7535000,0.0324,0.013523,0.002678,0.000431,0.020332
7536000,0.0324,0.013523,0.002678,0.000431,0.022213
7537000,0.0324,0.013523,0.002678,0.000431,0.021625
7538000,0.0324,0.013523,0.002678,0.000431,0.022448
7539000,0.0324,0.013523,0.002678,0.000431,0.021273
7540000,0.0324,0.013523,0.002678,0.000431,0.022213
7541000,0.0324,0.013523,0.002678,0.000431,0.020450
7542000,0.0324,0.013523,0.002678,0.000431,0.020920
7543000,0.0324,0.013523,0.002678,0.000431,0.021860
7544000,0.0324,0.013523,0.002678,0.000431,0.019980
7545000,0.0324,0.013523,0.002678,0.000431,0.019980
7546000,0.0324,0.013523,0.002678,0.000431,0.021625
7547000,0.0324,0.013523,0.002678,0.000431,0.021155
7548000,0.0324,0.013523,0.002678,0.000431,0.021038
7549000,0.0324,0.013523,0.002678,0.000431,0.021860
7550000,0.0324,0.013523,0.002678,0.000431,0.022448
7551000,0.0324,0.013523,0.002678,0.000431,0.022213
7552000,0.0324,0.013523,0.002678,0.000431,0.021743
7553000,0.0324,0.013523,0.002678,0.000431,0.021978
7554000,0.0324,0.013523,0.002678,0.000431,0.022918
7555000,0.0324,0.013523,0.002678,0.000431,0.023506
7556000,0.0324,0.013523,0.002678,0.000431,0.020567
7557000,0.0324,0.013523,0.002678,0.000431,0.022095
7558000,0.0324,0.013523,0.002678,0.000431,0.022565
7559000,0.0324,0.013523,0.002678,0.000431,0.021390
7560000,0.0324,0.013523,0.002678,0.000431,0.022330
7561000,0.0324,0.013523,0.002678,0.000431,0.022565
7562000,0.0324,0.013523,0.002678,0.000431,0.021273
7563000,0.0324,0.013523,0.002678,0.000431,0.021038
7564000,0.0324,0.013523,0.002678,0.000431,0.022683
7565000,0.0324,0.013523,0.002678,0.000431,0.020685
7566000,0.0324,0.013523,0.002678,0.000431,0.021625
7567000,0.0324,0.013523,0.002678,0.000431,0.022330
7568000,0.0324,0.013523,0.002678,0.000431,0.021038
7569000,0.0324,0.013523,0.002678,0.000431,0.021860
7570000,0.0324,0.013523,0.002678,0.000431,0.022095
7571000,0.0324,0.013523,0.002678,0.000431,0.021625
7572000,0.0324,0.013523,0.002678,0.000431,0.022800
7573000,0.0324,0.013523,0.002678,0.000431,0.021508
7574000,0.0324,0.013523,0.002678,0.000431,0.020450
7575000,0.0324,0.013523,0.002678,0.000431,0.022095
7576000,0.0324,0.013523,0.002678,0.000431,0.023153
7577000,0.0324,0.013523,0.002678,0.000431,0.022565
7578000,0.0324,0.013523,0.002678,0.000431,0.022213
7579000,0.0324,0.013523,0.002678,0.000431,0.022095
7580000,0.0324,0.013523,0.002678,0.000431,0.020685
7581000,0.0324,0.013523,0.002678,0.000431,0.020567
7582000,0.0324,0.013523,0.002678,0.000431,0.022683
7583000,0.0324,0.013523,0.002678,0.000431,0.020332
7584000,0.0324,0.013523,0.002678,0.000431,0.021743
7585000,0.0324,0.013523,0.002678,0.000431,0.021390
7586000,0.0324,0.013523,0.002678,0.000431,0.021390
7587000,0.0324,0.013523,0.002678,0.000431,0.020920
7588000,0.0324,0.013523,0.002678,0.000431,0.023036
7589000,0.0324,0.013523,0.002678,0.000431,0.021860
7590000,0.0324,0.013523,0.002678,0.000431,0.022683
7591000,0.0324,0.013523,0.002678,0.000431,0.020802
7592000,0.0324,0.013523,0.002678,0.000431,0.021978
7593000,0.0324,0.013523,0.002678,0.000431,0.022095
7594000,0.0324,0.013523,0.002678,0.000431,0.021860
7595000,0.0324,0.013523,0.002678,0.000431,0.021038
7596000,0.0324,0.013523,0.002678,0.000431,0.022800
7597000,0.0324,0.013523,0.002678,0.000431,0.021038
7598000,0.0324,0.013523,0.002678,0.000431,0.021860
7599000,0.0324,0.013523,0.002678,0.000431,0.021508
7600000,0.0324,0.013523,0.002678,0.000431,0.022095
7601000,0.0324,0.013523,0.002678,0.000431,0.020685
7602000,0.0324,0.013523,0.002678,0.000431,0.020567
7603000,0.0324,0.013523,0.002678,0.000431,0.020215
7604000,0.0324,0.013523,0.002678,0.000431,0.021978
7605000,0.0324,0.013523,0.002678,0.000431,0.021155
7606000,0.0324,0.013523,0.002678,0.000431,0.021273
7607000,0.0324,0.013523,0.002678,0.000431,0.022683
7608000,0.0324,0.013523,0.002678,0.000431,0.021860
7609000,0.0324,0.013523,0.002678,0.000431,0.020920
7610000,0.0324,0.013523,0.002678,0.000431,0.023036
7611000,0.0324,0.013523,0.002678,0.000431,0.021155
7612000,0.0324,0.013523,0.002678,0.000431,0.020802
7613000,0.0324,0.013523,0.002678,0.000431,0.022565
7614000,0.0324,0.013523,0.002678,0.000431,0.020450
7615000,0.0324,0.013523,0.002678,0.000431,0.022800
7616000,0.0324,0.013523,0.002678,0.000431,0.021038
7617000,0.0324,0.013523,0.002678,0.000431,0.022330
7618000,0.0324,0.013523,0.002678,0.000431,0.020920
7619000,0.0324,0.013523,0.002678,0.000431,0.021978
7620000,0.0324,0.013523,0.002678,0.000431,0.022095
7621000,0.0324,0.013523,0.002678,0.000431,0.022565
7622000,0.0324,0.013523,0.002678,0.000431,0.021743
7623000,0.0324,0.013523,0.002678,0.000431,0.020802
7624000,0.0324,0.013523,0.002678,0.000431,0.023623
7625000,0.0324,0.013523,0.002678,0.000431,0.023388
7626000,0.0324,0.013523,0.002678,0.000431,0.021508
7627000,0.0324,0.013523,0.002678,0.000431,0.023976
7628000,0.0324,0.013523,0.002678,0.000431,0.021155
7629000,0.0324,0.013523,0.002678,0.000431,0.021273
7630000,0.0324,0.013523,0.002678,0.000431,0.020215
7631000,0.0324,0.013523,0.002678,0.000431,0.022213
7632000,0.0324,0.013523,0.002678,0.000431,0.020920
7633000,0.0324,0.013523,0.002678,0.000431,0.021273
7634000,0.0324,0.013523,0.002678,0.000431,0.022683
7635000,0.0324,0.013523,0.002678,0.000431,0.021625
7636000,0.0324,0.013523,0.002678,0.000431,0.020215
7637000,0.0324,0.013523,0.002678,0.000431,0.021625
7638000,0.0324,0.013523,0.002678,0.000431,0.021390
7639000,0.0324,0.013523,0.002678,0.000431,0.021155
7640000,0.0324,0.013523,0.002678,0.000431,0.021625
7641000,0.0324,0.013523,0.002678,0.000431,0.021978
7642000,0.0324,0.013523,0.002678,0.000431,0.021038
7643000,0.0324,0.013523,0.002678,0.000431,0.021743
7644000,0.0324,0.013523,0.002678,0.000431,0.021860
7645000,0.0324,0.013523,0.002678,0.000431,0.021743
7646000,0.0324,0.013523,0.002678,0.000431,0.022330
7647000,0.0324,0.013523,0.002678,0.000431,0.021743
7648000,0.0324,0.013523,0.002678,0.000431,0.023036
7649000,0.0324,0.013523,0.002678,0.000431,0.023388
7650000,0.0324,0.013523,0.002678,0.000431,0.019510
7651000,0.0324,0.013523,0.002678,0.000431,0.023623
7652000,0.0324,0.013523,0.002678,0.000431,0.022448
7653000,0.0324,0.013523,0.002678,0.000431,0.021038
7654000,0.0324,0.013523,0.002678,0.000431,0.021038
7655000,0.0324,0.013523,0.002678,0.000431,0.022683
7656000,0.0324,0.013523,0.002678,0.000431,0.023388
7657000,0.0324,0.013523,0.002678,0.000431,0.020802
7658000,0.0324,0.013523,0.002678,0.000431,0.022918
7659000,0.0324,0.013523,0.002678,0.000431,0.021155
7660000,0.0324,0.013523,0.002678,0.000431,0.021860
7661000,0.0324,0.013523,0.002678,0.000431,0.021038
7662000,0.0324,0.013523,0.002678,0.000431,0.022448
7663000,0.0324,0.013523,0.002678,0.000431,0.020097
7664000,0.0324,0.013523,0.002678,0.000431,0.020097
7665000,0.0324,0.013523,0.002678,0.000431,0.022565
7666000,0.0324,0.013523,0.002678,0.000431,0.021390
7667000,0.0324,0.013523,0.002678,0.000431,0.020685
7668000,0.0324,0.013523,0.002678,0.000431,0.020567
7669000,0.0324,0.013523,0.002678,0.000431,0.021273
7670000,0.0324,0.013523,0.002678,0.000431,0.021860
7671000,0.0324,0.013523,0.002678,0.000431,0.021273
7672000,0.0324,0.013523,0.002678,0.000431,0.021860
7673000,0.0324,0.013523,0.002678,0.000431,0.022683
7674000,0.0324,0.013523,0.002678,0.000431,0.021390
7675000,0.0324,0.013523,0.002678,0.000431,0.022095
7676000,0.0324,0.013523,0.002678,0.000431,0.022448
7677000,0.0324,0.013523,0.002678,0.000431,0.022448
7678000,0.0324,0.013523,0.002678,0.000431,0.020920
7679000,0.0324,0.013523,0.002678,0.000431,0.022213
7680000,0.0324,0.013523,0.002678,0.000431,0.021978
7681000,0.0324,0.013523,0.002678,0.000431,0.021860
7682000,0.0324,0.013523,0.002678,0.000431,0.022095
7683000,0.0324,0.013523,0.002678,0.000431,0.021155
7684000,0.0324,0.013523,0.002678,0.000431,0.020097
7685000,0.0324,0.013523,0.002678,0.000431,0.021860
7686000,0.0324,0.013523,0.002678,0.000431,0.022213
7687000,0.0324,0.013523,0.002678,0.000431,0.022683
7688000,0.0324,0.013523,0.002678,0.000431,0.022095
7689000,0.0324,0.013523,0.002678,0.000431,0.022095
7690000,0.0324,0.013523,0.002678,0.000431,0.023388
7691000,0.0324,0.013523,0.002678,0.000431,0.020450
7692000,0.0324,0.013523,0.002678,0.000431,0.020567
7693000,0.0324,0.013523,0.002678,0.000431,0.022213
7694000,0.0324,0.013523,0.002678,0.000431,0.022213
7695000,0.0324,0.013523,0.002678,0.000431,0.021038
7696000,0.0324,0.013523,0.002678,0.000431,0.023976
7697000,0.0324,0.013523,0.002678,0.000431,0.022330
7698000,0.0324,0.013523,0.002678,0.000431,0.020215
7699000,0.0324,0.013523,0.002678,0.000431,0.021508
7700000,0.0324,0.013523,0.002678,0.000431,0.021508
7701000,0.0324,0.013523,0.002678,0.000431,0.020332
7702000,0.0324,0.013523,0.002678,0.000431,0.021155
7703000,0.0324,0.013523,0.002678,0.000431,0.023623
7704000,0.0324,0.013523,0.002678,0.000431,0.021038
7705000,0.0324,0.013523,0.002678,0.000431,0.021860
7706000,0.0324,0.013523,0.002678,0.000431,0.020802
7707000,0.0324,0.013523,0.002678,0.000431,0.023506
7708000,0.0324,0.013523,0.002678,0.000431,0.021743
7709000,0.0324,0.013523,0.002678,0.000431,0.020097
7710000,0.0324,0.013523,0.002678,0.000431,0.022918
7711000,0.0324,0.013523,0.002678,0.000431,0.022095
7712000,0.0324,0.013523,0.002678,0.000431,0.020567
7713000,0.0324,0.013523,0.002678,0.000431,0.021625
7714000,0.0324,0.013523,0.002678,0.000431,0.025269
7715000,0.0324,0.013523,0.002678,0.000431,0.021038
7716000,0.0324,0.013523,0.002678,0.000431,0.020802
7717000,0.0324,0.013523,0.002678,0.000431,0.022448
7718000,0.0324,0.013523,0.002678,0.000431,0.020802
7719000,0.0324,0.013523,0.002678,0.000431,0.021273
7720000,0.0324,0.013523,0.002678,0.000431,0.020685
7721000,0.0324,0.013523,0.002678,0.000431,0.022095
7722000,0.0324,0.013523,0.002678,0.000431,0.020685
7723000,0.0324,0.013523,0.002678,0.000431,0.020802
7724000,0.0324,0.013523,0.002678,0.000431,0.022330
7725000,0.0324,0.013523,0.002678,0.000431,0.020567
7726000,0.0324,0.013523,0.002678,0.000431,0.022683
7727000,0.0324,0.013523,0.002678,0.000431,0.021038
7728000,0.0324,0.013523,0.002678,0.000431,0.022095
7729000,0.0324,0.013523,0.002678,0.000431,0.021743
7730000,0.0324,0.013523,0.002678,0.000431,0.021508
7731000,0.0324,0.013523,0.002678,0.000431,0.021390
7732000,0.0324,0.013523,0.002678,0.000431,0.020802
7733000,0.0324,0.013523,0.002678,0.000431,0.021860
7734000,0.0324,0.013523,0.002678,0.000431,0.020332
7735000,0.0324,0.013523,0.002678,0.000431,0.023623
7736000,0.0324,0.013523,0.002678,0.000431,0.020685
7737000,0.0324,0.013523,0.002678,0.000431,0.021038
7738000,0.0324,0.013523,0.002678,0.000431,0.023153
7739000,0.0324,0.013523,0.002678,0.000431,0.021038
7740000,0.0324,0.013523,0.002678,0.000431,0.022095
7741000,0.0324,0.013523,0.002678,0.000431,0.021508
7742000,0.0324,0.013523,0.002678,0.000431,0.023741
7743000,0.0324,0.013523,0.002678,0.000431,0.020802
7744000,0.0324,0.013523,0.002678,0.000431,0.022330
7745000,0.0324,0.013523,0.002678,0.000431,0.023271
7746000,0.0324,0.013523,0.002678,0.000431,0.020097
7747000,0.0324,0.013523,0.002678,0.000431,0.021508
7748000,0.0324,0.013523,0.002678,0.000431,0.022213
7749000,0.0324,0.013523,0.002678,0.000431,0.023506
7750000,0.0324,0.013523,0.002678,0.000431,0.021390
7751000,0.0324,0.013523,0.002678,0.000431,0.022800
7752000,0.0324,0.013523,0.002678,0.000431,0.022095
7753000,0.0324,0.013523,0.002678,0.000431,0.021625
7754000,0.0324,0.013523,0.002678,0.000431,0.022683
7755000,0.0324,0.013523,0.002678,0.000431,0.022095
7756000,0.0324,0.013523,0.002678,0.000431,0.021860
7757000,0.0324,0.013523,0.002678,0.000431,0.020920
7758000,0.0324,0.013523,0.002678,0.000431,0.022213
7759000,0.0324,0.013523,0.002678,0.000431,0.022095
7760000,0.0324,0.013523,0.002678,0.000431,0.020567
7761000,0.0324,0.013523,0.002678,0.000431,0.020685
7762000,0.0324,0.013523,0.002678,0.000431,0.022213
7763000,0.0324,0.013523,0.002678,0.000431,0.021390
7764000,0.0324,0.013523,0.002678,0.000431,0.021625
7765000,0.0324,0.013523,0.002678,0.000431,0.022095
7766000,0.0324,0.013523,0.002678,0.000431,0.022800
7767000,0.0324,0.013523,0.002678,0.000431,0.021625
7768000,0.0324,0.013523,0.002678,0.000431,0.020802
7769000,0.0324,0.013523,0.002678,0.000431,0.021508
7770000,0.0324,0.013523,0.002678,0.000431,0.022683
7771000,0.0324,0.013523,0.002678,0.000431,0.021273
7772000,0.0324,0.013523,0.002678,0.000431,0.020567
7773000,0.0324,0.013523,0.002678,0.000431,0.022448
7774000,0.0324,0.013523,0.002678,0.000431,0.021508
7775000,0.0324,0.013523,0.002678,0.000431,0.021038
7776000,0.0324,0.013523,0.002678,0.000431,0.021038
7777000,0.0324,0.013523,0.002678,0.000431,0.024093
7778000,0.0324,0.013523,0.002678,0.000431,0.021508
7779000,0.0324,0.013523,0.002678,0.000431,0.021508
7780000,0.0324,0.013523,0.002678,0.000431,0.021038
7781000,0.0324,0.013523,0.002678,0.000431,0.022095
7782000,0.0324,0.013523,0.002678,0.000431,0.020332
7783000,0.0324,0.013523,0.002678,0.000431,0.022095
7784000,0.0324,0.013523,0.002678,0.000431,0.021390
7785000,0.0324,0.013523,0.002678,0.000431,0.021390
7786000,0.0324,0.013523,0.002678,0.000431,0.020685
7787000,0.0324,0.013523,0.002678,0.000431,0.022565
7788000,0.0324,0.013523,0.002678,0.000431,0.022330
7789000,0.0324,0.013523,0.002678,0.000431,0.021390
7790000,0.0324,0.013523,0.002678,0.000431,0.020920
7791000,0.0324,0.013523,0.002678,0.000431,0.021625
7792000,0.0324,0.013523,0.002678,0.000431,0.022213
7793000,0.0324,0.013523,0.002678,0.000431,0.021860
7794000,0.0324,0.013523,0.002678,0.000431,0.020567
7795000,0.0324,0.013523,0.002678,0.000431,0.020802
7796000,0.0324,0.013523,0.002678,0.000431,0.020920
7797000,0.0324,0.013523,0.002678,0.000431,0.021273
7798000,0.0324,0.013523,0.002678,0.000431,0.021038
7799000,0.0324,0.013523,0.002678,0.000431,0.022095
7800000,0.0324,0.013523,0.002678,0.000431,0.020802
7801000,0.0324,0.013523,0.002678,0.000431,0.022683
7802000,0.0324,0.013523,0.002678,0.000431,0.022330
7803000,0.0324,0.013523,0.002678,0.000431,0.022565
7804000,0.0324,0.013523,0.002678,0.000431,0.022330
7805000,0.0324,0.013523,0.002678,0.000431,0.021390
7806000,0.0324,0.013523,0.002678,0.000431,0.019862
7807000,0.0324,0.013523,0.002678,0.000431,0.021625
7808000,0.0324,0.013523,0.002678,0.000431,0.020802
7809000,0.0324,0.013523,0.002678,0.000431,0.020920
7810000,0.0324,0.013523,0.002678,0.000431,0.020450
7811000,0.0324,0.013523,0.002678,0.000431,0.021038
7812000,0.0324,0.013523,0.002678,0.000431,0.021860
7813000,0.0324,0.013523,0.002678,0.000431,0.019980
7814000,0.0324,0.013523,0.002678,0.000431,0.021273
7815000,0.0324,0.013523,0.002678,0.000431,0.022213
7816000,0.0324,0.013523,0.002678,0.000431,0.020567
7817000,0.0324,0.013523,0.002678,0.000431,0.020215
7818000,0.0324,0.013523,0.002678,0.000431,0.023741
7819000,0.0324,0.013523,0.002678,0.000431,0.020097
7820000,0.0324,0.013523,0.002678,0.000431,0.020802
7821000,0.0324,0.013523,0.002678,0.000431,0.019392
7822000,0.0324,0.013523,0.002678,0.000431,0.021625
7823000,0.0324,0.013523,0.002678,0.000431,0.019392
7824000,0.0324,0.013523,0.002678,0.000431,0.020097
7825000,0.0324,0.013523,0.002678,0.000431,0.021743
7826000,0.0324,0.013523,0.002678,0.000431,0.021038
7827000,0.0324,0.013523,0.002678,0.000431,0.019980
7828000,0.0324,0.013523,0.002678,0.000431,0.020567
7829000,0.0324,0.013523,0.002678,0.000431,0.020685
7830000,0.0324,0.013523,0.002678,0.000431,0.018334
7831000,0.0324,0.013523,0.002678,0.000431,0.021625
7832000,0.0324,0.013523,0.002678,0.000431,0.021743
7833000,0.0324,0.013523,0.002678,0.000431,0.020685
7834000,0.0324,0.013523,0.002678,0.000431,0.020332
7835000,0.0324,0.013523,0.002678,0.000431,0.022800
7836000,0.0324,0.013523,0.002678,0.000431,0.020802
7837000,0.0324,0.013523,0.002678,0.000431,0.020567
7838000,0.0324,0.013523,0.002678,0.000431,0.021860
7839000,0.0324,0.013523,0.002678,0.000431,0.021508
7840000,0.0324,0.013523,0.002678,0.000431,0.021390
7841000,0.0324,0.013523,0.002678,0.000431,0.019627
7842000,0.0324,0.013523,0.002678,0.000431,0.022330
7843000,0.0324,0.013523,0.002678,0.000431,0.021038
7844000,0.0324,0.013523,0.002678,0.000431,0.019275
7845000,0.0324,0.013523,0.002678,0.000431,0.019392
7846000,0.0324,0.013523,0.002678,0.000431,0.020215
7847000,0.0324,0.013523,0.002678,0.000431,0.021390
7848000,0.0324,0.013523,0.002678,0.000431,0.019040
7849000,0.0324,0.013523,0.002678,0.000431,0.020920
7850000,0.0324,0.013523,0.002678,0.000431,0.021508
7851000,0.0324,0.013523,0.002678,0.000431,0.018922
7852000,0.0324,0.013523,0.002678,0.000431,0.021273
7853000,0.0324,0.013523,0.002678,0.000431,0.021155
7854000,0.0324,0.013523,0.002678,0.000431,0.021273
7855000,0.0324,0.013523,0.002678,0.000431,0.021390
7856000,0.0324,0.013523,0.002678,0.000431,0.020802
7857000,0.0324,0.013523,0.002678,0.000431,0.020802
7858000,0.0324,0.013523,0.002678,0.000431,0.019510
7859000,0.0324,0.013523,0.002678,0.000431,0.020920
7860000,0.0324,0.013523,0.002678,0.000431,0.022918
7861000,0.0324,0.013523,0.002678,0.000431,0.018805
7862000,0.0324,0.013523,0.002678,0.000431,0.020215
7863000,0.0324,0.013523,0.002678,0.000431,0.022095
7864000,0.0324,0.013523,0.002678,0.000431,0.019980
7865000,0.0324,0.013523,0.002678,0.000431,0.020332
7866000,0.0324,0.013523,0.002678,0.000431,0.020332
7867000,0.0324,0.013523,0.002678,0.000431,0.019980
7868000,0.0324,0.013523,0.002678,0.000431,0.019275
7869000,0.0324,0.013523,0.002678,0.000431,0.020920
7870000,0.0324,0.013523,0.002678,0.000431,0.020567
7871000,0.0324,0.013523,0.002678,0.000431,0.020450
7872000,0.0324,0.013523,0.002678,0.000431,0.019157
7873000,0.0324,0.013523,0.002678,0.000431,0.022095
7874000,0.0324,0.013523,0.002678,0.000431,0.020802
7875000,0.0324,0.013523,0.002678,0.000431,0.019392
7876000,0.0324,0.013523,0.002678,0.000431,0.019627
7877000,0.0324,0.013523,0.002678,0.000431,0.021743
7878000,0.0324,0.013523,0.002678,0.000431,0.019275
7879000,0.0324,0.013523,0.002678,0.000431,0.018805
7880000,0.0324,0.013523,0.002678,0.000431,0.020802
7881000,0.0324,0.013523,0.002678,0.000431,0.022330
7882000,0.0324,0.013523,0.002678,0.000431,0.018217
7883000,0.0324,0.013523,0.002678,0.000431,0.021390
7884000,0.0324,0.013523,0.002678,0.000431,0.019862
7885000,0.0324,0.013523,0.002678,0.000431,0.018922
7886000,0.0324,0.013523,0.002678,0.000431,0.020215
7887000,0.0324,0.013523,0.002678,0.000431,0.021038
7888000,0.0324,0.013523,0.002678,0.000431,0.020097
7889000,0.0324,0.013523,0.002678,0.000431,0.018687
7890000,0.0324,0.013523,0.002678,0.000431,0.020097
7891000,0.0324,0.013523,0.002678,0.000431,0.019862
7892000,0.0324,0.013523,0.002678,0.000431,0.020567
7893000,0.0324,0.013523,0.002678,0.000431,0.021978
7894000,0.0324,0.013523,0.002678,0.000431,0.020332
7895000,0.0324,0.013523,0.002678,0.000431,0.017277
7896000,0.0324,0.013523,0.002678,0.000431,0.020920
7897000,0.0324,0.013523,0.002678,0.000431,0.018687
7898000,0.0324,0.013523,0.002678,0.000431,0.019980
7899000,0.0324,0.013523,0.002678,0.000431,0.020097
7900000,0.0324,0.013523,0.002678,0.000431,0.019510
7901000,0.0324,0.013523,0.002678,0.000431,0.019862
7902000,0.0324,0.013523,0.002678,0.000431,0.018217
7903000,0.0324,0.013523,0.002678,0.000431,0.021273
7904000,0.0324,0.013523,0.002678,0.000431,0.019745
7905000,0.0324,0.013523,0.002678,0.000431,0.019392
7906000,0.0324,0.013523,0.002678,0.000431,0.018569
7907000,0.0324,0.013523,0.002678,0.000431,0.019980
7908000,0.0324,0.013523,0.002678,0.000431,0.021038
7909000,0.0324,0.013523,0.002678,0.000431,0.018922
7910000,0.0324,0.013523,0.002678,0.000431,0.019275
7911000,0.0324,0.013523,0.002678,0.000431,0.020097
7912000,0.0324,0.013523,0.002678,0.000431,0.021273
7913000,0.0324,0.013523,0.002678,0.000431,0.017864
7914000,0.0324,0.013523,0.002678,0.000431,0.021038
7915000,0.0324,0.013523,0.002678,0.000431,0.020215
7916000,0.0324,0.013523,0.002678,0.000431,0.018334
7917000,0.0324,0.013523,0.002678,0.000431,0.019157
7918000,0.0324,0.013523,0.002678,0.000431,0.021155
7919000,0.0324,0.013523,0.002678,0.000431,0.020567
7920000,0.0324,0.013523,0.002678,0.000431,0.018805
7921000,0.0324,0.013523,0.002678,0.000431,0.018452
7922000,0.0324,0.013523,0.002678,0.000431,0.020802
7923000,0.0324,0.013523,0.002678,0.000431,0.019862
7924000,0.0324,0.013523,0.002678,0.000431,0.018452
7925000,0.0324,0.013523,0.002678,0.000431,0.018805
7926000,0.0324,0.013523,0.002678,0.000431,0.021273
7927000,0.0324,0.013523,0.002678,0.000431,0.018452
7928000,0.0324,0.013523,0.002678,0.000431,0.018569
7929000,0.0324,0.013523,0.002678,0.000431,0.022213
7930000,0.0324,0.013523,0.002678,0.000431,0.019980
7931000,0.0324,0.013523,0.002678,0.000431,0.019157
7932000,0.0324,0.013523,0.002678,0.000431,0.019980
7933000,0.0324,0.013523,0.002678,0.000431,0.020215
7934000,0.0324,0.013523,0.002678,0.000431,0.020567
7935000,0.0324,0.013523,0.002678,0.000431,0.019392
7936000,0.0324,0.013523,0.002678,0.000431,0.021390
7937000,0.0324,0.013523,0.002678,0.000431,0.020450
7938000,0.0324,0.013523,0.002678,0.000431,0.018922
7939000,0.0324,0.013523,0.002678,0.000431,0.021390
7940000,0.0324,0.013523,0.002678,0.000431,0.020685
7941000,0.0324,0.013523,0.002678,0.000431,0.020097
7942000,0.0324,0.013523,0.002678,0.000431,0.020450
7943000,0.0324,0.013523,0.002678,0.000431,0.020332
7944000,0.0324,0.013523,0.002678,0.000431,0.019040
7945000,0.0324,0.013523,0.002678,0.000431,0.020920
7946000,0.0324,0.013523,0.002678,0.000431,0.019980
7947000,0.0324,0.013523,0.002678,0.000431,0.017864
7948000,0.0324,0.013523,0.002678,0.000431,0.019392
7949000,0.0324,0.013523,0.002678,0.000431,0.021390
7950000,0.0324,0.013523,0.002678,0.000431,0.021273
7951000,0.0324,0.013523,0.002678,0.000431,0.019745
7952000,0.0324,0.013523,0.002678,0.000431,0.020920
7953000,0.0324,0.013523,0.002678,0.000431,0.021155
7954000,0.0324,0.013523,0.002678,0.000431,0.018922
7955000,0.0324,0.013523,0.002678,0.000431,0.020567
7956000,0.0324,0.013523,0.002678,0.000431,0.021273
7957000,0.0324,0.013523,0.002678,0.000431,0.020567
7958000,0.0324,0.013523,0.002678,0.000431,0.018805
7959000,0.0324,0.013523,0.002678,0.000431,0.020332
7960000,0.0324,0.013523,0.002678,0.000431,0.021273
7961000,0.0324,0.013523,0.002678,0.000431,0.018922
7962000,0.0324,0.013523,0.002678,0.000431,0.018687
7963000,0.0324,0.013523,0.002678,0.000431,0.021038
7964000,0.0324,0.013523,0.002678,0.000431,0.019275
7965000,0.0324,0.013523,0.002678,0.000431,0.019627
7966000,0.0324,0.013523,0.002678,0.000431,0.020097
7967000,0.0324,0.013523,0.002678,0.000431,0.021508
7968000,0.0324,0.013523,0.002678,0.000431,0.019510
7969000,0.0324,0.013523,0.002678,0.000431,0.019980
7970000,0.0324,0.013523,0.002678,0.000431,0.022800
7971000,0.0324,0.013523,0.002678,0.000431,0.020450
7972000,0.0324,0.013523,0.002678,0.000431,0.019980
7973000,0.0324,0.013523,0.002678,0.000431,0.019275
7974000,0.0324,0.013523,0.002678,0.000431,0.020450
7975000,0.0324,0.013523,0.002678,0.000431,0.019510
7976000,0.0324,0.013523,0.002678,0.000431,0.020097
7977000,0.0324,0.013523,0.002678,0.000431,0.020920
7978000,0.0324,0.013523,0.002678,0.000431,0.019040
7979000,0.0324,0.013523,0.002678,0.000431,0.018805
7980000,0.0324,0.013523,0.002678,0.000431,0.021743
7981000,0.0324,0.013523,0.002678,0.000431,0.019862
7982000,0.0324,0.013523,0.002678,0.000431,0.019627
7983000,0.0324,0.013523,0.002678,0.000431,0.019157
7984000,0.0324,0.013523,0.002678,0.000431,0.020332
7985000,0.0324,0.013523,0.002678,0.000431,0.021155
7986000,0.0324,0.013523,0.002678,0.000431,0.019627
7987000,0.0324,0.013523,0.002678,0.000431,0.019980
7988000,0.0324,0.013523,0.002678,0.000431,0.021155
7989000,0.0324,0.013523,0.002678,0.000431,0.019980
7990000,0.0324,0.013523,0.002678,0.000431,0.019392
7991000,0.0324,0.013523,0.002678,0.000431,0.021273
7992000,0.0324,0.013523,0.002678,0.000431,0.018805
7993000,0.0324,0.013523,0.002678,0.000431,0.019392
7994000,0.0324,0.013523,0.002678,0.000431,0.019862
7995000,0.0324,0.013523,0.002678,0.000431,0.019627
7996000,0.0324,0.013523,0.002678,0.000431,0.021038
7997000,0.0324,0.013523,0.002678,0.000431,0.021860
7998000,0.0324,0.013523,0.002678,0.000431,0.021038
7999000,0.0324,0.013523,0.002678,0.000431,0.018452
