Cycle,Area(mm^2),PeakDynamic(W),SubthresholdLeakage(W),GateLeakage(W),RunTimeDynamic(W)
5000000,0.0324,0.013523,0.002678,0.000431,0.047011
5001000,0.0324,0.013523,0.002678,0.000431,0.046659
5002000,0.0324,0.013523,0.002678,0.000431,0.043720
5003000,0.0324,0.013523,0.002678,0.000431,0.045601
5004000,0.0324,0.013523,0.002678,0.000431,0.043720
5005000,0.0324,0.013523,0.002678,0.000431,0.045601
5006000,0.0324,0.013523,0.002678,0.000431,0.043720
5007000,0.0324,0.013523,0.002678,0.000431,0.047129
5008000,0.0324,0.013523,0.002678,0.000431,0.045248
5009000,0.0324,0.013523,0.002678,0.000431,0.044661
5010000,0.0324,0.013523,0.002678,0.000431,0.045601
5011000,0.0324,0.013523,0.002678,0.000431,0.049479
5012000,0.0324,0.013523,0.002678,0.000431,0.043838
5013000,0.0324,0.013523,0.002678,0.000431,0.043838
5014000,0.0324,0.013523,0.002678,0.000431,0.041135
5015000,0.0324,0.013523,0.002678,0.000431,0.045483
5016000,0.0324,0.013523,0.002678,0.000431,0.041487
5017000,0.0324,0.013523,0.002678,0.000431,0.044778
5018000,0.0324,0.013523,0.002678,0.000431,0.042780
5019000,0.0324,0.013523,0.002678,0.000431,0.041723
5020000,0.0324,0.013523,0.002678,0.000431,0.045483
5021000,0.0324,0.013523,0.002678,0.000431,0.043838
5022000,0.0324,0.013523,0.002678,0.000431,0.046894
5023000,0.0324,0.013523,0.002678,0.000431,0.043485
5024000,0.0324,0.013523,0.002678,0.000431,0.043838
5025000,0.0324,0.013523,0.002678,0.000431,0.045836
5026000,0.0324,0.013523,0.002678,0.000431,0.042310
5027000,0.0324,0.013523,0.002678,0.000431,0.044073
5028000,0.0324,0.013523,0.002678,0.000431,0.041840
5029000,0.0324,0.013523,0.002678,0.000431,0.041723
5030000,0.0324,0.013523,0.002678,0.000431,0.045366
5031000,0.0324,0.013523,0.002678,0.000431,0.041840
5032000,0.0324,0.013523,0.002678,0.000431,0.039960
5033000,0.0324,0.013523,0.002678,0.000431,0.043015
5034000,0.0324,0.013523,0.002678,0.000431,0.042075
5035000,0.0324,0.013523,0.002678,0.000431,0.042428
5036000,0.0324,0.013523,0.002678,0.000431,0.043603
5037000,0.0324,0.013523,0.002678,0.000431,0.044896
5038000,0.0324,0.013523,0.002678,0.000431,0.043485
5039000,0.0324,0.013523,0.002678,0.000431,0.045013
5040000,0.0324,0.013523,0.002678,0.000431,0.042428
5041000,0.0324,0.013523,0.002678,0.000431,0.042898
5042000,0.0324,0.013523,0.002678,0.000431,0.041605
5043000,0.0324,0.013523,0.002678,0.000431,0.043368
5044000,0.0324,0.013523,0.002678,0.000431,0.045013
5045000,0.0324,0.013523,0.002678,0.000431,0.041017
5046000,0.0324,0.013523,0.002678,0.000431,0.043956
5047000,0.0324,0.013523,0.002678,0.000431,0.044308
5048000,0.0324,0.013523,0.002678,0.000431,0.041017
5049000,0.0324,0.013523,0.002678,0.000431,0.041370
5050000,0.0324,0.013523,0.002678,0.000431,0.042898
5051000,0.0324,0.013523,0.002678,0.000431,0.042545
5052000,0.0324,0.013523,0.002678,0.000431,0.042428
5053000,0.0324,0.013523,0.002678,0.000431,0.041487
5054000,0.0324,0.013523,0.002678,0.000431,0.042310
5055000,0.0324,0.013523,0.002678,0.000431,0.043250
5056000,0.0324,0.013523,0.002678,0.000431,0.041840
5057000,0.0324,0.013523,0.002678,0.000431,0.041958
5058000,0.0324,0.013523,0.002678,0.000431,0.041135
5059000,0.0324,0.013523,0.002678,0.000431,0.041605
5060000,0.0324,0.013523,0.002678,0.000431,0.044308
5061000,0.0324,0.013523,0.002678,0.000431,0.042075
5062000,0.0324,0.013523,0.002678,0.000431,0.042545
5063000,0.0324,0.013523,0.002678,0.000431,0.043838
5064000,0.0324,0.013523,0.002678,0.000431,0.042545
5065000,0.0324,0.013523,0.002678,0.000431,0.041605
5066000,0.0324,0.013523,0.002678,0.000431,0.043956
5067000,0.0324,0.013523,0.002678,0.000431,0.045483
5068000,0.0324,0.013523,0.002678,0.000431,0.043720
5069000,0.0324,0.013523,0.002678,0.000431,0.041605
5070000,0.0324,0.013523,0.002678,0.000431,0.043368
5071000,0.0324,0.013523,0.002678,0.000431,0.042075
5072000,0.0324,0.013523,0.002678,0.000431,0.041840
5073000,0.0324,0.013523,0.002678,0.000431,0.045131
5074000,0.0324,0.013523,0.002678,0.000431,0.042663
5075000,0.0324,0.013523,0.002678,0.000431,0.044308
5076000,0.0324,0.013523,0.002678,0.000431,0.042075
5077000,0.0324,0.013523,0.002678,0.000431,0.041370
5078000,0.0324,0.013523,0.002678,0.000431,0.044073
5079000,0.0324,0.013523,0.002678,0.000431,0.042545
5080000,0.0324,0.013523,0.002678,0.000431,0.042545
5081000,0.0324,0.013523,0.002678,0.000431,0.043015
5082000,0.0324,0.013523,0.002678,0.000431,0.042545
5083000,0.0324,0.013523,0.002678,0.000431,0.041017
5084000,0.0324,0.013523,0.002678,0.000431,0.041487
5085000,0.0324,0.013523,0.002678,0.000431,0.043368
5086000,0.0324,0.013523,0.002678,0.000431,0.044778
5087000,0.0324,0.013523,0.002678,0.000431,0.041840
5088000,0.0324,0.013523,0.002678,0.000431,0.043368
5089000,0.0324,0.013523,0.002678,0.000431,0.042075
5090000,0.0324,0.013523,0.002678,0.000431,0.039019
5091000,0.0324,0.013523,0.002678,0.000431,0.045718
5092000,0.0324,0.013523,0.002678,0.000431,0.041017
5093000,0.0324,0.013523,0.002678,0.000431,0.044073
5094000,0.0324,0.013523,0.002678,0.000431,0.042310
5095000,0.0324,0.013523,0.002678,0.000431,0.047481
5096000,0.0324,0.013523,0.002678,0.000431,0.043250
5097000,0.0324,0.013523,0.002678,0.000431,0.040195
5098000,0.0324,0.013523,0.002678,0.000431,0.043368
5099000,0.0324,0.013523,0.002678,0.000431,0.042780
5100000,0.0324,0.013523,0.002678,0.000431,0.040900
5101000,0.0324,0.013523,0.002678,0.000431,0.043603
5102000,0.0324,0.013523,0.002678,0.000431,0.044073
5103000,0.0324,0.013523,0.002678,0.000431,0.042075
5104000,0.0324,0.013523,0.002678,0.000431,0.042545
5105000,0.0324,0.013523,0.002678,0.000431,0.045013
5106000,0.0324,0.013523,0.002678,0.000431,0.041370
5107000,0.0324,0.013523,0.002678,0.000431,0.043250
5108000,0.0324,0.013523,0.002678,0.000431,0.044661
5109000,0.0324,0.013523,0.002678,0.000431,0.044543
5110000,0.0324,0.013523,0.002678,0.000431,0.041487
5111000,0.0324,0.013523,0.002678,0.000431,0.046071
5112000,0.0324,0.013523,0.002678,0.000431,0.040665
5113000,0.0324,0.013523,0.002678,0.000431,0.040665
5114000,0.0324,0.013523,0.002678,0.000431,0.044661
5115000,0.0324,0.013523,0.002678,0.000431,0.045248
5116000,0.0324,0.013523,0.002678,0.000431,0.042663
5117000,0.0324,0.013523,0.002678,0.000431,0.041723
5118000,0.0324,0.013523,0.002678,0.000431,0.039489
5119000,0.0324,0.013523,0.002678,0.000431,0.041723
5120000,0.0324,0.013523,0.002678,0.000431,0.045248
5121000,0.0324,0.013523,0.002678,0.000431,0.043133
5122000,0.0324,0.013523,0.002678,0.000431,0.044661
5123000,0.0324,0.013523,0.002678,0.000431,0.043603
5124000,0.0324,0.013523,0.002678,0.000431,0.042780
5125000,0.0324,0.013523,0.002678,0.000431,0.042663
5126000,0.0324,0.013523,0.002678,0.000431,0.040430
5127000,0.0324,0.013523,0.002678,0.000431,0.041370
5128000,0.0324,0.013523,0.002678,0.000431,0.043485
5129000,0.0324,0.013523,0.002678,0.000431,0.040900
5130000,0.0324,0.013523,0.002678,0.000431,0.045836
5131000,0.0324,0.013523,0.002678,0.000431,0.043015
5132000,0.0324,0.013523,0.002678,0.000431,0.042075
5133000,0.0324,0.013523,0.002678,0.000431,0.041723
5134000,0.0324,0.013523,0.002678,0.000431,0.040782
5135000,0.0324,0.013523,0.002678,0.000431,0.041017
5136000,0.0324,0.013523,0.002678,0.000431,0.040900
5137000,0.0324,0.013523,0.002678,0.000431,0.039254
5138000,0.0324,0.013523,0.002678,0.000431,0.040782
5139000,0.0324,0.013523,0.002678,0.000431,0.041370
5140000,0.0324,0.013523,0.002678,0.000431,0.039607
5141000,0.0324,0.013523,0.002678,0.000431,0.041370
5142000,0.0324,0.013523,0.002678,0.000431,0.041135
5143000,0.0324,0.013523,0.002678,0.000431,0.044661
5144000,0.0324,0.013523,0.002678,0.000431,0.041840
5145000,0.0324,0.013523,0.002678,0.000431,0.040312
5146000,0.0324,0.013523,0.002678,0.000431,0.038549
5147000,0.0324,0.013523,0.002678,0.000431,0.041135
5148000,0.0324,0.013523,0.002678,0.000431,0.042545
5149000,0.0324,0.013523,0.002678,0.000431,0.039254
5150000,0.0324,0.013523,0.002678,0.000431,0.039137
5151000,0.0324,0.013523,0.002678,0.000431,0.039607
5152000,0.0324,0.013523,0.002678,0.000431,0.045836
5153000,0.0324,0.013523,0.002678,0.000431,0.040900
5154000,0.0324,0.013523,0.002678,0.000431,0.040782
5155000,0.0324,0.013523,0.002678,0.000431,0.038197
5156000,0.0324,0.013523,0.002678,0.000431,0.041252
5157000,0.0324,0.013523,0.002678,0.000431,0.042428
5158000,0.0324,0.013523,0.002678,0.000431,0.039960
5159000,0.0324,0.013523,0.002678,0.000431,0.043720
5160000,0.0324,0.013523,0.002678,0.000431,0.041958
5161000,0.0324,0.013523,0.002678,0.000431,0.040782
5162000,0.0324,0.013523,0.002678,0.000431,0.040430
5163000,0.0324,0.013523,0.002678,0.000431,0.041605
5164000,0.0324,0.013523,0.002678,0.000431,0.040547
5165000,0.0324,0.013523,0.002678,0.000431,0.041958
5166000,0.0324,0.013523,0.002678,0.000431,0.041487
5167000,0.0324,0.013523,0.002678,0.000431,0.038902
5168000,0.0324,0.013523,0.002678,0.000431,0.040430
5169000,0.0324,0.013523,0.002678,0.000431,0.042898
5170000,0.0324,0.013523,0.002678,0.000431,0.038784
5171000,0.0324,0.013523,0.002678,0.000431,0.038784
5172000,0.0324,0.013523,0.002678,0.000431,0.040782
5173000,0.0324,0.013523,0.002678,0.000431,0.038902
5174000,0.0324,0.013523,0.002678,0.000431,0.042898
5175000,0.0324,0.013523,0.002678,0.000431,0.041605
5176000,0.0324,0.013523,0.002678,0.000431,0.041605
5177000,0.0324,0.013523,0.002678,0.000431,0.041723
5178000,0.0324,0.013523,0.002678,0.000431,0.041723
5179000,0.0324,0.013523,0.002678,0.000431,0.038784
5180000,0.0324,0.013523,0.002678,0.000431,0.043015
5181000,0.0324,0.013523,0.002678,0.000431,0.041605
5182000,0.0324,0.013523,0.002678,0.000431,0.041252
5183000,0.0324,0.013523,0.002678,0.000431,0.040547
5184000,0.0324,0.013523,0.002678,0.000431,0.040312
5185000,0.0324,0.013523,0.002678,0.000431,0.041017
5186000,0.0324,0.013523,0.002678,0.000431,0.040900
5187000,0.0324,0.013523,0.002678,0.000431,0.040312
5188000,0.0324,0.013523,0.002678,0.000431,0.039489
5189000,0.0324,0.013523,0.002678,0.000431,0.039842
5190000,0.0324,0.013523,0.002678,0.000431,0.042898
5191000,0.0324,0.013523,0.002678,0.000431,0.039254
5192000,0.0324,0.013523,0.002678,0.000431,0.039842
5193000,0.0324,0.013523,0.002678,0.000431,0.041605
5194000,0.0324,0.013523,0.002678,0.000431,0.039607
5195000,0.0324,0.013523,0.002678,0.000431,0.039489
5196000,0.0324,0.013523,0.002678,0.000431,0.039137
5197000,0.0324,0.013523,0.002678,0.000431,0.042663
5198000,0.0324,0.013523,0.002678,0.000431,0.039489
5199000,0.0324,0.013523,0.002678,0.000431,0.041487
5200000,0.0324,0.013523,0.002678,0.000431,0.042310
5201000,0.0324,0.013523,0.002678,0.000431,0.040430
5202000,0.0324,0.013523,0.002678,0.000431,0.042075
5203000,0.0324,0.013523,0.002678,0.000431,0.039842
5204000,0.0324,0.013523,0.002678,0.000431,0.041487
5205000,0.0324,0.013523,0.002678,0.000431,0.041723
5206000,0.0324,0.013523,0.002678,0.000431,0.038079
5207000,0.0324,0.013523,0.002678,0.000431,0.040195
5208000,0.0324,0.013523,0.002678,0.000431,0.041017
5209000,0.0324,0.013523,0.002678,0.000431,0.041252
5210000,0.0324,0.013523,0.002678,0.000431,0.039137
5211000,0.0324,0.013523,0.002678,0.000431,0.037844
5212000,0.0324,0.013523,0.002678,0.000431,0.041958
5213000,0.0324,0.013523,0.002678,0.000431,0.041370
5214000,0.0324,0.013523,0.002678,0.000431,0.042310
5215000,0.0324,0.013523,0.002678,0.000431,0.038667
5216000,0.0324,0.013523,0.002678,0.000431,0.042193
5217000,0.0324,0.013523,0.002678,0.000431,0.041017
5218000,0.0324,0.013523,0.002678,0.000431,0.038549
5219000,0.0324,0.013523,0.002678,0.000431,0.042663
5220000,0.0324,0.013523,0.002678,0.000431,0.038667
5221000,0.0324,0.013523,0.002678,0.000431,0.040665
5222000,0.0324,0.013523,0.002678,0.000431,0.039607
5223000,0.0324,0.013523,0.002678,0.000431,0.041840
5224000,0.0324,0.013523,0.002678,0.000431,0.038902
5225000,0.0324,0.013523,0.002678,0.000431,0.040195
5226000,0.0324,0.013523,0.002678,0.000431,0.042310
5227000,0.0324,0.013523,0.002678,0.000431,0.042193
5228000,0.0324,0.013523,0.002678,0.000431,0.040195
5229000,0.0324,0.013523,0.002678,0.000431,0.040547
5230000,0.0324,0.013523,0.002678,0.000431,0.040665
5231000,0.0324,0.013523,0.002678,0.000431,0.040312
5232000,0.0324,0.013523,0.002678,0.000431,0.039372
5233000,0.0324,0.013523,0.002678,0.000431,0.037962
5234000,0.0324,0.013523,0.002678,0.000431,0.036904
5235000,0.0324,0.013523,0.002678,0.000431,0.040312
5236000,0.0324,0.013523,0.002678,0.000431,0.036316
5237000,0.0324,0.013523,0.002678,0.000431,0.039137
5238000,0.0324,0.013523,0.002678,0.000431,0.038432
5239000,0.0324,0.013523,0.002678,0.000431,0.039607
5240000,0.0324,0.013523,0.002678,0.000431,0.038079
5241000,0.0324,0.013523,0.002678,0.000431,0.038079
5242000,0.0324,0.013523,0.002678,0.000431,0.036199
5243000,0.0324,0.013523,0.002678,0.000431,0.040547
5244000,0.0324,0.013523,0.002678,0.000431,0.039842
5245000,0.0324,0.013523,0.002678,0.000431,0.036551
5246000,0.0324,0.013523,0.002678,0.000431,0.038432
5247000,0.0324,0.013523,0.002678,0.000431,0.039372
5248000,0.0324,0.013523,0.002678,0.000431,0.038079
5249000,0.0324,0.013523,0.002678,0.000431,0.038314
5250000,0.0324,0.013523,0.002678,0.000431,0.037727
5251000,0.0324,0.013523,0.002678,0.000431,0.042075
5252000,0.0324,0.013523,0.002678,0.000431,0.040782
5253000,0.0324,0.013523,0.002678,0.000431,0.039607
5254000,0.0324,0.013523,0.002678,0.000431,0.038432
5255000,0.0324,0.013523,0.002678,0.000431,0.040077
5256000,0.0324,0.013523,0.002678,0.000431,0.039842
5257000,0.0324,0.013523,0.002678,0.000431,0.037844
5258000,0.0324,0.013523,0.002678,0.000431,0.037962
5259000,0.0324,0.013523,0.002678,0.000431,0.037256
5260000,0.0324,0.013523,0.002678,0.000431,0.037609
5261000,0.0324,0.013523,0.002678,0.000431,0.038079
5262000,0.0324,0.013523,0.002678,0.000431,0.038784
5263000,0.0324,0.013523,0.002678,0.000431,0.037491
5264000,0.0324,0.013523,0.002678,0.000431,0.039607
5265000,0.0324,0.013523,0.002678,0.000431,0.040195
5266000,0.0324,0.013523,0.002678,0.000431,0.039607
5267000,0.0324,0.013523,0.002678,0.000431,0.035494
5268000,0.0324,0.013523,0.002678,0.000431,0.041370
5269000,0.0324,0.013523,0.002678,0.000431,0.039725
5270000,0.0324,0.013523,0.002678,0.000431,0.039842
5271000,0.0324,0.013523,0.002678,0.000431,0.037374
5272000,0.0324,0.013523,0.002678,0.000431,0.038432
5273000,0.0324,0.013523,0.002678,0.000431,0.038549
5274000,0.0324,0.013523,0.002678,0.000431,0.039842
5275000,0.0324,0.013523,0.002678,0.000431,0.038432
5276000,0.0324,0.013523,0.002678,0.000431,0.040665
5277000,0.0324,0.013523,0.002678,0.000431,0.040312
5278000,0.0324,0.013523,0.002678,0.000431,0.038197
5279000,0.0324,0.013523,0.002678,0.000431,0.038549
5280000,0.0324,0.013523,0.002678,0.000431,0.038079
5281000,0.0324,0.013523,0.002678,0.000431,0.037021
5282000,0.0324,0.013523,0.002678,0.000431,0.038667
5283000,0.0324,0.013523,0.002678,0.000431,0.037256
5284000,0.0324,0.013523,0.002678,0.000431,0.040195
5285000,0.0324,0.013523,0.002678,0.000431,0.039019
5286000,0.0324,0.013523,0.002678,0.000431,0.041252
5287000,0.0324,0.013523,0.002678,0.000431,0.040430
5288000,0.0324,0.013523,0.002678,0.000431,0.038432
5289000,0.0324,0.013523,0.002678,0.000431,0.039725
5290000,0.0324,0.013523,0.002678,0.000431,0.041723
5291000,0.0324,0.013523,0.002678,0.000431,0.039489
5292000,0.0324,0.013523,0.002678,0.000431,0.040312
5293000,0.0324,0.013523,0.002678,0.000431,0.040547
5294000,0.0324,0.013523,0.002678,0.000431,0.036669
5295000,0.0324,0.013523,0.002678,0.000431,0.038432
5296000,0.0324,0.013523,0.002678,0.000431,0.043133
5297000,0.0324,0.013523,0.002678,0.000431,0.038902
5298000,0.0324,0.013523,0.002678,0.000431,0.038549
5299000,0.0324,0.013523,0.002678,0.000431,0.040195
5300000,0.0324,0.013523,0.002678,0.000431,0.037609
5301000,0.0324,0.013523,0.002678,0.000431,0.036434
5302000,0.0324,0.013523,0.002678,0.000431,0.038432
5303000,0.0324,0.013523,0.002678,0.000431,0.038314
5304000,0.0324,0.013523,0.002678,0.000431,0.035846
5305000,0.0324,0.013523,0.002678,0.000431,0.037609
5306000,0.0324,0.013523,0.002678,0.000431,0.037256
5307000,0.0324,0.013523,0.002678,0.000431,0.039960
5308000,0.0324,0.013523,0.002678,0.000431,0.039489
5309000,0.0324,0.013523,0.002678,0.000431,0.039019
5310000,0.0324,0.013523,0.002678,0.000431,0.035846
5311000,0.0324,0.013523,0.002678,0.000431,0.039137
5312000,0.0324,0.013523,0.002678,0.000431,0.039137
5313000,0.0324,0.013523,0.002678,0.000431,0.038432
5314000,0.0324,0.013523,0.002678,0.000431,0.038784
5315000,0.0324,0.013523,0.002678,0.000431,0.039372
5316000,0.0324,0.013523,0.002678,0.000431,0.038902
5317000,0.0324,0.013523,0.002678,0.000431,0.039960
5318000,0.0324,0.013523,0.002678,0.000431,0.039254
5319000,0.0324,0.013523,0.002678,0.000431,0.036669
5320000,0.0324,0.013523,0.002678,0.000431,0.039725
5321000,0.0324,0.013523,0.002678,0.000431,0.039960
5322000,0.0324,0.013523,0.002678,0.000431,0.039842
5323000,0.0324,0.013523,0.002678,0.000431,0.036316
5324000,0.0324,0.013523,0.002678,0.000431,0.040665
5325000,0.0324,0.013523,0.002678,0.000431,0.038197
5326000,0.0324,0.013523,0.002678,0.000431,0.038314
5327000,0.0324,0.013523,0.002678,0.000431,0.040195
5328000,0.0324,0.013523,0.002678,0.000431,0.037609
5329000,0.0324,0.013523,0.002678,0.000431,0.039254
5330000,0.0324,0.013523,0.002678,0.000431,0.037374
5331000,0.0324,0.013523,0.002678,0.000431,0.040547
5332000,0.0324,0.013523,0.002678,0.000431,0.038432
5333000,0.0324,0.013523,0.002678,0.000431,0.036551
5334000,0.0324,0.013523,0.002678,0.000431,0.036551
5335000,0.0324,0.013523,0.002678,0.000431,0.038784
5336000,0.0324,0.013523,0.002678,0.000431,0.038784
5337000,0.0324,0.013523,0.002678,0.000431,0.039842
5338000,0.0324,0.013523,0.002678,0.000431,0.037609
5339000,0.0324,0.013523,0.002678,0.000431,0.037256
5340000,0.0324,0.013523,0.002678,0.000431,0.038432
5341000,0.0324,0.013523,0.002678,0.000431,0.039372
5342000,0.0324,0.013523,0.002678,0.000431,0.039019
5343000,0.0324,0.013523,0.002678,0.000431,0.037139
5344000,0.0324,0.013523,0.002678,0.000431,0.039372
5345000,0.0324,0.013523,0.002678,0.000431,0.037727
5346000,0.0324,0.013523,0.002678,0.000431,0.038667
5347000,0.0324,0.013523,0.002678,0.000431,0.039842
5348000,0.0324,0.013523,0.002678,0.000431,0.039842
5349000,0.0324,0.013523,0.002678,0.000431,0.039372
5350000,0.0324,0.013523,0.002678,0.000431,0.037139
5351000,0.0324,0.013523,0.002678,0.000431,0.039254
5352000,0.0324,0.013523,0.002678,0.000431,0.039372
5353000,0.0324,0.013523,0.002678,0.000431,0.039725
5354000,0.0324,0.013523,0.002678,0.000431,0.040077
5355000,0.0324,0.013523,0.002678,0.000431,0.040782
5356000,0.0324,0.013523,0.002678,0.000431,0.037139
5357000,0.0324,0.013523,0.002678,0.000431,0.037374
5358000,0.0324,0.013523,0.002678,0.000431,0.039725
5359000,0.0324,0.013523,0.002678,0.000431,0.038667
5360000,0.0324,0.013523,0.002678,0.000431,0.040312
5361000,0.0324,0.013523,0.002678,0.000431,0.036316
5362000,0.0324,0.013523,0.002678,0.000431,0.037139
5363000,0.0324,0.013523,0.002678,0.000431,0.038784
5364000,0.0324,0.013523,0.002678,0.000431,0.039137
5365000,0.0324,0.013523,0.002678,0.000431,0.038314
5366000,0.0324,0.013523,0.002678,0.000431,0.035964
5367000,0.0324,0.013523,0.002678,0.000431,0.040077
5368000,0.0324,0.013523,0.002678,0.000431,0.038902
5369000,0.0324,0.013523,0.002678,0.000431,0.037491
5370000,0.0324,0.013523,0.002678,0.000431,0.040195
5371000,0.0324,0.013523,0.002678,0.000431,0.039725
5372000,0.0324,0.013523,0.002678,0.000431,0.036551
5373000,0.0324,0.013523,0.002678,0.000431,0.037021
5374000,0.0324,0.013523,0.002678,0.000431,0.038432
5375000,0.0324,0.013523,0.002678,0.000431,0.039489
5376000,0.0324,0.013523,0.002678,0.000431,0.040900
5377000,0.0324,0.013523,0.002678,0.000431,0.040195
5378000,0.0324,0.013523,0.002678,0.000431,0.036551
5379000,0.0324,0.013523,0.002678,0.000431,0.040900
5380000,0.0324,0.013523,0.002678,0.000431,0.039254
5381000,0.0324,0.013523,0.002678,0.000431,0.037374
5382000,0.0324,0.013523,0.002678,0.000431,0.038667
5383000,0.0324,0.013523,0.002678,0.000431,0.041958
5384000,0.0324,0.013523,0.002678,0.000431,0.042193
5385000,0.0324,0.013523,0.002678,0.000431,0.038314
5386000,0.0324,0.013523,0.002678,0.000431,0.038314
5387000,0.0324,0.013523,0.002678,0.000431,0.037844
5388000,0.0324,0.013523,0.002678,0.000431,0.040312
5389000,0.0324,0.013523,0.002678,0.000431,0.040782
5390000,0.0324,0.013523,0.002678,0.000431,0.040430
5391000,0.0324,0.013523,0.002678,0.000431,0.038079
5392000,0.0324,0.013523,0.002678,0.000431,0.041252
5393000,0.0324,0.013523,0.002678,0.000431,0.041017
5394000,0.0324,0.013523,0.002678,0.000431,0.037844
5395000,0.0324,0.013523,0.002678,0.000431,0.038784
5396000,0.0324,0.013523,0.002678,0.000431,0.039254
5397000,0.0324,0.013523,0.002678,0.000431,0.039960
5398000,0.0324,0.013523,0.002678,0.000431,0.037491
5399000,0.0324,0.013523,0.002678,0.000431,0.041958
5400000,0.0324,0.013523,0.002678,0.000431,0.037491
5401000,0.0324,0.013523,0.002678,0.000431,0.039607
5402000,0.0324,0.013523,0.002678,0.000431,0.040547
5403000,0.0324,0.013523,0.002678,0.000431,0.039137
5404000,0.0324,0.013523,0.002678,0.000431,0.038667
5405000,0.0324,0.013523,0.002678,0.000431,0.037374
5406000,0.0324,0.013523,0.002678,0.000431,0.037609
5407000,0.0324,0.013523,0.002678,0.000431,0.041487
5408000,0.0324,0.013523,0.002678,0.000431,0.038784
5409000,0.0324,0.013523,0.002678,0.000431,0.036786
5410000,0.0324,0.013523,0.002678,0.000431,0.040312
5411000,0.0324,0.013523,0.002678,0.000431,0.040900
5412000,0.0324,0.013523,0.002678,0.000431,0.036081
5413000,0.0324,0.013523,0.002678,0.000431,0.037491
5414000,0.0324,0.013523,0.002678,0.000431,0.040312
5415000,0.0324,0.013523,0.002678,0.000431,0.038784
5416000,0.0324,0.013523,0.002678,0.000431,0.036434
5417000,0.0324,0.013523,0.002678,0.000431,0.038197
5418000,0.0324,0.013523,0.002678,0.000431,0.039137
5419000,0.0324,0.013523,0.002678,0.000431,0.038314
5420000,0.0324,0.013523,0.002678,0.000431,0.038902
5421000,0.0324,0.013523,0.002678,0.000431,0.039725
5422000,0.0324,0.013523,0.002678,0.000431,0.037844
5423000,0.0324,0.013523,0.002678,0.000431,0.035611
5424000,0.0324,0.013523,0.002678,0.000431,0.040312
5425000,0.0324,0.013523,0.002678,0.000431,0.036786
5426000,0.0324,0.013523,0.002678,0.000431,0.037374
5427000,0.0324,0.013523,0.002678,0.000431,0.039842
5428000,0.0324,0.013523,0.002678,0.000431,0.037727
5429000,0.0324,0.013523,0.002678,0.000431,0.035023
5430000,0.0324,0.013523,0.002678,0.000431,0.037962
5431000,0.0324,0.013523,0.002678,0.000431,0.039842
5432000,0.0324,0.013523,0.002678,0.000431,0.037962
5433000,0.0324,0.013523,0.002678,0.000431,0.036669
5434000,0.0324,0.013523,0.002678,0.000431,0.037021
5435000,0.0324,0.013523,0.002678,0.000431,0.038667
5436000,0.0324,0.013523,0.002678,0.000431,0.037962
5437000,0.0324,0.013523,0.002678,0.000431,0.036316
5438000,0.0324,0.013523,0.002678,0.000431,0.038197
5439000,0.0324,0.013523,0.002678,0.000431,0.035023
5440000,0.0324,0.013523,0.002678,0.000431,0.039372
5441000,0.0324,0.013523,0.002678,0.000431,0.036669
5442000,0.0324,0.013523,0.002678,0.000431,0.038314
5443000,0.0324,0.013523,0.002678,0.000431,0.037491
5444000,0.0324,0.013523,0.002678,0.000431,0.040077
5445000,0.0324,0.013523,0.002678,0.000431,0.038197
5446000,0.0324,0.013523,0.002678,0.000431,0.036434
5447000,0.0324,0.013523,0.002678,0.000431,0.040312
5448000,0.0324,0.013523,0.002678,0.000431,0.039372
5449000,0.0324,0.013523,0.002678,0.000431,0.040312
5450000,0.0324,0.013523,0.002678,0.000431,0.038784
5451000,0.0324,0.013523,0.002678,0.000431,0.038314
5452000,0.0324,0.013523,0.002678,0.000431,0.038314
5453000,0.0324,0.013523,0.002678,0.000431,0.040430
5454000,0.0324,0.013523,0.002678,0.000431,0.039019
5455000,0.0324,0.013523,0.002678,0.000431,0.037021
5456000,0.0324,0.013523,0.002678,0.000431,0.038902
5457000,0.0324,0.013523,0.002678,0.000431,0.038667
5458000,0.0324,0.013523,0.002678,0.000431,0.037491
5459000,0.0324,0.013523,0.002678,0.000431,0.039960
5460000,0.0324,0.013523,0.002678,0.000431,0.038432
5461000,0.0324,0.013523,0.002678,0.000431,0.040782
5462000,0.0324,0.013523,0.002678,0.000431,0.037844
5463000,0.0324,0.013523,0.002678,0.000431,0.040782
5464000,0.0324,0.013523,0.002678,0.000431,0.038314
5465000,0.0324,0.013523,0.002678,0.000431,0.038314
5466000,0.0324,0.013523,0.002678,0.000431,0.035376
5467000,0.0324,0.013523,0.002678,0.000431,0.036786
5468000,0.0324,0.013523,0.002678,0.000431,0.037609
5469000,0.0324,0.013523,0.002678,0.000431,0.041370
5470000,0.0324,0.013523,0.002678,0.000431,0.037256
5471000,0.0324,0.013523,0.002678,0.000431,0.036786
5472000,0.0324,0.013523,0.002678,0.000431,0.037374
5473000,0.0324,0.013523,0.002678,0.000431,0.037256
5474000,0.0324,0.013523,0.002678,0.000431,0.038667
5475000,0.0324,0.013523,0.002678,0.000431,0.039372
5476000,0.0324,0.013523,0.002678,0.000431,0.039607
5477000,0.0324,0.013523,0.002678,0.000431,0.038902
5478000,0.0324,0.013523,0.002678,0.000431,0.038667
5479000,0.0324,0.013523,0.002678,0.000431,0.037139
5480000,0.0324,0.013523,0.002678,0.000431,0.040547
5481000,0.0324,0.013523,0.002678,0.000431,0.039019
5482000,0.0324,0.013523,0.002678,0.000431,0.039372
5483000,0.0324,0.013523,0.002678,0.000431,0.039254
5484000,0.0324,0.013523,0.002678,0.000431,0.040077
5485000,0.0324,0.013523,0.002678,0.000431,0.040312
5486000,0.0324,0.013523,0.002678,0.000431,0.039254
5487000,0.0324,0.013523,0.002678,0.000431,0.039019
5488000,0.0324,0.013523,0.002678,0.000431,0.041017
5489000,0.0324,0.013523,0.002678,0.000431,0.036551
5490000,0.0324,0.013523,0.002678,0.000431,0.039842
5491000,0.0324,0.013523,0.002678,0.000431,0.040195
5492000,0.0324,0.013523,0.002678,0.000431,0.037491
5493000,0.0324,0.013523,0.002678,0.000431,0.038432
5494000,0.0324,0.013523,0.002678,0.000431,0.037491
5495000,0.0324,0.013523,0.002678,0.000431,0.040547
5496000,0.0324,0.013523,0.002678,0.000431,0.039372
5497000,0.0324,0.013523,0.002678,0.000431,0.037962
5498000,0.0324,0.013523,0.002678,0.000431,0.037962
5499000,0.0324,0.013523,0.002678,0.000431,0.040312
5500000,0.0324,0.013523,0.002678,0.000431,0.039489
5501000,0.0324,0.013523,0.002678,0.000431,0.039254
5502000,0.0324,0.013523,0.002678,0.000431,0.037844
5503000,0.0324,0.013523,0.002678,0.000431,0.037962
5504000,0.0324,0.013523,0.002678,0.000431,0.040547
5505000,0.0324,0.013523,0.002678,0.000431,0.037609
5506000,0.0324,0.013523,0.002678,0.000431,0.037021
5507000,0.0324,0.013523,0.002678,0.000431,0.039725
5508000,0.0324,0.013523,0.002678,0.000431,0.038314
5509000,0.0324,0.013523,0.002678,0.000431,0.040547
5510000,0.0324,0.013523,0.002678,0.000431,0.038314
5511000,0.0324,0.013523,0.002678,0.000431,0.037609
5512000,0.0324,0.013523,0.002678,0.000431,0.038432
5513000,0.0324,0.013523,0.002678,0.000431,0.038079
5514000,0.0324,0.013523,0.002678,0.000431,0.037844
5515000,0.0324,0.013523,0.002678,0.000431,0.037962
5516000,0.0324,0.013523,0.002678,0.000431,0.041723
5517000,0.0324,0.013523,0.002678,0.000431,0.036551
5518000,0.0324,0.013523,0.002678,0.000431,0.039372
5519000,0.0324,0.013523,0.002678,0.000431,0.038784
5520000,0.0324,0.013523,0.002678,0.000431,0.040782
5521000,0.0324,0.013523,0.002678,0.000431,0.040900
5522000,0.0324,0.013523,0.002678,0.000431,0.039960
5523000,0.0324,0.013523,0.002678,0.000431,0.037727
5524000,0.0324,0.013523,0.002678,0.000431,0.038784
5525000,0.0324,0.013523,0.002678,0.000431,0.037491
5526000,0.0324,0.013523,0.002678,0.000431,0.037256
5527000,0.0324,0.013523,0.002678,0.000431,0.040900
5528000,0.0324,0.013523,0.002678,0.000431,0.037609
5529000,0.0324,0.013523,0.002678,0.000431,0.039842
5530000,0.0324,0.013523,0.002678,0.000431,0.039607
5531000,0.0324,0.013523,0.002678,0.000431,0.041370
5532000,0.0324,0.013523,0.002678,0.000431,0.039372
5533000,0.0324,0.013523,0.002678,0.000431,0.035258
5534000,0.0324,0.013523,0.002678,0.000431,0.042545
5535000,0.0324,0.013523,0.002678,0.000431,0.037491
5536000,0.0324,0.013523,0.002678,0.000431,0.038432
5537000,0.0324,0.013523,0.002678,0.000431,0.038549
5538000,0.0324,0.013523,0.002678,0.000431,0.041487
5539000,0.0324,0.013523,0.002678,0.000431,0.040077
5540000,0.0324,0.013523,0.002678,0.000431,0.039725
5541000,0.0324,0.013523,0.002678,0.000431,0.038432
5542000,0.0324,0.013523,0.002678,0.000431,0.036904
5543000,0.0324,0.013523,0.002678,0.000431,0.041840
5544000,0.0324,0.013523,0.002678,0.000431,0.038902
5545000,0.0324,0.013523,0.002678,0.000431,0.038432
5546000,0.0324,0.013523,0.002678,0.000431,0.038314
5547000,0.0324,0.013523,0.002678,0.000431,0.038902
5548000,0.0324,0.013523,0.002678,0.000431,0.039725
5549000,0.0324,0.013523,0.002678,0.000431,0.037727
5550000,0.0324,0.013523,0.002678,0.000431,0.040430
5551000,0.0324,0.013523,0.002678,0.000431,0.040195
5552000,0.0324,0.013523,0.002678,0.000431,0.040547
5553000,0.0324,0.013523,0.002678,0.000431,0.040077
5554000,0.0324,0.013523,0.002678,0.000431,0.038197
5555000,0.0324,0.013523,0.002678,0.000431,0.040430
5556000,0.0324,0.013523,0.002678,0.000431,0.040195
5557000,0.0324,0.013523,0.002678,0.000431,0.039372
5558000,0.0324,0.013523,0.002678,0.000431,0.037374
5559000,0.0324,0.013523,0.002678,0.000431,0.043250
5560000,0.0324,0.013523,0.002678,0.000431,0.039842
5561000,0.0324,0.013523,0.002678,0.000431,0.040782
5562000,0.0324,0.013523,0.002678,0.000431,0.038902
5563000,0.0324,0.013523,0.002678,0.000431,0.039725
5564000,0.0324,0.013523,0.002678,0.000431,0.037609
5565000,0.0324,0.013523,0.002678,0.000431,0.041487
5566000,0.0324,0.013523,0.002678,0.000431,0.039960
5567000,0.0324,0.013523,0.002678,0.000431,0.037374
5568000,0.0324,0.013523,0.002678,0.000431,0.040547
5569000,0.0324,0.013523,0.002678,0.000431,0.039842
5570000,0.0324,0.013523,0.002678,0.000431,0.037491
5571000,0.0324,0.013523,0.002678,0.000431,0.039019
5572000,0.0324,0.013523,0.002678,0.000431,0.038667
5573000,0.0324,0.013523,0.002678,0.000431,0.040312
5574000,0.0324,0.013523,0.002678,0.000431,0.038549
5575000,0.0324,0.013523,0.002678,0.000431,0.039842
5576000,0.0324,0.013523,0.002678,0.000431,0.037021
5577000,0.0324,0.013523,0.002678,0.000431,0.038432
5578000,0.0324,0.013523,0.002678,0.000431,0.038314
5579000,0.0324,0.013523,0.002678,0.000431,0.037491
5580000,0.0324,0.013523,0.002678,0.000431,0.038549
5581000,0.0324,0.013523,0.002678,0.000431,0.039960
5582000,0.0324,0.013523,0.002678,0.000431,0.039489
5583000,0.0324,0.013523,0.002678,0.000431,0.036199
5584000,0.0324,0.013523,0.002678,0.000431,0.038432
5585000,0.0324,0.013523,0.002678,0.000431,0.039254
5586000,0.0324,0.013523,0.002678,0.000431,0.040430
5587000,0.0324,0.013523,0.002678,0.000431,0.037609
5588000,0.0324,0.013523,0.002678,0.000431,0.036081
5589000,0.0324,0.013523,0.002678,0.000431,0.040547
5590000,0.0324,0.013523,0.002678,0.000431,0.040312
5591000,0.0324,0.013523,0.002678,0.000431,0.039489
5592000,0.0324,0.013523,0.002678,0.000431,0.038432
5593000,0.0324,0.013523,0.002678,0.000431,0.037139
5594000,0.0324,0.013523,0.002678,0.000431,0.039137
5595000,0.0324,0.013523,0.002678,0.000431,0.036669
5596000,0.0324,0.013523,0.002678,0.000431,0.036316
5597000,0.0324,0.013523,0.002678,0.000431,0.040430
5598000,0.0324,0.013523,0.002678,0.000431,0.038079
5599000,0.0324,0.013523,0.002678,0.000431,0.040195
5600000,0.0324,0.013523,0.002678,0.000431,0.039019
5601000,0.0324,0.013523,0.002678,0.000431,0.038549
5602000,0.0324,0.013523,0.002678,0.000431,0.037727
5603000,0.0324,0.013523,0.002678,0.000431,0.040077
5604000,0.0324,0.013523,0.002678,0.000431,0.039607
5605000,0.0324,0.013523,0.002678,0.000431,0.038549
5606000,0.0324,0.013523,0.002678,0.000431,0.038902
5607000,0.0324,0.013523,0.002678,0.000431,0.040900
5608000,0.0324,0.013523,0.002678,0.000431,0.038079
5609000,0.0324,0.013523,0.002678,0.000431,0.039137
5610000,0.0324,0.013523,0.002678,0.000431,0.040312
5611000,0.0324,0.013523,0.002678,0.000431,0.039019
5612000,0.0324,0.013523,0.002678,0.000431,0.041605
5613000,0.0324,0.013523,0.002678,0.000431,0.041605
5614000,0.0324,0.013523,0.002678,0.000431,0.037844
5615000,0.0324,0.013523,0.002678,0.000431,0.037374
5616000,0.0324,0.013523,0.002678,0.000431,0.041958
5617000,0.0324,0.013523,0.002678,0.000431,0.039607
5618000,0.0324,0.013523,0.002678,0.000431,0.040195
5619000,0.0324,0.013523,0.002678,0.000431,0.038784
5620000,0.0324,0.013523,0.002678,0.000431,0.037139
5621000,0.0324,0.013523,0.002678,0.000431,0.039842
5622000,0.0324,0.013523,0.002678,0.000431,0.038432
5623000,0.0324,0.013523,0.002678,0.000431,0.038432
5624000,0.0324,0.013523,0.002678,0.000431,0.040077
5625000,0.0324,0.013523,0.002678,0.000431,0.037374
5626000,0.0324,0.013523,0.002678,0.000431,0.038079
5627000,0.0324,0.013523,0.002678,0.000431,0.041605
5628000,0.0324,0.013523,0.002678,0.000431,0.040782
5629000,0.0324,0.013523,0.002678,0.000431,0.038667
5630000,0.0324,0.013523,0.002678,0.000431,0.035611
5631000,0.0324,0.013523,0.002678,0.000431,0.041135
5632000,0.0324,0.013523,0.002678,0.000431,0.037962
5633000,0.0324,0.013523,0.002678,0.000431,0.036786
5634000,0.0324,0.013523,0.002678,0.000431,0.039254
5635000,0.0324,0.013523,0.002678,0.000431,0.041135
5636000,0.0324,0.013523,0.002678,0.000431,0.039019
5637000,0.0324,0.013523,0.002678,0.000431,0.038197
5638000,0.0324,0.013523,0.002678,0.000431,0.040077
5639000,0.0324,0.013523,0.002678,0.000431,0.038784
5640000,0.0324,0.013523,0.002678,0.000431,0.038784
5641000,0.0324,0.013523,0.002678,0.000431,0.038079
5642000,0.0324,0.013523,0.002678,0.000431,0.034318
5643000,0.0324,0.013523,0.002678,0.000431,0.040665
5644000,0.0324,0.013523,0.002678,0.000431,0.037844
5645000,0.0324,0.013523,0.002678,0.000431,0.039372
5646000,0.0324,0.013523,0.002678,0.000431,0.038197
5647000,0.0324,0.013523,0.002678,0.000431,0.037844
5648000,0.0324,0.013523,0.002678,0.000431,0.042193
5649000,0.0324,0.013523,0.002678,0.000431,0.037021
5650000,0.0324,0.013523,0.002678,0.000431,0.039254
5651000,0.0324,0.013523,0.002678,0.000431,0.040547
5652000,0.0324,0.013523,0.002678,0.000431,0.041605
5653000,0.0324,0.013523,0.002678,0.000431,0.040665
5654000,0.0324,0.013523,0.002678,0.000431,0.037844
5655000,0.0324,0.013523,0.002678,0.000431,0.040312
5656000,0.0324,0.013523,0.002678,0.000431,0.038314
5657000,0.0324,0.013523,0.002678,0.000431,0.041252
5658000,0.0324,0.013523,0.002678,0.000431,0.037374
5659000,0.0324,0.013523,0.002678,0.000431,0.039372
5660000,0.0324,0.013523,0.002678,0.000431,0.036551
5661000,0.0324,0.013523,0.002678,0.000431,0.039960
5662000,0.0324,0.013523,0.002678,0.000431,0.040665
5663000,0.0324,0.013523,0.002678,0.000431,0.039960
5664000,0.0324,0.013523,0.002678,0.000431,0.038079
5665000,0.0324,0.013523,0.002678,0.000431,0.038314
5666000,0.0324,0.013523,0.002678,0.000431,0.041017
5667000,0.0324,0.013523,0.002678,0.000431,0.038079
5668000,0.0324,0.013523,0.002678,0.000431,0.038784
5669000,0.0324,0.013523,0.002678,0.000431,0.041252
5670000,0.0324,0.013523,0.002678,0.000431,0.041017
5671000,0.0324,0.013523,0.002678,0.000431,0.037374
5672000,0.0324,0.013523,0.002678,0.000431,0.039372
5673000,0.0324,0.013523,0.002678,0.000431,0.038667
5674000,0.0324,0.013523,0.002678,0.000431,0.040077
5675000,0.0324,0.013523,0.002678,0.000431,0.039489
5676000,0.0324,0.013523,0.002678,0.000431,0.037609
5677000,0.0324,0.013523,0.002678,0.000431,0.039725
5678000,0.0324,0.013523,0.002678,0.000431,0.040665
5679000,0.0324,0.013523,0.002678,0.000431,0.037374
5680000,0.0324,0.013523,0.002678,0.000431,0.040312
5681000,0.0324,0.013523,0.002678,0.000431,0.039489
5682000,0.0324,0.013523,0.002678,0.000431,0.040430
5683000,0.0324,0.013523,0.002678,0.000431,0.037609
5684000,0.0324,0.013523,0.002678,0.000431,0.037844
5685000,0.0324,0.013523,0.002678,0.000431,0.036786
5686000,0.0324,0.013523,0.002678,0.000431,0.042780
5687000,0.0324,0.013523,0.002678,0.000431,0.038432
5688000,0.0324,0.013523,0.002678,0.000431,0.035964
5689000,0.0324,0.013523,0.002678,0.000431,0.039725
5690000,0.0324,0.013523,0.002678,0.000431,0.040312
5691000,0.0324,0.013523,0.002678,0.000431,0.040312
5692000,0.0324,0.013523,0.002678,0.000431,0.036199
5693000,0.0324,0.013523,0.002678,0.000431,0.037139
5694000,0.0324,0.013523,0.002678,0.000431,0.039489
5695000,0.0324,0.013523,0.002678,0.000431,0.037727
5696000,0.0324,0.013523,0.002678,0.000431,0.040782
5697000,0.0324,0.013523,0.002678,0.000431,0.036316
5698000,0.0324,0.013523,0.002678,0.000431,0.039372
5699000,0.0324,0.013523,0.002678,0.000431,0.040430
5700000,0.0324,0.013523,0.002678,0.000431,0.037491
5701000,0.0324,0.013523,0.002678,0.000431,0.042310
5702000,0.0324,0.013523,0.002678,0.000431,0.038667
5703000,0.0324,0.013523,0.002678,0.000431,0.037374
5704000,0.0324,0.013523,0.002678,0.000431,0.040900
5705000,0.0324,0.013523,0.002678,0.000431,0.037609
5706000,0.0324,0.013523,0.002678,0.000431,0.038549
5707000,0.0324,0.013523,0.002678,0.000431,0.038432
5708000,0.0324,0.013523,0.002678,0.000431,0.040782
5709000,0.0324,0.013523,0.002678,0.000431,0.038197
5710000,0.0324,0.013523,0.002678,0.000431,0.038784
5711000,0.0324,0.013523,0.002678,0.000431,0.036669
5712000,0.0324,0.013523,0.002678,0.000431,0.037374
5713000,0.0324,0.013523,0.002678,0.000431,0.039842
5714000,0.0324,0.013523,0.002678,0.000431,0.039725
5715000,0.0324,0.013523,0.002678,0.000431,0.039607
5716000,0.0324,0.013523,0.002678,0.000431,0.038902
5717000,0.0324,0.013523,0.002678,0.000431,0.042780
5718000,0.0324,0.013523,0.002678,0.000431,0.036081
5719000,0.0324,0.013523,0.002678,0.000431,0.039607
5720000,0.0324,0.013523,0.002678,0.000431,0.039489
5721000,0.0324,0.013523,0.002678,0.000431,0.041370
5722000,0.0324,0.013523,0.002678,0.000431,0.037139
5723000,0.0324,0.013523,0.002678,0.000431,0.038902
5724000,0.0324,0.013523,0.002678,0.000431,0.039254
5725000,0.0324,0.013523,0.002678,0.000431,0.039489
5726000,0.0324,0.013523,0.002678,0.000431,0.041370
5727000,0.0324,0.013523,0.002678,0.000431,0.038079
5728000,0.0324,0.013523,0.002678,0.000431,0.039607
5729000,0.0324,0.013523,0.002678,0.000431,0.041252
5730000,0.0324,0.013523,0.002678,0.000431,0.038667
5731000,0.0324,0.013523,0.002678,0.000431,0.036434
5732000,0.0324,0.013523,0.002678,0.000431,0.041958
5733000,0.0324,0.013523,0.002678,0.000431,0.036904
5734000,0.0324,0.013523,0.002678,0.000431,0.040312
5735000,0.0324,0.013523,0.002678,0.000431,0.036434
5736000,0.0324,0.013523,0.002678,0.000431,0.040665
5737000,0.0324,0.013523,0.002678,0.000431,0.042428
5738000,0.0324,0.013523,0.002678,0.000431,0.038902
5739000,0.0324,0.013523,0.002678,0.000431,0.038197
5740000,0.0324,0.013523,0.002678,0.000431,0.038784
5741000,0.0324,0.013523,0.002678,0.000431,0.037021
5742000,0.0324,0.013523,0.002678,0.000431,0.039372
5743000,0.0324,0.013523,0.002678,0.000431,0.037609
5744000,0.0324,0.013523,0.002678,0.000431,0.041487
5745000,0.0324,0.013523,0.002678,0.000431,0.039254
5746000,0.0324,0.013523,0.002678,0.000431,0.041370
5747000,0.0324,0.013523,0.002678,0.000431,0.036434
5748000,0.0324,0.013523,0.002678,0.000431,0.041252
5749000,0.0324,0.013523,0.002678,0.000431,0.038079
5750000,0.0324,0.013523,0.002678,0.000431,0.039254
5751000,0.0324,0.013523,0.002678,0.000431,0.039725
5752000,0.0324,0.013523,0.002678,0.000431,0.038667
5753000,0.0324,0.013523,0.002678,0.000431,0.037491
5754000,0.0324,0.013523,0.002678,0.000431,0.039607
5755000,0.0324,0.013523,0.002678,0.000431,0.038902
5756000,0.0324,0.013523,0.002678,0.000431,0.037844
5757000,0.0324,0.013523,0.002678,0.000431,0.038784
5758000,0.0324,0.013523,0.002678,0.000431,0.041723
5759000,0.0324,0.013523,0.002678,0.000431,0.038667
5760000,0.0324,0.013523,0.002678,0.000431,0.038667
5761000,0.0324,0.013523,0.002678,0.000431,0.040312
5762000,0.0324,0.013523,0.002678,0.000431,0.040547
5763000,0.0324,0.013523,0.002678,0.000431,0.037491
5764000,0.0324,0.013523,0.002678,0.000431,0.036904
5765000,0.0324,0.013523,0.002678,0.000431,0.039842
5766000,0.0324,0.013523,0.002678,0.000431,0.040547
5767000,0.0324,0.013523,0.002678,0.000431,0.037609
5768000,0.0324,0.013523,0.002678,0.000431,0.038314
5769000,0.0324,0.013523,0.002678,0.000431,0.039489
5770000,0.0324,0.013523,0.002678,0.000431,0.036551
5771000,0.0324,0.013523,0.002678,0.000431,0.040312
5772000,0.0324,0.013523,0.002678,0.000431,0.040782
5773000,0.0324,0.013523,0.002678,0.000431,0.037491
5774000,0.0324,0.013523,0.002678,0.000431,0.037844
5775000,0.0324,0.013523,0.002678,0.000431,0.040547
5776000,0.0324,0.013523,0.002678,0.000431,0.039019
5777000,0.0324,0.013523,0.002678,0.000431,0.037139
5778000,0.0324,0.013523,0.002678,0.000431,0.038432
5779000,0.0324,0.013523,0.002678,0.000431,0.037962
5780000,0.0324,0.013523,0.002678,0.000431,0.039607
5781000,0.0324,0.013523,0.002678,0.000431,0.038079
5782000,0.0324,0.013523,0.002678,0.000431,0.038432
5783000,0.0324,0.013523,0.002678,0.000431,0.039842
5784000,0.0324,0.013523,0.002678,0.000431,0.040782
5785000,0.0324,0.013523,0.002678,0.000431,0.038197
5786000,0.0324,0.013523,0.002678,0.000431,0.039489
5787000,0.0324,0.013523,0.002678,0.000431,0.039489
5788000,0.0324,0.013523,0.002678,0.000431,0.037727
5789000,0.0324,0.013523,0.002678,0.000431,0.040077
5790000,0.0324,0.013523,0.002678,0.000431,0.040665
5791000,0.0324,0.013523,0.002678,0.000431,0.038902
5792000,0.0324,0.013523,0.002678,0.000431,0.035141
5793000,0.0324,0.013523,0.002678,0.000431,0.039372
5794000,0.0324,0.013523,0.002678,0.000431,0.038902
5795000,0.0324,0.013523,0.002678,0.000431,0.037021
5796000,0.0324,0.013523,0.002678,0.000431,0.038549
5797000,0.0324,0.013523,0.002678,0.000431,0.039137
5798000,0.0324,0.013523,0.002678,0.000431,0.037374
5799000,0.0324,0.013523,0.002678,0.000431,0.037491
5800000,0.0324,0.013523,0.002678,0.000431,0.039137
5801000,0.0324,0.013523,0.002678,0.000431,0.037491
5802000,0.0324,0.013523,0.002678,0.000431,0.038432
5803000,0.0324,0.013523,0.002678,0.000431,0.037962
5804000,0.0324,0.013523,0.002678,0.000431,0.039019
5805000,0.0324,0.013523,0.002678,0.000431,0.038314
5806000,0.0324,0.013523,0.002678,0.000431,0.036199
5807000,0.0324,0.013523,0.002678,0.000431,0.038432
5808000,0.0324,0.013523,0.002678,0.000431,0.038079
5809000,0.0324,0.013523,0.002678,0.000431,0.037609
5810000,0.0324,0.013523,0.002678,0.000431,0.035729
5811000,0.0324,0.013523,0.002678,0.000431,0.037962
5812000,0.0324,0.013523,0.002678,0.000431,0.037139
5813000,0.0324,0.013523,0.002678,0.000431,0.038079
5814000,0.0324,0.013523,0.002678,0.000431,0.037609
5815000,0.0324,0.013523,0.002678,0.000431,0.035964
5816000,0.0324,0.013523,0.002678,0.000431,0.038197
5817000,0.0324,0.013523,0.002678,0.000431,0.036786
5818000,0.0324,0.013523,0.002678,0.000431,0.037491
5819000,0.0324,0.013523,0.002678,0.000431,0.035258
5820000,0.0324,0.013523,0.002678,0.000431,0.038784
5821000,0.0324,0.013523,0.002678,0.000431,0.035846
5822000,0.0324,0.013523,0.002678,0.000431,0.035376
5823000,0.0324,0.013523,0.002678,0.000431,0.036786
5824000,0.0324,0.013523,0.002678,0.000431,0.037139
5825000,0.0324,0.013523,0.002678,0.000431,0.037491
5826000,0.0324,0.013523,0.002678,0.000431,0.036081
5827000,0.0324,0.013523,0.002678,0.000431,0.035023
5828000,0.0324,0.013523,0.002678,0.000431,0.037727
5829000,0.0324,0.013523,0.002678,0.000431,0.037139
5830000,0.0324,0.013523,0.002678,0.000431,0.036316
5831000,0.0324,0.013523,0.002678,0.000431,0.037844
5832000,0.0324,0.013523,0.002678,0.000431,0.037256
5833000,0.0324,0.013523,0.002678,0.000431,0.034436
5834000,0.0324,0.013523,0.002678,0.000431,0.039137
5835000,0.0324,0.013523,0.002678,0.000431,0.038432
5836000,0.0324,0.013523,0.002678,0.000431,0.033731
5837000,0.0324,0.013523,0.002678,0.000431,0.039372
5838000,0.0324,0.013523,0.002678,0.000431,0.037727
5839000,0.0324,0.013523,0.002678,0.000431,0.037844
5840000,0.0324,0.013523,0.002678,0.000431,0.037609
5841000,0.0324,0.013523,0.002678,0.000431,0.037491
5842000,0.0324,0.013523,0.002678,0.000431,0.036081
5843000,0.0324,0.013523,0.002678,0.000431,0.039137
5844000,0.0324,0.013523,0.002678,0.000431,0.034201
5845000,0.0324,0.013523,0.002678,0.000431,0.035141
5846000,0.0324,0.013523,0.002678,0.000431,0.036316
5847000,0.0324,0.013523,0.002678,0.000431,0.039725
5848000,0.0324,0.013523,0.002678,0.000431,0.037374
5849000,0.0324,0.013523,0.002678,0.000431,0.037491
5850000,0.0324,0.013523,0.002678,0.000431,0.037844
5851000,0.0324,0.013523,0.002678,0.000431,0.035611
5852000,0.0324,0.013523,0.002678,0.000431,0.034553
5853000,0.0324,0.013523,0.002678,0.000431,0.035494
5854000,0.0324,0.013523,0.002678,0.000431,0.036669
5855000,0.0324,0.013523,0.002678,0.000431,0.037727
5856000,0.0324,0.013523,0.002678,0.000431,0.036199
5857000,0.0324,0.013523,0.002678,0.000431,0.035376
5858000,0.0324,0.013523,0.002678,0.000431,0.038432
5859000,0.0324,0.013523,0.002678,0.000431,0.037609
5860000,0.0324,0.013523,0.002678,0.000431,0.033966
5861000,0.0324,0.013523,0.002678,0.000431,0.034436
5862000,0.0324,0.013523,0.002678,0.000431,0.036081
5863000,0.0324,0.013523,0.002678,0.000431,0.036669
5864000,0.0324,0.013523,0.002678,0.000431,0.035023
5865000,0.0324,0.013523,0.002678,0.000431,0.033731
5866000,0.0324,0.013523,0.002678,0.000431,0.037021
5867000,0.0324,0.013523,0.002678,0.000431,0.033848
5868000,0.0324,0.013523,0.002678,0.000431,0.036081
5869000,0.0324,0.013523,0.002678,0.000431,0.035494
5870000,0.0324,0.013523,0.002678,0.000431,0.037256
5871000,0.0324,0.013523,0.002678,0.000431,0.033496
5872000,0.0324,0.013523,0.002678,0.000431,0.033613
5873000,0.0324,0.013523,0.002678,0.000431,0.035611
5874000,0.0324,0.013523,0.002678,0.000431,0.035023
5875000,0.0324,0.013523,0.002678,0.000431,0.035729
5876000,0.0324,0.013523,0.002678,0.000431,0.033496
5877000,0.0324,0.013523,0.002678,0.000431,0.035964
5878000,0.0324,0.013523,0.002678,0.000431,0.035494
5879000,0.0324,0.013523,0.002678,0.000431,0.034553
5880000,0.0324,0.013523,0.002678,0.000431,0.033731
5881000,0.0324,0.013523,0.002678,0.000431,0.038314
5882000,0.0324,0.013523,0.002678,0.000431,0.033848
5883000,0.0324,0.013523,0.002678,0.000431,0.036434
5884000,0.0324,0.013523,0.002678,0.000431,0.033378
5885000,0.0324,0.013523,0.002678,0.000431,0.034788
5886000,0.0324,0.013523,0.002678,0.000431,0.035023
5887000,0.0324,0.013523,0.002678,0.000431,0.035729
5888000,0.0324,0.013523,0.002678,0.000431,0.035494
5889000,0.0324,0.013523,0.002678,0.000431,0.036081
5890000,0.0324,0.013523,0.002678,0.000431,0.031733
5891000,0.0324,0.013523,0.002678,0.000431,0.035729
5892000,0.0324,0.013523,0.002678,0.000431,0.036551
5893000,0.0324,0.013523,0.002678,0.000431,0.034318
5894000,0.0324,0.013523,0.002678,0.000431,0.036199
5895000,0.0324,0.013523,0.002678,0.000431,0.035023
5896000,0.0324,0.013523,0.002678,0.000431,0.036551
5897000,0.0324,0.013523,0.002678,0.000431,0.034906
5898000,0.0324,0.013523,0.002678,0.000431,0.035846
5899000,0.0324,0.013523,0.002678,0.000431,0.035376
5900000,0.0324,0.013523,0.002678,0.000431,0.034906
5901000,0.0324,0.013523,0.002678,0.000431,0.033613
5902000,0.0324,0.013523,0.002678,0.000431,0.032320
5903000,0.0324,0.013523,0.002678,0.000431,0.033731
5904000,0.0324,0.013523,0.002678,0.000431,0.036551
5905000,0.0324,0.013523,0.002678,0.000431,0.035729
5906000,0.0324,0.013523,0.002678,0.000431,0.033143
5907000,0.0324,0.013523,0.002678,0.000431,0.037491
5908000,0.0324,0.013523,0.002678,0.000431,0.038079
5909000,0.0324,0.013523,0.002678,0.000431,0.034553
5910000,0.0324,0.013523,0.002678,0.000431,0.034318
5911000,0.0324,0.013523,0.002678,0.000431,0.034788
5912000,0.0324,0.013523,0.002678,0.000431,0.034671
5913000,0.0324,0.013523,0.002678,0.000431,0.035611
5914000,0.0324,0.013523,0.002678,0.000431,0.035023
5915000,0.0324,0.013523,0.002678,0.000431,0.031145
5916000,0.0324,0.013523,0.002678,0.000431,0.035376
5917000,0.0324,0.013523,0.002678,0.000431,0.034083
5918000,0.0324,0.013523,0.002678,0.000431,0.033378
5919000,0.0324,0.013523,0.002678,0.000431,0.033731
5920000,0.0324,0.013523,0.002678,0.000431,0.036199
5921000,0.0324,0.013523,0.002678,0.000431,0.035023
5922000,0.0324,0.013523,0.002678,0.000431,0.034671
5923000,0.0324,0.013523,0.002678,0.000431,0.036434
5924000,0.0324,0.013523,0.002678,0.000431,0.034083
5925000,0.0324,0.013523,0.002678,0.000431,0.035023
5926000,0.0324,0.013523,0.002678,0.000431,0.035964
5927000,0.0324,0.013523,0.002678,0.000431,0.036551
5928000,0.0324,0.013523,0.002678,0.000431,0.034436
5929000,0.0324,0.013523,0.002678,0.000431,0.033966
5930000,0.0324,0.013523,0.002678,0.000431,0.035023
5931000,0.0324,0.013523,0.002678,0.000431,0.034553
5932000,0.0324,0.013523,0.002678,0.000431,0.035964
5933000,0.0324,0.013523,0.002678,0.000431,0.035023
5934000,0.0324,0.013523,0.002678,0.000431,0.033731
5935000,0.0324,0.013523,0.002678,0.000431,0.036786
5936000,0.0324,0.013523,0.002678,0.000431,0.033966
5937000,0.0324,0.013523,0.002678,0.000431,0.036316
5938000,0.0324,0.013523,0.002678,0.000431,0.033966
5939000,0.0324,0.013523,0.002678,0.000431,0.036434
5940000,0.0324,0.013523,0.002678,0.000431,0.034788
5941000,0.0324,0.013523,0.002678,0.000431,0.036081
5942000,0.0324,0.013523,0.002678,0.000431,0.032908
5943000,0.0324,0.013523,0.002678,0.000431,0.034553
5944000,0.0324,0.013523,0.002678,0.000431,0.036199
5945000,0.0324,0.013523,0.002678,0.000431,0.035258
5946000,0.0324,0.013523,0.002678,0.000431,0.035611
5947000,0.0324,0.013523,0.002678,0.000431,0.033613
5948000,0.0324,0.013523,0.002678,0.000431,0.035846
5949000,0.0324,0.013523,0.002678,0.000431,0.034671
5950000,0.0324,0.013523,0.002678,0.000431,0.036551
5951000,0.0324,0.013523,0.002678,0.000431,0.035141
5952000,0.0324,0.013523,0.002678,0.000431,0.033143
5953000,0.0324,0.013523,0.002678,0.000431,0.035023
5954000,0.0324,0.013523,0.002678,0.000431,0.034201
5955000,0.0324,0.013523,0.002678,0.000431,0.033966
5956000,0.0324,0.013523,0.002678,0.000431,0.034906
5957000,0.0324,0.013523,0.002678,0.000431,0.035141
5958000,0.0324,0.013523,0.002678,0.000431,0.034553
5959000,0.0324,0.013523,0.002678,0.000431,0.033143
5960000,0.0324,0.013523,0.002678,0.000431,0.034906
5961000,0.0324,0.013523,0.002678,0.000431,0.032085
5962000,0.0324,0.013523,0.002678,0.000431,0.037139
5963000,0.0324,0.013523,0.002678,0.000431,0.034436
5964000,0.0324,0.013523,0.002678,0.000431,0.034083
5965000,0.0324,0.013523,0.002678,0.000431,0.033025
5966000,0.0324,0.013523,0.002678,0.000431,0.034788
5967000,0.0324,0.013523,0.002678,0.000431,0.031968
5968000,0.0324,0.013523,0.002678,0.000431,0.036316
5969000,0.0324,0.013523,0.002678,0.000431,0.035964
5970000,0.0324,0.013523,0.002678,0.000431,0.032438
5971000,0.0324,0.013523,0.002678,0.000431,0.032320
5972000,0.0324,0.013523,0.002678,0.000431,0.037256
5973000,0.0324,0.013523,0.002678,0.000431,0.035258
5974000,0.0324,0.013523,0.002678,0.000431,0.033966
5975000,0.0324,0.013523,0.002678,0.000431,0.036551
5976000,0.0324,0.013523,0.002678,0.000431,0.033260
5977000,0.0324,0.013523,0.002678,0.000431,0.036551
5978000,0.0324,0.013523,0.002678,0.000431,0.031498
5979000,0.0324,0.013523,0.002678,0.000431,0.037021
5980000,0.0324,0.013523,0.002678,0.000431,0.035376
5981000,0.0324,0.013523,0.002678,0.000431,0.035258
5982000,0.0324,0.013523,0.002678,0.000431,0.032908
5983000,0.0324,0.013523,0.002678,0.000431,0.033260
5984000,0.0324,0.013523,0.002678,0.000431,0.037491
5985000,0.0324,0.013523,0.002678,0.000431,0.034788
5986000,0.0324,0.013523,0.002678,0.000431,0.033378
5987000,0.0324,0.013523,0.002678,0.000431,0.035964
5988000,0.0324,0.013523,0.002678,0.000431,0.035141
5989000,0.0324,0.013523,0.002678,0.000431,0.035611
5990000,0.0324,0.013523,0.002678,0.000431,0.035729
5991000,0.0324,0.013523,0.002678,0.000431,0.033378
5992000,0.0324,0.013523,0.002678,0.000431,0.034788
5993000,0.0324,0.013523,0.002678,0.000431,0.034906
5994000,0.0324,0.013523,0.002678,0.000431,0.033496
5995000,0.0324,0.013523,0.002678,0.000431,0.034318
5996000,0.0324,0.013523,0.002678,0.000431,0.037021
5997000,0.0324,0.013523,0.002678,0.000431,0.034906
5998000,0.0324,0.013523,0.002678,0.000431,0.035141
5999000,0.0324,0.013523,0.002678,0.000431,0.033848
