Cycle,Area(mm^2),PeakDynamic(W),SubthresholdLeakage(W),GateLeakage(W),RunTimeDynamic(W)
8000000,0.0324,0.013523,0.002678,0.000431,0.020567
8001000,0.0324,0.013523,0.002678,0.000431,0.021155
8002000,0.0324,0.013523,0.002678,0.000431,0.018687
8003000,0.0324,0.013523,0.002678,0.000431,0.019510
8004000,0.0324,0.013523,0.002678,0.000431,0.020215
8005000,0.0324,0.013523,0.002678,0.000431,0.019627
8006000,0.0324,0.013523,0.002678,0.000431,0.018922
8007000,0.0324,0.013523,0.002678,0.000431,0.020215
8008000,0.0324,0.013523,0.002678,0.000431,0.021625
8009000,0.0324,0.013523,0.002678,0.000431,0.019980
8010000,0.0324,0.013523,0.002678,0.000431,0.018687
8011000,0.0324,0.013523,0.002678,0.000431,0.021038
8012000,0.0324,0.013523,0.002678,0.000431,0.020097
8013000,0.0324,0.013523,0.002678,0.000431,0.019627
8014000,0.0324,0.013523,0.002678,0.000431,0.019745
8015000,0.0324,0.013523,0.002678,0.000431,0.020685
8016000,0.0324,0.013523,0.002678,0.000431,0.020685
8017000,0.0324,0.013523,0.002678,0.000431,0.018687
8018000,0.0324,0.013523,0.002678,0.000431,0.021038
8019000,0.0324,0.013523,0.002678,0.000431,0.020685
8020000,0.0324,0.013523,0.002678,0.000431,0.018687
8021000,0.0324,0.013523,0.002678,0.000431,0.020567
8022000,0.0324,0.013523,0.002678,0.000431,0.019157
8023000,0.0324,0.013523,0.002678,0.000431,0.020215
8024000,0.0324,0.013523,0.002678,0.000431,0.018922
8025000,0.0324,0.013523,0.002678,0.000431,0.019980
8026000,0.0324,0.013523,0.002678,0.000431,0.020215
8027000,0.0324,0.013523,0.002678,0.000431,0.021155
8028000,0.0324,0.013523,0.002678,0.000431,0.019392
8029000,0.0324,0.013523,0.002678,0.000431,0.019040
8030000,0.0324,0.013523,0.002678,0.000431,0.019510
8031000,0.0324,0.013523,0.002678,0.000431,0.020215
8032000,0.0324,0.013523,0.002678,0.000431,0.020920
8033000,0.0324,0.013523,0.002678,0.000431,0.019980
8034000,0.0324,0.013523,0.002678,0.000431,0.019275
8035000,0.0324,0.013523,0.002678,0.000431,0.020332
8036000,0.0324,0.013523,0.002678,0.000431,0.019392
8037000,0.0324,0.013523,0.002678,0.000431,0.019627
8038000,0.0324,0.013523,0.002678,0.000431,0.018452
8039000,0.0324,0.013523,0.002678,0.000431,0.021038
8040000,0.0324,0.013523,0.002678,0.000431,0.019862
8041000,0.0324,0.013523,0.002678,0.000431,0.019157
8042000,0.0324,0.013523,0.002678,0.000431,0.019275
8043000,0.0324,0.013523,0.002678,0.000431,0.019510
8044000,0.0324,0.013523,0.002678,0.000431,0.019392
8045000,0.0324,0.013523,0.002678,0.000431,0.019627
8046000,0.0324,0.013523,0.002678,0.000431,0.020332
8047000,0.0324,0.013523,0.002678,0.000431,0.019862
8048000,0.0324,0.013523,0.002678,0.000431,0.019275
8049000,0.0324,0.013523,0.002678,0.000431,0.020097
8050000,0.0324,0.013523,0.002678,0.000431,0.020215
8051000,0.0324,0.013523,0.002678,0.000431,0.019157
8052000,0.0324,0.013523,0.002678,0.000431,0.021038
8053000,0.0324,0.013523,0.002678,0.000431,0.021273
8054000,0.0324,0.013523,0.002678,0.000431,0.019040
8055000,0.0324,0.013523,0.002678,0.000431,0.020097
8056000,0.0324,0.013523,0.002678,0.000431,0.021155
8057000,0.0324,0.013523,0.002678,0.000431,0.019392
8058000,0.0324,0.013523,0.002678,0.000431,0.017982
8059000,0.0324,0.013523,0.002678,0.000431,0.018569
8060000,0.0324,0.013523,0.002678,0.000431,0.020097
8061000,0.0324,0.013523,0.002678,0.000431,0.017982
8062000,0.0324,0.013523,0.002678,0.000431,0.018452
8063000,0.0324,0.013523,0.002678,0.000431,0.017042
8064000,0.0324,0.013523,0.002678,0.000431,0.018099
8065000,0.0324,0.013523,0.002678,0.000431,0.019157
8066000,0.0324,0.013523,0.002678,0.000431,0.018569
8067000,0.0324,0.013523,0.002678,0.000431,0.019392
8068000,0.0324,0.013523,0.002678,0.000431,0.017864
8069000,0.0324,0.013523,0.002678,0.000431,0.017982
8070000,0.0324,0.013523,0.002678,0.000431,0.019157
8071000,0.0324,0.013523,0.002678,0.000431,0.017629
8072000,0.0324,0.013523,0.002678,0.000431,0.018099
8073000,0.0324,0.013523,0.002678,0.000431,0.018217
8074000,0.0324,0.013523,0.002678,0.000431,0.019040
8075000,0.0324,0.013523,0.002678,0.000431,0.017159
8076000,0.0324,0.013523,0.002678,0.000431,0.017864
8077000,0.0324,0.013523,0.002678,0.000431,0.017982
8078000,0.0324,0.013523,0.002678,0.000431,0.018099
8079000,0.0324,0.013523,0.002678,0.000431,0.018334
8080000,0.0324,0.013523,0.002678,0.000431,0.018334
8081000,0.0324,0.013523,0.002678,0.000431,0.017864
8082000,0.0324,0.013523,0.002678,0.000431,0.018687
8083000,0.0324,0.013523,0.002678,0.000431,0.017747
8084000,0.0324,0.013523,0.002678,0.000431,0.018452
8085000,0.0324,0.013523,0.002678,0.000431,0.016924
8086000,0.0324,0.013523,0.002678,0.000431,0.018099
8087000,0.0324,0.013523,0.002678,0.000431,0.017277
8088000,0.0324,0.013523,0.002678,0.000431,0.019275
8089000,0.0324,0.013523,0.002678,0.000431,0.017864
8090000,0.0324,0.013523,0.002678,0.000431,0.017512
8091000,0.0324,0.013523,0.002678,0.000431,0.017864
8092000,0.0324,0.013523,0.002678,0.000431,0.015749
8093000,0.0324,0.013523,0.002678,0.000431,0.017982
8094000,0.0324,0.013523,0.002678,0.000431,0.018217
8095000,0.0324,0.013523,0.002678,0.000431,0.016336
8096000,0.0324,0.013523,0.002678,0.000431,0.017629
8097000,0.0324,0.013523,0.002678,0.000431,0.018922
8098000,0.0324,0.013523,0.002678,0.000431,0.019862
8099000,0.0324,0.013523,0.002678,0.000431,0.017864
8100000,0.0324,0.013523,0.002678,0.000431,0.017629
8101000,0.0324,0.013523,0.002678,0.000431,0.019040
8102000,0.0324,0.013523,0.002678,0.000431,0.018452
8103000,0.0324,0.013523,0.002678,0.000431,0.017982
8104000,0.0324,0.013523,0.002678,0.000431,0.018452
8105000,0.0324,0.013523,0.002678,0.000431,0.018687
8106000,0.0324,0.013523,0.002678,0.000431,0.019275
8107000,0.0324,0.013523,0.002678,0.000431,0.018569
8108000,0.0324,0.013523,0.002678,0.000431,0.017864
8109000,0.0324,0.013523,0.002678,0.000431,0.017864
8110000,0.0324,0.013523,0.002678,0.000431,0.018922
8111000,0.0324,0.013523,0.002678,0.000431,0.018922
8112000,0.0324,0.013523,0.002678,0.000431,0.018922
8113000,0.0324,0.013523,0.002678,0.000431,0.017864
8114000,0.0324,0.013523,0.002678,0.000431,0.017394
8115000,0.0324,0.013523,0.002678,0.000431,0.017982
8116000,0.0324,0.013523,0.002678,0.000431,0.017864
8117000,0.0324,0.013523,0.002678,0.000431,0.017982
8118000,0.0324,0.013523,0.002678,0.000431,0.018805
8119000,0.0324,0.013523,0.002678,0.000431,0.018099
8120000,0.0324,0.013523,0.002678,0.000431,0.019627
8121000,0.0324,0.013523,0.002678,0.000431,0.017982
8122000,0.0324,0.013523,0.002678,0.000431,0.019157
8123000,0.0324,0.013523,0.002678,0.000431,0.018569
8124000,0.0324,0.013523,0.002678,0.000431,0.018452
8125000,0.0324,0.013523,0.002678,0.000431,0.017982
8126000,0.0324,0.013523,0.002678,0.000431,0.017864
8127000,0.0324,0.013523,0.002678,0.000431,0.017629
8128000,0.0324,0.013523,0.002678,0.000431,0.017512
8129000,0.0324,0.013523,0.002678,0.000431,0.018922
8130000,0.0324,0.013523,0.002678,0.000431,0.017864
8131000,0.0324,0.013523,0.002678,0.000431,0.018687
8132000,0.0324,0.013523,0.002678,0.000431,0.017042
8133000,0.0324,0.013523,0.002678,0.000431,0.017277
8134000,0.0324,0.013523,0.002678,0.000431,0.017277
8135000,0.0324,0.013523,0.002678,0.000431,0.017864
8136000,0.0324,0.013523,0.002678,0.000431,0.017747
8137000,0.0324,0.013523,0.002678,0.000431,0.018569
8138000,0.0324,0.013523,0.002678,0.000431,0.018569
8139000,0.0324,0.013523,0.002678,0.000431,0.018569
8140000,0.0324,0.013523,0.002678,0.000431,0.017394
8141000,0.0324,0.013523,0.002678,0.000431,0.016219
8142000,0.0324,0.013523,0.002678,0.000431,0.019510
8143000,0.0324,0.013523,0.002678,0.000431,0.018569
8144000,0.0324,0.013523,0.002678,0.000431,0.017864
8145000,0.0324,0.013523,0.002678,0.000431,0.018217
8146000,0.0324,0.013523,0.002678,0.000431,0.020920
8147000,0.0324,0.013523,0.002678,0.000431,0.017512
8148000,0.0324,0.013523,0.002678,0.000431,0.018217
8149000,0.0324,0.013523,0.002678,0.000431,0.019392
8150000,0.0324,0.013523,0.002678,0.000431,0.019510
8151000,0.0324,0.013523,0.002678,0.000431,0.018334
8152000,0.0324,0.013523,0.002678,0.000431,0.018452
8153000,0.0324,0.013523,0.002678,0.000431,0.019980
8154000,0.0324,0.013523,0.002678,0.000431,0.016924
8155000,0.0324,0.013523,0.002678,0.000431,0.017394
8156000,0.0324,0.013523,0.002678,0.000431,0.018922
8157000,0.0324,0.013523,0.002678,0.000431,0.019040
8158000,0.0324,0.013523,0.002678,0.000431,0.018099
8159000,0.0324,0.013523,0.002678,0.000431,0.017277
8160000,0.0324,0.013523,0.002678,0.000431,0.019862
8161000,0.0324,0.013523,0.002678,0.000431,0.018217
8162000,0.0324,0.013523,0.002678,0.000431,0.018334
8163000,0.0324,0.013523,0.002678,0.000431,0.018099
8164000,0.0324,0.013523,0.002678,0.000431,0.019040
8165000,0.0324,0.013523,0.002678,0.000431,0.017747
8166000,0.0324,0.013523,0.002678,0.000431,0.018805
8167000,0.0324,0.013523,0.002678,0.000431,0.017629
8168000,0.0324,0.013523,0.002678,0.000431,0.018334
8169000,0.0324,0.013523,0.002678,0.000431,0.016924
8170000,0.0324,0.013523,0.002678,0.000431,0.018334
8171000,0.0324,0.013523,0.002678,0.000431,0.018805
8172000,0.0324,0.013523,0.002678,0.000431,0.017629
8173000,0.0324,0.013523,0.002678,0.000431,0.018922
8174000,0.0324,0.013523,0.002678,0.000431,0.018922
8175000,0.0324,0.013523,0.002678,0.000431,0.017982
8176000,0.0324,0.013523,0.002678,0.000431,0.018922
8177000,0.0324,0.013523,0.002678,0.000431,0.018099
8178000,0.0324,0.013523,0.002678,0.000431,0.017864
8179000,0.0324,0.013523,0.002678,0.000431,0.017864
8180000,0.0324,0.013523,0.002678,0.000431,0.018452
8181000,0.0324,0.013523,0.002678,0.000431,0.017159
8182000,0.0324,0.013523,0.002678,0.000431,0.018217
8183000,0.0324,0.013523,0.002678,0.000431,0.018805
8184000,0.0324,0.013523,0.002678,0.000431,0.017042
8185000,0.0324,0.013523,0.002678,0.000431,0.017747
8186000,0.0324,0.013523,0.002678,0.000431,0.017982
8187000,0.0324,0.013523,0.002678,0.000431,0.019627
8188000,0.0324,0.013523,0.002678,0.000431,0.018687
8189000,0.0324,0.013523,0.002678,0.000431,0.017512
8190000,0.0324,0.013523,0.002678,0.000431,0.018805
8191000,0.0324,0.013523,0.002678,0.000431,0.019157
8192000,0.0324,0.013523,0.002678,0.000431,0.018687
8193000,0.0324,0.013523,0.002678,0.000431,0.017747
8194000,0.0324,0.013523,0.002678,0.000431,0.019275
8195000,0.0324,0.013523,0.002678,0.000431,0.018569
8196000,0.0324,0.013523,0.002678,0.000431,0.016924
8197000,0.0324,0.013523,0.002678,0.000431,0.018805
8198000,0.0324,0.013523,0.002678,0.000431,0.017629
8199000,0.0324,0.013523,0.002678,0.000431,0.017277
8200000,0.0324,0.013523,0.002678,0.000431,0.017159
8201000,0.0324,0.013523,0.002678,0.000431,0.018805
8202000,0.0324,0.013523,0.002678,0.000431,0.017747
8203000,0.0324,0.013523,0.002678,0.000431,0.017747
8204000,0.0324,0.013523,0.002678,0.000431,0.018922
8205000,0.0324,0.013523,0.002678,0.000431,0.018217
8206000,0.0324,0.013523,0.002678,0.000431,0.016336
8207000,0.0324,0.013523,0.002678,0.000431,0.018217
8208000,0.0324,0.013523,0.002678,0.000431,0.017982
8209000,0.0324,0.013523,0.002678,0.000431,0.018805
8210000,0.0324,0.013523,0.002678,0.000431,0.018569
8211000,0.0324,0.013523,0.002678,0.000431,0.018099
8212000,0.0324,0.013523,0.002678,0.000431,0.018805
8213000,0.0324,0.013523,0.002678,0.000431,0.016807
8214000,0.0324,0.013523,0.002678,0.000431,0.017747
8215000,0.0324,0.013523,0.002678,0.000431,0.017747
8216000,0.0324,0.013523,0.002678,0.000431,0.017629
8217000,0.0324,0.013523,0.002678,0.000431,0.018099
8218000,0.0324,0.013523,0.002678,0.000431,0.018569
8219000,0.0324,0.013523,0.002678,0.000431,0.018452
8220000,0.0324,0.013523,0.002678,0.000431,0.018452
8221000,0.0324,0.013523,0.002678,0.000431,0.017394
8222000,0.0324,0.013523,0.002678,0.000431,0.017629
8223000,0.0324,0.013523,0.002678,0.000431,0.017159
8224000,0.0324,0.013523,0.002678,0.000431,0.017864
8225000,0.0324,0.013523,0.002678,0.000431,0.018687
8226000,0.0324,0.013523,0.002678,0.000431,0.017042
8227000,0.0324,0.013523,0.002678,0.000431,0.018569
8228000,0.0324,0.013523,0.002678,0.000431,0.018217
8229000,0.0324,0.013523,0.002678,0.000431,0.019040
8230000,0.0324,0.013523,0.002678,0.000431,0.019275
8231000,0.0324,0.013523,0.002678,0.000431,0.018452
8232000,0.0324,0.013523,0.002678,0.000431,0.018452
8233000,0.0324,0.013523,0.002678,0.000431,0.015984
8234000,0.0324,0.013523,0.002678,0.000431,0.017512
8235000,0.0324,0.013523,0.002678,0.000431,0.018922
8236000,0.0324,0.013523,0.002678,0.000431,0.017159
8237000,0.0324,0.013523,0.002678,0.000431,0.016807
8238000,0.0324,0.013523,0.002678,0.000431,0.019275
8239000,0.0324,0.013523,0.002678,0.000431,0.016101
8240000,0.0324,0.013523,0.002678,0.000431,0.018569
8241000,0.0324,0.013523,0.002678,0.000431,0.018099
8242000,0.0324,0.013523,0.002678,0.000431,0.018569
8243000,0.0324,0.013523,0.002678,0.000431,0.017747
8244000,0.0324,0.013523,0.002678,0.000431,0.018452
8245000,0.0324,0.013523,0.002678,0.000431,0.016689
8246000,0.0324,0.013523,0.002678,0.000431,0.017747
8247000,0.0324,0.013523,0.002678,0.000431,0.017629
8248000,0.0324,0.013523,0.002678,0.000431,0.016101
8249000,0.0324,0.013523,0.002678,0.000431,0.017042
8250000,0.0324,0.013523,0.002678,0.000431,0.016571
8251000,0.0324,0.013523,0.002678,0.000431,0.017747
8252000,0.0324,0.013523,0.002678,0.000431,0.017277
8253000,0.0324,0.013523,0.002678,0.000431,0.017982
8254000,0.0324,0.013523,0.002678,0.000431,0.017512
8255000,0.0324,0.013523,0.002678,0.000431,0.016454
8256000,0.0324,0.013523,0.002678,0.000431,0.017982
8257000,0.0324,0.013523,0.002678,0.000431,0.017512
8258000,0.0324,0.013523,0.002678,0.000431,0.017864
8259000,0.0324,0.013523,0.002678,0.000431,0.016571
8260000,0.0324,0.013523,0.002678,0.000431,0.016689
8261000,0.0324,0.013523,0.002678,0.000431,0.015396
8262000,0.0324,0.013523,0.002678,0.000431,0.017747
8263000,0.0324,0.013523,0.002678,0.000431,0.016336
8264000,0.0324,0.013523,0.002678,0.000431,0.016924
8265000,0.0324,0.013523,0.002678,0.000431,0.017394
8266000,0.0324,0.013523,0.002678,0.000431,0.016807
8267000,0.0324,0.013523,0.002678,0.000431,0.016807
8268000,0.0324,0.013523,0.002678,0.000431,0.017159
8269000,0.0324,0.013523,0.002678,0.000431,0.016101
8270000,0.0324,0.013523,0.002678,0.000431,0.017512
8271000,0.0324,0.013523,0.002678,0.000431,0.017159
8272000,0.0324,0.013523,0.002678,0.000431,0.016924
8273000,0.0324,0.013523,0.002678,0.000431,0.016807
8274000,0.0324,0.013523,0.002678,0.000431,0.018687
8275000,0.0324,0.013523,0.002678,0.000431,0.016454
8276000,0.0324,0.013523,0.002678,0.000431,0.018217
8277000,0.0324,0.013523,0.002678,0.000431,0.018452
8278000,0.0324,0.013523,0.002678,0.000431,0.016219
8279000,0.0324,0.013523,0.002678,0.000431,0.017512
8280000,0.0324,0.013523,0.002678,0.000431,0.016571
8281000,0.0324,0.013523,0.002678,0.000431,0.015631
8282000,0.0324,0.013523,0.002678,0.000431,0.017277
8283000,0.0324,0.013523,0.002678,0.000431,0.016336
8284000,0.0324,0.013523,0.002678,0.000431,0.017747
8285000,0.0324,0.013523,0.002678,0.000431,0.016571
8286000,0.0324,0.013523,0.002678,0.000431,0.017512
8287000,0.0324,0.013523,0.002678,0.000431,0.016336
8288000,0.0324,0.013523,0.002678,0.000431,0.016689
8289000,0.0324,0.013523,0.002678,0.000431,0.016924
8290000,0.0324,0.013523,0.002678,0.000431,0.016101
8291000,0.0324,0.013523,0.002678,0.000431,0.016219
8292000,0.0324,0.013523,0.002678,0.000431,0.017747
8293000,0.0324,0.013523,0.002678,0.000431,0.017042
8294000,0.0324,0.013523,0.002678,0.000431,0.016336
8295000,0.0324,0.013523,0.002678,0.000431,0.015514
8296000,0.0324,0.013523,0.002678,0.000431,0.016571
8297000,0.0324,0.013523,0.002678,0.000431,0.016101
8298000,0.0324,0.013523,0.002678,0.000431,0.017747
8299000,0.0324,0.013523,0.002678,0.000431,0.015044
8300000,0.0324,0.013523,0.002678,0.000431,0.016101
8301000,0.0324,0.013523,0.002678,0.000431,0.017982
8302000,0.0324,0.013523,0.002678,0.000431,0.017747
8303000,0.0324,0.013523,0.002678,0.000431,0.015749
8304000,0.0324,0.013523,0.002678,0.000431,0.016101
8305000,0.0324,0.013523,0.002678,0.000431,0.017512
8306000,0.0324,0.013523,0.002678,0.000431,0.015631
8307000,0.0324,0.013523,0.002678,0.000431,0.016101
8308000,0.0324,0.013523,0.002678,0.000431,0.017629
8309000,0.0324,0.013523,0.002678,0.000431,0.016454
8310000,0.0324,0.013523,0.002678,0.000431,0.015984
8311000,0.0324,0.013523,0.002678,0.000431,0.016101
8312000,0.0324,0.013523,0.002678,0.000431,0.017042
8313000,0.0324,0.013523,0.002678,0.000431,0.016454
8314000,0.0324,0.013523,0.002678,0.000431,0.018452
8315000,0.0324,0.013523,0.002678,0.000431,0.016807
8316000,0.0324,0.013523,0.002678,0.000431,0.017277
8317000,0.0324,0.013523,0.002678,0.000431,0.015866
8318000,0.0324,0.013523,0.002678,0.000431,0.016219
8319000,0.0324,0.013523,0.002678,0.000431,0.015631
8320000,0.0324,0.013523,0.002678,0.000431,0.017159
8321000,0.0324,0.013523,0.002678,0.000431,0.015866
8322000,0.0324,0.013523,0.002678,0.000431,0.016807
8323000,0.0324,0.013523,0.002678,0.000431,0.016924
8324000,0.0324,0.013523,0.002678,0.000431,0.016101
8325000,0.0324,0.013523,0.002678,0.000431,0.016807
8326000,0.0324,0.013523,0.002678,0.000431,0.016219
8327000,0.0324,0.013523,0.002678,0.000431,0.017277
8328000,0.0324,0.013523,0.002678,0.000431,0.015749
8329000,0.0324,0.013523,0.002678,0.000431,0.016689
8330000,0.0324,0.013523,0.002678,0.000431,0.015279
8331000,0.0324,0.013523,0.002678,0.000431,0.016807
8332000,0.0324,0.013523,0.002678,0.000431,0.015044
8333000,0.0324,0.013523,0.002678,0.000431,0.016219
8334000,0.0324,0.013523,0.002678,0.000431,0.016689
8335000,0.0324,0.013523,0.002678,0.000431,0.015631
8336000,0.0324,0.013523,0.002678,0.000431,0.017159
8337000,0.0324,0.013523,0.002678,0.000431,0.014456
8338000,0.0324,0.013523,0.002678,0.000431,0.016689
8339000,0.0324,0.013523,0.002678,0.000431,0.017277
8340000,0.0324,0.013523,0.002678,0.000431,0.016571
8341000,0.0324,0.013523,0.002678,0.000431,0.017864
8342000,0.0324,0.013523,0.002678,0.000431,0.016924
8343000,0.0324,0.013523,0.002678,0.000431,0.015749
8344000,0.0324,0.013523,0.002678,0.000431,0.016689
8345000,0.0324,0.013523,0.002678,0.000431,0.017629
8346000,0.0324,0.013523,0.002678,0.000431,0.015631
8347000,0.0324,0.013523,0.002678,0.000431,0.017277
8348000,0.0324,0.013523,0.002678,0.000431,0.015984
8349000,0.0324,0.013523,0.002678,0.000431,0.015866
8350000,0.0324,0.013523,0.002678,0.000431,0.016219
8351000,0.0324,0.013523,0.002678,0.000431,0.017629
8352000,0.0324,0.013523,0.002678,0.000431,0.016689
8353000,0.0324,0.013523,0.002678,0.000431,0.015866
8354000,0.0324,0.013523,0.002678,0.000431,0.017277
8355000,0.0324,0.013523,0.002678,0.000431,0.017629
8356000,0.0324,0.013523,0.002678,0.000431,0.016571
8357000,0.0324,0.013523,0.002678,0.000431,0.016571
8358000,0.0324,0.013523,0.002678,0.000431,0.015396
8359000,0.0324,0.013523,0.002678,0.000431,0.017042
8360000,0.0324,0.013523,0.002678,0.000431,0.016924
8361000,0.0324,0.013523,0.002678,0.000431,0.016336
8362000,0.0324,0.013523,0.002678,0.000431,0.016571
8363000,0.0324,0.013523,0.002678,0.000431,0.016454
8364000,0.0324,0.013523,0.002678,0.000431,0.016924
8365000,0.0324,0.013523,0.002678,0.000431,0.015866
8366000,0.0324,0.013523,0.002678,0.000431,0.015749
8367000,0.0324,0.013523,0.002678,0.000431,0.016924
8368000,0.0324,0.013523,0.002678,0.000431,0.017277
8369000,0.0324,0.013523,0.002678,0.000431,0.015984
8370000,0.0324,0.013523,0.002678,0.000431,0.016924
8371000,0.0324,0.013523,0.002678,0.000431,0.015396
8372000,0.0324,0.013523,0.002678,0.000431,0.018334
8373000,0.0324,0.013523,0.002678,0.000431,0.015631
8374000,0.0324,0.013523,0.002678,0.000431,0.017042
8375000,0.0324,0.013523,0.002678,0.000431,0.016101
8376000,0.0324,0.013523,0.002678,0.000431,0.016807
8377000,0.0324,0.013523,0.002678,0.000431,0.016219
8378000,0.0324,0.013523,0.002678,0.000431,0.015749
8379000,0.0324,0.013523,0.002678,0.000431,0.016689
8380000,0.0324,0.013523,0.002678,0.000431,0.016454
8381000,0.0324,0.013523,0.002678,0.000431,0.017512
8382000,0.0324,0.013523,0.002678,0.000431,0.016219
8383000,0.0324,0.013523,0.002678,0.000431,0.015396
8384000,0.0324,0.013523,0.002678,0.000431,0.015866
8385000,0.0324,0.013523,0.002678,0.000431,0.016219
8386000,0.0324,0.013523,0.002678,0.000431,0.017277
8387000,0.0324,0.013523,0.002678,0.000431,0.016454
8388000,0.0324,0.013523,0.002678,0.000431,0.015279
8389000,0.0324,0.013523,0.002678,0.000431,0.016807
8390000,0.0324,0.013523,0.002678,0.000431,0.016219
8391000,0.0324,0.013523,0.002678,0.000431,0.016101
8392000,0.0324,0.013523,0.002678,0.000431,0.015514
8393000,0.0324,0.013523,0.002678,0.000431,0.014926
8394000,0.0324,0.013523,0.002678,0.000431,0.016336
8395000,0.0324,0.013523,0.002678,0.000431,0.016336
8396000,0.0324,0.013523,0.002678,0.000431,0.017277
8397000,0.0324,0.013523,0.002678,0.000431,0.016219
8398000,0.0324,0.013523,0.002678,0.000431,0.017394
8399000,0.0324,0.013523,0.002678,0.000431,0.015631
8400000,0.0324,0.013523,0.002678,0.000431,0.016219
8401000,0.0324,0.013523,0.002678,0.000431,0.017042
8402000,0.0324,0.013523,0.002678,0.000431,0.016571
8403000,0.0324,0.013523,0.002678,0.000431,0.015749
8404000,0.0324,0.013523,0.002678,0.000431,0.016689
8405000,0.0324,0.013523,0.002678,0.000431,0.015514
8406000,0.0324,0.013523,0.002678,0.000431,0.016807
8407000,0.0324,0.013523,0.002678,0.000431,0.016336
8408000,0.0324,0.013523,0.002678,0.000431,0.016336
8409000,0.0324,0.013523,0.002678,0.000431,0.015044
8410000,0.0324,0.013523,0.002678,0.000431,0.016807
8411000,0.0324,0.013523,0.002678,0.000431,0.016689
8412000,0.0324,0.013523,0.002678,0.000431,0.015984
8413000,0.0324,0.013523,0.002678,0.000431,0.016689
8414000,0.0324,0.013523,0.002678,0.000431,0.015279
8415000,0.0324,0.013523,0.002678,0.000431,0.016219
8416000,0.0324,0.013523,0.002678,0.000431,0.016924
8417000,0.0324,0.013523,0.002678,0.000431,0.016807
8418000,0.0324,0.013523,0.002678,0.000431,0.015279
8419000,0.0324,0.013523,0.002678,0.000431,0.017277
8420000,0.0324,0.013523,0.002678,0.000431,0.015279
8421000,0.0324,0.013523,0.002678,0.000431,0.017042
8422000,0.0324,0.013523,0.002678,0.000431,0.014573
8423000,0.0324,0.013523,0.002678,0.000431,0.016807
8424000,0.0324,0.013523,0.002678,0.000431,0.017629
8425000,0.0324,0.013523,0.002678,0.000431,0.016101
8426000,0.0324,0.013523,0.002678,0.000431,0.015044
8427000,0.0324,0.013523,0.002678,0.000431,0.016924
8428000,0.0324,0.013523,0.002678,0.000431,0.016689
8429000,0.0324,0.013523,0.002678,0.000431,0.016571
8430000,0.0324,0.013523,0.002678,0.000431,0.014926
8431000,0.0324,0.013523,0.002678,0.000431,0.015866
8432000,0.0324,0.013523,0.002678,0.000431,0.017629
8433000,0.0324,0.013523,0.002678,0.000431,0.016101
8434000,0.0324,0.013523,0.002678,0.000431,0.017629
8435000,0.0324,0.013523,0.002678,0.000431,0.017982
8436000,0.0324,0.013523,0.002678,0.000431,0.016454
8437000,0.0324,0.013523,0.002678,0.000431,0.015631
8438000,0.0324,0.013523,0.002678,0.000431,0.016807
8439000,0.0324,0.013523,0.002678,0.000431,0.016101
8440000,0.0324,0.013523,0.002678,0.000431,0.015749
8441000,0.0324,0.013523,0.002678,0.000431,0.015514
8442000,0.0324,0.013523,0.002678,0.000431,0.017512
8443000,0.0324,0.013523,0.002678,0.000431,0.016689
8444000,0.0324,0.013523,0.002678,0.000431,0.016571
8445000,0.0324,0.013523,0.002678,0.000431,0.016924
8446000,0.0324,0.013523,0.002678,0.000431,0.016454
8447000,0.0324,0.013523,0.002678,0.000431,0.015396
8448000,0.0324,0.013523,0.002678,0.000431,0.015866
8449000,0.0324,0.013523,0.002678,0.000431,0.016689
8450000,0.0324,0.013523,0.002678,0.000431,0.016571
8451000,0.0324,0.013523,0.002678,0.000431,0.017394
8452000,0.0324,0.013523,0.002678,0.000431,0.017042
8453000,0.0324,0.013523,0.002678,0.000431,0.016924
8454000,0.0324,0.013523,0.002678,0.000431,0.015866
8455000,0.0324,0.013523,0.002678,0.000431,0.017394
8456000,0.0324,0.013523,0.002678,0.000431,0.017512
8457000,0.0324,0.013523,0.002678,0.000431,0.016571
8458000,0.0324,0.013523,0.002678,0.000431,0.017042
8459000,0.0324,0.013523,0.002678,0.000431,0.017394
8460000,0.0324,0.013523,0.002678,0.000431,0.016454
8461000,0.0324,0.013523,0.002678,0.000431,0.015984
8462000,0.0324,0.013523,0.002678,0.000431,0.017042
8463000,0.0324,0.013523,0.002678,0.000431,0.016454
8464000,0.0324,0.013523,0.002678,0.000431,0.015749
8465000,0.0324,0.013523,0.002678,0.000431,0.017864
8466000,0.0324,0.013523,0.002678,0.000431,0.017277
8467000,0.0324,0.013523,0.002678,0.000431,0.016571
8468000,0.0324,0.013523,0.002678,0.000431,0.017982
8469000,0.0324,0.013523,0.002678,0.000431,0.018217
8470000,0.0324,0.013523,0.002678,0.000431,0.015396
8471000,0.0324,0.013523,0.002678,0.000431,0.016101
8472000,0.0324,0.013523,0.002678,0.000431,0.016571
8473000,0.0324,0.013523,0.002678,0.000431,0.017042
8474000,0.0324,0.013523,0.002678,0.000431,0.016454
8475000,0.0324,0.013523,0.002678,0.000431,0.016336
8476000,0.0324,0.013523,0.002678,0.000431,0.016571
8477000,0.0324,0.013523,0.002678,0.000431,0.016689
8478000,0.0324,0.013523,0.002678,0.000431,0.015749
8479000,0.0324,0.013523,0.002678,0.000431,0.018099
8480000,0.0324,0.013523,0.002678,0.000431,0.017747
8481000,0.0324,0.013523,0.002678,0.000431,0.015514
8482000,0.0324,0.013523,0.002678,0.000431,0.016924
8483000,0.0324,0.013523,0.002678,0.000431,0.016807
8484000,0.0324,0.013523,0.002678,0.000431,0.015631
8485000,0.0324,0.013523,0.002678,0.000431,0.016571
8486000,0.0324,0.013523,0.002678,0.000431,0.017864
8487000,0.0324,0.013523,0.002678,0.000431,0.016571
8488000,0.0324,0.013523,0.002678,0.000431,0.017277
8489000,0.0324,0.013523,0.002678,0.000431,0.015631
8490000,0.0324,0.013523,0.002678,0.000431,0.015279
8491000,0.0324,0.013523,0.002678,0.000431,0.018569
8492000,0.0324,0.013523,0.002678,0.000431,0.016924
8493000,0.0324,0.013523,0.002678,0.000431,0.016101
8494000,0.0324,0.013523,0.002678,0.000431,0.015984
8495000,0.0324,0.013523,0.002678,0.000431,0.016571
8496000,0.0324,0.013523,0.002678,0.000431,0.016219
8497000,0.0324,0.013523,0.002678,0.000431,0.017864
8498000,0.0324,0.013523,0.002678,0.000431,0.016807
8499000,0.0324,0.013523,0.002678,0.000431,0.016571
8500000,0.0324,0.013523,0.002678,0.000431,0.017042
8501000,0.0324,0.013523,0.002678,0.000431,0.015396
8502000,0.0324,0.013523,0.002678,0.000431,0.015866
8503000,0.0324,0.013523,0.002678,0.000431,0.017747
8504000,0.0324,0.013523,0.002678,0.000431,0.017159
8505000,0.0324,0.013523,0.002678,0.000431,0.017042
8506000,0.0324,0.013523,0.002678,0.000431,0.016101
8507000,0.0324,0.013523,0.002678,0.000431,0.017512
8508000,0.0324,0.013523,0.002678,0.000431,0.016807
8509000,0.0324,0.013523,0.002678,0.000431,0.016336
8510000,0.0324,0.013523,0.002678,0.000431,0.017159
8511000,0.0324,0.013523,0.002678,0.000431,0.016807
8512000,0.0324,0.013523,0.002678,0.000431,0.015396
8513000,0.0324,0.013523,0.002678,0.000431,0.016924
8514000,0.0324,0.013523,0.002678,0.000431,0.017982
8515000,0.0324,0.013523,0.002678,0.000431,0.014691
8516000,0.0324,0.013523,0.002678,0.000431,0.017864
8517000,0.0324,0.013523,0.002678,0.000431,0.017864
8518000,0.0324,0.013523,0.002678,0.000431,0.015161
8519000,0.0324,0.013523,0.002678,0.000431,0.017629
8520000,0.0324,0.013523,0.002678,0.000431,0.014926
8521000,0.0324,0.013523,0.002678,0.000431,0.018099
8522000,0.0324,0.013523,0.002678,0.000431,0.015866
8523000,0.0324,0.013523,0.002678,0.000431,0.017394
8524000,0.0324,0.013523,0.002678,0.000431,0.015749
8525000,0.0324,0.013523,0.002678,0.000431,0.017629
8526000,0.0324,0.013523,0.002678,0.000431,0.016454
8527000,0.0324,0.013523,0.002678,0.000431,0.016101
8528000,0.0324,0.013523,0.002678,0.000431,0.017512
8529000,0.0324,0.013523,0.002678,0.000431,0.017747
8530000,0.0324,0.013523,0.002678,0.000431,0.016454
8531000,0.0324,0.013523,0.002678,0.000431,0.015984
8532000,0.0324,0.013523,0.002678,0.000431,0.016454
8533000,0.0324,0.013523,0.002678,0.000431,0.016219
8534000,0.0324,0.013523,0.002678,0.000431,0.016454
8535000,0.0324,0.013523,0.002678,0.000431,0.016571
8536000,0.0324,0.013523,0.002678,0.000431,0.015631
8537000,0.0324,0.013523,0.002678,0.000431,0.016454
8538000,0.0324,0.013523,0.002678,0.000431,0.016924
8539000,0.0324,0.013523,0.002678,0.000431,0.016571
8540000,0.0324,0.013523,0.002678,0.000431,0.016336
8541000,0.0324,0.013523,0.002678,0.000431,0.017747
8542000,0.0324,0.013523,0.002678,0.000431,0.015396
8543000,0.0324,0.013523,0.002678,0.000431,0.016807
8544000,0.0324,0.013523,0.002678,0.000431,0.017042
8545000,0.0324,0.013523,0.002678,0.000431,0.016454
8546000,0.0324,0.013523,0.002678,0.000431,0.016101
8547000,0.0324,0.013523,0.002678,0.000431,0.016807
8548000,0.0324,0.013523,0.002678,0.000431,0.016807
8549000,0.0324,0.013523,0.002678,0.000431,0.016336
8550000,0.0324,0.013523,0.002678,0.000431,0.016336
8551000,0.0324,0.013523,0.002678,0.000431,0.017159
8552000,0.0324,0.013523,0.002678,0.000431,0.016924
8553000,0.0324,0.013523,0.002678,0.000431,0.016336
8554000,0.0324,0.013523,0.002678,0.000431,0.015866
8555000,0.0324,0.013523,0.002678,0.000431,0.016336
8556000,0.0324,0.013523,0.002678,0.000431,0.016336
8557000,0.0324,0.013523,0.002678,0.000431,0.016571
8558000,0.0324,0.013523,0.002678,0.000431,0.016807
8559000,0.0324,0.013523,0.002678,0.000431,0.015396
8560000,0.0324,0.013523,0.002678,0.000431,0.015984
8561000,0.0324,0.013523,0.002678,0.000431,0.016219
8562000,0.0324,0.013523,0.002678,0.000431,0.017042
8563000,0.0324,0.013523,0.002678,0.000431,0.015161
8564000,0.0324,0.013523,0.002678,0.000431,0.016571
8565000,0.0324,0.013523,0.002678,0.000431,0.017159
8566000,0.0324,0.013523,0.002678,0.000431,0.015866
8567000,0.0324,0.013523,0.002678,0.000431,0.016336
8568000,0.0324,0.013523,0.002678,0.000431,0.015749
8569000,0.0324,0.013523,0.002678,0.000431,0.016219
8570000,0.0324,0.013523,0.002678,0.000431,0.015749
8571000,0.0324,0.013523,0.002678,0.000431,0.015279
8572000,0.0324,0.013523,0.002678,0.000431,0.016571
8573000,0.0324,0.013523,0.002678,0.000431,0.016807
8574000,0.0324,0.013523,0.002678,0.000431,0.014691
8575000,0.0324,0.013523,0.002678,0.000431,0.017394
8576000,0.0324,0.013523,0.002678,0.000431,0.015631
8577000,0.0324,0.013523,0.002678,0.000431,0.016101
8578000,0.0324,0.013523,0.002678,0.000431,0.017159
8579000,0.0324,0.013523,0.002678,0.000431,0.015514
8580000,0.0324,0.013523,0.002678,0.000431,0.015161
8581000,0.0324,0.013523,0.002678,0.000431,0.017864
8582000,0.0324,0.013523,0.002678,0.000431,0.016454
8583000,0.0324,0.013523,0.002678,0.000431,0.015631
8584000,0.0324,0.013523,0.002678,0.000431,0.015866
8585000,0.0324,0.013523,0.002678,0.000431,0.016454
8586000,0.0324,0.013523,0.002678,0.000431,0.016807
8587000,0.0324,0.013523,0.002678,0.000431,0.015044
8588000,0.0324,0.013523,0.002678,0.000431,0.017159
8589000,0.0324,0.013523,0.002678,0.000431,0.015396
8590000,0.0324,0.013523,0.002678,0.000431,0.015396
8591000,0.0324,0.013523,0.002678,0.000431,0.016101
8592000,0.0324,0.013523,0.002678,0.000431,0.015514
8593000,0.0324,0.013523,0.002678,0.000431,0.017747
8594000,0.0324,0.013523,0.002678,0.000431,0.015866
8595000,0.0324,0.013523,0.002678,0.000431,0.015749
8596000,0.0324,0.013523,0.002678,0.000431,0.015866
8597000,0.0324,0.013523,0.002678,0.000431,0.016571
8598000,0.0324,0.013523,0.002678,0.000431,0.016689
8599000,0.0324,0.013523,0.002678,0.000431,0.015044
8600000,0.0324,0.013523,0.002678,0.000431,0.015044
8601000,0.0324,0.013523,0.002678,0.000431,0.017159
8602000,0.0324,0.013523,0.002678,0.000431,0.016101
8603000,0.0324,0.013523,0.002678,0.000431,0.016571
8604000,0.0324,0.013523,0.002678,0.000431,0.015514
8605000,0.0324,0.013523,0.002678,0.000431,0.017864
8606000,0.0324,0.013523,0.002678,0.000431,0.016336
8607000,0.0324,0.013523,0.002678,0.000431,0.015866
8608000,0.0324,0.013523,0.002678,0.000431,0.016807
8609000,0.0324,0.013523,0.002678,0.000431,0.016219
8610000,0.0324,0.013523,0.002678,0.000431,0.016219
8611000,0.0324,0.013523,0.002678,0.000431,0.016571
8612000,0.0324,0.013523,0.002678,0.000431,0.017394
8613000,0.0324,0.013523,0.002678,0.000431,0.016454
8614000,0.0324,0.013523,0.002678,0.000431,0.015161
8615000,0.0324,0.013523,0.002678,0.000431,0.017159
8616000,0.0324,0.013523,0.002678,0.000431,0.015279
8617000,0.0324,0.013523,0.002678,0.000431,0.015396
8618000,0.0324,0.013523,0.002678,0.000431,0.015279
8619000,0.0324,0.013523,0.002678,0.000431,0.016807
8620000,0.0324,0.013523,0.002678,0.000431,0.016101
8621000,0.0324,0.013523,0.002678,0.000431,0.014809
8622000,0.0324,0.013523,0.002678,0.000431,0.015396
8623000,0.0324,0.013523,0.002678,0.000431,0.014338
8624000,0.0324,0.013523,0.002678,0.000431,0.015749
8625000,0.0324,0.013523,0.002678,0.000431,0.014926
8626000,0.0324,0.013523,0.002678,0.000431,0.016101
8627000,0.0324,0.013523,0.002678,0.000431,0.016454
8628000,0.0324,0.013523,0.002678,0.000431,0.015631
8629000,0.0324,0.013523,0.002678,0.000431,0.016336
8630000,0.0324,0.013523,0.002678,0.000431,0.015984
8631000,0.0324,0.013523,0.002678,0.000431,0.016571
8632000,0.0324,0.013523,0.002678,0.000431,0.015396
8633000,0.0324,0.013523,0.002678,0.000431,0.016336
8634000,0.0324,0.013523,0.002678,0.000431,0.016219
8635000,0.0324,0.013523,0.002678,0.000431,0.016219
8636000,0.0324,0.013523,0.002678,0.000431,0.016807
8637000,0.0324,0.013523,0.002678,0.000431,0.016219
8638000,0.0324,0.013523,0.002678,0.000431,0.014456
8639000,0.0324,0.013523,0.002678,0.000431,0.016571
8640000,0.0324,0.013523,0.002678,0.000431,0.016571
8641000,0.0324,0.013523,0.002678,0.000431,0.013868
8642000,0.0324,0.013523,0.002678,0.000431,0.014809
8643000,0.0324,0.013523,0.002678,0.000431,0.015984
8644000,0.0324,0.013523,0.002678,0.000431,0.014809
8645000,0.0324,0.013523,0.002678,0.000431,0.015161
8646000,0.0324,0.013523,0.002678,0.000431,0.017042
8647000,0.0324,0.013523,0.002678,0.000431,0.015396
8648000,0.0324,0.013523,0.002678,0.000431,0.015396
8649000,0.0324,0.013523,0.002678,0.000431,0.017394
8650000,0.0324,0.013523,0.002678,0.000431,0.015631
8651000,0.0324,0.013523,0.002678,0.000431,0.014221
8652000,0.0324,0.013523,0.002678,0.000431,0.015044
8653000,0.0324,0.013523,0.002678,0.000431,0.016219
8654000,0.0324,0.013523,0.002678,0.000431,0.015749
8655000,0.0324,0.013523,0.002678,0.000431,0.015396
8656000,0.0324,0.013523,0.002678,0.000431,0.017512
8657000,0.0324,0.013523,0.002678,0.000431,0.015044
8658000,0.0324,0.013523,0.002678,0.000431,0.016336
8659000,0.0324,0.013523,0.002678,0.000431,0.015866
8660000,0.0324,0.013523,0.002678,0.000431,0.015161
8661000,0.0324,0.013523,0.002678,0.000431,0.015044
8662000,0.0324,0.013523,0.002678,0.000431,0.016571
8663000,0.0324,0.013523,0.002678,0.000431,0.016336
8664000,0.0324,0.013523,0.002678,0.000431,0.016807
8665000,0.0324,0.013523,0.002678,0.000431,0.015984
8666000,0.0324,0.013523,0.002678,0.000431,0.015984
8667000,0.0324,0.013523,0.002678,0.000431,0.014809
8668000,0.0324,0.013523,0.002678,0.000431,0.015044
8669000,0.0324,0.013523,0.002678,0.000431,0.015749
8670000,0.0324,0.013523,0.002678,0.000431,0.015044
8671000,0.0324,0.013523,0.002678,0.000431,0.015984
8672000,0.0324,0.013523,0.002678,0.000431,0.014926
8673000,0.0324,0.013523,0.002678,0.000431,0.016689
8674000,0.0324,0.013523,0.002678,0.000431,0.015514
8675000,0.0324,0.013523,0.002678,0.000431,0.015396
8676000,0.0324,0.013523,0.002678,0.000431,0.015866
8677000,0.0324,0.013523,0.002678,0.000431,0.017042
8678000,0.0324,0.013523,0.002678,0.000431,0.015866
8679000,0.0324,0.013523,0.002678,0.000431,0.013868
8680000,0.0324,0.013523,0.002678,0.000431,0.016571
8681000,0.0324,0.013523,0.002678,0.000431,0.014926
8682000,0.0324,0.013523,0.002678,0.000431,0.014573
8683000,0.0324,0.013523,0.002678,0.000431,0.014809
8684000,0.0324,0.013523,0.002678,0.000431,0.015161
8685000,0.0324,0.013523,0.002678,0.000431,0.015866
8686000,0.0324,0.013523,0.002678,0.000431,0.014809
8687000,0.0324,0.013523,0.002678,0.000431,0.016101
8688000,0.0324,0.013523,0.002678,0.000431,0.015279
8689000,0.0324,0.013523,0.002678,0.000431,0.014456
8690000,0.0324,0.013523,0.002678,0.000431,0.015984
8691000,0.0324,0.013523,0.002678,0.000431,0.015044
8692000,0.0324,0.013523,0.002678,0.000431,0.015514
8693000,0.0324,0.013523,0.002678,0.000431,0.014338
8694000,0.0324,0.013523,0.002678,0.000431,0.014573
8695000,0.0324,0.013523,0.002678,0.000431,0.015514
8696000,0.0324,0.013523,0.002678,0.000431,0.013868
8697000,0.0324,0.013523,0.002678,0.000431,0.014809
8698000,0.0324,0.013523,0.002678,0.000431,0.014338
8699000,0.0324,0.013523,0.002678,0.000431,0.015984
8700000,0.0324,0.013523,0.002678,0.000431,0.013163
8701000,0.0324,0.013523,0.002678,0.000431,0.014573
8702000,0.0324,0.013523,0.002678,0.000431,0.015749
8703000,0.0324,0.013523,0.002678,0.000431,0.014338
8704000,0.0324,0.013523,0.002678,0.000431,0.015866
8705000,0.0324,0.013523,0.002678,0.000431,0.014691
8706000,0.0324,0.013523,0.002678,0.000431,0.015161
8707000,0.0324,0.013523,0.002678,0.000431,0.015161
8708000,0.0324,0.013523,0.002678,0.000431,0.014926
8709000,0.0324,0.013523,0.002678,0.000431,0.014103
8710000,0.0324,0.013523,0.002678,0.000431,0.015749
8711000,0.0324,0.013523,0.002678,0.000431,0.013751
8712000,0.0324,0.013523,0.002678,0.000431,0.015749
8713000,0.0324,0.013523,0.002678,0.000431,0.014809
8714000,0.0324,0.013523,0.002678,0.000431,0.015984
8715000,0.0324,0.013523,0.002678,0.000431,0.015279
8716000,0.0324,0.013523,0.002678,0.000431,0.015279
8717000,0.0324,0.013523,0.002678,0.000431,0.014338
8718000,0.0324,0.013523,0.002678,0.000431,0.015866
8719000,0.0324,0.013523,0.002678,0.000431,0.013986
8720000,0.0324,0.013523,0.002678,0.000431,0.014103
8721000,0.0324,0.013523,0.002678,0.000431,0.015044
8722000,0.0324,0.013523,0.002678,0.000431,0.014926
8723000,0.0324,0.013523,0.002678,0.000431,0.014338
8724000,0.0324,0.013523,0.002678,0.000431,0.014691
8725000,0.0324,0.013523,0.002678,0.000431,0.016101
8726000,0.0324,0.013523,0.002678,0.000431,0.013751
8727000,0.0324,0.013523,0.002678,0.000431,0.015514
8728000,0.0324,0.013523,0.002678,0.000431,0.013986
8729000,0.0324,0.013523,0.002678,0.000431,0.015044
8730000,0.0324,0.013523,0.002678,0.000431,0.015396
8731000,0.0324,0.013523,0.002678,0.000431,0.015984
8732000,0.0324,0.013523,0.002678,0.000431,0.014456
8733000,0.0324,0.013523,0.002678,0.000431,0.013633
8734000,0.0324,0.013523,0.002678,0.000431,0.015514
8735000,0.0324,0.013523,0.002678,0.000431,0.014221
8736000,0.0324,0.013523,0.002678,0.000431,0.015749
8737000,0.0324,0.013523,0.002678,0.000431,0.014103
8738000,0.0324,0.013523,0.002678,0.000431,0.015396
8739000,0.0324,0.013523,0.002678,0.000431,0.015279
8740000,0.0324,0.013523,0.002678,0.000431,0.016571
8741000,0.0324,0.013523,0.002678,0.000431,0.014338
8742000,0.0324,0.013523,0.002678,0.000431,0.014338
8743000,0.0324,0.013523,0.002678,0.000431,0.015161
8744000,0.0324,0.013523,0.002678,0.000431,0.014103
8745000,0.0324,0.013523,0.002678,0.000431,0.015749
8746000,0.0324,0.013523,0.002678,0.000431,0.014221
8747000,0.0324,0.013523,0.002678,0.000431,0.014456
8748000,0.0324,0.013523,0.002678,0.000431,0.015514
8749000,0.0324,0.013523,0.002678,0.000431,0.013751
8750000,0.0324,0.013523,0.002678,0.000431,0.015044
8751000,0.0324,0.013523,0.002678,0.000431,0.015984
8752000,0.0324,0.013523,0.002678,0.000431,0.015279
8753000,0.0324,0.013523,0.002678,0.000431,0.015161
8754000,0.0324,0.013523,0.002678,0.000431,0.014103
8755000,0.0324,0.013523,0.002678,0.000431,0.015279
8756000,0.0324,0.013523,0.002678,0.000431,0.015514
8757000,0.0324,0.013523,0.002678,0.000431,0.013516
8758000,0.0324,0.013523,0.002678,0.000431,0.013868
8759000,0.0324,0.013523,0.002678,0.000431,0.015866
8760000,0.0324,0.013523,0.002678,0.000431,0.013398
8761000,0.0324,0.013523,0.002678,0.000431,0.014809
8762000,0.0324,0.013523,0.002678,0.000431,0.015631
8763000,0.0324,0.013523,0.002678,0.000431,0.014456
8764000,0.0324,0.013523,0.002678,0.000431,0.014809
8765000,0.0324,0.013523,0.002678,0.000431,0.016454
8766000,0.0324,0.013523,0.002678,0.000431,0.015161
8767000,0.0324,0.013523,0.002678,0.000431,0.014573
8768000,0.0324,0.013523,0.002678,0.000431,0.014926
8769000,0.0324,0.013523,0.002678,0.000431,0.014809
8770000,0.0324,0.013523,0.002678,0.000431,0.016101
8771000,0.0324,0.013523,0.002678,0.000431,0.014456
8772000,0.0324,0.013523,0.002678,0.000431,0.013751
8773000,0.0324,0.013523,0.002678,0.000431,0.015279
8774000,0.0324,0.013523,0.002678,0.000431,0.015749
8775000,0.0324,0.013523,0.002678,0.000431,0.014691
8776000,0.0324,0.013523,0.002678,0.000431,0.014338
8777000,0.0324,0.013523,0.002678,0.000431,0.015161
8778000,0.0324,0.013523,0.002678,0.000431,0.013516
8779000,0.0324,0.013523,0.002678,0.000431,0.016219
8780000,0.0324,0.013523,0.002678,0.000431,0.015161
8781000,0.0324,0.013523,0.002678,0.000431,0.013986
8782000,0.0324,0.013523,0.002678,0.000431,0.013868
8783000,0.0324,0.013523,0.002678,0.000431,0.013986
8784000,0.0324,0.013523,0.002678,0.000431,0.016219
8785000,0.0324,0.013523,0.002678,0.000431,0.013633
8786000,0.0324,0.013523,0.002678,0.000431,0.013868
8787000,0.0324,0.013523,0.002678,0.000431,0.014691
8788000,0.0324,0.013523,0.002678,0.000431,0.014691
8789000,0.0324,0.013523,0.002678,0.000431,0.014456
8790000,0.0324,0.013523,0.002678,0.000431,0.013986
8791000,0.0324,0.013523,0.002678,0.000431,0.015279
8792000,0.0324,0.013523,0.002678,0.000431,0.014103
8793000,0.0324,0.013523,0.002678,0.000431,0.015044
8794000,0.0324,0.013523,0.002678,0.000431,0.013868
8795000,0.0324,0.013523,0.002678,0.000431,0.015279
8796000,0.0324,0.013523,0.002678,0.000431,0.013986
8797000,0.0324,0.013523,0.002678,0.000431,0.015044
8798000,0.0324,0.013523,0.002678,0.000431,0.015279
8799000,0.0324,0.013523,0.002678,0.000431,0.014926
8800000,0.0324,0.013523,0.002678,0.000431,0.014926
8801000,0.0324,0.013523,0.002678,0.000431,0.014691
8802000,0.0324,0.013523,0.002678,0.000431,0.015044
8803000,0.0324,0.013523,0.002678,0.000431,0.014573
8804000,0.0324,0.013523,0.002678,0.000431,0.014338
8805000,0.0324,0.013523,0.002678,0.000431,0.013868
8806000,0.0324,0.013523,0.002678,0.000431,0.014103
8807000,0.0324,0.013523,0.002678,0.000431,0.014338
8808000,0.0324,0.013523,0.002678,0.000431,0.013986
8809000,0.0324,0.013523,0.002678,0.000431,0.014221
8810000,0.0324,0.013523,0.002678,0.000431,0.014691
8811000,0.0324,0.013523,0.002678,0.000431,0.014338
8812000,0.0324,0.013523,0.002678,0.000431,0.015514
8813000,0.0324,0.013523,0.002678,0.000431,0.013986
8814000,0.0324,0.013523,0.002678,0.000431,0.015396
8815000,0.0324,0.013523,0.002678,0.000431,0.014573
8816000,0.0324,0.013523,0.002678,0.000431,0.015514
8817000,0.0324,0.013523,0.002678,0.000431,0.015396
8818000,0.0324,0.013523,0.002678,0.000431,0.015279
8819000,0.0324,0.013523,0.002678,0.000431,0.014221
8820000,0.0324,0.013523,0.002678,0.000431,0.013986
8821000,0.0324,0.013523,0.002678,0.000431,0.015749
8822000,0.0324,0.013523,0.002678,0.000431,0.013633
8823000,0.0324,0.013523,0.002678,0.000431,0.015044
8824000,0.0324,0.013523,0.002678,0.000431,0.014926
8825000,0.0324,0.013523,0.002678,0.000431,0.014809
8826000,0.0324,0.013523,0.002678,0.000431,0.014926
8827000,0.0324,0.013523,0.002678,0.000431,0.015514
8828000,0.0324,0.013523,0.002678,0.000431,0.014338
8829000,0.0324,0.013523,0.002678,0.000431,0.014926
8830000,0.0324,0.013523,0.002678,0.000431,0.015161
8831000,0.0324,0.013523,0.002678,0.000431,0.014103
8832000,0.0324,0.013523,0.002678,0.000431,0.014103
8833000,0.0324,0.013523,0.002678,0.000431,0.014926
8834000,0.0324,0.013523,0.002678,0.000431,0.016454
8835000,0.0324,0.013523,0.002678,0.000431,0.014221
8836000,0.0324,0.013523,0.002678,0.000431,0.015161
8837000,0.0324,0.013523,0.002678,0.000431,0.014573
8838000,0.0324,0.013523,0.002678,0.000431,0.015984
8839000,0.0324,0.013523,0.002678,0.000431,0.013868
8840000,0.0324,0.013523,0.002678,0.000431,0.015514
8841000,0.0324,0.013523,0.002678,0.000431,0.016101
8842000,0.0324,0.013523,0.002678,0.000431,0.014338
8843000,0.0324,0.013523,0.002678,0.000431,0.013868
8844000,0.0324,0.013523,0.002678,0.000431,0.016101
8845000,0.0324,0.013523,0.002678,0.000431,0.015514
8846000,0.0324,0.013523,0.002678,0.000431,0.014926
8847000,0.0324,0.013523,0.002678,0.000431,0.013398
8848000,0.0324,0.013523,0.002678,0.000431,0.015514
8849000,0.0324,0.013523,0.002678,0.000431,0.014338
8850000,0.0324,0.013523,0.002678,0.000431,0.014573
8851000,0.0324,0.013523,0.002678,0.000431,0.015866
8852000,0.0324,0.013523,0.002678,0.000431,0.013868
8853000,0.0324,0.013523,0.002678,0.000431,0.015984
8854000,0.0324,0.013523,0.002678,0.000431,0.013868
8855000,0.0324,0.013523,0.002678,0.000431,0.016807
8856000,0.0324,0.013523,0.002678,0.000431,0.014809
8857000,0.0324,0.013523,0.002678,0.000431,0.014456
8858000,0.0324,0.013523,0.002678,0.000431,0.014926
8859000,0.0324,0.013523,0.002678,0.000431,0.016219
8860000,0.0324,0.013523,0.002678,0.000431,0.013633
8861000,0.0324,0.013523,0.002678,0.000431,0.015161
8862000,0.0324,0.013523,0.002678,0.000431,0.015044
8863000,0.0324,0.013523,0.002678,0.000431,0.014691
8864000,0.0324,0.013523,0.002678,0.000431,0.014221
8865000,0.0324,0.013523,0.002678,0.000431,0.013868
8866000,0.0324,0.013523,0.002678,0.000431,0.014573
8867000,0.0324,0.013523,0.002678,0.000431,0.015631
8868000,0.0324,0.013523,0.002678,0.000431,0.015279
8869000,0.0324,0.013523,0.002678,0.000431,0.014221
8870000,0.0324,0.013523,0.002678,0.000431,0.014809
8871000,0.0324,0.013523,0.002678,0.000431,0.014573
8872000,0.0324,0.013523,0.002678,0.000431,0.015161
8873000,0.0324,0.013523,0.002678,0.000431,0.013516
8874000,0.0324,0.013523,0.002678,0.000431,0.014691
8875000,0.0324,0.013523,0.002678,0.000431,0.015749
8876000,0.0324,0.013523,0.002678,0.000431,0.013751
8877000,0.0324,0.013523,0.002678,0.000431,0.015396
8878000,0.0324,0.013523,0.002678,0.000431,0.014573
8879000,0.0324,0.013523,0.002678,0.000431,0.013398
8880000,0.0324,0.013523,0.002678,0.000431,0.014573
8881000,0.0324,0.013523,0.002678,0.000431,0.015514
8882000,0.0324,0.013523,0.002678,0.000431,0.015749
8883000,0.0324,0.013523,0.002678,0.000431,0.014456
8884000,0.0324,0.013523,0.002678,0.000431,0.014573
8885000,0.0324,0.013523,0.002678,0.000431,0.015279
8886000,0.0324,0.013523,0.002678,0.000431,0.015866
8887000,0.0324,0.013523,0.002678,0.000431,0.014926
8888000,0.0324,0.013523,0.002678,0.000431,0.014691
8889000,0.0324,0.013523,0.002678,0.000431,0.015514
8890000,0.0324,0.013523,0.002678,0.000431,0.013986
8891000,0.0324,0.013523,0.002678,0.000431,0.013986
8892000,0.0324,0.013523,0.002678,0.000431,0.015514
8893000,0.0324,0.013523,0.002678,0.000431,0.015161
8894000,0.0324,0.013523,0.002678,0.000431,0.013281
8895000,0.0324,0.013523,0.002678,0.000431,0.014221
8896000,0.0324,0.013523,0.002678,0.000431,0.015866
8897000,0.0324,0.013523,0.002678,0.000431,0.014221
8898000,0.0324,0.013523,0.002678,0.000431,0.014926
8899000,0.0324,0.013523,0.002678,0.000431,0.014691
8900000,0.0324,0.013523,0.002678,0.000431,0.014691
8901000,0.0324,0.013523,0.002678,0.000431,0.015279
8902000,0.0324,0.013523,0.002678,0.000431,0.015044
8903000,0.0324,0.013523,0.002678,0.000431,0.015044
8904000,0.0324,0.013523,0.002678,0.000431,0.015631
8905000,0.0324,0.013523,0.002678,0.000431,0.015749
8906000,0.0324,0.013523,0.002678,0.000431,0.015161
8907000,0.0324,0.013523,0.002678,0.000431,0.013751
8908000,0.0324,0.013523,0.002678,0.000431,0.015161
8909000,0.0324,0.013523,0.002678,0.000431,0.013633
8910000,0.0324,0.013523,0.002678,0.000431,0.014691
8911000,0.0324,0.013523,0.002678,0.000431,0.014691
8912000,0.0324,0.013523,0.002678,0.000431,0.015631
8913000,0.0324,0.013523,0.002678,0.000431,0.015396
8914000,0.0324,0.013523,0.002678,0.000431,0.014221
8915000,0.0324,0.013523,0.002678,0.000431,0.016336
8916000,0.0324,0.013523,0.002678,0.000431,0.014573
8917000,0.0324,0.013523,0.002678,0.000431,0.013868
8918000,0.0324,0.013523,0.002678,0.000431,0.014809
8919000,0.0324,0.013523,0.002678,0.000431,0.014926
8920000,0.0324,0.013523,0.002678,0.000431,0.014809
8921000,0.0324,0.013523,0.002678,0.000431,0.014221
8922000,0.0324,0.013523,0.002678,0.000431,0.014456
8923000,0.0324,0.013523,0.002678,0.000431,0.014926
8924000,0.0324,0.013523,0.002678,0.000431,0.014926
8925000,0.0324,0.013523,0.002678,0.000431,0.013516
8926000,0.0324,0.013523,0.002678,0.000431,0.015514
8927000,0.0324,0.013523,0.002678,0.000431,0.015044
8928000,0.0324,0.013523,0.002678,0.000431,0.013986
8929000,0.0324,0.013523,0.002678,0.000431,0.015161
8930000,0.0324,0.013523,0.002678,0.000431,0.016219
8931000,0.0324,0.013523,0.002678,0.000431,0.013398
8932000,0.0324,0.013523,0.002678,0.000431,0.014691
8933000,0.0324,0.013523,0.002678,0.000431,0.014691
8934000,0.0324,0.013523,0.002678,0.000431,0.014338
8935000,0.0324,0.013523,0.002678,0.000431,0.015866
8936000,0.0324,0.013523,0.002678,0.000431,0.015396
8937000,0.0324,0.013523,0.002678,0.000431,0.015396
8938000,0.0324,0.013523,0.002678,0.000431,0.015161
8939000,0.0324,0.013523,0.002678,0.000431,0.015514
8940000,0.0324,0.013523,0.002678,0.000431,0.014456
8941000,0.0324,0.013523,0.002678,0.000431,0.015514
8942000,0.0324,0.013523,0.002678,0.000431,0.014573
8943000,0.0324,0.013523,0.002678,0.000431,0.014809
8944000,0.0324,0.013523,0.002678,0.000431,0.015866
8945000,0.0324,0.013523,0.002678,0.000431,0.013986
8946000,0.0324,0.013523,0.002678,0.000431,0.015279
8947000,0.0324,0.013523,0.002678,0.000431,0.014573
8948000,0.0324,0.013523,0.002678,0.000431,0.013633
8949000,0.0324,0.013523,0.002678,0.000431,0.016101
8950000,0.0324,0.013523,0.002678,0.000431,0.014338
8951000,0.0324,0.013523,0.002678,0.000431,0.014809
8952000,0.0324,0.013523,0.002678,0.000431,0.015044
8953000,0.0324,0.013523,0.002678,0.000431,0.013986
8954000,0.0324,0.013523,0.002678,0.000431,0.014809
8955000,0.0324,0.013523,0.002678,0.000431,0.014338
8956000,0.0324,0.013523,0.002678,0.000431,0.015749
8957000,0.0324,0.013523,0.002678,0.000431,0.014809
8958000,0.0324,0.013523,0.002678,0.000431,0.014221
8959000,0.0324,0.013523,0.002678,0.000431,0.014456
8960000,0.0324,0.013523,0.002678,0.000431,0.015279
8961000,0.0324,0.013523,0.002678,0.000431,0.015514
8962000,0.0324,0.013523,0.002678,0.000431,0.013751
8963000,0.0324,0.013523,0.002678,0.000431,0.015631
8964000,0.0324,0.013523,0.002678,0.000431,0.014926
8965000,0.0324,0.013523,0.002678,0.000431,0.015396
8966000,0.0324,0.013523,0.002678,0.000431,0.015749
8967000,0.0324,0.013523,0.002678,0.000431,0.014573
8968000,0.0324,0.013523,0.002678,0.000431,0.013986
8969000,0.0324,0.013523,0.002678,0.000431,0.014338
8970000,0.0324,0.013523,0.002678,0.000431,0.014573
8971000,0.0324,0.013523,0.002678,0.000431,0.016101
8972000,0.0324,0.013523,0.002678,0.000431,0.015749
8973000,0.0324,0.013523,0.002678,0.000431,0.014338
8974000,0.0324,0.013523,0.002678,0.000431,0.015044
8975000,0.0324,0.013523,0.002678,0.000431,0.013633
8976000,0.0324,0.013523,0.002678,0.000431,0.014338
8977000,0.0324,0.013523,0.002678,0.000431,0.014103
8978000,0.0324,0.013523,0.002678,0.000431,0.015514
8979000,0.0324,0.013523,0.002678,0.000431,0.014221
8980000,0.0324,0.013523,0.002678,0.000431,0.015044
8981000,0.0324,0.013523,0.002678,0.000431,0.014926
8982000,0.0324,0.013523,0.002678,0.000431,0.015514
8983000,0.0324,0.013523,0.002678,0.000431,0.014809
8984000,0.0324,0.013523,0.002678,0.000431,0.014338
8985000,0.0324,0.013523,0.002678,0.000431,0.015161
8986000,0.0324,0.013523,0.002678,0.000431,0.016101
8987000,0.0324,0.013523,0.002678,0.000431,0.014573
8988000,0.0324,0.013523,0.002678,0.000431,0.013986
8989000,0.0324,0.013523,0.002678,0.000431,0.014573
8990000,0.0324,0.013523,0.002678,0.000431,0.014926
8991000,0.0324,0.013523,0.002678,0.000431,0.015279
8992000,0.0324,0.013523,0.002678,0.000431,0.015749
8993000,0.0324,0.013523,0.002678,0.000431,0.014926
8994000,0.0324,0.013523,0.002678,0.000431,0.014573
8995000,0.0324,0.013523,0.002678,0.000431,0.013751
8996000,0.0324,0.013523,0.002678,0.000431,0.015866
8997000,0.0324,0.013523,0.002678,0.000431,0.014221
8998000,0.0324,0.013523,0.002678,0.000431,0.014573
8999000,0.0324,0.013523,0.002678,0.000431,0.015514
