Cycle,Area(mm^2),PeakDynamic(W),SubthresholdLeakage(W),GateLeakage(W),RunTimeDynamic(W)
13000000,0.0324,0.013523,0.002678,0.000431,0.008345
13001000,0.0324,0.013523,0.002678,0.000431,0.009167
13002000,0.0324,0.013523,0.002678,0.000431,0.009050
13003000,0.0324,0.013523,0.002678,0.000431,0.009520
13004000,0.0324,0.013523,0.002678,0.000431,0.008227
13005000,0.0324,0.013523,0.002678,0.000431,0.009402
13006000,0.0324,0.013523,0.002678,0.000431,0.009167
13007000,0.0324,0.013523,0.002678,0.000431,0.007992
13008000,0.0324,0.013523,0.002678,0.000431,0.009285
13009000,0.0324,0.013523,0.002678,0.000431,0.008697
13010000,0.0324,0.013523,0.002678,0.000431,0.010107
13011000,0.0324,0.013523,0.002678,0.000431,0.007992
13012000,0.0324,0.013523,0.002678,0.000431,0.008462
13013000,0.0324,0.013523,0.002678,0.000431,0.009167
13014000,0.0324,0.013523,0.002678,0.000431,0.009402
13015000,0.0324,0.013523,0.002678,0.000431,0.008345
13016000,0.0324,0.013523,0.002678,0.000431,0.008697
13017000,0.0324,0.013523,0.002678,0.000431,0.009402
13018000,0.0324,0.013523,0.002678,0.000431,0.008462
13019000,0.0324,0.013523,0.002678,0.000431,0.008462
13020000,0.0324,0.013523,0.002678,0.000431,0.009050
13021000,0.0324,0.013523,0.002678,0.000431,0.008227
13022000,0.0324,0.013523,0.002678,0.000431,0.009520
13023000,0.0324,0.013523,0.002678,0.000431,0.008580
13024000,0.0324,0.013523,0.002678,0.000431,0.008932
13025000,0.0324,0.013523,0.002678,0.000431,0.009285
13026000,0.0324,0.013523,0.002678,0.000431,0.008345
13027000,0.0324,0.013523,0.002678,0.000431,0.009050
13028000,0.0324,0.013523,0.002678,0.000431,0.008815
13029000,0.0324,0.013523,0.002678,0.000431,0.009402
13030000,0.0324,0.013523,0.002678,0.000431,0.008345
13031000,0.0324,0.013523,0.002678,0.000431,0.009285
13032000,0.0324,0.013523,0.002678,0.000431,0.008109
13033000,0.0324,0.013523,0.002678,0.000431,0.009755
13034000,0.0324,0.013523,0.002678,0.000431,0.009167
13035000,0.0324,0.013523,0.002678,0.000431,0.007757
13036000,0.0324,0.013523,0.002678,0.000431,0.009050
13037000,0.0324,0.013523,0.002678,0.000431,0.009872
13038000,0.0324,0.013523,0.002678,0.000431,0.007522
13039000,0.0324,0.013523,0.002678,0.000431,0.008227
13040000,0.0324,0.013523,0.002678,0.000431,0.010225
13041000,0.0324,0.013523,0.002678,0.000431,0.007992
13042000,0.0324,0.013523,0.002678,0.000431,0.009990
13043000,0.0324,0.013523,0.002678,0.000431,0.007992
13044000,0.0324,0.013523,0.002678,0.000431,0.008815
13045000,0.0324,0.013523,0.002678,0.000431,0.009167
13046000,0.0324,0.013523,0.002678,0.000431,0.008815
13047000,0.0324,0.013523,0.002678,0.000431,0.008815
13048000,0.0324,0.013523,0.002678,0.000431,0.009285
13049000,0.0324,0.013523,0.002678,0.000431,0.007287
13050000,0.0324,0.013523,0.002678,0.000431,0.008462
13051000,0.0324,0.013523,0.002678,0.000431,0.009285
13052000,0.0324,0.013523,0.002678,0.000431,0.008109
13053000,0.0324,0.013523,0.002678,0.000431,0.008815
13054000,0.0324,0.013523,0.002678,0.000431,0.008815
13055000,0.0324,0.013523,0.002678,0.000431,0.008580
13056000,0.0324,0.013523,0.002678,0.000431,0.008227
13057000,0.0324,0.013523,0.002678,0.000431,0.009167
13058000,0.0324,0.013523,0.002678,0.000431,0.008580
13059000,0.0324,0.013523,0.002678,0.000431,0.008815
13060000,0.0324,0.013523,0.002678,0.000431,0.009167
13061000,0.0324,0.013523,0.002678,0.000431,0.009167
13062000,0.0324,0.013523,0.002678,0.000431,0.007874
13063000,0.0324,0.013523,0.002678,0.000431,0.009167
13064000,0.0324,0.013523,0.002678,0.000431,0.008227
13065000,0.0324,0.013523,0.002678,0.000431,0.007992
13066000,0.0324,0.013523,0.002678,0.000431,0.009050
13067000,0.0324,0.013523,0.002678,0.000431,0.008109
13068000,0.0324,0.013523,0.002678,0.000431,0.008932
13069000,0.0324,0.013523,0.002678,0.000431,0.008109
13070000,0.0324,0.013523,0.002678,0.000431,0.009872
13071000,0.0324,0.013523,0.002678,0.000431,0.008580
13072000,0.0324,0.013523,0.002678,0.000431,0.008345
13073000,0.0324,0.013523,0.002678,0.000431,0.008462
13074000,0.0324,0.013523,0.002678,0.000431,0.009285
13075000,0.0324,0.013523,0.002678,0.000431,0.008815
13076000,0.0324,0.013523,0.002678,0.000431,0.008345
13077000,0.0324,0.013523,0.002678,0.000431,0.008580
13078000,0.0324,0.013523,0.002678,0.000431,0.008932
13079000,0.0324,0.013523,0.002678,0.000431,0.008109
13080000,0.0324,0.013523,0.002678,0.000431,0.008109
13081000,0.0324,0.013523,0.002678,0.000431,0.010578
13082000,0.0324,0.013523,0.002678,0.000431,0.008345
13083000,0.0324,0.013523,0.002678,0.000431,0.009167
13084000,0.0324,0.013523,0.002678,0.000431,0.009285
13085000,0.0324,0.013523,0.002678,0.000431,0.009520
13086000,0.0324,0.013523,0.002678,0.000431,0.007522
13087000,0.0324,0.013523,0.002678,0.000431,0.008932
13088000,0.0324,0.013523,0.002678,0.000431,0.009285
13089000,0.0324,0.013523,0.002678,0.000431,0.009167
13090000,0.0324,0.013523,0.002678,0.000431,0.008815
13091000,0.0324,0.013523,0.002678,0.000431,0.008345
13092000,0.0324,0.013523,0.002678,0.000431,0.008345
13093000,0.0324,0.013523,0.002678,0.000431,0.009167
13094000,0.0324,0.013523,0.002678,0.000431,0.008815
13095000,0.0324,0.013523,0.002678,0.000431,0.008345
13096000,0.0324,0.013523,0.002678,0.000431,0.009637
13097000,0.0324,0.013523,0.002678,0.000431,0.009050
13098000,0.0324,0.013523,0.002678,0.000431,0.008580
13099000,0.0324,0.013523,0.002678,0.000431,0.008109
13100000,0.0324,0.013523,0.002678,0.000431,0.009050
13101000,0.0324,0.013523,0.002678,0.000431,0.008462
13102000,0.0324,0.013523,0.002678,0.000431,0.009402
13103000,0.0324,0.013523,0.002678,0.000431,0.008462
13104000,0.0324,0.013523,0.002678,0.000431,0.008580
13105000,0.0324,0.013523,0.002678,0.000431,0.009402
13106000,0.0324,0.013523,0.002678,0.000431,0.008580
13107000,0.0324,0.013523,0.002678,0.000431,0.009050
13108000,0.0324,0.013523,0.002678,0.000431,0.008345
13109000,0.0324,0.013523,0.002678,0.000431,0.008815
13110000,0.0324,0.013523,0.002678,0.000431,0.007874
13111000,0.0324,0.013523,0.002678,0.000431,0.008697
13112000,0.0324,0.013523,0.002678,0.000431,0.008815
13113000,0.0324,0.013523,0.002678,0.000431,0.008345
13114000,0.0324,0.013523,0.002678,0.000431,0.008932
13115000,0.0324,0.013523,0.002678,0.000431,0.008227
13116000,0.0324,0.013523,0.002678,0.000431,0.008580
13117000,0.0324,0.013523,0.002678,0.000431,0.008697
13118000,0.0324,0.013523,0.002678,0.000431,0.008227
13119000,0.0324,0.013523,0.002678,0.000431,0.009755
13120000,0.0324,0.013523,0.002678,0.000431,0.008815
13121000,0.0324,0.013523,0.002678,0.000431,0.008697
13122000,0.0324,0.013523,0.002678,0.000431,0.008227
13123000,0.0324,0.013523,0.002678,0.000431,0.009167
13124000,0.0324,0.013523,0.002678,0.000431,0.008580
13125000,0.0324,0.013523,0.002678,0.000431,0.007522
13126000,0.0324,0.013523,0.002678,0.000431,0.009402
13127000,0.0324,0.013523,0.002678,0.000431,0.008345
13128000,0.0324,0.013523,0.002678,0.000431,0.008109
13129000,0.0324,0.013523,0.002678,0.000431,0.009520
13130000,0.0324,0.013523,0.002678,0.000431,0.008815
13131000,0.0324,0.013523,0.002678,0.000431,0.008227
13132000,0.0324,0.013523,0.002678,0.000431,0.008697
13133000,0.0324,0.013523,0.002678,0.000431,0.008462
13134000,0.0324,0.013523,0.002678,0.000431,0.008462
13135000,0.0324,0.013523,0.002678,0.000431,0.008815
13136000,0.0324,0.013523,0.002678,0.000431,0.008815
13137000,0.0324,0.013523,0.002678,0.000431,0.007169
13138000,0.0324,0.013523,0.002678,0.000431,0.009637
13139000,0.0324,0.013523,0.002678,0.000431,0.008815
13140000,0.0324,0.013523,0.002678,0.000431,0.008345
13141000,0.0324,0.013523,0.002678,0.000431,0.009520
13142000,0.0324,0.013523,0.002678,0.000431,0.008580
13143000,0.0324,0.013523,0.002678,0.000431,0.009285
13144000,0.0324,0.013523,0.002678,0.000431,0.008580
13145000,0.0324,0.013523,0.002678,0.000431,0.008932
13146000,0.0324,0.013523,0.002678,0.000431,0.008815
13147000,0.0324,0.013523,0.002678,0.000431,0.008227
13148000,0.0324,0.013523,0.002678,0.000431,0.008932
13149000,0.0324,0.013523,0.002678,0.000431,0.007874
13150000,0.0324,0.013523,0.002678,0.000431,0.008345
13151000,0.0324,0.013523,0.002678,0.000431,0.009402
13152000,0.0324,0.013523,0.002678,0.000431,0.008345
13153000,0.0324,0.013523,0.002678,0.000431,0.008697
13154000,0.0324,0.013523,0.002678,0.000431,0.007874
13155000,0.0324,0.013523,0.002678,0.000431,0.008109
13156000,0.0324,0.013523,0.002678,0.000431,0.007874
13157000,0.0324,0.013523,0.002678,0.000431,0.008815
13158000,0.0324,0.013523,0.002678,0.000431,0.008227
13159000,0.0324,0.013523,0.002678,0.000431,0.008462
13160000,0.0324,0.013523,0.002678,0.000431,0.009285
13161000,0.0324,0.013523,0.002678,0.000431,0.007287
13162000,0.0324,0.013523,0.002678,0.000431,0.007757
13163000,0.0324,0.013523,0.002678,0.000431,0.007992
13164000,0.0324,0.013523,0.002678,0.000431,0.008109
13165000,0.0324,0.013523,0.002678,0.000431,0.008815
13166000,0.0324,0.013523,0.002678,0.000431,0.007404
13167000,0.0324,0.013523,0.002678,0.000431,0.008462
13168000,0.0324,0.013523,0.002678,0.000431,0.007992
13169000,0.0324,0.013523,0.002678,0.000431,0.008345
13170000,0.0324,0.013523,0.002678,0.000431,0.008462
13171000,0.0324,0.013523,0.002678,0.000431,0.007522
13172000,0.0324,0.013523,0.002678,0.000431,0.009050
13173000,0.0324,0.013523,0.002678,0.000431,0.008697
13174000,0.0324,0.013523,0.002678,0.000431,0.007874
13175000,0.0324,0.013523,0.002678,0.000431,0.008345
13176000,0.0324,0.013523,0.002678,0.000431,0.007992
13177000,0.0324,0.013523,0.002678,0.000431,0.008932
13178000,0.0324,0.013523,0.002678,0.000431,0.007874
13179000,0.0324,0.013523,0.002678,0.000431,0.008227
13180000,0.0324,0.013523,0.002678,0.000431,0.008462
13181000,0.0324,0.013523,0.002678,0.000431,0.008815
13182000,0.0324,0.013523,0.002678,0.000431,0.008345
13183000,0.0324,0.013523,0.002678,0.000431,0.008580
13184000,0.0324,0.013523,0.002678,0.000431,0.008109
13185000,0.0324,0.013523,0.002678,0.000431,0.007874
13186000,0.0324,0.013523,0.002678,0.000431,0.008345
13187000,0.0324,0.013523,0.002678,0.000431,0.009050
13188000,0.0324,0.013523,0.002678,0.000431,0.008697
13189000,0.0324,0.013523,0.002678,0.000431,0.008345
13190000,0.0324,0.013523,0.002678,0.000431,0.008462
13191000,0.0324,0.013523,0.002678,0.000431,0.008227
13192000,0.0324,0.013523,0.002678,0.000431,0.008697
13193000,0.0324,0.013523,0.002678,0.000431,0.008227
13194000,0.0324,0.013523,0.002678,0.000431,0.008815
13195000,0.0324,0.013523,0.002678,0.000431,0.008815
13196000,0.0324,0.013523,0.002678,0.000431,0.008580
13197000,0.0324,0.013523,0.002678,0.000431,0.008227
13198000,0.0324,0.013523,0.002678,0.000431,0.009050
13199000,0.0324,0.013523,0.002678,0.000431,0.008227
13200000,0.0324,0.013523,0.002678,0.000431,0.008227
13201000,0.0324,0.013523,0.002678,0.000431,0.008109
13202000,0.0324,0.013523,0.002678,0.000431,0.007992
13203000,0.0324,0.013523,0.002678,0.000431,0.008815
13204000,0.0324,0.013523,0.002678,0.000431,0.007757
13205000,0.0324,0.013523,0.002678,0.000431,0.008462
13206000,0.0324,0.013523,0.002678,0.000431,0.008697
13207000,0.0324,0.013523,0.002678,0.000431,0.008462
13208000,0.0324,0.013523,0.002678,0.000431,0.008345
13209000,0.0324,0.013523,0.002678,0.000431,0.008462
13210000,0.0324,0.013523,0.002678,0.000431,0.008815
13211000,0.0324,0.013523,0.002678,0.000431,0.008815
13212000,0.0324,0.013523,0.002678,0.000431,0.009167
13213000,0.0324,0.013523,0.002678,0.000431,0.008345
13214000,0.0324,0.013523,0.002678,0.000431,0.008462
13215000,0.0324,0.013523,0.002678,0.000431,0.008932
13216000,0.0324,0.013523,0.002678,0.000431,0.008227
13217000,0.0324,0.013523,0.002678,0.000431,0.008345
13218000,0.0324,0.013523,0.002678,0.000431,0.008345
13219000,0.0324,0.013523,0.002678,0.000431,0.008109
13220000,0.0324,0.013523,0.002678,0.000431,0.008462
13221000,0.0324,0.013523,0.002678,0.000431,0.008932
13222000,0.0324,0.013523,0.002678,0.000431,0.008227
13223000,0.0324,0.013523,0.002678,0.000431,0.007992
13224000,0.0324,0.013523,0.002678,0.000431,0.008345
13225000,0.0324,0.013523,0.002678,0.000431,0.007757
13226000,0.0324,0.013523,0.002678,0.000431,0.007992
13227000,0.0324,0.013523,0.002678,0.000431,0.007874
13228000,0.0324,0.013523,0.002678,0.000431,0.008697
13229000,0.0324,0.013523,0.002678,0.000431,0.007874
13230000,0.0324,0.013523,0.002678,0.000431,0.007992
13231000,0.0324,0.013523,0.002678,0.000431,0.007404
13232000,0.0324,0.013523,0.002678,0.000431,0.008932
13233000,0.0324,0.013523,0.002678,0.000431,0.008580
13234000,0.0324,0.013523,0.002678,0.000431,0.008697
13235000,0.0324,0.013523,0.002678,0.000431,0.008580
13236000,0.0324,0.013523,0.002678,0.000431,0.008227
13237000,0.0324,0.013523,0.002678,0.000431,0.008815
13238000,0.0324,0.013523,0.002678,0.000431,0.008109
13239000,0.0324,0.013523,0.002678,0.000431,0.008697
13240000,0.0324,0.013523,0.002678,0.000431,0.008697
13241000,0.0324,0.013523,0.002678,0.000431,0.008227
13242000,0.0324,0.013523,0.002678,0.000431,0.008815
13243000,0.0324,0.013523,0.002678,0.000431,0.007874
13244000,0.0324,0.013523,0.002678,0.000431,0.007874
13245000,0.0324,0.013523,0.002678,0.000431,0.008815
13246000,0.0324,0.013523,0.002678,0.000431,0.007404
13247000,0.0324,0.013523,0.002678,0.000431,0.008345
13248000,0.0324,0.013523,0.002678,0.000431,0.007757
13249000,0.0324,0.013523,0.002678,0.000431,0.008109
13250000,0.0324,0.013523,0.002678,0.000431,0.007874
13251000,0.0324,0.013523,0.002678,0.000431,0.007992
13252000,0.0324,0.013523,0.002678,0.000431,0.008227
13253000,0.0324,0.013523,0.002678,0.000431,0.007874
13254000,0.0324,0.013523,0.002678,0.000431,0.008580
13255000,0.0324,0.013523,0.002678,0.000431,0.008580
13256000,0.0324,0.013523,0.002678,0.000431,0.007639
13257000,0.0324,0.013523,0.002678,0.000431,0.008932
13258000,0.0324,0.013523,0.002678,0.000431,0.008932
13259000,0.0324,0.013523,0.002678,0.000431,0.008580
13260000,0.0324,0.013523,0.002678,0.000431,0.009050
13261000,0.0324,0.013523,0.002678,0.000431,0.007757
13262000,0.0324,0.013523,0.002678,0.000431,0.008345
13263000,0.0324,0.013523,0.002678,0.000431,0.008345
13264000,0.0324,0.013523,0.002678,0.000431,0.008345
13265000,0.0324,0.013523,0.002678,0.000431,0.007992
13266000,0.0324,0.013523,0.002678,0.000431,0.007404
13267000,0.0324,0.013523,0.002678,0.000431,0.008345
13268000,0.0324,0.013523,0.002678,0.000431,0.008109
13269000,0.0324,0.013523,0.002678,0.000431,0.008932
13270000,0.0324,0.013523,0.002678,0.000431,0.008932
13271000,0.0324,0.013523,0.002678,0.000431,0.007639
13272000,0.0324,0.013523,0.002678,0.000431,0.009167
13273000,0.0324,0.013523,0.002678,0.000431,0.008815
13274000,0.0324,0.013523,0.002678,0.000431,0.007639
13275000,0.0324,0.013523,0.002678,0.000431,0.008462
13276000,0.0324,0.013523,0.002678,0.000431,0.008109
13277000,0.0324,0.013523,0.002678,0.000431,0.008580
13278000,0.0324,0.013523,0.002678,0.000431,0.007992
13279000,0.0324,0.013523,0.002678,0.000431,0.008227
13280000,0.0324,0.013523,0.002678,0.000431,0.007757
13281000,0.0324,0.013523,0.002678,0.000431,0.008345
13282000,0.0324,0.013523,0.002678,0.000431,0.008815
13283000,0.0324,0.013523,0.002678,0.000431,0.007992
13284000,0.0324,0.013523,0.002678,0.000431,0.008227
13285000,0.0324,0.013523,0.002678,0.000431,0.007874
13286000,0.0324,0.013523,0.002678,0.000431,0.008227
13287000,0.0324,0.013523,0.002678,0.000431,0.008815
13288000,0.0324,0.013523,0.002678,0.000431,0.007992
13289000,0.0324,0.013523,0.002678,0.000431,0.008345
13290000,0.0324,0.013523,0.002678,0.000431,0.007639
13291000,0.0324,0.013523,0.002678,0.000431,0.008697
13292000,0.0324,0.013523,0.002678,0.000431,0.009167
13293000,0.0324,0.013523,0.002678,0.000431,0.007874
13294000,0.0324,0.013523,0.002678,0.000431,0.008345
13295000,0.0324,0.013523,0.002678,0.000431,0.008462
13296000,0.0324,0.013523,0.002678,0.000431,0.008697
13297000,0.0324,0.013523,0.002678,0.000431,0.007169
13298000,0.0324,0.013523,0.002678,0.000431,0.008109
13299000,0.0324,0.013523,0.002678,0.000431,0.008462
13300000,0.0324,0.013523,0.002678,0.000431,0.009402
13301000,0.0324,0.013523,0.002678,0.000431,0.007992
13302000,0.0324,0.013523,0.002678,0.000431,0.008109
13303000,0.0324,0.013523,0.002678,0.000431,0.008580
13304000,0.0324,0.013523,0.002678,0.000431,0.008109
13305000,0.0324,0.013523,0.002678,0.000431,0.008580
13306000,0.0324,0.013523,0.002678,0.000431,0.008580
13307000,0.0324,0.013523,0.002678,0.000431,0.007757
13308000,0.0324,0.013523,0.002678,0.000431,0.008109
13309000,0.0324,0.013523,0.002678,0.000431,0.008227
13310000,0.0324,0.013523,0.002678,0.000431,0.008815
13311000,0.0324,0.013523,0.002678,0.000431,0.008580
13312000,0.0324,0.013523,0.002678,0.000431,0.007874
13313000,0.0324,0.013523,0.002678,0.000431,0.007757
13314000,0.0324,0.013523,0.002678,0.000431,0.007522
13315000,0.0324,0.013523,0.002678,0.000431,0.008697
13316000,0.0324,0.013523,0.002678,0.000431,0.008227
13317000,0.0324,0.013523,0.002678,0.000431,0.008932
13318000,0.0324,0.013523,0.002678,0.000431,0.007639
13319000,0.0324,0.013523,0.002678,0.000431,0.007404
13320000,0.0324,0.013523,0.002678,0.000431,0.009285
13321000,0.0324,0.013523,0.002678,0.000431,0.007522
13322000,0.0324,0.013523,0.002678,0.000431,0.008932
13323000,0.0324,0.013523,0.002678,0.000431,0.007757
13324000,0.0324,0.013523,0.002678,0.000431,0.008345
13325000,0.0324,0.013523,0.002678,0.000431,0.007287
13326000,0.0324,0.013523,0.002678,0.000431,0.008815
13327000,0.0324,0.013523,0.002678,0.000431,0.008815
13328000,0.0324,0.013523,0.002678,0.000431,0.007522
13329000,0.0324,0.013523,0.002678,0.000431,0.007757
13330000,0.0324,0.013523,0.002678,0.000431,0.008462
13331000,0.0324,0.013523,0.002678,0.000431,0.008109
13332000,0.0324,0.013523,0.002678,0.000431,0.007992
13333000,0.0324,0.013523,0.002678,0.000431,0.008697
13334000,0.0324,0.013523,0.002678,0.000431,0.008697
13335000,0.0324,0.013523,0.002678,0.000431,0.007757
13336000,0.0324,0.013523,0.002678,0.000431,0.008580
13337000,0.0324,0.013523,0.002678,0.000431,0.008227
13338000,0.0324,0.013523,0.002678,0.000431,0.008345
13339000,0.0324,0.013523,0.002678,0.000431,0.007639
13340000,0.0324,0.013523,0.002678,0.000431,0.008109
13341000,0.0324,0.013523,0.002678,0.000431,0.008462
13342000,0.0324,0.013523,0.002678,0.000431,0.007522
13343000,0.0324,0.013523,0.002678,0.000431,0.008227
13344000,0.0324,0.013523,0.002678,0.000431,0.008109
13345000,0.0324,0.013523,0.002678,0.000431,0.008109
13346000,0.0324,0.013523,0.002678,0.000431,0.009167
13347000,0.0324,0.013523,0.002678,0.000431,0.009285
13348000,0.0324,0.013523,0.002678,0.000431,0.008227
13349000,0.0324,0.013523,0.002678,0.000431,0.008109
13350000,0.0324,0.013523,0.002678,0.000431,0.008697
13351000,0.0324,0.013523,0.002678,0.000431,0.008109
13352000,0.0324,0.013523,0.002678,0.000431,0.008815
13353000,0.0324,0.013523,0.002678,0.000431,0.007992
13354000,0.0324,0.013523,0.002678,0.000431,0.009050
13355000,0.0324,0.013523,0.002678,0.000431,0.007874
13356000,0.0324,0.013523,0.002678,0.000431,0.008462
13357000,0.0324,0.013523,0.002678,0.000431,0.009167
13358000,0.0324,0.013523,0.002678,0.000431,0.007757
13359000,0.0324,0.013523,0.002678,0.000431,0.009050
13360000,0.0324,0.013523,0.002678,0.000431,0.008815
13361000,0.0324,0.013523,0.002678,0.000431,0.008345
13362000,0.0324,0.013523,0.002678,0.000431,0.008227
13363000,0.0324,0.013523,0.002678,0.000431,0.008697
13364000,0.0324,0.013523,0.002678,0.000431,0.009285
13365000,0.0324,0.013523,0.002678,0.000431,0.008815
13366000,0.0324,0.013523,0.002678,0.000431,0.008345
13367000,0.0324,0.013523,0.002678,0.000431,0.008815
13368000,0.0324,0.013523,0.002678,0.000431,0.007992
13369000,0.0324,0.013523,0.002678,0.000431,0.009285
13370000,0.0324,0.013523,0.002678,0.000431,0.008345
13371000,0.0324,0.013523,0.002678,0.000431,0.008580
13372000,0.0324,0.013523,0.002678,0.000431,0.007757
13373000,0.0324,0.013523,0.002678,0.000431,0.008932
13374000,0.0324,0.013523,0.002678,0.000431,0.008697
13375000,0.0324,0.013523,0.002678,0.000431,0.007757
13376000,0.0324,0.013523,0.002678,0.000431,0.008109
13377000,0.0324,0.013523,0.002678,0.000431,0.009050
13378000,0.0324,0.013523,0.002678,0.000431,0.008697
13379000,0.0324,0.013523,0.002678,0.000431,0.007639
13380000,0.0324,0.013523,0.002678,0.000431,0.008345
13381000,0.0324,0.013523,0.002678,0.000431,0.009050
13382000,0.0324,0.013523,0.002678,0.000431,0.008697
13383000,0.0324,0.013523,0.002678,0.000431,0.008462
13384000,0.0324,0.013523,0.002678,0.000431,0.008580
13385000,0.0324,0.013523,0.002678,0.000431,0.006934
13386000,0.0324,0.013523,0.002678,0.000431,0.009050
13387000,0.0324,0.013523,0.002678,0.000431,0.007639
13388000,0.0324,0.013523,0.002678,0.000431,0.007874
13389000,0.0324,0.013523,0.002678,0.000431,0.007287
13390000,0.0324,0.013523,0.002678,0.000431,0.007874
13391000,0.0324,0.013523,0.002678,0.000431,0.009402
13392000,0.0324,0.013523,0.002678,0.000431,0.008462
13393000,0.0324,0.013523,0.002678,0.000431,0.007992
13394000,0.0324,0.013523,0.002678,0.000431,0.008932
13395000,0.0324,0.013523,0.002678,0.000431,0.007992
13396000,0.0324,0.013523,0.002678,0.000431,0.008345
13397000,0.0324,0.013523,0.002678,0.000431,0.008109
13398000,0.0324,0.013523,0.002678,0.000431,0.008815
13399000,0.0324,0.013523,0.002678,0.000431,0.007757
13400000,0.0324,0.013523,0.002678,0.000431,0.008697
13401000,0.0324,0.013523,0.002678,0.000431,0.008580
13402000,0.0324,0.013523,0.002678,0.000431,0.007992
13403000,0.0324,0.013523,0.002678,0.000431,0.008697
13404000,0.0324,0.013523,0.002678,0.000431,0.008462
13405000,0.0324,0.013523,0.002678,0.000431,0.008580
13406000,0.0324,0.013523,0.002678,0.000431,0.008109
13407000,0.0324,0.013523,0.002678,0.000431,0.009050
13408000,0.0324,0.013523,0.002678,0.000431,0.008697
13409000,0.0324,0.013523,0.002678,0.000431,0.007639
13410000,0.0324,0.013523,0.002678,0.000431,0.008345
13411000,0.0324,0.013523,0.002678,0.000431,0.008815
13412000,0.0324,0.013523,0.002678,0.000431,0.007992
13413000,0.0324,0.013523,0.002678,0.000431,0.008815
13414000,0.0324,0.013523,0.002678,0.000431,0.008580
13415000,0.0324,0.013523,0.002678,0.000431,0.008932
13416000,0.0324,0.013523,0.002678,0.000431,0.007874
13417000,0.0324,0.013523,0.002678,0.000431,0.007639
13418000,0.0324,0.013523,0.002678,0.000431,0.007169
13419000,0.0324,0.013523,0.002678,0.000431,0.007757
13420000,0.0324,0.013523,0.002678,0.000431,0.007992
13421000,0.0324,0.013523,0.002678,0.000431,0.008227
13422000,0.0324,0.013523,0.002678,0.000431,0.007757
13423000,0.0324,0.013523,0.002678,0.000431,0.008462
13424000,0.0324,0.013523,0.002678,0.000431,0.008697
13425000,0.0324,0.013523,0.002678,0.000431,0.007874
13426000,0.0324,0.013523,0.002678,0.000431,0.007639
13427000,0.0324,0.013523,0.002678,0.000431,0.009167
13428000,0.0324,0.013523,0.002678,0.000431,0.009637
13429000,0.0324,0.013523,0.002678,0.000431,0.008109
13430000,0.0324,0.013523,0.002678,0.000431,0.007404
13431000,0.0324,0.013523,0.002678,0.000431,0.008580
13432000,0.0324,0.013523,0.002678,0.000431,0.007757
13433000,0.0324,0.013523,0.002678,0.000431,0.008109
13434000,0.0324,0.013523,0.002678,0.000431,0.007404
13435000,0.0324,0.013523,0.002678,0.000431,0.008697
13436000,0.0324,0.013523,0.002678,0.000431,0.007639
13437000,0.0324,0.013523,0.002678,0.000431,0.007874
13438000,0.0324,0.013523,0.002678,0.000431,0.009520
13439000,0.0324,0.013523,0.002678,0.000431,0.007052
13440000,0.0324,0.013523,0.002678,0.000431,0.007639
13441000,0.0324,0.013523,0.002678,0.000431,0.008109
13442000,0.0324,0.013523,0.002678,0.000431,0.007639
13443000,0.0324,0.013523,0.002678,0.000431,0.007874
13444000,0.0324,0.013523,0.002678,0.000431,0.008345
13445000,0.0324,0.013523,0.002678,0.000431,0.008227
13446000,0.0324,0.013523,0.002678,0.000431,0.007287
13447000,0.0324,0.013523,0.002678,0.000431,0.008462
13448000,0.0324,0.013523,0.002678,0.000431,0.009402
13449000,0.0324,0.013523,0.002678,0.000431,0.007639
13450000,0.0324,0.013523,0.002678,0.000431,0.007639
13451000,0.0324,0.013523,0.002678,0.000431,0.007522
13452000,0.0324,0.013523,0.002678,0.000431,0.008462
13453000,0.0324,0.013523,0.002678,0.000431,0.008932
13454000,0.0324,0.013523,0.002678,0.000431,0.007874
13455000,0.0324,0.013523,0.002678,0.000431,0.008462
13456000,0.0324,0.013523,0.002678,0.000431,0.008580
13457000,0.0324,0.013523,0.002678,0.000431,0.008109
13458000,0.0324,0.013523,0.002678,0.000431,0.008815
13459000,0.0324,0.013523,0.002678,0.000431,0.008815
13460000,0.0324,0.013523,0.002678,0.000431,0.007404
13461000,0.0324,0.013523,0.002678,0.000431,0.009050
13462000,0.0324,0.013523,0.002678,0.000431,0.008462
13463000,0.0324,0.013523,0.002678,0.000431,0.007992
13464000,0.0324,0.013523,0.002678,0.000431,0.008932
13465000,0.0324,0.013523,0.002678,0.000431,0.009402
13466000,0.0324,0.013523,0.002678,0.000431,0.008227
13467000,0.0324,0.013523,0.002678,0.000431,0.008345
13468000,0.0324,0.013523,0.002678,0.000431,0.009285
13469000,0.0324,0.013523,0.002678,0.000431,0.008932
13470000,0.0324,0.013523,0.002678,0.000431,0.008109
13471000,0.0324,0.013523,0.002678,0.000431,0.008345
13472000,0.0324,0.013523,0.002678,0.000431,0.009050
13473000,0.0324,0.013523,0.002678,0.000431,0.008697
13474000,0.0324,0.013523,0.002678,0.000431,0.008697
13475000,0.0324,0.013523,0.002678,0.000431,0.008697
13476000,0.0324,0.013523,0.002678,0.000431,0.007874
13477000,0.0324,0.013523,0.002678,0.000431,0.007757
13478000,0.0324,0.013523,0.002678,0.000431,0.009520
13479000,0.0324,0.013523,0.002678,0.000431,0.008227
13480000,0.0324,0.013523,0.002678,0.000431,0.007757
13481000,0.0324,0.013523,0.002678,0.000431,0.007522
13482000,0.0324,0.013523,0.002678,0.000431,0.009402
13483000,0.0324,0.013523,0.002678,0.000431,0.007639
13484000,0.0324,0.013523,0.002678,0.000431,0.008227
13485000,0.0324,0.013523,0.002678,0.000431,0.009050
13486000,0.0324,0.013523,0.002678,0.000431,0.008697
13487000,0.0324,0.013523,0.002678,0.000431,0.007874
13488000,0.0324,0.013523,0.002678,0.000431,0.009637
13489000,0.0324,0.013523,0.002678,0.000431,0.007757
13490000,0.0324,0.013523,0.002678,0.000431,0.008932
13491000,0.0324,0.013523,0.002678,0.000431,0.008815
13492000,0.0324,0.013523,0.002678,0.000431,0.008345
13493000,0.0324,0.013523,0.002678,0.000431,0.008815
13494000,0.0324,0.013523,0.002678,0.000431,0.007404
13495000,0.0324,0.013523,0.002678,0.000431,0.008697
13496000,0.0324,0.013523,0.002678,0.000431,0.008109
13497000,0.0324,0.013523,0.002678,0.000431,0.008345
13498000,0.0324,0.013523,0.002678,0.000431,0.008815
13499000,0.0324,0.013523,0.002678,0.000431,0.008345
13500000,0.0324,0.013523,0.002678,0.000431,0.008580
13501000,0.0324,0.013523,0.002678,0.000431,0.008345
13502000,0.0324,0.013523,0.002678,0.000431,0.008580
13503000,0.0324,0.013523,0.002678,0.000431,0.008227
13504000,0.0324,0.013523,0.002678,0.000431,0.009050
13505000,0.0324,0.013523,0.002678,0.000431,0.008227
13506000,0.0324,0.013523,0.002678,0.000431,0.008815
13507000,0.0324,0.013523,0.002678,0.000431,0.008109
13508000,0.0324,0.013523,0.002678,0.000431,0.008227
13509000,0.0324,0.013523,0.002678,0.000431,0.007757
13510000,0.0324,0.013523,0.002678,0.000431,0.008932
13511000,0.0324,0.013523,0.002678,0.000431,0.007992
13512000,0.0324,0.013523,0.002678,0.000431,0.008227
13513000,0.0324,0.013523,0.002678,0.000431,0.007992
13514000,0.0324,0.013523,0.002678,0.000431,0.008345
13515000,0.0324,0.013523,0.002678,0.000431,0.008345
13516000,0.0324,0.013523,0.002678,0.000431,0.007992
13517000,0.0324,0.013523,0.002678,0.000431,0.008932
13518000,0.0324,0.013523,0.002678,0.000431,0.008109
13519000,0.0324,0.013523,0.002678,0.000431,0.008109
13520000,0.0324,0.013523,0.002678,0.000431,0.008227
13521000,0.0324,0.013523,0.002678,0.000431,0.008345
13522000,0.0324,0.013523,0.002678,0.000431,0.008580
13523000,0.0324,0.013523,0.002678,0.000431,0.007992
13524000,0.0324,0.013523,0.002678,0.000431,0.007992
13525000,0.0324,0.013523,0.002678,0.000431,0.009050
13526000,0.0324,0.013523,0.002678,0.000431,0.008462
13527000,0.0324,0.013523,0.002678,0.000431,0.008227
13528000,0.0324,0.013523,0.002678,0.000431,0.008345
13529000,0.0324,0.013523,0.002678,0.000431,0.008932
13530000,0.0324,0.013523,0.002678,0.000431,0.007757
13531000,0.0324,0.013523,0.002678,0.000431,0.008815
13532000,0.0324,0.013523,0.002678,0.000431,0.007992
13533000,0.0324,0.013523,0.002678,0.000431,0.007522
13534000,0.0324,0.013523,0.002678,0.000431,0.008932
13535000,0.0324,0.013523,0.002678,0.000431,0.007522
13536000,0.0324,0.013523,0.002678,0.000431,0.007874
13537000,0.0324,0.013523,0.002678,0.000431,0.008697
13538000,0.0324,0.013523,0.002678,0.000431,0.008580
13539000,0.0324,0.013523,0.002678,0.000431,0.008462
13540000,0.0324,0.013523,0.002678,0.000431,0.008932
13541000,0.0324,0.013523,0.002678,0.000431,0.008109
13542000,0.0324,0.013523,0.002678,0.000431,0.009050
13543000,0.0324,0.013523,0.002678,0.000431,0.008227
13544000,0.0324,0.013523,0.002678,0.000431,0.008815
13545000,0.0324,0.013523,0.002678,0.000431,0.008227
13546000,0.0324,0.013523,0.002678,0.000431,0.008345
13547000,0.0324,0.013523,0.002678,0.000431,0.008697
13548000,0.0324,0.013523,0.002678,0.000431,0.007639
13549000,0.0324,0.013523,0.002678,0.000431,0.008580
13550000,0.0324,0.013523,0.002678,0.000431,0.008227
13551000,0.0324,0.013523,0.002678,0.000431,0.008580
13552000,0.0324,0.013523,0.002678,0.000431,0.007874
13553000,0.0324,0.013523,0.002678,0.000431,0.007874
13554000,0.0324,0.013523,0.002678,0.000431,0.008462
13555000,0.0324,0.013523,0.002678,0.000431,0.008697
13556000,0.0324,0.013523,0.002678,0.000431,0.008462
13557000,0.0324,0.013523,0.002678,0.000431,0.007169
13558000,0.0324,0.013523,0.002678,0.000431,0.008932
13559000,0.0324,0.013523,0.002678,0.000431,0.008462
13560000,0.0324,0.013523,0.002678,0.000431,0.008109
13561000,0.0324,0.013523,0.002678,0.000431,0.008345
13562000,0.0324,0.013523,0.002678,0.000431,0.008932
13563000,0.0324,0.013523,0.002678,0.000431,0.008227
13564000,0.0324,0.013523,0.002678,0.000431,0.008227
13565000,0.0324,0.013523,0.002678,0.000431,0.009167
13566000,0.0324,0.013523,0.002678,0.000431,0.007874
13567000,0.0324,0.013523,0.002678,0.000431,0.008227
13568000,0.0324,0.013523,0.002678,0.000431,0.007874
13569000,0.0324,0.013523,0.002678,0.000431,0.008345
13570000,0.0324,0.013523,0.002678,0.000431,0.008345
13571000,0.0324,0.013523,0.002678,0.000431,0.008345
13572000,0.0324,0.013523,0.002678,0.000431,0.009402
13573000,0.0324,0.013523,0.002678,0.000431,0.007522
13574000,0.0324,0.013523,0.002678,0.000431,0.008932
13575000,0.0324,0.013523,0.002678,0.000431,0.008580
13576000,0.0324,0.013523,0.002678,0.000431,0.008697
13577000,0.0324,0.013523,0.002678,0.000431,0.008580
13578000,0.0324,0.013523,0.002678,0.000431,0.008462
13579000,0.0324,0.013523,0.002678,0.000431,0.008932
13580000,0.0324,0.013523,0.002678,0.000431,0.007404
13581000,0.0324,0.013523,0.002678,0.000431,0.008932
13582000,0.0324,0.013523,0.002678,0.000431,0.008697
13583000,0.0324,0.013523,0.002678,0.000431,0.007874
13584000,0.0324,0.013523,0.002678,0.000431,0.008815
13585000,0.0324,0.013523,0.002678,0.000431,0.009520
13586000,0.0324,0.013523,0.002678,0.000431,0.008345
13587000,0.0324,0.013523,0.002678,0.000431,0.008345
13588000,0.0324,0.013523,0.002678,0.000431,0.008109
13589000,0.0324,0.013523,0.002678,0.000431,0.008815
13590000,0.0324,0.013523,0.002678,0.000431,0.008462
13591000,0.0324,0.013523,0.002678,0.000431,0.009050
13592000,0.0324,0.013523,0.002678,0.000431,0.008580
13593000,0.0324,0.013523,0.002678,0.000431,0.007874
13594000,0.0324,0.013523,0.002678,0.000431,0.008815
13595000,0.0324,0.013523,0.002678,0.000431,0.008815
13596000,0.0324,0.013523,0.002678,0.000431,0.008815
13597000,0.0324,0.013523,0.002678,0.000431,0.009050
13598000,0.0324,0.013523,0.002678,0.000431,0.008227
13599000,0.0324,0.013523,0.002678,0.000431,0.009285
13600000,0.0324,0.013523,0.002678,0.000431,0.007757
13601000,0.0324,0.013523,0.002678,0.000431,0.009050
13602000,0.0324,0.013523,0.002678,0.000431,0.008462
13603000,0.0324,0.013523,0.002678,0.000431,0.007874
13604000,0.0324,0.013523,0.002678,0.000431,0.008815
13605000,0.0324,0.013523,0.002678,0.000431,0.007874
13606000,0.0324,0.013523,0.002678,0.000431,0.009167
13607000,0.0324,0.013523,0.002678,0.000431,0.007874
13608000,0.0324,0.013523,0.002678,0.000431,0.008345
13609000,0.0324,0.013523,0.002678,0.000431,0.009637
13610000,0.0324,0.013523,0.002678,0.000431,0.006817
13611000,0.0324,0.013523,0.002678,0.000431,0.008227
13612000,0.0324,0.013523,0.002678,0.000431,0.008697
13613000,0.0324,0.013523,0.002678,0.000431,0.008580
13614000,0.0324,0.013523,0.002678,0.000431,0.008462
13615000,0.0324,0.013523,0.002678,0.000431,0.007874
13616000,0.0324,0.013523,0.002678,0.000431,0.008580
13617000,0.0324,0.013523,0.002678,0.000431,0.007522
13618000,0.0324,0.013523,0.002678,0.000431,0.008580
13619000,0.0324,0.013523,0.002678,0.000431,0.008697
13620000,0.0324,0.013523,0.002678,0.000431,0.007874
13621000,0.0324,0.013523,0.002678,0.000431,0.008815
13622000,0.0324,0.013523,0.002678,0.000431,0.009050
13623000,0.0324,0.013523,0.002678,0.000431,0.009285
13624000,0.0324,0.013523,0.002678,0.000431,0.007639
13625000,0.0324,0.013523,0.002678,0.000431,0.008815
13626000,0.0324,0.013523,0.002678,0.000431,0.009050
13627000,0.0324,0.013523,0.002678,0.000431,0.008815
13628000,0.0324,0.013523,0.002678,0.000431,0.008580
13629000,0.0324,0.013523,0.002678,0.000431,0.008580
13630000,0.0324,0.013523,0.002678,0.000431,0.008932
13631000,0.0324,0.013523,0.002678,0.000431,0.007992
13632000,0.0324,0.013523,0.002678,0.000431,0.008109
13633000,0.0324,0.013523,0.002678,0.000431,0.008697
13634000,0.0324,0.013523,0.002678,0.000431,0.008580
13635000,0.0324,0.013523,0.002678,0.000431,0.008462
13636000,0.0324,0.013523,0.002678,0.000431,0.007169
13637000,0.0324,0.013523,0.002678,0.000431,0.008815
13638000,0.0324,0.013523,0.002678,0.000431,0.008815
13639000,0.0324,0.013523,0.002678,0.000431,0.008109
13640000,0.0324,0.013523,0.002678,0.000431,0.009637
13641000,0.0324,0.013523,0.002678,0.000431,0.007874
13642000,0.0324,0.013523,0.002678,0.000431,0.007639
13643000,0.0324,0.013523,0.002678,0.000431,0.008580
13644000,0.0324,0.013523,0.002678,0.000431,0.008932
13645000,0.0324,0.013523,0.002678,0.000431,0.007522
13646000,0.0324,0.013523,0.002678,0.000431,0.008815
13647000,0.0324,0.013523,0.002678,0.000431,0.008345
13648000,0.0324,0.013523,0.002678,0.000431,0.008227
13649000,0.0324,0.013523,0.002678,0.000431,0.008109
13650000,0.0324,0.013523,0.002678,0.000431,0.009520
13651000,0.0324,0.013523,0.002678,0.000431,0.007757
13652000,0.0324,0.013523,0.002678,0.000431,0.007404
13653000,0.0324,0.013523,0.002678,0.000431,0.009050
13654000,0.0324,0.013523,0.002678,0.000431,0.007757
13655000,0.0324,0.013523,0.002678,0.000431,0.008815
13656000,0.0324,0.013523,0.002678,0.000431,0.008697
13657000,0.0324,0.013523,0.002678,0.000431,0.009050
13658000,0.0324,0.013523,0.002678,0.000431,0.008462
13659000,0.0324,0.013523,0.002678,0.000431,0.009167
13660000,0.0324,0.013523,0.002678,0.000431,0.008462
13661000,0.0324,0.013523,0.002678,0.000431,0.007757
13662000,0.0324,0.013523,0.002678,0.000431,0.007992
13663000,0.0324,0.013523,0.002678,0.000431,0.008697
13664000,0.0324,0.013523,0.002678,0.000431,0.008932
13665000,0.0324,0.013523,0.002678,0.000431,0.008109
13666000,0.0324,0.013523,0.002678,0.000431,0.008580
13667000,0.0324,0.013523,0.002678,0.000431,0.009402
13668000,0.0324,0.013523,0.002678,0.000431,0.008109
13669000,0.0324,0.013523,0.002678,0.000431,0.007874
13670000,0.0324,0.013523,0.002678,0.000431,0.008815
13671000,0.0324,0.013523,0.002678,0.000431,0.008697
13672000,0.0324,0.013523,0.002678,0.000431,0.007404
13673000,0.0324,0.013523,0.002678,0.000431,0.008815
13674000,0.0324,0.013523,0.002678,0.000431,0.008815
13675000,0.0324,0.013523,0.002678,0.000431,0.007992
13676000,0.0324,0.013523,0.002678,0.000431,0.008345
13677000,0.0324,0.013523,0.002678,0.000431,0.009520
13678000,0.0324,0.013523,0.002678,0.000431,0.008109
13679000,0.0324,0.013523,0.002678,0.000431,0.008345
13680000,0.0324,0.013523,0.002678,0.000431,0.009167
13681000,0.0324,0.013523,0.002678,0.000431,0.008580
13682000,0.0324,0.013523,0.002678,0.000431,0.008462
13683000,0.0324,0.013523,0.002678,0.000431,0.009050
13684000,0.0324,0.013523,0.002678,0.000431,0.007757
13685000,0.0324,0.013523,0.002678,0.000431,0.008815
13686000,0.0324,0.013523,0.002678,0.000431,0.007874
13687000,0.0324,0.013523,0.002678,0.000431,0.008932
13688000,0.0324,0.013523,0.002678,0.000431,0.007404
13689000,0.0324,0.013523,0.002678,0.000431,0.008227
13690000,0.0324,0.013523,0.002678,0.000431,0.007757
13691000,0.0324,0.013523,0.002678,0.000431,0.009520
13692000,0.0324,0.013523,0.002678,0.000431,0.008580
13693000,0.0324,0.013523,0.002678,0.000431,0.008345
13694000,0.0324,0.013523,0.002678,0.000431,0.008462
13695000,0.0324,0.013523,0.002678,0.000431,0.008227
13696000,0.0324,0.013523,0.002678,0.000431,0.008462
13697000,0.0324,0.013523,0.002678,0.000431,0.008815
13698000,0.0324,0.013523,0.002678,0.000431,0.008932
13699000,0.0324,0.013523,0.002678,0.000431,0.007639
13700000,0.0324,0.013523,0.002678,0.000431,0.009755
13701000,0.0324,0.013523,0.002678,0.000431,0.008227
13702000,0.0324,0.013523,0.002678,0.000431,0.007757
13703000,0.0324,0.013523,0.002678,0.000431,0.008109
13704000,0.0324,0.013523,0.002678,0.000431,0.009637
13705000,0.0324,0.013523,0.002678,0.000431,0.008462
13706000,0.0324,0.013523,0.002678,0.000431,0.007522
13707000,0.0324,0.013523,0.002678,0.000431,0.009520
13708000,0.0324,0.013523,0.002678,0.000431,0.008815
13709000,0.0324,0.013523,0.002678,0.000431,0.008932
13710000,0.0324,0.013523,0.002678,0.000431,0.008815
13711000,0.0324,0.013523,0.002678,0.000431,0.008109
13712000,0.0324,0.013523,0.002678,0.000431,0.008345
13713000,0.0324,0.013523,0.002678,0.000431,0.009050
13714000,0.0324,0.013523,0.002678,0.000431,0.008932
13715000,0.0324,0.013523,0.002678,0.000431,0.008580
13716000,0.0324,0.013523,0.002678,0.000431,0.008345
13717000,0.0324,0.013523,0.002678,0.000431,0.008462
13718000,0.0324,0.013523,0.002678,0.000431,0.009285
13719000,0.0324,0.013523,0.002678,0.000431,0.008932
13720000,0.0324,0.013523,0.002678,0.000431,0.008345
13721000,0.0324,0.013523,0.002678,0.000431,0.009167
13722000,0.0324,0.013523,0.002678,0.000431,0.007992
13723000,0.0324,0.013523,0.002678,0.000431,0.008345
13724000,0.0324,0.013523,0.002678,0.000431,0.009050
13725000,0.0324,0.013523,0.002678,0.000431,0.008580
13726000,0.0324,0.013523,0.002678,0.000431,0.007992
13727000,0.0324,0.013523,0.002678,0.000431,0.009755
13728000,0.0324,0.013523,0.002678,0.000431,0.007639
13729000,0.0324,0.013523,0.002678,0.000431,0.008345
13730000,0.0324,0.013523,0.002678,0.000431,0.009050
13731000,0.0324,0.013523,0.002678,0.000431,0.008815
13732000,0.0324,0.013523,0.002678,0.000431,0.008697
13733000,0.0324,0.013523,0.002678,0.000431,0.008580
13734000,0.0324,0.013523,0.002678,0.000431,0.009520
13735000,0.0324,0.013523,0.002678,0.000431,0.008227
13736000,0.0324,0.013523,0.002678,0.000431,0.007639
13737000,0.0324,0.013523,0.002678,0.000431,0.006699
13738000,0.0324,0.013523,0.002678,0.000431,0.008109
13739000,0.0324,0.013523,0.002678,0.000431,0.006934
13740000,0.0324,0.013523,0.002678,0.000431,0.007287
13741000,0.0324,0.013523,0.002678,0.000431,0.007522
13742000,0.0324,0.013523,0.002678,0.000431,0.007522
13743000,0.0324,0.013523,0.002678,0.000431,0.006934
13744000,0.0324,0.013523,0.002678,0.000431,0.008109
13745000,0.0324,0.013523,0.002678,0.000431,0.007404
13746000,0.0324,0.013523,0.002678,0.000431,0.008345
13747000,0.0324,0.013523,0.002678,0.000431,0.007522
13748000,0.0324,0.013523,0.002678,0.000431,0.007522
13749000,0.0324,0.013523,0.002678,0.000431,0.007992
13750000,0.0324,0.013523,0.002678,0.000431,0.007522
13751000,0.0324,0.013523,0.002678,0.000431,0.008227
13752000,0.0324,0.013523,0.002678,0.000431,0.007522
13753000,0.0324,0.013523,0.002678,0.000431,0.006817
13754000,0.0324,0.013523,0.002678,0.000431,0.008462
13755000,0.0324,0.013523,0.002678,0.000431,0.007522
13756000,0.0324,0.013523,0.002678,0.000431,0.007992
13757000,0.0324,0.013523,0.002678,0.000431,0.007522
13758000,0.0324,0.013523,0.002678,0.000431,0.007992
13759000,0.0324,0.013523,0.002678,0.000431,0.006817
13760000,0.0324,0.013523,0.002678,0.000431,0.007169
13761000,0.0324,0.013523,0.002678,0.000431,0.008227
13762000,0.0324,0.013523,0.002678,0.000431,0.007404
13763000,0.0324,0.013523,0.002678,0.000431,0.007404
13764000,0.0324,0.013523,0.002678,0.000431,0.007757
13765000,0.0324,0.013523,0.002678,0.000431,0.007522
13766000,0.0324,0.013523,0.002678,0.000431,0.008462
13767000,0.0324,0.013523,0.002678,0.000431,0.006347
13768000,0.0324,0.013523,0.002678,0.000431,0.007287
13769000,0.0324,0.013523,0.002678,0.000431,0.007404
13770000,0.0324,0.013523,0.002678,0.000431,0.006699
13771000,0.0324,0.013523,0.002678,0.000431,0.008109
13772000,0.0324,0.013523,0.002678,0.000431,0.007052
13773000,0.0324,0.013523,0.002678,0.000431,0.007169
13774000,0.0324,0.013523,0.002678,0.000431,0.007522
13775000,0.0324,0.013523,0.002678,0.000431,0.007287
13776000,0.0324,0.013523,0.002678,0.000431,0.006934
13777000,0.0324,0.013523,0.002678,0.000431,0.006817
13778000,0.0324,0.013523,0.002678,0.000431,0.008345
13779000,0.0324,0.013523,0.002678,0.000431,0.007052
13780000,0.0324,0.013523,0.002678,0.000431,0.006699
13781000,0.0324,0.013523,0.002678,0.000431,0.006699
13782000,0.0324,0.013523,0.002678,0.000431,0.006464
13783000,0.0324,0.013523,0.002678,0.000431,0.005994
13784000,0.0324,0.013523,0.002678,0.000431,0.006582
13785000,0.0324,0.013523,0.002678,0.000431,0.005759
13786000,0.0324,0.013523,0.002678,0.000431,0.006111
13787000,0.0324,0.013523,0.002678,0.000431,0.007522
13788000,0.0324,0.013523,0.002678,0.000431,0.006699
13789000,0.0324,0.013523,0.002678,0.000431,0.006229
13790000,0.0324,0.013523,0.002678,0.000431,0.006464
13791000,0.0324,0.013523,0.002678,0.000431,0.006817
13792000,0.0324,0.013523,0.002678,0.000431,0.006817
13793000,0.0324,0.013523,0.002678,0.000431,0.006699
13794000,0.0324,0.013523,0.002678,0.000431,0.006229
13795000,0.0324,0.013523,0.002678,0.000431,0.007052
13796000,0.0324,0.013523,0.002678,0.000431,0.006934
13797000,0.0324,0.013523,0.002678,0.000431,0.006111
13798000,0.0324,0.013523,0.002678,0.000431,0.005876
13799000,0.0324,0.013523,0.002678,0.000431,0.006347
13800000,0.0324,0.013523,0.002678,0.000431,0.007169
13801000,0.0324,0.013523,0.002678,0.000431,0.005759
13802000,0.0324,0.013523,0.002678,0.000431,0.006934
13803000,0.0324,0.013523,0.002678,0.000431,0.005876
13804000,0.0324,0.013523,0.002678,0.000431,0.006817
13805000,0.0324,0.013523,0.002678,0.000431,0.007287
13806000,0.0324,0.013523,0.002678,0.000431,0.006347
13807000,0.0324,0.013523,0.002678,0.000431,0.006229
13808000,0.0324,0.013523,0.002678,0.000431,0.006699
13809000,0.0324,0.013523,0.002678,0.000431,0.006347
13810000,0.0324,0.013523,0.002678,0.000431,0.005759
13811000,0.0324,0.013523,0.002678,0.000431,0.006111
13812000,0.0324,0.013523,0.002678,0.000431,0.007639
13813000,0.0324,0.013523,0.002678,0.000431,0.006817
13814000,0.0324,0.013523,0.002678,0.000431,0.006229
13815000,0.0324,0.013523,0.002678,0.000431,0.007052
13816000,0.0324,0.013523,0.002678,0.000431,0.006347
13817000,0.0324,0.013523,0.002678,0.000431,0.006934
13818000,0.0324,0.013523,0.002678,0.000431,0.006582
13819000,0.0324,0.013523,0.002678,0.000431,0.006934
13820000,0.0324,0.013523,0.002678,0.000431,0.005759
13821000,0.0324,0.013523,0.002678,0.000431,0.005054
13822000,0.0324,0.013523,0.002678,0.000431,0.006582
13823000,0.0324,0.013523,0.002678,0.000431,0.005406
13824000,0.0324,0.013523,0.002678,0.000431,0.005641
13825000,0.0324,0.013523,0.002678,0.000431,0.005171
13826000,0.0324,0.013523,0.002678,0.000431,0.006347
13827000,0.0324,0.013523,0.002678,0.000431,0.005641
13828000,0.0324,0.013523,0.002678,0.000431,0.006229
13829000,0.0324,0.013523,0.002678,0.000431,0.005406
13830000,0.0324,0.013523,0.002678,0.000431,0.004936
13831000,0.0324,0.013523,0.002678,0.000431,0.005406
13832000,0.0324,0.013523,0.002678,0.000431,0.007404
13833000,0.0324,0.013523,0.002678,0.000431,0.005641
13834000,0.0324,0.013523,0.002678,0.000431,0.005406
13835000,0.0324,0.013523,0.002678,0.000431,0.005054
13836000,0.0324,0.013523,0.002678,0.000431,0.006582
13837000,0.0324,0.013523,0.002678,0.000431,0.005876
13838000,0.0324,0.013523,0.002678,0.000431,0.005524
13839000,0.0324,0.013523,0.002678,0.000431,0.006582
13840000,0.0324,0.013523,0.002678,0.000431,0.005759
13841000,0.0324,0.013523,0.002678,0.000431,0.005641
13842000,0.0324,0.013523,0.002678,0.000431,0.005994
13843000,0.0324,0.013523,0.002678,0.000431,0.005759
13844000,0.0324,0.013523,0.002678,0.000431,0.005406
13845000,0.0324,0.013523,0.002678,0.000431,0.005641
13846000,0.0324,0.013523,0.002678,0.000431,0.006817
13847000,0.0324,0.013523,0.002678,0.000431,0.005876
13848000,0.0324,0.013523,0.002678,0.000431,0.005641
13849000,0.0324,0.013523,0.002678,0.000431,0.006347
13850000,0.0324,0.013523,0.002678,0.000431,0.005876
13851000,0.0324,0.013523,0.002678,0.000431,0.005759
13852000,0.0324,0.013523,0.002678,0.000431,0.005759
13853000,0.0324,0.013523,0.002678,0.000431,0.005054
13854000,0.0324,0.013523,0.002678,0.000431,0.005876
13855000,0.0324,0.013523,0.002678,0.000431,0.006229
13856000,0.0324,0.013523,0.002678,0.000431,0.005641
13857000,0.0324,0.013523,0.002678,0.000431,0.005289
13858000,0.0324,0.013523,0.002678,0.000431,0.005524
13859000,0.0324,0.013523,0.002678,0.000431,0.005876
13860000,0.0324,0.013523,0.002678,0.000431,0.005994
13861000,0.0324,0.013523,0.002678,0.000431,0.005524
13862000,0.0324,0.013523,0.002678,0.000431,0.005994
13863000,0.0324,0.013523,0.002678,0.000431,0.005641
13864000,0.0324,0.013523,0.002678,0.000431,0.005994
13865000,0.0324,0.013523,0.002678,0.000431,0.005054
13866000,0.0324,0.013523,0.002678,0.000431,0.005759
13867000,0.0324,0.013523,0.002678,0.000431,0.004584
13868000,0.0324,0.013523,0.002678,0.000431,0.005406
13869000,0.0324,0.013523,0.002678,0.000431,0.005054
13870000,0.0324,0.013523,0.002678,0.000431,0.005524
13871000,0.0324,0.013523,0.002678,0.000431,0.005759
13872000,0.0324,0.013523,0.002678,0.000431,0.006111
13873000,0.0324,0.013523,0.002678,0.000431,0.005524
13874000,0.0324,0.013523,0.002678,0.000431,0.005759
13875000,0.0324,0.013523,0.002678,0.000431,0.005876
13876000,0.0324,0.013523,0.002678,0.000431,0.006699
13877000,0.0324,0.013523,0.002678,0.000431,0.005524
13878000,0.0324,0.013523,0.002678,0.000431,0.005289
13879000,0.0324,0.013523,0.002678,0.000431,0.007052
13880000,0.0324,0.013523,0.002678,0.000431,0.006464
13881000,0.0324,0.013523,0.002678,0.000431,0.005641
13882000,0.0324,0.013523,0.002678,0.000431,0.006111
13883000,0.0324,0.013523,0.002678,0.000431,0.006111
13884000,0.0324,0.013523,0.002678,0.000431,0.005289
13885000,0.0324,0.013523,0.002678,0.000431,0.005876
13886000,0.0324,0.013523,0.002678,0.000431,0.006699
13887000,0.0324,0.013523,0.002678,0.000431,0.005289
13888000,0.0324,0.013523,0.002678,0.000431,0.006347
13889000,0.0324,0.013523,0.002678,0.000431,0.005759
13890000,0.0324,0.013523,0.002678,0.000431,0.005524
13891000,0.0324,0.013523,0.002678,0.000431,0.005994
13892000,0.0324,0.013523,0.002678,0.000431,0.004936
13893000,0.0324,0.013523,0.002678,0.000431,0.004584
13894000,0.0324,0.013523,0.002678,0.000431,0.006111
13895000,0.0324,0.013523,0.002678,0.000431,0.006464
13896000,0.0324,0.013523,0.002678,0.000431,0.005641
13897000,0.0324,0.013523,0.002678,0.000431,0.005171
13898000,0.0324,0.013523,0.002678,0.000431,0.005994
13899000,0.0324,0.013523,0.002678,0.000431,0.006229
13900000,0.0324,0.013523,0.002678,0.000431,0.005994
13901000,0.0324,0.013523,0.002678,0.000431,0.004701
13902000,0.0324,0.013523,0.002678,0.000431,0.005289
13903000,0.0324,0.013523,0.002678,0.000431,0.006347
13904000,0.0324,0.013523,0.002678,0.000431,0.005994
13905000,0.0324,0.013523,0.002678,0.000431,0.005876
13906000,0.0324,0.013523,0.002678,0.000431,0.006111
13907000,0.0324,0.013523,0.002678,0.000431,0.006229
13908000,0.0324,0.013523,0.002678,0.000431,0.005876
13909000,0.0324,0.013523,0.002678,0.000431,0.006699
13910000,0.0324,0.013523,0.002678,0.000431,0.005641
13911000,0.0324,0.013523,0.002678,0.000431,0.005289
13912000,0.0324,0.013523,0.002678,0.000431,0.006111
13913000,0.0324,0.013523,0.002678,0.000431,0.005876
13914000,0.0324,0.013523,0.002678,0.000431,0.005524
13915000,0.0324,0.013523,0.002678,0.000431,0.006699
13916000,0.0324,0.013523,0.002678,0.000431,0.005759
13917000,0.0324,0.013523,0.002678,0.000431,0.004466
13918000,0.0324,0.013523,0.002678,0.000431,0.005759
13919000,0.0324,0.013523,0.002678,0.000431,0.006464
13920000,0.0324,0.013523,0.002678,0.000431,0.005406
13921000,0.0324,0.013523,0.002678,0.000431,0.005054
13922000,0.0324,0.013523,0.002678,0.000431,0.005876
13923000,0.0324,0.013523,0.002678,0.000431,0.005994
13924000,0.0324,0.013523,0.002678,0.000431,0.006111
13925000,0.0324,0.013523,0.002678,0.000431,0.006229
13926000,0.0324,0.013523,0.002678,0.000431,0.005994
13927000,0.0324,0.013523,0.002678,0.000431,0.005524
13928000,0.0324,0.013523,0.002678,0.000431,0.005876
13929000,0.0324,0.013523,0.002678,0.000431,0.006582
13930000,0.0324,0.013523,0.002678,0.000431,0.005289
13931000,0.0324,0.013523,0.002678,0.000431,0.005759
13932000,0.0324,0.013523,0.002678,0.000431,0.006229
13933000,0.0324,0.013523,0.002678,0.000431,0.005876
13934000,0.0324,0.013523,0.002678,0.000431,0.006347
13935000,0.0324,0.013523,0.002678,0.000431,0.005641
13936000,0.0324,0.013523,0.002678,0.000431,0.005994
13937000,0.0324,0.013523,0.002678,0.000431,0.005876
13938000,0.0324,0.013523,0.002678,0.000431,0.005994
13939000,0.0324,0.013523,0.002678,0.000431,0.006699
13940000,0.0324,0.013523,0.002678,0.000431,0.005994
13941000,0.0324,0.013523,0.002678,0.000431,0.005994
13942000,0.0324,0.013523,0.002678,0.000431,0.006347
13943000,0.0324,0.013523,0.002678,0.000431,0.006582
13944000,0.0324,0.013523,0.002678,0.000431,0.005054
13945000,0.0324,0.013523,0.002678,0.000431,0.005289
13946000,0.0324,0.013523,0.002678,0.000431,0.006582
13947000,0.0324,0.013523,0.002678,0.000431,0.005524
13948000,0.0324,0.013523,0.002678,0.000431,0.005054
13949000,0.0324,0.013523,0.002678,0.000431,0.005641
13950000,0.0324,0.013523,0.002678,0.000431,0.004936
13951000,0.0324,0.013523,0.002678,0.000431,0.005171
13952000,0.0324,0.013523,0.002678,0.000431,0.006699
13953000,0.0324,0.013523,0.002678,0.000431,0.006464
13954000,0.0324,0.013523,0.002678,0.000431,0.005876
13955000,0.0324,0.013523,0.002678,0.000431,0.005289
13956000,0.0324,0.013523,0.002678,0.000431,0.006464
13957000,0.0324,0.013523,0.002678,0.000431,0.005759
13958000,0.0324,0.013523,0.002678,0.000431,0.006111
13959000,0.0324,0.013523,0.002678,0.000431,0.005171
13960000,0.0324,0.013523,0.002678,0.000431,0.005406
13961000,0.0324,0.013523,0.002678,0.000431,0.005524
13962000,0.0324,0.013523,0.002678,0.000431,0.006582
13963000,0.0324,0.013523,0.002678,0.000431,0.006347
13964000,0.0324,0.013523,0.002678,0.000431,0.005994
13965000,0.0324,0.013523,0.002678,0.000431,0.006347
13966000,0.0324,0.013523,0.002678,0.000431,0.006464
13967000,0.0324,0.013523,0.002678,0.000431,0.005641
13968000,0.0324,0.013523,0.002678,0.000431,0.005289
13969000,0.0324,0.013523,0.002678,0.000431,0.005876
13970000,0.0324,0.013523,0.002678,0.000431,0.005876
13971000,0.0324,0.013523,0.002678,0.000431,0.005759
13972000,0.0324,0.013523,0.002678,0.000431,0.005641
13973000,0.0324,0.013523,0.002678,0.000431,0.005876
13974000,0.0324,0.013523,0.002678,0.000431,0.006111
13975000,0.0324,0.013523,0.002678,0.000431,0.005759
13976000,0.0324,0.013523,0.002678,0.000431,0.006111
13977000,0.0324,0.013523,0.002678,0.000431,0.005289
13978000,0.0324,0.013523,0.002678,0.000431,0.006582
13979000,0.0324,0.013523,0.002678,0.000431,0.005641
13980000,0.0324,0.013523,0.002678,0.000431,0.006464
13981000,0.0324,0.013523,0.002678,0.000431,0.005054
13982000,0.0324,0.013523,0.002678,0.000431,0.005994
13983000,0.0324,0.013523,0.002678,0.000431,0.005994
13984000,0.0324,0.013523,0.002678,0.000431,0.005054
13985000,0.0324,0.013523,0.002678,0.000431,0.005759
13986000,0.0324,0.013523,0.002678,0.000431,0.005406
13987000,0.0324,0.013523,0.002678,0.000431,0.006229
13988000,0.0324,0.013523,0.002678,0.000431,0.005876
13989000,0.0324,0.013523,0.002678,0.000431,0.005876
13990000,0.0324,0.013523,0.002678,0.000431,0.006582
13991000,0.0324,0.013523,0.002678,0.000431,0.006111
13992000,0.0324,0.013523,0.002678,0.000431,0.005171
13993000,0.0324,0.013523,0.002678,0.000431,0.005171
13994000,0.0324,0.013523,0.002678,0.000431,0.005406
13995000,0.0324,0.013523,0.002678,0.000431,0.005759
13996000,0.0324,0.013523,0.002678,0.000431,0.005524
13997000,0.0324,0.013523,0.002678,0.000431,0.005876
13998000,0.0324,0.013523,0.002678,0.000431,0.005524
13999000,0.0324,0.013523,0.002678,0.000431,0.005759
