Cycle,Area(mm^2),PeakDynamic(W),SubthresholdLeakage(W),GateLeakage(W),RunTimeDynamic(W)
11000000,0.0324,0.013523,0.002678,0.000431,0.009520
11001000,0.0324,0.013523,0.002678,0.000431,0.009402
11002000,0.0324,0.013523,0.002678,0.000431,0.009520
11003000,0.0324,0.013523,0.002678,0.000431,0.009755
11004000,0.0324,0.013523,0.002678,0.000431,0.011165
11005000,0.0324,0.013523,0.002678,0.000431,0.011048
11006000,0.0324,0.013523,0.002678,0.000431,0.010107
11007000,0.0324,0.013523,0.002678,0.000431,0.010107
11008000,0.0324,0.013523,0.002678,0.000431,0.009990
11009000,0.0324,0.013523,0.002678,0.000431,0.009872
11010000,0.0324,0.013523,0.002678,0.000431,0.010342
11011000,0.0324,0.013523,0.002678,0.000431,0.010225
11012000,0.0324,0.013523,0.002678,0.000431,0.010225
11013000,0.0324,0.013523,0.002678,0.000431,0.010107
11014000,0.0324,0.013523,0.002678,0.000431,0.009872
11015000,0.0324,0.013523,0.002678,0.000431,0.010107
11016000,0.0324,0.013523,0.002678,0.000431,0.010107
11017000,0.0324,0.013523,0.002678,0.000431,0.009402
11018000,0.0324,0.013523,0.002678,0.000431,0.010460
11019000,0.0324,0.013523,0.002678,0.000431,0.010342
11020000,0.0324,0.013523,0.002678,0.000431,0.010578
11021000,0.0324,0.013523,0.002678,0.000431,0.010460
11022000,0.0324,0.013523,0.002678,0.000431,0.010813
11023000,0.0324,0.013523,0.002678,0.000431,0.009402
11024000,0.0324,0.013523,0.002678,0.000431,0.010342
11025000,0.0324,0.013523,0.002678,0.000431,0.009285
11026000,0.0324,0.013523,0.002678,0.000431,0.009520
11027000,0.0324,0.013523,0.002678,0.000431,0.010107
11028000,0.0324,0.013523,0.002678,0.000431,0.009872
11029000,0.0324,0.013523,0.002678,0.000431,0.010578
11030000,0.0324,0.013523,0.002678,0.000431,0.009755
11031000,0.0324,0.013523,0.002678,0.000431,0.010225
11032000,0.0324,0.013523,0.002678,0.000431,0.010813
11033000,0.0324,0.013523,0.002678,0.000431,0.010107
11034000,0.0324,0.013523,0.002678,0.000431,0.010225
11035000,0.0324,0.013523,0.002678,0.000431,0.011635
11036000,0.0324,0.013523,0.002678,0.000431,0.010578
11037000,0.0324,0.013523,0.002678,0.000431,0.009990
11038000,0.0324,0.013523,0.002678,0.000431,0.009167
11039000,0.0324,0.013523,0.002678,0.000431,0.010695
11040000,0.0324,0.013523,0.002678,0.000431,0.009755
11041000,0.0324,0.013523,0.002678,0.000431,0.010930
11042000,0.0324,0.013523,0.002678,0.000431,0.010578
11043000,0.0324,0.013523,0.002678,0.000431,0.010695
11044000,0.0324,0.013523,0.002678,0.000431,0.008109
11045000,0.0324,0.013523,0.002678,0.000431,0.010107
11046000,0.0324,0.013523,0.002678,0.000431,0.010695
11047000,0.0324,0.013523,0.002678,0.000431,0.009990
11048000,0.0324,0.013523,0.002678,0.000431,0.010225
11049000,0.0324,0.013523,0.002678,0.000431,0.009990
11050000,0.0324,0.013523,0.002678,0.000431,0.010460
11051000,0.0324,0.013523,0.002678,0.000431,0.011753
11052000,0.0324,0.013523,0.002678,0.000431,0.009520
11053000,0.0324,0.013523,0.002678,0.000431,0.010813
11054000,0.0324,0.013523,0.002678,0.000431,0.010107
11055000,0.0324,0.013523,0.002678,0.000431,0.009285
11056000,0.0324,0.013523,0.002678,0.000431,0.010460
11057000,0.0324,0.013523,0.002678,0.000431,0.009167
11058000,0.0324,0.013523,0.002678,0.000431,0.010460
11059000,0.0324,0.013523,0.002678,0.000431,0.009755
11060000,0.0324,0.013523,0.002678,0.000431,0.009872
11061000,0.0324,0.013523,0.002678,0.000431,0.010460
11062000,0.0324,0.013523,0.002678,0.000431,0.011048
11063000,0.0324,0.013523,0.002678,0.000431,0.010695
11064000,0.0324,0.013523,0.002678,0.000431,0.009167
11065000,0.0324,0.013523,0.002678,0.000431,0.011165
11066000,0.0324,0.013523,0.002678,0.000431,0.009285
11067000,0.0324,0.013523,0.002678,0.000431,0.009990
11068000,0.0324,0.013523,0.002678,0.000431,0.010342
11069000,0.0324,0.013523,0.002678,0.000431,0.011635
11070000,0.0324,0.013523,0.002678,0.000431,0.009285
11071000,0.0324,0.013523,0.002678,0.000431,0.009520
11072000,0.0324,0.013523,0.002678,0.000431,0.009402
11073000,0.0324,0.013523,0.002678,0.000431,0.010578
11074000,0.0324,0.013523,0.002678,0.000431,0.010225
11075000,0.0324,0.013523,0.002678,0.000431,0.009755
11076000,0.0324,0.013523,0.002678,0.000431,0.010930
11077000,0.0324,0.013523,0.002678,0.000431,0.010225
11078000,0.0324,0.013523,0.002678,0.000431,0.010342
11079000,0.0324,0.013523,0.002678,0.000431,0.010695
11080000,0.0324,0.013523,0.002678,0.000431,0.010225
11081000,0.0324,0.013523,0.002678,0.000431,0.009050
11082000,0.0324,0.013523,0.002678,0.000431,0.009990
11083000,0.0324,0.013523,0.002678,0.000431,0.010460
11084000,0.0324,0.013523,0.002678,0.000431,0.010813
11085000,0.0324,0.013523,0.002678,0.000431,0.010225
11086000,0.0324,0.013523,0.002678,0.000431,0.010225
11087000,0.0324,0.013523,0.002678,0.000431,0.009755
11088000,0.0324,0.013523,0.002678,0.000431,0.010813
11089000,0.0324,0.013523,0.002678,0.000431,0.010460
11090000,0.0324,0.013523,0.002678,0.000431,0.011048
11091000,0.0324,0.013523,0.002678,0.000431,0.010460
11092000,0.0324,0.013523,0.002678,0.000431,0.010342
11093000,0.0324,0.013523,0.002678,0.000431,0.009285
11094000,0.0324,0.013523,0.002678,0.000431,0.010107
11095000,0.0324,0.013523,0.002678,0.000431,0.009755
11096000,0.0324,0.013523,0.002678,0.000431,0.010695
11097000,0.0324,0.013523,0.002678,0.000431,0.010460
11098000,0.0324,0.013523,0.002678,0.000431,0.009167
11099000,0.0324,0.013523,0.002678,0.000431,0.010342
11100000,0.0324,0.013523,0.002678,0.000431,0.010460
11101000,0.0324,0.013523,0.002678,0.000431,0.010695
11102000,0.0324,0.013523,0.002678,0.000431,0.010460
11103000,0.0324,0.013523,0.002678,0.000431,0.009872
11104000,0.0324,0.013523,0.002678,0.000431,0.011048
11105000,0.0324,0.013523,0.002678,0.000431,0.009050
11106000,0.0324,0.013523,0.002678,0.000431,0.010460
11107000,0.0324,0.013523,0.002678,0.000431,0.010342
11108000,0.0324,0.013523,0.002678,0.000431,0.010578
11109000,0.0324,0.013523,0.002678,0.000431,0.010695
11110000,0.0324,0.013523,0.002678,0.000431,0.011048
11111000,0.0324,0.013523,0.002678,0.000431,0.010107
11112000,0.0324,0.013523,0.002678,0.000431,0.009167
11113000,0.0324,0.013523,0.002678,0.000431,0.010342
11114000,0.0324,0.013523,0.002678,0.000431,0.010342
11115000,0.0324,0.013523,0.002678,0.000431,0.009872
11116000,0.0324,0.013523,0.002678,0.000431,0.009872
11117000,0.0324,0.013523,0.002678,0.000431,0.009520
11118000,0.0324,0.013523,0.002678,0.000431,0.009755
11119000,0.0324,0.013523,0.002678,0.000431,0.010225
11120000,0.0324,0.013523,0.002678,0.000431,0.009050
11121000,0.0324,0.013523,0.002678,0.000431,0.009990
11122000,0.0324,0.013523,0.002678,0.000431,0.010225
11123000,0.0324,0.013523,0.002678,0.000431,0.010342
11124000,0.0324,0.013523,0.002678,0.000431,0.010695
11125000,0.0324,0.013523,0.002678,0.000431,0.009402
11126000,0.0324,0.013523,0.002678,0.000431,0.009285
11127000,0.0324,0.013523,0.002678,0.000431,0.009520
11128000,0.0324,0.013523,0.002678,0.000431,0.011400
11129000,0.0324,0.013523,0.002678,0.000431,0.010578
11130000,0.0324,0.013523,0.002678,0.000431,0.008932
11131000,0.0324,0.013523,0.002678,0.000431,0.010813
11132000,0.0324,0.013523,0.002678,0.000431,0.009990
11133000,0.0324,0.013523,0.002678,0.000431,0.010225
11134000,0.0324,0.013523,0.002678,0.000431,0.010578
11135000,0.0324,0.013523,0.002678,0.000431,0.009167
11136000,0.0324,0.013523,0.002678,0.000431,0.009872
11137000,0.0324,0.013523,0.002678,0.000431,0.010225
11138000,0.0324,0.013523,0.002678,0.000431,0.009990
11139000,0.0324,0.013523,0.002678,0.000431,0.009285
11140000,0.0324,0.013523,0.002678,0.000431,0.009755
11141000,0.0324,0.013523,0.002678,0.000431,0.009637
11142000,0.0324,0.013523,0.002678,0.000431,0.009990
11143000,0.0324,0.013523,0.002678,0.000431,0.009755
11144000,0.0324,0.013523,0.002678,0.000431,0.009520
11145000,0.0324,0.013523,0.002678,0.000431,0.010107
11146000,0.0324,0.013523,0.002678,0.000431,0.009755
11147000,0.0324,0.013523,0.002678,0.000431,0.010460
11148000,0.0324,0.013523,0.002678,0.000431,0.010578
11149000,0.0324,0.013523,0.002678,0.000431,0.010460
11150000,0.0324,0.013523,0.002678,0.000431,0.010107
11151000,0.0324,0.013523,0.002678,0.000431,0.010578
11152000,0.0324,0.013523,0.002678,0.000431,0.010107
11153000,0.0324,0.013523,0.002678,0.000431,0.009520
11154000,0.0324,0.013523,0.002678,0.000431,0.010107
11155000,0.0324,0.013523,0.002678,0.000431,0.010342
11156000,0.0324,0.013523,0.002678,0.000431,0.010460
11157000,0.0324,0.013523,0.002678,0.000431,0.009872
11158000,0.0324,0.013523,0.002678,0.000431,0.009990
11159000,0.0324,0.013523,0.002678,0.000431,0.010460
11160000,0.0324,0.013523,0.002678,0.000431,0.009637
11161000,0.0324,0.013523,0.002678,0.000431,0.009637
11162000,0.0324,0.013523,0.002678,0.000431,0.010107
11163000,0.0324,0.013523,0.002678,0.000431,0.009637
11164000,0.0324,0.013523,0.002678,0.000431,0.010107
11165000,0.0324,0.013523,0.002678,0.000431,0.011048
11166000,0.0324,0.013523,0.002678,0.000431,0.009872
11167000,0.0324,0.013523,0.002678,0.000431,0.009402
11168000,0.0324,0.013523,0.002678,0.000431,0.009990
11169000,0.0324,0.013523,0.002678,0.000431,0.009637
11170000,0.0324,0.013523,0.002678,0.000431,0.010225
11171000,0.0324,0.013523,0.002678,0.000431,0.009637
11172000,0.0324,0.013523,0.002678,0.000431,0.009167
11173000,0.0324,0.013523,0.002678,0.000431,0.009402
11174000,0.0324,0.013523,0.002678,0.000431,0.009637
11175000,0.0324,0.013523,0.002678,0.000431,0.010107
11176000,0.0324,0.013523,0.002678,0.000431,0.009755
11177000,0.0324,0.013523,0.002678,0.000431,0.009637
11178000,0.0324,0.013523,0.002678,0.000431,0.009755
11179000,0.0324,0.013523,0.002678,0.000431,0.010578
11180000,0.0324,0.013523,0.002678,0.000431,0.009872
11181000,0.0324,0.013523,0.002678,0.000431,0.009520
11182000,0.0324,0.013523,0.002678,0.000431,0.010225
11183000,0.0324,0.013523,0.002678,0.000431,0.009755
11184000,0.0324,0.013523,0.002678,0.000431,0.010225
11185000,0.0324,0.013523,0.002678,0.000431,0.010225
11186000,0.0324,0.013523,0.002678,0.000431,0.011165
11187000,0.0324,0.013523,0.002678,0.000431,0.009050
11188000,0.0324,0.013523,0.002678,0.000431,0.011048
11189000,0.0324,0.013523,0.002678,0.000431,0.010107
11190000,0.0324,0.013523,0.002678,0.000431,0.008815
11191000,0.0324,0.013523,0.002678,0.000431,0.009520
11192000,0.0324,0.013523,0.002678,0.000431,0.009402
11193000,0.0324,0.013523,0.002678,0.000431,0.010695
11194000,0.0324,0.013523,0.002678,0.000431,0.009167
11195000,0.0324,0.013523,0.002678,0.000431,0.010342
11196000,0.0324,0.013523,0.002678,0.000431,0.009755
11197000,0.0324,0.013523,0.002678,0.000431,0.010460
11198000,0.0324,0.013523,0.002678,0.000431,0.008932
11199000,0.0324,0.013523,0.002678,0.000431,0.012340
11200000,0.0324,0.013523,0.002678,0.000431,0.009520
11201000,0.0324,0.013523,0.002678,0.000431,0.009990
11202000,0.0324,0.013523,0.002678,0.000431,0.010342
11203000,0.0324,0.013523,0.002678,0.000431,0.010225
11204000,0.0324,0.013523,0.002678,0.000431,0.010107
11205000,0.0324,0.013523,0.002678,0.000431,0.009167
11206000,0.0324,0.013523,0.002678,0.000431,0.009285
11207000,0.0324,0.013523,0.002678,0.000431,0.009755
11208000,0.0324,0.013523,0.002678,0.000431,0.009755
11209000,0.0324,0.013523,0.002678,0.000431,0.009637
11210000,0.0324,0.013523,0.002678,0.000431,0.010460
11211000,0.0324,0.013523,0.002678,0.000431,0.009520
11212000,0.0324,0.013523,0.002678,0.000431,0.009402
11213000,0.0324,0.013523,0.002678,0.000431,0.009872
11214000,0.0324,0.013523,0.002678,0.000431,0.010578
11215000,0.0324,0.013523,0.002678,0.000431,0.009520
11216000,0.0324,0.013523,0.002678,0.000431,0.009520
11217000,0.0324,0.013523,0.002678,0.000431,0.008932
11218000,0.0324,0.013523,0.002678,0.000431,0.009637
11219000,0.0324,0.013523,0.002678,0.000431,0.010930
11220000,0.0324,0.013523,0.002678,0.000431,0.009520
11221000,0.0324,0.013523,0.002678,0.000431,0.009990
11222000,0.0324,0.013523,0.002678,0.000431,0.009755
11223000,0.0324,0.013523,0.002678,0.000431,0.009167
11224000,0.0324,0.013523,0.002678,0.000431,0.009637
11225000,0.0324,0.013523,0.002678,0.000431,0.011400
11226000,0.0324,0.013523,0.002678,0.000431,0.010342
11227000,0.0324,0.013523,0.002678,0.000431,0.009755
11228000,0.0324,0.013523,0.002678,0.000431,0.009402
11229000,0.0324,0.013523,0.002678,0.000431,0.009637
11230000,0.0324,0.013523,0.002678,0.000431,0.009872
11231000,0.0324,0.013523,0.002678,0.000431,0.009050
11232000,0.0324,0.013523,0.002678,0.000431,0.009990
11233000,0.0324,0.013523,0.002678,0.000431,0.009285
11234000,0.0324,0.013523,0.002678,0.000431,0.010578
11235000,0.0324,0.013523,0.002678,0.000431,0.009285
11236000,0.0324,0.013523,0.002678,0.000431,0.010342
11237000,0.0324,0.013523,0.002678,0.000431,0.008932
11238000,0.0324,0.013523,0.002678,0.000431,0.010342
11239000,0.0324,0.013523,0.002678,0.000431,0.010225
11240000,0.0324,0.013523,0.002678,0.000431,0.010225
11241000,0.0324,0.013523,0.002678,0.000431,0.009637
11242000,0.0324,0.013523,0.002678,0.000431,0.010695
11243000,0.0324,0.013523,0.002678,0.000431,0.010460
11244000,0.0324,0.013523,0.002678,0.000431,0.009990
11245000,0.0324,0.013523,0.002678,0.000431,0.009167
11246000,0.0324,0.013523,0.002678,0.000431,0.009050
11247000,0.0324,0.013523,0.002678,0.000431,0.009637
11248000,0.0324,0.013523,0.002678,0.000431,0.010225
11249000,0.0324,0.013523,0.002678,0.000431,0.009402
11250000,0.0324,0.013523,0.002678,0.000431,0.009520
11251000,0.0324,0.013523,0.002678,0.000431,0.010342
11252000,0.0324,0.013523,0.002678,0.000431,0.009755
11253000,0.0324,0.013523,0.002678,0.000431,0.010695
11254000,0.0324,0.013523,0.002678,0.000431,0.009520
11255000,0.0324,0.013523,0.002678,0.000431,0.009872
11256000,0.0324,0.013523,0.002678,0.000431,0.009872
11257000,0.0324,0.013523,0.002678,0.000431,0.009755
11258000,0.0324,0.013523,0.002678,0.000431,0.010578
11259000,0.0324,0.013523,0.002678,0.000431,0.010225
11260000,0.0324,0.013523,0.002678,0.000431,0.009167
11261000,0.0324,0.013523,0.002678,0.000431,0.010342
11262000,0.0324,0.013523,0.002678,0.000431,0.010225
11263000,0.0324,0.013523,0.002678,0.000431,0.010107
11264000,0.0324,0.013523,0.002678,0.000431,0.009285
11265000,0.0324,0.013523,0.002678,0.000431,0.009872
11266000,0.0324,0.013523,0.002678,0.000431,0.010813
11267000,0.0324,0.013523,0.002678,0.000431,0.009872
11268000,0.0324,0.013523,0.002678,0.000431,0.009520
11269000,0.0324,0.013523,0.002678,0.000431,0.009285
11270000,0.0324,0.013523,0.002678,0.000431,0.010695
11271000,0.0324,0.013523,0.002678,0.000431,0.009402
11272000,0.0324,0.013523,0.002678,0.000431,0.010342
11273000,0.0324,0.013523,0.002678,0.000431,0.010107
11274000,0.0324,0.013523,0.002678,0.000431,0.009872
11275000,0.0324,0.013523,0.002678,0.000431,0.010695
11276000,0.0324,0.013523,0.002678,0.000431,0.009872
11277000,0.0324,0.013523,0.002678,0.000431,0.009637
11278000,0.0324,0.013523,0.002678,0.000431,0.009402
11279000,0.0324,0.013523,0.002678,0.000431,0.010930
11280000,0.0324,0.013523,0.002678,0.000431,0.009167
11281000,0.0324,0.013523,0.002678,0.000431,0.010578
11282000,0.0324,0.013523,0.002678,0.000431,0.009285
11283000,0.0324,0.013523,0.002678,0.000431,0.009755
11284000,0.0324,0.013523,0.002678,0.000431,0.009872
11285000,0.0324,0.013523,0.002678,0.000431,0.011048
11286000,0.0324,0.013523,0.002678,0.000431,0.009637
11287000,0.0324,0.013523,0.002678,0.000431,0.009520
11288000,0.0324,0.013523,0.002678,0.000431,0.011048
11289000,0.0324,0.013523,0.002678,0.000431,0.009637
11290000,0.0324,0.013523,0.002678,0.000431,0.009167
11291000,0.0324,0.013523,0.002678,0.000431,0.009520
11292000,0.0324,0.013523,0.002678,0.000431,0.009755
11293000,0.0324,0.013523,0.002678,0.000431,0.010695
11294000,0.0324,0.013523,0.002678,0.000431,0.009285
11295000,0.0324,0.013523,0.002678,0.000431,0.009990
11296000,0.0324,0.013523,0.002678,0.000431,0.010578
11297000,0.0324,0.013523,0.002678,0.000431,0.009990
11298000,0.0324,0.013523,0.002678,0.000431,0.010342
11299000,0.0324,0.013523,0.002678,0.000431,0.010460
11300000,0.0324,0.013523,0.002678,0.000431,0.010460
11301000,0.0324,0.013523,0.002678,0.000431,0.009872
11302000,0.0324,0.013523,0.002678,0.000431,0.009872
11303000,0.0324,0.013523,0.002678,0.000431,0.008932
11304000,0.0324,0.013523,0.002678,0.000431,0.010578
11305000,0.0324,0.013523,0.002678,0.000431,0.009520
11306000,0.0324,0.013523,0.002678,0.000431,0.009872
11307000,0.0324,0.013523,0.002678,0.000431,0.009637
11308000,0.0324,0.013523,0.002678,0.000431,0.010578
11309000,0.0324,0.013523,0.002678,0.000431,0.010107
11310000,0.0324,0.013523,0.002678,0.000431,0.009402
11311000,0.0324,0.013523,0.002678,0.000431,0.009872
11312000,0.0324,0.013523,0.002678,0.000431,0.009755
11313000,0.0324,0.013523,0.002678,0.000431,0.009285
11314000,0.0324,0.013523,0.002678,0.000431,0.010460
11315000,0.0324,0.013523,0.002678,0.000431,0.009402
11316000,0.0324,0.013523,0.002678,0.000431,0.010107
11317000,0.0324,0.013523,0.002678,0.000431,0.010107
11318000,0.0324,0.013523,0.002678,0.000431,0.011165
11319000,0.0324,0.013523,0.002678,0.000431,0.010342
11320000,0.0324,0.013523,0.002678,0.000431,0.010225
11321000,0.0324,0.013523,0.002678,0.000431,0.010107
11322000,0.0324,0.013523,0.002678,0.000431,0.009872
11323000,0.0324,0.013523,0.002678,0.000431,0.010578
11324000,0.0324,0.013523,0.002678,0.000431,0.010107
11325000,0.0324,0.013523,0.002678,0.000431,0.009285
11326000,0.0324,0.013523,0.002678,0.000431,0.010342
11327000,0.0324,0.013523,0.002678,0.000431,0.010460
11328000,0.0324,0.013523,0.002678,0.000431,0.010107
11329000,0.0324,0.013523,0.002678,0.000431,0.009402
11330000,0.0324,0.013523,0.002678,0.000431,0.009990
11331000,0.0324,0.013523,0.002678,0.000431,0.008697
11332000,0.0324,0.013523,0.002678,0.000431,0.009990
11333000,0.0324,0.013523,0.002678,0.000431,0.009990
11334000,0.0324,0.013523,0.002678,0.000431,0.009285
11335000,0.0324,0.013523,0.002678,0.000431,0.010813
11336000,0.0324,0.013523,0.002678,0.000431,0.009990
11337000,0.0324,0.013523,0.002678,0.000431,0.010930
11338000,0.0324,0.013523,0.002678,0.000431,0.009872
11339000,0.0324,0.013523,0.002678,0.000431,0.010107
11340000,0.0324,0.013523,0.002678,0.000431,0.009402
11341000,0.0324,0.013523,0.002678,0.000431,0.010107
11342000,0.0324,0.013523,0.002678,0.000431,0.010225
11343000,0.0324,0.013523,0.002678,0.000431,0.009755
11344000,0.0324,0.013523,0.002678,0.000431,0.009872
11345000,0.0324,0.013523,0.002678,0.000431,0.009520
11346000,0.0324,0.013523,0.002678,0.000431,0.010225
11347000,0.0324,0.013523,0.002678,0.000431,0.009755
11348000,0.0324,0.013523,0.002678,0.000431,0.010578
11349000,0.0324,0.013523,0.002678,0.000431,0.010460
11350000,0.0324,0.013523,0.002678,0.000431,0.010695
11351000,0.0324,0.013523,0.002678,0.000431,0.009637
11352000,0.0324,0.013523,0.002678,0.000431,0.010460
11353000,0.0324,0.013523,0.002678,0.000431,0.009402
11354000,0.0324,0.013523,0.002678,0.000431,0.010225
11355000,0.0324,0.013523,0.002678,0.000431,0.009990
11356000,0.0324,0.013523,0.002678,0.000431,0.009872
11357000,0.0324,0.013523,0.002678,0.000431,0.010460
11358000,0.0324,0.013523,0.002678,0.000431,0.009990
11359000,0.0324,0.013523,0.002678,0.000431,0.009990
11360000,0.0324,0.013523,0.002678,0.000431,0.010460
11361000,0.0324,0.013523,0.002678,0.000431,0.009637
11362000,0.0324,0.013523,0.002678,0.000431,0.009872
11363000,0.0324,0.013523,0.002678,0.000431,0.010342
11364000,0.0324,0.013523,0.002678,0.000431,0.010460
11365000,0.0324,0.013523,0.002678,0.000431,0.010460
11366000,0.0324,0.013523,0.002678,0.000431,0.009050
11367000,0.0324,0.013523,0.002678,0.000431,0.010107
11368000,0.0324,0.013523,0.002678,0.000431,0.009755
11369000,0.0324,0.013523,0.002678,0.000431,0.009872
11370000,0.0324,0.013523,0.002678,0.000431,0.009872
11371000,0.0324,0.013523,0.002678,0.000431,0.009402
11372000,0.0324,0.013523,0.002678,0.000431,0.010225
11373000,0.0324,0.013523,0.002678,0.000431,0.010225
11374000,0.0324,0.013523,0.002678,0.000431,0.010578
11375000,0.0324,0.013523,0.002678,0.000431,0.010578
11376000,0.0324,0.013523,0.002678,0.000431,0.010813
11377000,0.0324,0.013523,0.002678,0.000431,0.009990
11378000,0.0324,0.013523,0.002678,0.000431,0.011400
11379000,0.0324,0.013523,0.002678,0.000431,0.009402
11380000,0.0324,0.013523,0.002678,0.000431,0.008932
11381000,0.0324,0.013523,0.002678,0.000431,0.009872
11382000,0.0324,0.013523,0.002678,0.000431,0.010342
11383000,0.0324,0.013523,0.002678,0.000431,0.010342
11384000,0.0324,0.013523,0.002678,0.000431,0.010695
11385000,0.0324,0.013523,0.002678,0.000431,0.009872
11386000,0.0324,0.013523,0.002678,0.000431,0.010813
11387000,0.0324,0.013523,0.002678,0.000431,0.009637
11388000,0.0324,0.013523,0.002678,0.000431,0.009167
11389000,0.0324,0.013523,0.002678,0.000431,0.011635
11390000,0.0324,0.013523,0.002678,0.000431,0.009990
11391000,0.0324,0.013523,0.002678,0.000431,0.009755
11392000,0.0324,0.013523,0.002678,0.000431,0.009755
11393000,0.0324,0.013523,0.002678,0.000431,0.011635
11394000,0.0324,0.013523,0.002678,0.000431,0.009990
11395000,0.0324,0.013523,0.002678,0.000431,0.010342
11396000,0.0324,0.013523,0.002678,0.000431,0.009990
11397000,0.0324,0.013523,0.002678,0.000431,0.010930
11398000,0.0324,0.013523,0.002678,0.000431,0.010107
11399000,0.0324,0.013523,0.002678,0.000431,0.010107
11400000,0.0324,0.013523,0.002678,0.000431,0.009755
11401000,0.0324,0.013523,0.002678,0.000431,0.010578
11402000,0.0324,0.013523,0.002678,0.000431,0.010107
11403000,0.0324,0.013523,0.002678,0.000431,0.009872
11404000,0.0324,0.013523,0.002678,0.000431,0.011400
11405000,0.0324,0.013523,0.002678,0.000431,0.009872
11406000,0.0324,0.013523,0.002678,0.000431,0.009520
11407000,0.0324,0.013523,0.002678,0.000431,0.009637
11408000,0.0324,0.013523,0.002678,0.000431,0.010930
11409000,0.0324,0.013523,0.002678,0.000431,0.008580
11410000,0.0324,0.013523,0.002678,0.000431,0.010578
11411000,0.0324,0.013523,0.002678,0.000431,0.010460
11412000,0.0324,0.013523,0.002678,0.000431,0.009990
11413000,0.0324,0.013523,0.002678,0.000431,0.010813
11414000,0.0324,0.013523,0.002678,0.000431,0.010107
11415000,0.0324,0.013523,0.002678,0.000431,0.010460
11416000,0.0324,0.013523,0.002678,0.000431,0.009637
11417000,0.0324,0.013523,0.002678,0.000431,0.010107
11418000,0.0324,0.013523,0.002678,0.000431,0.010460
11419000,0.0324,0.013523,0.002678,0.000431,0.010460
11420000,0.0324,0.013523,0.002678,0.000431,0.009402
11421000,0.0324,0.013523,0.002678,0.000431,0.009990
11422000,0.0324,0.013523,0.002678,0.000431,0.011165
11423000,0.0324,0.013523,0.002678,0.000431,0.009050
11424000,0.0324,0.013523,0.002678,0.000431,0.011165
11425000,0.0324,0.013523,0.002678,0.000431,0.010460
11426000,0.0324,0.013523,0.002678,0.000431,0.010342
11427000,0.0324,0.013523,0.002678,0.000431,0.009990
11428000,0.0324,0.013523,0.002678,0.000431,0.010342
11429000,0.0324,0.013523,0.002678,0.000431,0.009402
11430000,0.0324,0.013523,0.002678,0.000431,0.009872
11431000,0.0324,0.013523,0.002678,0.000431,0.011283
11432000,0.0324,0.013523,0.002678,0.000431,0.009050
11433000,0.0324,0.013523,0.002678,0.000431,0.010460
11434000,0.0324,0.013523,0.002678,0.000431,0.010460
11435000,0.0324,0.013523,0.002678,0.000431,0.009520
11436000,0.0324,0.013523,0.002678,0.000431,0.010813
11437000,0.0324,0.013523,0.002678,0.000431,0.009872
11438000,0.0324,0.013523,0.002678,0.000431,0.010342
11439000,0.0324,0.013523,0.002678,0.000431,0.010342
11440000,0.0324,0.013523,0.002678,0.000431,0.009285
11441000,0.0324,0.013523,0.002678,0.000431,0.009285
11442000,0.0324,0.013523,0.002678,0.000431,0.010813
11443000,0.0324,0.013523,0.002678,0.000431,0.009637
11444000,0.0324,0.013523,0.002678,0.000431,0.009167
11445000,0.0324,0.013523,0.002678,0.000431,0.009872
11446000,0.0324,0.013523,0.002678,0.000431,0.009990
11447000,0.0324,0.013523,0.002678,0.000431,0.009285
11448000,0.0324,0.013523,0.002678,0.000431,0.010225
11449000,0.0324,0.013523,0.002678,0.000431,0.010342
11450000,0.0324,0.013523,0.002678,0.000431,0.009050
11451000,0.0324,0.013523,0.002678,0.000431,0.009872
11452000,0.0324,0.013523,0.002678,0.000431,0.011400
11453000,0.0324,0.013523,0.002678,0.000431,0.009872
11454000,0.0324,0.013523,0.002678,0.000431,0.010342
11455000,0.0324,0.013523,0.002678,0.000431,0.009050
11456000,0.0324,0.013523,0.002678,0.000431,0.010578
11457000,0.0324,0.013523,0.002678,0.000431,0.010578
11458000,0.0324,0.013523,0.002678,0.000431,0.009755
11459000,0.0324,0.013523,0.002678,0.000431,0.009285
11460000,0.0324,0.013523,0.002678,0.000431,0.010813
11461000,0.0324,0.013523,0.002678,0.000431,0.009520
11462000,0.0324,0.013523,0.002678,0.000431,0.010107
11463000,0.0324,0.013523,0.002678,0.000431,0.009285
11464000,0.0324,0.013523,0.002678,0.000431,0.010460
11465000,0.0324,0.013523,0.002678,0.000431,0.009520
11466000,0.0324,0.013523,0.002678,0.000431,0.009872
11467000,0.0324,0.013523,0.002678,0.000431,0.009872
11468000,0.0324,0.013523,0.002678,0.000431,0.009285
11469000,0.0324,0.013523,0.002678,0.000431,0.010578
11470000,0.0324,0.013523,0.002678,0.000431,0.009402
11471000,0.0324,0.013523,0.002678,0.000431,0.009990
11472000,0.0324,0.013523,0.002678,0.000431,0.008580
11473000,0.0324,0.013523,0.002678,0.000431,0.011048
11474000,0.0324,0.013523,0.002678,0.000431,0.009402
11475000,0.0324,0.013523,0.002678,0.000431,0.010460
11476000,0.0324,0.013523,0.002678,0.000431,0.009167
11477000,0.0324,0.013523,0.002678,0.000431,0.008697
11478000,0.0324,0.013523,0.002678,0.000431,0.010813
11479000,0.0324,0.013523,0.002678,0.000431,0.010813
11480000,0.0324,0.013523,0.002678,0.000431,0.010813
11481000,0.0324,0.013523,0.002678,0.000431,0.009285
11482000,0.0324,0.013523,0.002678,0.000431,0.010460
11483000,0.0324,0.013523,0.002678,0.000431,0.010107
11484000,0.0324,0.013523,0.002678,0.000431,0.010930
11485000,0.0324,0.013523,0.002678,0.000431,0.010225
11486000,0.0324,0.013523,0.002678,0.000431,0.010460
11487000,0.0324,0.013523,0.002678,0.000431,0.009285
11488000,0.0324,0.013523,0.002678,0.000431,0.009285
11489000,0.0324,0.013523,0.002678,0.000431,0.011283
11490000,0.0324,0.013523,0.002678,0.000431,0.011400
11491000,0.0324,0.013523,0.002678,0.000431,0.008932
11492000,0.0324,0.013523,0.002678,0.000431,0.009167
11493000,0.0324,0.013523,0.002678,0.000431,0.010578
11494000,0.0324,0.013523,0.002678,0.000431,0.010930
11495000,0.0324,0.013523,0.002678,0.000431,0.009285
11496000,0.0324,0.013523,0.002678,0.000431,0.009285
11497000,0.0324,0.013523,0.002678,0.000431,0.010107
11498000,0.0324,0.013523,0.002678,0.000431,0.009520
11499000,0.0324,0.013523,0.002678,0.000431,0.010107
11500000,0.0324,0.013523,0.002678,0.000431,0.009990
11501000,0.0324,0.013523,0.002678,0.000431,0.010813
11502000,0.0324,0.013523,0.002678,0.000431,0.010342
11503000,0.0324,0.013523,0.002678,0.000431,0.009872
11504000,0.0324,0.013523,0.002678,0.000431,0.009872
11505000,0.0324,0.013523,0.002678,0.000431,0.009520
11506000,0.0324,0.013523,0.002678,0.000431,0.010107
11507000,0.0324,0.013523,0.002678,0.000431,0.010342
11508000,0.0324,0.013523,0.002678,0.000431,0.009990
11509000,0.0324,0.013523,0.002678,0.000431,0.010225
11510000,0.0324,0.013523,0.002678,0.000431,0.009990
11511000,0.0324,0.013523,0.002678,0.000431,0.008932
11512000,0.0324,0.013523,0.002678,0.000431,0.009990
11513000,0.0324,0.013523,0.002678,0.000431,0.010342
11514000,0.0324,0.013523,0.002678,0.000431,0.010460
11515000,0.0324,0.013523,0.002678,0.000431,0.009872
11516000,0.0324,0.013523,0.002678,0.000431,0.010342
11517000,0.0324,0.013523,0.002678,0.000431,0.010695
11518000,0.0324,0.013523,0.002678,0.000431,0.009402
11519000,0.0324,0.013523,0.002678,0.000431,0.010930
11520000,0.0324,0.013523,0.002678,0.000431,0.009872
11521000,0.0324,0.013523,0.002678,0.000431,0.010107
11522000,0.0324,0.013523,0.002678,0.000431,0.010342
11523000,0.0324,0.013523,0.002678,0.000431,0.010342
11524000,0.0324,0.013523,0.002678,0.000431,0.011165
11525000,0.0324,0.013523,0.002678,0.000431,0.009872
11526000,0.0324,0.013523,0.002678,0.000431,0.008345
11527000,0.0324,0.013523,0.002678,0.000431,0.011165
11528000,0.0324,0.013523,0.002678,0.000431,0.009637
11529000,0.0324,0.013523,0.002678,0.000431,0.009637
11530000,0.0324,0.013523,0.002678,0.000431,0.009755
11531000,0.0324,0.013523,0.002678,0.000431,0.010225
11532000,0.0324,0.013523,0.002678,0.000431,0.009755
11533000,0.0324,0.013523,0.002678,0.000431,0.009520
11534000,0.0324,0.013523,0.002678,0.000431,0.010813
11535000,0.0324,0.013523,0.002678,0.000431,0.008697
11536000,0.0324,0.013523,0.002678,0.000431,0.011048
11537000,0.0324,0.013523,0.002678,0.000431,0.009402
11538000,0.0324,0.013523,0.002678,0.000431,0.008815
11539000,0.0324,0.013523,0.002678,0.000431,0.009755
11540000,0.0324,0.013523,0.002678,0.000431,0.009637
11541000,0.0324,0.013523,0.002678,0.000431,0.009755
11542000,0.0324,0.013523,0.002678,0.000431,0.009755
11543000,0.0324,0.013523,0.002678,0.000431,0.009637
11544000,0.0324,0.013523,0.002678,0.000431,0.009637
11545000,0.0324,0.013523,0.002678,0.000431,0.010107
11546000,0.0324,0.013523,0.002678,0.000431,0.010107
11547000,0.0324,0.013523,0.002678,0.000431,0.009285
11548000,0.0324,0.013523,0.002678,0.000431,0.009872
11549000,0.0324,0.013523,0.002678,0.000431,0.009990
11550000,0.0324,0.013523,0.002678,0.000431,0.009402
11551000,0.0324,0.013523,0.002678,0.000431,0.009520
11552000,0.0324,0.013523,0.002678,0.000431,0.009167
11553000,0.0324,0.013523,0.002678,0.000431,0.009167
11554000,0.0324,0.013523,0.002678,0.000431,0.010578
11555000,0.0324,0.013523,0.002678,0.000431,0.010225
11556000,0.0324,0.013523,0.002678,0.000431,0.009402
11557000,0.0324,0.013523,0.002678,0.000431,0.009637
11558000,0.0324,0.013523,0.002678,0.000431,0.010460
11559000,0.0324,0.013523,0.002678,0.000431,0.010107
11560000,0.0324,0.013523,0.002678,0.000431,0.009755
11561000,0.0324,0.013523,0.002678,0.000431,0.009755
11562000,0.0324,0.013523,0.002678,0.000431,0.010578
11563000,0.0324,0.013523,0.002678,0.000431,0.009755
11564000,0.0324,0.013523,0.002678,0.000431,0.010225
11565000,0.0324,0.013523,0.002678,0.000431,0.010578
11566000,0.0324,0.013523,0.002678,0.000431,0.009402
11567000,0.0324,0.013523,0.002678,0.000431,0.009637
11568000,0.0324,0.013523,0.002678,0.000431,0.010225
11569000,0.0324,0.013523,0.002678,0.000431,0.009050
11570000,0.0324,0.013523,0.002678,0.000431,0.009755
11571000,0.0324,0.013523,0.002678,0.000431,0.010342
11572000,0.0324,0.013523,0.002678,0.000431,0.009755
11573000,0.0324,0.013523,0.002678,0.000431,0.009520
11574000,0.0324,0.013523,0.002678,0.000431,0.010107
11575000,0.0324,0.013523,0.002678,0.000431,0.010813
11576000,0.0324,0.013523,0.002678,0.000431,0.008932
11577000,0.0324,0.013523,0.002678,0.000431,0.009755
11578000,0.0324,0.013523,0.002678,0.000431,0.009637
11579000,0.0324,0.013523,0.002678,0.000431,0.010695
11580000,0.0324,0.013523,0.002678,0.000431,0.009285
11581000,0.0324,0.013523,0.002678,0.000431,0.009637
11582000,0.0324,0.013523,0.002678,0.000431,0.009637
11583000,0.0324,0.013523,0.002678,0.000431,0.009755
11584000,0.0324,0.013523,0.002678,0.000431,0.009755
11585000,0.0324,0.013523,0.002678,0.000431,0.009402
11586000,0.0324,0.013523,0.002678,0.000431,0.009755
11587000,0.0324,0.013523,0.002678,0.000431,0.010460
11588000,0.0324,0.013523,0.002678,0.000431,0.009755
11589000,0.0324,0.013523,0.002678,0.000431,0.009050
11590000,0.0324,0.013523,0.002678,0.000431,0.009755
11591000,0.0324,0.013523,0.002678,0.000431,0.009637
11592000,0.0324,0.013523,0.002678,0.000431,0.009990
11593000,0.0324,0.013523,0.002678,0.000431,0.008932
11594000,0.0324,0.013523,0.002678,0.000431,0.010813
11595000,0.0324,0.013523,0.002678,0.000431,0.008932
11596000,0.0324,0.013523,0.002678,0.000431,0.009285
11597000,0.0324,0.013523,0.002678,0.000431,0.008815
11598000,0.0324,0.013523,0.002678,0.000431,0.011048
11599000,0.0324,0.013523,0.002678,0.000431,0.009755
11600000,0.0324,0.013523,0.002678,0.000431,0.008580
11601000,0.0324,0.013523,0.002678,0.000431,0.009520
11602000,0.0324,0.013523,0.002678,0.000431,0.008932
11603000,0.0324,0.013523,0.002678,0.000431,0.009285
11604000,0.0324,0.013523,0.002678,0.000431,0.010342
11605000,0.0324,0.013523,0.002678,0.000431,0.008462
11606000,0.0324,0.013523,0.002678,0.000431,0.009872
11607000,0.0324,0.013523,0.002678,0.000431,0.008697
11608000,0.0324,0.013523,0.002678,0.000431,0.009285
11609000,0.0324,0.013523,0.002678,0.000431,0.010578
11610000,0.0324,0.013523,0.002678,0.000431,0.008462
11611000,0.0324,0.013523,0.002678,0.000431,0.009402
11612000,0.0324,0.013523,0.002678,0.000431,0.008580
11613000,0.0324,0.013523,0.002678,0.000431,0.009285
11614000,0.0324,0.013523,0.002678,0.000431,0.007639
11615000,0.0324,0.013523,0.002678,0.000431,0.009167
11616000,0.0324,0.013523,0.002678,0.000431,0.009637
11617000,0.0324,0.013523,0.002678,0.000431,0.007522
11618000,0.0324,0.013523,0.002678,0.000431,0.008815
11619000,0.0324,0.013523,0.002678,0.000431,0.008815
11620000,0.0324,0.013523,0.002678,0.000431,0.007639
11621000,0.0324,0.013523,0.002678,0.000431,0.008932
11622000,0.0324,0.013523,0.002678,0.000431,0.009520
11623000,0.0324,0.013523,0.002678,0.000431,0.009520
11624000,0.0324,0.013523,0.002678,0.000431,0.008580
11625000,0.0324,0.013523,0.002678,0.000431,0.008815
11626000,0.0324,0.013523,0.002678,0.000431,0.008227
11627000,0.0324,0.013523,0.002678,0.000431,0.009285
11628000,0.0324,0.013523,0.002678,0.000431,0.008580
11629000,0.0324,0.013523,0.002678,0.000431,0.009402
11630000,0.0324,0.013523,0.002678,0.000431,0.008932
11631000,0.0324,0.013523,0.002678,0.000431,0.009167
11632000,0.0324,0.013523,0.002678,0.000431,0.009050
11633000,0.0324,0.013523,0.002678,0.000431,0.009637
11634000,0.0324,0.013523,0.002678,0.000431,0.008462
11635000,0.0324,0.013523,0.002678,0.000431,0.008815
11636000,0.0324,0.013523,0.002678,0.000431,0.009285
11637000,0.0324,0.013523,0.002678,0.000431,0.010225
11638000,0.0324,0.013523,0.002678,0.000431,0.008697
11639000,0.0324,0.013523,0.002678,0.000431,0.008815
11640000,0.0324,0.013523,0.002678,0.000431,0.009520
11641000,0.0324,0.013523,0.002678,0.000431,0.007757
11642000,0.0324,0.013523,0.002678,0.000431,0.010460
11643000,0.0324,0.013523,0.002678,0.000431,0.008815
11644000,0.0324,0.013523,0.002678,0.000431,0.008815
11645000,0.0324,0.013523,0.002678,0.000431,0.008932
11646000,0.0324,0.013523,0.002678,0.000431,0.010107
11647000,0.0324,0.013523,0.002678,0.000431,0.008227
11648000,0.0324,0.013523,0.002678,0.000431,0.009167
11649000,0.0324,0.013523,0.002678,0.000431,0.009285
11650000,0.0324,0.013523,0.002678,0.000431,0.009285
11651000,0.0324,0.013523,0.002678,0.000431,0.008932
11652000,0.0324,0.013523,0.002678,0.000431,0.009637
11653000,0.0324,0.013523,0.002678,0.000431,0.009050
11654000,0.0324,0.013523,0.002678,0.000431,0.009167
11655000,0.0324,0.013523,0.002678,0.000431,0.009637
11656000,0.0324,0.013523,0.002678,0.000431,0.009050
11657000,0.0324,0.013523,0.002678,0.000431,0.009990
11658000,0.0324,0.013523,0.002678,0.000431,0.008932
11659000,0.0324,0.013523,0.002678,0.000431,0.009285
11660000,0.0324,0.013523,0.002678,0.000431,0.009402
11661000,0.0324,0.013523,0.002678,0.000431,0.009167
11662000,0.0324,0.013523,0.002678,0.000431,0.008345
11663000,0.0324,0.013523,0.002678,0.000431,0.009520
11664000,0.0324,0.013523,0.002678,0.000431,0.009285
11665000,0.0324,0.013523,0.002678,0.000431,0.009285
11666000,0.0324,0.013523,0.002678,0.000431,0.009402
11667000,0.0324,0.013523,0.002678,0.000431,0.008815
11668000,0.0324,0.013523,0.002678,0.000431,0.010107
11669000,0.0324,0.013523,0.002678,0.000431,0.009872
11670000,0.0324,0.013523,0.002678,0.000431,0.008580
11671000,0.0324,0.013523,0.002678,0.000431,0.009285
11672000,0.0324,0.013523,0.002678,0.000431,0.010695
11673000,0.0324,0.013523,0.002678,0.000431,0.009285
11674000,0.0324,0.013523,0.002678,0.000431,0.010342
11675000,0.0324,0.013523,0.002678,0.000431,0.008580
11676000,0.0324,0.013523,0.002678,0.000431,0.009402
11677000,0.0324,0.013523,0.002678,0.000431,0.009520
11678000,0.0324,0.013523,0.002678,0.000431,0.009637
11679000,0.0324,0.013523,0.002678,0.000431,0.008580
11680000,0.0324,0.013523,0.002678,0.000431,0.008815
11681000,0.0324,0.013523,0.002678,0.000431,0.009402
11682000,0.0324,0.013523,0.002678,0.000431,0.008580
11683000,0.0324,0.013523,0.002678,0.000431,0.009167
11684000,0.0324,0.013523,0.002678,0.000431,0.009402
11685000,0.0324,0.013523,0.002678,0.000431,0.008697
11686000,0.0324,0.013523,0.002678,0.000431,0.009402
11687000,0.0324,0.013523,0.002678,0.000431,0.009755
11688000,0.0324,0.013523,0.002678,0.000431,0.008697
11689000,0.0324,0.013523,0.002678,0.000431,0.008227
11690000,0.0324,0.013523,0.002678,0.000431,0.009520
11691000,0.0324,0.013523,0.002678,0.000431,0.008815
11692000,0.0324,0.013523,0.002678,0.000431,0.009637
11693000,0.0324,0.013523,0.002678,0.000431,0.009402
11694000,0.0324,0.013523,0.002678,0.000431,0.009402
11695000,0.0324,0.013523,0.002678,0.000431,0.010225
11696000,0.0324,0.013523,0.002678,0.000431,0.008462
11697000,0.0324,0.013523,0.002678,0.000431,0.009872
11698000,0.0324,0.013523,0.002678,0.000431,0.009990
11699000,0.0324,0.013523,0.002678,0.000431,0.008697
11700000,0.0324,0.013523,0.002678,0.000431,0.009755
11701000,0.0324,0.013523,0.002678,0.000431,0.009402
11702000,0.0324,0.013523,0.002678,0.000431,0.009285
11703000,0.0324,0.013523,0.002678,0.000431,0.010225
11704000,0.0324,0.013523,0.002678,0.000431,0.008109
11705000,0.0324,0.013523,0.002678,0.000431,0.010342
11706000,0.0324,0.013523,0.002678,0.000431,0.009285
11707000,0.0324,0.013523,0.002678,0.000431,0.009285
11708000,0.0324,0.013523,0.002678,0.000431,0.008462
11709000,0.0324,0.013523,0.002678,0.000431,0.009755
11710000,0.0324,0.013523,0.002678,0.000431,0.009167
11711000,0.0324,0.013523,0.002678,0.000431,0.008815
11712000,0.0324,0.013523,0.002678,0.000431,0.009990
11713000,0.0324,0.013523,0.002678,0.000431,0.009990
11714000,0.0324,0.013523,0.002678,0.000431,0.008932
11715000,0.0324,0.013523,0.002678,0.000431,0.009285
11716000,0.0324,0.013523,0.002678,0.000431,0.008462
11717000,0.0324,0.013523,0.002678,0.000431,0.010107
11718000,0.0324,0.013523,0.002678,0.000431,0.010107
11719000,0.0324,0.013523,0.002678,0.000431,0.008815
11720000,0.0324,0.013523,0.002678,0.000431,0.010107
11721000,0.0324,0.013523,0.002678,0.000431,0.009990
11722000,0.0324,0.013523,0.002678,0.000431,0.009520
11723000,0.0324,0.013523,0.002678,0.000431,0.008580
11724000,0.0324,0.013523,0.002678,0.000431,0.009872
11725000,0.0324,0.013523,0.002678,0.000431,0.009050
11726000,0.0324,0.013523,0.002678,0.000431,0.009167
11727000,0.0324,0.013523,0.002678,0.000431,0.009050
11728000,0.0324,0.013523,0.002678,0.000431,0.009637
11729000,0.0324,0.013523,0.002678,0.000431,0.009167
11730000,0.0324,0.013523,0.002678,0.000431,0.009402
11731000,0.0324,0.013523,0.002678,0.000431,0.009520
11732000,0.0324,0.013523,0.002678,0.000431,0.009637
11733000,0.0324,0.013523,0.002678,0.000431,0.008345
11734000,0.0324,0.013523,0.002678,0.000431,0.009402
11735000,0.0324,0.013523,0.002678,0.000431,0.011400
11736000,0.0324,0.013523,0.002678,0.000431,0.008109
11737000,0.0324,0.013523,0.002678,0.000431,0.009637
11738000,0.0324,0.013523,0.002678,0.000431,0.009167
11739000,0.0324,0.013523,0.002678,0.000431,0.009050
11740000,0.0324,0.013523,0.002678,0.000431,0.009285
11741000,0.0324,0.013523,0.002678,0.000431,0.009050
11742000,0.0324,0.013523,0.002678,0.000431,0.009050
11743000,0.0324,0.013523,0.002678,0.000431,0.009520
11744000,0.0324,0.013523,0.002678,0.000431,0.009637
11745000,0.0324,0.013523,0.002678,0.000431,0.008932
11746000,0.0324,0.013523,0.002678,0.000431,0.009872
11747000,0.0324,0.013523,0.002678,0.000431,0.009990
11748000,0.0324,0.013523,0.002678,0.000431,0.009990
11749000,0.0324,0.013523,0.002678,0.000431,0.008815
11750000,0.0324,0.013523,0.002678,0.000431,0.009285
11751000,0.0324,0.013523,0.002678,0.000431,0.009520
11752000,0.0324,0.013523,0.002678,0.000431,0.009872
11753000,0.0324,0.013523,0.002678,0.000431,0.008815
11754000,0.0324,0.013523,0.002678,0.000431,0.010225
11755000,0.0324,0.013523,0.002678,0.000431,0.009520
11756000,0.0324,0.013523,0.002678,0.000431,0.009402
11757000,0.0324,0.013523,0.002678,0.000431,0.009520
11758000,0.0324,0.013523,0.002678,0.000431,0.010460
11759000,0.0324,0.013523,0.002678,0.000431,0.009990
11760000,0.0324,0.013523,0.002678,0.000431,0.009285
11761000,0.0324,0.013523,0.002678,0.000431,0.009990
11762000,0.0324,0.013523,0.002678,0.000431,0.008932
11763000,0.0324,0.013523,0.002678,0.000431,0.008697
11764000,0.0324,0.013523,0.002678,0.000431,0.008815
11765000,0.0324,0.013523,0.002678,0.000431,0.009167
11766000,0.0324,0.013523,0.002678,0.000431,0.009167
11767000,0.0324,0.013523,0.002678,0.000431,0.009520
11768000,0.0324,0.013523,0.002678,0.000431,0.009402
11769000,0.0324,0.013523,0.002678,0.000431,0.010342
11770000,0.0324,0.013523,0.002678,0.000431,0.010578
11771000,0.0324,0.013523,0.002678,0.000431,0.008815
11772000,0.0324,0.013523,0.002678,0.000431,0.009990
11773000,0.0324,0.013523,0.002678,0.000431,0.010107
11774000,0.0324,0.013523,0.002678,0.000431,0.009755
11775000,0.0324,0.013523,0.002678,0.000431,0.008580
11776000,0.0324,0.013523,0.002678,0.000431,0.010578
11777000,0.0324,0.013523,0.002678,0.000431,0.008345
11778000,0.0324,0.013523,0.002678,0.000431,0.010578
11779000,0.0324,0.013523,0.002678,0.000431,0.009872
11780000,0.0324,0.013523,0.002678,0.000431,0.009285
11781000,0.0324,0.013523,0.002678,0.000431,0.009402
11782000,0.0324,0.013523,0.002678,0.000431,0.009637
11783000,0.0324,0.013523,0.002678,0.000431,0.010813
11784000,0.0324,0.013523,0.002678,0.000431,0.009050
11785000,0.0324,0.013523,0.002678,0.000431,0.009402
11786000,0.0324,0.013523,0.002678,0.000431,0.009755
11787000,0.0324,0.013523,0.002678,0.000431,0.010107
11788000,0.0324,0.013523,0.002678,0.000431,0.009050
11789000,0.0324,0.013523,0.002678,0.000431,0.010460
11790000,0.0324,0.013523,0.002678,0.000431,0.008462
11791000,0.0324,0.013523,0.002678,0.000431,0.009520
11792000,0.0324,0.013523,0.002678,0.000431,0.008697
11793000,0.0324,0.013523,0.002678,0.000431,0.009520
11794000,0.0324,0.013523,0.002678,0.000431,0.010107
11795000,0.0324,0.013523,0.002678,0.000431,0.009050
11796000,0.0324,0.013523,0.002678,0.000431,0.010107
11797000,0.0324,0.013523,0.002678,0.000431,0.009990
11798000,0.0324,0.013523,0.002678,0.000431,0.010578
11799000,0.0324,0.013523,0.002678,0.000431,0.008815
11800000,0.0324,0.013523,0.002678,0.000431,0.010342
11801000,0.0324,0.013523,0.002678,0.000431,0.008697
11802000,0.0324,0.013523,0.002678,0.000431,0.011048
11803000,0.0324,0.013523,0.002678,0.000431,0.008580
11804000,0.0324,0.013523,0.002678,0.000431,0.008580
11805000,0.0324,0.013523,0.002678,0.000431,0.009167
11806000,0.0324,0.013523,0.002678,0.000431,0.009637
11807000,0.0324,0.013523,0.002678,0.000431,0.009402
11808000,0.0324,0.013523,0.002678,0.000431,0.008227
11809000,0.0324,0.013523,0.002678,0.000431,0.010342
11810000,0.0324,0.013523,0.002678,0.000431,0.009755
11811000,0.0324,0.013523,0.002678,0.000431,0.009755
11812000,0.0324,0.013523,0.002678,0.000431,0.009167
11813000,0.0324,0.013523,0.002678,0.000431,0.008815
11814000,0.0324,0.013523,0.002678,0.000431,0.009285
11815000,0.0324,0.013523,0.002678,0.000431,0.009050
11816000,0.0324,0.013523,0.002678,0.000431,0.008932
11817000,0.0324,0.013523,0.002678,0.000431,0.009637
11818000,0.0324,0.013523,0.002678,0.000431,0.008227
11819000,0.0324,0.013523,0.002678,0.000431,0.009520
11820000,0.0324,0.013523,0.002678,0.000431,0.009755
11821000,0.0324,0.013523,0.002678,0.000431,0.009637
11822000,0.0324,0.013523,0.002678,0.000431,0.009285
11823000,0.0324,0.013523,0.002678,0.000431,0.009285
11824000,0.0324,0.013523,0.002678,0.000431,0.009755
11825000,0.0324,0.013523,0.002678,0.000431,0.009167
11826000,0.0324,0.013523,0.002678,0.000431,0.009402
11827000,0.0324,0.013523,0.002678,0.000431,0.009520
11828000,0.0324,0.013523,0.002678,0.000431,0.010107
11829000,0.0324,0.013523,0.002678,0.000431,0.009872
11830000,0.0324,0.013523,0.002678,0.000431,0.009050
11831000,0.0324,0.013523,0.002678,0.000431,0.009285
11832000,0.0324,0.013523,0.002678,0.000431,0.009520
11833000,0.0324,0.013523,0.002678,0.000431,0.009050
11834000,0.0324,0.013523,0.002678,0.000431,0.010342
11835000,0.0324,0.013523,0.002678,0.000431,0.009520
11836000,0.0324,0.013523,0.002678,0.000431,0.009755
11837000,0.0324,0.013523,0.002678,0.000431,0.008815
11838000,0.0324,0.013523,0.002678,0.000431,0.009755
11839000,0.0324,0.013523,0.002678,0.000431,0.009285
11840000,0.0324,0.013523,0.002678,0.000431,0.008697
11841000,0.0324,0.013523,0.002678,0.000431,0.010695
11842000,0.0324,0.013523,0.002678,0.000431,0.009050
11843000,0.0324,0.013523,0.002678,0.000431,0.010578
11844000,0.0324,0.013523,0.002678,0.000431,0.009050
11845000,0.0324,0.013523,0.002678,0.000431,0.009872
11846000,0.0324,0.013523,0.002678,0.000431,0.009050
11847000,0.0324,0.013523,0.002678,0.000431,0.009167
11848000,0.0324,0.013523,0.002678,0.000431,0.009637
11849000,0.0324,0.013523,0.002678,0.000431,0.009285
11850000,0.0324,0.013523,0.002678,0.000431,0.009050
11851000,0.0324,0.013523,0.002678,0.000431,0.010107
11852000,0.0324,0.013523,0.002678,0.000431,0.009050
11853000,0.0324,0.013523,0.002678,0.000431,0.009872
11854000,0.0324,0.013523,0.002678,0.000431,0.009050
11855000,0.0324,0.013523,0.002678,0.000431,0.008932
11856000,0.0324,0.013523,0.002678,0.000431,0.010695
11857000,0.0324,0.013523,0.002678,0.000431,0.009755
11858000,0.0324,0.013523,0.002678,0.000431,0.010695
11859000,0.0324,0.013523,0.002678,0.000431,0.009520
11860000,0.0324,0.013523,0.002678,0.000431,0.009520
11861000,0.0324,0.013523,0.002678,0.000431,0.008345
11862000,0.0324,0.013523,0.002678,0.000431,0.011165
11863000,0.0324,0.013523,0.002678,0.000431,0.009285
11864000,0.0324,0.013523,0.002678,0.000431,0.009755
11865000,0.0324,0.013523,0.002678,0.000431,0.010578
11866000,0.0324,0.013523,0.002678,0.000431,0.009285
11867000,0.0324,0.013523,0.002678,0.000431,0.009637
11868000,0.0324,0.013523,0.002678,0.000431,0.008932
11869000,0.0324,0.013523,0.002678,0.000431,0.009520
11870000,0.0324,0.013523,0.002678,0.000431,0.011283
11871000,0.0324,0.013523,0.002678,0.000431,0.009520
11872000,0.0324,0.013523,0.002678,0.000431,0.009755
11873000,0.0324,0.013523,0.002678,0.000431,0.009755
11874000,0.0324,0.013523,0.002678,0.000431,0.009990
11875000,0.0324,0.013523,0.002678,0.000431,0.009167
11876000,0.0324,0.013523,0.002678,0.000431,0.009167
11877000,0.0324,0.013523,0.002678,0.000431,0.010460
11878000,0.0324,0.013523,0.002678,0.000431,0.009872
11879000,0.0324,0.013523,0.002678,0.000431,0.008462
11880000,0.0324,0.013523,0.002678,0.000431,0.009872
11881000,0.0324,0.013523,0.002678,0.000431,0.009520
11882000,0.0324,0.013523,0.002678,0.000431,0.009637
11883000,0.0324,0.013523,0.002678,0.000431,0.009755
11884000,0.0324,0.013523,0.002678,0.000431,0.009520
11885000,0.0324,0.013523,0.002678,0.000431,0.009872
11886000,0.0324,0.013523,0.002678,0.000431,0.008815
11887000,0.0324,0.013523,0.002678,0.000431,0.010460
11888000,0.0324,0.013523,0.002678,0.000431,0.010342
11889000,0.0324,0.013523,0.002678,0.000431,0.010107
11890000,0.0324,0.013523,0.002678,0.000431,0.009167
11891000,0.0324,0.013523,0.002678,0.000431,0.010695
11892000,0.0324,0.013523,0.002678,0.000431,0.010460
11893000,0.0324,0.013523,0.002678,0.000431,0.008462
11894000,0.0324,0.013523,0.002678,0.000431,0.009872
11895000,0.0324,0.013523,0.002678,0.000431,0.010695
11896000,0.0324,0.013523,0.002678,0.000431,0.009755
11897000,0.0324,0.013523,0.002678,0.000431,0.009167
11898000,0.0324,0.013523,0.002678,0.000431,0.009990
11899000,0.0324,0.013523,0.002678,0.000431,0.009872
11900000,0.0324,0.013523,0.002678,0.000431,0.009637
11901000,0.0324,0.013523,0.002678,0.000431,0.009755
11902000,0.0324,0.013523,0.002678,0.000431,0.009872
11903000,0.0324,0.013523,0.002678,0.000431,0.010107
11904000,0.0324,0.013523,0.002678,0.000431,0.009755
11905000,0.0324,0.013523,0.002678,0.000431,0.009990
11906000,0.0324,0.013523,0.002678,0.000431,0.009285
11907000,0.0324,0.013523,0.002678,0.000431,0.010460
11908000,0.0324,0.013523,0.002678,0.000431,0.008462
11909000,0.0324,0.013523,0.002678,0.000431,0.009167
11910000,0.0324,0.013523,0.002678,0.000431,0.009755
11911000,0.0324,0.013523,0.002678,0.000431,0.010225
11912000,0.0324,0.013523,0.002678,0.000431,0.008932
11913000,0.0324,0.013523,0.002678,0.000431,0.008932
11914000,0.0324,0.013523,0.002678,0.000431,0.009755
11915000,0.0324,0.013523,0.002678,0.000431,0.009637
11916000,0.0324,0.013523,0.002678,0.000431,0.009167
11917000,0.0324,0.013523,0.002678,0.000431,0.009167
11918000,0.0324,0.013523,0.002678,0.000431,0.009990
11919000,0.0324,0.013523,0.002678,0.000431,0.010225
11920000,0.0324,0.013523,0.002678,0.000431,0.009285
11921000,0.0324,0.013523,0.002678,0.000431,0.009637
11922000,0.0324,0.013523,0.002678,0.000431,0.009755
11923000,0.0324,0.013523,0.002678,0.000431,0.009285
11924000,0.0324,0.013523,0.002678,0.000431,0.009520
11925000,0.0324,0.013523,0.002678,0.000431,0.009637
11926000,0.0324,0.013523,0.002678,0.000431,0.010225
11927000,0.0324,0.013523,0.002678,0.000431,0.009520
11928000,0.0324,0.013523,0.002678,0.000431,0.009167
11929000,0.0324,0.013523,0.002678,0.000431,0.010342
11930000,0.0324,0.013523,0.002678,0.000431,0.009402
11931000,0.0324,0.013523,0.002678,0.000431,0.009637
11932000,0.0324,0.013523,0.002678,0.000431,0.007874
11933000,0.0324,0.013523,0.002678,0.000431,0.011048
11934000,0.0324,0.013523,0.002678,0.000431,0.009167
11935000,0.0324,0.013523,0.002678,0.000431,0.009285
11936000,0.0324,0.013523,0.002678,0.000431,0.009520
11937000,0.0324,0.013523,0.002678,0.000431,0.009402
11938000,0.0324,0.013523,0.002678,0.000431,0.009755
11939000,0.0324,0.013523,0.002678,0.000431,0.009872
11940000,0.0324,0.013523,0.002678,0.000431,0.009285
11941000,0.0324,0.013523,0.002678,0.000431,0.008932
11942000,0.0324,0.013523,0.002678,0.000431,0.009755
11943000,0.0324,0.013523,0.002678,0.000431,0.010225
11944000,0.0324,0.013523,0.002678,0.000431,0.010460
11945000,0.0324,0.013523,0.002678,0.000431,0.009167
11946000,0.0324,0.013523,0.002678,0.000431,0.011048
11947000,0.0324,0.013523,0.002678,0.000431,0.009872
11948000,0.0324,0.013523,0.002678,0.000431,0.009990
11949000,0.0324,0.013523,0.002678,0.000431,0.009167
11950000,0.0324,0.013523,0.002678,0.000431,0.009402
11951000,0.0324,0.013523,0.002678,0.000431,0.010225
11952000,0.0324,0.013523,0.002678,0.000431,0.009990
11953000,0.0324,0.013523,0.002678,0.000431,0.009872
11954000,0.0324,0.013523,0.002678,0.000431,0.008462
11955000,0.0324,0.013523,0.002678,0.000431,0.009167
11956000,0.0324,0.013523,0.002678,0.000431,0.009520
11957000,0.0324,0.013523,0.002678,0.000431,0.009285
11958000,0.0324,0.013523,0.002678,0.000431,0.008345
11959000,0.0324,0.013523,0.002678,0.000431,0.008932
11960000,0.0324,0.013523,0.002678,0.000431,0.009520
11961000,0.0324,0.013523,0.002678,0.000431,0.007522
11962000,0.0324,0.013523,0.002678,0.000431,0.009050
11963000,0.0324,0.013523,0.002678,0.000431,0.009285
11964000,0.0324,0.013523,0.002678,0.000431,0.008227
11965000,0.0324,0.013523,0.002678,0.000431,0.008109
11966000,0.0324,0.013523,0.002678,0.000431,0.009167
11967000,0.0324,0.013523,0.002678,0.000431,0.008462
11968000,0.0324,0.013523,0.002678,0.000431,0.008109
11969000,0.0324,0.013523,0.002678,0.000431,0.007992
11970000,0.0324,0.013523,0.002678,0.000431,0.008697
11971000,0.0324,0.013523,0.002678,0.000431,0.007639
11972000,0.0324,0.013523,0.002678,0.000431,0.008462
11973000,0.0324,0.013523,0.002678,0.000431,0.008227
11974000,0.0324,0.013523,0.002678,0.000431,0.008697
11975000,0.0324,0.013523,0.002678,0.000431,0.007522
11976000,0.0324,0.013523,0.002678,0.000431,0.008462
11977000,0.0324,0.013523,0.002678,0.000431,0.009755
11978000,0.0324,0.013523,0.002678,0.000431,0.009050
11979000,0.0324,0.013523,0.002678,0.000431,0.007992
11980000,0.0324,0.013523,0.002678,0.000431,0.009050
11981000,0.0324,0.013523,0.002678,0.000431,0.008462
11982000,0.0324,0.013523,0.002678,0.000431,0.007874
11983000,0.0324,0.013523,0.002678,0.000431,0.008462
11984000,0.0324,0.013523,0.002678,0.000431,0.007992
11985000,0.0324,0.013523,0.002678,0.000431,0.007992
11986000,0.0324,0.013523,0.002678,0.000431,0.008227
11987000,0.0324,0.013523,0.002678,0.000431,0.008697
11988000,0.0324,0.013523,0.002678,0.000431,0.007639
11989000,0.0324,0.013523,0.002678,0.000431,0.008697
11990000,0.0324,0.013523,0.002678,0.000431,0.008462
11991000,0.0324,0.013523,0.002678,0.000431,0.007874
11992000,0.0324,0.013523,0.002678,0.000431,0.008580
11993000,0.0324,0.013523,0.002678,0.000431,0.008345
11994000,0.0324,0.013523,0.002678,0.000431,0.009167
11995000,0.0324,0.013523,0.002678,0.000431,0.008697
11996000,0.0324,0.013523,0.002678,0.000431,0.008345
11997000,0.0324,0.013523,0.002678,0.000431,0.008345
11998000,0.0324,0.013523,0.002678,0.000431,0.007757
11999000,0.0324,0.013523,0.002678,0.000431,0.008462
