Cycle,Area(mm^2),PeakDynamic(W),SubthresholdLeakage(W),GateLeakage(W),RunTimeDynamic(W)
6000000,0.0324,0.013523,0.002678,0.000431,0.034671
6001000,0.0324,0.013523,0.002678,0.000431,0.033260
6002000,0.0324,0.013523,0.002678,0.000431,0.033966
6003000,0.0324,0.013523,0.002678,0.000431,0.037021
6004000,0.0324,0.013523,0.002678,0.000431,0.033731
6005000,0.0324,0.013523,0.002678,0.000431,0.033378
6006000,0.0324,0.013523,0.002678,0.000431,0.037844
6007000,0.0324,0.013523,0.002678,0.000431,0.033966
6008000,0.0324,0.013523,0.002678,0.000431,0.033143
6009000,0.0324,0.013523,0.002678,0.000431,0.033378
6010000,0.0324,0.013523,0.002678,0.000431,0.035023
6011000,0.0324,0.013523,0.002678,0.000431,0.033848
6012000,0.0324,0.013523,0.002678,0.000431,0.034906
6013000,0.0324,0.013523,0.002678,0.000431,0.033496
6014000,0.0324,0.013523,0.002678,0.000431,0.032085
6015000,0.0324,0.013523,0.002678,0.000431,0.036316
6016000,0.0324,0.013523,0.002678,0.000431,0.032438
6017000,0.0324,0.013523,0.002678,0.000431,0.034553
6018000,0.0324,0.013523,0.002678,0.000431,0.035729
6019000,0.0324,0.013523,0.002678,0.000431,0.033260
6020000,0.0324,0.013523,0.002678,0.000431,0.035023
6021000,0.0324,0.013523,0.002678,0.000431,0.033966
6022000,0.0324,0.013523,0.002678,0.000431,0.034788
6023000,0.0324,0.013523,0.002678,0.000431,0.033260
6024000,0.0324,0.013523,0.002678,0.000431,0.036081
6025000,0.0324,0.013523,0.002678,0.000431,0.035611
6026000,0.0324,0.013523,0.002678,0.000431,0.036199
6027000,0.0324,0.013523,0.002678,0.000431,0.033731
6028000,0.0324,0.013523,0.002678,0.000431,0.033613
6029000,0.0324,0.013523,0.002678,0.000431,0.035846
6030000,0.0324,0.013523,0.002678,0.000431,0.035141
6031000,0.0324,0.013523,0.002678,0.000431,0.034671
6032000,0.0324,0.013523,0.002678,0.000431,0.032438
6033000,0.0324,0.013523,0.002678,0.000431,0.032673
6034000,0.0324,0.013523,0.002678,0.000431,0.037139
6035000,0.0324,0.013523,0.002678,0.000431,0.034201
6036000,0.0324,0.013523,0.002678,0.000431,0.031145
6037000,0.0324,0.013523,0.002678,0.000431,0.034436
6038000,0.0324,0.013523,0.002678,0.000431,0.035141
6039000,0.0324,0.013523,0.002678,0.000431,0.034201
6040000,0.0324,0.013523,0.002678,0.000431,0.034553
6041000,0.0324,0.013523,0.002678,0.000431,0.034788
6042000,0.0324,0.013523,0.002678,0.000431,0.033496
6043000,0.0324,0.013523,0.002678,0.000431,0.034318
6044000,0.0324,0.013523,0.002678,0.000431,0.035023
6045000,0.0324,0.013523,0.002678,0.000431,0.033966
6046000,0.0324,0.013523,0.002678,0.000431,0.035729
6047000,0.0324,0.013523,0.002678,0.000431,0.031615
6048000,0.0324,0.013523,0.002678,0.000431,0.034318
6049000,0.0324,0.013523,0.002678,0.000431,0.032555
6050000,0.0324,0.013523,0.002678,0.000431,0.033378
6051000,0.0324,0.013523,0.002678,0.000431,0.033143
6052000,0.0324,0.013523,0.002678,0.000431,0.032790
6053000,0.0324,0.013523,0.002678,0.000431,0.032085
6054000,0.0324,0.013523,0.002678,0.000431,0.031145
6055000,0.0324,0.013523,0.002678,0.000431,0.033378
6056000,0.0324,0.013523,0.002678,0.000431,0.035846
6057000,0.0324,0.013523,0.002678,0.000431,0.033613
6058000,0.0324,0.013523,0.002678,0.000431,0.031733
6059000,0.0324,0.013523,0.002678,0.000431,0.032320
6060000,0.0324,0.013523,0.002678,0.000431,0.036199
6061000,0.0324,0.013523,0.002678,0.000431,0.031380
6062000,0.0324,0.013523,0.002678,0.000431,0.031733
6063000,0.0324,0.013523,0.002678,0.000431,0.032555
6064000,0.0324,0.013523,0.002678,0.000431,0.032555
6065000,0.0324,0.013523,0.002678,0.000431,0.033613
6066000,0.0324,0.013523,0.002678,0.000431,0.034318
6067000,0.0324,0.013523,0.002678,0.000431,0.032203
6068000,0.0324,0.013523,0.002678,0.000431,0.033848
6069000,0.0324,0.013523,0.002678,0.000431,0.034436
6070000,0.0324,0.013523,0.002678,0.000431,0.031615
6071000,0.0324,0.013523,0.002678,0.000431,0.031968
6072000,0.0324,0.013523,0.002678,0.000431,0.033613
6073000,0.0324,0.013523,0.002678,0.000431,0.034906
6074000,0.0324,0.013523,0.002678,0.000431,0.032908
6075000,0.0324,0.013523,0.002678,0.000431,0.031380
6076000,0.0324,0.013523,0.002678,0.000431,0.032320
6077000,0.0324,0.013523,0.002678,0.000431,0.034436
6078000,0.0324,0.013523,0.002678,0.000431,0.029265
6079000,0.0324,0.013523,0.002678,0.000431,0.034671
6080000,0.0324,0.013523,0.002678,0.000431,0.032203
6081000,0.0324,0.013523,0.002678,0.000431,0.032203
6082000,0.0324,0.013523,0.002678,0.000431,0.033378
6083000,0.0324,0.013523,0.002678,0.000431,0.034083
6084000,0.0324,0.013523,0.002678,0.000431,0.032555
6085000,0.0324,0.013523,0.002678,0.000431,0.031615
6086000,0.0324,0.013523,0.002678,0.000431,0.034553
6087000,0.0324,0.013523,0.002678,0.000431,0.032555
6088000,0.0324,0.013523,0.002678,0.000431,0.032555
6089000,0.0324,0.013523,0.002678,0.000431,0.033496
6090000,0.0324,0.013523,0.002678,0.000431,0.034201
6091000,0.0324,0.013523,0.002678,0.000431,0.032908
6092000,0.0324,0.013523,0.002678,0.000431,0.032438
6093000,0.0324,0.013523,0.002678,0.000431,0.034906
6094000,0.0324,0.013523,0.002678,0.000431,0.032085
6095000,0.0324,0.013523,0.002678,0.000431,0.033848
6096000,0.0324,0.013523,0.002678,0.000431,0.034083
6097000,0.0324,0.013523,0.002678,0.000431,0.031380
6098000,0.0324,0.013523,0.002678,0.000431,0.034083
6099000,0.0324,0.013523,0.002678,0.000431,0.033848
6100000,0.0324,0.013523,0.002678,0.000431,0.033848
6101000,0.0324,0.013523,0.002678,0.000431,0.032673
6102000,0.0324,0.013523,0.002678,0.000431,0.034318
6103000,0.0324,0.013523,0.002678,0.000431,0.034788
6104000,0.0324,0.013523,0.002678,0.000431,0.032320
6105000,0.0324,0.013523,0.002678,0.000431,0.031733
6106000,0.0324,0.013523,0.002678,0.000431,0.034083
6107000,0.0324,0.013523,0.002678,0.000431,0.031733
6108000,0.0324,0.013523,0.002678,0.000431,0.033143
6109000,0.0324,0.013523,0.002678,0.000431,0.032908
6110000,0.0324,0.013523,0.002678,0.000431,0.036081
6111000,0.0324,0.013523,0.002678,0.000431,0.031850
6112000,0.0324,0.013523,0.002678,0.000431,0.032203
6113000,0.0324,0.013523,0.002678,0.000431,0.033496
6114000,0.0324,0.013523,0.002678,0.000431,0.032085
6115000,0.0324,0.013523,0.002678,0.000431,0.033731
6116000,0.0324,0.013523,0.002678,0.000431,0.033260
6117000,0.0324,0.013523,0.002678,0.000431,0.035611
6118000,0.0324,0.013523,0.002678,0.000431,0.031733
6119000,0.0324,0.013523,0.002678,0.000431,0.033848
6120000,0.0324,0.013523,0.002678,0.000431,0.031850
6121000,0.0324,0.013523,0.002678,0.000431,0.035258
6122000,0.0324,0.013523,0.002678,0.000431,0.032438
6123000,0.0324,0.013523,0.002678,0.000431,0.030087
6124000,0.0324,0.013523,0.002678,0.000431,0.035258
6125000,0.0324,0.013523,0.002678,0.000431,0.032555
6126000,0.0324,0.013523,0.002678,0.000431,0.034906
6127000,0.0324,0.013523,0.002678,0.000431,0.031968
6128000,0.0324,0.013523,0.002678,0.000431,0.032908
6129000,0.0324,0.013523,0.002678,0.000431,0.032085
6130000,0.0324,0.013523,0.002678,0.000431,0.032908
6131000,0.0324,0.013523,0.002678,0.000431,0.036316
6132000,0.0324,0.013523,0.002678,0.000431,0.034671
6133000,0.0324,0.013523,0.002678,0.000431,0.034083
6134000,0.0324,0.013523,0.002678,0.000431,0.033496
6135000,0.0324,0.013523,0.002678,0.000431,0.033731
6136000,0.0324,0.013523,0.002678,0.000431,0.034671
6137000,0.0324,0.013523,0.002678,0.000431,0.034083
6138000,0.0324,0.013523,0.002678,0.000431,0.033260
6139000,0.0324,0.013523,0.002678,0.000431,0.033496
6140000,0.0324,0.013523,0.002678,0.000431,0.033731
6141000,0.0324,0.013523,0.002678,0.000431,0.034318
6142000,0.0324,0.013523,0.002678,0.000431,0.030557
6143000,0.0324,0.013523,0.002678,0.000431,0.032790
6144000,0.0324,0.013523,0.002678,0.000431,0.033848
6145000,0.0324,0.013523,0.002678,0.000431,0.033731
6146000,0.0324,0.013523,0.002678,0.000431,0.032908
6147000,0.0324,0.013523,0.002678,0.000431,0.033496
6148000,0.0324,0.013523,0.002678,0.000431,0.031498
6149000,0.0324,0.013523,0.002678,0.000431,0.032790
6150000,0.0324,0.013523,0.002678,0.000431,0.031145
6151000,0.0324,0.013523,0.002678,0.000431,0.031615
6152000,0.0324,0.013523,0.002678,0.000431,0.031968
6153000,0.0324,0.013523,0.002678,0.000431,0.033143
6154000,0.0324,0.013523,0.002678,0.000431,0.033025
6155000,0.0324,0.013523,0.002678,0.000431,0.033848
6156000,0.0324,0.013523,0.002678,0.000431,0.034788
6157000,0.0324,0.013523,0.002678,0.000431,0.030910
6158000,0.0324,0.013523,0.002678,0.000431,0.031733
6159000,0.0324,0.013523,0.002678,0.000431,0.033848
6160000,0.0324,0.013523,0.002678,0.000431,0.032438
6161000,0.0324,0.013523,0.002678,0.000431,0.033613
6162000,0.0324,0.013523,0.002678,0.000431,0.034318
6163000,0.0324,0.013523,0.002678,0.000431,0.031262
6164000,0.0324,0.013523,0.002678,0.000431,0.032555
6165000,0.0324,0.013523,0.002678,0.000431,0.031615
6166000,0.0324,0.013523,0.002678,0.000431,0.032320
6167000,0.0324,0.013523,0.002678,0.000431,0.031968
6168000,0.0324,0.013523,0.002678,0.000431,0.034553
6169000,0.0324,0.013523,0.002678,0.000431,0.031380
6170000,0.0324,0.013523,0.002678,0.000431,0.032790
6171000,0.0324,0.013523,0.002678,0.000431,0.032085
6172000,0.0324,0.013523,0.002678,0.000431,0.030792
6173000,0.0324,0.013523,0.002678,0.000431,0.032438
6174000,0.0324,0.013523,0.002678,0.000431,0.031027
6175000,0.0324,0.013523,0.002678,0.000431,0.029265
6176000,0.0324,0.013523,0.002678,0.000431,0.034553
6177000,0.0324,0.013523,0.002678,0.000431,0.033613
6178000,0.0324,0.013523,0.002678,0.000431,0.032203
6179000,0.0324,0.013523,0.002678,0.000431,0.033378
6180000,0.0324,0.013523,0.002678,0.000431,0.030557
6181000,0.0324,0.013523,0.002678,0.000431,0.034553
6182000,0.0324,0.013523,0.002678,0.000431,0.032673
6183000,0.0324,0.013523,0.002678,0.000431,0.031498
6184000,0.0324,0.013523,0.002678,0.000431,0.035023
6185000,0.0324,0.013523,0.002678,0.000431,0.031615
6186000,0.0324,0.013523,0.002678,0.000431,0.033613
6187000,0.0324,0.013523,0.002678,0.000431,0.032555
6188000,0.0324,0.013523,0.002678,0.000431,0.032908
6189000,0.0324,0.013523,0.002678,0.000431,0.032790
6190000,0.0324,0.013523,0.002678,0.000431,0.033025
6191000,0.0324,0.013523,0.002678,0.000431,0.031733
6192000,0.0324,0.013523,0.002678,0.000431,0.032555
6193000,0.0324,0.013523,0.002678,0.000431,0.033260
6194000,0.0324,0.013523,0.002678,0.000431,0.034201
6195000,0.0324,0.013523,0.002678,0.000431,0.033143
6196000,0.0324,0.013523,0.002678,0.000431,0.034788
6197000,0.0324,0.013523,0.002678,0.000431,0.030910
6198000,0.0324,0.013523,0.002678,0.000431,0.033966
6199000,0.0324,0.013523,0.002678,0.000431,0.033025
6200000,0.0324,0.013523,0.002678,0.000431,0.031968
6201000,0.0324,0.013523,0.002678,0.000431,0.032555
6202000,0.0324,0.013523,0.002678,0.000431,0.033025
6203000,0.0324,0.013523,0.002678,0.000431,0.032908
6204000,0.0324,0.013523,0.002678,0.000431,0.032085
6205000,0.0324,0.013523,0.002678,0.000431,0.033613
6206000,0.0324,0.013523,0.002678,0.000431,0.032203
6207000,0.0324,0.013523,0.002678,0.000431,0.033260
6208000,0.0324,0.013523,0.002678,0.000431,0.034671
6209000,0.0324,0.013523,0.002678,0.000431,0.031145
6210000,0.0324,0.013523,0.002678,0.000431,0.030322
6211000,0.0324,0.013523,0.002678,0.000431,0.031968
6212000,0.0324,0.013523,0.002678,0.000431,0.031968
6213000,0.0324,0.013523,0.002678,0.000431,0.032790
6214000,0.0324,0.013523,0.002678,0.000431,0.032908
6215000,0.0324,0.013523,0.002678,0.000431,0.033143
6216000,0.0324,0.013523,0.002678,0.000431,0.029500
6217000,0.0324,0.013523,0.002678,0.000431,0.032673
6218000,0.0324,0.013523,0.002678,0.000431,0.032438
6219000,0.0324,0.013523,0.002678,0.000431,0.032320
6220000,0.0324,0.013523,0.002678,0.000431,0.032320
6221000,0.0324,0.013523,0.002678,0.000431,0.032203
6222000,0.0324,0.013523,0.002678,0.000431,0.033613
6223000,0.0324,0.013523,0.002678,0.000431,0.033731
6224000,0.0324,0.013523,0.002678,0.000431,0.033025
6225000,0.0324,0.013523,0.002678,0.000431,0.031380
6226000,0.0324,0.013523,0.002678,0.000431,0.033260
6227000,0.0324,0.013523,0.002678,0.000431,0.035141
6228000,0.0324,0.013523,0.002678,0.000431,0.032673
6229000,0.0324,0.013523,0.002678,0.000431,0.032085
6230000,0.0324,0.013523,0.002678,0.000431,0.033966
6231000,0.0324,0.013523,0.002678,0.000431,0.032085
6232000,0.0324,0.013523,0.002678,0.000431,0.033025
6233000,0.0324,0.013523,0.002678,0.000431,0.032555
6234000,0.0324,0.013523,0.002678,0.000431,0.033143
6235000,0.0324,0.013523,0.002678,0.000431,0.031850
6236000,0.0324,0.013523,0.002678,0.000431,0.032438
6237000,0.0324,0.013523,0.002678,0.000431,0.031027
6238000,0.0324,0.013523,0.002678,0.000431,0.033260
6239000,0.0324,0.013523,0.002678,0.000431,0.030910
6240000,0.0324,0.013523,0.002678,0.000431,0.030910
6241000,0.0324,0.013523,0.002678,0.000431,0.030322
6242000,0.0324,0.013523,0.002678,0.000431,0.031262
6243000,0.0324,0.013523,0.002678,0.000431,0.029970
6244000,0.0324,0.013523,0.002678,0.000431,0.032555
6245000,0.0324,0.013523,0.002678,0.000431,0.032085
6246000,0.0324,0.013523,0.002678,0.000431,0.030910
6247000,0.0324,0.013523,0.002678,0.000431,0.031027
6248000,0.0324,0.013523,0.002678,0.000431,0.033025
6249000,0.0324,0.013523,0.002678,0.000431,0.031968
6250000,0.0324,0.013523,0.002678,0.000431,0.030322
6251000,0.0324,0.013523,0.002678,0.000431,0.032673
6252000,0.0324,0.013523,0.002678,0.000431,0.031733
6253000,0.0324,0.013523,0.002678,0.000431,0.033731
6254000,0.0324,0.013523,0.002678,0.000431,0.029970
6255000,0.0324,0.013523,0.002678,0.000431,0.032438
6256000,0.0324,0.013523,0.002678,0.000431,0.033378
6257000,0.0324,0.013523,0.002678,0.000431,0.032555
6258000,0.0324,0.013523,0.002678,0.000431,0.030205
6259000,0.0324,0.013523,0.002678,0.000431,0.033025
6260000,0.0324,0.013523,0.002678,0.000431,0.032673
6261000,0.0324,0.013523,0.002678,0.000431,0.032908
6262000,0.0324,0.013523,0.002678,0.000431,0.031027
6263000,0.0324,0.013523,0.002678,0.000431,0.032203
6264000,0.0324,0.013523,0.002678,0.000431,0.034553
6265000,0.0324,0.013523,0.002678,0.000431,0.030440
6266000,0.0324,0.013523,0.002678,0.000431,0.030440
6267000,0.0324,0.013523,0.002678,0.000431,0.033496
6268000,0.0324,0.013523,0.002678,0.000431,0.032555
6269000,0.0324,0.013523,0.002678,0.000431,0.032203
6270000,0.0324,0.013523,0.002678,0.000431,0.034788
6271000,0.0324,0.013523,0.002678,0.000431,0.031733
6272000,0.0324,0.013523,0.002678,0.000431,0.030440
6273000,0.0324,0.013523,0.002678,0.000431,0.031380
6274000,0.0324,0.013523,0.002678,0.000431,0.029735
6275000,0.0324,0.013523,0.002678,0.000431,0.034318
6276000,0.0324,0.013523,0.002678,0.000431,0.031733
6277000,0.0324,0.013523,0.002678,0.000431,0.032085
6278000,0.0324,0.013523,0.002678,0.000431,0.031027
6279000,0.0324,0.013523,0.002678,0.000431,0.034318
6280000,0.0324,0.013523,0.002678,0.000431,0.030205
6281000,0.0324,0.013523,0.002678,0.000431,0.030557
6282000,0.0324,0.013523,0.002678,0.000431,0.035258
6283000,0.0324,0.013523,0.002678,0.000431,0.031380
6284000,0.0324,0.013523,0.002678,0.000431,0.033143
6285000,0.0324,0.013523,0.002678,0.000431,0.030322
6286000,0.0324,0.013523,0.002678,0.000431,0.031027
6287000,0.0324,0.013523,0.002678,0.000431,0.033025
6288000,0.0324,0.013523,0.002678,0.000431,0.033378
6289000,0.0324,0.013523,0.002678,0.000431,0.029500
6290000,0.0324,0.013523,0.002678,0.000431,0.034553
6291000,0.0324,0.013523,0.002678,0.000431,0.033025
6292000,0.0324,0.013523,0.002678,0.000431,0.032673
6293000,0.0324,0.013523,0.002678,0.000431,0.031262
6294000,0.0324,0.013523,0.002678,0.000431,0.034788
6295000,0.0324,0.013523,0.002678,0.000431,0.031380
6296000,0.0324,0.013523,0.002678,0.000431,0.033731
6297000,0.0324,0.013523,0.002678,0.000431,0.033496
6298000,0.0324,0.013523,0.002678,0.000431,0.032555
6299000,0.0324,0.013523,0.002678,0.000431,0.033613
6300000,0.0324,0.013523,0.002678,0.000431,0.031145
6301000,0.0324,0.013523,0.002678,0.000431,0.030675
6302000,0.0324,0.013523,0.002678,0.000431,0.033496
6303000,0.0324,0.013523,0.002678,0.000431,0.030792
6304000,0.0324,0.013523,0.002678,0.000431,0.034436
6305000,0.0324,0.013523,0.002678,0.000431,0.032438
6306000,0.0324,0.013523,0.002678,0.000431,0.032438
6307000,0.0324,0.013523,0.002678,0.000431,0.031498
6308000,0.0324,0.013523,0.002678,0.000431,0.032908
6309000,0.0324,0.013523,0.002678,0.000431,0.031027
6310000,0.0324,0.013523,0.002678,0.000431,0.032555
6311000,0.0324,0.013523,0.002678,0.000431,0.032555
6312000,0.0324,0.013523,0.002678,0.000431,0.030557
6313000,0.0324,0.013523,0.002678,0.000431,0.035023
6314000,0.0324,0.013523,0.002678,0.000431,0.031850
6315000,0.0324,0.013523,0.002678,0.000431,0.031498
6316000,0.0324,0.013523,0.002678,0.000431,0.031968
6317000,0.0324,0.013523,0.002678,0.000431,0.032908
6318000,0.0324,0.013523,0.002678,0.000431,0.031733
6319000,0.0324,0.013523,0.002678,0.000431,0.032673
6320000,0.0324,0.013523,0.002678,0.000431,0.030675
6321000,0.0324,0.013523,0.002678,0.000431,0.033966
6322000,0.0324,0.013523,0.002678,0.000431,0.032085
6323000,0.0324,0.013523,0.002678,0.000431,0.031733
6324000,0.0324,0.013523,0.002678,0.000431,0.032908
6325000,0.0324,0.013523,0.002678,0.000431,0.032085
6326000,0.0324,0.013523,0.002678,0.000431,0.033143
6327000,0.0324,0.013523,0.002678,0.000431,0.033260
6328000,0.0324,0.013523,0.002678,0.000431,0.033378
6329000,0.0324,0.013523,0.002678,0.000431,0.031498
6330000,0.0324,0.013523,0.002678,0.000431,0.033496
6331000,0.0324,0.013523,0.002678,0.000431,0.031850
6332000,0.0324,0.013523,0.002678,0.000431,0.033143
6333000,0.0324,0.013523,0.002678,0.000431,0.031733
6334000,0.0324,0.013523,0.002678,0.000431,0.033731
6335000,0.0324,0.013523,0.002678,0.000431,0.030792
6336000,0.0324,0.013523,0.002678,0.000431,0.033731
6337000,0.0324,0.013523,0.002678,0.000431,0.030675
6338000,0.0324,0.013523,0.002678,0.000431,0.031262
6339000,0.0324,0.013523,0.002678,0.000431,0.031380
6340000,0.0324,0.013523,0.002678,0.000431,0.033378
6341000,0.0324,0.013523,0.002678,0.000431,0.032790
6342000,0.0324,0.013523,0.002678,0.000431,0.032438
6343000,0.0324,0.013523,0.002678,0.000431,0.032320
6344000,0.0324,0.013523,0.002678,0.000431,0.033496
6345000,0.0324,0.013523,0.002678,0.000431,0.030087
6346000,0.0324,0.013523,0.002678,0.000431,0.031498
6347000,0.0324,0.013523,0.002678,0.000431,0.032673
6348000,0.0324,0.013523,0.002678,0.000431,0.030910
6349000,0.0324,0.013523,0.002678,0.000431,0.032438
6350000,0.0324,0.013523,0.002678,0.000431,0.030440
6351000,0.0324,0.013523,0.002678,0.000431,0.031498
6352000,0.0324,0.013523,0.002678,0.000431,0.031027
6353000,0.0324,0.013523,0.002678,0.000431,0.031027
6354000,0.0324,0.013523,0.002678,0.000431,0.031615
6355000,0.0324,0.013523,0.002678,0.000431,0.031145
6356000,0.0324,0.013523,0.002678,0.000431,0.030675
6357000,0.0324,0.013523,0.002678,0.000431,0.031498
6358000,0.0324,0.013523,0.002678,0.000431,0.031615
6359000,0.0324,0.013523,0.002678,0.000431,0.031262
6360000,0.0324,0.013523,0.002678,0.000431,0.031027
6361000,0.0324,0.013523,0.002678,0.000431,0.033378
6362000,0.0324,0.013523,0.002678,0.000431,0.032085
6363000,0.0324,0.013523,0.002678,0.000431,0.031027
6364000,0.0324,0.013523,0.002678,0.000431,0.031262
6365000,0.0324,0.013523,0.002678,0.000431,0.033613
6366000,0.0324,0.013523,0.002678,0.000431,0.031380
6367000,0.0324,0.013523,0.002678,0.000431,0.031027
6368000,0.0324,0.013523,0.002678,0.000431,0.031615
6369000,0.0324,0.013523,0.002678,0.000431,0.028677
6370000,0.0324,0.013523,0.002678,0.000431,0.030205
6371000,0.0324,0.013523,0.002678,0.000431,0.035141
6372000,0.0324,0.013523,0.002678,0.000431,0.029617
6373000,0.0324,0.013523,0.002678,0.000431,0.031027
6374000,0.0324,0.013523,0.002678,0.000431,0.030322
6375000,0.0324,0.013523,0.002678,0.000431,0.033378
6376000,0.0324,0.013523,0.002678,0.000431,0.030322
6377000,0.0324,0.013523,0.002678,0.000431,0.031380
6378000,0.0324,0.013523,0.002678,0.000431,0.031027
6379000,0.0324,0.013523,0.002678,0.000431,0.031498
6380000,0.0324,0.013523,0.002678,0.000431,0.031498
6381000,0.0324,0.013523,0.002678,0.000431,0.029735
6382000,0.0324,0.013523,0.002678,0.000431,0.031968
6383000,0.0324,0.013523,0.002678,0.000431,0.031615
6384000,0.0324,0.013523,0.002678,0.000431,0.032203
6385000,0.0324,0.013523,0.002678,0.000431,0.031145
6386000,0.0324,0.013523,0.002678,0.000431,0.029265
6387000,0.0324,0.013523,0.002678,0.000431,0.029500
6388000,0.0324,0.013523,0.002678,0.000431,0.032438
6389000,0.0324,0.013523,0.002678,0.000431,0.030557
6390000,0.0324,0.013523,0.002678,0.000431,0.031145
6391000,0.0324,0.013523,0.002678,0.000431,0.031027
6392000,0.0324,0.013523,0.002678,0.000431,0.030675
6393000,0.0324,0.013523,0.002678,0.000431,0.030557
6394000,0.0324,0.013523,0.002678,0.000431,0.029500
6395000,0.0324,0.013523,0.002678,0.000431,0.031733
6396000,0.0324,0.013523,0.002678,0.000431,0.033025
6397000,0.0324,0.013523,0.002678,0.000431,0.029029
6398000,0.0324,0.013523,0.002678,0.000431,0.032320
6399000,0.0324,0.013523,0.002678,0.000431,0.031968
6400000,0.0324,0.013523,0.002678,0.000431,0.032908
6401000,0.0324,0.013523,0.002678,0.000431,0.031027
6402000,0.0324,0.013523,0.002678,0.000431,0.032085
6403000,0.0324,0.013523,0.002678,0.000431,0.032438
6404000,0.0324,0.013523,0.002678,0.000431,0.031968
6405000,0.0324,0.013523,0.002678,0.000431,0.030322
6406000,0.0324,0.013523,0.002678,0.000431,0.031027
6407000,0.0324,0.013523,0.002678,0.000431,0.031262
6408000,0.0324,0.013523,0.002678,0.000431,0.030675
6409000,0.0324,0.013523,0.002678,0.000431,0.031968
6410000,0.0324,0.013523,0.002678,0.000431,0.029735
6411000,0.0324,0.013523,0.002678,0.000431,0.032320
6412000,0.0324,0.013523,0.002678,0.000431,0.029852
6413000,0.0324,0.013523,0.002678,0.000431,0.030910
6414000,0.0324,0.013523,0.002678,0.000431,0.031733
6415000,0.0324,0.013523,0.002678,0.000431,0.031733
6416000,0.0324,0.013523,0.002678,0.000431,0.031145
6417000,0.0324,0.013523,0.002678,0.000431,0.031498
6418000,0.0324,0.013523,0.002678,0.000431,0.031733
6419000,0.0324,0.013523,0.002678,0.000431,0.031380
6420000,0.0324,0.013523,0.002678,0.000431,0.031145
6421000,0.0324,0.013523,0.002678,0.000431,0.030910
6422000,0.0324,0.013523,0.002678,0.000431,0.034318
6423000,0.0324,0.013523,0.002678,0.000431,0.029382
6424000,0.0324,0.013523,0.002678,0.000431,0.031968
6425000,0.0324,0.013523,0.002678,0.000431,0.032908
6426000,0.0324,0.013523,0.002678,0.000431,0.030792
6427000,0.0324,0.013523,0.002678,0.000431,0.029970
6428000,0.0324,0.013523,0.002678,0.000431,0.030557
6429000,0.0324,0.013523,0.002678,0.000431,0.029735
6430000,0.0324,0.013523,0.002678,0.000431,0.031615
6431000,0.0324,0.013523,0.002678,0.000431,0.029617
6432000,0.0324,0.013523,0.002678,0.000431,0.031498
6433000,0.0324,0.013523,0.002678,0.000431,0.031733
6434000,0.0324,0.013523,0.002678,0.000431,0.030322
6435000,0.0324,0.013523,0.002678,0.000431,0.030087
6436000,0.0324,0.013523,0.002678,0.000431,0.030322
6437000,0.0324,0.013523,0.002678,0.000431,0.031262
6438000,0.0324,0.013523,0.002678,0.000431,0.031968
6439000,0.0324,0.013523,0.002678,0.000431,0.027854
6440000,0.0324,0.013523,0.002678,0.000431,0.028559
6441000,0.0324,0.013523,0.002678,0.000431,0.028442
6442000,0.0324,0.013523,0.002678,0.000431,0.029029
6443000,0.0324,0.013523,0.002678,0.000431,0.028912
6444000,0.0324,0.013523,0.002678,0.000431,0.029852
6445000,0.0324,0.013523,0.002678,0.000431,0.027619
6446000,0.0324,0.013523,0.002678,0.000431,0.030322
6447000,0.0324,0.013523,0.002678,0.000431,0.028794
6448000,0.0324,0.013523,0.002678,0.000431,0.031027
6449000,0.0324,0.013523,0.002678,0.000431,0.027384
6450000,0.0324,0.013523,0.002678,0.000431,0.029147
6451000,0.0324,0.013523,0.002678,0.000431,0.030322
6452000,0.0324,0.013523,0.002678,0.000431,0.029500
6453000,0.0324,0.013523,0.002678,0.000431,0.029970
6454000,0.0324,0.013523,0.002678,0.000431,0.029265
6455000,0.0324,0.013523,0.002678,0.000431,0.032203
6456000,0.0324,0.013523,0.002678,0.000431,0.030557
6457000,0.0324,0.013523,0.002678,0.000431,0.029500
6458000,0.0324,0.013523,0.002678,0.000431,0.029735
6459000,0.0324,0.013523,0.002678,0.000431,0.028559
6460000,0.0324,0.013523,0.002678,0.000431,0.032438
6461000,0.0324,0.013523,0.002678,0.000431,0.028912
6462000,0.0324,0.013523,0.002678,0.000431,0.028794
6463000,0.0324,0.013523,0.002678,0.000431,0.028912
6464000,0.0324,0.013523,0.002678,0.000431,0.029970
6465000,0.0324,0.013523,0.002678,0.000431,0.028207
6466000,0.0324,0.013523,0.002678,0.000431,0.029617
6467000,0.0324,0.013523,0.002678,0.000431,0.030087
6468000,0.0324,0.013523,0.002678,0.000431,0.027384
6469000,0.0324,0.013523,0.002678,0.000431,0.030557
6470000,0.0324,0.013523,0.002678,0.000431,0.031027
6471000,0.0324,0.013523,0.002678,0.000431,0.028207
6472000,0.0324,0.013523,0.002678,0.000431,0.028912
6473000,0.0324,0.013523,0.002678,0.000431,0.027854
6474000,0.0324,0.013523,0.002678,0.000431,0.030910
6475000,0.0324,0.013523,0.002678,0.000431,0.029735
6476000,0.0324,0.013523,0.002678,0.000431,0.028912
6477000,0.0324,0.013523,0.002678,0.000431,0.027854
6478000,0.0324,0.013523,0.002678,0.000431,0.029970
6479000,0.0324,0.013523,0.002678,0.000431,0.030205
6480000,0.0324,0.013523,0.002678,0.000431,0.029735
6481000,0.0324,0.013523,0.002678,0.000431,0.029852
6482000,0.0324,0.013523,0.002678,0.000431,0.029500
6483000,0.0324,0.013523,0.002678,0.000431,0.027619
6484000,0.0324,0.013523,0.002678,0.000431,0.031262
6485000,0.0324,0.013523,0.002678,0.000431,0.029147
6486000,0.0324,0.013523,0.002678,0.000431,0.028794
6487000,0.0324,0.013523,0.002678,0.000431,0.029852
6488000,0.0324,0.013523,0.002678,0.000431,0.030322
6489000,0.0324,0.013523,0.002678,0.000431,0.027737
6490000,0.0324,0.013523,0.002678,0.000431,0.029735
6491000,0.0324,0.013523,0.002678,0.000431,0.030440
6492000,0.0324,0.013523,0.002678,0.000431,0.029382
6493000,0.0324,0.013523,0.002678,0.000431,0.030087
6494000,0.0324,0.013523,0.002678,0.000431,0.027737
6495000,0.0324,0.013523,0.002678,0.000431,0.030557
6496000,0.0324,0.013523,0.002678,0.000431,0.029735
6497000,0.0324,0.013523,0.002678,0.000431,0.030910
6498000,0.0324,0.013523,0.002678,0.000431,0.029382
6499000,0.0324,0.013523,0.002678,0.000431,0.031262
6500000,0.0324,0.013523,0.002678,0.000431,0.029970
6501000,0.0324,0.013523,0.002678,0.000431,0.028794
6502000,0.0324,0.013523,0.002678,0.000431,0.029617
6503000,0.0324,0.013523,0.002678,0.000431,0.028324
6504000,0.0324,0.013523,0.002678,0.000431,0.031262
6505000,0.0324,0.013523,0.002678,0.000431,0.029970
6506000,0.0324,0.013523,0.002678,0.000431,0.027619
6507000,0.0324,0.013523,0.002678,0.000431,0.028207
6508000,0.0324,0.013523,0.002678,0.000431,0.029265
6509000,0.0324,0.013523,0.002678,0.000431,0.030792
6510000,0.0324,0.013523,0.002678,0.000431,0.031733
6511000,0.0324,0.013523,0.002678,0.000431,0.028794
6512000,0.0324,0.013523,0.002678,0.000431,0.028794
6513000,0.0324,0.013523,0.002678,0.000431,0.030087
6514000,0.0324,0.013523,0.002678,0.000431,0.029735
6515000,0.0324,0.013523,0.002678,0.000431,0.031262
6516000,0.0324,0.013523,0.002678,0.000431,0.028089
6517000,0.0324,0.013523,0.002678,0.000431,0.027384
6518000,0.0324,0.013523,0.002678,0.000431,0.030792
6519000,0.0324,0.013523,0.002678,0.000431,0.028089
6520000,0.0324,0.013523,0.002678,0.000431,0.029617
6521000,0.0324,0.013523,0.002678,0.000431,0.029852
6522000,0.0324,0.013523,0.002678,0.000431,0.030205
6523000,0.0324,0.013523,0.002678,0.000431,0.028324
6524000,0.0324,0.013523,0.002678,0.000431,0.029852
6525000,0.0324,0.013523,0.002678,0.000431,0.029147
6526000,0.0324,0.013523,0.002678,0.000431,0.028324
6527000,0.0324,0.013523,0.002678,0.000431,0.029735
6528000,0.0324,0.013523,0.002678,0.000431,0.030675
6529000,0.0324,0.013523,0.002678,0.000431,0.028559
6530000,0.0324,0.013523,0.002678,0.000431,0.030675
6531000,0.0324,0.013523,0.002678,0.000431,0.029852
6532000,0.0324,0.013523,0.002678,0.000431,0.028324
6533000,0.0324,0.013523,0.002678,0.000431,0.029500
6534000,0.0324,0.013523,0.002678,0.000431,0.027384
6535000,0.0324,0.013523,0.002678,0.000431,0.030322
6536000,0.0324,0.013523,0.002678,0.000431,0.029500
6537000,0.0324,0.013523,0.002678,0.000431,0.028559
6538000,0.0324,0.013523,0.002678,0.000431,0.028677
6539000,0.0324,0.013523,0.002678,0.000431,0.029852
6540000,0.0324,0.013523,0.002678,0.000431,0.029735
6541000,0.0324,0.013523,0.002678,0.000431,0.028912
6542000,0.0324,0.013523,0.002678,0.000431,0.028089
6543000,0.0324,0.013523,0.002678,0.000431,0.029970
6544000,0.0324,0.013523,0.002678,0.000431,0.028794
6545000,0.0324,0.013523,0.002678,0.000431,0.028677
6546000,0.0324,0.013523,0.002678,0.000431,0.030205
6547000,0.0324,0.013523,0.002678,0.000431,0.029382
6548000,0.0324,0.013523,0.002678,0.000431,0.028912
6549000,0.0324,0.013523,0.002678,0.000431,0.027267
6550000,0.0324,0.013523,0.002678,0.000431,0.030440
6551000,0.0324,0.013523,0.002678,0.000431,0.029382
6552000,0.0324,0.013523,0.002678,0.000431,0.027854
6553000,0.0324,0.013523,0.002678,0.000431,0.029265
6554000,0.0324,0.013523,0.002678,0.000431,0.028207
6555000,0.0324,0.013523,0.002678,0.000431,0.028559
6556000,0.0324,0.013523,0.002678,0.000431,0.028794
6557000,0.0324,0.013523,0.002678,0.000431,0.029382
6558000,0.0324,0.013523,0.002678,0.000431,0.026561
6559000,0.0324,0.013523,0.002678,0.000431,0.029029
6560000,0.0324,0.013523,0.002678,0.000431,0.026561
6561000,0.0324,0.013523,0.002678,0.000431,0.027972
6562000,0.0324,0.013523,0.002678,0.000431,0.029029
6563000,0.0324,0.013523,0.002678,0.000431,0.027737
6564000,0.0324,0.013523,0.002678,0.000431,0.029852
6565000,0.0324,0.013523,0.002678,0.000431,0.029500
6566000,0.0324,0.013523,0.002678,0.000431,0.026796
6567000,0.0324,0.013523,0.002678,0.000431,0.026914
6568000,0.0324,0.013523,0.002678,0.000431,0.028559
6569000,0.0324,0.013523,0.002678,0.000431,0.028677
6570000,0.0324,0.013523,0.002678,0.000431,0.028559
6571000,0.0324,0.013523,0.002678,0.000431,0.029147
6572000,0.0324,0.013523,0.002678,0.000431,0.028324
6573000,0.0324,0.013523,0.002678,0.000431,0.024446
6574000,0.0324,0.013523,0.002678,0.000431,0.029970
6575000,0.0324,0.013523,0.002678,0.000431,0.029735
6576000,0.0324,0.013523,0.002678,0.000431,0.028677
6577000,0.0324,0.013523,0.002678,0.000431,0.028794
6578000,0.0324,0.013523,0.002678,0.000431,0.027149
6579000,0.0324,0.013523,0.002678,0.000431,0.029147
6580000,0.0324,0.013523,0.002678,0.000431,0.027972
6581000,0.0324,0.013523,0.002678,0.000431,0.029735
6582000,0.0324,0.013523,0.002678,0.000431,0.028442
6583000,0.0324,0.013523,0.002678,0.000431,0.028324
6584000,0.0324,0.013523,0.002678,0.000431,0.031850
6585000,0.0324,0.013523,0.002678,0.000431,0.028794
6586000,0.0324,0.013523,0.002678,0.000431,0.030440
6587000,0.0324,0.013523,0.002678,0.000431,0.027502
6588000,0.0324,0.013523,0.002678,0.000431,0.029147
6589000,0.0324,0.013523,0.002678,0.000431,0.031262
6590000,0.0324,0.013523,0.002678,0.000431,0.027502
6591000,0.0324,0.013523,0.002678,0.000431,0.028442
6592000,0.0324,0.013523,0.002678,0.000431,0.029382
6593000,0.0324,0.013523,0.002678,0.000431,0.027972
6594000,0.0324,0.013523,0.002678,0.000431,0.027737
6595000,0.0324,0.013523,0.002678,0.000431,0.029029
6596000,0.0324,0.013523,0.002678,0.000431,0.029617
6597000,0.0324,0.013523,0.002678,0.000431,0.027737
6598000,0.0324,0.013523,0.002678,0.000431,0.030087
6599000,0.0324,0.013523,0.002678,0.000431,0.029147
6600000,0.0324,0.013523,0.002678,0.000431,0.026444
6601000,0.0324,0.013523,0.002678,0.000431,0.028559
6602000,0.0324,0.013523,0.002678,0.000431,0.031380
6603000,0.0324,0.013523,0.002678,0.000431,0.028089
6604000,0.0324,0.013523,0.002678,0.000431,0.028794
6605000,0.0324,0.013523,0.002678,0.000431,0.027031
6606000,0.0324,0.013523,0.002678,0.000431,0.028559
6607000,0.0324,0.013523,0.002678,0.000431,0.029852
6608000,0.0324,0.013523,0.002678,0.000431,0.027031
6609000,0.0324,0.013523,0.002678,0.000431,0.027149
6610000,0.0324,0.013523,0.002678,0.000431,0.028089
6611000,0.0324,0.013523,0.002678,0.000431,0.027149
6612000,0.0324,0.013523,0.002678,0.000431,0.027384
6613000,0.0324,0.013523,0.002678,0.000431,0.027972
6614000,0.0324,0.013523,0.002678,0.000431,0.028207
6615000,0.0324,0.013523,0.002678,0.000431,0.028089
6616000,0.0324,0.013523,0.002678,0.000431,0.025621
6617000,0.0324,0.013523,0.002678,0.000431,0.028559
6618000,0.0324,0.013523,0.002678,0.000431,0.026091
6619000,0.0324,0.013523,0.002678,0.000431,0.029382
6620000,0.0324,0.013523,0.002678,0.000431,0.029852
6621000,0.0324,0.013523,0.002678,0.000431,0.025386
6622000,0.0324,0.013523,0.002678,0.000431,0.026914
6623000,0.0324,0.013523,0.002678,0.000431,0.029029
6624000,0.0324,0.013523,0.002678,0.000431,0.026914
6625000,0.0324,0.013523,0.002678,0.000431,0.025034
6626000,0.0324,0.013523,0.002678,0.000431,0.029617
6627000,0.0324,0.013523,0.002678,0.000431,0.028207
6628000,0.0324,0.013523,0.002678,0.000431,0.027384
6629000,0.0324,0.013523,0.002678,0.000431,0.027619
6630000,0.0324,0.013523,0.002678,0.000431,0.027502
6631000,0.0324,0.013523,0.002678,0.000431,0.025856
6632000,0.0324,0.013523,0.002678,0.000431,0.025504
6633000,0.0324,0.013523,0.002678,0.000431,0.027502
6634000,0.0324,0.013523,0.002678,0.000431,0.026561
6635000,0.0324,0.013523,0.002678,0.000431,0.027267
6636000,0.0324,0.013523,0.002678,0.000431,0.028559
6637000,0.0324,0.013523,0.002678,0.000431,0.025269
6638000,0.0324,0.013523,0.002678,0.000431,0.025386
6639000,0.0324,0.013523,0.002678,0.000431,0.027267
6640000,0.0324,0.013523,0.002678,0.000431,0.027619
6641000,0.0324,0.013523,0.002678,0.000431,0.028677
6642000,0.0324,0.013523,0.002678,0.000431,0.025739
6643000,0.0324,0.013523,0.002678,0.000431,0.027972
6644000,0.0324,0.013523,0.002678,0.000431,0.027031
6645000,0.0324,0.013523,0.002678,0.000431,0.026796
6646000,0.0324,0.013523,0.002678,0.000431,0.026326
6647000,0.0324,0.013523,0.002678,0.000431,0.026209
6648000,0.0324,0.013523,0.002678,0.000431,0.027972
6649000,0.0324,0.013523,0.002678,0.000431,0.027267
6650000,0.0324,0.013523,0.002678,0.000431,0.027502
6651000,0.0324,0.013523,0.002678,0.000431,0.027854
6652000,0.0324,0.013523,0.002678,0.000431,0.027972
6653000,0.0324,0.013523,0.002678,0.000431,0.027149
6654000,0.0324,0.013523,0.002678,0.000431,0.027854
6655000,0.0324,0.013523,0.002678,0.000431,0.027267
6656000,0.0324,0.013523,0.002678,0.000431,0.026561
6657000,0.0324,0.013523,0.002678,0.000431,0.027972
6658000,0.0324,0.013523,0.002678,0.000431,0.028089
6659000,0.0324,0.013523,0.002678,0.000431,0.023858
6660000,0.0324,0.013523,0.002678,0.000431,0.026796
6661000,0.0324,0.013523,0.002678,0.000431,0.027502
6662000,0.0324,0.013523,0.002678,0.000431,0.024446
6663000,0.0324,0.013523,0.002678,0.000431,0.025739
6664000,0.0324,0.013523,0.002678,0.000431,0.026209
6665000,0.0324,0.013523,0.002678,0.000431,0.027149
6666000,0.0324,0.013523,0.002678,0.000431,0.027737
6667000,0.0324,0.013523,0.002678,0.000431,0.026914
6668000,0.0324,0.013523,0.002678,0.000431,0.027149
6669000,0.0324,0.013523,0.002678,0.000431,0.025739
6670000,0.0324,0.013523,0.002678,0.000431,0.026914
6671000,0.0324,0.013523,0.002678,0.000431,0.026796
6672000,0.0324,0.013523,0.002678,0.000431,0.026561
6673000,0.0324,0.013523,0.002678,0.000431,0.025386
6674000,0.0324,0.013523,0.002678,0.000431,0.026796
6675000,0.0324,0.013523,0.002678,0.000431,0.026679
6676000,0.0324,0.013523,0.002678,0.000431,0.027031
6677000,0.0324,0.013523,0.002678,0.000431,0.026444
6678000,0.0324,0.013523,0.002678,0.000431,0.027619
6679000,0.0324,0.013523,0.002678,0.000431,0.026796
6680000,0.0324,0.013523,0.002678,0.000431,0.025856
6681000,0.0324,0.013523,0.002678,0.000431,0.027384
6682000,0.0324,0.013523,0.002678,0.000431,0.026561
6683000,0.0324,0.013523,0.002678,0.000431,0.026209
6684000,0.0324,0.013523,0.002678,0.000431,0.026796
6685000,0.0324,0.013523,0.002678,0.000431,0.027384
6686000,0.0324,0.013523,0.002678,0.000431,0.024916
6687000,0.0324,0.013523,0.002678,0.000431,0.025739
6688000,0.0324,0.013523,0.002678,0.000431,0.027149
6689000,0.0324,0.013523,0.002678,0.000431,0.026209
6690000,0.0324,0.013523,0.002678,0.000431,0.026091
6691000,0.0324,0.013523,0.002678,0.000431,0.025269
6692000,0.0324,0.013523,0.002678,0.000431,0.027149
6693000,0.0324,0.013523,0.002678,0.000431,0.026209
6694000,0.0324,0.013523,0.002678,0.000431,0.024681
6695000,0.0324,0.013523,0.002678,0.000431,0.027737
6696000,0.0324,0.013523,0.002678,0.000431,0.025504
6697000,0.0324,0.013523,0.002678,0.000431,0.025504
6698000,0.0324,0.013523,0.002678,0.000431,0.024798
6699000,0.0324,0.013523,0.002678,0.000431,0.026914
6700000,0.0324,0.013523,0.002678,0.000431,0.024211
6701000,0.0324,0.013523,0.002678,0.000431,0.025856
6702000,0.0324,0.013523,0.002678,0.000431,0.026091
6703000,0.0324,0.013523,0.002678,0.000431,0.026091
6704000,0.0324,0.013523,0.002678,0.000431,0.025504
6705000,0.0324,0.013523,0.002678,0.000431,0.026209
6706000,0.0324,0.013523,0.002678,0.000431,0.024916
6707000,0.0324,0.013523,0.002678,0.000431,0.025621
6708000,0.0324,0.013523,0.002678,0.000431,0.026326
6709000,0.0324,0.013523,0.002678,0.000431,0.025504
6710000,0.0324,0.013523,0.002678,0.000431,0.026326
6711000,0.0324,0.013523,0.002678,0.000431,0.024211
6712000,0.0324,0.013523,0.002678,0.000431,0.025386
6713000,0.0324,0.013523,0.002678,0.000431,0.026679
6714000,0.0324,0.013523,0.002678,0.000431,0.026444
6715000,0.0324,0.013523,0.002678,0.000431,0.026091
6716000,0.0324,0.013523,0.002678,0.000431,0.024211
6717000,0.0324,0.013523,0.002678,0.000431,0.027737
6718000,0.0324,0.013523,0.002678,0.000431,0.025269
6719000,0.0324,0.013523,0.002678,0.000431,0.026796
6720000,0.0324,0.013523,0.002678,0.000431,0.024798
6721000,0.0324,0.013523,0.002678,0.000431,0.025504
6722000,0.0324,0.013523,0.002678,0.000431,0.025386
6723000,0.0324,0.013523,0.002678,0.000431,0.027149
6724000,0.0324,0.013523,0.002678,0.000431,0.024681
6725000,0.0324,0.013523,0.002678,0.000431,0.026444
6726000,0.0324,0.013523,0.002678,0.000431,0.026679
6727000,0.0324,0.013523,0.002678,0.000431,0.025504
6728000,0.0324,0.013523,0.002678,0.000431,0.025386
6729000,0.0324,0.013523,0.002678,0.000431,0.027502
6730000,0.0324,0.013523,0.002678,0.000431,0.026091
6731000,0.0324,0.013523,0.002678,0.000431,0.026561
6732000,0.0324,0.013523,0.002678,0.000431,0.025974
6733000,0.0324,0.013523,0.002678,0.000431,0.026796
6734000,0.0324,0.013523,0.002678,0.000431,0.024211
6735000,0.0324,0.013523,0.002678,0.000431,0.024093
6736000,0.0324,0.013523,0.002678,0.000431,0.026679
6737000,0.0324,0.013523,0.002678,0.000431,0.024798
6738000,0.0324,0.013523,0.002678,0.000431,0.025386
6739000,0.0324,0.013523,0.002678,0.000431,0.027854
6740000,0.0324,0.013523,0.002678,0.000431,0.026209
6741000,0.0324,0.013523,0.002678,0.000431,0.027031
6742000,0.0324,0.013523,0.002678,0.000431,0.025151
6743000,0.0324,0.013523,0.002678,0.000431,0.025269
6744000,0.0324,0.013523,0.002678,0.000431,0.025386
6745000,0.0324,0.013523,0.002678,0.000431,0.025739
6746000,0.0324,0.013523,0.002678,0.000431,0.026209
6747000,0.0324,0.013523,0.002678,0.000431,0.027149
6748000,0.0324,0.013523,0.002678,0.000431,0.024211
6749000,0.0324,0.013523,0.002678,0.000431,0.026091
6750000,0.0324,0.013523,0.002678,0.000431,0.026326
6751000,0.0324,0.013523,0.002678,0.000431,0.022918
6752000,0.0324,0.013523,0.002678,0.000431,0.024211
6753000,0.0324,0.013523,0.002678,0.000431,0.025504
6754000,0.0324,0.013523,0.002678,0.000431,0.025504
6755000,0.0324,0.013523,0.002678,0.000431,0.025621
6756000,0.0324,0.013523,0.002678,0.000431,0.024798
6757000,0.0324,0.013523,0.002678,0.000431,0.027502
6758000,0.0324,0.013523,0.002678,0.000431,0.025269
6759000,0.0324,0.013523,0.002678,0.000431,0.025034
6760000,0.0324,0.013523,0.002678,0.000431,0.026209
6761000,0.0324,0.013523,0.002678,0.000431,0.024681
6762000,0.0324,0.013523,0.002678,0.000431,0.023388
6763000,0.0324,0.013523,0.002678,0.000431,0.027854
6764000,0.0324,0.013523,0.002678,0.000431,0.025386
6765000,0.0324,0.013523,0.002678,0.000431,0.025974
6766000,0.0324,0.013523,0.002678,0.000431,0.025504
6767000,0.0324,0.013523,0.002678,0.000431,0.026679
6768000,0.0324,0.013523,0.002678,0.000431,0.022800
6769000,0.0324,0.013523,0.002678,0.000431,0.025504
6770000,0.0324,0.013523,0.002678,0.000431,0.025974
6771000,0.0324,0.013523,0.002678,0.000431,0.026091
6772000,0.0324,0.013523,0.002678,0.000431,0.025856
6773000,0.0324,0.013523,0.002678,0.000431,0.024446
6774000,0.0324,0.013523,0.002678,0.000431,0.025034
6775000,0.0324,0.013523,0.002678,0.000431,0.025269
6776000,0.0324,0.013523,0.002678,0.000431,0.024681
6777000,0.0324,0.013523,0.002678,0.000431,0.026209
6778000,0.0324,0.013523,0.002678,0.000431,0.024563
6779000,0.0324,0.013523,0.002678,0.000431,0.026091
6780000,0.0324,0.013523,0.002678,0.000431,0.024446
6781000,0.0324,0.013523,0.002678,0.000431,0.025621
6782000,0.0324,0.013523,0.002678,0.000431,0.025386
6783000,0.0324,0.013523,0.002678,0.000431,0.025739
6784000,0.0324,0.013523,0.002678,0.000431,0.023976
6785000,0.0324,0.013523,0.002678,0.000431,0.025739
6786000,0.0324,0.013523,0.002678,0.000431,0.023271
6787000,0.0324,0.013523,0.002678,0.000431,0.026209
6788000,0.0324,0.013523,0.002678,0.000431,0.026561
6789000,0.0324,0.013523,0.002678,0.000431,0.024328
6790000,0.0324,0.013523,0.002678,0.000431,0.024798
6791000,0.0324,0.013523,0.002678,0.000431,0.026091
6792000,0.0324,0.013523,0.002678,0.000431,0.025739
6793000,0.0324,0.013523,0.002678,0.000431,0.025034
6794000,0.0324,0.013523,0.002678,0.000431,0.027267
6795000,0.0324,0.013523,0.002678,0.000431,0.023506
6796000,0.0324,0.013523,0.002678,0.000431,0.026444
6797000,0.0324,0.013523,0.002678,0.000431,0.025269
6798000,0.0324,0.013523,0.002678,0.000431,0.025034
6799000,0.0324,0.013523,0.002678,0.000431,0.025269
6800000,0.0324,0.013523,0.002678,0.000431,0.025034
6801000,0.0324,0.013523,0.002678,0.000431,0.027737
6802000,0.0324,0.013523,0.002678,0.000431,0.024798
6803000,0.0324,0.013523,0.002678,0.000431,0.027737
6804000,0.0324,0.013523,0.002678,0.000431,0.024211
6805000,0.0324,0.013523,0.002678,0.000431,0.026914
6806000,0.0324,0.013523,0.002678,0.000431,0.023036
6807000,0.0324,0.013523,0.002678,0.000431,0.026091
6808000,0.0324,0.013523,0.002678,0.000431,0.024446
6809000,0.0324,0.013523,0.002678,0.000431,0.024681
6810000,0.0324,0.013523,0.002678,0.000431,0.028559
6811000,0.0324,0.013523,0.002678,0.000431,0.025269
6812000,0.0324,0.013523,0.002678,0.000431,0.025739
6813000,0.0324,0.013523,0.002678,0.000431,0.024328
6814000,0.0324,0.013523,0.002678,0.000431,0.024798
6815000,0.0324,0.013523,0.002678,0.000431,0.026326
6816000,0.0324,0.013523,0.002678,0.000431,0.023506
6817000,0.0324,0.013523,0.002678,0.000431,0.025739
6818000,0.0324,0.013523,0.002678,0.000431,0.028089
6819000,0.0324,0.013523,0.002678,0.000431,0.025151
6820000,0.0324,0.013523,0.002678,0.000431,0.025504
6821000,0.0324,0.013523,0.002678,0.000431,0.025974
6822000,0.0324,0.013523,0.002678,0.000431,0.025504
6823000,0.0324,0.013523,0.002678,0.000431,0.024563
6824000,0.0324,0.013523,0.002678,0.000431,0.025034
6825000,0.0324,0.013523,0.002678,0.000431,0.026679
6826000,0.0324,0.013523,0.002678,0.000431,0.024916
6827000,0.0324,0.013523,0.002678,0.000431,0.026326
6828000,0.0324,0.013523,0.002678,0.000431,0.024563
6829000,0.0324,0.013523,0.002678,0.000431,0.026091
6830000,0.0324,0.013523,0.002678,0.000431,0.024681
6831000,0.0324,0.013523,0.002678,0.000431,0.025856
6832000,0.0324,0.013523,0.002678,0.000431,0.024681
6833000,0.0324,0.013523,0.002678,0.000431,0.023858
6834000,0.0324,0.013523,0.002678,0.000431,0.024916
6835000,0.0324,0.013523,0.002678,0.000431,0.025974
6836000,0.0324,0.013523,0.002678,0.000431,0.026209
6837000,0.0324,0.013523,0.002678,0.000431,0.024798
6838000,0.0324,0.013523,0.002678,0.000431,0.025739
6839000,0.0324,0.013523,0.002678,0.000431,0.025386
6840000,0.0324,0.013523,0.002678,0.000431,0.023271
6841000,0.0324,0.013523,0.002678,0.000431,0.025269
6842000,0.0324,0.013523,0.002678,0.000431,0.026091
6843000,0.0324,0.013523,0.002678,0.000431,0.025034
6844000,0.0324,0.013523,0.002678,0.000431,0.024681
6845000,0.0324,0.013523,0.002678,0.000431,0.025739
6846000,0.0324,0.013523,0.002678,0.000431,0.025621
6847000,0.0324,0.013523,0.002678,0.000431,0.023623
6848000,0.0324,0.013523,0.002678,0.000431,0.026444
6849000,0.0324,0.013523,0.002678,0.000431,0.026796
6850000,0.0324,0.013523,0.002678,0.000431,0.025856
6851000,0.0324,0.013523,0.002678,0.000431,0.026091
6852000,0.0324,0.013523,0.002678,0.000431,0.025739
6853000,0.0324,0.013523,0.002678,0.000431,0.025621
6854000,0.0324,0.013523,0.002678,0.000431,0.023623
6855000,0.0324,0.013523,0.002678,0.000431,0.025151
6856000,0.0324,0.013523,0.002678,0.000431,0.025151
6857000,0.0324,0.013523,0.002678,0.000431,0.024328
6858000,0.0324,0.013523,0.002678,0.000431,0.027267
6859000,0.0324,0.013523,0.002678,0.000431,0.025151
6860000,0.0324,0.013523,0.002678,0.000431,0.026914
6861000,0.0324,0.013523,0.002678,0.000431,0.025151
6862000,0.0324,0.013523,0.002678,0.000431,0.026326
6863000,0.0324,0.013523,0.002678,0.000431,0.024563
6864000,0.0324,0.013523,0.002678,0.000431,0.025856
6865000,0.0324,0.013523,0.002678,0.000431,0.028207
6866000,0.0324,0.013523,0.002678,0.000431,0.024916
6867000,0.0324,0.013523,0.002678,0.000431,0.025269
6868000,0.0324,0.013523,0.002678,0.000431,0.025034
6869000,0.0324,0.013523,0.002678,0.000431,0.026561
6870000,0.0324,0.013523,0.002678,0.000431,0.025739
6871000,0.0324,0.013523,0.002678,0.000431,0.023036
6872000,0.0324,0.013523,0.002678,0.000431,0.026209
6873000,0.0324,0.013523,0.002678,0.000431,0.024916
6874000,0.0324,0.013523,0.002678,0.000431,0.026561
6875000,0.0324,0.013523,0.002678,0.000431,0.026091
6876000,0.0324,0.013523,0.002678,0.000431,0.025504
6877000,0.0324,0.013523,0.002678,0.000431,0.023976
6878000,0.0324,0.013523,0.002678,0.000431,0.024446
6879000,0.0324,0.013523,0.002678,0.000431,0.025504
6880000,0.0324,0.013523,0.002678,0.000431,0.025856
6881000,0.0324,0.013523,0.002678,0.000431,0.023976
6882000,0.0324,0.013523,0.002678,0.000431,0.024563
6883000,0.0324,0.013523,0.002678,0.000431,0.024681
6884000,0.0324,0.013523,0.002678,0.000431,0.023976
6885000,0.0324,0.013523,0.002678,0.000431,0.025504
6886000,0.0324,0.013523,0.002678,0.000431,0.024328
6887000,0.0324,0.013523,0.002678,0.000431,0.027737
6888000,0.0324,0.013523,0.002678,0.000431,0.024563
6889000,0.0324,0.013523,0.002678,0.000431,0.026679
6890000,0.0324,0.013523,0.002678,0.000431,0.023506
6891000,0.0324,0.013523,0.002678,0.000431,0.024916
6892000,0.0324,0.013523,0.002678,0.000431,0.026209
6893000,0.0324,0.013523,0.002678,0.000431,0.024328
6894000,0.0324,0.013523,0.002678,0.000431,0.024563
6895000,0.0324,0.013523,0.002678,0.000431,0.024446
6896000,0.0324,0.013523,0.002678,0.000431,0.026326
6897000,0.0324,0.013523,0.002678,0.000431,0.023976
6898000,0.0324,0.013523,0.002678,0.000431,0.025151
6899000,0.0324,0.013523,0.002678,0.000431,0.026679
6900000,0.0324,0.013523,0.002678,0.000431,0.023741
6901000,0.0324,0.013523,0.002678,0.000431,0.025269
6902000,0.0324,0.013523,0.002678,0.000431,0.024328
6903000,0.0324,0.013523,0.002678,0.000431,0.025739
6904000,0.0324,0.013523,0.002678,0.000431,0.024916
6905000,0.0324,0.013523,0.002678,0.000431,0.024681
6906000,0.0324,0.013523,0.002678,0.000431,0.026209
6907000,0.0324,0.013523,0.002678,0.000431,0.025151
6908000,0.0324,0.013523,0.002678,0.000431,0.024093
6909000,0.0324,0.013523,0.002678,0.000431,0.025621
6910000,0.0324,0.013523,0.002678,0.000431,0.025856
6911000,0.0324,0.013523,0.002678,0.000431,0.023976
6912000,0.0324,0.013523,0.002678,0.000431,0.024446
6913000,0.0324,0.013523,0.002678,0.000431,0.027619
6914000,0.0324,0.013523,0.002678,0.000431,0.024563
6915000,0.0324,0.013523,0.002678,0.000431,0.024681
6916000,0.0324,0.013523,0.002678,0.000431,0.024093
6917000,0.0324,0.013523,0.002678,0.000431,0.025974
6918000,0.0324,0.013523,0.002678,0.000431,0.024093
6919000,0.0324,0.013523,0.002678,0.000431,0.025269
6920000,0.0324,0.013523,0.002678,0.000431,0.024681
6921000,0.0324,0.013523,0.002678,0.000431,0.025269
6922000,0.0324,0.013523,0.002678,0.000431,0.026679
6923000,0.0324,0.013523,0.002678,0.000431,0.025856
6924000,0.0324,0.013523,0.002678,0.000431,0.023976
6925000,0.0324,0.013523,0.002678,0.000431,0.023506
6926000,0.0324,0.013523,0.002678,0.000431,0.026561
6927000,0.0324,0.013523,0.002678,0.000431,0.024798
6928000,0.0324,0.013523,0.002678,0.000431,0.024211
6929000,0.0324,0.013523,0.002678,0.000431,0.025151
6930000,0.0324,0.013523,0.002678,0.000431,0.024563
6931000,0.0324,0.013523,0.002678,0.000431,0.025151
6932000,0.0324,0.013523,0.002678,0.000431,0.025621
6933000,0.0324,0.013523,0.002678,0.000431,0.025621
6934000,0.0324,0.013523,0.002678,0.000431,0.024563
6935000,0.0324,0.013523,0.002678,0.000431,0.024328
6936000,0.0324,0.013523,0.002678,0.000431,0.024446
6937000,0.0324,0.013523,0.002678,0.000431,0.025856
6938000,0.0324,0.013523,0.002678,0.000431,0.024211
6939000,0.0324,0.013523,0.002678,0.000431,0.025269
6940000,0.0324,0.013523,0.002678,0.000431,0.023741
6941000,0.0324,0.013523,0.002678,0.000431,0.025974
6942000,0.0324,0.013523,0.002678,0.000431,0.025739
6943000,0.0324,0.013523,0.002678,0.000431,0.023153
6944000,0.0324,0.013523,0.002678,0.000431,0.026796
6945000,0.0324,0.013523,0.002678,0.000431,0.022800
6946000,0.0324,0.013523,0.002678,0.000431,0.025974
6947000,0.0324,0.013523,0.002678,0.000431,0.026444
6948000,0.0324,0.013523,0.002678,0.000431,0.026091
6949000,0.0324,0.013523,0.002678,0.000431,0.024446
6950000,0.0324,0.013523,0.002678,0.000431,0.025739
6951000,0.0324,0.013523,0.002678,0.000431,0.025504
6952000,0.0324,0.013523,0.002678,0.000431,0.023506
6953000,0.0324,0.013523,0.002678,0.000431,0.025034
6954000,0.0324,0.013523,0.002678,0.000431,0.026091
6955000,0.0324,0.013523,0.002678,0.000431,0.023858
6956000,0.0324,0.013523,0.002678,0.000431,0.025739
6957000,0.0324,0.013523,0.002678,0.000431,0.022800
6958000,0.0324,0.013523,0.002678,0.000431,0.025739
6959000,0.0324,0.013523,0.002678,0.000431,0.025739
6960000,0.0324,0.013523,0.002678,0.000431,0.027031
6961000,0.0324,0.013523,0.002678,0.000431,0.023741
6962000,0.0324,0.013523,0.002678,0.000431,0.023506
6963000,0.0324,0.013523,0.002678,0.000431,0.027854
6964000,0.0324,0.013523,0.002678,0.000431,0.024328
6965000,0.0324,0.013523,0.002678,0.000431,0.023036
6966000,0.0324,0.013523,0.002678,0.000431,0.026561
6967000,0.0324,0.013523,0.002678,0.000431,0.024681
6968000,0.0324,0.013523,0.002678,0.000431,0.024916
6969000,0.0324,0.013523,0.002678,0.000431,0.023036
6970000,0.0324,0.013523,0.002678,0.000431,0.025739
6971000,0.0324,0.013523,0.002678,0.000431,0.025856
6972000,0.0324,0.013523,0.002678,0.000431,0.024093
6973000,0.0324,0.013523,0.002678,0.000431,0.024211
6974000,0.0324,0.013523,0.002678,0.000431,0.025034
6975000,0.0324,0.013523,0.002678,0.000431,0.024446
6976000,0.0324,0.013523,0.002678,0.000431,0.024211
6977000,0.0324,0.013523,0.002678,0.000431,0.024093
6978000,0.0324,0.013523,0.002678,0.000431,0.024916
6979000,0.0324,0.013523,0.002678,0.000431,0.023741
6980000,0.0324,0.013523,0.002678,0.000431,0.023741
6981000,0.0324,0.013523,0.002678,0.000431,0.026091
6982000,0.0324,0.013523,0.002678,0.000431,0.024328
6983000,0.0324,0.013523,0.002678,0.000431,0.024798
6984000,0.0324,0.013523,0.002678,0.000431,0.025269
6985000,0.0324,0.013523,0.002678,0.000431,0.025386
6986000,0.0324,0.013523,0.002678,0.000431,0.022918
6987000,0.0324,0.013523,0.002678,0.000431,0.024446
6988000,0.0324,0.013523,0.002678,0.000431,0.024798
6989000,0.0324,0.013523,0.002678,0.000431,0.025739
6990000,0.0324,0.013523,0.002678,0.000431,0.023036
6991000,0.0324,0.013523,0.002678,0.000431,0.024681
6992000,0.0324,0.013523,0.002678,0.000431,0.025386
6993000,0.0324,0.013523,0.002678,0.000431,0.025386
6994000,0.0324,0.013523,0.002678,0.000431,0.023271
6995000,0.0324,0.013523,0.002678,0.000431,0.025151
6996000,0.0324,0.013523,0.002678,0.000431,0.024798
6997000,0.0324,0.013523,0.002678,0.000431,0.024681
6998000,0.0324,0.013523,0.002678,0.000431,0.023623
6999000,0.0324,0.013523,0.002678,0.000431,0.024681
