Cycle,Area(mm^2),PeakDynamic(W),SubthresholdLeakage(W),GateLeakage(W),RunTimeDynamic(W)
16000000,0.0324,0.013523,0.002678,0.000431,0.003291
16001000,0.0324,0.013523,0.002678,0.000431,0.004349
16002000,0.0324,0.013523,0.002678,0.000431,0.003526
16003000,0.0324,0.013523,0.002678,0.000431,0.003408
16004000,0.0324,0.013523,0.002678,0.000431,0.003526
16005000,0.0324,0.013523,0.002678,0.000431,0.002938
16006000,0.0324,0.013523,0.002678,0.000431,0.003291
16007000,0.0324,0.013523,0.002678,0.000431,0.003643
16008000,0.0324,0.013523,0.002678,0.000431,0.003761
16009000,0.0324,0.013523,0.002678,0.000431,0.003526
16010000,0.0324,0.013523,0.002678,0.000431,0.003761
16011000,0.0324,0.013523,0.002678,0.000431,0.003408
16012000,0.0324,0.013523,0.002678,0.000431,0.003526
16013000,0.0324,0.013523,0.002678,0.000431,0.003526
16014000,0.0324,0.013523,0.002678,0.000431,0.003526
16015000,0.0324,0.013523,0.002678,0.000431,0.003173
16016000,0.0324,0.013523,0.002678,0.000431,0.003643
16017000,0.0324,0.013523,0.002678,0.000431,0.002938
16018000,0.0324,0.013523,0.002678,0.000431,0.003761
16019000,0.0324,0.013523,0.002678,0.000431,0.003291
16020000,0.0324,0.013523,0.002678,0.000431,0.003408
16021000,0.0324,0.013523,0.002678,0.000431,0.002938
16022000,0.0324,0.013523,0.002678,0.000431,0.003291
16023000,0.0324,0.013523,0.002678,0.000431,0.003643
16024000,0.0324,0.013523,0.002678,0.000431,0.003291
16025000,0.0324,0.013523,0.002678,0.000431,0.003996
16026000,0.0324,0.013523,0.002678,0.000431,0.003408
16027000,0.0324,0.013523,0.002678,0.000431,0.003056
16028000,0.0324,0.013523,0.002678,0.000431,0.003878
16029000,0.0324,0.013523,0.002678,0.000431,0.003056
16030000,0.0324,0.013523,0.002678,0.000431,0.003643
16031000,0.0324,0.013523,0.002678,0.000431,0.003291
16032000,0.0324,0.013523,0.002678,0.000431,0.003643
16033000,0.0324,0.013523,0.002678,0.000431,0.003526
16034000,0.0324,0.013523,0.002678,0.000431,0.003173
16035000,0.0324,0.013523,0.002678,0.000431,0.003173
16036000,0.0324,0.013523,0.002678,0.000431,0.003291
16037000,0.0324,0.013523,0.002678,0.000431,0.003173
16038000,0.0324,0.013523,0.002678,0.000431,0.003996
16039000,0.0324,0.013523,0.002678,0.000431,0.003643
16040000,0.0324,0.013523,0.002678,0.000431,0.003526
16041000,0.0324,0.013523,0.002678,0.000431,0.003761
16042000,0.0324,0.013523,0.002678,0.000431,0.003526
16043000,0.0324,0.013523,0.002678,0.000431,0.003761
16044000,0.0324,0.013523,0.002678,0.000431,0.003291
16045000,0.0324,0.013523,0.002678,0.000431,0.003526
16046000,0.0324,0.013523,0.002678,0.000431,0.004231
16047000,0.0324,0.013523,0.002678,0.000431,0.004231
16048000,0.0324,0.013523,0.002678,0.000431,0.003526
16049000,0.0324,0.013523,0.002678,0.000431,0.003761
16050000,0.0324,0.013523,0.002678,0.000431,0.003056
16051000,0.0324,0.013523,0.002678,0.000431,0.003408
16052000,0.0324,0.013523,0.002678,0.000431,0.003173
16053000,0.0324,0.013523,0.002678,0.000431,0.003408
16054000,0.0324,0.013523,0.002678,0.000431,0.003056
16055000,0.0324,0.013523,0.002678,0.000431,0.003761
16056000,0.0324,0.013523,0.002678,0.000431,0.003996
16057000,0.0324,0.013523,0.002678,0.000431,0.003526
16058000,0.0324,0.013523,0.002678,0.000431,0.003526
16059000,0.0324,0.013523,0.002678,0.000431,0.003291
16060000,0.0324,0.013523,0.002678,0.000431,0.003643
16061000,0.0324,0.013523,0.002678,0.000431,0.003761
16062000,0.0324,0.013523,0.002678,0.000431,0.003878
16063000,0.0324,0.013523,0.002678,0.000431,0.003056
16064000,0.0324,0.013523,0.002678,0.000431,0.003761
16065000,0.0324,0.013523,0.002678,0.000431,0.003761
16066000,0.0324,0.013523,0.002678,0.000431,0.002703
16067000,0.0324,0.013523,0.002678,0.000431,0.004231
16068000,0.0324,0.013523,0.002678,0.000431,0.003291
16069000,0.0324,0.013523,0.002678,0.000431,0.003761
16070000,0.0324,0.013523,0.002678,0.000431,0.003761
16071000,0.0324,0.013523,0.002678,0.000431,0.003643
16072000,0.0324,0.013523,0.002678,0.000431,0.002821
16073000,0.0324,0.013523,0.002678,0.000431,0.003173
16074000,0.0324,0.013523,0.002678,0.000431,0.004113
16075000,0.0324,0.013523,0.002678,0.000431,0.003526
16076000,0.0324,0.013523,0.002678,0.000431,0.003291
16077000,0.0324,0.013523,0.002678,0.000431,0.003173
16078000,0.0324,0.013523,0.002678,0.000431,0.003526
16079000,0.0324,0.013523,0.002678,0.000431,0.003761
16080000,0.0324,0.013523,0.002678,0.000431,0.003643
16081000,0.0324,0.013523,0.002678,0.000431,0.003291
16082000,0.0324,0.013523,0.002678,0.000431,0.003173
16083000,0.0324,0.013523,0.002678,0.000431,0.003643
16084000,0.0324,0.013523,0.002678,0.000431,0.003408
16085000,0.0324,0.013523,0.002678,0.000431,0.003526
16086000,0.0324,0.013523,0.002678,0.000431,0.003408
16087000,0.0324,0.013523,0.002678,0.000431,0.003408
16088000,0.0324,0.013523,0.002678,0.000431,0.003878
16089000,0.0324,0.013523,0.002678,0.000431,0.003761
16090000,0.0324,0.013523,0.002678,0.000431,0.003291
16091000,0.0324,0.013523,0.002678,0.000431,0.003643
16092000,0.0324,0.013523,0.002678,0.000431,0.003761
16093000,0.0324,0.013523,0.002678,0.000431,0.003526
16094000,0.0324,0.013523,0.002678,0.000431,0.003526
16095000,0.0324,0.013523,0.002678,0.000431,0.003173
16096000,0.0324,0.013523,0.002678,0.000431,0.003526
16097000,0.0324,0.013523,0.002678,0.000431,0.003643
16098000,0.0324,0.013523,0.002678,0.000431,0.003291
16099000,0.0324,0.013523,0.002678,0.000431,0.003996
16100000,0.0324,0.013523,0.002678,0.000431,0.003526
16101000,0.0324,0.013523,0.002678,0.000431,0.003526
16102000,0.0324,0.013523,0.002678,0.000431,0.003526
16103000,0.0324,0.013523,0.002678,0.000431,0.003643
16104000,0.0324,0.013523,0.002678,0.000431,0.003878
16105000,0.0324,0.013523,0.002678,0.000431,0.003526
16106000,0.0324,0.013523,0.002678,0.000431,0.003291
16107000,0.0324,0.013523,0.002678,0.000431,0.004349
16108000,0.0324,0.013523,0.002678,0.000431,0.003761
16109000,0.0324,0.013523,0.002678,0.000431,0.003408
16110000,0.0324,0.013523,0.002678,0.000431,0.003761
16111000,0.0324,0.013523,0.002678,0.000431,0.003878
16112000,0.0324,0.013523,0.002678,0.000431,0.003996
16113000,0.0324,0.013523,0.002678,0.000431,0.003291
16114000,0.0324,0.013523,0.002678,0.000431,0.004349
16115000,0.0324,0.013523,0.002678,0.000431,0.003526
16116000,0.0324,0.013523,0.002678,0.000431,0.003526
16117000,0.0324,0.013523,0.002678,0.000431,0.004349
16118000,0.0324,0.013523,0.002678,0.000431,0.003291
16119000,0.0324,0.013523,0.002678,0.000431,0.003408
16120000,0.0324,0.013523,0.002678,0.000431,0.003408
16121000,0.0324,0.013523,0.002678,0.000431,0.003996
16122000,0.0324,0.013523,0.002678,0.000431,0.003291
16123000,0.0324,0.013523,0.002678,0.000431,0.003878
16124000,0.0324,0.013523,0.002678,0.000431,0.003526
16125000,0.0324,0.013523,0.002678,0.000431,0.003408
16126000,0.0324,0.013523,0.002678,0.000431,0.003996
16127000,0.0324,0.013523,0.002678,0.000431,0.003996
16128000,0.0324,0.013523,0.002678,0.000431,0.003408
16129000,0.0324,0.013523,0.002678,0.000431,0.004466
16130000,0.0324,0.013523,0.002678,0.000431,0.003761
16131000,0.0324,0.013523,0.002678,0.000431,0.003643
16132000,0.0324,0.013523,0.002678,0.000431,0.003996
16133000,0.0324,0.013523,0.002678,0.000431,0.003761
16134000,0.0324,0.013523,0.002678,0.000431,0.003643
16135000,0.0324,0.013523,0.002678,0.000431,0.004349
16136000,0.0324,0.013523,0.002678,0.000431,0.003761
16137000,0.0324,0.013523,0.002678,0.000431,0.003526
16138000,0.0324,0.013523,0.002678,0.000431,0.003761
16139000,0.0324,0.013523,0.002678,0.000431,0.003643
16140000,0.0324,0.013523,0.002678,0.000431,0.003056
16141000,0.0324,0.013523,0.002678,0.000431,0.003526
16142000,0.0324,0.013523,0.002678,0.000431,0.003056
16143000,0.0324,0.013523,0.002678,0.000431,0.002703
16144000,0.0324,0.013523,0.002678,0.000431,0.002938
16145000,0.0324,0.013523,0.002678,0.000431,0.003643
16146000,0.0324,0.013523,0.002678,0.000431,0.002703
16147000,0.0324,0.013523,0.002678,0.000431,0.002703
16148000,0.0324,0.013523,0.002678,0.000431,0.003056
16149000,0.0324,0.013523,0.002678,0.000431,0.002821
16150000,0.0324,0.013523,0.002678,0.000431,0.003526
16151000,0.0324,0.013523,0.002678,0.000431,0.002938
16152000,0.0324,0.013523,0.002678,0.000431,0.002351
16153000,0.0324,0.013523,0.002678,0.000431,0.003408
16154000,0.0324,0.013523,0.002678,0.000431,0.003173
16155000,0.0324,0.013523,0.002678,0.000431,0.002821
16156000,0.0324,0.013523,0.002678,0.000431,0.003173
16157000,0.0324,0.013523,0.002678,0.000431,0.003173
16158000,0.0324,0.013523,0.002678,0.000431,0.002468
16159000,0.0324,0.013523,0.002678,0.000431,0.003173
16160000,0.0324,0.013523,0.002678,0.000431,0.003056
16161000,0.0324,0.013523,0.002678,0.000431,0.003291
16162000,0.0324,0.013523,0.002678,0.000431,0.002938
16163000,0.0324,0.013523,0.002678,0.000431,0.002703
16164000,0.0324,0.013523,0.002678,0.000431,0.002351
16165000,0.0324,0.013523,0.002678,0.000431,0.003291
16166000,0.0324,0.013523,0.002678,0.000431,0.002586
16167000,0.0324,0.013523,0.002678,0.000431,0.002703
16168000,0.0324,0.013523,0.002678,0.000431,0.003408
16169000,0.0324,0.013523,0.002678,0.000431,0.003526
16170000,0.0324,0.013523,0.002678,0.000431,0.002586
16171000,0.0324,0.013523,0.002678,0.000431,0.003408
16172000,0.0324,0.013523,0.002678,0.000431,0.002938
16173000,0.0324,0.013523,0.002678,0.000431,0.002468
16174000,0.0324,0.013523,0.002678,0.000431,0.003056
16175000,0.0324,0.013523,0.002678,0.000431,0.002821
16176000,0.0324,0.013523,0.002678,0.000431,0.002233
16177000,0.0324,0.013523,0.002678,0.000431,0.002938
16178000,0.0324,0.013523,0.002678,0.000431,0.002938
16179000,0.0324,0.013523,0.002678,0.000431,0.002938
16180000,0.0324,0.013523,0.002678,0.000431,0.002821
16181000,0.0324,0.013523,0.002678,0.000431,0.003291
16182000,0.0324,0.013523,0.002678,0.000431,0.002821
16183000,0.0324,0.013523,0.002678,0.000431,0.003291
16184000,0.0324,0.013523,0.002678,0.000431,0.002703
16185000,0.0324,0.013523,0.002678,0.000431,0.002468
16186000,0.0324,0.013523,0.002678,0.000431,0.002821
16187000,0.0324,0.013523,0.002678,0.000431,0.002351
16188000,0.0324,0.013523,0.002678,0.000431,0.002351
16189000,0.0324,0.013523,0.002678,0.000431,0.003643
16190000,0.0324,0.013523,0.002678,0.000431,0.002233
16191000,0.0324,0.013523,0.002678,0.000431,0.002586
16192000,0.0324,0.013523,0.002678,0.000431,0.002586
16193000,0.0324,0.013523,0.002678,0.000431,0.003408
16194000,0.0324,0.013523,0.002678,0.000431,0.002586
16195000,0.0324,0.013523,0.002678,0.000431,0.002821
16196000,0.0324,0.013523,0.002678,0.000431,0.002351
16197000,0.0324,0.013523,0.002678,0.000431,0.002821
16198000,0.0324,0.013523,0.002678,0.000431,0.002703
16199000,0.0324,0.013523,0.002678,0.000431,0.002351
16200000,0.0324,0.013523,0.002678,0.000431,0.002586
16201000,0.0324,0.013523,0.002678,0.000431,0.002703
16202000,0.0324,0.013523,0.002678,0.000431,0.002116
16203000,0.0324,0.013523,0.002678,0.000431,0.002821
16204000,0.0324,0.013523,0.002678,0.000431,0.002703
16205000,0.0324,0.013523,0.002678,0.000431,0.002351
16206000,0.0324,0.013523,0.002678,0.000431,0.002468
16207000,0.0324,0.013523,0.002678,0.000431,0.002586
16208000,0.0324,0.013523,0.002678,0.000431,0.003056
16209000,0.0324,0.013523,0.002678,0.000431,0.002938
16210000,0.0324,0.013523,0.002678,0.000431,0.003056
16211000,0.0324,0.013523,0.002678,0.000431,0.002703
16212000,0.0324,0.013523,0.002678,0.000431,0.002586
16213000,0.0324,0.013523,0.002678,0.000431,0.003173
16214000,0.0324,0.013523,0.002678,0.000431,0.002468
16215000,0.0324,0.013523,0.002678,0.000431,0.002468
16216000,0.0324,0.013523,0.002678,0.000431,0.002938
16217000,0.0324,0.013523,0.002678,0.000431,0.002586
16218000,0.0324,0.013523,0.002678,0.000431,0.002703
16219000,0.0324,0.013523,0.002678,0.000431,0.002586
16220000,0.0324,0.013523,0.002678,0.000431,0.002703
16221000,0.0324,0.013523,0.002678,0.000431,0.002821
16222000,0.0324,0.013523,0.002678,0.000431,0.002586
16223000,0.0324,0.013523,0.002678,0.000431,0.002938
16224000,0.0324,0.013523,0.002678,0.000431,0.002586
16225000,0.0324,0.013523,0.002678,0.000431,0.002586
16226000,0.0324,0.013523,0.002678,0.000431,0.002233
16227000,0.0324,0.013523,0.002678,0.000431,0.002468
16228000,0.0324,0.013523,0.002678,0.000431,0.002586
16229000,0.0324,0.013523,0.002678,0.000431,0.002821
16230000,0.0324,0.013523,0.002678,0.000431,0.002821
16231000,0.0324,0.013523,0.002678,0.000431,0.002351
16232000,0.0324,0.013523,0.002678,0.000431,0.002468
16233000,0.0324,0.013523,0.002678,0.000431,0.002468
16234000,0.0324,0.013523,0.002678,0.000431,0.003056
16235000,0.0324,0.013523,0.002678,0.000431,0.002938
16236000,0.0324,0.013523,0.002678,0.000431,0.002468
16237000,0.0324,0.013523,0.002678,0.000431,0.002703
16238000,0.0324,0.013523,0.002678,0.000431,0.002116
16239000,0.0324,0.013523,0.002678,0.000431,0.003056
16240000,0.0324,0.013523,0.002678,0.000431,0.002586
16241000,0.0324,0.013523,0.002678,0.000431,0.002821
16242000,0.0324,0.013523,0.002678,0.000431,0.002116
16243000,0.0324,0.013523,0.002678,0.000431,0.002351
16244000,0.0324,0.013523,0.002678,0.000431,0.002703
16245000,0.0324,0.013523,0.002678,0.000431,0.002586
16246000,0.0324,0.013523,0.002678,0.000431,0.002586
16247000,0.0324,0.013523,0.002678,0.000431,0.003056
16248000,0.0324,0.013523,0.002678,0.000431,0.002351
16249000,0.0324,0.013523,0.002678,0.000431,0.002821
16250000,0.0324,0.013523,0.002678,0.000431,0.002351
16251000,0.0324,0.013523,0.002678,0.000431,0.002233
16252000,0.0324,0.013523,0.002678,0.000431,0.002703
16253000,0.0324,0.013523,0.002678,0.000431,0.002468
16254000,0.0324,0.013523,0.002678,0.000431,0.002351
16255000,0.0324,0.013523,0.002678,0.000431,0.002586
16256000,0.0324,0.013523,0.002678,0.000431,0.002351
16257000,0.0324,0.013523,0.002678,0.000431,0.001528
16258000,0.0324,0.013523,0.002678,0.000431,0.001645
16259000,0.0324,0.013523,0.002678,0.000431,0.002351
16260000,0.0324,0.013523,0.002678,0.000431,0.001763
16261000,0.0324,0.013523,0.002678,0.000431,0.002116
16262000,0.0324,0.013523,0.002678,0.000431,0.002586
16263000,0.0324,0.013523,0.002678,0.000431,0.001410
16264000,0.0324,0.013523,0.002678,0.000431,0.002116
16265000,0.0324,0.013523,0.002678,0.000431,0.001763
16266000,0.0324,0.013523,0.002678,0.000431,0.001293
16267000,0.0324,0.013523,0.002678,0.000431,0.001528
16268000,0.0324,0.013523,0.002678,0.000431,0.001410
16269000,0.0324,0.013523,0.002678,0.000431,0.001528
16270000,0.0324,0.013523,0.002678,0.000431,0.001763
16271000,0.0324,0.013523,0.002678,0.000431,0.001880
16272000,0.0324,0.013523,0.002678,0.000431,0.001293
16273000,0.0324,0.013523,0.002678,0.000431,0.001293
16274000,0.0324,0.013523,0.002678,0.000431,0.001645
16275000,0.0324,0.013523,0.002678,0.000431,0.001410
16276000,0.0324,0.013523,0.002678,0.000431,0.001880
16277000,0.0324,0.013523,0.002678,0.000431,0.001763
16278000,0.0324,0.013523,0.002678,0.000431,0.001175
16279000,0.0324,0.013523,0.002678,0.000431,0.001880
16280000,0.0324,0.013523,0.002678,0.000431,0.001058
16281000,0.0324,0.013523,0.002678,0.000431,0.000940
16282000,0.0324,0.013523,0.002678,0.000431,0.000940
16283000,0.0324,0.013523,0.002678,0.000431,0.000940
16284000,0.0324,0.013523,0.002678,0.000431,0.001058
16285000,0.0324,0.013523,0.002678,0.000431,0.001175
16286000,0.0324,0.013523,0.002678,0.000431,0.000823
16287000,0.0324,0.013523,0.002678,0.000431,0.001293
16288000,0.0324,0.013523,0.002678,0.000431,0.001410
16289000,0.0324,0.013523,0.002678,0.000431,0.000823
16290000,0.0324,0.013523,0.002678,0.000431,0.001058
16291000,0.0324,0.013523,0.002678,0.000431,0.001410
16292000,0.0324,0.013523,0.002678,0.000431,0.001058
16293000,0.0324,0.013523,0.002678,0.000431,0.000823
16294000,0.0324,0.013523,0.002678,0.000431,0.001175
16295000,0.0324,0.013523,0.002678,0.000431,0.000823
16296000,0.0324,0.013523,0.002678,0.000431,0.001058
16297000,0.0324,0.013523,0.002678,0.000431,0.001175
16298000,0.0324,0.013523,0.002678,0.000431,0.000823
16299000,0.0324,0.013523,0.002678,0.000431,0.001058
16300000,0.0324,0.013523,0.002678,0.000431,0.001410
16301000,0.0324,0.013523,0.002678,0.000431,0.001058
16302000,0.0324,0.013523,0.002678,0.000431,0.001175
16303000,0.0324,0.013523,0.002678,0.000431,0.001528
16304000,0.0324,0.013523,0.002678,0.000431,0.001058
16305000,0.0324,0.013523,0.002678,0.000431,0.000940
16306000,0.0324,0.013523,0.002678,0.000431,0.001058
16307000,0.0324,0.013523,0.002678,0.000431,0.001058
16308000,0.0324,0.013523,0.002678,0.000431,0.001293
16309000,0.0324,0.013523,0.002678,0.000431,0.001175
16310000,0.0324,0.013523,0.002678,0.000431,0.001058
16311000,0.0324,0.013523,0.002678,0.000431,0.000940
16312000,0.0324,0.013523,0.002678,0.000431,0.001528
16313000,0.0324,0.013523,0.002678,0.000431,0.001058
16314000,0.0324,0.013523,0.002678,0.000431,0.001058
16315000,0.0324,0.013523,0.002678,0.000431,0.001175
16316000,0.0324,0.013523,0.002678,0.000431,0.000823
16317000,0.0324,0.013523,0.002678,0.000431,0.001058
16318000,0.0324,0.013523,0.002678,0.000431,0.001175
16319000,0.0324,0.013523,0.002678,0.000431,0.001058
16320000,0.0324,0.013523,0.002678,0.000431,0.001058
16321000,0.0324,0.013523,0.002678,0.000431,0.001293
16322000,0.0324,0.013523,0.002678,0.000431,0.000823
16323000,0.0324,0.013523,0.002678,0.000431,0.000823
16324000,0.0324,0.013523,0.002678,0.000431,0.000940
16325000,0.0324,0.013523,0.002678,0.000431,0.000823
16326000,0.0324,0.013523,0.002678,0.000431,0.001645
16327000,0.0324,0.013523,0.002678,0.000431,0.001058
16328000,0.0324,0.013523,0.002678,0.000431,0.001058
16329000,0.0324,0.013523,0.002678,0.000431,0.001175
16330000,0.0324,0.013523,0.002678,0.000431,0.001410
16331000,0.0324,0.013523,0.002678,0.000431,0.001058
16332000,0.0324,0.013523,0.002678,0.000431,0.001058
16333000,0.0324,0.013523,0.002678,0.000431,0.001058
16334000,0.0324,0.013523,0.002678,0.000431,0.000940
16335000,0.0324,0.013523,0.002678,0.000431,0.000823
16336000,0.0324,0.013523,0.002678,0.000431,0.001293
16337000,0.0324,0.013523,0.002678,0.000431,0.000705
16338000,0.0324,0.013523,0.002678,0.000431,0.001058
16339000,0.0324,0.013523,0.002678,0.000431,0.001175
16340000,0.0324,0.013523,0.002678,0.000431,0.001175
16341000,0.0324,0.013523,0.002678,0.000431,0.001528
16342000,0.0324,0.013523,0.002678,0.000431,0.000940
16343000,0.0324,0.013523,0.002678,0.000431,0.000940
16344000,0.0324,0.013523,0.002678,0.000431,0.001058
16345000,0.0324,0.013523,0.002678,0.000431,0.001058
16346000,0.0324,0.013523,0.002678,0.000431,0.000940
16347000,0.0324,0.013523,0.002678,0.000431,0.001293
16348000,0.0324,0.013523,0.002678,0.000431,0.001410
16349000,0.0324,0.013523,0.002678,0.000431,0.000823
16350000,0.0324,0.013523,0.002678,0.000431,0.000940
16351000,0.0324,0.013523,0.002678,0.000431,0.000823
16352000,0.0324,0.013523,0.002678,0.000431,0.001058
16353000,0.0324,0.013523,0.002678,0.000431,0.001058
16354000,0.0324,0.013523,0.002678,0.000431,0.001410
16355000,0.0324,0.013523,0.002678,0.000431,0.001058
16356000,0.0324,0.013523,0.002678,0.000431,0.001175
16357000,0.0324,0.013523,0.002678,0.000431,0.001058
16358000,0.0324,0.013523,0.002678,0.000431,0.001293
16359000,0.0324,0.013523,0.002678,0.000431,0.000823
16360000,0.0324,0.013523,0.002678,0.000431,0.001175
16361000,0.0324,0.013523,0.002678,0.000431,0.001058
16362000,0.0324,0.013523,0.002678,0.000431,0.001175
16363000,0.0324,0.013523,0.002678,0.000431,0.001293
16364000,0.0324,0.013523,0.002678,0.000431,0.001058
16365000,0.0324,0.013523,0.002678,0.000431,0.000705
16366000,0.0324,0.013523,0.002678,0.000431,0.000940
16367000,0.0324,0.013523,0.002678,0.000431,0.001293
16368000,0.0324,0.013523,0.002678,0.000431,0.000940
16369000,0.0324,0.013523,0.002678,0.000431,0.001175
16370000,0.0324,0.013523,0.002678,0.000431,0.001058
16371000,0.0324,0.013523,0.002678,0.000431,0.001058
16372000,0.0324,0.013523,0.002678,0.000431,0.000823
16373000,0.0324,0.013523,0.002678,0.000431,0.001410
16374000,0.0324,0.013523,0.002678,0.000431,0.001175
16375000,0.0324,0.013523,0.002678,0.000431,0.000823
16376000,0.0324,0.013523,0.002678,0.000431,0.001058
16377000,0.0324,0.013523,0.002678,0.000431,0.001293
16378000,0.0324,0.013523,0.002678,0.000431,0.001645
16379000,0.0324,0.013523,0.002678,0.000431,0.000823
16380000,0.0324,0.013523,0.002678,0.000431,0.001058
16381000,0.0324,0.013523,0.002678,0.000431,0.001645
16382000,0.0324,0.013523,0.002678,0.000431,0.001175
16383000,0.0324,0.013523,0.002678,0.000431,0.001293
16384000,0.0324,0.013523,0.002678,0.000431,0.001175
16385000,0.0324,0.013523,0.002678,0.000431,0.001175
16386000,0.0324,0.013523,0.002678,0.000431,0.001058
16387000,0.0324,0.013523,0.002678,0.000431,0.001293
16388000,0.0324,0.013523,0.002678,0.000431,0.000940
16389000,0.0324,0.013523,0.002678,0.000431,0.001058
16390000,0.0324,0.013523,0.002678,0.000431,0.001175
16391000,0.0324,0.013523,0.002678,0.000431,0.001293
16392000,0.0324,0.013523,0.002678,0.000431,0.000940
16393000,0.0324,0.013523,0.002678,0.000431,0.001058
16394000,0.0324,0.013523,0.002678,0.000431,0.000823
16395000,0.0324,0.013523,0.002678,0.000431,0.000705
16396000,0.0324,0.013523,0.002678,0.000431,0.001293
16397000,0.0324,0.013523,0.002678,0.000431,0.001058
16398000,0.0324,0.013523,0.002678,0.000431,0.001058
16399000,0.0324,0.013523,0.002678,0.000431,0.001175
16400000,0.0324,0.013523,0.002678,0.000431,0.001058
16401000,0.0324,0.013523,0.002678,0.000431,0.000823
16402000,0.0324,0.013523,0.002678,0.000431,0.001528
16403000,0.0324,0.013523,0.002678,0.000431,0.000940
16404000,0.0324,0.013523,0.002678,0.000431,0.001058
16405000,0.0324,0.013523,0.002678,0.000431,0.001175
16406000,0.0324,0.013523,0.002678,0.000431,0.001293
16407000,0.0324,0.013523,0.002678,0.000431,0.000823
16408000,0.0324,0.013523,0.002678,0.000431,0.001175
16409000,0.0324,0.013523,0.002678,0.000431,0.000823
16410000,0.0324,0.013523,0.002678,0.000431,0.001293
16411000,0.0324,0.013523,0.002678,0.000431,0.001175
16412000,0.0324,0.013523,0.002678,0.000431,0.001058
16413000,0.0324,0.013523,0.002678,0.000431,0.000940
16414000,0.0324,0.013523,0.002678,0.000431,0.001293
16415000,0.0324,0.013523,0.002678,0.000431,0.001058
16416000,0.0324,0.013523,0.002678,0.000431,0.000823
16417000,0.0324,0.013523,0.002678,0.000431,0.001410
16418000,0.0324,0.013523,0.002678,0.000431,0.001175
16419000,0.0324,0.013523,0.002678,0.000431,0.000940
16420000,0.0324,0.013523,0.002678,0.000431,0.001175
16421000,0.0324,0.013523,0.002678,0.000431,0.000823
16422000,0.0324,0.013523,0.002678,0.000431,0.001175
16423000,0.0324,0.013523,0.002678,0.000431,0.001175
16424000,0.0324,0.013523,0.002678,0.000431,0.000940
16425000,0.0324,0.013523,0.002678,0.000431,0.001058
16426000,0.0324,0.013523,0.002678,0.000431,0.000940
16427000,0.0324,0.013523,0.002678,0.000431,0.000823
16428000,0.0324,0.013523,0.002678,0.000431,0.000940
16429000,0.0324,0.013523,0.002678,0.000431,0.001293
16430000,0.0324,0.013523,0.002678,0.000431,0.001293
16431000,0.0324,0.013523,0.002678,0.000431,0.000823
16432000,0.0324,0.013523,0.002678,0.000431,0.001410
16433000,0.0324,0.013523,0.002678,0.000431,0.001058
16434000,0.0324,0.013523,0.002678,0.000431,0.000940
16435000,0.0324,0.013523,0.002678,0.000431,0.001528
16436000,0.0324,0.013523,0.002678,0.000431,0.000823
16437000,0.0324,0.013523,0.002678,0.000431,0.001293
16438000,0.0324,0.013523,0.002678,0.000431,0.001293
16439000,0.0324,0.013523,0.002678,0.000431,0.000823
16440000,0.0324,0.013523,0.002678,0.000431,0.001175
16441000,0.0324,0.013523,0.002678,0.000431,0.000823
16442000,0.0324,0.013523,0.002678,0.000431,0.001293
16443000,0.0324,0.013523,0.002678,0.000431,0.001175
16444000,0.0324,0.013523,0.002678,0.000431,0.001175
16445000,0.0324,0.013523,0.002678,0.000431,0.000940
16446000,0.0324,0.013523,0.002678,0.000431,0.001410
16447000,0.0324,0.013523,0.002678,0.000431,0.000823
16448000,0.0324,0.013523,0.002678,0.000431,0.001058
16449000,0.0324,0.013523,0.002678,0.000431,0.001175
16450000,0.0324,0.013523,0.002678,0.000431,0.000823
16451000,0.0324,0.013523,0.002678,0.000431,0.001293
16452000,0.0324,0.013523,0.002678,0.000431,0.001293
16453000,0.0324,0.013523,0.002678,0.000431,0.000940
16454000,0.0324,0.013523,0.002678,0.000431,0.001175
16455000,0.0324,0.013523,0.002678,0.000431,0.001058
16456000,0.0324,0.013523,0.002678,0.000431,0.001058
16457000,0.0324,0.013523,0.002678,0.000431,0.001058
16458000,0.0324,0.013523,0.002678,0.000431,0.001058
16459000,0.0324,0.013523,0.002678,0.000431,0.000940
16460000,0.0324,0.013523,0.002678,0.000431,0.001528
16461000,0.0324,0.013523,0.002678,0.000431,0.001175
16462000,0.0324,0.013523,0.002678,0.000431,0.000940
16463000,0.0324,0.013523,0.002678,0.000431,0.001058
16464000,0.0324,0.013523,0.002678,0.000431,0.001293
16465000,0.0324,0.013523,0.002678,0.000431,0.001058
16466000,0.0324,0.013523,0.002678,0.000431,0.001528
16467000,0.0324,0.013523,0.002678,0.000431,0.001175
16468000,0.0324,0.013523,0.002678,0.000431,0.001058
16469000,0.0324,0.013523,0.002678,0.000431,0.000940
16470000,0.0324,0.013523,0.002678,0.000431,0.001528
16471000,0.0324,0.013523,0.002678,0.000431,0.001058
16472000,0.0324,0.013523,0.002678,0.000431,0.001058
16473000,0.0324,0.013523,0.002678,0.000431,0.001410
16474000,0.0324,0.013523,0.002678,0.000431,0.001058
16475000,0.0324,0.013523,0.002678,0.000431,0.001058
16476000,0.0324,0.013523,0.002678,0.000431,0.001410
16477000,0.0324,0.013523,0.002678,0.000431,0.000940
16478000,0.0324,0.013523,0.002678,0.000431,0.001410
16479000,0.0324,0.013523,0.002678,0.000431,0.001410
16480000,0.0324,0.013523,0.002678,0.000431,0.001175
16481000,0.0324,0.013523,0.002678,0.000431,0.001175
16482000,0.0324,0.013523,0.002678,0.000431,0.001645
16483000,0.0324,0.013523,0.002678,0.000431,0.000705
16484000,0.0324,0.013523,0.002678,0.000431,0.001175
16485000,0.0324,0.013523,0.002678,0.000431,0.000823
16486000,0.0324,0.013523,0.002678,0.000431,0.000940
16487000,0.0324,0.013523,0.002678,0.000431,0.001293
16488000,0.0324,0.013523,0.002678,0.000431,0.001410
16489000,0.0324,0.013523,0.002678,0.000431,0.001410
16490000,0.0324,0.013523,0.002678,0.000431,0.001175
16491000,0.0324,0.013523,0.002678,0.000431,0.001410
16492000,0.0324,0.013523,0.002678,0.000431,0.001410
16493000,0.0324,0.013523,0.002678,0.000431,0.001410
16494000,0.0324,0.013523,0.002678,0.000431,0.001058
16495000,0.0324,0.013523,0.002678,0.000431,0.001175
16496000,0.0324,0.013523,0.002678,0.000431,0.001293
16497000,0.0324,0.013523,0.002678,0.000431,0.001410
16498000,0.0324,0.013523,0.002678,0.000431,0.001058
16499000,0.0324,0.013523,0.002678,0.000431,0.000940
16500000,0.0324,0.013523,0.002678,0.000431,0.001058
16501000,0.0324,0.013523,0.002678,0.000431,0.001293
16502000,0.0324,0.013523,0.002678,0.000431,0.001058
16503000,0.0324,0.013523,0.002678,0.000431,0.001175
16504000,0.0324,0.013523,0.002678,0.000431,0.001645
16505000,0.0324,0.013523,0.002678,0.000431,0.000705
16506000,0.0324,0.013523,0.002678,0.000431,0.001410
16507000,0.0324,0.013523,0.002678,0.000431,0.001293
16508000,0.0324,0.013523,0.002678,0.000431,0.000705
16509000,0.0324,0.013523,0.002678,0.000431,0.001058
16510000,0.0324,0.013523,0.002678,0.000431,0.001175
16511000,0.0324,0.013523,0.002678,0.000431,0.000823
16512000,0.0324,0.013523,0.002678,0.000431,0.001058
16513000,0.0324,0.013523,0.002678,0.000431,0.000705
16514000,0.0324,0.013523,0.002678,0.000431,0.001058
16515000,0.0324,0.013523,0.002678,0.000431,0.001058
16516000,0.0324,0.013523,0.002678,0.000431,0.001645
16517000,0.0324,0.013523,0.002678,0.000431,0.000823
16518000,0.0324,0.013523,0.002678,0.000431,0.001058
16519000,0.0324,0.013523,0.002678,0.000431,0.000940
16520000,0.0324,0.013523,0.002678,0.000431,0.001293
16521000,0.0324,0.013523,0.002678,0.000431,0.000823
16522000,0.0324,0.013523,0.002678,0.000431,0.001175
16523000,0.0324,0.013523,0.002678,0.000431,0.000823
16524000,0.0324,0.013523,0.002678,0.000431,0.001058
16525000,0.0324,0.013523,0.002678,0.000431,0.001528
16526000,0.0324,0.013523,0.002678,0.000431,0.000823
16527000,0.0324,0.013523,0.002678,0.000431,0.001410
16528000,0.0324,0.013523,0.002678,0.000431,0.001293
16529000,0.0324,0.013523,0.002678,0.000431,0.000705
16530000,0.0324,0.013523,0.002678,0.000431,0.000940
16531000,0.0324,0.013523,0.002678,0.000431,0.000940
16532000,0.0324,0.013523,0.002678,0.000431,0.001058
16533000,0.0324,0.013523,0.002678,0.000431,0.001410
16534000,0.0324,0.013523,0.002678,0.000431,0.001058
16535000,0.0324,0.013523,0.002678,0.000431,0.000705
16536000,0.0324,0.013523,0.002678,0.000431,0.001528
16537000,0.0324,0.013523,0.002678,0.000431,0.001293
16538000,0.0324,0.013523,0.002678,0.000431,0.000823
16539000,0.0324,0.013523,0.002678,0.000431,0.001175
16540000,0.0324,0.013523,0.002678,0.000431,0.001058
16541000,0.0324,0.013523,0.002678,0.000431,0.000823
16542000,0.0324,0.013523,0.002678,0.000431,0.000940
16543000,0.0324,0.013523,0.002678,0.000431,0.001293
16544000,0.0324,0.013523,0.002678,0.000431,0.001293
16545000,0.0324,0.013523,0.002678,0.000431,0.001058
16546000,0.0324,0.013523,0.002678,0.000431,0.001410
16547000,0.0324,0.013523,0.002678,0.000431,0.000588
16548000,0.0324,0.013523,0.002678,0.000431,0.001645
16549000,0.0324,0.013523,0.002678,0.000431,0.000823
16550000,0.0324,0.013523,0.002678,0.000431,0.001058
16551000,0.0324,0.013523,0.002678,0.000431,0.001410
16552000,0.0324,0.013523,0.002678,0.000431,0.000823
16553000,0.0324,0.013523,0.002678,0.000431,0.001058
16554000,0.0324,0.013523,0.002678,0.000431,0.001293
16555000,0.0324,0.013523,0.002678,0.000431,0.000940
16556000,0.0324,0.013523,0.002678,0.000431,0.000940
16557000,0.0324,0.013523,0.002678,0.000431,0.001058
16558000,0.0324,0.013523,0.002678,0.000431,0.001293
16559000,0.0324,0.013523,0.002678,0.000431,0.001058
16560000,0.0324,0.013523,0.002678,0.000431,0.000940
16561000,0.0324,0.013523,0.002678,0.000431,0.000823
16562000,0.0324,0.013523,0.002678,0.000431,0.000823
16563000,0.0324,0.013523,0.002678,0.000431,0.001175
16564000,0.0324,0.013523,0.002678,0.000431,0.001058
16565000,0.0324,0.013523,0.002678,0.000431,0.001175
16566000,0.0324,0.013523,0.002678,0.000431,0.000823
16567000,0.0324,0.013523,0.002678,0.000431,0.001058
16568000,0.0324,0.013523,0.002678,0.000431,0.001528
16569000,0.0324,0.013523,0.002678,0.000431,0.001645
16570000,0.0324,0.013523,0.002678,0.000431,0.000705
16571000,0.0324,0.013523,0.002678,0.000431,0.001175
16572000,0.0324,0.013523,0.002678,0.000431,0.001528
16573000,0.0324,0.013523,0.002678,0.000431,0.000940
16574000,0.0324,0.013523,0.002678,0.000431,0.001058
16575000,0.0324,0.013523,0.002678,0.000431,0.001528
16576000,0.0324,0.013523,0.002678,0.000431,0.000823
16577000,0.0324,0.013523,0.002678,0.000431,0.001058
16578000,0.0324,0.013523,0.002678,0.000431,0.001175
16579000,0.0324,0.013523,0.002678,0.000431,0.000705
16580000,0.0324,0.013523,0.002678,0.000431,0.001528
16581000,0.0324,0.013523,0.002678,0.000431,0.001410
16582000,0.0324,0.013523,0.002678,0.000431,0.000823
16583000,0.0324,0.013523,0.002678,0.000431,0.001058
16584000,0.0324,0.013523,0.002678,0.000431,0.000705
16585000,0.0324,0.013523,0.002678,0.000431,0.001175
16586000,0.0324,0.013523,0.002678,0.000431,0.001058
16587000,0.0324,0.013523,0.002678,0.000431,0.000705
16588000,0.0324,0.013523,0.002678,0.000431,0.001293
16589000,0.0324,0.013523,0.002678,0.000431,0.000940
16590000,0.0324,0.013523,0.002678,0.000431,0.001293
16591000,0.0324,0.013523,0.002678,0.000431,0.001058
16592000,0.0324,0.013523,0.002678,0.000431,0.001058
16593000,0.0324,0.013523,0.002678,0.000431,0.001058
16594000,0.0324,0.013523,0.002678,0.000431,0.000940
16595000,0.0324,0.013523,0.002678,0.000431,0.001293
16596000,0.0324,0.013523,0.002678,0.000431,0.000940
16597000,0.0324,0.013523,0.002678,0.000431,0.001058
16598000,0.0324,0.013523,0.002678,0.000431,0.001410
16599000,0.0324,0.013523,0.002678,0.000431,0.001058
16600000,0.0324,0.013523,0.002678,0.000431,0.000705
16601000,0.0324,0.013523,0.002678,0.000431,0.001058
16602000,0.0324,0.013523,0.002678,0.000431,0.001293
16603000,0.0324,0.013523,0.002678,0.000431,0.000940
16604000,0.0324,0.013523,0.002678,0.000431,0.000940
16605000,0.0324,0.013523,0.002678,0.000431,0.001293
16606000,0.0324,0.013523,0.002678,0.000431,0.000823
16607000,0.0324,0.013523,0.002678,0.000431,0.001058
16608000,0.0324,0.013523,0.002678,0.000431,0.000940
16609000,0.0324,0.013523,0.002678,0.000431,0.000823
16610000,0.0324,0.013523,0.002678,0.000431,0.001058
16611000,0.0324,0.013523,0.002678,0.000431,0.001410
16612000,0.0324,0.013523,0.002678,0.000431,0.000823
16613000,0.0324,0.013523,0.002678,0.000431,0.001293
16614000,0.0324,0.013523,0.002678,0.000431,0.001410
16615000,0.0324,0.013523,0.002678,0.000431,0.001293
16616000,0.0324,0.013523,0.002678,0.000431,0.001058
16617000,0.0324,0.013523,0.002678,0.000431,0.001410
16618000,0.0324,0.013523,0.002678,0.000431,0.000705
16619000,0.0324,0.013523,0.002678,0.000431,0.001175
16620000,0.0324,0.013523,0.002678,0.000431,0.001175
16621000,0.0324,0.013523,0.002678,0.000431,0.000940
16622000,0.0324,0.013523,0.002678,0.000431,0.001410
16623000,0.0324,0.013523,0.002678,0.000431,0.001175
16624000,0.0324,0.013523,0.002678,0.000431,0.000823
16625000,0.0324,0.013523,0.002678,0.000431,0.001058
16626000,0.0324,0.013523,0.002678,0.000431,0.000940
16627000,0.0324,0.013523,0.002678,0.000431,0.001175
16628000,0.0324,0.013523,0.002678,0.000431,0.000823
16629000,0.0324,0.013523,0.002678,0.000431,0.001058
16630000,0.0324,0.013523,0.002678,0.000431,0.000823
16631000,0.0324,0.013523,0.002678,0.000431,0.001763
16632000,0.0324,0.013523,0.002678,0.000431,0.000823
16633000,0.0324,0.013523,0.002678,0.000431,0.000823
16634000,0.0324,0.013523,0.002678,0.000431,0.001175
16635000,0.0324,0.013523,0.002678,0.000431,0.001293
16636000,0.0324,0.013523,0.002678,0.000431,0.000940
16637000,0.0324,0.013523,0.002678,0.000431,0.001528
16638000,0.0324,0.013523,0.002678,0.000431,0.001293
16639000,0.0324,0.013523,0.002678,0.000431,0.000823
16640000,0.0324,0.013523,0.002678,0.000431,0.001175
16641000,0.0324,0.013523,0.002678,0.000431,0.001410
16642000,0.0324,0.013523,0.002678,0.000431,0.000823
16643000,0.0324,0.013523,0.002678,0.000431,0.001175
16644000,0.0324,0.013523,0.002678,0.000431,0.000940
16645000,0.0324,0.013523,0.002678,0.000431,0.000940
16646000,0.0324,0.013523,0.002678,0.000431,0.001058
16647000,0.0324,0.013523,0.002678,0.000431,0.000940
16648000,0.0324,0.013523,0.002678,0.000431,0.001058
16649000,0.0324,0.013523,0.002678,0.000431,0.001175
16650000,0.0324,0.013523,0.002678,0.000431,0.001293
16651000,0.0324,0.013523,0.002678,0.000431,0.000823
16652000,0.0324,0.013523,0.002678,0.000431,0.000823
16653000,0.0324,0.013523,0.002678,0.000431,0.001410
16654000,0.0324,0.013523,0.002678,0.000431,0.001058
16655000,0.0324,0.013523,0.002678,0.000431,0.000823
16656000,0.0324,0.013523,0.002678,0.000431,0.000940
16657000,0.0324,0.013523,0.002678,0.000431,0.001058
16658000,0.0324,0.013523,0.002678,0.000431,0.000940
16659000,0.0324,0.013523,0.002678,0.000431,0.001293
16660000,0.0324,0.013523,0.002678,0.000431,0.000823
16661000,0.0324,0.013523,0.002678,0.000431,0.001058
16662000,0.0324,0.013523,0.002678,0.000431,0.001058
16663000,0.0324,0.013523,0.002678,0.000431,0.000705
16664000,0.0324,0.013523,0.002678,0.000431,0.001058
16665000,0.0324,0.013523,0.002678,0.000431,0.001058
16666000,0.0324,0.013523,0.002678,0.000431,0.000940
16667000,0.0324,0.013523,0.002678,0.000431,0.001058
16668000,0.0324,0.013523,0.002678,0.000431,0.001528
16669000,0.0324,0.013523,0.002678,0.000431,0.000940
16670000,0.0324,0.013523,0.002678,0.000431,0.000940
16671000,0.0324,0.013523,0.002678,0.000431,0.001058
16672000,0.0324,0.013523,0.002678,0.000431,0.000940
16673000,0.0324,0.013523,0.002678,0.000431,0.000940
16674000,0.0324,0.013523,0.002678,0.000431,0.000823
16675000,0.0324,0.013523,0.002678,0.000431,0.000823
16676000,0.0324,0.013523,0.002678,0.000431,0.001410
16677000,0.0324,0.013523,0.002678,0.000431,0.000823
16678000,0.0324,0.013523,0.002678,0.000431,0.001293
16679000,0.0324,0.013523,0.002678,0.000431,0.001175
16680000,0.0324,0.013523,0.002678,0.000431,0.001293
16681000,0.0324,0.013523,0.002678,0.000431,0.000823
16682000,0.0324,0.013523,0.002678,0.000431,0.001410
16683000,0.0324,0.013523,0.002678,0.000431,0.001058
16684000,0.0324,0.013523,0.002678,0.000431,0.001058
16685000,0.0324,0.013523,0.002678,0.000431,0.001293
16686000,0.0324,0.013523,0.002678,0.000431,0.001293
16687000,0.0324,0.013523,0.002678,0.000431,0.000940
16688000,0.0324,0.013523,0.002678,0.000431,0.001175
16689000,0.0324,0.013523,0.002678,0.000431,0.001058
16690000,0.0324,0.013523,0.002678,0.000431,0.000823
16691000,0.0324,0.013523,0.002678,0.000431,0.001058
16692000,0.0324,0.013523,0.002678,0.000431,0.001293
16693000,0.0324,0.013523,0.002678,0.000431,0.000940
16694000,0.0324,0.013523,0.002678,0.000431,0.001175
16695000,0.0324,0.013523,0.002678,0.000431,0.001293
16696000,0.0324,0.013523,0.002678,0.000431,0.000940
16697000,0.0324,0.013523,0.002678,0.000431,0.001058
16698000,0.0324,0.013523,0.002678,0.000431,0.001293
16699000,0.0324,0.013523,0.002678,0.000431,0.001293
16700000,0.0324,0.013523,0.002678,0.000431,0.000940
16701000,0.0324,0.013523,0.002678,0.000431,0.000940
16702000,0.0324,0.013523,0.002678,0.000431,0.001175
16703000,0.0324,0.013523,0.002678,0.000431,0.001175
16704000,0.0324,0.013523,0.002678,0.000431,0.001058
16705000,0.0324,0.013523,0.002678,0.000431,0.001293
16706000,0.0324,0.013523,0.002678,0.000431,0.001175
16707000,0.0324,0.013523,0.002678,0.000431,0.001293
16708000,0.0324,0.013523,0.002678,0.000431,0.000823
16709000,0.0324,0.013523,0.002678,0.000431,0.001410
16710000,0.0324,0.013523,0.002678,0.000431,0.001293
16711000,0.0324,0.013523,0.002678,0.000431,0.000823
16712000,0.0324,0.013523,0.002678,0.000431,0.001175
16713000,0.0324,0.013523,0.002678,0.000431,0.001293
16714000,0.0324,0.013523,0.002678,0.000431,0.000823
16715000,0.0324,0.013523,0.002678,0.000431,0.000940
16716000,0.0324,0.013523,0.002678,0.000431,0.001175
16717000,0.0324,0.013523,0.002678,0.000431,0.001058
16718000,0.0324,0.013523,0.002678,0.000431,0.001175
16719000,0.0324,0.013523,0.002678,0.000431,0.001293
16720000,0.0324,0.013523,0.002678,0.000431,0.001058
16721000,0.0324,0.013523,0.002678,0.000431,0.001293
16722000,0.0324,0.013523,0.002678,0.000431,0.001175
16723000,0.0324,0.013523,0.002678,0.000431,0.001293
16724000,0.0324,0.013523,0.002678,0.000431,0.000823
16725000,0.0324,0.013523,0.002678,0.000431,0.001175
16726000,0.0324,0.013523,0.002678,0.000431,0.000823
16727000,0.0324,0.013523,0.002678,0.000431,0.000940
16728000,0.0324,0.013523,0.002678,0.000431,0.000823
16729000,0.0324,0.013523,0.002678,0.000431,0.000940
16730000,0.0324,0.013523,0.002678,0.000431,0.001175
16731000,0.0324,0.013523,0.002678,0.000431,0.001293
16732000,0.0324,0.013523,0.002678,0.000431,0.000823
16733000,0.0324,0.013523,0.002678,0.000431,0.001410
16734000,0.0324,0.013523,0.002678,0.000431,0.001293
16735000,0.0324,0.013523,0.002678,0.000431,0.000823
16736000,0.0324,0.013523,0.002678,0.000431,0.001175
16737000,0.0324,0.013523,0.002678,0.000431,0.001410
16738000,0.0324,0.013523,0.002678,0.000431,0.000940
16739000,0.0324,0.013523,0.002678,0.000431,0.000823
16740000,0.0324,0.013523,0.002678,0.000431,0.001175
16741000,0.0324,0.013523,0.002678,0.000431,0.000588
16742000,0.0324,0.013523,0.002678,0.000431,0.001058
16743000,0.0324,0.013523,0.002678,0.000431,0.000940
16744000,0.0324,0.013523,0.002678,0.000431,0.000588
16745000,0.0324,0.013523,0.002678,0.000431,0.001528
16746000,0.0324,0.013523,0.002678,0.000431,0.000823
16747000,0.0324,0.013523,0.002678,0.000431,0.001175
16748000,0.0324,0.013523,0.002678,0.000431,0.001175
16749000,0.0324,0.013523,0.002678,0.000431,0.000823
16750000,0.0324,0.013523,0.002678,0.000431,0.000940
16751000,0.0324,0.013523,0.002678,0.000431,0.001058
16752000,0.0324,0.013523,0.002678,0.000431,0.000823
16753000,0.0324,0.013523,0.002678,0.000431,0.001058
16754000,0.0324,0.013523,0.002678,0.000431,0.000940
16755000,0.0324,0.013523,0.002678,0.000431,0.000940
16756000,0.0324,0.013523,0.002678,0.000431,0.001058
16757000,0.0324,0.013523,0.002678,0.000431,0.001528
16758000,0.0324,0.013523,0.002678,0.000431,0.000940
16759000,0.0324,0.013523,0.002678,0.000431,0.000940
16760000,0.0324,0.013523,0.002678,0.000431,0.001058
16761000,0.0324,0.013523,0.002678,0.000431,0.000940
16762000,0.0324,0.013523,0.002678,0.000431,0.001058
16763000,0.0324,0.013523,0.002678,0.000431,0.001293
16764000,0.0324,0.013523,0.002678,0.000431,0.000940
16765000,0.0324,0.013523,0.002678,0.000431,0.001058
16766000,0.0324,0.013523,0.002678,0.000431,0.001175
16767000,0.0324,0.013523,0.002678,0.000431,0.001175
16768000,0.0324,0.013523,0.002678,0.000431,0.001058
16769000,0.0324,0.013523,0.002678,0.000431,0.001058
16770000,0.0324,0.013523,0.002678,0.000431,0.001058
16771000,0.0324,0.013523,0.002678,0.000431,0.000940
16772000,0.0324,0.013523,0.002678,0.000431,0.001175
16773000,0.0324,0.013523,0.002678,0.000431,0.000823
16774000,0.0324,0.013523,0.002678,0.000431,0.001410
16775000,0.0324,0.013523,0.002678,0.000431,0.001410
16776000,0.0324,0.013523,0.002678,0.000431,0.001058
16777000,0.0324,0.013523,0.002678,0.000431,0.000823
16778000,0.0324,0.013523,0.002678,0.000431,0.001058
16779000,0.0324,0.013523,0.002678,0.000431,0.000823
16780000,0.0324,0.013523,0.002678,0.000431,0.000940
16781000,0.0324,0.013523,0.002678,0.000431,0.001175
16782000,0.0324,0.013523,0.002678,0.000431,0.001058
16783000,0.0324,0.013523,0.002678,0.000431,0.001058
16784000,0.0324,0.013523,0.002678,0.000431,0.001175
16785000,0.0324,0.013523,0.002678,0.000431,0.001058
16786000,0.0324,0.013523,0.002678,0.000431,0.001175
16787000,0.0324,0.013523,0.002678,0.000431,0.000823
16788000,0.0324,0.013523,0.002678,0.000431,0.001175
16789000,0.0324,0.013523,0.002678,0.000431,0.001175
16790000,0.0324,0.013523,0.002678,0.000431,0.001175
16791000,0.0324,0.013523,0.002678,0.000431,0.001058
16792000,0.0324,0.013523,0.002678,0.000431,0.000823
16793000,0.0324,0.013523,0.002678,0.000431,0.001293
16794000,0.0324,0.013523,0.002678,0.000431,0.000823
16795000,0.0324,0.013523,0.002678,0.000431,0.000705
16796000,0.0324,0.013523,0.002678,0.000431,0.001410
16797000,0.0324,0.013523,0.002678,0.000431,0.001058
16798000,0.0324,0.013523,0.002678,0.000431,0.000705
16799000,0.0324,0.013523,0.002678,0.000431,0.000940
16800000,0.0324,0.013523,0.002678,0.000431,0.001293
16801000,0.0324,0.013523,0.002678,0.000431,0.001175
16802000,0.0324,0.013523,0.002678,0.000431,0.001293
16803000,0.0324,0.013523,0.002678,0.000431,0.001058
16804000,0.0324,0.013523,0.002678,0.000431,0.001410
16805000,0.0324,0.013523,0.002678,0.000431,0.001175
16806000,0.0324,0.013523,0.002678,0.000431,0.000823
16807000,0.0324,0.013523,0.002678,0.000431,0.001058
16808000,0.0324,0.013523,0.002678,0.000431,0.001410
16809000,0.0324,0.013523,0.002678,0.000431,0.000940
16810000,0.0324,0.013523,0.002678,0.000431,0.000940
16811000,0.0324,0.013523,0.002678,0.000431,0.000940
16812000,0.0324,0.013523,0.002678,0.000431,0.001058
16813000,0.0324,0.013523,0.002678,0.000431,0.000588
16814000,0.0324,0.013523,0.002678,0.000431,0.001410
16815000,0.0324,0.013523,0.002678,0.000431,0.001058
16816000,0.0324,0.013523,0.002678,0.000431,0.001058
16817000,0.0324,0.013523,0.002678,0.000431,0.001175
16818000,0.0324,0.013523,0.002678,0.000431,0.001058
16819000,0.0324,0.013523,0.002678,0.000431,0.001528
16820000,0.0324,0.013523,0.002678,0.000431,0.000823
16821000,0.0324,0.013523,0.002678,0.000431,0.000705
16822000,0.0324,0.013523,0.002678,0.000431,0.001058
16823000,0.0324,0.013523,0.002678,0.000431,0.001645
16824000,0.0324,0.013523,0.002678,0.000431,0.000940
16825000,0.0324,0.013523,0.002678,0.000431,0.001410
16826000,0.0324,0.013523,0.002678,0.000431,0.001410
16827000,0.0324,0.013523,0.002678,0.000431,0.001058
16828000,0.0324,0.013523,0.002678,0.000431,0.001528
16829000,0.0324,0.013523,0.002678,0.000431,0.001410
16830000,0.0324,0.013523,0.002678,0.000431,0.001175
16831000,0.0324,0.013523,0.002678,0.000431,0.000940
16832000,0.0324,0.013523,0.002678,0.000431,0.000705
16833000,0.0324,0.013523,0.002678,0.000431,0.001175
16834000,0.0324,0.013523,0.002678,0.000431,0.001175
16835000,0.0324,0.013523,0.002678,0.000431,0.001175
16836000,0.0324,0.013523,0.002678,0.000431,0.000940
16837000,0.0324,0.013523,0.002678,0.000431,0.001175
16838000,0.0324,0.013523,0.002678,0.000431,0.001058
16839000,0.0324,0.013523,0.002678,0.000431,0.001058
16840000,0.0324,0.013523,0.002678,0.000431,0.000940
16841000,0.0324,0.013523,0.002678,0.000431,0.001058
16842000,0.0324,0.013523,0.002678,0.000431,0.000823
16843000,0.0324,0.013523,0.002678,0.000431,0.001058
16844000,0.0324,0.013523,0.002678,0.000431,0.001293
16845000,0.0324,0.013523,0.002678,0.000431,0.000940
16846000,0.0324,0.013523,0.002678,0.000431,0.001175
16847000,0.0324,0.013523,0.002678,0.000431,0.001058
16848000,0.0324,0.013523,0.002678,0.000431,0.001058
16849000,0.0324,0.013523,0.002678,0.000431,0.001410
16850000,0.0324,0.013523,0.002678,0.000431,0.001410
16851000,0.0324,0.013523,0.002678,0.000431,0.000940
16852000,0.0324,0.013523,0.002678,0.000431,0.000940
16853000,0.0324,0.013523,0.002678,0.000431,0.001175
16854000,0.0324,0.013523,0.002678,0.000431,0.001410
16855000,0.0324,0.013523,0.002678,0.000431,0.001175
16856000,0.0324,0.013523,0.002678,0.000431,0.001293
16857000,0.0324,0.013523,0.002678,0.000431,0.001293
16858000,0.0324,0.013523,0.002678,0.000431,0.001410
16859000,0.0324,0.013523,0.002678,0.000431,0.000705
16860000,0.0324,0.013523,0.002678,0.000431,0.000940
16861000,0.0324,0.013523,0.002678,0.000431,0.001058
16862000,0.0324,0.013523,0.002678,0.000431,0.000940
16863000,0.0324,0.013523,0.002678,0.000431,0.001058
16864000,0.0324,0.013523,0.002678,0.000431,0.001175
16865000,0.0324,0.013523,0.002678,0.000431,0.001410
16866000,0.0324,0.013523,0.002678,0.000431,0.000940
16867000,0.0324,0.013523,0.002678,0.000431,0.001293
16868000,0.0324,0.013523,0.002678,0.000431,0.000823
16869000,0.0324,0.013523,0.002678,0.000431,0.000940
16870000,0.0324,0.013523,0.002678,0.000431,0.001293
16871000,0.0324,0.013523,0.002678,0.000431,0.000940
16872000,0.0324,0.013523,0.002678,0.000431,0.000705
16873000,0.0324,0.013523,0.002678,0.000431,0.001293
16874000,0.0324,0.013523,0.002678,0.000431,0.001175
16875000,0.0324,0.013523,0.002678,0.000431,0.001410
16876000,0.0324,0.013523,0.002678,0.000431,0.001293
16877000,0.0324,0.013523,0.002678,0.000431,0.001175
16878000,0.0324,0.013523,0.002678,0.000431,0.001293
16879000,0.0324,0.013523,0.002678,0.000431,0.001410
16880000,0.0324,0.013523,0.002678,0.000431,0.001058
16881000,0.0324,0.013523,0.002678,0.000431,0.001293
16882000,0.0324,0.013523,0.002678,0.000431,0.001175
16883000,0.0324,0.013523,0.002678,0.000431,0.001058
16884000,0.0324,0.013523,0.002678,0.000431,0.000940
16885000,0.0324,0.013523,0.002678,0.000431,0.001058
16886000,0.0324,0.013523,0.002678,0.000431,0.001528
16887000,0.0324,0.013523,0.002678,0.000431,0.000940
16888000,0.0324,0.013523,0.002678,0.000431,0.001293
16889000,0.0324,0.013523,0.002678,0.000431,0.001293
16890000,0.0324,0.013523,0.002678,0.000431,0.000940
16891000,0.0324,0.013523,0.002678,0.000431,0.001645
16892000,0.0324,0.013523,0.002678,0.000431,0.000940
16893000,0.0324,0.013523,0.002678,0.000431,0.000940
16894000,0.0324,0.013523,0.002678,0.000431,0.000705
16895000,0.0324,0.013523,0.002678,0.000431,0.001293
16896000,0.0324,0.013523,0.002678,0.000431,0.000940
16897000,0.0324,0.013523,0.002678,0.000431,0.001410
16898000,0.0324,0.013523,0.002678,0.000431,0.001058
16899000,0.0324,0.013523,0.002678,0.000431,0.000940
16900000,0.0324,0.013523,0.002678,0.000431,0.001293
16901000,0.0324,0.013523,0.002678,0.000431,0.001410
16902000,0.0324,0.013523,0.002678,0.000431,0.001058
16903000,0.0324,0.013523,0.002678,0.000431,0.001175
16904000,0.0324,0.013523,0.002678,0.000431,0.000823
16905000,0.0324,0.013523,0.002678,0.000431,0.000823
16906000,0.0324,0.013523,0.002678,0.000431,0.001410
16907000,0.0324,0.013523,0.002678,0.000431,0.000940
16908000,0.0324,0.013523,0.002678,0.000431,0.000705
16909000,0.0324,0.013523,0.002678,0.000431,0.001293
16910000,0.0324,0.013523,0.002678,0.000431,0.000940
16911000,0.0324,0.013523,0.002678,0.000431,0.001058
16912000,0.0324,0.013523,0.002678,0.000431,0.001175
16913000,0.0324,0.013523,0.002678,0.000431,0.001293
16914000,0.0324,0.013523,0.002678,0.000431,0.000588
16915000,0.0324,0.013523,0.002678,0.000431,0.001293
16916000,0.0324,0.013523,0.002678,0.000431,0.001058
16917000,0.0324,0.013523,0.002678,0.000431,0.000823
16918000,0.0324,0.013523,0.002678,0.000431,0.001175
16919000,0.0324,0.013523,0.002678,0.000431,0.001058
16920000,0.0324,0.013523,0.002678,0.000431,0.000823
16921000,0.0324,0.013523,0.002678,0.000431,0.000940
16922000,0.0324,0.013523,0.002678,0.000431,0.001293
16923000,0.0324,0.013523,0.002678,0.000431,0.000823
16924000,0.0324,0.013523,0.002678,0.000431,0.001293
16925000,0.0324,0.013523,0.002678,0.000431,0.000823
16926000,0.0324,0.013523,0.002678,0.000431,0.001410
16927000,0.0324,0.013523,0.002678,0.000431,0.001293
16928000,0.0324,0.013523,0.002678,0.000431,0.000940
16929000,0.0324,0.013523,0.002678,0.000431,0.000705
16930000,0.0324,0.013523,0.002678,0.000431,0.001293
16931000,0.0324,0.013523,0.002678,0.000431,0.001175
16932000,0.0324,0.013523,0.002678,0.000431,0.000940
16933000,0.0324,0.013523,0.002678,0.000431,0.001410
16934000,0.0324,0.013523,0.002678,0.000431,0.000823
16935000,0.0324,0.013523,0.002678,0.000431,0.000940
16936000,0.0324,0.013523,0.002678,0.000431,0.001293
16937000,0.0324,0.013523,0.002678,0.000431,0.001058
16938000,0.0324,0.013523,0.002678,0.000431,0.000705
16939000,0.0324,0.013523,0.002678,0.000431,0.001528
16940000,0.0324,0.013523,0.002678,0.000431,0.000940
16941000,0.0324,0.013523,0.002678,0.000431,0.000705
16942000,0.0324,0.013523,0.002678,0.000431,0.000940
16943000,0.0324,0.013523,0.002678,0.000431,0.001058
16944000,0.0324,0.013523,0.002678,0.000431,0.001058
16945000,0.0324,0.013523,0.002678,0.000431,0.001410
16946000,0.0324,0.013523,0.002678,0.000431,0.000940
16947000,0.0324,0.013523,0.002678,0.000431,0.001175
16948000,0.0324,0.013523,0.002678,0.000431,0.001175
16949000,0.0324,0.013523,0.002678,0.000431,0.000940
16950000,0.0324,0.013523,0.002678,0.000431,0.001175
16951000,0.0324,0.013523,0.002678,0.000431,0.001175
16952000,0.0324,0.013523,0.002678,0.000431,0.001058
16953000,0.0324,0.013523,0.002678,0.000431,0.001293
16954000,0.0324,0.013523,0.002678,0.000431,0.001175
16955000,0.0324,0.013523,0.002678,0.000431,0.001293
16956000,0.0324,0.013523,0.002678,0.000431,0.001058
16957000,0.0324,0.013523,0.002678,0.000431,0.001175
16958000,0.0324,0.013523,0.002678,0.000431,0.001293
16959000,0.0324,0.013523,0.002678,0.000431,0.001175
16960000,0.0324,0.013523,0.002678,0.000431,0.000940
16961000,0.0324,0.013523,0.002678,0.000431,0.001058
16962000,0.0324,0.013523,0.002678,0.000431,0.001175
16963000,0.0324,0.013523,0.002678,0.000431,0.001410
16964000,0.0324,0.013523,0.002678,0.000431,0.000823
16965000,0.0324,0.013523,0.002678,0.000431,0.000940
16966000,0.0324,0.013523,0.002678,0.000431,0.001293
16967000,0.0324,0.013523,0.002678,0.000431,0.001410
16968000,0.0324,0.013523,0.002678,0.000431,0.000705
16969000,0.0324,0.013523,0.002678,0.000431,0.001410
16970000,0.0324,0.013523,0.002678,0.000431,0.001058
16971000,0.0324,0.013523,0.002678,0.000431,0.001293
16972000,0.0324,0.013523,0.002678,0.000431,0.001293
16973000,0.0324,0.013523,0.002678,0.000431,0.000705
16974000,0.0324,0.013523,0.002678,0.000431,0.001058
16975000,0.0324,0.013523,0.002678,0.000431,0.001175
16976000,0.0324,0.013523,0.002678,0.000431,0.000940
16977000,0.0324,0.013523,0.002678,0.000431,0.000823
16978000,0.0324,0.013523,0.002678,0.000431,0.001293
16979000,0.0324,0.013523,0.002678,0.000431,0.001058
16980000,0.0324,0.013523,0.002678,0.000431,0.001528
16981000,0.0324,0.013523,0.002678,0.000431,0.001293
16982000,0.0324,0.013523,0.002678,0.000431,0.000588
16983000,0.0324,0.013523,0.002678,0.000431,0.001528
16984000,0.0324,0.013523,0.002678,0.000431,0.001293
16985000,0.0324,0.013523,0.002678,0.000431,0.000823
16986000,0.0324,0.013523,0.002678,0.000431,0.001058
16987000,0.0324,0.013523,0.002678,0.000431,0.001293
16988000,0.0324,0.013523,0.002678,0.000431,0.000940
16989000,0.0324,0.013523,0.002678,0.000431,0.001058
16990000,0.0324,0.013523,0.002678,0.000431,0.001410
16991000,0.0324,0.013523,0.002678,0.000431,0.000940
16992000,0.0324,0.013523,0.002678,0.000431,0.001410
16993000,0.0324,0.013523,0.002678,0.000431,0.001293
16994000,0.0324,0.013523,0.002678,0.000431,0.001058
16995000,0.0324,0.013523,0.002678,0.000431,0.001293
16996000,0.0324,0.013523,0.002678,0.000431,0.000940
16997000,0.0324,0.013523,0.002678,0.000431,0.000823
16998000,0.0324,0.013523,0.002678,0.000431,0.001175
16999000,0.0324,0.013523,0.002678,0.000431,0.001293
