Cycle,Area(mm^2),PeakDynamic(W),SubthresholdLeakage(W),GateLeakage(W),RunTimeDynamic(W)
17000000,0.0324,0.013523,0.002678,0.000431,0.000705
17001000,0.0324,0.013523,0.002678,0.000431,0.001175
17002000,0.0324,0.013523,0.002678,0.000431,0.001645
17003000,0.0324,0.013523,0.002678,0.000431,0.001058
17004000,0.0324,0.013523,0.002678,0.000431,0.001058
17005000,0.0324,0.013523,0.002678,0.000431,0.001058
17006000,0.0324,0.013523,0.002678,0.000431,0.000823
17007000,0.0324,0.013523,0.002678,0.000431,0.001058
17008000,0.0324,0.013523,0.002678,0.000431,0.001293
17009000,0.0324,0.013523,0.002678,0.000431,0.000705
17010000,0.0324,0.013523,0.002678,0.000431,0.001293
17011000,0.0324,0.013523,0.002678,0.000431,0.000940
17012000,0.0324,0.013523,0.002678,0.000431,0.000823
17013000,0.0324,0.013523,0.002678,0.000431,0.001175
17014000,0.0324,0.013523,0.002678,0.000431,0.001528
17015000,0.0324,0.013523,0.002678,0.000431,0.001293
17016000,0.0324,0.013523,0.002678,0.000431,0.001293
17017000,0.0324,0.013523,0.002678,0.000431,0.001058
17018000,0.0324,0.013523,0.002678,0.000431,0.001058
17019000,0.0324,0.013523,0.002678,0.000431,0.000705
17020000,0.0324,0.013523,0.002678,0.000431,0.001175
17021000,0.0324,0.013523,0.002678,0.000431,0.001058
17022000,0.0324,0.013523,0.002678,0.000431,0.000940
17023000,0.0324,0.013523,0.002678,0.000431,0.001528
17024000,0.0324,0.013523,0.002678,0.000431,0.000940
17025000,0.0324,0.013523,0.002678,0.000431,0.001058
17026000,0.0324,0.013523,0.002678,0.000431,0.000823
17027000,0.0324,0.013523,0.002678,0.000431,0.001175
17028000,0.0324,0.013523,0.002678,0.000431,0.001175
17029000,0.0324,0.013523,0.002678,0.000431,0.000823
17030000,0.0324,0.013523,0.002678,0.000431,0.000705
17031000,0.0324,0.013523,0.002678,0.000431,0.001293
17032000,0.0324,0.013523,0.002678,0.000431,0.001175
17033000,0.0324,0.013523,0.002678,0.000431,0.001293
17034000,0.0324,0.013523,0.002678,0.000431,0.000705
17035000,0.0324,0.013523,0.002678,0.000431,0.001293
17036000,0.0324,0.013523,0.002678,0.000431,0.001293
17037000,0.0324,0.013523,0.002678,0.000431,0.000940
17038000,0.0324,0.013523,0.002678,0.000431,0.000823
17039000,0.0324,0.013523,0.002678,0.000431,0.001058
17040000,0.0324,0.013523,0.002678,0.000431,0.001058
17041000,0.0324,0.013523,0.002678,0.000431,0.001410
17042000,0.0324,0.013523,0.002678,0.000431,0.001175
17043000,0.0324,0.013523,0.002678,0.000431,0.001058
17044000,0.0324,0.013523,0.002678,0.000431,0.000705
17045000,0.0324,0.013523,0.002678,0.000431,0.000940
17046000,0.0324,0.013523,0.002678,0.000431,0.000823
17047000,0.0324,0.013523,0.002678,0.000431,0.001175
17048000,0.0324,0.013523,0.002678,0.000431,0.001058
17049000,0.0324,0.013523,0.002678,0.000431,0.000940
17050000,0.0324,0.013523,0.002678,0.000431,0.001293
17051000,0.0324,0.013523,0.002678,0.000431,0.000823
17052000,0.0324,0.013523,0.002678,0.000431,0.001058
17053000,0.0324,0.013523,0.002678,0.000431,0.001175
17054000,0.0324,0.013523,0.002678,0.000431,0.001175
17055000,0.0324,0.013523,0.002678,0.000431,0.000940
17056000,0.0324,0.013523,0.002678,0.000431,0.001058
17057000,0.0324,0.013523,0.002678,0.000431,0.000823
17058000,0.0324,0.013523,0.002678,0.000431,0.000940
17059000,0.0324,0.013523,0.002678,0.000431,0.000940
17060000,0.0324,0.013523,0.002678,0.000431,0.001058
17061000,0.0324,0.013523,0.002678,0.000431,0.001175
17062000,0.0324,0.013523,0.002678,0.000431,0.000940
17063000,0.0324,0.013523,0.002678,0.000431,0.000705
17064000,0.0324,0.013523,0.002678,0.000431,0.001058
17065000,0.0324,0.013523,0.002678,0.000431,0.001528
17066000,0.0324,0.013523,0.002678,0.000431,0.000940
17067000,0.0324,0.013523,0.002678,0.000431,0.000940
17068000,0.0324,0.013523,0.002678,0.000431,0.000823
17069000,0.0324,0.013523,0.002678,0.000431,0.001410
17070000,0.0324,0.013523,0.002678,0.000431,0.000940
17071000,0.0324,0.013523,0.002678,0.000431,0.001410
17072000,0.0324,0.013523,0.002678,0.000431,0.001058
17073000,0.0324,0.013523,0.002678,0.000431,0.001058
17074000,0.0324,0.013523,0.002678,0.000431,0.001410
17075000,0.0324,0.013523,0.002678,0.000431,0.000940
17076000,0.0324,0.013523,0.002678,0.000431,0.000940
17077000,0.0324,0.013523,0.002678,0.000431,0.001175
17078000,0.0324,0.013523,0.002678,0.000431,0.000940
17079000,0.0324,0.013523,0.002678,0.000431,0.001175
17080000,0.0324,0.013523,0.002678,0.000431,0.001175
17081000,0.0324,0.013523,0.002678,0.000431,0.000823
17082000,0.0324,0.013523,0.002678,0.000431,0.001058
17083000,0.0324,0.013523,0.002678,0.000431,0.001410
17084000,0.0324,0.013523,0.002678,0.000431,0.000823
17085000,0.0324,0.013523,0.002678,0.000431,0.000823
17086000,0.0324,0.013523,0.002678,0.000431,0.001645
17087000,0.0324,0.013523,0.002678,0.000431,0.000823
17088000,0.0324,0.013523,0.002678,0.000431,0.001058
17089000,0.0324,0.013523,0.002678,0.000431,0.001410
17090000,0.0324,0.013523,0.002678,0.000431,0.000823
17091000,0.0324,0.013523,0.002678,0.000431,0.001058
17092000,0.0324,0.013523,0.002678,0.000431,0.001410
17093000,0.0324,0.013523,0.002678,0.000431,0.001293
17094000,0.0324,0.013523,0.002678,0.000431,0.000823
17095000,0.0324,0.013523,0.002678,0.000431,0.000823
17096000,0.0324,0.013523,0.002678,0.000431,0.000823
17097000,0.0324,0.013523,0.002678,0.000431,0.001293
17098000,0.0324,0.013523,0.002678,0.000431,0.001058
17099000,0.0324,0.013523,0.002678,0.000431,0.000940
17100000,0.0324,0.013523,0.002678,0.000431,0.001410
17101000,0.0324,0.013523,0.002678,0.000431,0.001293
17102000,0.0324,0.013523,0.002678,0.000431,0.000940
17103000,0.0324,0.013523,0.002678,0.000431,0.000823
17104000,0.0324,0.013523,0.002678,0.000431,0.001528
17105000,0.0324,0.013523,0.002678,0.000431,0.000940
17106000,0.0324,0.013523,0.002678,0.000431,0.001058
17107000,0.0324,0.013523,0.002678,0.000431,0.001175
17108000,0.0324,0.013523,0.002678,0.000431,0.000823
17109000,0.0324,0.013523,0.002678,0.000431,0.001293
17110000,0.0324,0.013523,0.002678,0.000431,0.001175
17111000,0.0324,0.013523,0.002678,0.000431,0.001058
17112000,0.0324,0.013523,0.002678,0.000431,0.001293
17113000,0.0324,0.013523,0.002678,0.000431,0.001175
17114000,0.0324,0.013523,0.002678,0.000431,0.001293
17115000,0.0324,0.013523,0.002678,0.000431,0.000940
17116000,0.0324,0.013523,0.002678,0.000431,0.001293
17117000,0.0324,0.013523,0.002678,0.000431,0.001058
17118000,0.0324,0.013523,0.002678,0.000431,0.000823
17119000,0.0324,0.013523,0.002678,0.000431,0.001058
17120000,0.0324,0.013523,0.002678,0.000431,0.001058
17121000,0.0324,0.013523,0.002678,0.000431,0.001410
17122000,0.0324,0.013523,0.002678,0.000431,0.001410
17123000,0.0324,0.013523,0.002678,0.000431,0.001175
17124000,0.0324,0.013523,0.002678,0.000431,0.001175
17125000,0.0324,0.013523,0.002678,0.000431,0.001410
17126000,0.0324,0.013523,0.002678,0.000431,0.001175
17127000,0.0324,0.013523,0.002678,0.000431,0.000823
17128000,0.0324,0.013523,0.002678,0.000431,0.001293
17129000,0.0324,0.013523,0.002678,0.000431,0.001058
17130000,0.0324,0.013523,0.002678,0.000431,0.000823
17131000,0.0324,0.013523,0.002678,0.000431,0.000940
17132000,0.0324,0.013523,0.002678,0.000431,0.001175
17133000,0.0324,0.013523,0.002678,0.000431,0.000940
17134000,0.0324,0.013523,0.002678,0.000431,0.001058
17135000,0.0324,0.013523,0.002678,0.000431,0.000823
17136000,0.0324,0.013523,0.002678,0.000431,0.001175
17137000,0.0324,0.013523,0.002678,0.000431,0.001175
17138000,0.0324,0.013523,0.002678,0.000431,0.000588
17139000,0.0324,0.013523,0.002678,0.000431,0.001058
17140000,0.0324,0.013523,0.002678,0.000431,0.001410
17141000,0.0324,0.013523,0.002678,0.000431,0.000823
17142000,0.0324,0.013523,0.002678,0.000431,0.001293
17143000,0.0324,0.013523,0.002678,0.000431,0.001410
17144000,0.0324,0.013523,0.002678,0.000431,0.001058
17145000,0.0324,0.013523,0.002678,0.000431,0.001175
17146000,0.0324,0.013523,0.002678,0.000431,0.001175
17147000,0.0324,0.013523,0.002678,0.000431,0.001058
17148000,0.0324,0.013523,0.002678,0.000431,0.001175
17149000,0.0324,0.013523,0.002678,0.000431,0.001175
17150000,0.0324,0.013523,0.002678,0.000431,0.000588
17151000,0.0324,0.013523,0.002678,0.000431,0.001293
17152000,0.0324,0.013523,0.002678,0.000431,0.001058
17153000,0.0324,0.013523,0.002678,0.000431,0.000823
17154000,0.0324,0.013523,0.002678,0.000431,0.001293
17155000,0.0324,0.013523,0.002678,0.000431,0.001293
17156000,0.0324,0.013523,0.002678,0.000431,0.000940
17157000,0.0324,0.013523,0.002678,0.000431,0.001410
17158000,0.0324,0.013523,0.002678,0.000431,0.001293
17159000,0.0324,0.013523,0.002678,0.000431,0.000705
17160000,0.0324,0.013523,0.002678,0.000431,0.001293
17161000,0.0324,0.013523,0.002678,0.000431,0.001293
17162000,0.0324,0.013523,0.002678,0.000431,0.001058
17163000,0.0324,0.013523,0.002678,0.000431,0.001410
17164000,0.0324,0.013523,0.002678,0.000431,0.001293
17165000,0.0324,0.013523,0.002678,0.000431,0.000823
17166000,0.0324,0.013523,0.002678,0.000431,0.001293
17167000,0.0324,0.013523,0.002678,0.000431,0.000940
17168000,0.0324,0.013523,0.002678,0.000431,0.001058
17169000,0.0324,0.013523,0.002678,0.000431,0.001058
17170000,0.0324,0.013523,0.002678,0.000431,0.000588
17171000,0.0324,0.013523,0.002678,0.000431,0.000940
17172000,0.0324,0.013523,0.002678,0.000431,0.001058
17173000,0.0324,0.013523,0.002678,0.000431,0.001175
17174000,0.0324,0.013523,0.002678,0.000431,0.001293
17175000,0.0324,0.013523,0.002678,0.000431,0.001410
17176000,0.0324,0.013523,0.002678,0.000431,0.000823
17177000,0.0324,0.013523,0.002678,0.000431,0.001058
17178000,0.0324,0.013523,0.002678,0.000431,0.000705
17179000,0.0324,0.013523,0.002678,0.000431,0.001293
17180000,0.0324,0.013523,0.002678,0.000431,0.001058
17181000,0.0324,0.013523,0.002678,0.000431,0.001293
17182000,0.0324,0.013523,0.002678,0.000431,0.000940
17183000,0.0324,0.013523,0.002678,0.000431,0.000823
17184000,0.0324,0.013523,0.002678,0.000431,0.001293
17185000,0.0324,0.013523,0.002678,0.000431,0.001175
17186000,0.0324,0.013523,0.002678,0.000431,0.001058
17187000,0.0324,0.013523,0.002678,0.000431,0.001410
17188000,0.0324,0.013523,0.002678,0.000431,0.001293
17189000,0.0324,0.013523,0.002678,0.000431,0.000940
17190000,0.0324,0.013523,0.002678,0.000431,0.001058
17191000,0.0324,0.013523,0.002678,0.000431,0.001293
17192000,0.0324,0.013523,0.002678,0.000431,0.000940
17193000,0.0324,0.013523,0.002678,0.000431,0.001058
17194000,0.0324,0.013523,0.002678,0.000431,0.001058
17195000,0.0324,0.013523,0.002678,0.000431,0.000940
17196000,0.0324,0.013523,0.002678,0.000431,0.000705
17197000,0.0324,0.013523,0.002678,0.000431,0.001410
17198000,0.0324,0.013523,0.002678,0.000431,0.000705
17199000,0.0324,0.013523,0.002678,0.000431,0.000940
17200000,0.0324,0.013523,0.002678,0.000431,0.000940
17201000,0.0324,0.013523,0.002678,0.000431,0.000940
17202000,0.0324,0.013523,0.002678,0.000431,0.001058
17203000,0.0324,0.013523,0.002678,0.000431,0.001058
17204000,0.0324,0.013523,0.002678,0.000431,0.000940
17205000,0.0324,0.013523,0.002678,0.000431,0.001293
17206000,0.0324,0.013523,0.002678,0.000431,0.001293
17207000,0.0324,0.013523,0.002678,0.000431,0.000823
17208000,0.0324,0.013523,0.002678,0.000431,0.001175
17209000,0.0324,0.013523,0.002678,0.000431,0.000823
17210000,0.0324,0.013523,0.002678,0.000431,0.000705
17211000,0.0324,0.013523,0.002678,0.000431,0.001058
17212000,0.0324,0.013523,0.002678,0.000431,0.001293
17213000,0.0324,0.013523,0.002678,0.000431,0.000823
17214000,0.0324,0.013523,0.002678,0.000431,0.001175
17215000,0.0324,0.013523,0.002678,0.000431,0.001293
17216000,0.0324,0.013523,0.002678,0.000431,0.000823
17217000,0.0324,0.013523,0.002678,0.000431,0.001175
17218000,0.0324,0.013523,0.002678,0.000431,0.000940
17219000,0.0324,0.013523,0.002678,0.000431,0.001058
17220000,0.0324,0.013523,0.002678,0.000431,0.001293
17221000,0.0324,0.013523,0.002678,0.000431,0.001175
17222000,0.0324,0.013523,0.002678,0.000431,0.001175
17223000,0.0324,0.013523,0.002678,0.000431,0.001645
17224000,0.0324,0.013523,0.002678,0.000431,0.000823
17225000,0.0324,0.013523,0.002678,0.000431,0.001058
17226000,0.0324,0.013523,0.002678,0.000431,0.001175
17227000,0.0324,0.013523,0.002678,0.000431,0.001058
17228000,0.0324,0.013523,0.002678,0.000431,0.000823
17229000,0.0324,0.013523,0.002678,0.000431,0.001058
17230000,0.0324,0.013523,0.002678,0.000431,0.000940
17231000,0.0324,0.013523,0.002678,0.000431,0.001058
17232000,0.0324,0.013523,0.002678,0.000431,0.001175
17233000,0.0324,0.013523,0.002678,0.000431,0.001058
17234000,0.0324,0.013523,0.002678,0.000431,0.001293
17235000,0.0324,0.013523,0.002678,0.000431,0.000705
17236000,0.0324,0.013523,0.002678,0.000431,0.001293
17237000,0.0324,0.013523,0.002678,0.000431,0.001058
17238000,0.0324,0.013523,0.002678,0.000431,0.000940
17239000,0.0324,0.013523,0.002678,0.000431,0.001058
17240000,0.0324,0.013523,0.002678,0.000431,0.001293
17241000,0.0324,0.013523,0.002678,0.000431,0.001410
17242000,0.0324,0.013523,0.002678,0.000431,0.001058
17243000,0.0324,0.013523,0.002678,0.000431,0.001058
17244000,0.0324,0.013523,0.002678,0.000431,0.001058
17245000,0.0324,0.013523,0.002678,0.000431,0.001058
17246000,0.0324,0.013523,0.002678,0.000431,0.001058
17247000,0.0324,0.013523,0.002678,0.000431,0.001410
17248000,0.0324,0.013523,0.002678,0.000431,0.000940
17249000,0.0324,0.013523,0.002678,0.000431,0.001175
17250000,0.0324,0.013523,0.002678,0.000431,0.001175
17251000,0.0324,0.013523,0.002678,0.000431,0.000823
17252000,0.0324,0.013523,0.002678,0.000431,0.001645
17253000,0.0324,0.013523,0.002678,0.000431,0.001058
17254000,0.0324,0.013523,0.002678,0.000431,0.000823
17255000,0.0324,0.013523,0.002678,0.000431,0.001175
17256000,0.0324,0.013523,0.002678,0.000431,0.001058
17257000,0.0324,0.013523,0.002678,0.000431,0.000940
17258000,0.0324,0.013523,0.002678,0.000431,0.001058
17259000,0.0324,0.013523,0.002678,0.000431,0.001528
17260000,0.0324,0.013523,0.002678,0.000431,0.000940
17261000,0.0324,0.013523,0.002678,0.000431,0.000940
17262000,0.0324,0.013523,0.002678,0.000431,0.001175
17263000,0.0324,0.013523,0.002678,0.000431,0.001058
17264000,0.0324,0.013523,0.002678,0.000431,0.001175
17265000,0.0324,0.013523,0.002678,0.000431,0.001293
17266000,0.0324,0.013523,0.002678,0.000431,0.000823
17267000,0.0324,0.013523,0.002678,0.000431,0.001410
17268000,0.0324,0.013523,0.002678,0.000431,0.001293
17269000,0.0324,0.013523,0.002678,0.000431,0.000705
17270000,0.0324,0.013523,0.002678,0.000431,0.001293
17271000,0.0324,0.013523,0.002678,0.000431,0.001058
17272000,0.0324,0.013523,0.002678,0.000431,0.000823
17273000,0.0324,0.013523,0.002678,0.000431,0.001410
17274000,0.0324,0.013523,0.002678,0.000431,0.001058
17275000,0.0324,0.013523,0.002678,0.000431,0.000940
17276000,0.0324,0.013523,0.002678,0.000431,0.001058
17277000,0.0324,0.013523,0.002678,0.000431,0.001645
17278000,0.0324,0.013523,0.002678,0.000431,0.000940
17279000,0.0324,0.013523,0.002678,0.000431,0.000940
17280000,0.0324,0.013523,0.002678,0.000431,0.000940
17281000,0.0324,0.013523,0.002678,0.000431,0.001175
17282000,0.0324,0.013523,0.002678,0.000431,0.001175
17283000,0.0324,0.013523,0.002678,0.000431,0.001058
17284000,0.0324,0.013523,0.002678,0.000431,0.001293
17285000,0.0324,0.013523,0.002678,0.000431,0.001175
17286000,0.0324,0.013523,0.002678,0.000431,0.001058
17287000,0.0324,0.013523,0.002678,0.000431,0.001058
17288000,0.0324,0.013523,0.002678,0.000431,0.000823
17289000,0.0324,0.013523,0.002678,0.000431,0.000940
17290000,0.0324,0.013523,0.002678,0.000431,0.001293
17291000,0.0324,0.013523,0.002678,0.000431,0.001175
17292000,0.0324,0.013523,0.002678,0.000431,0.001058
17293000,0.0324,0.013523,0.002678,0.000431,0.000823
17294000,0.0324,0.013523,0.002678,0.000431,0.001410
17295000,0.0324,0.013523,0.002678,0.000431,0.001058
17296000,0.0324,0.013523,0.002678,0.000431,0.000705
17297000,0.0324,0.013523,0.002678,0.000431,0.001058
17298000,0.0324,0.013523,0.002678,0.000431,0.001528
17299000,0.0324,0.013523,0.002678,0.000431,0.001058
17300000,0.0324,0.013523,0.002678,0.000431,0.001175
17301000,0.0324,0.013523,0.002678,0.000431,0.000823
17302000,0.0324,0.013523,0.002678,0.000431,0.000705
17303000,0.0324,0.013523,0.002678,0.000431,0.001293
17304000,0.0324,0.013523,0.002678,0.000431,0.001058
17305000,0.0324,0.013523,0.002678,0.000431,0.000823
17306000,0.0324,0.013523,0.002678,0.000431,0.000940
17307000,0.0324,0.013523,0.002678,0.000431,0.001175
17308000,0.0324,0.013523,0.002678,0.000431,0.000940
17309000,0.0324,0.013523,0.002678,0.000431,0.000940
17310000,0.0324,0.013523,0.002678,0.000431,0.001058
17311000,0.0324,0.013523,0.002678,0.000431,0.001175
17312000,0.0324,0.013523,0.002678,0.000431,0.001175
17313000,0.0324,0.013523,0.002678,0.000431,0.000940
17314000,0.0324,0.013523,0.002678,0.000431,0.001058
17315000,0.0324,0.013523,0.002678,0.000431,0.001175
17316000,0.0324,0.013523,0.002678,0.000431,0.001058
17317000,0.0324,0.013523,0.002678,0.000431,0.001293
17318000,0.0324,0.013523,0.002678,0.000431,0.001175
17319000,0.0324,0.013523,0.002678,0.000431,0.001293
17320000,0.0324,0.013523,0.002678,0.000431,0.001175
17321000,0.0324,0.013523,0.002678,0.000431,0.001058
17322000,0.0324,0.013523,0.002678,0.000431,0.001175
17323000,0.0324,0.013523,0.002678,0.000431,0.001175
17324000,0.0324,0.013523,0.002678,0.000431,0.001645
17325000,0.0324,0.013523,0.002678,0.000431,0.000940
17326000,0.0324,0.013523,0.002678,0.000431,0.001175
17327000,0.0324,0.013523,0.002678,0.000431,0.001410
17328000,0.0324,0.013523,0.002678,0.000431,0.001175
17329000,0.0324,0.013523,0.002678,0.000431,0.000940
17330000,0.0324,0.013523,0.002678,0.000431,0.001410
17331000,0.0324,0.013523,0.002678,0.000431,0.001058
17332000,0.0324,0.013523,0.002678,0.000431,0.001058
17333000,0.0324,0.013523,0.002678,0.000431,0.001175
17334000,0.0324,0.013523,0.002678,0.000431,0.001175
17335000,0.0324,0.013523,0.002678,0.000431,0.001175
17336000,0.0324,0.013523,0.002678,0.000431,0.001410
17337000,0.0324,0.013523,0.002678,0.000431,0.000705
17338000,0.0324,0.013523,0.002678,0.000431,0.001175
17339000,0.0324,0.013523,0.002678,0.000431,0.001058
17340000,0.0324,0.013523,0.002678,0.000431,0.000823
17341000,0.0324,0.013523,0.002678,0.000431,0.001058
17342000,0.0324,0.013523,0.002678,0.000431,0.001293
17343000,0.0324,0.013523,0.002678,0.000431,0.001175
17344000,0.0324,0.013523,0.002678,0.000431,0.000940
17345000,0.0324,0.013523,0.002678,0.000431,0.001645
17346000,0.0324,0.013523,0.002678,0.000431,0.001058
17347000,0.0324,0.013523,0.002678,0.000431,0.001058
17348000,0.0324,0.013523,0.002678,0.000431,0.001175
17349000,0.0324,0.013523,0.002678,0.000431,0.001175
17350000,0.0324,0.013523,0.002678,0.000431,0.000940
17351000,0.0324,0.013523,0.002678,0.000431,0.001058
17352000,0.0324,0.013523,0.002678,0.000431,0.001058
17353000,0.0324,0.013523,0.002678,0.000431,0.001175
17354000,0.0324,0.013523,0.002678,0.000431,0.000940
17355000,0.0324,0.013523,0.002678,0.000431,0.001175
17356000,0.0324,0.013523,0.002678,0.000431,0.001175
17357000,0.0324,0.013523,0.002678,0.000431,0.001410
17358000,0.0324,0.013523,0.002678,0.000431,0.001175
17359000,0.0324,0.013523,0.002678,0.000431,0.001175
17360000,0.0324,0.013523,0.002678,0.000431,0.001410
17361000,0.0324,0.013523,0.002678,0.000431,0.001058
17362000,0.0324,0.013523,0.002678,0.000431,0.001293
17363000,0.0324,0.013523,0.002678,0.000431,0.001528
17364000,0.0324,0.013523,0.002678,0.000431,0.000705
17365000,0.0324,0.013523,0.002678,0.000431,0.001058
17366000,0.0324,0.013523,0.002678,0.000431,0.000940
17367000,0.0324,0.013523,0.002678,0.000431,0.001528
17368000,0.0324,0.013523,0.002678,0.000431,0.000940
17369000,0.0324,0.013523,0.002678,0.000431,0.001058
17370000,0.0324,0.013523,0.002678,0.000431,0.001293
17371000,0.0324,0.013523,0.002678,0.000431,0.001058
17372000,0.0324,0.013523,0.002678,0.000431,0.001175
17373000,0.0324,0.013523,0.002678,0.000431,0.001293
17374000,0.0324,0.013523,0.002678,0.000431,0.000940
17375000,0.0324,0.013523,0.002678,0.000431,0.001528
17376000,0.0324,0.013523,0.002678,0.000431,0.001058
17377000,0.0324,0.013523,0.002678,0.000431,0.000705
17378000,0.0324,0.013523,0.002678,0.000431,0.000940
17379000,0.0324,0.013523,0.002678,0.000431,0.001058
17380000,0.0324,0.013523,0.002678,0.000431,0.000705
17381000,0.0324,0.013523,0.002678,0.000431,0.001058
17382000,0.0324,0.013523,0.002678,0.000431,0.001293
17383000,0.0324,0.013523,0.002678,0.000431,0.001058
17384000,0.0324,0.013523,0.002678,0.000431,0.001528
17385000,0.0324,0.013523,0.002678,0.000431,0.001410
17386000,0.0324,0.013523,0.002678,0.000431,0.000823
17387000,0.0324,0.013523,0.002678,0.000431,0.001058
17388000,0.0324,0.013523,0.002678,0.000431,0.001410
17389000,0.0324,0.013523,0.002678,0.000431,0.001058
17390000,0.0324,0.013523,0.002678,0.000431,0.000940
17391000,0.0324,0.013523,0.002678,0.000431,0.001058
17392000,0.0324,0.013523,0.002678,0.000431,0.001293
17393000,0.0324,0.013523,0.002678,0.000431,0.000823
17394000,0.0324,0.013523,0.002678,0.000431,0.001410
17395000,0.0324,0.013523,0.002678,0.000431,0.001058
17396000,0.0324,0.013523,0.002678,0.000431,0.001058
17397000,0.0324,0.013523,0.002678,0.000431,0.001645
17398000,0.0324,0.013523,0.002678,0.000431,0.001058
17399000,0.0324,0.013523,0.002678,0.000431,0.000940
17400000,0.0324,0.013523,0.002678,0.000431,0.001175
17401000,0.0324,0.013523,0.002678,0.000431,0.000823
17402000,0.0324,0.013523,0.002678,0.000431,0.000940
17403000,0.0324,0.013523,0.002678,0.000431,0.001175
17404000,0.0324,0.013523,0.002678,0.000431,0.001058
17405000,0.0324,0.013523,0.002678,0.000431,0.000823
17406000,0.0324,0.013523,0.002678,0.000431,0.001410
17407000,0.0324,0.013523,0.002678,0.000431,0.001058
17408000,0.0324,0.013523,0.002678,0.000431,0.001058
17409000,0.0324,0.013523,0.002678,0.000431,0.001058
17410000,0.0324,0.013523,0.002678,0.000431,0.000823
17411000,0.0324,0.013523,0.002678,0.000431,0.001175
17412000,0.0324,0.013523,0.002678,0.000431,0.001175
17413000,0.0324,0.013523,0.002678,0.000431,0.001058
17414000,0.0324,0.013523,0.002678,0.000431,0.001058
17415000,0.0324,0.013523,0.002678,0.000431,0.001175
17416000,0.0324,0.013523,0.002678,0.000431,0.000940
17417000,0.0324,0.013523,0.002678,0.000431,0.001293
17418000,0.0324,0.013523,0.002678,0.000431,0.000940
17419000,0.0324,0.013523,0.002678,0.000431,0.000705
17420000,0.0324,0.013523,0.002678,0.000431,0.001528
17421000,0.0324,0.013523,0.002678,0.000431,0.001528
17422000,0.0324,0.013523,0.002678,0.000431,0.000940
17423000,0.0324,0.013523,0.002678,0.000431,0.001293
17424000,0.0324,0.013523,0.002678,0.000431,0.001410
17425000,0.0324,0.013523,0.002678,0.000431,0.001058
17426000,0.0324,0.013523,0.002678,0.000431,0.001058
17427000,0.0324,0.013523,0.002678,0.000431,0.001293
17428000,0.0324,0.013523,0.002678,0.000431,0.000705
17429000,0.0324,0.013523,0.002678,0.000431,0.000705
17430000,0.0324,0.013523,0.002678,0.000431,0.001175
17431000,0.0324,0.013523,0.002678,0.000431,0.001058
17432000,0.0324,0.013523,0.002678,0.000431,0.001058
17433000,0.0324,0.013523,0.002678,0.000431,0.001293
17434000,0.0324,0.013523,0.002678,0.000431,0.000823
17435000,0.0324,0.013523,0.002678,0.000431,0.000823
17436000,0.0324,0.013523,0.002678,0.000431,0.000823
17437000,0.0324,0.013523,0.002678,0.000431,0.000823
17438000,0.0324,0.013523,0.002678,0.000431,0.000940
17439000,0.0324,0.013523,0.002678,0.000431,0.001528
17440000,0.0324,0.013523,0.002678,0.000431,0.000940
17441000,0.0324,0.013523,0.002678,0.000431,0.001058
17442000,0.0324,0.013523,0.002678,0.000431,0.001293
17443000,0.0324,0.013523,0.002678,0.000431,0.000940
17444000,0.0324,0.013523,0.002678,0.000431,0.001058
17445000,0.0324,0.013523,0.002678,0.000431,0.001175
17446000,0.0324,0.013523,0.002678,0.000431,0.000940
17447000,0.0324,0.013523,0.002678,0.000431,0.001293
17448000,0.0324,0.013523,0.002678,0.000431,0.001058
17449000,0.0324,0.013523,0.002678,0.000431,0.000940
17450000,0.0324,0.013523,0.002678,0.000431,0.001058
17451000,0.0324,0.013523,0.002678,0.000431,0.001293
17452000,0.0324,0.013523,0.002678,0.000431,0.000940
17453000,0.0324,0.013523,0.002678,0.000431,0.001410
17454000,0.0324,0.013523,0.002678,0.000431,0.000823
17455000,0.0324,0.013523,0.002678,0.000431,0.000823
17456000,0.0324,0.013523,0.002678,0.000431,0.001058
17457000,0.0324,0.013523,0.002678,0.000431,0.001410
17458000,0.0324,0.013523,0.002678,0.000431,0.000823
17459000,0.0324,0.013523,0.002678,0.000431,0.001293
17460000,0.0324,0.013523,0.002678,0.000431,0.000940
17461000,0.0324,0.013523,0.002678,0.000431,0.000823
17462000,0.0324,0.013523,0.002678,0.000431,0.001410
17463000,0.0324,0.013523,0.002678,0.000431,0.001058
17464000,0.0324,0.013523,0.002678,0.000431,0.000705
17465000,0.0324,0.013523,0.002678,0.000431,0.001058
17466000,0.0324,0.013523,0.002678,0.000431,0.001410
17467000,0.0324,0.013523,0.002678,0.000431,0.000940
17468000,0.0324,0.013523,0.002678,0.000431,0.001645
17469000,0.0324,0.013523,0.002678,0.000431,0.001175
17470000,0.0324,0.013523,0.002678,0.000431,0.001058
17471000,0.0324,0.013523,0.002678,0.000431,0.001293
17472000,0.0324,0.013523,0.002678,0.000431,0.001645
17473000,0.0324,0.013523,0.002678,0.000431,0.000823
17474000,0.0324,0.013523,0.002678,0.000431,0.001058
17475000,0.0324,0.013523,0.002678,0.000431,0.001175
17476000,0.0324,0.013523,0.002678,0.000431,0.000823
17477000,0.0324,0.013523,0.002678,0.000431,0.001410
17478000,0.0324,0.013523,0.002678,0.000431,0.001175
17479000,0.0324,0.013523,0.002678,0.000431,0.000705
17480000,0.0324,0.013523,0.002678,0.000431,0.001528
17481000,0.0324,0.013523,0.002678,0.000431,0.001528
17482000,0.0324,0.013523,0.002678,0.000431,0.000940
17483000,0.0324,0.013523,0.002678,0.000431,0.000823
17484000,0.0324,0.013523,0.002678,0.000431,0.001058
17485000,0.0324,0.013523,0.002678,0.000431,0.000823
17486000,0.0324,0.013523,0.002678,0.000431,0.001058
17487000,0.0324,0.013523,0.002678,0.000431,0.001293
17488000,0.0324,0.013523,0.002678,0.000431,0.000940
17489000,0.0324,0.013523,0.002678,0.000431,0.001175
17490000,0.0324,0.013523,0.002678,0.000431,0.001058
17491000,0.0324,0.013523,0.002678,0.000431,0.000705
17492000,0.0324,0.013523,0.002678,0.000431,0.000705
17493000,0.0324,0.013523,0.002678,0.000431,0.000705
17494000,0.0324,0.013523,0.002678,0.000431,0.000823
17495000,0.0324,0.013523,0.002678,0.000431,0.001410
17496000,0.0324,0.013523,0.002678,0.000431,0.000940
17497000,0.0324,0.013523,0.002678,0.000431,0.001175
17498000,0.0324,0.013523,0.002678,0.000431,0.000940
17499000,0.0324,0.013523,0.002678,0.000431,0.001058
17500000,0.0324,0.013523,0.002678,0.000431,0.001058
17501000,0.0324,0.013523,0.002678,0.000431,0.001410
17502000,0.0324,0.013523,0.002678,0.000431,0.000705
17503000,0.0324,0.013523,0.002678,0.000431,0.001175
17504000,0.0324,0.013523,0.002678,0.000431,0.001293
17505000,0.0324,0.013523,0.002678,0.000431,0.000705
17506000,0.0324,0.013523,0.002678,0.000431,0.001058
17507000,0.0324,0.013523,0.002678,0.000431,0.001763
17508000,0.0324,0.013523,0.002678,0.000431,0.001058
17509000,0.0324,0.013523,0.002678,0.000431,0.001058
17510000,0.0324,0.013523,0.002678,0.000431,0.000823
17511000,0.0324,0.013523,0.002678,0.000431,0.000823
17512000,0.0324,0.013523,0.002678,0.000431,0.001410
17513000,0.0324,0.013523,0.002678,0.000431,0.001175
17514000,0.0324,0.013523,0.002678,0.000431,0.000705
17515000,0.0324,0.013523,0.002678,0.000431,0.001058
17516000,0.0324,0.013523,0.002678,0.000431,0.001058
17517000,0.0324,0.013523,0.002678,0.000431,0.000940
17518000,0.0324,0.013523,0.002678,0.000431,0.001058
17519000,0.0324,0.013523,0.002678,0.000431,0.001058
17520000,0.0324,0.013523,0.002678,0.000431,0.000823
17521000,0.0324,0.013523,0.002678,0.000431,0.001175
17522000,0.0324,0.013523,0.002678,0.000431,0.001175
17523000,0.0324,0.013523,0.002678,0.000431,0.000940
17524000,0.0324,0.013523,0.002678,0.000431,0.001293
17525000,0.0324,0.013523,0.002678,0.000431,0.001058
17526000,0.0324,0.013523,0.002678,0.000431,0.001175
17527000,0.0324,0.013523,0.002678,0.000431,0.001058
17528000,0.0324,0.013523,0.002678,0.000431,0.000823
17529000,0.0324,0.013523,0.002678,0.000431,0.001058
17530000,0.0324,0.013523,0.002678,0.000431,0.001528
17531000,0.0324,0.013523,0.002678,0.000431,0.001058
17532000,0.0324,0.013523,0.002678,0.000431,0.001293
17533000,0.0324,0.013523,0.002678,0.000431,0.001175
17534000,0.0324,0.013523,0.002678,0.000431,0.001058
17535000,0.0324,0.013523,0.002678,0.000431,0.001058
17536000,0.0324,0.013523,0.002678,0.000431,0.001175
17537000,0.0324,0.013523,0.002678,0.000431,0.001058
17538000,0.0324,0.013523,0.002678,0.000431,0.001058
17539000,0.0324,0.013523,0.002678,0.000431,0.001058
17540000,0.0324,0.013523,0.002678,0.000431,0.001293
17541000,0.0324,0.013523,0.002678,0.000431,0.000705
17542000,0.0324,0.013523,0.002678,0.000431,0.001058
17543000,0.0324,0.013523,0.002678,0.000431,0.000940
17544000,0.0324,0.013523,0.002678,0.000431,0.000705
17545000,0.0324,0.013523,0.002678,0.000431,0.001293
17546000,0.0324,0.013523,0.002678,0.000431,0.001175
17547000,0.0324,0.013523,0.002678,0.000431,0.001058
17548000,0.0324,0.013523,0.002678,0.000431,0.001175
17549000,0.0324,0.013523,0.002678,0.000431,0.001058
17550000,0.0324,0.013523,0.002678,0.000431,0.000940
17551000,0.0324,0.013523,0.002678,0.000431,0.001410
17552000,0.0324,0.013523,0.002678,0.000431,0.001293
17553000,0.0324,0.013523,0.002678,0.000431,0.000705
17554000,0.0324,0.013523,0.002678,0.000431,0.001175
17555000,0.0324,0.013523,0.002678,0.000431,0.001293
17556000,0.0324,0.013523,0.002678,0.000431,0.000705
17557000,0.0324,0.013523,0.002678,0.000431,0.001410
17558000,0.0324,0.013523,0.002678,0.000431,0.000823
17559000,0.0324,0.013523,0.002678,0.000431,0.000940
17560000,0.0324,0.013523,0.002678,0.000431,0.001058
17561000,0.0324,0.013523,0.002678,0.000431,0.001410
17562000,0.0324,0.013523,0.002678,0.000431,0.000940
17563000,0.0324,0.013523,0.002678,0.000431,0.001410
17564000,0.0324,0.013523,0.002678,0.000431,0.001293
17565000,0.0324,0.013523,0.002678,0.000431,0.000705
17566000,0.0324,0.013523,0.002678,0.000431,0.000940
17567000,0.0324,0.013523,0.002678,0.000431,0.000940
17568000,0.0324,0.013523,0.002678,0.000431,0.001058
17569000,0.0324,0.013523,0.002678,0.000431,0.001058
17570000,0.0324,0.013523,0.002678,0.000431,0.000940
17571000,0.0324,0.013523,0.002678,0.000431,0.000940
17572000,0.0324,0.013523,0.002678,0.000431,0.001293
17573000,0.0324,0.013523,0.002678,0.000431,0.001528
17574000,0.0324,0.013523,0.002678,0.000431,0.000588
17575000,0.0324,0.013523,0.002678,0.000431,0.001175
17576000,0.0324,0.013523,0.002678,0.000431,0.000823
17577000,0.0324,0.013523,0.002678,0.000431,0.001058
17578000,0.0324,0.013523,0.002678,0.000431,0.001175
17579000,0.0324,0.013523,0.002678,0.000431,0.000940
17580000,0.0324,0.013523,0.002678,0.000431,0.001058
17581000,0.0324,0.013523,0.002678,0.000431,0.001058
17582000,0.0324,0.013523,0.002678,0.000431,0.000823
17583000,0.0324,0.013523,0.002678,0.000431,0.001058
17584000,0.0324,0.013523,0.002678,0.000431,0.001175
17585000,0.0324,0.013523,0.002678,0.000431,0.000940
17586000,0.0324,0.013523,0.002678,0.000431,0.001175
17587000,0.0324,0.013523,0.002678,0.000431,0.001293
17588000,0.0324,0.013523,0.002678,0.000431,0.001175
17589000,0.0324,0.013523,0.002678,0.000431,0.001058
17590000,0.0324,0.013523,0.002678,0.000431,0.001293
17591000,0.0324,0.013523,0.002678,0.000431,0.000940
17592000,0.0324,0.013523,0.002678,0.000431,0.000823
17593000,0.0324,0.013523,0.002678,0.000431,0.001175
17594000,0.0324,0.013523,0.002678,0.000431,0.001293
17595000,0.0324,0.013523,0.002678,0.000431,0.000940
17596000,0.0324,0.013523,0.002678,0.000431,0.000823
17597000,0.0324,0.013523,0.002678,0.000431,0.001293
17598000,0.0324,0.013523,0.002678,0.000431,0.000705
17599000,0.0324,0.013523,0.002678,0.000431,0.001175
17600000,0.0324,0.013523,0.002678,0.000431,0.000705
17601000,0.0324,0.013523,0.002678,0.000431,0.000705
17602000,0.0324,0.013523,0.002678,0.000431,0.001293
17603000,0.0324,0.013523,0.002678,0.000431,0.000588
17604000,0.0324,0.013523,0.002678,0.000431,0.001058
17605000,0.0324,0.013523,0.002678,0.000431,0.000823
17606000,0.0324,0.013523,0.002678,0.000431,0.000940
17607000,0.0324,0.013523,0.002678,0.000431,0.001058
17608000,0.0324,0.013523,0.002678,0.000431,0.001410
17609000,0.0324,0.013523,0.002678,0.000431,0.001293
17610000,0.0324,0.013523,0.002678,0.000431,0.000705
17611000,0.0324,0.013523,0.002678,0.000431,0.001058
17612000,0.0324,0.013523,0.002678,0.000431,0.001293
17613000,0.0324,0.013523,0.002678,0.000431,0.000823
17614000,0.0324,0.013523,0.002678,0.000431,0.001175
17615000,0.0324,0.013523,0.002678,0.000431,0.001175
17616000,0.0324,0.013523,0.002678,0.000431,0.001058
17617000,0.0324,0.013523,0.002678,0.000431,0.001058
17618000,0.0324,0.013523,0.002678,0.000431,0.001175
17619000,0.0324,0.013523,0.002678,0.000431,0.001058
17620000,0.0324,0.013523,0.002678,0.000431,0.001293
17621000,0.0324,0.013523,0.002678,0.000431,0.001175
17622000,0.0324,0.013523,0.002678,0.000431,0.001293
17623000,0.0324,0.013523,0.002678,0.000431,0.000940
17624000,0.0324,0.013523,0.002678,0.000431,0.001293
17625000,0.0324,0.013523,0.002678,0.000431,0.000823
17626000,0.0324,0.013523,0.002678,0.000431,0.001175
17627000,0.0324,0.013523,0.002678,0.000431,0.001293
17628000,0.0324,0.013523,0.002678,0.000431,0.000940
17629000,0.0324,0.013523,0.002678,0.000431,0.001293
17630000,0.0324,0.013523,0.002678,0.000431,0.000940
17631000,0.0324,0.013523,0.002678,0.000431,0.000705
17632000,0.0324,0.013523,0.002678,0.000431,0.001528
17633000,0.0324,0.013523,0.002678,0.000431,0.000823
17634000,0.0324,0.013523,0.002678,0.000431,0.000940
17635000,0.0324,0.013523,0.002678,0.000431,0.001293
17636000,0.0324,0.013523,0.002678,0.000431,0.000940
17637000,0.0324,0.013523,0.002678,0.000431,0.001058
17638000,0.0324,0.013523,0.002678,0.000431,0.000940
17639000,0.0324,0.013523,0.002678,0.000431,0.001293
17640000,0.0324,0.013523,0.002678,0.000431,0.000823
17641000,0.0324,0.013523,0.002678,0.000431,0.001293
17642000,0.0324,0.013523,0.002678,0.000431,0.000823
17643000,0.0324,0.013523,0.002678,0.000431,0.000823
17644000,0.0324,0.013523,0.002678,0.000431,0.001410
17645000,0.0324,0.013523,0.002678,0.000431,0.000823
17646000,0.0324,0.013523,0.002678,0.000431,0.001058
17647000,0.0324,0.013523,0.002678,0.000431,0.000940
17648000,0.0324,0.013523,0.002678,0.000431,0.001293
17649000,0.0324,0.013523,0.002678,0.000431,0.000823
17650000,0.0324,0.013523,0.002678,0.000431,0.001410
17651000,0.0324,0.013523,0.002678,0.000431,0.001058
17652000,0.0324,0.013523,0.002678,0.000431,0.001058
17653000,0.0324,0.013523,0.002678,0.000431,0.000705
17654000,0.0324,0.013523,0.002678,0.000431,0.001410
17655000,0.0324,0.013523,0.002678,0.000431,0.001175
17656000,0.0324,0.013523,0.002678,0.000431,0.001410
17657000,0.0324,0.013523,0.002678,0.000431,0.000823
17658000,0.0324,0.013523,0.002678,0.000431,0.001058
17659000,0.0324,0.013523,0.002678,0.000431,0.001175
17660000,0.0324,0.013523,0.002678,0.000431,0.001293
17661000,0.0324,0.013523,0.002678,0.000431,0.000588
17662000,0.0324,0.013523,0.002678,0.000431,0.001293
17663000,0.0324,0.013523,0.002678,0.000431,0.000940
17664000,0.0324,0.013523,0.002678,0.000431,0.001058
17665000,0.0324,0.013523,0.002678,0.000431,0.001175
17666000,0.0324,0.013523,0.002678,0.000431,0.001058
17667000,0.0324,0.013523,0.002678,0.000431,0.001058
17668000,0.0324,0.013523,0.002678,0.000431,0.001645
17669000,0.0324,0.013523,0.002678,0.000431,0.001058
17670000,0.0324,0.013523,0.002678,0.000431,0.001293
17671000,0.0324,0.013523,0.002678,0.000431,0.001175
17672000,0.0324,0.013523,0.002678,0.000431,0.000823
17673000,0.0324,0.013523,0.002678,0.000431,0.001175
17674000,0.0324,0.013523,0.002678,0.000431,0.001058
17675000,0.0324,0.013523,0.002678,0.000431,0.001293
17676000,0.0324,0.013523,0.002678,0.000431,0.000823
17677000,0.0324,0.013523,0.002678,0.000431,0.001175
17678000,0.0324,0.013523,0.002678,0.000431,0.000705
17679000,0.0324,0.013523,0.002678,0.000431,0.001058
17680000,0.0324,0.013523,0.002678,0.000431,0.001175
17681000,0.0324,0.013523,0.002678,0.000431,0.001058
17682000,0.0324,0.013523,0.002678,0.000431,0.001293
17683000,0.0324,0.013523,0.002678,0.000431,0.001175
17684000,0.0324,0.013523,0.002678,0.000431,0.000940
17685000,0.0324,0.013523,0.002678,0.000431,0.001058
17686000,0.0324,0.013523,0.002678,0.000431,0.001058
17687000,0.0324,0.013523,0.002678,0.000431,0.000705
17688000,0.0324,0.013523,0.002678,0.000431,0.001175
17689000,0.0324,0.013523,0.002678,0.000431,0.000705
17690000,0.0324,0.013523,0.002678,0.000431,0.000940
17691000,0.0324,0.013523,0.002678,0.000431,0.001293
17692000,0.0324,0.013523,0.002678,0.000431,0.001058
17693000,0.0324,0.013523,0.002678,0.000431,0.000940
17694000,0.0324,0.013523,0.002678,0.000431,0.001058
17695000,0.0324,0.013523,0.002678,0.000431,0.001293
17696000,0.0324,0.013523,0.002678,0.000431,0.001293
17697000,0.0324,0.013523,0.002678,0.000431,0.001175
17698000,0.0324,0.013523,0.002678,0.000431,0.001058
17699000,0.0324,0.013523,0.002678,0.000431,0.001058
17700000,0.0324,0.013523,0.002678,0.000431,0.001175
17701000,0.0324,0.013523,0.002678,0.000431,0.001293
17702000,0.0324,0.013523,0.002678,0.000431,0.001058
17703000,0.0324,0.013523,0.002678,0.000431,0.001175
17704000,0.0324,0.013523,0.002678,0.000431,0.001058
17705000,0.0324,0.013523,0.002678,0.000431,0.001293
17706000,0.0324,0.013523,0.002678,0.000431,0.001175
17707000,0.0324,0.013523,0.002678,0.000431,0.001293
17708000,0.0324,0.013523,0.002678,0.000431,0.000705
17709000,0.0324,0.013523,0.002678,0.000431,0.001293
17710000,0.0324,0.013523,0.002678,0.000431,0.000823
17711000,0.0324,0.013523,0.002678,0.000431,0.001293
17712000,0.0324,0.013523,0.002678,0.000431,0.001410
17713000,0.0324,0.013523,0.002678,0.000431,0.001293
17714000,0.0324,0.013523,0.002678,0.000431,0.001293
17715000,0.0324,0.013523,0.002678,0.000431,0.000940
17716000,0.0324,0.013523,0.002678,0.000431,0.000823
17717000,0.0324,0.013523,0.002678,0.000431,0.001058
17718000,0.0324,0.013523,0.002678,0.000431,0.001175
17719000,0.0324,0.013523,0.002678,0.000431,0.001058
17720000,0.0324,0.013523,0.002678,0.000431,0.001293
17721000,0.0324,0.013523,0.002678,0.000431,0.001175
17722000,0.0324,0.013523,0.002678,0.000431,0.001293
17723000,0.0324,0.013523,0.002678,0.000431,0.000940
17724000,0.0324,0.013523,0.002678,0.000431,0.001293
17725000,0.0324,0.013523,0.002678,0.000431,0.001293
17726000,0.0324,0.013523,0.002678,0.000431,0.000823
17727000,0.0324,0.013523,0.002678,0.000431,0.001293
17728000,0.0324,0.013523,0.002678,0.000431,0.000823
17729000,0.0324,0.013523,0.002678,0.000431,0.000940
17730000,0.0324,0.013523,0.002678,0.000431,0.001645
17731000,0.0324,0.013523,0.002678,0.000431,0.000823
17732000,0.0324,0.013523,0.002678,0.000431,0.001058
17733000,0.0324,0.013523,0.002678,0.000431,0.001058
17734000,0.0324,0.013523,0.002678,0.000431,0.001410
17735000,0.0324,0.013523,0.002678,0.000431,0.000823
17736000,0.0324,0.013523,0.002678,0.000431,0.001528
17737000,0.0324,0.013523,0.002678,0.000431,0.000823
17738000,0.0324,0.013523,0.002678,0.000431,0.001410
17739000,0.0324,0.013523,0.002678,0.000431,0.001293
17740000,0.0324,0.013523,0.002678,0.000431,0.000823
17741000,0.0324,0.013523,0.002678,0.000431,0.001175
17742000,0.0324,0.013523,0.002678,0.000431,0.001410
17743000,0.0324,0.013523,0.002678,0.000431,0.000705
17744000,0.0324,0.013523,0.002678,0.000431,0.000940
17745000,0.0324,0.013523,0.002678,0.000431,0.001410
17746000,0.0324,0.013523,0.002678,0.000431,0.000823
17747000,0.0324,0.013523,0.002678,0.000431,0.001293
17748000,0.0324,0.013523,0.002678,0.000431,0.001058
17749000,0.0324,0.013523,0.002678,0.000431,0.000705
17750000,0.0324,0.013523,0.002678,0.000431,0.001058
17751000,0.0324,0.013523,0.002678,0.000431,0.001410
17752000,0.0324,0.013523,0.002678,0.000431,0.000823
17753000,0.0324,0.013523,0.002678,0.000431,0.001058
17754000,0.0324,0.013523,0.002678,0.000431,0.001058
17755000,0.0324,0.013523,0.002678,0.000431,0.001293
17756000,0.0324,0.013523,0.002678,0.000431,0.000940
17757000,0.0324,0.013523,0.002678,0.000431,0.001175
17758000,0.0324,0.013523,0.002678,0.000431,0.001293
17759000,0.0324,0.013523,0.002678,0.000431,0.001175
17760000,0.0324,0.013523,0.002678,0.000431,0.000940
17761000,0.0324,0.013523,0.002678,0.000431,0.001058
17762000,0.0324,0.013523,0.002678,0.000431,0.001410
17763000,0.0324,0.013523,0.002678,0.000431,0.001293
17764000,0.0324,0.013523,0.002678,0.000431,0.001058
17765000,0.0324,0.013523,0.002678,0.000431,0.001175
17766000,0.0324,0.013523,0.002678,0.000431,0.001528
17767000,0.0324,0.013523,0.002678,0.000431,0.000940
17768000,0.0324,0.013523,0.002678,0.000431,0.001058
17769000,0.0324,0.013523,0.002678,0.000431,0.001293
17770000,0.0324,0.013523,0.002678,0.000431,0.000823
17771000,0.0324,0.013523,0.002678,0.000431,0.001175
17772000,0.0324,0.013523,0.002678,0.000431,0.000823
17773000,0.0324,0.013523,0.002678,0.000431,0.000823
17774000,0.0324,0.013523,0.002678,0.000431,0.001645
17775000,0.0324,0.013523,0.002678,0.000431,0.001293
17776000,0.0324,0.013523,0.002678,0.000431,0.000940
17777000,0.0324,0.013523,0.002678,0.000431,0.000940
17778000,0.0324,0.013523,0.002678,0.000431,0.001058
17779000,0.0324,0.013523,0.002678,0.000431,0.000940
17780000,0.0324,0.013523,0.002678,0.000431,0.001410
17781000,0.0324,0.013523,0.002678,0.000431,0.001410
17782000,0.0324,0.013523,0.002678,0.000431,0.001058
17783000,0.0324,0.013523,0.002678,0.000431,0.001528
17784000,0.0324,0.013523,0.002678,0.000431,0.001293
17785000,0.0324,0.013523,0.002678,0.000431,0.000940
17786000,0.0324,0.013523,0.002678,0.000431,0.000823
17787000,0.0324,0.013523,0.002678,0.000431,0.001410
17788000,0.0324,0.013523,0.002678,0.000431,0.001058
17789000,0.0324,0.013523,0.002678,0.000431,0.000705
17790000,0.0324,0.013523,0.002678,0.000431,0.001293
17791000,0.0324,0.013523,0.002678,0.000431,0.000823
17792000,0.0324,0.013523,0.002678,0.000431,0.001293
17793000,0.0324,0.013523,0.002678,0.000431,0.001645
17794000,0.0324,0.013523,0.002678,0.000431,0.001058
17795000,0.0324,0.013523,0.002678,0.000431,0.000823
17796000,0.0324,0.013523,0.002678,0.000431,0.001058
17797000,0.0324,0.013523,0.002678,0.000431,0.001293
17798000,0.0324,0.013523,0.002678,0.000431,0.001410
17799000,0.0324,0.013523,0.002678,0.000431,0.001175
17800000,0.0324,0.013523,0.002678,0.000431,0.000940
17801000,0.0324,0.013523,0.002678,0.000431,0.001293
17802000,0.0324,0.013523,0.002678,0.000431,0.001058
17803000,0.0324,0.013523,0.002678,0.000431,0.001175
17804000,0.0324,0.013523,0.002678,0.000431,0.001175
17805000,0.0324,0.013523,0.002678,0.000431,0.001058
17806000,0.0324,0.013523,0.002678,0.000431,0.001175
17807000,0.0324,0.013523,0.002678,0.000431,0.001058
17808000,0.0324,0.013523,0.002678,0.000431,0.000823
17809000,0.0324,0.013523,0.002678,0.000431,0.001293
17810000,0.0324,0.013523,0.002678,0.000431,0.001175
17811000,0.0324,0.013523,0.002678,0.000431,0.000823
17812000,0.0324,0.013523,0.002678,0.000431,0.001293
17813000,0.0324,0.013523,0.002678,0.000431,0.001293
17814000,0.0324,0.013523,0.002678,0.000431,0.001058
17815000,0.0324,0.013523,0.002678,0.000431,0.000940
17816000,0.0324,0.013523,0.002678,0.000431,0.001175
17817000,0.0324,0.013523,0.002678,0.000431,0.000940
17818000,0.0324,0.013523,0.002678,0.000431,0.000940
17819000,0.0324,0.013523,0.002678,0.000431,0.001410
17820000,0.0324,0.013523,0.002678,0.000431,0.001410
17821000,0.0324,0.013523,0.002678,0.000431,0.001293
17822000,0.0324,0.013523,0.002678,0.000431,0.001293
17823000,0.0324,0.013523,0.002678,0.000431,0.000823
17824000,0.0324,0.013523,0.002678,0.000431,0.001293
17825000,0.0324,0.013523,0.002678,0.000431,0.001058
17826000,0.0324,0.013523,0.002678,0.000431,0.000823
17827000,0.0324,0.013523,0.002678,0.000431,0.001410
17828000,0.0324,0.013523,0.002678,0.000431,0.001410
17829000,0.0324,0.013523,0.002678,0.000431,0.000940
17830000,0.0324,0.013523,0.002678,0.000431,0.000940
17831000,0.0324,0.013523,0.002678,0.000431,0.001175
17832000,0.0324,0.013523,0.002678,0.000431,0.001175
17833000,0.0324,0.013523,0.002678,0.000431,0.001058
17834000,0.0324,0.013523,0.002678,0.000431,0.001175
17835000,0.0324,0.013523,0.002678,0.000431,0.000940
17836000,0.0324,0.013523,0.002678,0.000431,0.001058
17837000,0.0324,0.013523,0.002678,0.000431,0.001293
17838000,0.0324,0.013523,0.002678,0.000431,0.001175
17839000,0.0324,0.013523,0.002678,0.000431,0.000823
17840000,0.0324,0.013523,0.002678,0.000431,0.001175
17841000,0.0324,0.013523,0.002678,0.000431,0.001058
17842000,0.0324,0.013523,0.002678,0.000431,0.001293
17843000,0.0324,0.013523,0.002678,0.000431,0.001175
17844000,0.0324,0.013523,0.002678,0.000431,0.001058
17845000,0.0324,0.013523,0.002678,0.000431,0.001058
17846000,0.0324,0.013523,0.002678,0.000431,0.000940
17847000,0.0324,0.013523,0.002678,0.000431,0.001058
17848000,0.0324,0.013523,0.002678,0.000431,0.000940
17849000,0.0324,0.013523,0.002678,0.000431,0.001293
17850000,0.0324,0.013523,0.002678,0.000431,0.001058
17851000,0.0324,0.013523,0.002678,0.000431,0.001058
17852000,0.0324,0.013523,0.002678,0.000431,0.001175
17853000,0.0324,0.013523,0.002678,0.000431,0.001175
17854000,0.0324,0.013523,0.002678,0.000431,0.001175
17855000,0.0324,0.013523,0.002678,0.000431,0.001410
17856000,0.0324,0.013523,0.002678,0.000431,0.001175
17857000,0.0324,0.013523,0.002678,0.000431,0.000940
17858000,0.0324,0.013523,0.002678,0.000431,0.001175
17859000,0.0324,0.013523,0.002678,0.000431,0.001410
17860000,0.0324,0.013523,0.002678,0.000431,0.000823
17861000,0.0324,0.013523,0.002678,0.000431,0.000940
17862000,0.0324,0.013523,0.002678,0.000431,0.001058
17863000,0.0324,0.013523,0.002678,0.000431,0.001175
17864000,0.0324,0.013523,0.002678,0.000431,0.001058
17865000,0.0324,0.013523,0.002678,0.000431,0.000823
17866000,0.0324,0.013523,0.002678,0.000431,0.001058
17867000,0.0324,0.013523,0.002678,0.000431,0.001058
17868000,0.0324,0.013523,0.002678,0.000431,0.001175
17869000,0.0324,0.013523,0.002678,0.000431,0.001410
17870000,0.0324,0.013523,0.002678,0.000431,0.001410
17871000,0.0324,0.013523,0.002678,0.000431,0.001058
17872000,0.0324,0.013523,0.002678,0.000431,0.001058
17873000,0.0324,0.013523,0.002678,0.000431,0.001175
17874000,0.0324,0.013523,0.002678,0.000431,0.001175
17875000,0.0324,0.013523,0.002678,0.000431,0.000940
17876000,0.0324,0.013523,0.002678,0.000431,0.001058
17877000,0.0324,0.013523,0.002678,0.000431,0.000940
17878000,0.0324,0.013523,0.002678,0.000431,0.001293
17879000,0.0324,0.013523,0.002678,0.000431,0.001175
17880000,0.0324,0.013523,0.002678,0.000431,0.001058
17881000,0.0324,0.013523,0.002678,0.000431,0.001293
17882000,0.0324,0.013523,0.002678,0.000431,0.001058
17883000,0.0324,0.013523,0.002678,0.000431,0.000940
17884000,0.0324,0.013523,0.002678,0.000431,0.000705
17885000,0.0324,0.013523,0.002678,0.000431,0.001293
17886000,0.0324,0.013523,0.002678,0.000431,0.001058
17887000,0.0324,0.013523,0.002678,0.000431,0.001293
17888000,0.0324,0.013523,0.002678,0.000431,0.000940
17889000,0.0324,0.013523,0.002678,0.000431,0.000705
17890000,0.0324,0.013523,0.002678,0.000431,0.000705
17891000,0.0324,0.013523,0.002678,0.000431,0.001528
17892000,0.0324,0.013523,0.002678,0.000431,0.000940
17893000,0.0324,0.013523,0.002678,0.000431,0.000823
17894000,0.0324,0.013523,0.002678,0.000431,0.001293
17895000,0.0324,0.013523,0.002678,0.000431,0.000940
17896000,0.0324,0.013523,0.002678,0.000431,0.001058
17897000,0.0324,0.013523,0.002678,0.000431,0.001293
17898000,0.0324,0.013523,0.002678,0.000431,0.000705
17899000,0.0324,0.013523,0.002678,0.000431,0.001058
17900000,0.0324,0.013523,0.002678,0.000431,0.001293
17901000,0.0324,0.013523,0.002678,0.000431,0.001058
17902000,0.0324,0.013523,0.002678,0.000431,0.000940
17903000,0.0324,0.013523,0.002678,0.000431,0.001410
17904000,0.0324,0.013523,0.002678,0.000431,0.000940
17905000,0.0324,0.013523,0.002678,0.000431,0.000940
17906000,0.0324,0.013523,0.002678,0.000431,0.001058
17907000,0.0324,0.013523,0.002678,0.000431,0.000940
17908000,0.0324,0.013523,0.002678,0.000431,0.000823
17909000,0.0324,0.013523,0.002678,0.000431,0.001058
17910000,0.0324,0.013523,0.002678,0.000431,0.001058
17911000,0.0324,0.013523,0.002678,0.000431,0.001175
17912000,0.0324,0.013523,0.002678,0.000431,0.000940
17913000,0.0324,0.013523,0.002678,0.000431,0.001175
17914000,0.0324,0.013523,0.002678,0.000431,0.001175
17915000,0.0324,0.013523,0.002678,0.000431,0.001058
17916000,0.0324,0.013523,0.002678,0.000431,0.001293
17917000,0.0324,0.013523,0.002678,0.000431,0.001645
17918000,0.0324,0.013523,0.002678,0.000431,0.001293
17919000,0.0324,0.013523,0.002678,0.000431,0.000705
17920000,0.0324,0.013523,0.002678,0.000431,0.001293
17921000,0.0324,0.013523,0.002678,0.000431,0.001293
17922000,0.0324,0.013523,0.002678,0.000431,0.000940
17923000,0.0324,0.013523,0.002678,0.000431,0.001058
17924000,0.0324,0.013523,0.002678,0.000431,0.001410
17925000,0.0324,0.013523,0.002678,0.000431,0.000940
17926000,0.0324,0.013523,0.002678,0.000431,0.001410
17927000,0.0324,0.013523,0.002678,0.000431,0.000940
17928000,0.0324,0.013523,0.002678,0.000431,0.000823
17929000,0.0324,0.013523,0.002678,0.000431,0.001528
17930000,0.0324,0.013523,0.002678,0.000431,0.001058
17931000,0.0324,0.013523,0.002678,0.000431,0.000705
17932000,0.0324,0.013523,0.002678,0.000431,0.001528
17933000,0.0324,0.013523,0.002678,0.000431,0.001175
17934000,0.0324,0.013523,0.002678,0.000431,0.001058
17935000,0.0324,0.013523,0.002678,0.000431,0.000823
17936000,0.0324,0.013523,0.002678,0.000431,0.001293
17937000,0.0324,0.013523,0.002678,0.000431,0.000705
17938000,0.0324,0.013523,0.002678,0.000431,0.001175
17939000,0.0324,0.013523,0.002678,0.000431,0.000940
17940000,0.0324,0.013523,0.002678,0.000431,0.000823
17941000,0.0324,0.013523,0.002678,0.000431,0.000940
17942000,0.0324,0.013523,0.002678,0.000431,0.001293
17943000,0.0324,0.013523,0.002678,0.000431,0.001058
17944000,0.0324,0.013523,0.002678,0.000431,0.001410
17945000,0.0324,0.013523,0.002678,0.000431,0.001293
17946000,0.0324,0.013523,0.002678,0.000431,0.001293
17947000,0.0324,0.013523,0.002678,0.000431,0.000940
17948000,0.0324,0.013523,0.002678,0.000431,0.000940
17949000,0.0324,0.013523,0.002678,0.000431,0.001058
17950000,0.0324,0.013523,0.002678,0.000431,0.001175
17951000,0.0324,0.013523,0.002678,0.000431,0.000940
17952000,0.0324,0.013523,0.002678,0.000431,0.001058
17953000,0.0324,0.013523,0.002678,0.000431,0.001645
17954000,0.0324,0.013523,0.002678,0.000431,0.001058
17955000,0.0324,0.013523,0.002678,0.000431,0.000823
17956000,0.0324,0.013523,0.002678,0.000431,0.001645
17957000,0.0324,0.013523,0.002678,0.000431,0.001058
17958000,0.0324,0.013523,0.002678,0.000431,0.000705
17959000,0.0324,0.013523,0.002678,0.000431,0.001175
17960000,0.0324,0.013523,0.002678,0.000431,0.001058
17961000,0.0324,0.013523,0.002678,0.000431,0.000940
17962000,0.0324,0.013523,0.002678,0.000431,0.001410
17963000,0.0324,0.013523,0.002678,0.000431,0.001293
17964000,0.0324,0.013523,0.002678,0.000431,0.000940
17965000,0.0324,0.013523,0.002678,0.000431,0.001058
17966000,0.0324,0.013523,0.002678,0.000431,0.001058
17967000,0.0324,0.013523,0.002678,0.000431,0.001058
17968000,0.0324,0.013523,0.002678,0.000431,0.001175
17969000,0.0324,0.013523,0.002678,0.000431,0.001645
17970000,0.0324,0.013523,0.002678,0.000431,0.000940
17971000,0.0324,0.013523,0.002678,0.000431,0.001293
17972000,0.0324,0.013523,0.002678,0.000431,0.001175
17973000,0.0324,0.013523,0.002678,0.000431,0.000940
17974000,0.0324,0.013523,0.002678,0.000431,0.001058
17975000,0.0324,0.013523,0.002678,0.000431,0.001175
17976000,0.0324,0.013523,0.002678,0.000431,0.000823
17977000,0.0324,0.013523,0.002678,0.000431,0.001293
17978000,0.0324,0.013523,0.002678,0.000431,0.001410
17979000,0.0324,0.013523,0.002678,0.000431,0.001058
17980000,0.0324,0.013523,0.002678,0.000431,0.001058
17981000,0.0324,0.013523,0.002678,0.000431,0.000940
17982000,0.0324,0.013523,0.002678,0.000431,0.001175
17983000,0.0324,0.013523,0.002678,0.000431,0.000705
17984000,0.0324,0.013523,0.002678,0.000431,0.001410
17985000,0.0324,0.013523,0.002678,0.000431,0.001058
17986000,0.0324,0.013523,0.002678,0.000431,0.001058
17987000,0.0324,0.013523,0.002678,0.000431,0.001293
17988000,0.0324,0.013523,0.002678,0.000431,0.001175
17989000,0.0324,0.013523,0.002678,0.000431,0.001175
17990000,0.0324,0.013523,0.002678,0.000431,0.001058
17991000,0.0324,0.013523,0.002678,0.000431,0.001058
17992000,0.0324,0.013523,0.002678,0.000431,0.001175
17993000,0.0324,0.013523,0.002678,0.000431,0.000940
17994000,0.0324,0.013523,0.002678,0.000431,0.000823
17995000,0.0324,0.013523,0.002678,0.000431,0.001410
17996000,0.0324,0.013523,0.002678,0.000431,0.001175
17997000,0.0324,0.013523,0.002678,0.000431,0.000940
17998000,0.0324,0.013523,0.002678,0.000431,0.001175
17999000,0.0324,0.013523,0.002678,0.000431,0.001058
