Cycle,Area(mm^2),PeakDynamic(W),SubthresholdLeakage(W),GateLeakage(W),RunTimeDynamic(W)
10000000,0.0324,0.013523,0.002678,0.000431,0.011753
10001000,0.0324,0.013523,0.002678,0.000431,0.013046
10002000,0.0324,0.013523,0.002678,0.000431,0.011988
10003000,0.0324,0.013523,0.002678,0.000431,0.011283
10004000,0.0324,0.013523,0.002678,0.000431,0.012340
10005000,0.0324,0.013523,0.002678,0.000431,0.011400
10006000,0.0324,0.013523,0.002678,0.000431,0.012458
10007000,0.0324,0.013523,0.002678,0.000431,0.011988
10008000,0.0324,0.013523,0.002678,0.000431,0.013751
10009000,0.0324,0.013523,0.002678,0.000431,0.011635
10010000,0.0324,0.013523,0.002678,0.000431,0.013516
10011000,0.0324,0.013523,0.002678,0.000431,0.011518
10012000,0.0324,0.013523,0.002678,0.000431,0.012928
10013000,0.0324,0.013523,0.002678,0.000431,0.012105
10014000,0.0324,0.013523,0.002678,0.000431,0.012458
10015000,0.0324,0.013523,0.002678,0.000431,0.011753
10016000,0.0324,0.013523,0.002678,0.000431,0.012811
10017000,0.0324,0.013523,0.002678,0.000431,0.011988
10018000,0.0324,0.013523,0.002678,0.000431,0.011518
10019000,0.0324,0.013523,0.002678,0.000431,0.012340
10020000,0.0324,0.013523,0.002678,0.000431,0.012458
10021000,0.0324,0.013523,0.002678,0.000431,0.012340
10022000,0.0324,0.013523,0.002678,0.000431,0.012105
10023000,0.0324,0.013523,0.002678,0.000431,0.013398
10024000,0.0324,0.013523,0.002678,0.000431,0.011870
10025000,0.0324,0.013523,0.002678,0.000431,0.012223
10026000,0.0324,0.013523,0.002678,0.000431,0.012105
10027000,0.0324,0.013523,0.002678,0.000431,0.012105
10028000,0.0324,0.013523,0.002678,0.000431,0.011753
10029000,0.0324,0.013523,0.002678,0.000431,0.012811
10030000,0.0324,0.013523,0.002678,0.000431,0.011165
10031000,0.0324,0.013523,0.002678,0.000431,0.012693
10032000,0.0324,0.013523,0.002678,0.000431,0.012458
10033000,0.0324,0.013523,0.002678,0.000431,0.010460
10034000,0.0324,0.013523,0.002678,0.000431,0.012340
10035000,0.0324,0.013523,0.002678,0.000431,0.012811
10036000,0.0324,0.013523,0.002678,0.000431,0.011400
10037000,0.0324,0.013523,0.002678,0.000431,0.013046
10038000,0.0324,0.013523,0.002678,0.000431,0.012458
10039000,0.0324,0.013523,0.002678,0.000431,0.011635
10040000,0.0324,0.013523,0.002678,0.000431,0.012105
10041000,0.0324,0.013523,0.002678,0.000431,0.011518
10042000,0.0324,0.013523,0.002678,0.000431,0.011870
10043000,0.0324,0.013523,0.002678,0.000431,0.011753
10044000,0.0324,0.013523,0.002678,0.000431,0.011870
10045000,0.0324,0.013523,0.002678,0.000431,0.012223
10046000,0.0324,0.013523,0.002678,0.000431,0.012458
10047000,0.0324,0.013523,0.002678,0.000431,0.012340
10048000,0.0324,0.013523,0.002678,0.000431,0.012340
10049000,0.0324,0.013523,0.002678,0.000431,0.012340
10050000,0.0324,0.013523,0.002678,0.000431,0.011753
10051000,0.0324,0.013523,0.002678,0.000431,0.012105
10052000,0.0324,0.013523,0.002678,0.000431,0.012105
10053000,0.0324,0.013523,0.002678,0.000431,0.012693
10054000,0.0324,0.013523,0.002678,0.000431,0.011753
10055000,0.0324,0.013523,0.002678,0.000431,0.011753
10056000,0.0324,0.013523,0.002678,0.000431,0.011753
10057000,0.0324,0.013523,0.002678,0.000431,0.011165
10058000,0.0324,0.013523,0.002678,0.000431,0.011870
10059000,0.0324,0.013523,0.002678,0.000431,0.011753
10060000,0.0324,0.013523,0.002678,0.000431,0.012693
10061000,0.0324,0.013523,0.002678,0.000431,0.011988
10062000,0.0324,0.013523,0.002678,0.000431,0.011400
10063000,0.0324,0.013523,0.002678,0.000431,0.011988
10064000,0.0324,0.013523,0.002678,0.000431,0.012693
10065000,0.0324,0.013523,0.002678,0.000431,0.011400
10066000,0.0324,0.013523,0.002678,0.000431,0.011165
10067000,0.0324,0.013523,0.002678,0.000431,0.012223
10068000,0.0324,0.013523,0.002678,0.000431,0.011518
10069000,0.0324,0.013523,0.002678,0.000431,0.011753
10070000,0.0324,0.013523,0.002678,0.000431,0.011753
10071000,0.0324,0.013523,0.002678,0.000431,0.011988
10072000,0.0324,0.013523,0.002678,0.000431,0.011283
10073000,0.0324,0.013523,0.002678,0.000431,0.012693
10074000,0.0324,0.013523,0.002678,0.000431,0.011753
10075000,0.0324,0.013523,0.002678,0.000431,0.012223
10076000,0.0324,0.013523,0.002678,0.000431,0.012458
10077000,0.0324,0.013523,0.002678,0.000431,0.011753
10078000,0.0324,0.013523,0.002678,0.000431,0.010578
10079000,0.0324,0.013523,0.002678,0.000431,0.012576
10080000,0.0324,0.013523,0.002678,0.000431,0.012105
10081000,0.0324,0.013523,0.002678,0.000431,0.012223
10082000,0.0324,0.013523,0.002678,0.000431,0.012223
10083000,0.0324,0.013523,0.002678,0.000431,0.012811
10084000,0.0324,0.013523,0.002678,0.000431,0.011518
10085000,0.0324,0.013523,0.002678,0.000431,0.012223
10086000,0.0324,0.013523,0.002678,0.000431,0.012223
10087000,0.0324,0.013523,0.002678,0.000431,0.011753
10088000,0.0324,0.013523,0.002678,0.000431,0.012105
10089000,0.0324,0.013523,0.002678,0.000431,0.012458
10090000,0.0324,0.013523,0.002678,0.000431,0.012928
10091000,0.0324,0.013523,0.002678,0.000431,0.011635
10092000,0.0324,0.013523,0.002678,0.000431,0.011048
10093000,0.0324,0.013523,0.002678,0.000431,0.011870
10094000,0.0324,0.013523,0.002678,0.000431,0.012223
10095000,0.0324,0.013523,0.002678,0.000431,0.011165
10096000,0.0324,0.013523,0.002678,0.000431,0.011988
10097000,0.0324,0.013523,0.002678,0.000431,0.012223
10098000,0.0324,0.013523,0.002678,0.000431,0.011400
10099000,0.0324,0.013523,0.002678,0.000431,0.011988
10100000,0.0324,0.013523,0.002678,0.000431,0.013398
10101000,0.0324,0.013523,0.002678,0.000431,0.011165
10102000,0.0324,0.013523,0.002678,0.000431,0.012223
10103000,0.0324,0.013523,0.002678,0.000431,0.012105
10104000,0.0324,0.013523,0.002678,0.000431,0.012340
10105000,0.0324,0.013523,0.002678,0.000431,0.011870
10106000,0.0324,0.013523,0.002678,0.000431,0.011635
10107000,0.0324,0.013523,0.002678,0.000431,0.012340
10108000,0.0324,0.013523,0.002678,0.000431,0.011635
10109000,0.0324,0.013523,0.002678,0.000431,0.011988
10110000,0.0324,0.013523,0.002678,0.000431,0.011635
10111000,0.0324,0.013523,0.002678,0.000431,0.011753
10112000,0.0324,0.013523,0.002678,0.000431,0.011870
10113000,0.0324,0.013523,0.002678,0.000431,0.011870
10114000,0.0324,0.013523,0.002678,0.000431,0.012105
10115000,0.0324,0.013523,0.002678,0.000431,0.011988
10116000,0.0324,0.013523,0.002678,0.000431,0.012340
10117000,0.0324,0.013523,0.002678,0.000431,0.013163
10118000,0.0324,0.013523,0.002678,0.000431,0.011635
10119000,0.0324,0.013523,0.002678,0.000431,0.012811
10120000,0.0324,0.013523,0.002678,0.000431,0.011048
10121000,0.0324,0.013523,0.002678,0.000431,0.011635
10122000,0.0324,0.013523,0.002678,0.000431,0.011400
10123000,0.0324,0.013523,0.002678,0.000431,0.011635
10124000,0.0324,0.013523,0.002678,0.000431,0.012576
10125000,0.0324,0.013523,0.002678,0.000431,0.010813
10126000,0.0324,0.013523,0.002678,0.000431,0.012811
10127000,0.0324,0.013523,0.002678,0.000431,0.010930
10128000,0.0324,0.013523,0.002678,0.000431,0.012223
10129000,0.0324,0.013523,0.002678,0.000431,0.011165
10130000,0.0324,0.013523,0.002678,0.000431,0.012105
10131000,0.0324,0.013523,0.002678,0.000431,0.012693
10132000,0.0324,0.013523,0.002678,0.000431,0.012458
10133000,0.0324,0.013523,0.002678,0.000431,0.011753
10134000,0.0324,0.013523,0.002678,0.000431,0.012340
10135000,0.0324,0.013523,0.002678,0.000431,0.012576
10136000,0.0324,0.013523,0.002678,0.000431,0.011870
10137000,0.0324,0.013523,0.002678,0.000431,0.012458
10138000,0.0324,0.013523,0.002678,0.000431,0.011518
10139000,0.0324,0.013523,0.002678,0.000431,0.012340
10140000,0.0324,0.013523,0.002678,0.000431,0.012105
10141000,0.0324,0.013523,0.002678,0.000431,0.010930
10142000,0.0324,0.013523,0.002678,0.000431,0.012576
10143000,0.0324,0.013523,0.002678,0.000431,0.012458
10144000,0.0324,0.013523,0.002678,0.000431,0.012576
10145000,0.0324,0.013523,0.002678,0.000431,0.011400
10146000,0.0324,0.013523,0.002678,0.000431,0.012458
10147000,0.0324,0.013523,0.002678,0.000431,0.011753
10148000,0.0324,0.013523,0.002678,0.000431,0.012340
10149000,0.0324,0.013523,0.002678,0.000431,0.012458
10150000,0.0324,0.013523,0.002678,0.000431,0.011870
10151000,0.0324,0.013523,0.002678,0.000431,0.012458
10152000,0.0324,0.013523,0.002678,0.000431,0.010930
10153000,0.0324,0.013523,0.002678,0.000431,0.012105
10154000,0.0324,0.013523,0.002678,0.000431,0.011988
10155000,0.0324,0.013523,0.002678,0.000431,0.012693
10156000,0.0324,0.013523,0.002678,0.000431,0.012105
10157000,0.0324,0.013523,0.002678,0.000431,0.011870
10158000,0.0324,0.013523,0.002678,0.000431,0.012223
10159000,0.0324,0.013523,0.002678,0.000431,0.011165
10160000,0.0324,0.013523,0.002678,0.000431,0.012576
10161000,0.0324,0.013523,0.002678,0.000431,0.012340
10162000,0.0324,0.013523,0.002678,0.000431,0.011870
10163000,0.0324,0.013523,0.002678,0.000431,0.012340
10164000,0.0324,0.013523,0.002678,0.000431,0.012576
10165000,0.0324,0.013523,0.002678,0.000431,0.011753
10166000,0.0324,0.013523,0.002678,0.000431,0.011870
10167000,0.0324,0.013523,0.002678,0.000431,0.012340
10168000,0.0324,0.013523,0.002678,0.000431,0.012811
10169000,0.0324,0.013523,0.002678,0.000431,0.011400
10170000,0.0324,0.013523,0.002678,0.000431,0.012458
10171000,0.0324,0.013523,0.002678,0.000431,0.011518
10172000,0.0324,0.013523,0.002678,0.000431,0.012223
10173000,0.0324,0.013523,0.002678,0.000431,0.011753
10174000,0.0324,0.013523,0.002678,0.000431,0.012340
10175000,0.0324,0.013523,0.002678,0.000431,0.011870
10176000,0.0324,0.013523,0.002678,0.000431,0.012458
10177000,0.0324,0.013523,0.002678,0.000431,0.012340
10178000,0.0324,0.013523,0.002678,0.000431,0.010578
10179000,0.0324,0.013523,0.002678,0.000431,0.011870
10180000,0.0324,0.013523,0.002678,0.000431,0.011283
10181000,0.0324,0.013523,0.002678,0.000431,0.012811
10182000,0.0324,0.013523,0.002678,0.000431,0.013046
10183000,0.0324,0.013523,0.002678,0.000431,0.011400
10184000,0.0324,0.013523,0.002678,0.000431,0.011165
10185000,0.0324,0.013523,0.002678,0.000431,0.012340
10186000,0.0324,0.013523,0.002678,0.000431,0.013516
10187000,0.0324,0.013523,0.002678,0.000431,0.011635
10188000,0.0324,0.013523,0.002678,0.000431,0.012458
10189000,0.0324,0.013523,0.002678,0.000431,0.011048
10190000,0.0324,0.013523,0.002678,0.000431,0.012105
10191000,0.0324,0.013523,0.002678,0.000431,0.011283
10192000,0.0324,0.013523,0.002678,0.000431,0.011870
10193000,0.0324,0.013523,0.002678,0.000431,0.012811
10194000,0.0324,0.013523,0.002678,0.000431,0.012458
10195000,0.0324,0.013523,0.002678,0.000431,0.011048
10196000,0.0324,0.013523,0.002678,0.000431,0.012693
10197000,0.0324,0.013523,0.002678,0.000431,0.011635
10198000,0.0324,0.013523,0.002678,0.000431,0.012811
10199000,0.0324,0.013523,0.002678,0.000431,0.011165
10200000,0.0324,0.013523,0.002678,0.000431,0.011518
10201000,0.0324,0.013523,0.002678,0.000431,0.011283
10202000,0.0324,0.013523,0.002678,0.000431,0.011165
10203000,0.0324,0.013523,0.002678,0.000431,0.013046
10204000,0.0324,0.013523,0.002678,0.000431,0.012340
10205000,0.0324,0.013523,0.002678,0.000431,0.011518
10206000,0.0324,0.013523,0.002678,0.000431,0.011753
10207000,0.0324,0.013523,0.002678,0.000431,0.011870
10208000,0.0324,0.013523,0.002678,0.000431,0.013046
10209000,0.0324,0.013523,0.002678,0.000431,0.012340
10210000,0.0324,0.013523,0.002678,0.000431,0.012105
10211000,0.0324,0.013523,0.002678,0.000431,0.011048
10212000,0.0324,0.013523,0.002678,0.000431,0.011753
10213000,0.0324,0.013523,0.002678,0.000431,0.011283
10214000,0.0324,0.013523,0.002678,0.000431,0.011988
10215000,0.0324,0.013523,0.002678,0.000431,0.011048
10216000,0.0324,0.013523,0.002678,0.000431,0.011870
10217000,0.0324,0.013523,0.002678,0.000431,0.011518
10218000,0.0324,0.013523,0.002678,0.000431,0.012928
10219000,0.0324,0.013523,0.002678,0.000431,0.011518
10220000,0.0324,0.013523,0.002678,0.000431,0.012811
10221000,0.0324,0.013523,0.002678,0.000431,0.012105
10222000,0.0324,0.013523,0.002678,0.000431,0.012693
10223000,0.0324,0.013523,0.002678,0.000431,0.012693
10224000,0.0324,0.013523,0.002678,0.000431,0.012105
10225000,0.0324,0.013523,0.002678,0.000431,0.012928
10226000,0.0324,0.013523,0.002678,0.000431,0.011988
10227000,0.0324,0.013523,0.002678,0.000431,0.012811
10228000,0.0324,0.013523,0.002678,0.000431,0.011635
10229000,0.0324,0.013523,0.002678,0.000431,0.012105
10230000,0.0324,0.013523,0.002678,0.000431,0.012458
10231000,0.0324,0.013523,0.002678,0.000431,0.012105
10232000,0.0324,0.013523,0.002678,0.000431,0.011518
10233000,0.0324,0.013523,0.002678,0.000431,0.011635
10234000,0.0324,0.013523,0.002678,0.000431,0.012458
10235000,0.0324,0.013523,0.002678,0.000431,0.013163
10236000,0.0324,0.013523,0.002678,0.000431,0.011400
10237000,0.0324,0.013523,0.002678,0.000431,0.012105
10238000,0.0324,0.013523,0.002678,0.000431,0.012340
10239000,0.0324,0.013523,0.002678,0.000431,0.012105
10240000,0.0324,0.013523,0.002678,0.000431,0.012928
10241000,0.0324,0.013523,0.002678,0.000431,0.011753
10242000,0.0324,0.013523,0.002678,0.000431,0.011400
10243000,0.0324,0.013523,0.002678,0.000431,0.013046
10244000,0.0324,0.013523,0.002678,0.000431,0.011988
10245000,0.0324,0.013523,0.002678,0.000431,0.010813
10246000,0.0324,0.013523,0.002678,0.000431,0.012693
10247000,0.0324,0.013523,0.002678,0.000431,0.012105
10248000,0.0324,0.013523,0.002678,0.000431,0.011635
10249000,0.0324,0.013523,0.002678,0.000431,0.011518
10250000,0.0324,0.013523,0.002678,0.000431,0.012811
10251000,0.0324,0.013523,0.002678,0.000431,0.011165
10252000,0.0324,0.013523,0.002678,0.000431,0.011870
10253000,0.0324,0.013523,0.002678,0.000431,0.011870
10254000,0.0324,0.013523,0.002678,0.000431,0.012340
10255000,0.0324,0.013523,0.002678,0.000431,0.011870
10256000,0.0324,0.013523,0.002678,0.000431,0.010930
10257000,0.0324,0.013523,0.002678,0.000431,0.011870
10258000,0.0324,0.013523,0.002678,0.000431,0.011518
10259000,0.0324,0.013523,0.002678,0.000431,0.012811
10260000,0.0324,0.013523,0.002678,0.000431,0.011400
10261000,0.0324,0.013523,0.002678,0.000431,0.013046
10262000,0.0324,0.013523,0.002678,0.000431,0.011988
10263000,0.0324,0.013523,0.002678,0.000431,0.012458
10264000,0.0324,0.013523,0.002678,0.000431,0.012105
10265000,0.0324,0.013523,0.002678,0.000431,0.012458
10266000,0.0324,0.013523,0.002678,0.000431,0.012223
10267000,0.0324,0.013523,0.002678,0.000431,0.010813
10268000,0.0324,0.013523,0.002678,0.000431,0.012105
10269000,0.0324,0.013523,0.002678,0.000431,0.013046
10270000,0.0324,0.013523,0.002678,0.000431,0.012576
10271000,0.0324,0.013523,0.002678,0.000431,0.009990
10272000,0.0324,0.013523,0.002678,0.000431,0.013046
10273000,0.0324,0.013523,0.002678,0.000431,0.011635
10274000,0.0324,0.013523,0.002678,0.000431,0.012458
10275000,0.0324,0.013523,0.002678,0.000431,0.012223
10276000,0.0324,0.013523,0.002678,0.000431,0.013398
10277000,0.0324,0.013523,0.002678,0.000431,0.011870
10278000,0.0324,0.013523,0.002678,0.000431,0.011870
10279000,0.0324,0.013523,0.002678,0.000431,0.012105
10280000,0.0324,0.013523,0.002678,0.000431,0.012928
10281000,0.0324,0.013523,0.002678,0.000431,0.013281
10282000,0.0324,0.013523,0.002678,0.000431,0.011753
10283000,0.0324,0.013523,0.002678,0.000431,0.012458
10284000,0.0324,0.013523,0.002678,0.000431,0.011400
10285000,0.0324,0.013523,0.002678,0.000431,0.013046
10286000,0.0324,0.013523,0.002678,0.000431,0.011870
10287000,0.0324,0.013523,0.002678,0.000431,0.013398
10288000,0.0324,0.013523,0.002678,0.000431,0.011048
10289000,0.0324,0.013523,0.002678,0.000431,0.011988
10290000,0.0324,0.013523,0.002678,0.000431,0.010342
10291000,0.0324,0.013523,0.002678,0.000431,0.012105
10292000,0.0324,0.013523,0.002678,0.000431,0.012340
10293000,0.0324,0.013523,0.002678,0.000431,0.012458
10294000,0.0324,0.013523,0.002678,0.000431,0.012576
10295000,0.0324,0.013523,0.002678,0.000431,0.012458
10296000,0.0324,0.013523,0.002678,0.000431,0.011870
10297000,0.0324,0.013523,0.002678,0.000431,0.011518
10298000,0.0324,0.013523,0.002678,0.000431,0.013516
10299000,0.0324,0.013523,0.002678,0.000431,0.011753
10300000,0.0324,0.013523,0.002678,0.000431,0.011870
10301000,0.0324,0.013523,0.002678,0.000431,0.012458
10302000,0.0324,0.013523,0.002678,0.000431,0.012458
10303000,0.0324,0.013523,0.002678,0.000431,0.011753
10304000,0.0324,0.013523,0.002678,0.000431,0.012458
10305000,0.0324,0.013523,0.002678,0.000431,0.011988
10306000,0.0324,0.013523,0.002678,0.000431,0.011870
10307000,0.0324,0.013523,0.002678,0.000431,0.012693
10308000,0.0324,0.013523,0.002678,0.000431,0.011165
10309000,0.0324,0.013523,0.002678,0.000431,0.012223
10310000,0.0324,0.013523,0.002678,0.000431,0.012105
10311000,0.0324,0.013523,0.002678,0.000431,0.012340
10312000,0.0324,0.013523,0.002678,0.000431,0.012576
10313000,0.0324,0.013523,0.002678,0.000431,0.012811
10314000,0.0324,0.013523,0.002678,0.000431,0.011518
10315000,0.0324,0.013523,0.002678,0.000431,0.012928
10316000,0.0324,0.013523,0.002678,0.000431,0.011518
10317000,0.0324,0.013523,0.002678,0.000431,0.012340
10318000,0.0324,0.013523,0.002678,0.000431,0.011283
10319000,0.0324,0.013523,0.002678,0.000431,0.011870
10320000,0.0324,0.013523,0.002678,0.000431,0.012458
10321000,0.0324,0.013523,0.002678,0.000431,0.011165
10322000,0.0324,0.013523,0.002678,0.000431,0.011518
10323000,0.0324,0.013523,0.002678,0.000431,0.012928
10324000,0.0324,0.013523,0.002678,0.000431,0.013046
10325000,0.0324,0.013523,0.002678,0.000431,0.011048
10326000,0.0324,0.013523,0.002678,0.000431,0.011870
10327000,0.0324,0.013523,0.002678,0.000431,0.011518
10328000,0.0324,0.013523,0.002678,0.000431,0.012693
10329000,0.0324,0.013523,0.002678,0.000431,0.011518
10330000,0.0324,0.013523,0.002678,0.000431,0.011988
10331000,0.0324,0.013523,0.002678,0.000431,0.011988
10332000,0.0324,0.013523,0.002678,0.000431,0.011518
10333000,0.0324,0.013523,0.002678,0.000431,0.012105
10334000,0.0324,0.013523,0.002678,0.000431,0.012340
10335000,0.0324,0.013523,0.002678,0.000431,0.012693
10336000,0.0324,0.013523,0.002678,0.000431,0.011988
10337000,0.0324,0.013523,0.002678,0.000431,0.011988
10338000,0.0324,0.013523,0.002678,0.000431,0.011283
10339000,0.0324,0.013523,0.002678,0.000431,0.011635
10340000,0.0324,0.013523,0.002678,0.000431,0.013046
10341000,0.0324,0.013523,0.002678,0.000431,0.011753
10342000,0.0324,0.013523,0.002678,0.000431,0.012458
10343000,0.0324,0.013523,0.002678,0.000431,0.011518
10344000,0.0324,0.013523,0.002678,0.000431,0.010107
10345000,0.0324,0.013523,0.002678,0.000431,0.011048
10346000,0.0324,0.013523,0.002678,0.000431,0.011753
10347000,0.0324,0.013523,0.002678,0.000431,0.010813
10348000,0.0324,0.013523,0.002678,0.000431,0.010695
10349000,0.0324,0.013523,0.002678,0.000431,0.011988
10350000,0.0324,0.013523,0.002678,0.000431,0.011283
10351000,0.0324,0.013523,0.002678,0.000431,0.011283
10352000,0.0324,0.013523,0.002678,0.000431,0.011048
10353000,0.0324,0.013523,0.002678,0.000431,0.011400
10354000,0.0324,0.013523,0.002678,0.000431,0.011988
10355000,0.0324,0.013523,0.002678,0.000431,0.010578
10356000,0.0324,0.013523,0.002678,0.000431,0.010930
10357000,0.0324,0.013523,0.002678,0.000431,0.012458
10358000,0.0324,0.013523,0.002678,0.000431,0.010342
10359000,0.0324,0.013523,0.002678,0.000431,0.011048
10360000,0.0324,0.013523,0.002678,0.000431,0.010695
10361000,0.0324,0.013523,0.002678,0.000431,0.011988
10362000,0.0324,0.013523,0.002678,0.000431,0.010930
10363000,0.0324,0.013523,0.002678,0.000431,0.011635
10364000,0.0324,0.013523,0.002678,0.000431,0.011635
10365000,0.0324,0.013523,0.002678,0.000431,0.011400
10366000,0.0324,0.013523,0.002678,0.000431,0.011870
10367000,0.0324,0.013523,0.002678,0.000431,0.011283
10368000,0.0324,0.013523,0.002678,0.000431,0.010695
10369000,0.0324,0.013523,0.002678,0.000431,0.011400
10370000,0.0324,0.013523,0.002678,0.000431,0.010930
10371000,0.0324,0.013523,0.002678,0.000431,0.011635
10372000,0.0324,0.013523,0.002678,0.000431,0.011048
10373000,0.0324,0.013523,0.002678,0.000431,0.012105
10374000,0.0324,0.013523,0.002678,0.000431,0.011988
10375000,0.0324,0.013523,0.002678,0.000431,0.011283
10376000,0.0324,0.013523,0.002678,0.000431,0.011400
10377000,0.0324,0.013523,0.002678,0.000431,0.011518
10378000,0.0324,0.013523,0.002678,0.000431,0.010813
10379000,0.0324,0.013523,0.002678,0.000431,0.010813
10380000,0.0324,0.013523,0.002678,0.000431,0.011165
10381000,0.0324,0.013523,0.002678,0.000431,0.011635
10382000,0.0324,0.013523,0.002678,0.000431,0.012340
10383000,0.0324,0.013523,0.002678,0.000431,0.012105
10384000,0.0324,0.013523,0.002678,0.000431,0.011870
10385000,0.0324,0.013523,0.002678,0.000431,0.010930
10386000,0.0324,0.013523,0.002678,0.000431,0.010695
10387000,0.0324,0.013523,0.002678,0.000431,0.011400
10388000,0.0324,0.013523,0.002678,0.000431,0.011518
10389000,0.0324,0.013523,0.002678,0.000431,0.010695
10390000,0.0324,0.013523,0.002678,0.000431,0.011753
10391000,0.0324,0.013523,0.002678,0.000431,0.011518
10392000,0.0324,0.013523,0.002678,0.000431,0.011165
10393000,0.0324,0.013523,0.002678,0.000431,0.011518
10394000,0.0324,0.013523,0.002678,0.000431,0.011753
10395000,0.0324,0.013523,0.002678,0.000431,0.011753
10396000,0.0324,0.013523,0.002678,0.000431,0.010342
10397000,0.0324,0.013523,0.002678,0.000431,0.011753
10398000,0.0324,0.013523,0.002678,0.000431,0.011518
10399000,0.0324,0.013523,0.002678,0.000431,0.011048
10400000,0.0324,0.013523,0.002678,0.000431,0.011988
10401000,0.0324,0.013523,0.002678,0.000431,0.011635
10402000,0.0324,0.013523,0.002678,0.000431,0.012105
10403000,0.0324,0.013523,0.002678,0.000431,0.010813
10404000,0.0324,0.013523,0.002678,0.000431,0.010578
10405000,0.0324,0.013523,0.002678,0.000431,0.010695
10406000,0.0324,0.013523,0.002678,0.000431,0.011988
10407000,0.0324,0.013523,0.002678,0.000431,0.011753
10408000,0.0324,0.013523,0.002678,0.000431,0.011048
10409000,0.0324,0.013523,0.002678,0.000431,0.011283
10410000,0.0324,0.013523,0.002678,0.000431,0.013281
10411000,0.0324,0.013523,0.002678,0.000431,0.011165
10412000,0.0324,0.013523,0.002678,0.000431,0.011283
10413000,0.0324,0.013523,0.002678,0.000431,0.011283
10414000,0.0324,0.013523,0.002678,0.000431,0.011283
10415000,0.0324,0.013523,0.002678,0.000431,0.011400
10416000,0.0324,0.013523,0.002678,0.000431,0.012223
10417000,0.0324,0.013523,0.002678,0.000431,0.011870
10418000,0.0324,0.013523,0.002678,0.000431,0.011400
10419000,0.0324,0.013523,0.002678,0.000431,0.012105
10420000,0.0324,0.013523,0.002678,0.000431,0.010225
10421000,0.0324,0.013523,0.002678,0.000431,0.011753
10422000,0.0324,0.013523,0.002678,0.000431,0.012223
10423000,0.0324,0.013523,0.002678,0.000431,0.011048
10424000,0.0324,0.013523,0.002678,0.000431,0.012811
10425000,0.0324,0.013523,0.002678,0.000431,0.010225
10426000,0.0324,0.013523,0.002678,0.000431,0.011400
10427000,0.0324,0.013523,0.002678,0.000431,0.010930
10428000,0.0324,0.013523,0.002678,0.000431,0.011870
10429000,0.0324,0.013523,0.002678,0.000431,0.011870
10430000,0.0324,0.013523,0.002678,0.000431,0.011635
10431000,0.0324,0.013523,0.002678,0.000431,0.011400
10432000,0.0324,0.013523,0.002678,0.000431,0.010695
10433000,0.0324,0.013523,0.002678,0.000431,0.011635
10434000,0.0324,0.013523,0.002678,0.000431,0.011753
10435000,0.0324,0.013523,0.002678,0.000431,0.011048
10436000,0.0324,0.013523,0.002678,0.000431,0.012105
10437000,0.0324,0.013523,0.002678,0.000431,0.011400
10438000,0.0324,0.013523,0.002678,0.000431,0.010930
10439000,0.0324,0.013523,0.002678,0.000431,0.011988
10440000,0.0324,0.013523,0.002678,0.000431,0.011283
10441000,0.0324,0.013523,0.002678,0.000431,0.011400
10442000,0.0324,0.013523,0.002678,0.000431,0.011753
10443000,0.0324,0.013523,0.002678,0.000431,0.011283
10444000,0.0324,0.013523,0.002678,0.000431,0.010695
10445000,0.0324,0.013523,0.002678,0.000431,0.010813
10446000,0.0324,0.013523,0.002678,0.000431,0.012458
10447000,0.0324,0.013523,0.002678,0.000431,0.011988
10448000,0.0324,0.013523,0.002678,0.000431,0.011048
10449000,0.0324,0.013523,0.002678,0.000431,0.011870
10450000,0.0324,0.013523,0.002678,0.000431,0.012576
10451000,0.0324,0.013523,0.002678,0.000431,0.010813
10452000,0.0324,0.013523,0.002678,0.000431,0.011048
10453000,0.0324,0.013523,0.002678,0.000431,0.011400
10454000,0.0324,0.013523,0.002678,0.000431,0.011518
10455000,0.0324,0.013523,0.002678,0.000431,0.011400
10456000,0.0324,0.013523,0.002678,0.000431,0.012223
10457000,0.0324,0.013523,0.002678,0.000431,0.010578
10458000,0.0324,0.013523,0.002678,0.000431,0.011518
10459000,0.0324,0.013523,0.002678,0.000431,0.011283
10460000,0.0324,0.013523,0.002678,0.000431,0.011753
10461000,0.0324,0.013523,0.002678,0.000431,0.011400
10462000,0.0324,0.013523,0.002678,0.000431,0.012105
10463000,0.0324,0.013523,0.002678,0.000431,0.011988
10464000,0.0324,0.013523,0.002678,0.000431,0.011400
10465000,0.0324,0.013523,0.002678,0.000431,0.012693
10466000,0.0324,0.013523,0.002678,0.000431,0.011518
10467000,0.0324,0.013523,0.002678,0.000431,0.010930
10468000,0.0324,0.013523,0.002678,0.000431,0.010930
10469000,0.0324,0.013523,0.002678,0.000431,0.010695
10470000,0.0324,0.013523,0.002678,0.000431,0.011048
10471000,0.0324,0.013523,0.002678,0.000431,0.012458
10472000,0.0324,0.013523,0.002678,0.000431,0.011870
10473000,0.0324,0.013523,0.002678,0.000431,0.011165
10474000,0.0324,0.013523,0.002678,0.000431,0.010578
10475000,0.0324,0.013523,0.002678,0.000431,0.010930
10476000,0.0324,0.013523,0.002678,0.000431,0.011635
10477000,0.0324,0.013523,0.002678,0.000431,0.010813
10478000,0.0324,0.013523,0.002678,0.000431,0.011870
10479000,0.0324,0.013523,0.002678,0.000431,0.010578
10480000,0.0324,0.013523,0.002678,0.000431,0.012105
10481000,0.0324,0.013523,0.002678,0.000431,0.010695
10482000,0.0324,0.013523,0.002678,0.000431,0.010813
10483000,0.0324,0.013523,0.002678,0.000431,0.011165
10484000,0.0324,0.013523,0.002678,0.000431,0.011518
10485000,0.0324,0.013523,0.002678,0.000431,0.011048
10486000,0.0324,0.013523,0.002678,0.000431,0.011635
10487000,0.0324,0.013523,0.002678,0.000431,0.011518
10488000,0.0324,0.013523,0.002678,0.000431,0.011400
10489000,0.0324,0.013523,0.002678,0.000431,0.011283
10490000,0.0324,0.013523,0.002678,0.000431,0.010813
10491000,0.0324,0.013523,0.002678,0.000431,0.011400
10492000,0.0324,0.013523,0.002678,0.000431,0.010695
10493000,0.0324,0.013523,0.002678,0.000431,0.011048
10494000,0.0324,0.013523,0.002678,0.000431,0.010930
10495000,0.0324,0.013523,0.002678,0.000431,0.011635
10496000,0.0324,0.013523,0.002678,0.000431,0.009990
10497000,0.0324,0.013523,0.002678,0.000431,0.011635
10498000,0.0324,0.013523,0.002678,0.000431,0.009402
10499000,0.0324,0.013523,0.002678,0.000431,0.010695
10500000,0.0324,0.013523,0.002678,0.000431,0.011635
10501000,0.0324,0.013523,0.002678,0.000431,0.010930
10502000,0.0324,0.013523,0.002678,0.000431,0.009520
10503000,0.0324,0.013523,0.002678,0.000431,0.010225
10504000,0.0324,0.013523,0.002678,0.000431,0.011400
10505000,0.0324,0.013523,0.002678,0.000431,0.010813
10506000,0.0324,0.013523,0.002678,0.000431,0.011048
10507000,0.0324,0.013523,0.002678,0.000431,0.011753
10508000,0.0324,0.013523,0.002678,0.000431,0.010107
10509000,0.0324,0.013523,0.002678,0.000431,0.010930
10510000,0.0324,0.013523,0.002678,0.000431,0.012105
10511000,0.0324,0.013523,0.002678,0.000431,0.010460
10512000,0.0324,0.013523,0.002678,0.000431,0.010460
10513000,0.0324,0.013523,0.002678,0.000431,0.010342
10514000,0.0324,0.013523,0.002678,0.000431,0.010460
10515000,0.0324,0.013523,0.002678,0.000431,0.010460
10516000,0.0324,0.013523,0.002678,0.000431,0.009872
10517000,0.0324,0.013523,0.002678,0.000431,0.011400
10518000,0.0324,0.013523,0.002678,0.000431,0.010225
10519000,0.0324,0.013523,0.002678,0.000431,0.009990
10520000,0.0324,0.013523,0.002678,0.000431,0.009637
10521000,0.0324,0.013523,0.002678,0.000431,0.011048
10522000,0.0324,0.013523,0.002678,0.000431,0.009990
10523000,0.0324,0.013523,0.002678,0.000431,0.009872
10524000,0.0324,0.013523,0.002678,0.000431,0.011635
10525000,0.0324,0.013523,0.002678,0.000431,0.011165
10526000,0.0324,0.013523,0.002678,0.000431,0.010342
10527000,0.0324,0.013523,0.002678,0.000431,0.010578
10528000,0.0324,0.013523,0.002678,0.000431,0.011518
10529000,0.0324,0.013523,0.002678,0.000431,0.011048
10530000,0.0324,0.013523,0.002678,0.000431,0.009990
10531000,0.0324,0.013523,0.002678,0.000431,0.010342
10532000,0.0324,0.013523,0.002678,0.000431,0.011518
10533000,0.0324,0.013523,0.002678,0.000431,0.009872
10534000,0.0324,0.013523,0.002678,0.000431,0.010695
10535000,0.0324,0.013523,0.002678,0.000431,0.010342
10536000,0.0324,0.013523,0.002678,0.000431,0.010225
10537000,0.0324,0.013523,0.002678,0.000431,0.010460
10538000,0.0324,0.013523,0.002678,0.000431,0.011048
10539000,0.0324,0.013523,0.002678,0.000431,0.010578
10540000,0.0324,0.013523,0.002678,0.000431,0.010930
10541000,0.0324,0.013523,0.002678,0.000431,0.011048
10542000,0.0324,0.013523,0.002678,0.000431,0.010107
10543000,0.0324,0.013523,0.002678,0.000431,0.011048
10544000,0.0324,0.013523,0.002678,0.000431,0.010460
10545000,0.0324,0.013523,0.002678,0.000431,0.010578
10546000,0.0324,0.013523,0.002678,0.000431,0.010460
10547000,0.0324,0.013523,0.002678,0.000431,0.011753
10548000,0.0324,0.013523,0.002678,0.000431,0.010225
10549000,0.0324,0.013523,0.002678,0.000431,0.010930
10550000,0.0324,0.013523,0.002678,0.000431,0.011753
10551000,0.0324,0.013523,0.002678,0.000431,0.009755
10552000,0.0324,0.013523,0.002678,0.000431,0.011165
10553000,0.0324,0.013523,0.002678,0.000431,0.010813
10554000,0.0324,0.013523,0.002678,0.000431,0.010930
10555000,0.0324,0.013523,0.002678,0.000431,0.010813
10556000,0.0324,0.013523,0.002678,0.000431,0.010930
10557000,0.0324,0.013523,0.002678,0.000431,0.010578
10558000,0.0324,0.013523,0.002678,0.000431,0.012105
10559000,0.0324,0.013523,0.002678,0.000431,0.010460
10560000,0.0324,0.013523,0.002678,0.000431,0.011048
10561000,0.0324,0.013523,0.002678,0.000431,0.011870
10562000,0.0324,0.013523,0.002678,0.000431,0.010813
10563000,0.0324,0.013523,0.002678,0.000431,0.010695
10564000,0.0324,0.013523,0.002678,0.000431,0.009637
10565000,0.0324,0.013523,0.002678,0.000431,0.010813
10566000,0.0324,0.013523,0.002678,0.000431,0.010930
10567000,0.0324,0.013523,0.002678,0.000431,0.009872
10568000,0.0324,0.013523,0.002678,0.000431,0.011518
10569000,0.0324,0.013523,0.002678,0.000431,0.011165
10570000,0.0324,0.013523,0.002678,0.000431,0.010695
10571000,0.0324,0.013523,0.002678,0.000431,0.010695
10572000,0.0324,0.013523,0.002678,0.000431,0.012223
10573000,0.0324,0.013523,0.002678,0.000431,0.009637
10574000,0.0324,0.013523,0.002678,0.000431,0.011400
10575000,0.0324,0.013523,0.002678,0.000431,0.009990
10576000,0.0324,0.013523,0.002678,0.000431,0.010578
10577000,0.0324,0.013523,0.002678,0.000431,0.011283
10578000,0.0324,0.013523,0.002678,0.000431,0.009755
10579000,0.0324,0.013523,0.002678,0.000431,0.011400
10580000,0.0324,0.013523,0.002678,0.000431,0.010695
10581000,0.0324,0.013523,0.002678,0.000431,0.011283
10582000,0.0324,0.013523,0.002678,0.000431,0.010578
10583000,0.0324,0.013523,0.002678,0.000431,0.010578
10584000,0.0324,0.013523,0.002678,0.000431,0.010578
10585000,0.0324,0.013523,0.002678,0.000431,0.009872
10586000,0.0324,0.013523,0.002678,0.000431,0.010342
10587000,0.0324,0.013523,0.002678,0.000431,0.010342
10588000,0.0324,0.013523,0.002678,0.000431,0.011518
10589000,0.0324,0.013523,0.002678,0.000431,0.010695
10590000,0.0324,0.013523,0.002678,0.000431,0.010107
10591000,0.0324,0.013523,0.002678,0.000431,0.010930
10592000,0.0324,0.013523,0.002678,0.000431,0.011048
10593000,0.0324,0.013523,0.002678,0.000431,0.009637
10594000,0.0324,0.013523,0.002678,0.000431,0.010225
10595000,0.0324,0.013523,0.002678,0.000431,0.011165
10596000,0.0324,0.013523,0.002678,0.000431,0.010342
10597000,0.0324,0.013523,0.002678,0.000431,0.009990
10598000,0.0324,0.013523,0.002678,0.000431,0.010930
10599000,0.0324,0.013523,0.002678,0.000431,0.011048
10600000,0.0324,0.013523,0.002678,0.000431,0.011165
10601000,0.0324,0.013523,0.002678,0.000431,0.011753
10602000,0.0324,0.013523,0.002678,0.000431,0.010930
10603000,0.0324,0.013523,0.002678,0.000431,0.012223
10604000,0.0324,0.013523,0.002678,0.000431,0.009872
10605000,0.0324,0.013523,0.002678,0.000431,0.011165
10606000,0.0324,0.013523,0.002678,0.000431,0.011048
10607000,0.0324,0.013523,0.002678,0.000431,0.011518
10608000,0.0324,0.013523,0.002678,0.000431,0.010813
10609000,0.0324,0.013523,0.002678,0.000431,0.010107
10610000,0.0324,0.013523,0.002678,0.000431,0.011400
10611000,0.0324,0.013523,0.002678,0.000431,0.011635
10612000,0.0324,0.013523,0.002678,0.000431,0.010460
10613000,0.0324,0.013523,0.002678,0.000431,0.010225
10614000,0.0324,0.013523,0.002678,0.000431,0.010460
10615000,0.0324,0.013523,0.002678,0.000431,0.010930
10616000,0.0324,0.013523,0.002678,0.000431,0.009872
10617000,0.0324,0.013523,0.002678,0.000431,0.011165
10618000,0.0324,0.013523,0.002678,0.000431,0.010930
10619000,0.0324,0.013523,0.002678,0.000431,0.009990
10620000,0.0324,0.013523,0.002678,0.000431,0.011048
10621000,0.0324,0.013523,0.002678,0.000431,0.009402
10622000,0.0324,0.013523,0.002678,0.000431,0.011753
10623000,0.0324,0.013523,0.002678,0.000431,0.010695
10624000,0.0324,0.013523,0.002678,0.000431,0.010107
10625000,0.0324,0.013523,0.002678,0.000431,0.010460
10626000,0.0324,0.013523,0.002678,0.000431,0.010930
10627000,0.0324,0.013523,0.002678,0.000431,0.010460
10628000,0.0324,0.013523,0.002678,0.000431,0.010813
10629000,0.0324,0.013523,0.002678,0.000431,0.010460
10630000,0.0324,0.013523,0.002678,0.000431,0.010578
10631000,0.0324,0.013523,0.002678,0.000431,0.010342
10632000,0.0324,0.013523,0.002678,0.000431,0.010930
10633000,0.0324,0.013523,0.002678,0.000431,0.010578
10634000,0.0324,0.013523,0.002678,0.000431,0.011518
10635000,0.0324,0.013523,0.002678,0.000431,0.011635
10636000,0.0324,0.013523,0.002678,0.000431,0.010342
10637000,0.0324,0.013523,0.002678,0.000431,0.010695
10638000,0.0324,0.013523,0.002678,0.000431,0.010460
10639000,0.0324,0.013523,0.002678,0.000431,0.010107
10640000,0.0324,0.013523,0.002678,0.000431,0.011635
10641000,0.0324,0.013523,0.002678,0.000431,0.009050
10642000,0.0324,0.013523,0.002678,0.000431,0.010460
10643000,0.0324,0.013523,0.002678,0.000431,0.010107
10644000,0.0324,0.013523,0.002678,0.000431,0.011165
10645000,0.0324,0.013523,0.002678,0.000431,0.010107
10646000,0.0324,0.013523,0.002678,0.000431,0.010342
10647000,0.0324,0.013523,0.002678,0.000431,0.010342
10648000,0.0324,0.013523,0.002678,0.000431,0.010813
10649000,0.0324,0.013523,0.002678,0.000431,0.011283
10650000,0.0324,0.013523,0.002678,0.000431,0.009872
10651000,0.0324,0.013523,0.002678,0.000431,0.011518
10652000,0.0324,0.013523,0.002678,0.000431,0.011753
10653000,0.0324,0.013523,0.002678,0.000431,0.010460
10654000,0.0324,0.013523,0.002678,0.000431,0.010225
10655000,0.0324,0.013523,0.002678,0.000431,0.011048
10656000,0.0324,0.013523,0.002678,0.000431,0.010460
10657000,0.0324,0.013523,0.002678,0.000431,0.011165
10658000,0.0324,0.013523,0.002678,0.000431,0.009990
10659000,0.0324,0.013523,0.002678,0.000431,0.010578
10660000,0.0324,0.013523,0.002678,0.000431,0.011400
10661000,0.0324,0.013523,0.002678,0.000431,0.011283
10662000,0.0324,0.013523,0.002678,0.000431,0.010695
10663000,0.0324,0.013523,0.002678,0.000431,0.011870
10664000,0.0324,0.013523,0.002678,0.000431,0.010930
10665000,0.0324,0.013523,0.002678,0.000431,0.010695
10666000,0.0324,0.013523,0.002678,0.000431,0.010813
10667000,0.0324,0.013523,0.002678,0.000431,0.010460
10668000,0.0324,0.013523,0.002678,0.000431,0.010460
10669000,0.0324,0.013523,0.002678,0.000431,0.010342
10670000,0.0324,0.013523,0.002678,0.000431,0.012458
10671000,0.0324,0.013523,0.002678,0.000431,0.010342
10672000,0.0324,0.013523,0.002678,0.000431,0.010695
10673000,0.0324,0.013523,0.002678,0.000431,0.010578
10674000,0.0324,0.013523,0.002678,0.000431,0.010578
10675000,0.0324,0.013523,0.002678,0.000431,0.010695
10676000,0.0324,0.013523,0.002678,0.000431,0.011635
10677000,0.0324,0.013523,0.002678,0.000431,0.011048
10678000,0.0324,0.013523,0.002678,0.000431,0.010342
10679000,0.0324,0.013523,0.002678,0.000431,0.010107
10680000,0.0324,0.013523,0.002678,0.000431,0.010695
10681000,0.0324,0.013523,0.002678,0.000431,0.011518
10682000,0.0324,0.013523,0.002678,0.000431,0.009285
10683000,0.0324,0.013523,0.002678,0.000431,0.010225
10684000,0.0324,0.013523,0.002678,0.000431,0.011870
10685000,0.0324,0.013523,0.002678,0.000431,0.011870
10686000,0.0324,0.013523,0.002678,0.000431,0.010107
10687000,0.0324,0.013523,0.002678,0.000431,0.011048
10688000,0.0324,0.013523,0.002678,0.000431,0.011400
10689000,0.0324,0.013523,0.002678,0.000431,0.010578
10690000,0.0324,0.013523,0.002678,0.000431,0.011400
10691000,0.0324,0.013523,0.002678,0.000431,0.010460
10692000,0.0324,0.013523,0.002678,0.000431,0.011753
10693000,0.0324,0.013523,0.002678,0.000431,0.011518
10694000,0.0324,0.013523,0.002678,0.000431,0.009402
10695000,0.0324,0.013523,0.002678,0.000431,0.009872
10696000,0.0324,0.013523,0.002678,0.000431,0.009990
10697000,0.0324,0.013523,0.002678,0.000431,0.011165
10698000,0.0324,0.013523,0.002678,0.000431,0.010460
10699000,0.0324,0.013523,0.002678,0.000431,0.011753
10700000,0.0324,0.013523,0.002678,0.000431,0.010107
10701000,0.0324,0.013523,0.002678,0.000431,0.011283
10702000,0.0324,0.013523,0.002678,0.000431,0.011283
10703000,0.0324,0.013523,0.002678,0.000431,0.010342
10704000,0.0324,0.013523,0.002678,0.000431,0.009637
10705000,0.0324,0.013523,0.002678,0.000431,0.010460
10706000,0.0324,0.013523,0.002678,0.000431,0.010695
10707000,0.0324,0.013523,0.002678,0.000431,0.011518
10708000,0.0324,0.013523,0.002678,0.000431,0.011048
10709000,0.0324,0.013523,0.002678,0.000431,0.011165
10710000,0.0324,0.013523,0.002678,0.000431,0.010578
10711000,0.0324,0.013523,0.002678,0.000431,0.010695
10712000,0.0324,0.013523,0.002678,0.000431,0.010578
10713000,0.0324,0.013523,0.002678,0.000431,0.010930
10714000,0.0324,0.013523,0.002678,0.000431,0.011518
10715000,0.0324,0.013523,0.002678,0.000431,0.011753
10716000,0.0324,0.013523,0.002678,0.000431,0.011048
10717000,0.0324,0.013523,0.002678,0.000431,0.012105
10718000,0.0324,0.013523,0.002678,0.000431,0.010813
10719000,0.0324,0.013523,0.002678,0.000431,0.010695
10720000,0.0324,0.013523,0.002678,0.000431,0.010460
10721000,0.0324,0.013523,0.002678,0.000431,0.011283
10722000,0.0324,0.013523,0.002678,0.000431,0.010695
10723000,0.0324,0.013523,0.002678,0.000431,0.010930
10724000,0.0324,0.013523,0.002678,0.000431,0.010107
10725000,0.0324,0.013523,0.002678,0.000431,0.010813
10726000,0.0324,0.013523,0.002678,0.000431,0.010578
10727000,0.0324,0.013523,0.002678,0.000431,0.010342
10728000,0.0324,0.013523,0.002678,0.000431,0.010930
10729000,0.0324,0.013523,0.002678,0.000431,0.010813
10730000,0.0324,0.013523,0.002678,0.000431,0.010695
10731000,0.0324,0.013523,0.002678,0.000431,0.010578
10732000,0.0324,0.013523,0.002678,0.000431,0.010695
10733000,0.0324,0.013523,0.002678,0.000431,0.011400
10734000,0.0324,0.013523,0.002678,0.000431,0.011048
10735000,0.0324,0.013523,0.002678,0.000431,0.010225
10736000,0.0324,0.013523,0.002678,0.000431,0.011283
10737000,0.0324,0.013523,0.002678,0.000431,0.011165
10738000,0.0324,0.013523,0.002678,0.000431,0.009637
10739000,0.0324,0.013523,0.002678,0.000431,0.011165
10740000,0.0324,0.013523,0.002678,0.000431,0.009520
10741000,0.0324,0.013523,0.002678,0.000431,0.011165
10742000,0.0324,0.013523,0.002678,0.000431,0.011400
10743000,0.0324,0.013523,0.002678,0.000431,0.010578
10744000,0.0324,0.013523,0.002678,0.000431,0.010225
10745000,0.0324,0.013523,0.002678,0.000431,0.010695
10746000,0.0324,0.013523,0.002678,0.000431,0.011283
10747000,0.0324,0.013523,0.002678,0.000431,0.010460
10748000,0.0324,0.013523,0.002678,0.000431,0.012458
10749000,0.0324,0.013523,0.002678,0.000431,0.011165
10750000,0.0324,0.013523,0.002678,0.000431,0.010930
10751000,0.0324,0.013523,0.002678,0.000431,0.010342
10752000,0.0324,0.013523,0.002678,0.000431,0.010930
10753000,0.0324,0.013523,0.002678,0.000431,0.010225
10754000,0.0324,0.013523,0.002678,0.000431,0.009637
10755000,0.0324,0.013523,0.002678,0.000431,0.010695
10756000,0.0324,0.013523,0.002678,0.000431,0.011988
10757000,0.0324,0.013523,0.002678,0.000431,0.011283
10758000,0.0324,0.013523,0.002678,0.000431,0.009990
10759000,0.0324,0.013523,0.002678,0.000431,0.011283
10760000,0.0324,0.013523,0.002678,0.000431,0.010930
10761000,0.0324,0.013523,0.002678,0.000431,0.011048
10762000,0.0324,0.013523,0.002678,0.000431,0.010813
10763000,0.0324,0.013523,0.002678,0.000431,0.010930
10764000,0.0324,0.013523,0.002678,0.000431,0.010460
10765000,0.0324,0.013523,0.002678,0.000431,0.012576
10766000,0.0324,0.013523,0.002678,0.000431,0.010695
10767000,0.0324,0.013523,0.002678,0.000431,0.010695
10768000,0.0324,0.013523,0.002678,0.000431,0.010695
10769000,0.0324,0.013523,0.002678,0.000431,0.011988
10770000,0.0324,0.013523,0.002678,0.000431,0.010930
10771000,0.0324,0.013523,0.002678,0.000431,0.010578
10772000,0.0324,0.013523,0.002678,0.000431,0.011988
10773000,0.0324,0.013523,0.002678,0.000431,0.010930
10774000,0.0324,0.013523,0.002678,0.000431,0.011518
10775000,0.0324,0.013523,0.002678,0.000431,0.010578
10776000,0.0324,0.013523,0.002678,0.000431,0.010813
10777000,0.0324,0.013523,0.002678,0.000431,0.011165
10778000,0.0324,0.013523,0.002678,0.000431,0.012105
10779000,0.0324,0.013523,0.002678,0.000431,0.010578
10780000,0.0324,0.013523,0.002678,0.000431,0.009872
10781000,0.0324,0.013523,0.002678,0.000431,0.012105
10782000,0.0324,0.013523,0.002678,0.000431,0.011165
10783000,0.0324,0.013523,0.002678,0.000431,0.010107
10784000,0.0324,0.013523,0.002678,0.000431,0.009990
10785000,0.0324,0.013523,0.002678,0.000431,0.011165
10786000,0.0324,0.013523,0.002678,0.000431,0.010695
10787000,0.0324,0.013523,0.002678,0.000431,0.009872
10788000,0.0324,0.013523,0.002678,0.000431,0.011048
10789000,0.0324,0.013523,0.002678,0.000431,0.011283
10790000,0.0324,0.013523,0.002678,0.000431,0.010342
10791000,0.0324,0.013523,0.002678,0.000431,0.009755
10792000,0.0324,0.013523,0.002678,0.000431,0.011635
10793000,0.0324,0.013523,0.002678,0.000431,0.011048
10794000,0.0324,0.013523,0.002678,0.000431,0.011400
10795000,0.0324,0.013523,0.002678,0.000431,0.010930
10796000,0.0324,0.013523,0.002678,0.000431,0.010813
10797000,0.0324,0.013523,0.002678,0.000431,0.010342
10798000,0.0324,0.013523,0.002678,0.000431,0.011988
10799000,0.0324,0.013523,0.002678,0.000431,0.009872
10800000,0.0324,0.013523,0.002678,0.000431,0.010930
10801000,0.0324,0.013523,0.002678,0.000431,0.011283
10802000,0.0324,0.013523,0.002678,0.000431,0.009755
10803000,0.0324,0.013523,0.002678,0.000431,0.010930
10804000,0.0324,0.013523,0.002678,0.000431,0.012105
10805000,0.0324,0.013523,0.002678,0.000431,0.009990
10806000,0.0324,0.013523,0.002678,0.000431,0.010578
10807000,0.0324,0.013523,0.002678,0.000431,0.010695
10808000,0.0324,0.013523,0.002678,0.000431,0.011283
10809000,0.0324,0.013523,0.002678,0.000431,0.010695
10810000,0.0324,0.013523,0.002678,0.000431,0.011635
10811000,0.0324,0.013523,0.002678,0.000431,0.010342
10812000,0.0324,0.013523,0.002678,0.000431,0.010578
10813000,0.0324,0.013523,0.002678,0.000431,0.011283
10814000,0.0324,0.013523,0.002678,0.000431,0.010813
10815000,0.0324,0.013523,0.002678,0.000431,0.012340
10816000,0.0324,0.013523,0.002678,0.000431,0.011048
10817000,0.0324,0.013523,0.002678,0.000431,0.010578
10818000,0.0324,0.013523,0.002678,0.000431,0.011870
10819000,0.0324,0.013523,0.002678,0.000431,0.010695
10820000,0.0324,0.013523,0.002678,0.000431,0.011048
10821000,0.0324,0.013523,0.002678,0.000431,0.010813
10822000,0.0324,0.013523,0.002678,0.000431,0.011048
10823000,0.0324,0.013523,0.002678,0.000431,0.009637
10824000,0.0324,0.013523,0.002678,0.000431,0.011753
10825000,0.0324,0.013523,0.002678,0.000431,0.009872
10826000,0.0324,0.013523,0.002678,0.000431,0.010813
10827000,0.0324,0.013523,0.002678,0.000431,0.011870
10828000,0.0324,0.013523,0.002678,0.000431,0.010930
10829000,0.0324,0.013523,0.002678,0.000431,0.009637
10830000,0.0324,0.013523,0.002678,0.000431,0.011400
10831000,0.0324,0.013523,0.002678,0.000431,0.010342
10832000,0.0324,0.013523,0.002678,0.000431,0.010342
10833000,0.0324,0.013523,0.002678,0.000431,0.010813
10834000,0.0324,0.013523,0.002678,0.000431,0.010578
10835000,0.0324,0.013523,0.002678,0.000431,0.011048
10836000,0.0324,0.013523,0.002678,0.000431,0.010695
10837000,0.0324,0.013523,0.002678,0.000431,0.011518
10838000,0.0324,0.013523,0.002678,0.000431,0.009872
10839000,0.0324,0.013523,0.002678,0.000431,0.010813
10840000,0.0324,0.013523,0.002678,0.000431,0.010342
10841000,0.0324,0.013523,0.002678,0.000431,0.011635
10842000,0.0324,0.013523,0.002678,0.000431,0.010460
10843000,0.0324,0.013523,0.002678,0.000431,0.011283
10844000,0.0324,0.013523,0.002678,0.000431,0.011048
10845000,0.0324,0.013523,0.002678,0.000431,0.011753
10846000,0.0324,0.013523,0.002678,0.000431,0.010107
10847000,0.0324,0.013523,0.002678,0.000431,0.010460
10848000,0.0324,0.013523,0.002678,0.000431,0.010813
10849000,0.0324,0.013523,0.002678,0.000431,0.010930
10850000,0.0324,0.013523,0.002678,0.000431,0.011165
10851000,0.0324,0.013523,0.002678,0.000431,0.010578
10852000,0.0324,0.013523,0.002678,0.000431,0.011635
10853000,0.0324,0.013523,0.002678,0.000431,0.010225
10854000,0.0324,0.013523,0.002678,0.000431,0.011400
10855000,0.0324,0.013523,0.002678,0.000431,0.011048
10856000,0.0324,0.013523,0.002678,0.000431,0.011165
10857000,0.0324,0.013523,0.002678,0.000431,0.009637
10858000,0.0324,0.013523,0.002678,0.000431,0.010695
10859000,0.0324,0.013523,0.002678,0.000431,0.011518
10860000,0.0324,0.013523,0.002678,0.000431,0.011165
10861000,0.0324,0.013523,0.002678,0.000431,0.010695
10862000,0.0324,0.013523,0.002678,0.000431,0.010460
10863000,0.0324,0.013523,0.002678,0.000431,0.010813
10864000,0.0324,0.013523,0.002678,0.000431,0.011400
10865000,0.0324,0.013523,0.002678,0.000431,0.009990
10866000,0.0324,0.013523,0.002678,0.000431,0.010695
10867000,0.0324,0.013523,0.002678,0.000431,0.011870
10868000,0.0324,0.013523,0.002678,0.000431,0.011518
10869000,0.0324,0.013523,0.002678,0.000431,0.010578
10870000,0.0324,0.013523,0.002678,0.000431,0.009872
10871000,0.0324,0.013523,0.002678,0.000431,0.011988
10872000,0.0324,0.013523,0.002678,0.000431,0.010930
10873000,0.0324,0.013523,0.002678,0.000431,0.011518
10874000,0.0324,0.013523,0.002678,0.000431,0.009755
10875000,0.0324,0.013523,0.002678,0.000431,0.010695
10876000,0.0324,0.013523,0.002678,0.000431,0.010460
10877000,0.0324,0.013523,0.002678,0.000431,0.010460
10878000,0.0324,0.013523,0.002678,0.000431,0.010578
10879000,0.0324,0.013523,0.002678,0.000431,0.011283
10880000,0.0324,0.013523,0.002678,0.000431,0.009872
10881000,0.0324,0.013523,0.002678,0.000431,0.010578
10882000,0.0324,0.013523,0.002678,0.000431,0.010930
10883000,0.0324,0.013523,0.002678,0.000431,0.010695
10884000,0.0324,0.013523,0.002678,0.000431,0.010695
10885000,0.0324,0.013523,0.002678,0.000431,0.009755
10886000,0.0324,0.013523,0.002678,0.000431,0.011753
10887000,0.0324,0.013523,0.002678,0.000431,0.010460
10888000,0.0324,0.013523,0.002678,0.000431,0.010460
10889000,0.0324,0.013523,0.002678,0.000431,0.010930
10890000,0.0324,0.013523,0.002678,0.000431,0.010930
10891000,0.0324,0.013523,0.002678,0.000431,0.011165
10892000,0.0324,0.013523,0.002678,0.000431,0.010695
10893000,0.0324,0.013523,0.002678,0.000431,0.009872
10894000,0.0324,0.013523,0.002678,0.000431,0.009990
10895000,0.0324,0.013523,0.002678,0.000431,0.011635
10896000,0.0324,0.013523,0.002678,0.000431,0.009520
10897000,0.0324,0.013523,0.002678,0.000431,0.011048
10898000,0.0324,0.013523,0.002678,0.000431,0.010813
10899000,0.0324,0.013523,0.002678,0.000431,0.009872
10900000,0.0324,0.013523,0.002678,0.000431,0.010460
10901000,0.0324,0.013523,0.002678,0.000431,0.011518
10902000,0.0324,0.013523,0.002678,0.000431,0.010225
10903000,0.0324,0.013523,0.002678,0.000431,0.010695
10904000,0.0324,0.013523,0.002678,0.000431,0.011518
10905000,0.0324,0.013523,0.002678,0.000431,0.011048
10906000,0.0324,0.013523,0.002678,0.000431,0.011518
10907000,0.0324,0.013523,0.002678,0.000431,0.009755
10908000,0.0324,0.013523,0.002678,0.000431,0.011518
10909000,0.0324,0.013523,0.002678,0.000431,0.010225
10910000,0.0324,0.013523,0.002678,0.000431,0.010695
10911000,0.0324,0.013523,0.002678,0.000431,0.010225
10912000,0.0324,0.013523,0.002678,0.000431,0.011518
10913000,0.0324,0.013523,0.002678,0.000431,0.009990
10914000,0.0324,0.013523,0.002678,0.000431,0.011283
10915000,0.0324,0.013523,0.002678,0.000431,0.010107
10916000,0.0324,0.013523,0.002678,0.000431,0.011048
10917000,0.0324,0.013523,0.002678,0.000431,0.010695
10918000,0.0324,0.013523,0.002678,0.000431,0.011048
10919000,0.0324,0.013523,0.002678,0.000431,0.010107
10920000,0.0324,0.013523,0.002678,0.000431,0.010460
10921000,0.0324,0.013523,0.002678,0.000431,0.011635
10922000,0.0324,0.013523,0.002678,0.000431,0.010578
10923000,0.0324,0.013523,0.002678,0.000431,0.010930
10924000,0.0324,0.013523,0.002678,0.000431,0.010930
10925000,0.0324,0.013523,0.002678,0.000431,0.011283
10926000,0.0324,0.013523,0.002678,0.000431,0.010813
10927000,0.0324,0.013523,0.002678,0.000431,0.009990
10928000,0.0324,0.013523,0.002678,0.000431,0.010342
10929000,0.0324,0.013523,0.002678,0.000431,0.009755
10930000,0.0324,0.013523,0.002678,0.000431,0.010695
10931000,0.0324,0.013523,0.002678,0.000431,0.010813
10932000,0.0324,0.013523,0.002678,0.000431,0.009872
10933000,0.0324,0.013523,0.002678,0.000431,0.009755
10934000,0.0324,0.013523,0.002678,0.000431,0.010813
10935000,0.0324,0.013523,0.002678,0.000431,0.010342
10936000,0.0324,0.013523,0.002678,0.000431,0.011400
10937000,0.0324,0.013523,0.002678,0.000431,0.010342
10938000,0.0324,0.013523,0.002678,0.000431,0.011048
10939000,0.0324,0.013523,0.002678,0.000431,0.010460
10940000,0.0324,0.013523,0.002678,0.000431,0.010342
10941000,0.0324,0.013523,0.002678,0.000431,0.010695
10942000,0.0324,0.013523,0.002678,0.000431,0.010460
10943000,0.0324,0.013523,0.002678,0.000431,0.010225
10944000,0.0324,0.013523,0.002678,0.000431,0.009637
10945000,0.0324,0.013523,0.002678,0.000431,0.011048
10946000,0.0324,0.013523,0.002678,0.000431,0.010578
10947000,0.0324,0.013523,0.002678,0.000431,0.009872
10948000,0.0324,0.013523,0.002678,0.000431,0.009990
10949000,0.0324,0.013523,0.002678,0.000431,0.010930
10950000,0.0324,0.013523,0.002678,0.000431,0.009990
10951000,0.0324,0.013523,0.002678,0.000431,0.009990
10952000,0.0324,0.013523,0.002678,0.000431,0.010225
10953000,0.0324,0.013523,0.002678,0.000431,0.010813
10954000,0.0324,0.013523,0.002678,0.000431,0.010107
10955000,0.0324,0.013523,0.002678,0.000431,0.011165
10956000,0.0324,0.013523,0.002678,0.000431,0.010460
10957000,0.0324,0.013523,0.002678,0.000431,0.009755
10958000,0.0324,0.013523,0.002678,0.000431,0.009755
10959000,0.0324,0.013523,0.002678,0.000431,0.010695
10960000,0.0324,0.013523,0.002678,0.000431,0.011048
10961000,0.0324,0.013523,0.002678,0.000431,0.011048
10962000,0.0324,0.013523,0.002678,0.000431,0.009637
10963000,0.0324,0.013523,0.002678,0.000431,0.010225
10964000,0.0324,0.013523,0.002678,0.000431,0.010813
10965000,0.0324,0.013523,0.002678,0.000431,0.009755
10966000,0.0324,0.013523,0.002678,0.000431,0.009402
10967000,0.0324,0.013523,0.002678,0.000431,0.010460
10968000,0.0324,0.013523,0.002678,0.000431,0.009872
10969000,0.0324,0.013523,0.002678,0.000431,0.010225
10970000,0.0324,0.013523,0.002678,0.000431,0.009990
10971000,0.0324,0.013523,0.002678,0.000431,0.010107
10972000,0.0324,0.013523,0.002678,0.000431,0.010695
10973000,0.0324,0.013523,0.002678,0.000431,0.008815
10974000,0.0324,0.013523,0.002678,0.000431,0.010460
10975000,0.0324,0.013523,0.002678,0.000431,0.009872
10976000,0.0324,0.013523,0.002678,0.000431,0.010225
10977000,0.0324,0.013523,0.002678,0.000431,0.009755
10978000,0.0324,0.013523,0.002678,0.000431,0.010342
10979000,0.0324,0.013523,0.002678,0.000431,0.009872
10980000,0.0324,0.013523,0.002678,0.000431,0.009872
10981000,0.0324,0.013523,0.002678,0.000431,0.009872
10982000,0.0324,0.013523,0.002678,0.000431,0.009637
10983000,0.0324,0.013523,0.002678,0.000431,0.009755
10984000,0.0324,0.013523,0.002678,0.000431,0.010342
10985000,0.0324,0.013523,0.002678,0.000431,0.009755
10986000,0.0324,0.013523,0.002678,0.000431,0.009755
10987000,0.0324,0.013523,0.002678,0.000431,0.010342
10988000,0.0324,0.013523,0.002678,0.000431,0.010342
10989000,0.0324,0.013523,0.002678,0.000431,0.010107
10990000,0.0324,0.013523,0.002678,0.000431,0.010107
10991000,0.0324,0.013523,0.002678,0.000431,0.010695
10992000,0.0324,0.013523,0.002678,0.000431,0.009990
10993000,0.0324,0.013523,0.002678,0.000431,0.010342
10994000,0.0324,0.013523,0.002678,0.000431,0.010342
10995000,0.0324,0.013523,0.002678,0.000431,0.009050
10996000,0.0324,0.013523,0.002678,0.000431,0.009637
10997000,0.0324,0.013523,0.002678,0.000431,0.010107
10998000,0.0324,0.013523,0.002678,0.000431,0.011048
10999000,0.0324,0.013523,0.002678,0.000431,0.008815
