Cycle,Area(mm^2),PeakDynamic(W),SubthresholdLeakage(W),GateLeakage(W),RunTimeDynamic(W)
4000000,0.0324,0.013523,0.002678,0.000431,1.581224
4001000,0.0324,0.013523,0.002678,0.000431,1.621654
4002000,0.0324,0.013523,0.002678,0.000431,1.521755
4003000,0.0324,0.013523,0.002678,0.000431,1.520697
4004000,0.0324,0.013523,0.002678,0.000431,1.442893
4005000,0.0324,0.013523,0.002678,0.000431,1.389771
4006000,0.0324,0.013523,0.002678,0.000431,1.357098
4007000,0.0324,0.013523,0.002678,0.000431,1.239570
4008000,0.0324,0.013523,0.002678,0.000431,1.296101
4009000,0.0324,0.013523,0.002678,0.000431,1.240980
4010000,0.0324,0.013523,0.002678,0.000431,1.169876
4011000,0.0324,0.013523,0.002678,0.000431,1.089016
4012000,0.0324,0.013523,0.002678,0.000431,1.042710
4013000,0.0324,0.013523,0.002678,0.000431,1.053758
4014000,0.0324,0.013523,0.002678,0.000431,1.002045
4015000,0.0324,0.013523,0.002678,0.000431,0.965376
4016000,0.0324,0.013523,0.002678,0.000431,1.026726
4017000,0.0324,0.013523,0.002678,0.000431,1.128153
4018000,0.0324,0.013523,0.002678,0.000431,0.993818
4019000,0.0324,0.013523,0.002678,0.000431,1.042122
4020000,0.0324,0.013523,0.002678,0.000431,1.034836
4021000,0.0324,0.013523,0.002678,0.000431,1.100064
4022000,0.0324,0.013523,0.002678,0.000431,1.019910
4023000,0.0324,0.013523,0.002678,0.000431,1.045766
4024000,0.0324,0.013523,0.002678,0.000431,1.087606
4025000,0.0324,0.013523,0.002678,0.000431,1.020732
4026000,0.0324,0.013523,0.002678,0.000431,1.011918
4027000,0.0324,0.013523,0.002678,0.000431,0.987002
4028000,0.0324,0.013523,0.002678,0.000431,1.004748
4029000,0.0324,0.013523,0.002678,0.000431,0.942458
4030000,0.0324,0.013523,0.002678,0.000431,0.969020
4031000,0.0324,0.013523,0.002678,0.000431,0.966082
4032000,0.0324,0.013523,0.002678,0.000431,0.994288
4033000,0.0324,0.013523,0.002678,0.000431,1.002398
4034000,0.0324,0.013523,0.002678,0.000431,0.926827
4035000,0.0324,0.013523,0.002678,0.000431,0.940931
4036000,0.0324,0.013523,0.002678,0.000431,0.930118
4037000,0.0324,0.013523,0.002678,0.000431,0.979715
4038000,0.0324,0.013523,0.002678,0.000431,0.959265
4039000,0.0324,0.013523,0.002678,0.000431,1.013798
4040000,0.0324,0.013523,0.002678,0.000431,0.958442
4041000,0.0324,0.013523,0.002678,0.000431,0.945044
4042000,0.0324,0.013523,0.002678,0.000431,0.958795
4043000,0.0324,0.013523,0.002678,0.000431,0.969490
4044000,0.0324,0.013523,0.002678,0.000431,0.906965
4045000,0.0324,0.013523,0.002678,0.000431,0.937992
4046000,0.0324,0.013523,0.002678,0.000431,0.936935
4047000,0.0324,0.013523,0.002678,0.000431,0.953506
4048000,0.0324,0.013523,0.002678,0.000431,0.955857
4049000,0.0324,0.013523,0.002678,0.000431,0.932351
4050000,0.0324,0.013523,0.002678,0.000431,0.963026
4051000,0.0324,0.013523,0.002678,0.000431,1.013093
4052000,0.0324,0.013523,0.002678,0.000431,1.039772
4053000,0.0324,0.013523,0.002678,0.000431,0.965494
4054000,0.0324,0.013523,0.002678,0.000431,1.233106
4055000,0.0324,0.013523,0.002678,0.000431,1.222293
4056000,0.0324,0.013523,0.002678,0.000431,1.183626
4057000,0.0324,0.013523,0.002678,0.000431,1.179748
4058000,0.0324,0.013523,0.002678,0.000431,1.212538
4059000,0.0324,0.013523,0.002678,0.000431,1.248149
4060000,0.0324,0.013523,0.002678,0.000431,1.297629
4061000,0.0324,0.013523,0.002678,0.000431,1.290930
4062000,0.0324,0.013523,0.002678,0.000431,1.376255
4063000,0.0324,0.013523,0.002678,0.000431,1.420798
4064000,0.0324,0.013523,0.002678,0.000431,1.424912
4065000,0.0324,0.013523,0.002678,0.000431,1.497074
4066000,0.0324,0.013523,0.002678,0.000431,1.449005
4067000,0.0324,0.013523,0.002678,0.000431,1.482148
4068000,0.0324,0.013523,0.002678,0.000431,1.557601
4069000,0.0324,0.013523,0.002678,0.000431,1.648450
4070000,0.0324,0.013523,0.002678,0.000431,1.612604
4071000,0.0324,0.013523,0.002678,0.000431,1.691348
4072000,0.0324,0.013523,0.002678,0.000431,1.767859
4073000,0.0324,0.013523,0.002678,0.000431,1.633054
4074000,0.0324,0.013523,0.002678,0.000431,1.622829
4075000,0.0324,0.013523,0.002678,0.000431,1.718497
4076000,0.0324,0.013523,0.002678,0.000431,1.732130
4077000,0.0324,0.013523,0.002678,0.000431,1.620714
4078000,0.0324,0.013523,0.002678,0.000431,1.632349
4079000,0.0324,0.013523,0.002678,0.000431,1.676422
4080000,0.0324,0.013523,0.002678,0.000431,1.760690
4081000,0.0324,0.013523,0.002678,0.000431,1.745176
4082000,0.0324,0.013523,0.002678,0.000431,1.683591
4083000,0.0324,0.013523,0.002678,0.000431,1.798651
4084000,0.0324,0.013523,0.002678,0.000431,1.761512
4085000,0.0324,0.013523,0.002678,0.000431,1.760337
4086000,0.0324,0.013523,0.002678,0.000431,1.828033
4087000,0.0324,0.013523,0.002678,0.000431,1.860824
4088000,0.0324,0.013523,0.002678,0.000431,1.910773
4089000,0.0324,0.013523,0.002678,0.000431,1.979057
4090000,0.0324,0.013523,0.002678,0.000431,1.936159
4091000,0.0324,0.013523,0.002678,0.000431,1.939215
4092000,0.0324,0.013523,0.002678,0.000431,1.865760
4093000,0.0324,0.013523,0.002678,0.000431,1.855652
4094000,0.0324,0.013523,0.002678,0.000431,1.830384
4095000,0.0324,0.013523,0.002678,0.000431,2.004443
4096000,0.0324,0.013523,0.002678,0.000431,1.958960
4097000,0.0324,0.013523,0.002678,0.000431,1.969890
4098000,0.0324,0.013523,0.002678,0.000431,2.075313
4099000,0.0324,0.013523,0.002678,0.000431,2.005736
4100000,0.0324,0.013523,0.002678,0.000431,1.969537
4101000,0.0324,0.013523,0.002678,0.000431,1.834850
4102000,0.0324,0.013523,0.002678,0.000431,1.773500
4103000,0.0324,0.013523,0.002678,0.000431,1.711680
4104000,0.0324,0.013523,0.002678,0.000431,1.592272
4105000,0.0324,0.013523,0.002678,0.000431,1.539854
4106000,0.0324,0.013523,0.002678,0.000431,1.453471
4107000,0.0324,0.013523,0.002678,0.000431,1.435724
4108000,0.0324,0.013523,0.002678,0.000431,1.420093
4109000,0.0324,0.013523,0.002678,0.000431,1.334533
4110000,0.0324,0.013523,0.002678,0.000431,1.259785
4111000,0.0324,0.013523,0.002678,0.000431,1.217357
4112000,0.0324,0.013523,0.002678,0.000431,1.205487
4113000,0.0324,0.013523,0.002678,0.000431,1.318784
4114000,0.0324,0.013523,0.002678,0.000431,1.214419
4115000,0.0324,0.013523,0.002678,0.000431,1.178690
4116000,0.0324,0.013523,0.002678,0.000431,1.244859
4117000,0.0324,0.013523,0.002678,0.000431,1.194321
4118000,0.0324,0.013523,0.002678,0.000431,1.196084
4119000,0.0324,0.013523,0.002678,0.000431,1.152011
4120000,0.0324,0.013523,0.002678,0.000431,1.107938
4121000,0.0324,0.013523,0.002678,0.000431,1.115225
4122000,0.0324,0.013523,0.002678,0.000431,1.038949
4123000,0.0324,0.013523,0.002678,0.000431,1.116283
4124000,0.0324,0.013523,0.002678,0.000431,1.085255
4125000,0.0324,0.013523,0.002678,0.000431,1.106528
4126000,0.0324,0.013523,0.002678,0.000431,1.100299
4127000,0.0324,0.013523,0.002678,0.000431,1.046471
4128000,0.0324,0.013523,0.002678,0.000431,1.040242
4129000,0.0324,0.013523,0.002678,0.000431,1.017912
4130000,0.0324,0.013523,0.002678,0.000431,0.963261
4131000,0.0324,0.013523,0.002678,0.000431,0.972428
4132000,0.0324,0.013523,0.002678,0.000431,1.053758
4133000,0.0324,0.013523,0.002678,0.000431,1.018617
4134000,0.0324,0.013523,0.002678,0.000431,0.984886
4135000,0.0324,0.013523,0.002678,0.000431,1.022260
4136000,0.0324,0.013523,0.002678,0.000431,1.017912
4137000,0.0324,0.013523,0.002678,0.000431,0.982536
4138000,0.0324,0.013523,0.002678,0.000431,1.105470
4139000,0.0324,0.013523,0.002678,0.000431,1.150601
4140000,0.0324,0.013523,0.002678,0.000431,1.015679
4141000,0.0324,0.013523,0.002678,0.000431,1.170463
4142000,0.0324,0.013523,0.002678,0.000431,1.186565
4143000,0.0324,0.013523,0.002678,0.000431,1.284348
4144000,0.0324,0.013523,0.002678,0.000431,1.293515
4145000,0.0324,0.013523,0.002678,0.000431,1.423149
4146000,0.0324,0.013523,0.002678,0.000431,1.410338
4147000,0.0324,0.013523,0.002678,0.000431,1.480503
4148000,0.0324,0.013523,0.002678,0.000431,1.461228
4149000,0.0324,0.013523,0.002678,0.000431,1.418565
4150000,0.0324,0.013523,0.002678,0.000431,1.415157
4151000,0.0324,0.013523,0.002678,0.000431,1.312202
4152000,0.0324,0.013523,0.002678,0.000431,1.329244
4153000,0.0324,0.013523,0.002678,0.000431,1.296101
4154000,0.0324,0.013523,0.002678,0.000431,1.293868
4155000,0.0324,0.013523,0.002678,0.000431,1.324190
4156000,0.0324,0.013523,0.002678,0.000431,1.505418
4157000,0.0324,0.013523,0.002678,0.000431,1.461933
4158000,0.0324,0.013523,0.002678,0.000431,1.492843
4159000,0.0324,0.013523,0.002678,0.000431,1.607668
4160000,0.0324,0.013523,0.002678,0.000431,1.619538
4161000,0.0324,0.013523,0.002678,0.000431,1.614132
4162000,0.0324,0.013523,0.002678,0.000431,1.589569
4163000,0.0324,0.013523,0.002678,0.000431,1.539032
4164000,0.0324,0.013523,0.002678,0.000431,1.587806
4165000,0.0324,0.013523,0.002678,0.000431,1.575700
4166000,0.0324,0.013523,0.002678,0.000431,1.550079
4167000,0.0324,0.013523,0.002678,0.000431,1.519757
4168000,0.0324,0.013523,0.002678,0.000431,1.458407
4169000,0.0324,0.013523,0.002678,0.000431,1.417978
4170000,0.0324,0.013523,0.002678,0.000431,1.424559
4171000,0.0324,0.013523,0.002678,0.000431,1.330889
4172000,0.0324,0.013523,0.002678,0.000431,1.191148
4173000,0.0324,0.013523,0.002678,0.000431,1.169876
4174000,0.0324,0.013523,0.002678,0.000431,1.152364
4175000,0.0324,0.013523,0.002678,0.000431,1.244741
4176000,0.0324,0.013523,0.002678,0.000431,1.109701
4177000,0.0324,0.013523,0.002678,0.000431,1.218297
4178000,0.0324,0.013523,0.002678,0.000431,1.369673
4179000,0.0324,0.013523,0.002678,0.000431,1.289167
4180000,0.0324,0.013523,0.002678,0.000431,1.334533
4181000,0.0324,0.013523,0.002678,0.000431,1.296453
4182000,0.0324,0.013523,0.002678,0.000431,1.325013
4183000,0.0324,0.013523,0.002678,0.000431,1.477447
4184000,0.0324,0.013523,0.002678,0.000431,1.423971
4185000,0.0324,0.013523,0.002678,0.000431,1.507652
4186000,0.0324,0.013523,0.002678,0.000431,1.563595
4187000,0.0324,0.013523,0.002678,0.000431,1.673719
4188000,0.0324,0.013523,0.002678,0.000431,1.761277
4189000,0.0324,0.013523,0.002678,0.000431,1.762570
4190000,0.0324,0.013523,0.002678,0.000431,1.727312
4191000,0.0324,0.013523,0.002678,0.000431,1.770445
4192000,0.0324,0.013523,0.002678,0.000431,1.660673
4193000,0.0324,0.013523,0.002678,0.000431,1.649626
4194000,0.0324,0.013523,0.002678,0.000431,1.752698
4195000,0.0324,0.013523,0.002678,0.000431,1.746351
4196000,0.0324,0.013523,0.002678,0.000431,1.607198
4197000,0.0324,0.013523,0.002678,0.000431,1.606493
4198000,0.0324,0.013523,0.002678,0.000431,1.539854
4199000,0.0324,0.013523,0.002678,0.000431,1.507064
4200000,0.0324,0.013523,0.002678,0.000431,1.575348
4201000,0.0324,0.013523,0.002678,0.000431,1.461698
4202000,0.0324,0.013523,0.002678,0.000431,1.467222
4203000,0.0324,0.013523,0.002678,0.000431,1.477094
4204000,0.0324,0.013523,0.002678,0.000431,1.484263
4205000,0.0324,0.013523,0.002678,0.000431,1.526809
4206000,0.0324,0.013523,0.002678,0.000431,1.462873
4207000,0.0324,0.013523,0.002678,0.000431,1.504948
4208000,0.0324,0.013523,0.002678,0.000431,1.472158
4209000,0.0324,0.013523,0.002678,0.000431,1.443246
4210000,0.0324,0.013523,0.002678,0.000431,1.357333
4211000,0.0324,0.013523,0.002678,0.000431,1.359919
4212000,0.0324,0.013523,0.002678,0.000431,1.231930
4213000,0.0324,0.013523,0.002678,0.000431,1.278472
4214000,0.0324,0.013523,0.002678,0.000431,1.389301
4215000,0.0324,0.013523,0.002678,0.000431,1.214536
4216000,0.0324,0.013523,0.002678,0.000431,1.377195
4217000,0.0324,0.013523,0.002678,0.000431,1.377900
4218000,0.0324,0.013523,0.002678,0.000431,1.411396
4219000,0.0324,0.013523,0.002678,0.000431,1.320077
4220000,0.0324,0.013523,0.002678,0.000431,1.397410
4221000,0.0324,0.013523,0.002678,0.000431,1.421386
4222000,0.0324,0.013523,0.002678,0.000431,1.470278
4223000,0.0324,0.013523,0.002678,0.000431,1.438780
4224000,0.0324,0.013523,0.002678,0.000431,1.418213
4225000,0.0324,0.013523,0.002678,0.000431,1.464049
4226000,0.0324,0.013523,0.002678,0.000431,1.392944
4227000,0.0324,0.013523,0.002678,0.000431,1.352749
4228000,0.0324,0.013523,0.002678,0.000431,1.320664
4229000,0.0324,0.013523,0.002678,0.000431,1.297159
4230000,0.0324,0.013523,0.002678,0.000431,1.270362
4231000,0.0324,0.013523,0.002678,0.000431,1.178573
4232000,0.0324,0.013523,0.002678,0.000431,1.138143
4233000,0.0324,0.013523,0.002678,0.000431,1.120866
4234000,0.0324,0.013523,0.002678,0.000431,1.076793
4235000,0.0324,0.013523,0.002678,0.000431,1.136615
4236000,0.0324,0.013523,0.002678,0.000431,1.025786
4237000,0.0324,0.013523,0.002678,0.000431,1.130386
4238000,0.0324,0.013523,0.002678,0.000431,1.165527
4239000,0.0324,0.013523,0.002678,0.000431,1.162119
4240000,0.0324,0.013523,0.002678,0.000431,1.188210
4241000,0.0324,0.013523,0.002678,0.000431,1.178808
4242000,0.0324,0.013523,0.002678,0.000431,1.232753
4243000,0.0324,0.013523,0.002678,0.000431,1.217945
4244000,0.0324,0.013523,0.002678,0.000431,1.366383
4245000,0.0324,0.013523,0.002678,0.000431,1.277884
4246000,0.0324,0.013523,0.002678,0.000431,1.330654
4247000,0.0324,0.013523,0.002678,0.000431,1.369673
4248000,0.0324,0.013523,0.002678,0.000431,1.318431
4249000,0.0324,0.013523,0.002678,0.000431,1.241333
4250000,0.0324,0.013523,0.002678,0.000431,1.249795
4251000,0.0324,0.013523,0.002678,0.000431,1.230403
4252000,0.0324,0.013523,0.002678,0.000431,1.152951
4253000,0.0324,0.013523,0.002678,0.000431,1.087841
4254000,0.0324,0.013523,0.002678,0.000431,1.142727
4255000,0.0324,0.013523,0.002678,0.000431,1.062572
4256000,0.0324,0.013523,0.002678,0.000431,1.002633
4257000,0.0324,0.013523,0.002678,0.000431,1.041417
4258000,0.0324,0.013523,0.002678,0.000431,1.095950
4259000,0.0324,0.013523,0.002678,0.000431,0.963261
4260000,0.0324,0.013523,0.002678,0.000431,0.967139
4261000,0.0324,0.013523,0.002678,0.000431,0.944927
4262000,0.0324,0.013523,0.002678,0.000431,1.036246
4263000,0.0324,0.013523,0.002678,0.000431,1.062337
4264000,0.0324,0.013523,0.002678,0.000431,0.980655
4265000,0.0324,0.013523,0.002678,0.000431,1.013563
4266000,0.0324,0.013523,0.002678,0.000431,0.976894
4267000,0.0324,0.013523,0.002678,0.000431,1.008509
4268000,0.0324,0.013523,0.002678,0.000431,1.045061
4269000,0.0324,0.013523,0.002678,0.000431,0.982653
4270000,0.0324,0.013523,0.002678,0.000431,1.117811
4271000,0.0324,0.013523,0.002678,0.000431,1.017324
4272000,0.0324,0.013523,0.002678,0.000431,1.038832
4273000,0.0324,0.013523,0.002678,0.000431,1.110641
4274000,0.0324,0.013523,0.002678,0.000431,1.109701
4275000,0.0324,0.013523,0.002678,0.000431,1.234046
4276000,0.0324,0.013523,0.002678,0.000431,1.273653
4277000,0.0324,0.013523,0.002678,0.000431,1.357215
4278000,0.0324,0.013523,0.002678,0.000431,1.413747
4279000,0.0324,0.013523,0.002678,0.000431,1.244153
4280000,0.0324,0.013523,0.002678,0.000431,1.374610
4281000,0.0324,0.013523,0.002678,0.000431,1.284230
4282000,0.0324,0.013523,0.002678,0.000431,1.206192
4283000,0.0324,0.013523,0.002678,0.000431,1.201608
4284000,0.0324,0.013523,0.002678,0.000431,1.168700
4285000,0.0324,0.013523,0.002678,0.000431,1.198670
4286000,0.0324,0.013523,0.002678,0.000431,1.133559
4287000,0.0324,0.013523,0.002678,0.000431,1.193381
4288000,0.0324,0.013523,0.002678,0.000431,1.271185
4289000,0.0324,0.013523,0.002678,0.000431,1.238630
4290000,0.0324,0.013523,0.002678,0.000431,1.170933
4291000,0.0324,0.013523,0.002678,0.000431,1.184802
4292000,0.0324,0.013523,0.002678,0.000431,1.104765
4293000,0.0324,0.013523,0.002678,0.000431,1.217122
4294000,0.0324,0.013523,0.002678,0.000431,1.274241
4295000,0.0324,0.013523,0.002678,0.000431,1.264721
4296000,0.0324,0.013523,0.002678,0.000431,1.327481
4297000,0.0324,0.013523,0.002678,0.000431,1.378253
4298000,0.0324,0.013523,0.002678,0.000431,1.402699
4299000,0.0324,0.013523,0.002678,0.000431,1.420916
4300000,0.0324,0.013523,0.002678,0.000431,1.442071
4301000,0.0324,0.013523,0.002678,0.000431,1.464989
4302000,0.0324,0.013523,0.002678,0.000431,1.457232
4303000,0.0324,0.013523,0.002678,0.000431,1.413276
4304000,0.0324,0.013523,0.002678,0.000431,1.464636
4305000,0.0324,0.013523,0.002678,0.000431,1.471923
4306000,0.0324,0.013523,0.002678,0.000431,1.421973
4307000,0.0324,0.013523,0.002678,0.000431,1.359919
4308000,0.0324,0.013523,0.002678,0.000431,1.393414
4309000,0.0324,0.013523,0.002678,0.000431,1.409280
4310000,0.0324,0.013523,0.002678,0.000431,1.437957
4311000,0.0324,0.013523,0.002678,0.000431,1.463578
4312000,0.0324,0.013523,0.002678,0.000431,1.468632
4313000,0.0324,0.013523,0.002678,0.000431,1.506476
4314000,0.0324,0.013523,0.002678,0.000431,1.504008
4315000,0.0324,0.013523,0.002678,0.000431,1.489787
4316000,0.0324,0.013523,0.002678,0.000431,1.418213
4317000,0.0324,0.013523,0.002678,0.000431,1.603555
4318000,0.0324,0.013523,0.002678,0.000431,1.396352
4319000,0.0324,0.013523,0.002678,0.000431,1.361211
4320000,0.0324,0.013523,0.002678,0.000431,1.328656
4321000,0.0324,0.013523,0.002678,0.000431,1.295043
4322000,0.0324,0.013523,0.002678,0.000431,1.243448
4323000,0.0324,0.013523,0.002678,0.000431,1.184919
4324000,0.0324,0.013523,0.002678,0.000431,1.229697
4325000,0.0324,0.013523,0.002678,0.000431,1.158710
4326000,0.0324,0.013523,0.002678,0.000431,1.159651
4327000,0.0324,0.013523,0.002678,0.000431,1.137203
4328000,0.0324,0.013523,0.002678,0.000431,1.157300
4329000,0.0324,0.013523,0.002678,0.000431,1.181981
4330000,0.0324,0.013523,0.002678,0.000431,1.173284
4331000,0.0324,0.013523,0.002678,0.000431,1.198317
4332000,0.0324,0.013523,0.002678,0.000431,1.205016
4333000,0.0324,0.013523,0.002678,0.000431,1.190796
4334000,0.0324,0.013523,0.002678,0.000431,1.232753
4335000,0.0324,0.013523,0.002678,0.000431,1.167525
4336000,0.0324,0.013523,0.002678,0.000431,1.097243
4337000,0.0324,0.013523,0.002678,0.000431,1.148250
4338000,0.0324,0.013523,0.002678,0.000431,1.193734
4339000,0.0324,0.013523,0.002678,0.000431,1.206779
4340000,0.0324,0.013523,0.002678,0.000431,1.234046
4341000,0.0324,0.013523,0.002678,0.000431,1.357451
4342000,0.0324,0.013523,0.002678,0.000431,1.319371
4343000,0.0324,0.013523,0.002678,0.000431,1.345228
4344000,0.0324,0.013523,0.002678,0.000431,1.405402
4345000,0.0324,0.013523,0.002678,0.000431,1.476036
4346000,0.0324,0.013523,0.002678,0.000431,1.478034
4347000,0.0324,0.013523,0.002678,0.000431,1.521637
4348000,0.0324,0.013523,0.002678,0.000431,1.591449
4349000,0.0324,0.013523,0.002678,0.000431,1.609078
4350000,0.0324,0.013523,0.002678,0.000431,1.475096
4351000,0.0324,0.013523,0.002678,0.000431,1.542087
4352000,0.0324,0.013523,0.002678,0.000431,1.581342
4353000,0.0324,0.013523,0.002678,0.000431,1.479327
4354000,0.0324,0.013523,0.002678,0.000431,1.384835
4355000,0.0324,0.013523,0.002678,0.000431,1.381896
4356000,0.0324,0.013523,0.002678,0.000431,1.333357
4357000,0.0324,0.013523,0.002678,0.000431,1.399173
4358000,0.0324,0.013523,0.002678,0.000431,1.289167
4359000,0.0324,0.013523,0.002678,0.000431,1.295278
4360000,0.0324,0.013523,0.002678,0.000431,1.213243
4361000,0.0324,0.013523,0.002678,0.000431,1.235691
4362000,0.0324,0.013523,0.002678,0.000431,1.287521
4363000,0.0324,0.013523,0.002678,0.000431,1.321722
4364000,0.0324,0.013523,0.002678,0.000431,1.264486
4365000,0.0324,0.013523,0.002678,0.000431,1.341702
4366000,0.0324,0.013523,0.002678,0.000431,1.441013
4367000,0.0324,0.013523,0.002678,0.000431,1.436665
4368000,0.0324,0.013523,0.002678,0.000431,1.370026
4369000,0.0324,0.013523,0.002678,0.000431,1.419505
4370000,0.0324,0.013523,0.002678,0.000431,1.351104
4371000,0.0324,0.013523,0.002678,0.000431,1.272360
4372000,0.0324,0.013523,0.002678,0.000431,1.178103
4373000,0.0324,0.013523,0.002678,0.000431,1.176222
4374000,0.0324,0.013523,0.002678,0.000431,1.160121
4375000,0.0324,0.013523,0.002678,0.000431,1.206074
4376000,0.0324,0.013523,0.002678,0.000431,1.170346
4377000,0.0324,0.013523,0.002678,0.000431,1.196084
4378000,0.0324,0.013523,0.002678,0.000431,1.285758
4379000,0.0324,0.013523,0.002678,0.000431,1.211833
4380000,0.0324,0.013523,0.002678,0.000431,1.241685
4381000,0.0324,0.013523,0.002678,0.000431,1.150131
4382000,0.0324,0.013523,0.002678,0.000431,1.212656
4383000,0.0324,0.013523,0.002678,0.000431,1.147428
4384000,0.0324,0.013523,0.002678,0.000431,1.250735
4385000,0.0324,0.013523,0.002678,0.000431,1.332417
4386000,0.0324,0.013523,0.002678,0.000431,1.214654
4387000,0.0324,0.013523,0.002678,0.000431,1.363797
4388000,0.0324,0.013523,0.002678,0.000431,1.361564
4389000,0.0324,0.013523,0.002678,0.000431,1.510002
4390000,0.0324,0.013523,0.002678,0.000431,1.525633
4391000,0.0324,0.013523,0.002678,0.000431,1.546201
4392000,0.0324,0.013523,0.002678,0.000431,1.539854
4393000,0.0324,0.013523,0.002678,0.000431,1.570999
4394000,0.0324,0.013523,0.002678,0.000431,1.572645
4395000,0.0324,0.013523,0.002678,0.000431,1.605317
4396000,0.0324,0.013523,0.002678,0.000431,1.531745
4397000,0.0324,0.013523,0.002678,0.000431,1.598031
4398000,0.0324,0.013523,0.002678,0.000431,1.546083
4399000,0.0324,0.013523,0.002678,0.000431,1.489670
4400000,0.0324,0.013523,0.002678,0.000431,1.550784
4401000,0.0324,0.013523,0.002678,0.000431,1.604847
4402000,0.0324,0.013523,0.002678,0.000431,1.605317
4403000,0.0324,0.013523,0.002678,0.000431,1.471805
4404000,0.0324,0.013523,0.002678,0.000431,1.503421
4405000,0.0324,0.013523,0.002678,0.000431,1.432786
4406000,0.0324,0.013523,0.002678,0.000431,1.462168
4407000,0.0324,0.013523,0.002678,0.000431,1.516701
4408000,0.0324,0.013523,0.002678,0.000431,1.410221
4409000,0.0324,0.013523,0.002678,0.000431,1.339234
4410000,0.0324,0.013523,0.002678,0.000431,1.295278
4411000,0.0324,0.013523,0.002678,0.000431,1.262840
4412000,0.0324,0.013523,0.002678,0.000431,1.187035
4413000,0.0324,0.013523,0.002678,0.000431,1.151659
4414000,0.0324,0.013523,0.002678,0.000431,1.194909
4415000,0.0324,0.013523,0.002678,0.000431,1.118868
4416000,0.0324,0.013523,0.002678,0.000431,1.197025
4417000,0.0324,0.013523,0.002678,0.000431,1.318901
4418000,0.0324,0.013523,0.002678,0.000431,1.288814
4419000,0.0324,0.013523,0.002678,0.000431,1.355335
4420000,0.0324,0.013523,0.002678,0.000431,1.368146
4421000,0.0324,0.013523,0.002678,0.000431,1.282350
4422000,0.0324,0.013523,0.002678,0.000431,1.288109
4423000,0.0324,0.013523,0.002678,0.000431,1.257669
4424000,0.0324,0.013523,0.002678,0.000431,1.149308
4425000,0.0324,0.013523,0.002678,0.000431,1.064218
4426000,0.0324,0.013523,0.002678,0.000431,0.994288
4427000,0.0324,0.013523,0.002678,0.000431,1.030135
4428000,0.0324,0.013523,0.002678,0.000431,1.022495
4429000,0.0324,0.013523,0.002678,0.000431,1.012740
4430000,0.0324,0.013523,0.002678,0.000431,0.975601
4431000,0.0324,0.013523,0.002678,0.000431,0.901089
4432000,0.0324,0.013523,0.002678,0.000431,0.939638
4433000,0.0324,0.013523,0.002678,0.000431,0.972898
4434000,0.0324,0.013523,0.002678,0.000431,0.901441
4435000,0.0324,0.013523,0.002678,0.000431,0.890394
4436000,0.0324,0.013523,0.002678,0.000431,0.965141
4437000,0.0324,0.013523,0.002678,0.000431,1.031192
4438000,0.0324,0.013523,0.002678,0.000431,1.065511
4439000,0.0324,0.013523,0.002678,0.000431,1.202548
4440000,0.0324,0.013523,0.002678,0.000431,1.205604
4441000,0.0324,0.013523,0.002678,0.000431,1.405402
4442000,0.0324,0.013523,0.002678,0.000431,1.390358
4443000,0.0324,0.013523,0.002678,0.000431,1.533273
4444000,0.0324,0.013523,0.002678,0.000431,1.547611
4445000,0.0324,0.013523,0.002678,0.000431,1.577698
4446000,0.0324,0.013523,0.002678,0.000431,1.666315
4447000,0.0324,0.013523,0.002678,0.000431,1.765273
4448000,0.0324,0.013523,0.002678,0.000431,1.672426
4449000,0.0324,0.013523,0.002678,0.000431,1.643749
4450000,0.0324,0.013523,0.002678,0.000431,1.692758
4451000,0.0324,0.013523,0.002678,0.000431,1.713091
4452000,0.0324,0.013523,0.002678,0.000431,1.606845
4453000,0.0324,0.013523,0.002678,0.000431,1.557013
4454000,0.0324,0.013523,0.002678,0.000431,1.457702
4455000,0.0324,0.013523,0.002678,0.000431,1.465929
4456000,0.0324,0.013523,0.002678,0.000431,1.326070
4457000,0.0324,0.013523,0.002678,0.000431,1.363915
4458000,0.0324,0.013523,0.002678,0.000431,1.387303
4459000,0.0324,0.013523,0.002678,0.000431,1.275181
4460000,0.0324,0.013523,0.002678,0.000431,1.231695
4461000,0.0324,0.013523,0.002678,0.000431,1.175517
4462000,0.0324,0.013523,0.002678,0.000431,1.181511
4463000,0.0324,0.013523,0.002678,0.000431,1.171638
4464000,0.0324,0.013523,0.002678,0.000431,1.218532
4465000,0.0324,0.013523,0.002678,0.000431,1.061279
4466000,0.0324,0.013523,0.002678,0.000431,1.064805
4467000,0.0324,0.013523,0.002678,0.000431,1.127800
4468000,0.0324,0.013523,0.002678,0.000431,1.078556
4469000,0.0324,0.013523,0.002678,0.000431,1.008157
4470000,0.0324,0.013523,0.002678,0.000431,1.042357
4471000,0.0324,0.013523,0.002678,0.000431,1.126860
4472000,0.0324,0.013523,0.002678,0.000431,1.001223
4473000,0.0324,0.013523,0.002678,0.000431,0.996639
4474000,0.0324,0.013523,0.002678,0.000431,1.105588
4475000,0.0324,0.013523,0.002678,0.000431,1.119338
4476000,0.0324,0.013523,0.002678,0.000431,1.181511
4477000,0.0324,0.013523,0.002678,0.000431,1.203841
4478000,0.0324,0.013523,0.002678,0.000431,1.231460
4479000,0.0324,0.013523,0.002678,0.000431,1.309617
4480000,0.0324,0.013523,0.002678,0.000431,1.244741
4481000,0.0324,0.013523,0.002678,0.000431,1.297981
4482000,0.0324,0.013523,0.002678,0.000431,1.409751
4483000,0.0324,0.013523,0.002678,0.000431,1.462168
4484000,0.0324,0.013523,0.002678,0.000431,1.398703
4485000,0.0324,0.013523,0.002678,0.000431,1.361682
4486000,0.0324,0.013523,0.002678,0.000431,1.474979
4487000,0.0324,0.013523,0.002678,0.000431,1.513645
4488000,0.0324,0.013523,0.002678,0.000431,1.625415
4489000,0.0324,0.013523,0.002678,0.000431,1.555368
4490000,0.0324,0.013523,0.002678,0.000431,1.454176
4491000,0.0324,0.013523,0.002678,0.000431,1.374257
4492000,0.0324,0.013523,0.002678,0.000431,1.305033
4493000,0.0324,0.013523,0.002678,0.000431,1.225701
4494000,0.0324,0.013523,0.002678,0.000431,1.188092
4495000,0.0324,0.013523,0.002678,0.000431,1.132149
4496000,0.0324,0.013523,0.002678,0.000431,1.075030
4497000,0.0324,0.013523,0.002678,0.000431,1.199258
4498000,0.0324,0.013523,0.002678,0.000431,1.195379
4499000,0.0324,0.013523,0.002678,0.000431,1.201726
4500000,0.0324,0.013523,0.002678,0.000431,1.141316
4501000,0.0324,0.013523,0.002678,0.000431,1.158828
4502000,0.0324,0.013523,0.002678,0.000431,1.181276
4503000,0.0324,0.013523,0.002678,0.000431,1.200903
4504000,0.0324,0.013523,0.002678,0.000431,1.163411
4505000,0.0324,0.013523,0.002678,0.000431,1.161061
4506000,0.0324,0.013523,0.002678,0.000431,1.057048
4507000,0.0324,0.013523,0.002678,0.000431,1.074090
4508000,0.0324,0.013523,0.002678,0.000431,1.113227
4509000,0.0324,0.013523,0.002678,0.000431,1.113109
4510000,0.0324,0.013523,0.002678,0.000431,1.038949
4511000,0.0324,0.013523,0.002678,0.000431,1.066686
4512000,0.0324,0.013523,0.002678,0.000431,1.020262
4513000,0.0324,0.013523,0.002678,0.000431,0.962086
4514000,0.0324,0.013523,0.002678,0.000431,1.129328
4515000,0.0324,0.013523,0.002678,0.000431,1.150013
4516000,0.0324,0.013523,0.002678,0.000431,1.061279
4517000,0.0324,0.013523,0.002678,0.000431,1.167055
4518000,0.0324,0.013523,0.002678,0.000431,1.131209
4519000,0.0324,0.013523,0.002678,0.000431,1.113580
4520000,0.0324,0.013523,0.002678,0.000431,1.221353
4521000,0.0324,0.013523,0.002678,0.000431,1.111817
4522000,0.0324,0.013523,0.002678,0.000431,1.113697
4523000,0.0324,0.013523,0.002678,0.000431,1.119809
4524000,0.0324,0.013523,0.002678,0.000431,1.093835
4525000,0.0324,0.013523,0.002678,0.000431,1.003338
4526000,0.0324,0.013523,0.002678,0.000431,1.050937
4527000,0.0324,0.013523,0.002678,0.000431,1.212421
4528000,0.0324,0.013523,0.002678,0.000431,1.119456
4529000,0.0324,0.013523,0.002678,0.000431,1.020497
4530000,0.0324,0.013523,0.002678,0.000431,1.120514
4531000,0.0324,0.013523,0.002678,0.000431,1.200315
4532000,0.0324,0.013523,0.002678,0.000431,1.372964
4533000,0.0324,0.013523,0.002678,0.000431,1.352984
4534000,0.0324,0.013523,0.002678,0.000431,1.291047
4535000,0.0324,0.013523,0.002678,0.000431,1.399643
4536000,0.0324,0.013523,0.002678,0.000431,1.333240
4537000,0.0324,0.013523,0.002678,0.000431,1.514351
4538000,0.0324,0.013523,0.002678,0.000431,1.382484
4539000,0.0324,0.013523,0.002678,0.000431,1.387185
4540000,0.0324,0.013523,0.002678,0.000431,1.372494
4541000,0.0324,0.013523,0.002678,0.000431,1.446184
4542000,0.0324,0.013523,0.002678,0.000431,1.395647
4543000,0.0324,0.013523,0.002678,0.000431,1.345228
4544000,0.0324,0.013523,0.002678,0.000431,1.324778
4545000,0.0324,0.013523,0.002678,0.000431,1.364032
4546000,0.0324,0.013523,0.002678,0.000431,1.199023
4547000,0.0324,0.013523,0.002678,0.000431,1.173871
4548000,0.0324,0.013523,0.002678,0.000431,1.120984
4549000,0.0324,0.013523,0.002678,0.000431,1.047176
4550000,0.0324,0.013523,0.002678,0.000431,1.065863
4551000,0.0324,0.013523,0.002678,0.000431,1.266131
4552000,0.0324,0.013523,0.002678,0.000431,1.036364
4553000,0.0324,0.013523,0.002678,0.000431,1.002986
4554000,0.0324,0.013523,0.002678,0.000431,1.078791
4555000,0.0324,0.013523,0.002678,0.000431,1.025316
4556000,0.0324,0.013523,0.002678,0.000431,1.127565
4557000,0.0324,0.013523,0.002678,0.000431,1.160356
4558000,0.0324,0.013523,0.002678,0.000431,1.072562
4559000,0.0324,0.013523,0.002678,0.000431,1.186212
4560000,0.0324,0.013523,0.002678,0.000431,1.190560
4561000,0.0324,0.013523,0.002678,0.000431,1.259314
4562000,0.0324,0.013523,0.002678,0.000431,1.292810
4563000,0.0324,0.013523,0.002678,0.000431,1.194792
4564000,0.0324,0.013523,0.002678,0.000431,1.137555
4565000,0.0324,0.013523,0.002678,0.000431,1.264251
4566000,0.0324,0.013523,0.002678,0.000431,1.212773
4567000,0.0324,0.013523,0.002678,0.000431,1.092542
4568000,0.0324,0.013523,0.002678,0.000431,1.080319
4569000,0.0324,0.013523,0.002678,0.000431,1.086783
4570000,0.0324,0.013523,0.002678,0.000431,1.075383
4571000,0.0324,0.013523,0.002678,0.000431,1.055756
4572000,0.0324,0.013523,0.002678,0.000431,1.010272
4573000,0.0324,0.013523,0.002678,0.000431,0.998637
4574000,0.0324,0.013523,0.002678,0.000431,1.045413
4575000,0.0324,0.013523,0.002678,0.000431,1.099006
4576000,0.0324,0.013523,0.002678,0.000431,1.098301
4577000,0.0324,0.013523,0.002678,0.000431,1.120749
4578000,0.0324,0.013523,0.002678,0.000431,1.178220
4579000,0.0324,0.013523,0.002678,0.000431,1.256141
4580000,0.0324,0.013523,0.002678,0.000431,1.161296
4581000,0.0324,0.013523,0.002678,0.000431,1.266719
4582000,0.0324,0.013523,0.002678,0.000431,1.233693
4583000,0.0324,0.013523,0.002678,0.000431,1.215359
4584000,0.0324,0.013523,0.002678,0.000431,1.224409
4585000,0.0324,0.013523,0.002678,0.000431,1.244036
4586000,0.0324,0.013523,0.002678,0.000431,1.347696
4587000,0.0324,0.013523,0.002678,0.000431,1.450768
4588000,0.0324,0.013523,0.002678,0.000431,1.351692
4589000,0.0324,0.013523,0.002678,0.000431,1.371201
4590000,0.0324,0.013523,0.002678,0.000431,1.393767
4591000,0.0324,0.013523,0.002678,0.000431,1.339116
4592000,0.0324,0.013523,0.002678,0.000431,1.231108
4593000,0.0324,0.013523,0.002678,0.000431,1.264133
4594000,0.0324,0.013523,0.002678,0.000431,1.197142
4595000,0.0324,0.013523,0.002678,0.000431,1.093247
4596000,0.0324,0.013523,0.002678,0.000431,1.015561
4597000,0.0324,0.013523,0.002678,0.000431,1.070564
4598000,0.0324,0.013523,0.002678,0.000431,1.009685
4599000,0.0324,0.013523,0.002678,0.000431,0.943751
4600000,0.0324,0.013523,0.002678,0.000431,0.873117
4601000,0.0324,0.013523,0.002678,0.000431,0.824930
4602000,0.0324,0.013523,0.002678,0.000431,0.730908
4603000,0.0324,0.013523,0.002678,0.000431,0.750653
4604000,0.0324,0.013523,0.002678,0.000431,0.832570
4605000,0.0324,0.013523,0.002678,0.000431,0.818819
4606000,0.0324,0.013523,0.002678,0.000431,0.847966
4607000,0.0324,0.013523,0.002678,0.000431,0.978422
4608000,0.0324,0.013523,0.002678,0.000431,0.940578
4609000,0.0324,0.013523,0.002678,0.000431,0.974661
4610000,0.0324,0.013523,0.002678,0.000431,1.076911
4611000,0.0324,0.013523,0.002678,0.000431,1.179278
4612000,0.0324,0.013523,0.002678,0.000431,1.215124
4613000,0.0324,0.013523,0.002678,0.000431,1.162001
4614000,0.0324,0.013523,0.002678,0.000431,1.152129
4615000,0.0324,0.013523,0.002678,0.000431,1.167995
4616000,0.0324,0.013523,0.002678,0.000431,1.178573
4617000,0.0324,0.013523,0.002678,0.000431,1.049057
4618000,0.0324,0.013523,0.002678,0.000431,1.008392
4619000,0.0324,0.013523,0.002678,0.000431,0.989000
4620000,0.0324,0.013523,0.002678,0.000431,0.960558
4621000,0.0324,0.013523,0.002678,0.000431,0.947865
4622000,0.0324,0.013523,0.002678,0.000431,0.933996
4623000,0.0324,0.013523,0.002678,0.000431,0.922596
4624000,0.0324,0.013523,0.002678,0.000431,1.037891
4625000,0.0324,0.013523,0.002678,0.000431,0.965376
4626000,0.0324,0.013523,0.002678,0.000431,0.976072
4627000,0.0324,0.013523,0.002678,0.000431,1.004631
4628000,0.0324,0.013523,0.002678,0.000431,0.909786
4629000,0.0324,0.013523,0.002678,0.000431,0.930236
4630000,0.0324,0.013523,0.002678,0.000431,1.025081
4631000,0.0324,0.013523,0.002678,0.000431,0.912724
4632000,0.0324,0.013523,0.002678,0.000431,0.971723
4633000,0.0324,0.013523,0.002678,0.000431,0.994759
4634000,0.0324,0.013523,0.002678,0.000431,0.914604
4635000,0.0324,0.013523,0.002678,0.000431,0.890864
4636000,0.0324,0.013523,0.002678,0.000431,0.971370
4637000,0.0324,0.013523,0.002678,0.000431,0.855018
4638000,0.0324,0.013523,0.002678,0.000431,0.964789
4639000,0.0324,0.013523,0.002678,0.000431,0.947630
4640000,0.0324,0.013523,0.002678,0.000431,1.008509
4641000,0.0324,0.013523,0.002678,0.000431,1.107468
4642000,0.0324,0.013523,0.002678,0.000431,1.258257
4643000,0.0324,0.013523,0.002678,0.000431,1.252028
4644000,0.0324,0.013523,0.002678,0.000431,1.146605
4645000,0.0324,0.013523,0.002678,0.000431,1.202078
4646000,0.0324,0.013523,0.002678,0.000431,1.089251
4647000,0.0324,0.013523,0.002678,0.000431,0.908728
4648000,0.0324,0.013523,0.002678,0.000431,0.944104
4649000,0.0324,0.013523,0.002678,0.000431,0.882519
4650000,0.0324,0.013523,0.002678,0.000431,0.859601
4651000,0.0324,0.013523,0.002678,0.000431,0.838329
4652000,0.0324,0.013523,0.002678,0.000431,0.814705
4653000,0.0324,0.013523,0.002678,0.000431,0.717627
4654000,0.0324,0.013523,0.002678,0.000431,0.745364
4655000,0.0324,0.013523,0.002678,0.000431,0.626073
4656000,0.0324,0.013523,0.002678,0.000431,0.716452
4657000,0.0324,0.013523,0.002678,0.000431,0.962203
4658000,0.0324,0.013523,0.002678,0.000431,0.951156
4659000,0.0324,0.013523,0.002678,0.000431,0.840327
4660000,0.0324,0.013523,0.002678,0.000431,0.966552
4661000,0.0324,0.013523,0.002678,0.000431,0.984534
4662000,0.0324,0.013523,0.002678,0.000431,0.785558
4663000,0.0324,0.013523,0.002678,0.000431,0.681076
4664000,0.0324,0.013523,0.002678,0.000431,0.614202
4665000,0.0324,0.013523,0.002678,0.000431,0.489740
4666000,0.0324,0.013523,0.002678,0.000431,0.387255
4667000,0.0324,0.013523,0.002678,0.000431,0.316386
4668000,0.0324,0.013523,0.002678,0.000431,0.270197
4669000,0.0324,0.013523,0.002678,0.000431,0.216369
4670000,0.0324,0.013523,0.002678,0.000431,0.181699
4671000,0.0324,0.013523,0.002678,0.000431,0.161601
4672000,0.0324,0.013523,0.002678,0.000431,0.147263
4673000,0.0324,0.013523,0.002678,0.000431,0.131632
4674000,0.0324,0.013523,0.002678,0.000431,0.114472
4675000,0.0324,0.013523,0.002678,0.000431,0.103542
4676000,0.0324,0.013523,0.002678,0.000431,0.094258
4677000,0.0324,0.013523,0.002678,0.000431,0.087558
4678000,0.0324,0.013523,0.002678,0.000431,0.081800
4679000,0.0324,0.013523,0.002678,0.000431,0.074983
4680000,0.0324,0.013523,0.002678,0.000431,0.076628
4681000,0.0324,0.013523,0.002678,0.000431,0.070752
4682000,0.0324,0.013523,0.002678,0.000431,0.067696
4683000,0.0324,0.013523,0.002678,0.000431,0.066168
4684000,0.0324,0.013523,0.002678,0.000431,0.060997
4685000,0.0324,0.013523,0.002678,0.000431,0.059469
4686000,0.0324,0.013523,0.002678,0.000431,0.057001
4687000,0.0324,0.013523,0.002678,0.000431,0.053828
4688000,0.0324,0.013523,0.002678,0.000431,0.055238
4689000,0.0324,0.013523,0.002678,0.000431,0.050185
4690000,0.0324,0.013523,0.002678,0.000431,0.053240
4691000,0.0324,0.013523,0.002678,0.000431,0.050537
4692000,0.0324,0.013523,0.002678,0.000431,0.050302
4693000,0.0324,0.013523,0.002678,0.000431,0.049597
4694000,0.0324,0.013523,0.002678,0.000431,0.048892
4695000,0.0324,0.013523,0.002678,0.000431,0.047599
4696000,0.0324,0.013523,0.002678,0.000431,0.049244
4697000,0.0324,0.013523,0.002678,0.000431,0.048892
4698000,0.0324,0.013523,0.002678,0.000431,0.049714
4699000,0.0324,0.013523,0.002678,0.000431,0.049832
4700000,0.0324,0.013523,0.002678,0.000431,0.050302
4701000,0.0324,0.013523,0.002678,0.000431,0.048657
4702000,0.0324,0.013523,0.002678,0.000431,0.053005
4703000,0.0324,0.013523,0.002678,0.000431,0.045836
4704000,0.0324,0.013523,0.002678,0.000431,0.047599
4705000,0.0324,0.013523,0.002678,0.000431,0.050302
4706000,0.0324,0.013523,0.002678,0.000431,0.047599
4707000,0.0324,0.013523,0.002678,0.000431,0.049362
4708000,0.0324,0.013523,0.002678,0.000431,0.049832
4709000,0.0324,0.013523,0.002678,0.000431,0.050772
4710000,0.0324,0.013523,0.002678,0.000431,0.047481
4711000,0.0324,0.013523,0.002678,0.000431,0.048187
4712000,0.0324,0.013523,0.002678,0.000431,0.050302
4713000,0.0324,0.013523,0.002678,0.000431,0.046659
4714000,0.0324,0.013523,0.002678,0.000431,0.047951
4715000,0.0324,0.013523,0.002678,0.000431,0.048774
4716000,0.0324,0.013523,0.002678,0.000431,0.047011
4717000,0.0324,0.013523,0.002678,0.000431,0.048539
4718000,0.0324,0.013523,0.002678,0.000431,0.046189
4719000,0.0324,0.013523,0.002678,0.000431,0.047129
4720000,0.0324,0.013523,0.002678,0.000431,0.045718
4721000,0.0324,0.013523,0.002678,0.000431,0.047011
4722000,0.0324,0.013523,0.002678,0.000431,0.047246
4723000,0.0324,0.013523,0.002678,0.000431,0.046541
4724000,0.0324,0.013523,0.002678,0.000431,0.046541
4725000,0.0324,0.013523,0.002678,0.000431,0.047834
4726000,0.0324,0.013523,0.002678,0.000431,0.045601
4727000,0.0324,0.013523,0.002678,0.000431,0.046424
4728000,0.0324,0.013523,0.002678,0.000431,0.046894
4729000,0.0324,0.013523,0.002678,0.000431,0.047011
4730000,0.0324,0.013523,0.002678,0.000431,0.046424
4731000,0.0324,0.013523,0.002678,0.000431,0.048892
4732000,0.0324,0.013523,0.002678,0.000431,0.046306
4733000,0.0324,0.013523,0.002678,0.000431,0.047011
4734000,0.0324,0.013523,0.002678,0.000431,0.046541
4735000,0.0324,0.013523,0.002678,0.000431,0.049244
4736000,0.0324,0.013523,0.002678,0.000431,0.048539
4737000,0.0324,0.013523,0.002678,0.000431,0.043838
4738000,0.0324,0.013523,0.002678,0.000431,0.049009
4739000,0.0324,0.013523,0.002678,0.000431,0.047364
4740000,0.0324,0.013523,0.002678,0.000431,0.049127
4741000,0.0324,0.013523,0.002678,0.000431,0.048069
4742000,0.0324,0.013523,0.002678,0.000431,0.046424
4743000,0.0324,0.013523,0.002678,0.000431,0.046306
4744000,0.0324,0.013523,0.002678,0.000431,0.049127
4745000,0.0324,0.013523,0.002678,0.000431,0.047716
4746000,0.0324,0.013523,0.002678,0.000431,0.047129
4747000,0.0324,0.013523,0.002678,0.000431,0.047011
4748000,0.0324,0.013523,0.002678,0.000431,0.047481
4749000,0.0324,0.013523,0.002678,0.000431,0.048774
4750000,0.0324,0.013523,0.002678,0.000431,0.045601
4751000,0.0324,0.013523,0.002678,0.000431,0.046189
4752000,0.0324,0.013523,0.002678,0.000431,0.046306
4753000,0.0324,0.013523,0.002678,0.000431,0.048774
4754000,0.0324,0.013523,0.002678,0.000431,0.045366
4755000,0.0324,0.013523,0.002678,0.000431,0.048892
4756000,0.0324,0.013523,0.002678,0.000431,0.049244
4757000,0.0324,0.013523,0.002678,0.000431,0.045718
4758000,0.0324,0.013523,0.002678,0.000431,0.047364
4759000,0.0324,0.013523,0.002678,0.000431,0.046541
4760000,0.0324,0.013523,0.002678,0.000431,0.047129
4761000,0.0324,0.013523,0.002678,0.000431,0.048422
4762000,0.0324,0.013523,0.002678,0.000431,0.047599
4763000,0.0324,0.013523,0.002678,0.000431,0.047129
4764000,0.0324,0.013523,0.002678,0.000431,0.047011
4765000,0.0324,0.013523,0.002678,0.000431,0.048657
4766000,0.0324,0.013523,0.002678,0.000431,0.046659
4767000,0.0324,0.013523,0.002678,0.000431,0.049362
4768000,0.0324,0.013523,0.002678,0.000431,0.050185
4769000,0.0324,0.013523,0.002678,0.000431,0.046071
4770000,0.0324,0.013523,0.002678,0.000431,0.049362
4771000,0.0324,0.013523,0.002678,0.000431,0.048069
4772000,0.0324,0.013523,0.002678,0.000431,0.047716
4773000,0.0324,0.013523,0.002678,0.000431,0.050890
4774000,0.0324,0.013523,0.002678,0.000431,0.047716
4775000,0.0324,0.013523,0.002678,0.000431,0.047834
4776000,0.0324,0.013523,0.002678,0.000431,0.046776
4777000,0.0324,0.013523,0.002678,0.000431,0.047011
4778000,0.0324,0.013523,0.002678,0.000431,0.045248
4779000,0.0324,0.013523,0.002678,0.000431,0.047951
4780000,0.0324,0.013523,0.002678,0.000431,0.047716
4781000,0.0324,0.013523,0.002678,0.000431,0.047951
4782000,0.0324,0.013523,0.002678,0.000431,0.046541
4783000,0.0324,0.013523,0.002678,0.000431,0.047599
4784000,0.0324,0.013523,0.002678,0.000431,0.046659
4785000,0.0324,0.013523,0.002678,0.000431,0.047364
4786000,0.0324,0.013523,0.002678,0.000431,0.044543
4787000,0.0324,0.013523,0.002678,0.000431,0.048539
4788000,0.0324,0.013523,0.002678,0.000431,0.047246
4789000,0.0324,0.013523,0.002678,0.000431,0.051477
4790000,0.0324,0.013523,0.002678,0.000431,0.047599
4791000,0.0324,0.013523,0.002678,0.000431,0.046071
4792000,0.0324,0.013523,0.002678,0.000431,0.046306
4793000,0.0324,0.013523,0.002678,0.000431,0.046894
4794000,0.0324,0.013523,0.002678,0.000431,0.045366
4795000,0.0324,0.013523,0.002678,0.000431,0.044661
4796000,0.0324,0.013523,0.002678,0.000431,0.046659
4797000,0.0324,0.013523,0.002678,0.000431,0.050067
4798000,0.0324,0.013523,0.002678,0.000431,0.049244
4799000,0.0324,0.013523,0.002678,0.000431,0.046541
4800000,0.0324,0.013523,0.002678,0.000431,0.045131
4801000,0.0324,0.013523,0.002678,0.000431,0.046776
4802000,0.0324,0.013523,0.002678,0.000431,0.046424
4803000,0.0324,0.013523,0.002678,0.000431,0.048304
4804000,0.0324,0.013523,0.002678,0.000431,0.046071
4805000,0.0324,0.013523,0.002678,0.000431,0.046776
4806000,0.0324,0.013523,0.002678,0.000431,0.047834
4807000,0.0324,0.013523,0.002678,0.000431,0.049362
4808000,0.0324,0.013523,0.002678,0.000431,0.047481
4809000,0.0324,0.013523,0.002678,0.000431,0.043720
4810000,0.0324,0.013523,0.002678,0.000431,0.047951
4811000,0.0324,0.013523,0.002678,0.000431,0.046659
4812000,0.0324,0.013523,0.002678,0.000431,0.048187
4813000,0.0324,0.013523,0.002678,0.000431,0.044308
4814000,0.0324,0.013523,0.002678,0.000431,0.047129
4815000,0.0324,0.013523,0.002678,0.000431,0.047951
4816000,0.0324,0.013523,0.002678,0.000431,0.048187
4817000,0.0324,0.013523,0.002678,0.000431,0.045836
4818000,0.0324,0.013523,0.002678,0.000431,0.045718
4819000,0.0324,0.013523,0.002678,0.000431,0.044896
4820000,0.0324,0.013523,0.002678,0.000431,0.049127
4821000,0.0324,0.013523,0.002678,0.000431,0.046424
4822000,0.0324,0.013523,0.002678,0.000431,0.046541
4823000,0.0324,0.013523,0.002678,0.000431,0.049714
4824000,0.0324,0.013523,0.002678,0.000431,0.044778
4825000,0.0324,0.013523,0.002678,0.000431,0.047599
4826000,0.0324,0.013523,0.002678,0.000431,0.045718
4827000,0.0324,0.013523,0.002678,0.000431,0.045366
4828000,0.0324,0.013523,0.002678,0.000431,0.043250
4829000,0.0324,0.013523,0.002678,0.000431,0.045131
4830000,0.0324,0.013523,0.002678,0.000431,0.049127
4831000,0.0324,0.013523,0.002678,0.000431,0.044778
4832000,0.0324,0.013523,0.002678,0.000431,0.045954
4833000,0.0324,0.013523,0.002678,0.000431,0.045954
4834000,0.0324,0.013523,0.002678,0.000431,0.044661
4835000,0.0324,0.013523,0.002678,0.000431,0.046189
4836000,0.0324,0.013523,0.002678,0.000431,0.046424
4837000,0.0324,0.013523,0.002678,0.000431,0.047834
4838000,0.0324,0.013523,0.002678,0.000431,0.047834
4839000,0.0324,0.013523,0.002678,0.000431,0.044778
4840000,0.0324,0.013523,0.002678,0.000431,0.047246
4841000,0.0324,0.013523,0.002678,0.000431,0.045836
4842000,0.0324,0.013523,0.002678,0.000431,0.045131
4843000,0.0324,0.013523,0.002678,0.000431,0.043720
4844000,0.0324,0.013523,0.002678,0.000431,0.046776
4845000,0.0324,0.013523,0.002678,0.000431,0.046424
4846000,0.0324,0.013523,0.002678,0.000431,0.049714
4847000,0.0324,0.013523,0.002678,0.000431,0.044896
4848000,0.0324,0.013523,0.002678,0.000431,0.047951
4849000,0.0324,0.013523,0.002678,0.000431,0.047011
4850000,0.0324,0.013523,0.002678,0.000431,0.048422
4851000,0.0324,0.013523,0.002678,0.000431,0.046071
4852000,0.0324,0.013523,0.002678,0.000431,0.046894
4853000,0.0324,0.013523,0.002678,0.000431,0.048069
4854000,0.0324,0.013523,0.002678,0.000431,0.047834
4855000,0.0324,0.013523,0.002678,0.000431,0.045718
4856000,0.0324,0.013523,0.002678,0.000431,0.048069
4857000,0.0324,0.013523,0.002678,0.000431,0.047951
4858000,0.0324,0.013523,0.002678,0.000431,0.048657
4859000,0.0324,0.013523,0.002678,0.000431,0.044073
4860000,0.0324,0.013523,0.002678,0.000431,0.046424
4861000,0.0324,0.013523,0.002678,0.000431,0.046424
4862000,0.0324,0.013523,0.002678,0.000431,0.047834
4863000,0.0324,0.013523,0.002678,0.000431,0.046071
4864000,0.0324,0.013523,0.002678,0.000431,0.045131
4865000,0.0324,0.013523,0.002678,0.000431,0.046306
4866000,0.0324,0.013523,0.002678,0.000431,0.044661
4867000,0.0324,0.013523,0.002678,0.000431,0.047246
4868000,0.0324,0.013523,0.002678,0.000431,0.044191
4869000,0.0324,0.013523,0.002678,0.000431,0.047599
4870000,0.0324,0.013523,0.002678,0.000431,0.048069
4871000,0.0324,0.013523,0.002678,0.000431,0.048422
4872000,0.0324,0.013523,0.002678,0.000431,0.045954
4873000,0.0324,0.013523,0.002678,0.000431,0.047599
4874000,0.0324,0.013523,0.002678,0.000431,0.047364
4875000,0.0324,0.013523,0.002678,0.000431,0.046541
4876000,0.0324,0.013523,0.002678,0.000431,0.047364
4877000,0.0324,0.013523,0.002678,0.000431,0.046541
4878000,0.0324,0.013523,0.002678,0.000431,0.045601
4879000,0.0324,0.013523,0.002678,0.000431,0.045013
4880000,0.0324,0.013523,0.002678,0.000431,0.047834
4881000,0.0324,0.013523,0.002678,0.000431,0.046894
4882000,0.0324,0.013523,0.002678,0.000431,0.047011
4883000,0.0324,0.013523,0.002678,0.000431,0.046541
4884000,0.0324,0.013523,0.002678,0.000431,0.045248
4885000,0.0324,0.013523,0.002678,0.000431,0.045248
4886000,0.0324,0.013523,0.002678,0.000431,0.046071
4887000,0.0324,0.013523,0.002678,0.000431,0.045131
4888000,0.0324,0.013523,0.002678,0.000431,0.043015
4889000,0.0324,0.013523,0.002678,0.000431,0.046541
4890000,0.0324,0.013523,0.002678,0.000431,0.043838
4891000,0.0324,0.013523,0.002678,0.000431,0.047834
4892000,0.0324,0.013523,0.002678,0.000431,0.047481
4893000,0.0324,0.013523,0.002678,0.000431,0.046424
4894000,0.0324,0.013523,0.002678,0.000431,0.048069
4895000,0.0324,0.013523,0.002678,0.000431,0.046189
4896000,0.0324,0.013523,0.002678,0.000431,0.045718
4897000,0.0324,0.013523,0.002678,0.000431,0.045483
4898000,0.0324,0.013523,0.002678,0.000431,0.047481
4899000,0.0324,0.013523,0.002678,0.000431,0.043838
4900000,0.0324,0.013523,0.002678,0.000431,0.046424
4901000,0.0324,0.013523,0.002678,0.000431,0.046541
4902000,0.0324,0.013523,0.002678,0.000431,0.047599
4903000,0.0324,0.013523,0.002678,0.000431,0.049127
4904000,0.0324,0.013523,0.002678,0.000431,0.045954
4905000,0.0324,0.013523,0.002678,0.000431,0.046894
4906000,0.0324,0.013523,0.002678,0.000431,0.045718
4907000,0.0324,0.013523,0.002678,0.000431,0.043485
4908000,0.0324,0.013523,0.002678,0.000431,0.048539
4909000,0.0324,0.013523,0.002678,0.000431,0.046071
4910000,0.0324,0.013523,0.002678,0.000431,0.043250
4911000,0.0324,0.013523,0.002678,0.000431,0.045601
4912000,0.0324,0.013523,0.002678,0.000431,0.045954
4913000,0.0324,0.013523,0.002678,0.000431,0.044308
4914000,0.0324,0.013523,0.002678,0.000431,0.045836
4915000,0.0324,0.013523,0.002678,0.000431,0.044426
4916000,0.0324,0.013523,0.002678,0.000431,0.045131
4917000,0.0324,0.013523,0.002678,0.000431,0.042898
4918000,0.0324,0.013523,0.002678,0.000431,0.042780
4919000,0.0324,0.013523,0.002678,0.000431,0.049832
4920000,0.0324,0.013523,0.002678,0.000431,0.042898
4921000,0.0324,0.013523,0.002678,0.000431,0.047011
4922000,0.0324,0.013523,0.002678,0.000431,0.044896
4923000,0.0324,0.013523,0.002678,0.000431,0.044778
4924000,0.0324,0.013523,0.002678,0.000431,0.045836
4925000,0.0324,0.013523,0.002678,0.000431,0.045954
4926000,0.0324,0.013523,0.002678,0.000431,0.045954
4927000,0.0324,0.013523,0.002678,0.000431,0.048304
4928000,0.0324,0.013523,0.002678,0.000431,0.044896
4929000,0.0324,0.013523,0.002678,0.000431,0.044896
4930000,0.0324,0.013523,0.002678,0.000431,0.049479
4931000,0.0324,0.013523,0.002678,0.000431,0.047011
4932000,0.0324,0.013523,0.002678,0.000431,0.046659
4933000,0.0324,0.013523,0.002678,0.000431,0.042663
4934000,0.0324,0.013523,0.002678,0.000431,0.046071
4935000,0.0324,0.013523,0.002678,0.000431,0.048892
4936000,0.0324,0.013523,0.002678,0.000431,0.044426
4937000,0.0324,0.013523,0.002678,0.000431,0.041370
4938000,0.0324,0.013523,0.002678,0.000431,0.045248
4939000,0.0324,0.013523,0.002678,0.000431,0.045836
4940000,0.0324,0.013523,0.002678,0.000431,0.044778
4941000,0.0324,0.013523,0.002678,0.000431,0.045483
4942000,0.0324,0.013523,0.002678,0.000431,0.045131
4943000,0.0324,0.013523,0.002678,0.000431,0.044073
4944000,0.0324,0.013523,0.002678,0.000431,0.045483
4945000,0.0324,0.013523,0.002678,0.000431,0.045836
4946000,0.0324,0.013523,0.002678,0.000431,0.045248
4947000,0.0324,0.013523,0.002678,0.000431,0.046776
4948000,0.0324,0.013523,0.002678,0.000431,0.043250
4949000,0.0324,0.013523,0.002678,0.000431,0.047599
4950000,0.0324,0.013523,0.002678,0.000431,0.043956
4951000,0.0324,0.013523,0.002678,0.000431,0.045718
4952000,0.0324,0.013523,0.002678,0.000431,0.045131
4953000,0.0324,0.013523,0.002678,0.000431,0.042545
4954000,0.0324,0.013523,0.002678,0.000431,0.047481
4955000,0.0324,0.013523,0.002678,0.000431,0.045718
4956000,0.0324,0.013523,0.002678,0.000431,0.047246
4957000,0.0324,0.013523,0.002678,0.000431,0.044073
4958000,0.0324,0.013523,0.002678,0.000431,0.044543
4959000,0.0324,0.013523,0.002678,0.000431,0.043015
4960000,0.0324,0.013523,0.002678,0.000431,0.046659
4961000,0.0324,0.013523,0.002678,0.000431,0.042310
4962000,0.0324,0.013523,0.002678,0.000431,0.047364
4963000,0.0324,0.013523,0.002678,0.000431,0.046894
4964000,0.0324,0.013523,0.002678,0.000431,0.045131
4965000,0.0324,0.013523,0.002678,0.000431,0.044661
4966000,0.0324,0.013523,0.002678,0.000431,0.046776
4967000,0.0324,0.013523,0.002678,0.000431,0.044896
4968000,0.0324,0.013523,0.002678,0.000431,0.046189
4969000,0.0324,0.013523,0.002678,0.000431,0.042545
4970000,0.0324,0.013523,0.002678,0.000431,0.043720
4971000,0.0324,0.013523,0.002678,0.000431,0.046776
4972000,0.0324,0.013523,0.002678,0.000431,0.046424
4973000,0.0324,0.013523,0.002678,0.000431,0.045131
4974000,0.0324,0.013523,0.002678,0.000431,0.044308
4975000,0.0324,0.013523,0.002678,0.000431,0.046306
4976000,0.0324,0.013523,0.002678,0.000431,0.045013
4977000,0.0324,0.013523,0.002678,0.000431,0.043250
4978000,0.0324,0.013523,0.002678,0.000431,0.045601
4979000,0.0324,0.013523,0.002678,0.000431,0.048304
4980000,0.0324,0.013523,0.002678,0.000431,0.045248
4981000,0.0324,0.013523,0.002678,0.000431,0.045131
4982000,0.0324,0.013523,0.002678,0.000431,0.047011
4983000,0.0324,0.013523,0.002678,0.000431,0.043368
4984000,0.0324,0.013523,0.002678,0.000431,0.047364
4985000,0.0324,0.013523,0.002678,0.000431,0.047834
4986000,0.0324,0.013523,0.002678,0.000431,0.045601
4987000,0.0324,0.013523,0.002678,0.000431,0.045248
4988000,0.0324,0.013523,0.002678,0.000431,0.044543
4989000,0.0324,0.013523,0.002678,0.000431,0.047129
4990000,0.0324,0.013523,0.002678,0.000431,0.046306
4991000,0.0324,0.013523,0.002678,0.000431,0.045483
4992000,0.0324,0.013523,0.002678,0.000431,0.047246
4993000,0.0324,0.013523,0.002678,0.000431,0.045483
4994000,0.0324,0.013523,0.002678,0.000431,0.045131
4995000,0.0324,0.013523,0.002678,0.000431,0.044543
4996000,0.0324,0.013523,0.002678,0.000431,0.045954
4997000,0.0324,0.013523,0.002678,0.000431,0.047599
4998000,0.0324,0.013523,0.002678,0.000431,0.044778
4999000,0.0324,0.013523,0.002678,0.000431,0.043720
