Cycle,Area(mm^2),PeakDynamic(W),SubthresholdLeakage(W),GateLeakage(W),RunTimeDynamic(W)
2000000,0.0324,0.013523,0.002678,0.000431,0.167243
2001000,0.0324,0.013523,0.002678,0.000431,0.148673
2002000,0.0324,0.013523,0.002678,0.000431,0.141386
2003000,0.0324,0.013523,0.002678,0.000431,0.131632
2004000,0.0324,0.013523,0.002678,0.000431,0.177468
2005000,0.0324,0.013523,0.002678,0.000431,0.147498
2006000,0.0324,0.013523,0.002678,0.000431,0.139623
2007000,0.0324,0.013523,0.002678,0.000431,0.149848
2008000,0.0324,0.013523,0.002678,0.000431,0.186047
2009000,0.0324,0.013523,0.002678,0.000431,0.141857
2010000,0.0324,0.013523,0.002678,0.000431,0.147968
2011000,0.0324,0.013523,0.002678,0.000431,0.139153
2012000,0.0324,0.013523,0.002678,0.000431,0.152317
2013000,0.0324,0.013523,0.002678,0.000431,0.139388
2014000,0.0324,0.013523,0.002678,0.000431,0.158075
2015000,0.0324,0.013523,0.002678,0.000431,0.140916
2016000,0.0324,0.013523,0.002678,0.000431,0.151964
2017000,0.0324,0.013523,0.002678,0.000431,0.145500
2018000,0.0324,0.013523,0.002678,0.000431,0.108126
2019000,0.0324,0.013523,0.002678,0.000431,0.120349
2020000,0.0324,0.013523,0.002678,0.000431,0.127401
2021000,0.0324,0.013523,0.002678,0.000431,0.139741
2022000,0.0324,0.013523,0.002678,0.000431,0.126695
2023000,0.0324,0.013523,0.002678,0.000431,0.127518
2024000,0.0324,0.013523,0.002678,0.000431,0.116705
2025000,0.0324,0.013523,0.002678,0.000431,0.127518
2026000,0.0324,0.013523,0.002678,0.000431,0.127048
2027000,0.0324,0.013523,0.002678,0.000431,0.118821
2028000,0.0324,0.013523,0.002678,0.000431,0.112004
2029000,0.0324,0.013523,0.002678,0.000431,0.140799
2030000,0.0324,0.013523,0.002678,0.000431,0.148673
2031000,0.0324,0.013523,0.002678,0.000431,0.118233
2032000,0.0324,0.013523,0.002678,0.000431,0.102837
2033000,0.0324,0.013523,0.002678,0.000431,0.088969
2034000,0.0324,0.013523,0.002678,0.000431,0.098371
2035000,0.0324,0.013523,0.002678,0.000431,0.077804
2036000,0.0324,0.013523,0.002678,0.000431,0.080624
2037000,0.0324,0.013523,0.002678,0.000431,0.095785
2038000,0.0324,0.013523,0.002678,0.000431,0.099311
2039000,0.0324,0.013523,0.002678,0.000431,0.077686
2040000,0.0324,0.013523,0.002678,0.000431,0.078156
2041000,0.0324,0.013523,0.002678,0.000431,0.085208
2042000,0.0324,0.013523,0.002678,0.000431,0.094610
2043000,0.0324,0.013523,0.002678,0.000431,0.067461
2044000,0.0324,0.013523,0.002678,0.000431,0.060174
2045000,0.0324,0.013523,0.002678,0.000431,0.072045
2046000,0.0324,0.013523,0.002678,0.000431,0.081447
2047000,0.0324,0.013523,0.002678,0.000431,0.079096
2048000,0.0324,0.013523,0.002678,0.000431,0.059117
2049000,0.0324,0.013523,0.002678,0.000431,0.061232
2050000,0.0324,0.013523,0.002678,0.000431,0.075806
2051000,0.0324,0.013523,0.002678,0.000431,0.075806
2052000,0.0324,0.013523,0.002678,0.000431,0.065111
2053000,0.0324,0.013523,0.002678,0.000431,0.066756
2054000,0.0324,0.013523,0.002678,0.000431,0.052300
2055000,0.0324,0.013523,0.002678,0.000431,0.070987
2056000,0.0324,0.013523,0.002678,0.000431,0.076746
2057000,0.0324,0.013523,0.002678,0.000431,0.082975
2058000,0.0324,0.013523,0.002678,0.000431,0.069342
2059000,0.0324,0.013523,0.002678,0.000431,0.078156
2060000,0.0324,0.013523,0.002678,0.000431,0.082152
2061000,0.0324,0.013523,0.002678,0.000431,0.073103
2062000,0.0324,0.013523,0.002678,0.000431,0.074278
2063000,0.0324,0.013523,0.002678,0.000431,0.066991
2064000,0.0324,0.013523,0.002678,0.000431,0.064170
2065000,0.0324,0.013523,0.002678,0.000431,0.063113
2066000,0.0324,0.013523,0.002678,0.000431,0.079684
2067000,0.0324,0.013523,0.002678,0.000431,0.067696
2068000,0.0324,0.013523,0.002678,0.000431,0.060880
2069000,0.0324,0.013523,0.002678,0.000431,0.070869
2070000,0.0324,0.013523,0.002678,0.000431,0.072162
2071000,0.0324,0.013523,0.002678,0.000431,0.064523
2072000,0.0324,0.013523,0.002678,0.000431,0.052300
2073000,0.0324,0.013523,0.002678,0.000431,0.055591
2074000,0.0324,0.013523,0.002678,0.000431,0.061820
2075000,0.0324,0.013523,0.002678,0.000431,0.056884
2076000,0.0324,0.013523,0.002678,0.000431,0.055591
2077000,0.0324,0.013523,0.002678,0.000431,0.062525
2078000,0.0324,0.013523,0.002678,0.000431,0.057001
2079000,0.0324,0.013523,0.002678,0.000431,0.047364
2080000,0.0324,0.013523,0.002678,0.000431,0.057236
2081000,0.0324,0.013523,0.002678,0.000431,0.039960
2082000,0.0324,0.013523,0.002678,0.000431,0.066756
2083000,0.0324,0.013523,0.002678,0.000431,0.044073
2084000,0.0324,0.013523,0.002678,0.000431,0.051477
2085000,0.0324,0.013523,0.002678,0.000431,0.062995
2086000,0.0324,0.013523,0.002678,0.000431,0.059469
2087000,0.0324,0.013523,0.002678,0.000431,0.056414
2088000,0.0324,0.013523,0.002678,0.000431,0.046659
2089000,0.0324,0.013523,0.002678,0.000431,0.042310
2090000,0.0324,0.013523,0.002678,0.000431,0.051595
2091000,0.0324,0.013523,0.002678,0.000431,0.048422
2092000,0.0324,0.013523,0.002678,0.000431,0.063230
2093000,0.0324,0.013523,0.002678,0.000431,0.047951
2094000,0.0324,0.013523,0.002678,0.000431,0.048774
2095000,0.0324,0.013523,0.002678,0.000431,0.045131
2096000,0.0324,0.013523,0.002678,0.000431,0.055943
2097000,0.0324,0.013523,0.002678,0.000431,0.049832
2098000,0.0324,0.013523,0.002678,0.000431,0.052418
2099000,0.0324,0.013523,0.002678,0.000431,0.065228
2100000,0.0324,0.013523,0.002678,0.000431,0.046776
2101000,0.0324,0.013523,0.002678,0.000431,0.041135
2102000,0.0324,0.013523,0.002678,0.000431,0.045718
2103000,0.0324,0.013523,0.002678,0.000431,0.040900
2104000,0.0324,0.013523,0.002678,0.000431,0.035964
2105000,0.0324,0.013523,0.002678,0.000431,0.047129
2106000,0.0324,0.013523,0.002678,0.000431,0.051007
2107000,0.0324,0.013523,0.002678,0.000431,0.046189
2108000,0.0324,0.013523,0.002678,0.000431,0.032320
2109000,0.0324,0.013523,0.002678,0.000431,0.043603
2110000,0.0324,0.013523,0.002678,0.000431,0.031968
2111000,0.0324,0.013523,0.002678,0.000431,0.024328
2112000,0.0324,0.013523,0.002678,0.000431,0.031262
2113000,0.0324,0.013523,0.002678,0.000431,0.029500
2114000,0.0324,0.013523,0.002678,0.000431,0.036081
2115000,0.0324,0.013523,0.002678,0.000431,0.030440
2116000,0.0324,0.013523,0.002678,0.000431,0.024328
2117000,0.0324,0.013523,0.002678,0.000431,0.021743
2118000,0.0324,0.013523,0.002678,0.000431,0.034436
2119000,0.0324,0.013523,0.002678,0.000431,0.022095
2120000,0.0324,0.013523,0.002678,0.000431,0.025151
2121000,0.0324,0.013523,0.002678,0.000431,0.018452
2122000,0.0324,0.013523,0.002678,0.000431,0.019980
2123000,0.0324,0.013523,0.002678,0.000431,0.010930
2124000,0.0324,0.013523,0.002678,0.000431,0.014691
2125000,0.0324,0.013523,0.002678,0.000431,0.012811
2126000,0.0324,0.013523,0.002678,0.000431,0.011753
2127000,0.0324,0.013523,0.002678,0.000431,0.009872
2128000,0.0324,0.013523,0.002678,0.000431,0.014338
2129000,0.0324,0.013523,0.002678,0.000431,0.014573
2130000,0.0324,0.013523,0.002678,0.000431,0.011283
2131000,0.0324,0.013523,0.002678,0.000431,0.011518
2132000,0.0324,0.013523,0.002678,0.000431,0.016924
2133000,0.0324,0.013523,0.002678,0.000431,0.017864
2134000,0.0324,0.013523,0.002678,0.000431,0.013281
2135000,0.0324,0.013523,0.002678,0.000431,0.011283
2136000,0.0324,0.013523,0.002678,0.000431,0.012811
2137000,0.0324,0.013523,0.002678,0.000431,0.016219
2138000,0.0324,0.013523,0.002678,0.000431,0.010578
2139000,0.0324,0.013523,0.002678,0.000431,0.013516
2140000,0.0324,0.013523,0.002678,0.000431,0.015279
2141000,0.0324,0.013523,0.002678,0.000431,0.015396
2142000,0.0324,0.013523,0.002678,0.000431,0.009167
2143000,0.0324,0.013523,0.002678,0.000431,0.013751
2144000,0.0324,0.013523,0.002678,0.000431,0.010460
2145000,0.0324,0.013523,0.002678,0.000431,0.014338
2146000,0.0324,0.013523,0.002678,0.000431,0.013398
2147000,0.0324,0.013523,0.002678,0.000431,0.013986
2148000,0.0324,0.013523,0.002678,0.000431,0.013516
2149000,0.0324,0.013523,0.002678,0.000431,0.012458
2150000,0.0324,0.013523,0.002678,0.000431,0.009285
2151000,0.0324,0.013523,0.002678,0.000431,0.013986
2152000,0.0324,0.013523,0.002678,0.000431,0.013163
2153000,0.0324,0.013523,0.002678,0.000431,0.013633
2154000,0.0324,0.013523,0.002678,0.000431,0.015514
2155000,0.0324,0.013523,0.002678,0.000431,0.018217
2156000,0.0324,0.013523,0.002678,0.000431,0.013046
2157000,0.0324,0.013523,0.002678,0.000431,0.011283
2158000,0.0324,0.013523,0.002678,0.000431,0.010342
2159000,0.0324,0.013523,0.002678,0.000431,0.013046
2160000,0.0324,0.013523,0.002678,0.000431,0.013046
2161000,0.0324,0.013523,0.002678,0.000431,0.011048
2162000,0.0324,0.013523,0.002678,0.000431,0.011753
2163000,0.0324,0.013523,0.002678,0.000431,0.008932
2164000,0.0324,0.013523,0.002678,0.000431,0.008345
2165000,0.0324,0.013523,0.002678,0.000431,0.013398
2166000,0.0324,0.013523,0.002678,0.000431,0.002938
2167000,0.0324,0.013523,0.002678,0.000431,0.004113
2168000,0.0324,0.013523,0.002678,0.000431,0.007992
2169000,0.0324,0.013523,0.002678,0.000431,0.006111
2170000,0.0324,0.013523,0.002678,0.000431,0.002351
2171000,0.0324,0.013523,0.002678,0.000431,0.002233
2172000,0.0324,0.013523,0.002678,0.000431,0.002351
2173000,0.0324,0.013523,0.002678,0.000431,0.005641
2174000,0.0324,0.013523,0.002678,0.000431,0.006229
2175000,0.0324,0.013523,0.002678,0.000431,0.004113
2176000,0.0324,0.013523,0.002678,0.000431,0.008580
2177000,0.0324,0.013523,0.002678,0.000431,0.000823
2178000,0.0324,0.013523,0.002678,0.000431,0.001175
2179000,0.0324,0.013523,0.002678,0.000431,0.001175
2180000,0.0324,0.013523,0.002678,0.000431,0.001410
2181000,0.0324,0.013523,0.002678,0.000431,0.003996
2182000,0.0324,0.013523,0.002678,0.000431,0.000823
2183000,0.0324,0.013523,0.002678,0.000431,0.001293
2184000,0.0324,0.013523,0.002678,0.000431,0.004113
2185000,0.0324,0.013523,0.002678,0.000431,0.001058
2186000,0.0324,0.013523,0.002678,0.000431,0.002586
2187000,0.0324,0.013523,0.002678,0.000431,0.001293
2188000,0.0324,0.013523,0.002678,0.000431,0.000823
2189000,0.0324,0.013523,0.002678,0.000431,0.001175
2190000,0.0324,0.013523,0.002678,0.000431,0.001880
2191000,0.0324,0.013523,0.002678,0.000431,0.002351
2192000,0.0324,0.013523,0.002678,0.000431,0.001998
2193000,0.0324,0.013523,0.002678,0.000431,0.002703
2194000,0.0324,0.013523,0.002678,0.000431,0.003056
2195000,0.0324,0.013523,0.002678,0.000431,0.005641
2196000,0.0324,0.013523,0.002678,0.000431,0.007522
2197000,0.0324,0.013523,0.002678,0.000431,0.002468
2198000,0.0324,0.013523,0.002678,0.000431,0.001410
2199000,0.0324,0.013523,0.002678,0.000431,0.000823
2200000,0.0324,0.013523,0.002678,0.000431,0.000705
2201000,0.0324,0.013523,0.002678,0.000431,0.003173
2202000,0.0324,0.013523,0.002678,0.000431,0.002703
2203000,0.0324,0.013523,0.002678,0.000431,0.003878
2204000,0.0324,0.013523,0.002678,0.000431,0.001880
2205000,0.0324,0.013523,0.002678,0.000431,0.004466
2206000,0.0324,0.013523,0.002678,0.000431,0.000823
2207000,0.0324,0.013523,0.002678,0.000431,0.001410
2208000,0.0324,0.013523,0.002678,0.000431,0.001293
2209000,0.0324,0.013523,0.002678,0.000431,0.001410
2210000,0.0324,0.013523,0.002678,0.000431,0.001293
2211000,0.0324,0.013523,0.002678,0.000431,0.005171
2212000,0.0324,0.013523,0.002678,0.000431,0.002938
2213000,0.0324,0.013523,0.002678,0.000431,0.001175
2214000,0.0324,0.013523,0.002678,0.000431,0.000588
2215000,0.0324,0.013523,0.002678,0.000431,0.008932
2216000,0.0324,0.013523,0.002678,0.000431,0.004466
2217000,0.0324,0.013523,0.002678,0.000431,0.009285
2218000,0.0324,0.013523,0.002678,0.000431,0.012576
2219000,0.0324,0.013523,0.002678,0.000431,0.011048
2220000,0.0324,0.013523,0.002678,0.000431,0.008932
2221000,0.0324,0.013523,0.002678,0.000431,0.009755
2222000,0.0324,0.013523,0.002678,0.000431,0.011870
2223000,0.0324,0.013523,0.002678,0.000431,0.011988
2224000,0.0324,0.013523,0.002678,0.000431,0.008462
2225000,0.0324,0.013523,0.002678,0.000431,0.011988
2226000,0.0324,0.013523,0.002678,0.000431,0.009872
2227000,0.0324,0.013523,0.002678,0.000431,0.011988
2228000,0.0324,0.013523,0.002678,0.000431,0.008462
2229000,0.0324,0.013523,0.002678,0.000431,0.010930
2230000,0.0324,0.013523,0.002678,0.000431,0.011283
2231000,0.0324,0.013523,0.002678,0.000431,0.011635
2232000,0.0324,0.013523,0.002678,0.000431,0.008227
2233000,0.0324,0.013523,0.002678,0.000431,0.012105
2234000,0.0324,0.013523,0.002678,0.000431,0.011400
2235000,0.0324,0.013523,0.002678,0.000431,0.010342
2236000,0.0324,0.013523,0.002678,0.000431,0.008227
2237000,0.0324,0.013523,0.002678,0.000431,0.012105
2238000,0.0324,0.013523,0.002678,0.000431,0.010930
2239000,0.0324,0.013523,0.002678,0.000431,0.010578
2240000,0.0324,0.013523,0.002678,0.000431,0.008462
2241000,0.0324,0.013523,0.002678,0.000431,0.012576
2242000,0.0324,0.013523,0.002678,0.000431,0.010813
2243000,0.0324,0.013523,0.002678,0.000431,0.009990
2244000,0.0324,0.013523,0.002678,0.000431,0.008462
2245000,0.0324,0.013523,0.002678,0.000431,0.012458
2246000,0.0324,0.013523,0.002678,0.000431,0.011165
2247000,0.0324,0.013523,0.002678,0.000431,0.009990
2248000,0.0324,0.013523,0.002678,0.000431,0.008227
2249000,0.0324,0.013523,0.002678,0.000431,0.003996
2250000,0.0324,0.013523,0.002678,0.000431,0.001058
2251000,0.0324,0.013523,0.002678,0.000431,0.000823
2252000,0.0324,0.013523,0.002678,0.000431,0.001410
2253000,0.0324,0.013523,0.002678,0.000431,0.001410
2254000,0.0324,0.013523,0.002678,0.000431,0.002468
2255000,0.0324,0.013523,0.002678,0.000431,0.002233
2256000,0.0324,0.013523,0.002678,0.000431,0.002586
2257000,0.0324,0.013523,0.002678,0.000431,0.002351
2258000,0.0324,0.013523,0.002678,0.000431,0.002116
2259000,0.0324,0.013523,0.002678,0.000431,0.001763
2260000,0.0324,0.013523,0.002678,0.000431,0.001998
2261000,0.0324,0.013523,0.002678,0.000431,0.000940
2262000,0.0324,0.013523,0.002678,0.000431,0.001175
2263000,0.0324,0.013523,0.002678,0.000431,0.000940
2264000,0.0324,0.013523,0.002678,0.000431,0.001175
2265000,0.0324,0.013523,0.002678,0.000431,0.003526
2266000,0.0324,0.013523,0.002678,0.000431,0.001880
2267000,0.0324,0.013523,0.002678,0.000431,0.001528
2268000,0.0324,0.013523,0.002678,0.000431,0.000940
2269000,0.0324,0.013523,0.002678,0.000431,0.001763
2270000,0.0324,0.013523,0.002678,0.000431,0.004349
2271000,0.0324,0.013523,0.002678,0.000431,0.011400
2272000,0.0324,0.013523,0.002678,0.000431,0.008932
2273000,0.0324,0.013523,0.002678,0.000431,0.008932
2274000,0.0324,0.013523,0.002678,0.000431,0.008462
2275000,0.0324,0.013523,0.002678,0.000431,0.002116
2276000,0.0324,0.013523,0.002678,0.000431,0.001175
2277000,0.0324,0.013523,0.002678,0.000431,0.001175
