Cycle,Area(mm^2),PeakDynamic(W),SubthresholdLeakage(W),GateLeakage(W),RunTimeDynamic(W)
7000000,0.0324,0.013523,0.002678,0.000431,0.060762
7001000,0.0324,0.013523,0.002678,0.000431,0.057824
7002000,0.0324,0.013523,0.002678,0.000431,0.060645
7003000,0.0324,0.013523,0.002678,0.000431,0.058999
7004000,0.0324,0.013523,0.002678,0.000431,0.059352
7005000,0.0324,0.013523,0.002678,0.000431,0.061702
7006000,0.0324,0.013523,0.002678,0.000431,0.060057
7007000,0.0324,0.013523,0.002678,0.000431,0.059704
7008000,0.0324,0.013523,0.002678,0.000431,0.059352
7009000,0.0324,0.013523,0.002678,0.000431,0.057706
7010000,0.0324,0.013523,0.002678,0.000431,0.060527
7011000,0.0324,0.013523,0.002678,0.000431,0.060997
7012000,0.0324,0.013523,0.002678,0.000431,0.060880
7013000,0.0324,0.013523,0.002678,0.000431,0.056414
7014000,0.0324,0.013523,0.002678,0.000431,0.057941
7015000,0.0324,0.013523,0.002678,0.000431,0.056649
7016000,0.0324,0.013523,0.002678,0.000431,0.058529
7017000,0.0324,0.013523,0.002678,0.000431,0.058412
7018000,0.0324,0.013523,0.002678,0.000431,0.060292
7019000,0.0324,0.013523,0.002678,0.000431,0.061702
7020000,0.0324,0.013523,0.002678,0.000431,0.058529
7021000,0.0324,0.013523,0.002678,0.000431,0.061585
7022000,0.0324,0.013523,0.002678,0.000431,0.054651
7023000,0.0324,0.013523,0.002678,0.000431,0.059704
7024000,0.0324,0.013523,0.002678,0.000431,0.064993
7025000,0.0324,0.013523,0.002678,0.000431,0.063113
7026000,0.0324,0.013523,0.002678,0.000431,0.057589
7027000,0.0324,0.013523,0.002678,0.000431,0.058412
7028000,0.0324,0.013523,0.002678,0.000431,0.057236
7029000,0.0324,0.013523,0.002678,0.000431,0.061232
7030000,0.0324,0.013523,0.002678,0.000431,0.061937
7031000,0.0324,0.013523,0.002678,0.000431,0.061702
7032000,0.0324,0.013523,0.002678,0.000431,0.059939
7033000,0.0324,0.013523,0.002678,0.000431,0.062643
7034000,0.0324,0.013523,0.002678,0.000431,0.060174
7035000,0.0324,0.013523,0.002678,0.000431,0.055473
7036000,0.0324,0.013523,0.002678,0.000431,0.061350
7037000,0.0324,0.013523,0.002678,0.000431,0.058294
7038000,0.0324,0.013523,0.002678,0.000431,0.063230
7039000,0.0324,0.013523,0.002678,0.000431,0.058176
7040000,0.0324,0.013523,0.002678,0.000431,0.059939
7041000,0.0324,0.013523,0.002678,0.000431,0.057471
7042000,0.0324,0.013523,0.002678,0.000431,0.058176
7043000,0.0324,0.013523,0.002678,0.000431,0.059587
7044000,0.0324,0.013523,0.002678,0.000431,0.055943
7045000,0.0324,0.013523,0.002678,0.000431,0.061467
7046000,0.0324,0.013523,0.002678,0.000431,0.062643
7047000,0.0324,0.013523,0.002678,0.000431,0.056766
7048000,0.0324,0.013523,0.002678,0.000431,0.059117
7049000,0.0324,0.013523,0.002678,0.000431,0.057589
7050000,0.0324,0.013523,0.002678,0.000431,0.057001
7051000,0.0324,0.013523,0.002678,0.000431,0.057354
7052000,0.0324,0.013523,0.002678,0.000431,0.057471
7053000,0.0324,0.013523,0.002678,0.000431,0.062995
7054000,0.0324,0.013523,0.002678,0.000431,0.057119
7055000,0.0324,0.013523,0.002678,0.000431,0.057119
7056000,0.0324,0.013523,0.002678,0.000431,0.060527
7057000,0.0324,0.013523,0.002678,0.000431,0.060409
7058000,0.0324,0.013523,0.002678,0.000431,0.057236
7059000,0.0324,0.013523,0.002678,0.000431,0.058059
7060000,0.0324,0.013523,0.002678,0.000431,0.059939
7061000,0.0324,0.013523,0.002678,0.000431,0.058176
7062000,0.0324,0.013523,0.002678,0.000431,0.058529
7063000,0.0324,0.013523,0.002678,0.000431,0.061350
7064000,0.0324,0.013523,0.002678,0.000431,0.052300
7065000,0.0324,0.013523,0.002678,0.000431,0.059822
7066000,0.0324,0.013523,0.002678,0.000431,0.059117
7067000,0.0324,0.013523,0.002678,0.000431,0.059704
7068000,0.0324,0.013523,0.002678,0.000431,0.058882
7069000,0.0324,0.013523,0.002678,0.000431,0.060645
7070000,0.0324,0.013523,0.002678,0.000431,0.060174
7071000,0.0324,0.013523,0.002678,0.000431,0.054886
7072000,0.0324,0.013523,0.002678,0.000431,0.059234
7073000,0.0324,0.013523,0.002678,0.000431,0.056414
7074000,0.0324,0.013523,0.002678,0.000431,0.058999
7075000,0.0324,0.013523,0.002678,0.000431,0.057824
7076000,0.0324,0.013523,0.002678,0.000431,0.061115
7077000,0.0324,0.013523,0.002678,0.000431,0.054651
7078000,0.0324,0.013523,0.002678,0.000431,0.058294
7079000,0.0324,0.013523,0.002678,0.000431,0.054416
7080000,0.0324,0.013523,0.002678,0.000431,0.055708
7081000,0.0324,0.013523,0.002678,0.000431,0.057941
7082000,0.0324,0.013523,0.002678,0.000431,0.057119
7083000,0.0324,0.013523,0.002678,0.000431,0.061585
7084000,0.0324,0.013523,0.002678,0.000431,0.057001
7085000,0.0324,0.013523,0.002678,0.000431,0.059469
7086000,0.0324,0.013523,0.002678,0.000431,0.058059
7087000,0.0324,0.013523,0.002678,0.000431,0.062055
7088000,0.0324,0.013523,0.002678,0.000431,0.059234
7089000,0.0324,0.013523,0.002678,0.000431,0.059822
7090000,0.0324,0.013523,0.002678,0.000431,0.059469
7091000,0.0324,0.013523,0.002678,0.000431,0.054298
7092000,0.0324,0.013523,0.002678,0.000431,0.058059
7093000,0.0324,0.013523,0.002678,0.000431,0.059234
7094000,0.0324,0.013523,0.002678,0.000431,0.058412
7095000,0.0324,0.013523,0.002678,0.000431,0.057001
7096000,0.0324,0.013523,0.002678,0.000431,0.058764
7097000,0.0324,0.013523,0.002678,0.000431,0.057354
7098000,0.0324,0.013523,0.002678,0.000431,0.057824
7099000,0.0324,0.013523,0.002678,0.000431,0.057354
7100000,0.0324,0.013523,0.002678,0.000431,0.057941
7101000,0.0324,0.013523,0.002678,0.000431,0.059704
7102000,0.0324,0.013523,0.002678,0.000431,0.057706
7103000,0.0324,0.013523,0.002678,0.000431,0.058294
7104000,0.0324,0.013523,0.002678,0.000431,0.055121
7105000,0.0324,0.013523,0.002678,0.000431,0.058647
7106000,0.0324,0.013523,0.002678,0.000431,0.056061
7107000,0.0324,0.013523,0.002678,0.000431,0.053710
7108000,0.0324,0.013523,0.002678,0.000431,0.059352
7109000,0.0324,0.013523,0.002678,0.000431,0.057001
7110000,0.0324,0.013523,0.002678,0.000431,0.058294
7111000,0.0324,0.013523,0.002678,0.000431,0.060645
7112000,0.0324,0.013523,0.002678,0.000431,0.055003
7113000,0.0324,0.013523,0.002678,0.000431,0.056649
7114000,0.0324,0.013523,0.002678,0.000431,0.057941
7115000,0.0324,0.013523,0.002678,0.000431,0.056414
7116000,0.0324,0.013523,0.002678,0.000431,0.055473
7117000,0.0324,0.013523,0.002678,0.000431,0.054651
7118000,0.0324,0.013523,0.002678,0.000431,0.058999
7119000,0.0324,0.013523,0.002678,0.000431,0.059117
7120000,0.0324,0.013523,0.002678,0.000431,0.058294
7121000,0.0324,0.013523,0.002678,0.000431,0.057824
7122000,0.0324,0.013523,0.002678,0.000431,0.060409
7123000,0.0324,0.013523,0.002678,0.000431,0.059117
7124000,0.0324,0.013523,0.002678,0.000431,0.056296
7125000,0.0324,0.013523,0.002678,0.000431,0.059352
7126000,0.0324,0.013523,0.002678,0.000431,0.053710
7127000,0.0324,0.013523,0.002678,0.000431,0.055473
7128000,0.0324,0.013523,0.002678,0.000431,0.056414
7129000,0.0324,0.013523,0.002678,0.000431,0.060527
7130000,0.0324,0.013523,0.002678,0.000431,0.056884
7131000,0.0324,0.013523,0.002678,0.000431,0.058059
7132000,0.0324,0.013523,0.002678,0.000431,0.054180
7133000,0.0324,0.013523,0.002678,0.000431,0.057706
7134000,0.0324,0.013523,0.002678,0.000431,0.057824
7135000,0.0324,0.013523,0.002678,0.000431,0.055003
7136000,0.0324,0.013523,0.002678,0.000431,0.054298
7137000,0.0324,0.013523,0.002678,0.000431,0.057471
7138000,0.0324,0.013523,0.002678,0.000431,0.055238
7139000,0.0324,0.013523,0.002678,0.000431,0.056178
7140000,0.0324,0.013523,0.002678,0.000431,0.059117
7141000,0.0324,0.013523,0.002678,0.000431,0.055591
7142000,0.0324,0.013523,0.002678,0.000431,0.059234
7143000,0.0324,0.013523,0.002678,0.000431,0.056296
7144000,0.0324,0.013523,0.002678,0.000431,0.060292
7145000,0.0324,0.013523,0.002678,0.000431,0.057589
7146000,0.0324,0.013523,0.002678,0.000431,0.055003
7147000,0.0324,0.013523,0.002678,0.000431,0.060057
7148000,0.0324,0.013523,0.002678,0.000431,0.054298
7149000,0.0324,0.013523,0.002678,0.000431,0.057706
7150000,0.0324,0.013523,0.002678,0.000431,0.054768
7151000,0.0324,0.013523,0.002678,0.000431,0.061467
7152000,0.0324,0.013523,0.002678,0.000431,0.054063
7153000,0.0324,0.013523,0.002678,0.000431,0.056766
7154000,0.0324,0.013523,0.002678,0.000431,0.058176
7155000,0.0324,0.013523,0.002678,0.000431,0.056531
7156000,0.0324,0.013523,0.002678,0.000431,0.057354
7157000,0.0324,0.013523,0.002678,0.000431,0.056061
7158000,0.0324,0.013523,0.002678,0.000431,0.056884
7159000,0.0324,0.013523,0.002678,0.000431,0.055473
7160000,0.0324,0.013523,0.002678,0.000431,0.055356
7161000,0.0324,0.013523,0.002678,0.000431,0.057941
7162000,0.0324,0.013523,0.002678,0.000431,0.054063
7163000,0.0324,0.013523,0.002678,0.000431,0.056296
7164000,0.0324,0.013523,0.002678,0.000431,0.057001
7165000,0.0324,0.013523,0.002678,0.000431,0.053475
7166000,0.0324,0.013523,0.002678,0.000431,0.055003
7167000,0.0324,0.013523,0.002678,0.000431,0.056178
7168000,0.0324,0.013523,0.002678,0.000431,0.057824
7169000,0.0324,0.013523,0.002678,0.000431,0.057706
7170000,0.0324,0.013523,0.002678,0.000431,0.057589
7171000,0.0324,0.013523,0.002678,0.000431,0.057589
7172000,0.0324,0.013523,0.002678,0.000431,0.053240
7173000,0.0324,0.013523,0.002678,0.000431,0.056884
7174000,0.0324,0.013523,0.002678,0.000431,0.054768
7175000,0.0324,0.013523,0.002678,0.000431,0.057354
7176000,0.0324,0.013523,0.002678,0.000431,0.058647
7177000,0.0324,0.013523,0.002678,0.000431,0.058294
7178000,0.0324,0.013523,0.002678,0.000431,0.057824
7179000,0.0324,0.013523,0.002678,0.000431,0.059587
7180000,0.0324,0.013523,0.002678,0.000431,0.054416
7181000,0.0324,0.013523,0.002678,0.000431,0.055826
7182000,0.0324,0.013523,0.002678,0.000431,0.057001
7183000,0.0324,0.013523,0.002678,0.000431,0.058059
7184000,0.0324,0.013523,0.002678,0.000431,0.057471
7185000,0.0324,0.013523,0.002678,0.000431,0.057824
7186000,0.0324,0.013523,0.002678,0.000431,0.058882
7187000,0.0324,0.013523,0.002678,0.000431,0.057824
7188000,0.0324,0.013523,0.002678,0.000431,0.055473
7189000,0.0324,0.013523,0.002678,0.000431,0.056178
7190000,0.0324,0.013523,0.002678,0.000431,0.060645
7191000,0.0324,0.013523,0.002678,0.000431,0.058412
7192000,0.0324,0.013523,0.002678,0.000431,0.060292
7193000,0.0324,0.013523,0.002678,0.000431,0.055591
7194000,0.0324,0.013523,0.002678,0.000431,0.057471
7195000,0.0324,0.013523,0.002678,0.000431,0.056531
7196000,0.0324,0.013523,0.002678,0.000431,0.057119
7197000,0.0324,0.013523,0.002678,0.000431,0.055943
7198000,0.0324,0.013523,0.002678,0.000431,0.058882
7199000,0.0324,0.013523,0.002678,0.000431,0.058764
7200000,0.0324,0.013523,0.002678,0.000431,0.057706
7201000,0.0324,0.013523,0.002678,0.000431,0.055473
7202000,0.0324,0.013523,0.002678,0.000431,0.055121
7203000,0.0324,0.013523,0.002678,0.000431,0.060174
7204000,0.0324,0.013523,0.002678,0.000431,0.055356
7205000,0.0324,0.013523,0.002678,0.000431,0.058999
7206000,0.0324,0.013523,0.002678,0.000431,0.056884
7207000,0.0324,0.013523,0.002678,0.000431,0.054768
7208000,0.0324,0.013523,0.002678,0.000431,0.059587
7209000,0.0324,0.013523,0.002678,0.000431,0.058294
7210000,0.0324,0.013523,0.002678,0.000431,0.058764
7211000,0.0324,0.013523,0.002678,0.000431,0.058294
7212000,0.0324,0.013523,0.002678,0.000431,0.058647
7213000,0.0324,0.013523,0.002678,0.000431,0.054886
7214000,0.0324,0.013523,0.002678,0.000431,0.058647
7215000,0.0324,0.013523,0.002678,0.000431,0.059352
7216000,0.0324,0.013523,0.002678,0.000431,0.055003
7217000,0.0324,0.013523,0.002678,0.000431,0.062760
7218000,0.0324,0.013523,0.002678,0.000431,0.054768
7219000,0.0324,0.013523,0.002678,0.000431,0.057354
7220000,0.0324,0.013523,0.002678,0.000431,0.055473
7221000,0.0324,0.013523,0.002678,0.000431,0.058764
7222000,0.0324,0.013523,0.002678,0.000431,0.058647
7223000,0.0324,0.013523,0.002678,0.000431,0.057001
7224000,0.0324,0.013523,0.002678,0.000431,0.061585
7225000,0.0324,0.013523,0.002678,0.000431,0.057354
7226000,0.0324,0.013523,0.002678,0.000431,0.056414
7227000,0.0324,0.013523,0.002678,0.000431,0.057471
7228000,0.0324,0.013523,0.002678,0.000431,0.060057
7229000,0.0324,0.013523,0.002678,0.000431,0.055943
7230000,0.0324,0.013523,0.002678,0.000431,0.056414
7231000,0.0324,0.013523,0.002678,0.000431,0.055826
7232000,0.0324,0.013523,0.002678,0.000431,0.057236
7233000,0.0324,0.013523,0.002678,0.000431,0.057354
7234000,0.0324,0.013523,0.002678,0.000431,0.053945
7235000,0.0324,0.013523,0.002678,0.000431,0.056766
7236000,0.0324,0.013523,0.002678,0.000431,0.059587
7237000,0.0324,0.013523,0.002678,0.000431,0.059704
7238000,0.0324,0.013523,0.002678,0.000431,0.057001
7239000,0.0324,0.013523,0.002678,0.000431,0.059587
7240000,0.0324,0.013523,0.002678,0.000431,0.057824
7241000,0.0324,0.013523,0.002678,0.000431,0.059234
7242000,0.0324,0.013523,0.002678,0.000431,0.055826
7243000,0.0324,0.013523,0.002678,0.000431,0.060174
7244000,0.0324,0.013523,0.002678,0.000431,0.061585
7245000,0.0324,0.013523,0.002678,0.000431,0.057001
7246000,0.0324,0.013523,0.002678,0.000431,0.057706
7247000,0.0324,0.013523,0.002678,0.000431,0.056296
7248000,0.0324,0.013523,0.002678,0.000431,0.059822
7249000,0.0324,0.013523,0.002678,0.000431,0.055356
7250000,0.0324,0.013523,0.002678,0.000431,0.056061
7251000,0.0324,0.013523,0.002678,0.000431,0.059469
7252000,0.0324,0.013523,0.002678,0.000431,0.055238
7253000,0.0324,0.013523,0.002678,0.000431,0.058647
7254000,0.0324,0.013523,0.002678,0.000431,0.058294
7255000,0.0324,0.013523,0.002678,0.000431,0.058882
7256000,0.0324,0.013523,0.002678,0.000431,0.056414
7257000,0.0324,0.013523,0.002678,0.000431,0.058647
7258000,0.0324,0.013523,0.002678,0.000431,0.059939
7259000,0.0324,0.013523,0.002678,0.000431,0.056766
7260000,0.0324,0.013523,0.002678,0.000431,0.056649
7261000,0.0324,0.013523,0.002678,0.000431,0.061350
7262000,0.0324,0.013523,0.002678,0.000431,0.057824
7263000,0.0324,0.013523,0.002678,0.000431,0.056178
7264000,0.0324,0.013523,0.002678,0.000431,0.060997
7265000,0.0324,0.013523,0.002678,0.000431,0.058647
7266000,0.0324,0.013523,0.002678,0.000431,0.055121
7267000,0.0324,0.013523,0.002678,0.000431,0.058294
7268000,0.0324,0.013523,0.002678,0.000431,0.057001
7269000,0.0324,0.013523,0.002678,0.000431,0.056649
7270000,0.0324,0.013523,0.002678,0.000431,0.055591
7271000,0.0324,0.013523,0.002678,0.000431,0.054416
7272000,0.0324,0.013523,0.002678,0.000431,0.056884
7273000,0.0324,0.013523,0.002678,0.000431,0.058999
7274000,0.0324,0.013523,0.002678,0.000431,0.057236
7275000,0.0324,0.013523,0.002678,0.000431,0.056178
7276000,0.0324,0.013523,0.002678,0.000431,0.057824
7277000,0.0324,0.013523,0.002678,0.000431,0.057471
7278000,0.0324,0.013523,0.002678,0.000431,0.058882
7279000,0.0324,0.013523,0.002678,0.000431,0.059117
7280000,0.0324,0.013523,0.002678,0.000431,0.055356
7281000,0.0324,0.013523,0.002678,0.000431,0.056766
7282000,0.0324,0.013523,0.002678,0.000431,0.055591
7283000,0.0324,0.013523,0.002678,0.000431,0.056766
7284000,0.0324,0.013523,0.002678,0.000431,0.057824
7285000,0.0324,0.013523,0.002678,0.000431,0.058647
7286000,0.0324,0.013523,0.002678,0.000431,0.056296
7287000,0.0324,0.013523,0.002678,0.000431,0.057706
7288000,0.0324,0.013523,0.002678,0.000431,0.055238
7289000,0.0324,0.013523,0.002678,0.000431,0.055943
7290000,0.0324,0.013523,0.002678,0.000431,0.055708
7291000,0.0324,0.013523,0.002678,0.000431,0.055708
7292000,0.0324,0.013523,0.002678,0.000431,0.058059
7293000,0.0324,0.013523,0.002678,0.000431,0.058647
7294000,0.0324,0.013523,0.002678,0.000431,0.057119
7295000,0.0324,0.013523,0.002678,0.000431,0.057236
7296000,0.0324,0.013523,0.002678,0.000431,0.057824
7297000,0.0324,0.013523,0.002678,0.000431,0.056649
7298000,0.0324,0.013523,0.002678,0.000431,0.055473
7299000,0.0324,0.013523,0.002678,0.000431,0.059587
7300000,0.0324,0.013523,0.002678,0.000431,0.057706
7301000,0.0324,0.013523,0.002678,0.000431,0.056649
7302000,0.0324,0.013523,0.002678,0.000431,0.057001
7303000,0.0324,0.013523,0.002678,0.000431,0.057941
7304000,0.0324,0.013523,0.002678,0.000431,0.055826
7305000,0.0324,0.013523,0.002678,0.000431,0.055238
7306000,0.0324,0.013523,0.002678,0.000431,0.057236
7307000,0.0324,0.013523,0.002678,0.000431,0.056414
7308000,0.0324,0.013523,0.002678,0.000431,0.058529
7309000,0.0324,0.013523,0.002678,0.000431,0.054651
7310000,0.0324,0.013523,0.002678,0.000431,0.056178
7311000,0.0324,0.013523,0.002678,0.000431,0.056296
7312000,0.0324,0.013523,0.002678,0.000431,0.061820
7313000,0.0324,0.013523,0.002678,0.000431,0.058882
7314000,0.0324,0.013523,0.002678,0.000431,0.057706
7315000,0.0324,0.013523,0.002678,0.000431,0.054298
7316000,0.0324,0.013523,0.002678,0.000431,0.057236
7317000,0.0324,0.013523,0.002678,0.000431,0.057119
7318000,0.0324,0.013523,0.002678,0.000431,0.056649
7319000,0.0324,0.013523,0.002678,0.000431,0.058882
7320000,0.0324,0.013523,0.002678,0.000431,0.055473
7321000,0.0324,0.013523,0.002678,0.000431,0.056061
7322000,0.0324,0.013523,0.002678,0.000431,0.059469
7323000,0.0324,0.013523,0.002678,0.000431,0.056884
7324000,0.0324,0.013523,0.002678,0.000431,0.057236
7325000,0.0324,0.013523,0.002678,0.000431,0.057824
7326000,0.0324,0.013523,0.002678,0.000431,0.056296
7327000,0.0324,0.013523,0.002678,0.000431,0.056884
7328000,0.0324,0.013523,0.002678,0.000431,0.057706
7329000,0.0324,0.013523,0.002678,0.000431,0.055238
7330000,0.0324,0.013523,0.002678,0.000431,0.058294
7331000,0.0324,0.013523,0.002678,0.000431,0.058059
7332000,0.0324,0.013523,0.002678,0.000431,0.056296
7333000,0.0324,0.013523,0.002678,0.000431,0.057589
7334000,0.0324,0.013523,0.002678,0.000431,0.055943
7335000,0.0324,0.013523,0.002678,0.000431,0.056296
7336000,0.0324,0.013523,0.002678,0.000431,0.055003
7337000,0.0324,0.013523,0.002678,0.000431,0.054063
7338000,0.0324,0.013523,0.002678,0.000431,0.056296
7339000,0.0324,0.013523,0.002678,0.000431,0.054768
7340000,0.0324,0.013523,0.002678,0.000431,0.056649
7341000,0.0324,0.013523,0.002678,0.000431,0.054416
7342000,0.0324,0.013523,0.002678,0.000431,0.058882
7343000,0.0324,0.013523,0.002678,0.000431,0.055121
7344000,0.0324,0.013523,0.002678,0.000431,0.057354
7345000,0.0324,0.013523,0.002678,0.000431,0.060174
7346000,0.0324,0.013523,0.002678,0.000431,0.057354
7347000,0.0324,0.013523,0.002678,0.000431,0.055238
7348000,0.0324,0.013523,0.002678,0.000431,0.059704
7349000,0.0324,0.013523,0.002678,0.000431,0.055356
7350000,0.0324,0.013523,0.002678,0.000431,0.055473
7351000,0.0324,0.013523,0.002678,0.000431,0.056884
7352000,0.0324,0.013523,0.002678,0.000431,0.059939
7353000,0.0324,0.013523,0.002678,0.000431,0.057941
7354000,0.0324,0.013523,0.002678,0.000431,0.057119
7355000,0.0324,0.013523,0.002678,0.000431,0.056296
7356000,0.0324,0.013523,0.002678,0.000431,0.058529
7357000,0.0324,0.013523,0.002678,0.000431,0.057471
7358000,0.0324,0.013523,0.002678,0.000431,0.057706
7359000,0.0324,0.013523,0.002678,0.000431,0.057236
7360000,0.0324,0.013523,0.002678,0.000431,0.055591
7361000,0.0324,0.013523,0.002678,0.000431,0.055121
7362000,0.0324,0.013523,0.002678,0.000431,0.057589
7363000,0.0324,0.013523,0.002678,0.000431,0.058176
7364000,0.0324,0.013523,0.002678,0.000431,0.054651
7365000,0.0324,0.013523,0.002678,0.000431,0.057589
7366000,0.0324,0.013523,0.002678,0.000431,0.059117
7367000,0.0324,0.013523,0.002678,0.000431,0.056884
7368000,0.0324,0.013523,0.002678,0.000431,0.055826
7369000,0.0324,0.013523,0.002678,0.000431,0.058176
7370000,0.0324,0.013523,0.002678,0.000431,0.053828
7371000,0.0324,0.013523,0.002678,0.000431,0.060057
7372000,0.0324,0.013523,0.002678,0.000431,0.054298
7373000,0.0324,0.013523,0.002678,0.000431,0.057001
7374000,0.0324,0.013523,0.002678,0.000431,0.057471
7375000,0.0324,0.013523,0.002678,0.000431,0.057471
7376000,0.0324,0.013523,0.002678,0.000431,0.056884
7377000,0.0324,0.013523,0.002678,0.000431,0.055238
7378000,0.0324,0.013523,0.002678,0.000431,0.054416
7379000,0.0324,0.013523,0.002678,0.000431,0.059704
7380000,0.0324,0.013523,0.002678,0.000431,0.057824
7381000,0.0324,0.013523,0.002678,0.000431,0.058647
7382000,0.0324,0.013523,0.002678,0.000431,0.056531
7383000,0.0324,0.013523,0.002678,0.000431,0.057471
7384000,0.0324,0.013523,0.002678,0.000431,0.057589
7385000,0.0324,0.013523,0.002678,0.000431,0.056531
7386000,0.0324,0.013523,0.002678,0.000431,0.053240
7387000,0.0324,0.013523,0.002678,0.000431,0.057119
7388000,0.0324,0.013523,0.002678,0.000431,0.057824
7389000,0.0324,0.013523,0.002678,0.000431,0.060292
7390000,0.0324,0.013523,0.002678,0.000431,0.058059
7391000,0.0324,0.013523,0.002678,0.000431,0.055121
7392000,0.0324,0.013523,0.002678,0.000431,0.057589
7393000,0.0324,0.013523,0.002678,0.000431,0.055708
7394000,0.0324,0.013523,0.002678,0.000431,0.058412
7395000,0.0324,0.013523,0.002678,0.000431,0.056061
7396000,0.0324,0.013523,0.002678,0.000431,0.059469
7397000,0.0324,0.013523,0.002678,0.000431,0.056884
7398000,0.0324,0.013523,0.002678,0.000431,0.054886
7399000,0.0324,0.013523,0.002678,0.000431,0.059939
7400000,0.0324,0.013523,0.002678,0.000431,0.058294
7401000,0.0324,0.013523,0.002678,0.000431,0.057589
7402000,0.0324,0.013523,0.002678,0.000431,0.059117
7403000,0.0324,0.013523,0.002678,0.000431,0.056531
7404000,0.0324,0.013523,0.002678,0.000431,0.056531
7405000,0.0324,0.013523,0.002678,0.000431,0.058412
7406000,0.0324,0.013523,0.002678,0.000431,0.055473
7407000,0.0324,0.013523,0.002678,0.000431,0.058882
7408000,0.0324,0.013523,0.002678,0.000431,0.058412
7409000,0.0324,0.013523,0.002678,0.000431,0.058764
7410000,0.0324,0.013523,0.002678,0.000431,0.057236
7411000,0.0324,0.013523,0.002678,0.000431,0.056178
7412000,0.0324,0.013523,0.002678,0.000431,0.057354
7413000,0.0324,0.013523,0.002678,0.000431,0.056061
7414000,0.0324,0.013523,0.002678,0.000431,0.059587
7415000,0.0324,0.013523,0.002678,0.000431,0.057824
7416000,0.0324,0.013523,0.002678,0.000431,0.055943
7417000,0.0324,0.013523,0.002678,0.000431,0.055003
7418000,0.0324,0.013523,0.002678,0.000431,0.054886
7419000,0.0324,0.013523,0.002678,0.000431,0.056884
7420000,0.0324,0.013523,0.002678,0.000431,0.058882
7421000,0.0324,0.013523,0.002678,0.000431,0.059822
7422000,0.0324,0.013523,0.002678,0.000431,0.055356
7423000,0.0324,0.013523,0.002678,0.000431,0.058059
7424000,0.0324,0.013523,0.002678,0.000431,0.054651
7425000,0.0324,0.013523,0.002678,0.000431,0.057471
7426000,0.0324,0.013523,0.002678,0.000431,0.060880
7427000,0.0324,0.013523,0.002678,0.000431,0.057706
7428000,0.0324,0.013523,0.002678,0.000431,0.059234
7429000,0.0324,0.013523,0.002678,0.000431,0.057589
7430000,0.0324,0.013523,0.002678,0.000431,0.057236
7431000,0.0324,0.013523,0.002678,0.000431,0.056531
7432000,0.0324,0.013523,0.002678,0.000431,0.058529
7433000,0.0324,0.013523,0.002678,0.000431,0.059352
7434000,0.0324,0.013523,0.002678,0.000431,0.055943
7435000,0.0324,0.013523,0.002678,0.000431,0.057706
7436000,0.0324,0.013523,0.002678,0.000431,0.058764
7437000,0.0324,0.013523,0.002678,0.000431,0.059352
7438000,0.0324,0.013523,0.002678,0.000431,0.057706
7439000,0.0324,0.013523,0.002678,0.000431,0.059117
7440000,0.0324,0.013523,0.002678,0.000431,0.055591
7441000,0.0324,0.013523,0.002678,0.000431,0.056296
7442000,0.0324,0.013523,0.002678,0.000431,0.055356
7443000,0.0324,0.013523,0.002678,0.000431,0.052888
7444000,0.0324,0.013523,0.002678,0.000431,0.059117
7445000,0.0324,0.013523,0.002678,0.000431,0.060527
7446000,0.0324,0.013523,0.002678,0.000431,0.055708
7447000,0.0324,0.013523,0.002678,0.000431,0.057236
7448000,0.0324,0.013523,0.002678,0.000431,0.058764
7449000,0.0324,0.013523,0.002678,0.000431,0.058764
7450000,0.0324,0.013523,0.002678,0.000431,0.055708
7451000,0.0324,0.013523,0.002678,0.000431,0.060880
7452000,0.0324,0.013523,0.002678,0.000431,0.056766
7453000,0.0324,0.013523,0.002678,0.000431,0.056766
7454000,0.0324,0.013523,0.002678,0.000431,0.053828
7455000,0.0324,0.013523,0.002678,0.000431,0.056178
7456000,0.0324,0.013523,0.002678,0.000431,0.056884
7457000,0.0324,0.013523,0.002678,0.000431,0.056178
7458000,0.0324,0.013523,0.002678,0.000431,0.058529
7459000,0.0324,0.013523,0.002678,0.000431,0.057589
7460000,0.0324,0.013523,0.002678,0.000431,0.057471
7461000,0.0324,0.013523,0.002678,0.000431,0.055238
7462000,0.0324,0.013523,0.002678,0.000431,0.057941
7463000,0.0324,0.013523,0.002678,0.000431,0.057119
7464000,0.0324,0.013523,0.002678,0.000431,0.061820
7465000,0.0324,0.013523,0.002678,0.000431,0.054651
7466000,0.0324,0.013523,0.002678,0.000431,0.054651
7467000,0.0324,0.013523,0.002678,0.000431,0.053358
7468000,0.0324,0.013523,0.002678,0.000431,0.051595
7469000,0.0324,0.013523,0.002678,0.000431,0.055943
7470000,0.0324,0.013523,0.002678,0.000431,0.059587
7471000,0.0324,0.013523,0.002678,0.000431,0.057001
7472000,0.0324,0.013523,0.002678,0.000431,0.058294
7473000,0.0324,0.013523,0.002678,0.000431,0.057824
7474000,0.0324,0.013523,0.002678,0.000431,0.055473
7475000,0.0324,0.013523,0.002678,0.000431,0.054180
7476000,0.0324,0.013523,0.002678,0.000431,0.058999
7477000,0.0324,0.013523,0.002678,0.000431,0.059704
7478000,0.0324,0.013523,0.002678,0.000431,0.056531
7479000,0.0324,0.013523,0.002678,0.000431,0.058882
7480000,0.0324,0.013523,0.002678,0.000431,0.055003
7481000,0.0324,0.013523,0.002678,0.000431,0.054651
7482000,0.0324,0.013523,0.002678,0.000431,0.058529
7483000,0.0324,0.013523,0.002678,0.000431,0.059704
7484000,0.0324,0.013523,0.002678,0.000431,0.055591
7485000,0.0324,0.013523,0.002678,0.000431,0.057119
7486000,0.0324,0.013523,0.002678,0.000431,0.056531
7487000,0.0324,0.013523,0.002678,0.000431,0.055238
7488000,0.0324,0.013523,0.002678,0.000431,0.056766
7489000,0.0324,0.013523,0.002678,0.000431,0.058529
7490000,0.0324,0.013523,0.002678,0.000431,0.057589
7491000,0.0324,0.013523,0.002678,0.000431,0.056296
7492000,0.0324,0.013523,0.002678,0.000431,0.055826
7493000,0.0324,0.013523,0.002678,0.000431,0.059587
7494000,0.0324,0.013523,0.002678,0.000431,0.055591
7495000,0.0324,0.013523,0.002678,0.000431,0.059352
7496000,0.0324,0.013523,0.002678,0.000431,0.057941
7497000,0.0324,0.013523,0.002678,0.000431,0.058294
7498000,0.0324,0.013523,0.002678,0.000431,0.058176
7499000,0.0324,0.013523,0.002678,0.000431,0.058764
7500000,0.0324,0.013523,0.002678,0.000431,0.056414
7501000,0.0324,0.013523,0.002678,0.000431,0.053123
7502000,0.0324,0.013523,0.002678,0.000431,0.059234
7503000,0.0324,0.013523,0.002678,0.000431,0.055708
7504000,0.0324,0.013523,0.002678,0.000431,0.056531
7505000,0.0324,0.013523,0.002678,0.000431,0.056178
7506000,0.0324,0.013523,0.002678,0.000431,0.054416
7507000,0.0324,0.013523,0.002678,0.000431,0.056884
7508000,0.0324,0.013523,0.002678,0.000431,0.059469
7509000,0.0324,0.013523,0.002678,0.000431,0.054180
7510000,0.0324,0.013523,0.002678,0.000431,0.056296
7511000,0.0324,0.013523,0.002678,0.000431,0.055238
7512000,0.0324,0.013523,0.002678,0.000431,0.060409
7513000,0.0324,0.013523,0.002678,0.000431,0.056296
7514000,0.0324,0.013523,0.002678,0.000431,0.058176
7515000,0.0324,0.013523,0.002678,0.000431,0.056766
7516000,0.0324,0.013523,0.002678,0.000431,0.054298
7517000,0.0324,0.013523,0.002678,0.000431,0.057589
7518000,0.0324,0.013523,0.002678,0.000431,0.056296
7519000,0.0324,0.013523,0.002678,0.000431,0.058999
7520000,0.0324,0.013523,0.002678,0.000431,0.057824
7521000,0.0324,0.013523,0.002678,0.000431,0.055003
7522000,0.0324,0.013523,0.002678,0.000431,0.058176
7523000,0.0324,0.013523,0.002678,0.000431,0.060174
7524000,0.0324,0.013523,0.002678,0.000431,0.056884
7525000,0.0324,0.013523,0.002678,0.000431,0.055826
7526000,0.0324,0.013523,0.002678,0.000431,0.057941
7527000,0.0324,0.013523,0.002678,0.000431,0.057354
7528000,0.0324,0.013523,0.002678,0.000431,0.054180
7529000,0.0324,0.013523,0.002678,0.000431,0.057119
7530000,0.0324,0.013523,0.002678,0.000431,0.054416
7531000,0.0324,0.013523,0.002678,0.000431,0.053945
7532000,0.0324,0.013523,0.002678,0.000431,0.058529
7533000,0.0324,0.013523,0.002678,0.000431,0.056884
7534000,0.0324,0.013523,0.002678,0.000431,0.054886
7535000,0.0324,0.013523,0.002678,0.000431,0.057941
7536000,0.0324,0.013523,0.002678,0.000431,0.055591
7537000,0.0324,0.013523,0.002678,0.000431,0.056884
7538000,0.0324,0.013523,0.002678,0.000431,0.054416
7539000,0.0324,0.013523,0.002678,0.000431,0.059352
7540000,0.0324,0.013523,0.002678,0.000431,0.055591
7541000,0.0324,0.013523,0.002678,0.000431,0.055121
7542000,0.0324,0.013523,0.002678,0.000431,0.052888
7543000,0.0324,0.013523,0.002678,0.000431,0.056296
7544000,0.0324,0.013523,0.002678,0.000431,0.058999
7545000,0.0324,0.013523,0.002678,0.000431,0.056061
7546000,0.0324,0.013523,0.002678,0.000431,0.056649
7547000,0.0324,0.013523,0.002678,0.000431,0.055473
7548000,0.0324,0.013523,0.002678,0.000431,0.055708
7549000,0.0324,0.013523,0.002678,0.000431,0.051595
7550000,0.0324,0.013523,0.002678,0.000431,0.057941
7551000,0.0324,0.013523,0.002678,0.000431,0.059822
7552000,0.0324,0.013523,0.002678,0.000431,0.053475
7553000,0.0324,0.013523,0.002678,0.000431,0.057589
7554000,0.0324,0.013523,0.002678,0.000431,0.054768
7555000,0.0324,0.013523,0.002678,0.000431,0.055826
7556000,0.0324,0.013523,0.002678,0.000431,0.055003
7557000,0.0324,0.013523,0.002678,0.000431,0.058294
7558000,0.0324,0.013523,0.002678,0.000431,0.055708
7559000,0.0324,0.013523,0.002678,0.000431,0.060174
7560000,0.0324,0.013523,0.002678,0.000431,0.052418
7561000,0.0324,0.013523,0.002678,0.000431,0.058294
7562000,0.0324,0.013523,0.002678,0.000431,0.056531
7563000,0.0324,0.013523,0.002678,0.000431,0.055238
7564000,0.0324,0.013523,0.002678,0.000431,0.060645
7565000,0.0324,0.013523,0.002678,0.000431,0.055238
7566000,0.0324,0.013523,0.002678,0.000431,0.057354
7567000,0.0324,0.013523,0.002678,0.000431,0.055943
7568000,0.0324,0.013523,0.002678,0.000431,0.056649
7569000,0.0324,0.013523,0.002678,0.000431,0.057119
7570000,0.0324,0.013523,0.002678,0.000431,0.059234
7571000,0.0324,0.013523,0.002678,0.000431,0.057119
7572000,0.0324,0.013523,0.002678,0.000431,0.057589
7573000,0.0324,0.013523,0.002678,0.000431,0.057001
7574000,0.0324,0.013523,0.002678,0.000431,0.055238
7575000,0.0324,0.013523,0.002678,0.000431,0.057471
7576000,0.0324,0.013523,0.002678,0.000431,0.056884
7577000,0.0324,0.013523,0.002678,0.000431,0.058647
7578000,0.0324,0.013523,0.002678,0.000431,0.055356
7579000,0.0324,0.013523,0.002678,0.000431,0.060174
7580000,0.0324,0.013523,0.002678,0.000431,0.058176
7581000,0.0324,0.013523,0.002678,0.000431,0.055473
7582000,0.0324,0.013523,0.002678,0.000431,0.057119
7583000,0.0324,0.013523,0.002678,0.000431,0.057001
7584000,0.0324,0.013523,0.002678,0.000431,0.058412
7585000,0.0324,0.013523,0.002678,0.000431,0.056178
7586000,0.0324,0.013523,0.002678,0.000431,0.056531
7587000,0.0324,0.013523,0.002678,0.000431,0.054180
7588000,0.0324,0.013523,0.002678,0.000431,0.054298
7589000,0.0324,0.013523,0.002678,0.000431,0.056178
7590000,0.0324,0.013523,0.002678,0.000431,0.053475
7591000,0.0324,0.013523,0.002678,0.000431,0.055356
7592000,0.0324,0.013523,0.002678,0.000431,0.055003
7593000,0.0324,0.013523,0.002678,0.000431,0.055943
7594000,0.0324,0.013523,0.002678,0.000431,0.055943
7595000,0.0324,0.013523,0.002678,0.000431,0.053710
7596000,0.0324,0.013523,0.002678,0.000431,0.056414
7597000,0.0324,0.013523,0.002678,0.000431,0.054416
7598000,0.0324,0.013523,0.002678,0.000431,0.055238
7599000,0.0324,0.013523,0.002678,0.000431,0.057119
7600000,0.0324,0.013523,0.002678,0.000431,0.056296
7601000,0.0324,0.013523,0.002678,0.000431,0.055356
7602000,0.0324,0.013523,0.002678,0.000431,0.056766
7603000,0.0324,0.013523,0.002678,0.000431,0.054180
7604000,0.0324,0.013523,0.002678,0.000431,0.057824
7605000,0.0324,0.013523,0.002678,0.000431,0.054180
7606000,0.0324,0.013523,0.002678,0.000431,0.053240
7607000,0.0324,0.013523,0.002678,0.000431,0.057824
7608000,0.0324,0.013523,0.002678,0.000431,0.052418
7609000,0.0324,0.013523,0.002678,0.000431,0.055473
7610000,0.0324,0.013523,0.002678,0.000431,0.057001
7611000,0.0324,0.013523,0.002678,0.000431,0.055826
7612000,0.0324,0.013523,0.002678,0.000431,0.056178
7613000,0.0324,0.013523,0.002678,0.000431,0.055003
7614000,0.0324,0.013523,0.002678,0.000431,0.054533
7615000,0.0324,0.013523,0.002678,0.000431,0.054768
7616000,0.0324,0.013523,0.002678,0.000431,0.055356
7617000,0.0324,0.013523,0.002678,0.000431,0.050772
7618000,0.0324,0.013523,0.002678,0.000431,0.055943
7619000,0.0324,0.013523,0.002678,0.000431,0.054886
7620000,0.0324,0.013523,0.002678,0.000431,0.056649
7621000,0.0324,0.013523,0.002678,0.000431,0.054063
7622000,0.0324,0.013523,0.002678,0.000431,0.053593
7623000,0.0324,0.013523,0.002678,0.000431,0.055356
7624000,0.0324,0.013523,0.002678,0.000431,0.054298
7625000,0.0324,0.013523,0.002678,0.000431,0.056061
7626000,0.0324,0.013523,0.002678,0.000431,0.055826
7627000,0.0324,0.013523,0.002678,0.000431,0.054651
7628000,0.0324,0.013523,0.002678,0.000431,0.058294
7629000,0.0324,0.013523,0.002678,0.000431,0.055121
7630000,0.0324,0.013523,0.002678,0.000431,0.053828
7631000,0.0324,0.013523,0.002678,0.000431,0.053828
7632000,0.0324,0.013523,0.002678,0.000431,0.056649
7633000,0.0324,0.013523,0.002678,0.000431,0.052065
7634000,0.0324,0.013523,0.002678,0.000431,0.053828
7635000,0.0324,0.013523,0.002678,0.000431,0.056531
7636000,0.0324,0.013523,0.002678,0.000431,0.054063
7637000,0.0324,0.013523,0.002678,0.000431,0.058059
7638000,0.0324,0.013523,0.002678,0.000431,0.055473
7639000,0.0324,0.013523,0.002678,0.000431,0.053358
7640000,0.0324,0.013523,0.002678,0.000431,0.057706
7641000,0.0324,0.013523,0.002678,0.000431,0.051712
7642000,0.0324,0.013523,0.002678,0.000431,0.052770
7643000,0.0324,0.013523,0.002678,0.000431,0.056414
7644000,0.0324,0.013523,0.002678,0.000431,0.055591
7645000,0.0324,0.013523,0.002678,0.000431,0.056296
7646000,0.0324,0.013523,0.002678,0.000431,0.054886
7647000,0.0324,0.013523,0.002678,0.000431,0.051360
7648000,0.0324,0.013523,0.002678,0.000431,0.053005
7649000,0.0324,0.013523,0.002678,0.000431,0.055943
7650000,0.0324,0.013523,0.002678,0.000431,0.053005
7651000,0.0324,0.013523,0.002678,0.000431,0.056414
7652000,0.0324,0.013523,0.002678,0.000431,0.055591
7653000,0.0324,0.013523,0.002678,0.000431,0.052535
7654000,0.0324,0.013523,0.002678,0.000431,0.051947
7655000,0.0324,0.013523,0.002678,0.000431,0.055943
7656000,0.0324,0.013523,0.002678,0.000431,0.055708
7657000,0.0324,0.013523,0.002678,0.000431,0.051830
7658000,0.0324,0.013523,0.002678,0.000431,0.052653
7659000,0.0324,0.013523,0.002678,0.000431,0.052653
7660000,0.0324,0.013523,0.002678,0.000431,0.052418
7661000,0.0324,0.013523,0.002678,0.000431,0.053710
7662000,0.0324,0.013523,0.002678,0.000431,0.056061
7663000,0.0324,0.013523,0.002678,0.000431,0.054886
7664000,0.0324,0.013523,0.002678,0.000431,0.054180
7665000,0.0324,0.013523,0.002678,0.000431,0.054533
7666000,0.0324,0.013523,0.002678,0.000431,0.055708
7667000,0.0324,0.013523,0.002678,0.000431,0.051242
7668000,0.0324,0.013523,0.002678,0.000431,0.055238
7669000,0.0324,0.013523,0.002678,0.000431,0.053945
7670000,0.0324,0.013523,0.002678,0.000431,0.054416
7671000,0.0324,0.013523,0.002678,0.000431,0.051712
7672000,0.0324,0.013523,0.002678,0.000431,0.056766
7673000,0.0324,0.013523,0.002678,0.000431,0.053240
7674000,0.0324,0.013523,0.002678,0.000431,0.056178
7675000,0.0324,0.013523,0.002678,0.000431,0.055473
7676000,0.0324,0.013523,0.002678,0.000431,0.053123
7677000,0.0324,0.013523,0.002678,0.000431,0.054768
7678000,0.0324,0.013523,0.002678,0.000431,0.055003
7679000,0.0324,0.013523,0.002678,0.000431,0.054298
7680000,0.0324,0.013523,0.002678,0.000431,0.050890
7681000,0.0324,0.013523,0.002678,0.000431,0.054180
7682000,0.0324,0.013523,0.002678,0.000431,0.054533
7683000,0.0324,0.013523,0.002678,0.000431,0.050772
7684000,0.0324,0.013523,0.002678,0.000431,0.053358
7685000,0.0324,0.013523,0.002678,0.000431,0.053240
7686000,0.0324,0.013523,0.002678,0.000431,0.053240
7687000,0.0324,0.013523,0.002678,0.000431,0.052770
7688000,0.0324,0.013523,0.002678,0.000431,0.055238
7689000,0.0324,0.013523,0.002678,0.000431,0.052888
7690000,0.0324,0.013523,0.002678,0.000431,0.055943
7691000,0.0324,0.013523,0.002678,0.000431,0.054651
7692000,0.0324,0.013523,0.002678,0.000431,0.049832
7693000,0.0324,0.013523,0.002678,0.000431,0.054298
7694000,0.0324,0.013523,0.002678,0.000431,0.052183
7695000,0.0324,0.013523,0.002678,0.000431,0.054651
7696000,0.0324,0.013523,0.002678,0.000431,0.053358
7697000,0.0324,0.013523,0.002678,0.000431,0.052183
7698000,0.0324,0.013523,0.002678,0.000431,0.055356
7699000,0.0324,0.013523,0.002678,0.000431,0.053240
7700000,0.0324,0.013523,0.002678,0.000431,0.053123
7701000,0.0324,0.013523,0.002678,0.000431,0.052300
7702000,0.0324,0.013523,0.002678,0.000431,0.053945
7703000,0.0324,0.013523,0.002678,0.000431,0.054298
7704000,0.0324,0.013523,0.002678,0.000431,0.055356
7705000,0.0324,0.013523,0.002678,0.000431,0.055591
7706000,0.0324,0.013523,0.002678,0.000431,0.055591
7707000,0.0324,0.013523,0.002678,0.000431,0.053240
7708000,0.0324,0.013523,0.002678,0.000431,0.051242
7709000,0.0324,0.013523,0.002678,0.000431,0.052300
7710000,0.0324,0.013523,0.002678,0.000431,0.057824
7711000,0.0324,0.013523,0.002678,0.000431,0.051360
7712000,0.0324,0.013523,0.002678,0.000431,0.052418
7713000,0.0324,0.013523,0.002678,0.000431,0.050772
7714000,0.0324,0.013523,0.002678,0.000431,0.051595
7715000,0.0324,0.013523,0.002678,0.000431,0.057236
7716000,0.0324,0.013523,0.002678,0.000431,0.052300
7717000,0.0324,0.013523,0.002678,0.000431,0.052065
7718000,0.0324,0.013523,0.002678,0.000431,0.054180
7719000,0.0324,0.013523,0.002678,0.000431,0.055826
7720000,0.0324,0.013523,0.002678,0.000431,0.053710
7721000,0.0324,0.013523,0.002678,0.000431,0.049949
7722000,0.0324,0.013523,0.002678,0.000431,0.053593
7723000,0.0324,0.013523,0.002678,0.000431,0.051712
7724000,0.0324,0.013523,0.002678,0.000431,0.053710
7725000,0.0324,0.013523,0.002678,0.000431,0.051125
7726000,0.0324,0.013523,0.002678,0.000431,0.052535
7727000,0.0324,0.013523,0.002678,0.000431,0.053358
7728000,0.0324,0.013523,0.002678,0.000431,0.056296
7729000,0.0324,0.013523,0.002678,0.000431,0.050302
7730000,0.0324,0.013523,0.002678,0.000431,0.053945
7731000,0.0324,0.013523,0.002678,0.000431,0.052770
7732000,0.0324,0.013523,0.002678,0.000431,0.050890
7733000,0.0324,0.013523,0.002678,0.000431,0.049714
7734000,0.0324,0.013523,0.002678,0.000431,0.051007
7735000,0.0324,0.013523,0.002678,0.000431,0.049009
7736000,0.0324,0.013523,0.002678,0.000431,0.050772
7737000,0.0324,0.013523,0.002678,0.000431,0.052065
7738000,0.0324,0.013523,0.002678,0.000431,0.054298
7739000,0.0324,0.013523,0.002678,0.000431,0.050655
7740000,0.0324,0.013523,0.002678,0.000431,0.053358
7741000,0.0324,0.013523,0.002678,0.000431,0.053475
7742000,0.0324,0.013523,0.002678,0.000431,0.051242
7743000,0.0324,0.013523,0.002678,0.000431,0.053828
7744000,0.0324,0.013523,0.002678,0.000431,0.054886
7745000,0.0324,0.013523,0.002678,0.000431,0.052183
7746000,0.0324,0.013523,0.002678,0.000431,0.052300
7747000,0.0324,0.013523,0.002678,0.000431,0.051712
7748000,0.0324,0.013523,0.002678,0.000431,0.050537
7749000,0.0324,0.013523,0.002678,0.000431,0.053123
7750000,0.0324,0.013523,0.002678,0.000431,0.051830
7751000,0.0324,0.013523,0.002678,0.000431,0.053123
7752000,0.0324,0.013523,0.002678,0.000431,0.050772
7753000,0.0324,0.013523,0.002678,0.000431,0.055708
7754000,0.0324,0.013523,0.002678,0.000431,0.053358
7755000,0.0324,0.013523,0.002678,0.000431,0.049714
7756000,0.0324,0.013523,0.002678,0.000431,0.053005
7757000,0.0324,0.013523,0.002678,0.000431,0.050890
7758000,0.0324,0.013523,0.002678,0.000431,0.056296
7759000,0.0324,0.013523,0.002678,0.000431,0.051477
7760000,0.0324,0.013523,0.002678,0.000431,0.053828
7761000,0.0324,0.013523,0.002678,0.000431,0.056178
7762000,0.0324,0.013523,0.002678,0.000431,0.050890
7763000,0.0324,0.013523,0.002678,0.000431,0.054063
7764000,0.0324,0.013523,0.002678,0.000431,0.053710
7765000,0.0324,0.013523,0.002678,0.000431,0.051242
7766000,0.0324,0.013523,0.002678,0.000431,0.052535
7767000,0.0324,0.013523,0.002678,0.000431,0.049832
7768000,0.0324,0.013523,0.002678,0.000431,0.050067
7769000,0.0324,0.013523,0.002678,0.000431,0.051595
7770000,0.0324,0.013523,0.002678,0.000431,0.052183
7771000,0.0324,0.013523,0.002678,0.000431,0.050420
7772000,0.0324,0.013523,0.002678,0.000431,0.053710
7773000,0.0324,0.013523,0.002678,0.000431,0.050655
7774000,0.0324,0.013523,0.002678,0.000431,0.054651
7775000,0.0324,0.013523,0.002678,0.000431,0.053005
7776000,0.0324,0.013523,0.002678,0.000431,0.050420
7777000,0.0324,0.013523,0.002678,0.000431,0.051242
7778000,0.0324,0.013523,0.002678,0.000431,0.051947
7779000,0.0324,0.013523,0.002678,0.000431,0.051125
7780000,0.0324,0.013523,0.002678,0.000431,0.052065
7781000,0.0324,0.013523,0.002678,0.000431,0.051242
7782000,0.0324,0.013523,0.002678,0.000431,0.050890
7783000,0.0324,0.013523,0.002678,0.000431,0.053828
7784000,0.0324,0.013523,0.002678,0.000431,0.050890
7785000,0.0324,0.013523,0.002678,0.000431,0.057471
7786000,0.0324,0.013523,0.002678,0.000431,0.053240
7787000,0.0324,0.013523,0.002678,0.000431,0.051125
7788000,0.0324,0.013523,0.002678,0.000431,0.050420
7789000,0.0324,0.013523,0.002678,0.000431,0.055591
7790000,0.0324,0.013523,0.002678,0.000431,0.053240
7791000,0.0324,0.013523,0.002678,0.000431,0.053123
7792000,0.0324,0.013523,0.002678,0.000431,0.054533
7793000,0.0324,0.013523,0.002678,0.000431,0.052300
7794000,0.0324,0.013523,0.002678,0.000431,0.053828
7795000,0.0324,0.013523,0.002678,0.000431,0.049949
7796000,0.0324,0.013523,0.002678,0.000431,0.052183
7797000,0.0324,0.013523,0.002678,0.000431,0.051477
7798000,0.0324,0.013523,0.002678,0.000431,0.051712
7799000,0.0324,0.013523,0.002678,0.000431,0.049009
7800000,0.0324,0.013523,0.002678,0.000431,0.048774
7801000,0.0324,0.013523,0.002678,0.000431,0.053593
7802000,0.0324,0.013523,0.002678,0.000431,0.051712
7803000,0.0324,0.013523,0.002678,0.000431,0.053593
7804000,0.0324,0.013523,0.002678,0.000431,0.050655
7805000,0.0324,0.013523,0.002678,0.000431,0.052653
7806000,0.0324,0.013523,0.002678,0.000431,0.048892
7807000,0.0324,0.013523,0.002678,0.000431,0.051595
7808000,0.0324,0.013523,0.002678,0.000431,0.054416
7809000,0.0324,0.013523,0.002678,0.000431,0.051712
7810000,0.0324,0.013523,0.002678,0.000431,0.054298
7811000,0.0324,0.013523,0.002678,0.000431,0.049362
7812000,0.0324,0.013523,0.002678,0.000431,0.050185
7813000,0.0324,0.013523,0.002678,0.000431,0.051947
7814000,0.0324,0.013523,0.002678,0.000431,0.050185
7815000,0.0324,0.013523,0.002678,0.000431,0.052535
7816000,0.0324,0.013523,0.002678,0.000431,0.050537
7817000,0.0324,0.013523,0.002678,0.000431,0.049714
7818000,0.0324,0.013523,0.002678,0.000431,0.051477
7819000,0.0324,0.013523,0.002678,0.000431,0.054063
7820000,0.0324,0.013523,0.002678,0.000431,0.050420
7821000,0.0324,0.013523,0.002678,0.000431,0.054063
7822000,0.0324,0.013523,0.002678,0.000431,0.048657
7823000,0.0324,0.013523,0.002678,0.000431,0.054063
7824000,0.0324,0.013523,0.002678,0.000431,0.049597
7825000,0.0324,0.013523,0.002678,0.000431,0.052418
7826000,0.0324,0.013523,0.002678,0.000431,0.051360
7827000,0.0324,0.013523,0.002678,0.000431,0.050420
7828000,0.0324,0.013523,0.002678,0.000431,0.050420
7829000,0.0324,0.013523,0.002678,0.000431,0.049949
7830000,0.0324,0.013523,0.002678,0.000431,0.052888
7831000,0.0324,0.013523,0.002678,0.000431,0.053828
7832000,0.0324,0.013523,0.002678,0.000431,0.049832
7833000,0.0324,0.013523,0.002678,0.000431,0.053945
7834000,0.0324,0.013523,0.002678,0.000431,0.051595
7835000,0.0324,0.013523,0.002678,0.000431,0.052300
7836000,0.0324,0.013523,0.002678,0.000431,0.052183
7837000,0.0324,0.013523,0.002678,0.000431,0.050890
7838000,0.0324,0.013523,0.002678,0.000431,0.050302
7839000,0.0324,0.013523,0.002678,0.000431,0.050890
7840000,0.0324,0.013523,0.002678,0.000431,0.050302
7841000,0.0324,0.013523,0.002678,0.000431,0.052183
7842000,0.0324,0.013523,0.002678,0.000431,0.053593
7843000,0.0324,0.013523,0.002678,0.000431,0.051242
7844000,0.0324,0.013523,0.002678,0.000431,0.051125
7845000,0.0324,0.013523,0.002678,0.000431,0.052535
7846000,0.0324,0.013523,0.002678,0.000431,0.052418
7847000,0.0324,0.013523,0.002678,0.000431,0.050185
7848000,0.0324,0.013523,0.002678,0.000431,0.055238
7849000,0.0324,0.013523,0.002678,0.000431,0.051947
7850000,0.0324,0.013523,0.002678,0.000431,0.049832
7851000,0.0324,0.013523,0.002678,0.000431,0.050067
7852000,0.0324,0.013523,0.002678,0.000431,0.052065
7853000,0.0324,0.013523,0.002678,0.000431,0.053123
7854000,0.0324,0.013523,0.002678,0.000431,0.049714
7855000,0.0324,0.013523,0.002678,0.000431,0.052300
7856000,0.0324,0.013523,0.002678,0.000431,0.052653
7857000,0.0324,0.013523,0.002678,0.000431,0.052770
7858000,0.0324,0.013523,0.002678,0.000431,0.048187
7859000,0.0324,0.013523,0.002678,0.000431,0.052065
7860000,0.0324,0.013523,0.002678,0.000431,0.054768
7861000,0.0324,0.013523,0.002678,0.000431,0.053475
7862000,0.0324,0.013523,0.002678,0.000431,0.053358
7863000,0.0324,0.013523,0.002678,0.000431,0.050890
7864000,0.0324,0.013523,0.002678,0.000431,0.052653
7865000,0.0324,0.013523,0.002678,0.000431,0.050890
7866000,0.0324,0.013523,0.002678,0.000431,0.055121
7867000,0.0324,0.013523,0.002678,0.000431,0.051595
7868000,0.0324,0.013523,0.002678,0.000431,0.049832
7869000,0.0324,0.013523,0.002678,0.000431,0.051712
7870000,0.0324,0.013523,0.002678,0.000431,0.052065
7871000,0.0324,0.013523,0.002678,0.000431,0.050185
7872000,0.0324,0.013523,0.002678,0.000431,0.051595
7873000,0.0324,0.013523,0.002678,0.000431,0.051007
7874000,0.0324,0.013523,0.002678,0.000431,0.051830
7875000,0.0324,0.013523,0.002678,0.000431,0.049362
7876000,0.0324,0.013523,0.002678,0.000431,0.054063
7877000,0.0324,0.013523,0.002678,0.000431,0.050890
7878000,0.0324,0.013523,0.002678,0.000431,0.053593
7879000,0.0324,0.013523,0.002678,0.000431,0.049244
7880000,0.0324,0.013523,0.002678,0.000431,0.051477
7881000,0.0324,0.013523,0.002678,0.000431,0.048539
7882000,0.0324,0.013523,0.002678,0.000431,0.052418
7883000,0.0324,0.013523,0.002678,0.000431,0.053123
7884000,0.0324,0.013523,0.002678,0.000431,0.050655
7885000,0.0324,0.013523,0.002678,0.000431,0.052183
7886000,0.0324,0.013523,0.002678,0.000431,0.048774
7887000,0.0324,0.013523,0.002678,0.000431,0.051477
7888000,0.0324,0.013523,0.002678,0.000431,0.050067
7889000,0.0324,0.013523,0.002678,0.000431,0.047834
7890000,0.0324,0.013523,0.002678,0.000431,0.055121
7891000,0.0324,0.013523,0.002678,0.000431,0.050537
7892000,0.0324,0.013523,0.002678,0.000431,0.050537
7893000,0.0324,0.013523,0.002678,0.000431,0.049597
7894000,0.0324,0.013523,0.002678,0.000431,0.050420
7895000,0.0324,0.013523,0.002678,0.000431,0.052888
7896000,0.0324,0.013523,0.002678,0.000431,0.052300
7897000,0.0324,0.013523,0.002678,0.000431,0.050655
7898000,0.0324,0.013523,0.002678,0.000431,0.049714
7899000,0.0324,0.013523,0.002678,0.000431,0.049244
7900000,0.0324,0.013523,0.002678,0.000431,0.050655
7901000,0.0324,0.013523,0.002678,0.000431,0.050655
7902000,0.0324,0.013523,0.002678,0.000431,0.049244
7903000,0.0324,0.013523,0.002678,0.000431,0.052535
7904000,0.0324,0.013523,0.002678,0.000431,0.050302
7905000,0.0324,0.013523,0.002678,0.000431,0.050067
7906000,0.0324,0.013523,0.002678,0.000431,0.051477
7907000,0.0324,0.013523,0.002678,0.000431,0.049244
7908000,0.0324,0.013523,0.002678,0.000431,0.050890
7909000,0.0324,0.013523,0.002678,0.000431,0.051595
7910000,0.0324,0.013523,0.002678,0.000431,0.052770
7911000,0.0324,0.013523,0.002678,0.000431,0.050302
7912000,0.0324,0.013523,0.002678,0.000431,0.047716
7913000,0.0324,0.013523,0.002678,0.000431,0.046776
7914000,0.0324,0.013523,0.002678,0.000431,0.049832
7915000,0.0324,0.013523,0.002678,0.000431,0.051360
7916000,0.0324,0.013523,0.002678,0.000431,0.053593
7917000,0.0324,0.013523,0.002678,0.000431,0.049949
7918000,0.0324,0.013523,0.002678,0.000431,0.046424
7919000,0.0324,0.013523,0.002678,0.000431,0.050067
7920000,0.0324,0.013523,0.002678,0.000431,0.053358
7921000,0.0324,0.013523,0.002678,0.000431,0.049244
7922000,0.0324,0.013523,0.002678,0.000431,0.052888
7923000,0.0324,0.013523,0.002678,0.000431,0.046424
7924000,0.0324,0.013523,0.002678,0.000431,0.048187
7925000,0.0324,0.013523,0.002678,0.000431,0.051712
7926000,0.0324,0.013523,0.002678,0.000431,0.049127
7927000,0.0324,0.013523,0.002678,0.000431,0.051712
7928000,0.0324,0.013523,0.002678,0.000431,0.049949
7929000,0.0324,0.013523,0.002678,0.000431,0.050302
7930000,0.0324,0.013523,0.002678,0.000431,0.051125
7931000,0.0324,0.013523,0.002678,0.000431,0.050890
7932000,0.0324,0.013523,0.002678,0.000431,0.049479
7933000,0.0324,0.013523,0.002678,0.000431,0.050302
7934000,0.0324,0.013523,0.002678,0.000431,0.049714
7935000,0.0324,0.013523,0.002678,0.000431,0.052653
7936000,0.0324,0.013523,0.002678,0.000431,0.049362
7937000,0.0324,0.013523,0.002678,0.000431,0.047364
7938000,0.0324,0.013523,0.002678,0.000431,0.050890
7939000,0.0324,0.013523,0.002678,0.000431,0.047364
7940000,0.0324,0.013523,0.002678,0.000431,0.051007
7941000,0.0324,0.013523,0.002678,0.000431,0.049479
7942000,0.0324,0.013523,0.002678,0.000431,0.051125
7943000,0.0324,0.013523,0.002678,0.000431,0.049479
7944000,0.0324,0.013523,0.002678,0.000431,0.045954
7945000,0.0324,0.013523,0.002678,0.000431,0.050537
7946000,0.0324,0.013523,0.002678,0.000431,0.047599
7947000,0.0324,0.013523,0.002678,0.000431,0.048422
7948000,0.0324,0.013523,0.002678,0.000431,0.050185
7949000,0.0324,0.013523,0.002678,0.000431,0.049479
7950000,0.0324,0.013523,0.002678,0.000431,0.046894
7951000,0.0324,0.013523,0.002678,0.000431,0.046776
7952000,0.0324,0.013523,0.002678,0.000431,0.049009
7953000,0.0324,0.013523,0.002678,0.000431,0.049714
7954000,0.0324,0.013523,0.002678,0.000431,0.046306
7955000,0.0324,0.013523,0.002678,0.000431,0.050537
7956000,0.0324,0.013523,0.002678,0.000431,0.045483
7957000,0.0324,0.013523,0.002678,0.000431,0.049244
7958000,0.0324,0.013523,0.002678,0.000431,0.051007
7959000,0.0324,0.013523,0.002678,0.000431,0.046541
7960000,0.0324,0.013523,0.002678,0.000431,0.048539
7961000,0.0324,0.013523,0.002678,0.000431,0.046894
7962000,0.0324,0.013523,0.002678,0.000431,0.047481
7963000,0.0324,0.013523,0.002678,0.000431,0.051477
7964000,0.0324,0.013523,0.002678,0.000431,0.048422
7965000,0.0324,0.013523,0.002678,0.000431,0.049009
7966000,0.0324,0.013523,0.002678,0.000431,0.045718
7967000,0.0324,0.013523,0.002678,0.000431,0.048304
7968000,0.0324,0.013523,0.002678,0.000431,0.044778
7969000,0.0324,0.013523,0.002678,0.000431,0.049597
7970000,0.0324,0.013523,0.002678,0.000431,0.050185
7971000,0.0324,0.013523,0.002678,0.000431,0.048069
7972000,0.0324,0.013523,0.002678,0.000431,0.051007
7973000,0.0324,0.013523,0.002678,0.000431,0.050772
7974000,0.0324,0.013523,0.002678,0.000431,0.048774
7975000,0.0324,0.013523,0.002678,0.000431,0.048892
7976000,0.0324,0.013523,0.002678,0.000431,0.051242
7977000,0.0324,0.013523,0.002678,0.000431,0.047481
7978000,0.0324,0.013523,0.002678,0.000431,0.050302
7979000,0.0324,0.013523,0.002678,0.000431,0.048892
7980000,0.0324,0.013523,0.002678,0.000431,0.046659
7981000,0.0324,0.013523,0.002678,0.000431,0.048657
7982000,0.0324,0.013523,0.002678,0.000431,0.048657
7983000,0.0324,0.013523,0.002678,0.000431,0.049362
7984000,0.0324,0.013523,0.002678,0.000431,0.052418
7985000,0.0324,0.013523,0.002678,0.000431,0.052300
7986000,0.0324,0.013523,0.002678,0.000431,0.050302
7987000,0.0324,0.013523,0.002678,0.000431,0.048892
7988000,0.0324,0.013523,0.002678,0.000431,0.048187
7989000,0.0324,0.013523,0.002678,0.000431,0.049362
7990000,0.0324,0.013523,0.002678,0.000431,0.050302
7991000,0.0324,0.013523,0.002678,0.000431,0.049714
7992000,0.0324,0.013523,0.002678,0.000431,0.047481
7993000,0.0324,0.013523,0.002678,0.000431,0.049832
7994000,0.0324,0.013523,0.002678,0.000431,0.049244
7995000,0.0324,0.013523,0.002678,0.000431,0.050185
7996000,0.0324,0.013523,0.002678,0.000431,0.047599
7997000,0.0324,0.013523,0.002678,0.000431,0.047951
7998000,0.0324,0.013523,0.002678,0.000431,0.049597
7999000,0.0324,0.013523,0.002678,0.000431,0.046776
