Cycle,Area(mm^2),PeakDynamic(W),SubthresholdLeakage(W),GateLeakage(W),RunTimeDynamic(W)
29000000,0.0324,0.013523,0.002678,0.000431,0.000823
29001000,0.0324,0.013523,0.002678,0.000431,0.001175
29002000,0.0324,0.013523,0.002678,0.000431,0.000823
29003000,0.0324,0.013523,0.002678,0.000431,0.000705
29004000,0.0324,0.013523,0.002678,0.000431,0.001293
29005000,0.0324,0.013523,0.002678,0.000431,0.000940
29006000,0.0324,0.013523,0.002678,0.000431,0.001058
29007000,0.0324,0.013523,0.002678,0.000431,0.001058
29008000,0.0324,0.013523,0.002678,0.000431,0.001528
29009000,0.0324,0.013523,0.002678,0.000431,0.001528
29010000,0.0324,0.013523,0.002678,0.000431,0.001058
29011000,0.0324,0.013523,0.002678,0.000431,0.001293
29012000,0.0324,0.013523,0.002678,0.000431,0.001175
29013000,0.0324,0.013523,0.002678,0.000431,0.001293
29014000,0.0324,0.013523,0.002678,0.000431,0.001058
29015000,0.0324,0.013523,0.002678,0.000431,0.001175
29016000,0.0324,0.013523,0.002678,0.000431,0.000823
29017000,0.0324,0.013523,0.002678,0.000431,0.001293
29018000,0.0324,0.013523,0.002678,0.000431,0.001410
29019000,0.0324,0.013523,0.002678,0.000431,0.001175
29020000,0.0324,0.013523,0.002678,0.000431,0.001410
29021000,0.0324,0.013523,0.002678,0.000431,0.001058
29022000,0.0324,0.013523,0.002678,0.000431,0.001293
29023000,0.0324,0.013523,0.002678,0.000431,0.001293
29024000,0.0324,0.013523,0.002678,0.000431,0.001293
29025000,0.0324,0.013523,0.002678,0.000431,0.001293
29026000,0.0324,0.013523,0.002678,0.000431,0.000705
29027000,0.0324,0.013523,0.002678,0.000431,0.001293
29028000,0.0324,0.013523,0.002678,0.000431,0.001528
29029000,0.0324,0.013523,0.002678,0.000431,0.001058
29030000,0.0324,0.013523,0.002678,0.000431,0.000940
29031000,0.0324,0.013523,0.002678,0.000431,0.001058
29032000,0.0324,0.013523,0.002678,0.000431,0.001058
29033000,0.0324,0.013523,0.002678,0.000431,0.001058
29034000,0.0324,0.013523,0.002678,0.000431,0.000823
29035000,0.0324,0.013523,0.002678,0.000431,0.001528
29036000,0.0324,0.013523,0.002678,0.000431,0.000705
29037000,0.0324,0.013523,0.002678,0.000431,0.001293
29038000,0.0324,0.013523,0.002678,0.000431,0.001175
29039000,0.0324,0.013523,0.002678,0.000431,0.001175
29040000,0.0324,0.013523,0.002678,0.000431,0.001058
29041000,0.0324,0.013523,0.002678,0.000431,0.000705
29042000,0.0324,0.013523,0.002678,0.000431,0.000940
29043000,0.0324,0.013523,0.002678,0.000431,0.000940
29044000,0.0324,0.013523,0.002678,0.000431,0.001528
29045000,0.0324,0.013523,0.002678,0.000431,0.001293
29046000,0.0324,0.013523,0.002678,0.000431,0.000705
29047000,0.0324,0.013523,0.002678,0.000431,0.001410
29048000,0.0324,0.013523,0.002678,0.000431,0.001058
29049000,0.0324,0.013523,0.002678,0.000431,0.001410
29050000,0.0324,0.013523,0.002678,0.000431,0.001410
29051000,0.0324,0.013523,0.002678,0.000431,0.000940
29052000,0.0324,0.013523,0.002678,0.000431,0.000823
29053000,0.0324,0.013523,0.002678,0.000431,0.001175
29054000,0.0324,0.013523,0.002678,0.000431,0.000705
29055000,0.0324,0.013523,0.002678,0.000431,0.000823
29056000,0.0324,0.013523,0.002678,0.000431,0.001175
29057000,0.0324,0.013523,0.002678,0.000431,0.000823
29058000,0.0324,0.013523,0.002678,0.000431,0.001410
29059000,0.0324,0.013523,0.002678,0.000431,0.000940
29060000,0.0324,0.013523,0.002678,0.000431,0.001175
29061000,0.0324,0.013523,0.002678,0.000431,0.000940
29062000,0.0324,0.013523,0.002678,0.000431,0.000940
29063000,0.0324,0.013523,0.002678,0.000431,0.001058
29064000,0.0324,0.013523,0.002678,0.000431,0.001175
29065000,0.0324,0.013523,0.002678,0.000431,0.001410
29066000,0.0324,0.013523,0.002678,0.000431,0.001058
29067000,0.0324,0.013523,0.002678,0.000431,0.001058
29068000,0.0324,0.013523,0.002678,0.000431,0.001175
29069000,0.0324,0.013523,0.002678,0.000431,0.000940
29070000,0.0324,0.013523,0.002678,0.000431,0.001293
29071000,0.0324,0.013523,0.002678,0.000431,0.000705
29072000,0.0324,0.013523,0.002678,0.000431,0.001058
29073000,0.0324,0.013523,0.002678,0.000431,0.001410
29074000,0.0324,0.013523,0.002678,0.000431,0.001528
29075000,0.0324,0.013523,0.002678,0.000431,0.000705
29076000,0.0324,0.013523,0.002678,0.000431,0.001410
29077000,0.0324,0.013523,0.002678,0.000431,0.000588
29078000,0.0324,0.013523,0.002678,0.000431,0.001410
29079000,0.0324,0.013523,0.002678,0.000431,0.000940
29080000,0.0324,0.013523,0.002678,0.000431,0.001058
29081000,0.0324,0.013523,0.002678,0.000431,0.000940
29082000,0.0324,0.013523,0.002678,0.000431,0.001058
29083000,0.0324,0.013523,0.002678,0.000431,0.001058
29084000,0.0324,0.013523,0.002678,0.000431,0.000823
29085000,0.0324,0.013523,0.002678,0.000431,0.001645
29086000,0.0324,0.013523,0.002678,0.000431,0.001058
29087000,0.0324,0.013523,0.002678,0.000431,0.001058
29088000,0.0324,0.013523,0.002678,0.000431,0.000940
29089000,0.0324,0.013523,0.002678,0.000431,0.001175
29090000,0.0324,0.013523,0.002678,0.000431,0.001528
29091000,0.0324,0.013523,0.002678,0.000431,0.001058
29092000,0.0324,0.013523,0.002678,0.000431,0.001175
29093000,0.0324,0.013523,0.002678,0.000431,0.001058
29094000,0.0324,0.013523,0.002678,0.000431,0.001293
29095000,0.0324,0.013523,0.002678,0.000431,0.001058
29096000,0.0324,0.013523,0.002678,0.000431,0.000705
29097000,0.0324,0.013523,0.002678,0.000431,0.001058
29098000,0.0324,0.013523,0.002678,0.000431,0.001293
29099000,0.0324,0.013523,0.002678,0.000431,0.000823
29100000,0.0324,0.013523,0.002678,0.000431,0.001175
29101000,0.0324,0.013523,0.002678,0.000431,0.001058
29102000,0.0324,0.013523,0.002678,0.000431,0.000705
29103000,0.0324,0.013523,0.002678,0.000431,0.001528
29104000,0.0324,0.013523,0.002678,0.000431,0.001528
29105000,0.0324,0.013523,0.002678,0.000431,0.001528
29106000,0.0324,0.013523,0.002678,0.000431,0.001293
29107000,0.0324,0.013523,0.002678,0.000431,0.000940
29108000,0.0324,0.013523,0.002678,0.000431,0.001293
29109000,0.0324,0.013523,0.002678,0.000431,0.001058
29110000,0.0324,0.013523,0.002678,0.000431,0.000940
29111000,0.0324,0.013523,0.002678,0.000431,0.000940
29112000,0.0324,0.013523,0.002678,0.000431,0.001293
29113000,0.0324,0.013523,0.002678,0.000431,0.001175
29114000,0.0324,0.013523,0.002678,0.000431,0.001058
29115000,0.0324,0.013523,0.002678,0.000431,0.001528
29116000,0.0324,0.013523,0.002678,0.000431,0.001293
29117000,0.0324,0.013523,0.002678,0.000431,0.000940
29118000,0.0324,0.013523,0.002678,0.000431,0.001528
29119000,0.0324,0.013523,0.002678,0.000431,0.000940
29120000,0.0324,0.013523,0.002678,0.000431,0.001293
29121000,0.0324,0.013523,0.002678,0.000431,0.000823
29122000,0.0324,0.013523,0.002678,0.000431,0.000940
29123000,0.0324,0.013523,0.002678,0.000431,0.001175
29124000,0.0324,0.013523,0.002678,0.000431,0.001645
29125000,0.0324,0.013523,0.002678,0.000431,0.001410
29126000,0.0324,0.013523,0.002678,0.000431,0.001058
29127000,0.0324,0.013523,0.002678,0.000431,0.001175
29128000,0.0324,0.013523,0.002678,0.000431,0.001293
29129000,0.0324,0.013523,0.002678,0.000431,0.001293
29130000,0.0324,0.013523,0.002678,0.000431,0.001058
29131000,0.0324,0.013523,0.002678,0.000431,0.000940
29132000,0.0324,0.013523,0.002678,0.000431,0.001058
29133000,0.0324,0.013523,0.002678,0.000431,0.001293
29134000,0.0324,0.013523,0.002678,0.000431,0.001528
29135000,0.0324,0.013523,0.002678,0.000431,0.001058
29136000,0.0324,0.013523,0.002678,0.000431,0.000940
29137000,0.0324,0.013523,0.002678,0.000431,0.001175
29138000,0.0324,0.013523,0.002678,0.000431,0.000940
29139000,0.0324,0.013523,0.002678,0.000431,0.001058
29140000,0.0324,0.013523,0.002678,0.000431,0.001293
29141000,0.0324,0.013523,0.002678,0.000431,0.001175
29142000,0.0324,0.013523,0.002678,0.000431,0.000823
29143000,0.0324,0.013523,0.002678,0.000431,0.001058
29144000,0.0324,0.013523,0.002678,0.000431,0.001175
29145000,0.0324,0.013523,0.002678,0.000431,0.001410
29146000,0.0324,0.013523,0.002678,0.000431,0.001058
29147000,0.0324,0.013523,0.002678,0.000431,0.000940
29148000,0.0324,0.013523,0.002678,0.000431,0.001528
29149000,0.0324,0.013523,0.002678,0.000431,0.000940
29150000,0.0324,0.013523,0.002678,0.000431,0.001410
29151000,0.0324,0.013523,0.002678,0.000431,0.001058
29152000,0.0324,0.013523,0.002678,0.000431,0.000940
29153000,0.0324,0.013523,0.002678,0.000431,0.001293
29154000,0.0324,0.013523,0.002678,0.000431,0.001175
29155000,0.0324,0.013523,0.002678,0.000431,0.001175
29156000,0.0324,0.013523,0.002678,0.000431,0.001528
29157000,0.0324,0.013523,0.002678,0.000431,0.000940
29158000,0.0324,0.013523,0.002678,0.000431,0.000940
29159000,0.0324,0.013523,0.002678,0.000431,0.001293
29160000,0.0324,0.013523,0.002678,0.000431,0.001410
29161000,0.0324,0.013523,0.002678,0.000431,0.001410
29162000,0.0324,0.013523,0.002678,0.000431,0.000588
29163000,0.0324,0.013523,0.002678,0.000431,0.001293
29164000,0.0324,0.013523,0.002678,0.000431,0.001293
29165000,0.0324,0.013523,0.002678,0.000431,0.001763
29166000,0.0324,0.013523,0.002678,0.000431,0.000940
29167000,0.0324,0.013523,0.002678,0.000431,0.001058
29168000,0.0324,0.013523,0.002678,0.000431,0.000705
29169000,0.0324,0.013523,0.002678,0.000431,0.001175
29170000,0.0324,0.013523,0.002678,0.000431,0.001175
29171000,0.0324,0.013523,0.002678,0.000431,0.001058
29172000,0.0324,0.013523,0.002678,0.000431,0.001175
29173000,0.0324,0.013523,0.002678,0.000431,0.001175
29174000,0.0324,0.013523,0.002678,0.000431,0.000705
29175000,0.0324,0.013523,0.002678,0.000431,0.001058
29176000,0.0324,0.013523,0.002678,0.000431,0.001293
29177000,0.0324,0.013523,0.002678,0.000431,0.001293
29178000,0.0324,0.013523,0.002678,0.000431,0.001058
29179000,0.0324,0.013523,0.002678,0.000431,0.001058
29180000,0.0324,0.013523,0.002678,0.000431,0.001058
29181000,0.0324,0.013523,0.002678,0.000431,0.001410
29182000,0.0324,0.013523,0.002678,0.000431,0.001293
29183000,0.0324,0.013523,0.002678,0.000431,0.001293
29184000,0.0324,0.013523,0.002678,0.000431,0.001410
29185000,0.0324,0.013523,0.002678,0.000431,0.001645
29186000,0.0324,0.013523,0.002678,0.000431,0.001528
29187000,0.0324,0.013523,0.002678,0.000431,0.000705
29188000,0.0324,0.013523,0.002678,0.000431,0.001293
29189000,0.0324,0.013523,0.002678,0.000431,0.000940
29190000,0.0324,0.013523,0.002678,0.000431,0.001175
29191000,0.0324,0.013523,0.002678,0.000431,0.001528
29192000,0.0324,0.013523,0.002678,0.000431,0.000940
29193000,0.0324,0.013523,0.002678,0.000431,0.001058
29194000,0.0324,0.013523,0.002678,0.000431,0.000940
29195000,0.0324,0.013523,0.002678,0.000431,0.001058
29196000,0.0324,0.013523,0.002678,0.000431,0.001058
29197000,0.0324,0.013523,0.002678,0.000431,0.001293
29198000,0.0324,0.013523,0.002678,0.000431,0.000940
29199000,0.0324,0.013523,0.002678,0.000431,0.000940
29200000,0.0324,0.013523,0.002678,0.000431,0.001293
29201000,0.0324,0.013523,0.002678,0.000431,0.001293
29202000,0.0324,0.013523,0.002678,0.000431,0.000940
29203000,0.0324,0.013523,0.002678,0.000431,0.001293
29204000,0.0324,0.013523,0.002678,0.000431,0.001175
29205000,0.0324,0.013523,0.002678,0.000431,0.001175
29206000,0.0324,0.013523,0.002678,0.000431,0.001175
29207000,0.0324,0.013523,0.002678,0.000431,0.001058
29208000,0.0324,0.013523,0.002678,0.000431,0.000940
29209000,0.0324,0.013523,0.002678,0.000431,0.001175
29210000,0.0324,0.013523,0.002678,0.000431,0.001293
29211000,0.0324,0.013523,0.002678,0.000431,0.001058
29212000,0.0324,0.013523,0.002678,0.000431,0.000940
29213000,0.0324,0.013523,0.002678,0.000431,0.000940
29214000,0.0324,0.013523,0.002678,0.000431,0.000823
29215000,0.0324,0.013523,0.002678,0.000431,0.001293
29216000,0.0324,0.013523,0.002678,0.000431,0.000940
29217000,0.0324,0.013523,0.002678,0.000431,0.000940
29218000,0.0324,0.013523,0.002678,0.000431,0.001058
29219000,0.0324,0.013523,0.002678,0.000431,0.001293
29220000,0.0324,0.013523,0.002678,0.000431,0.001058
29221000,0.0324,0.013523,0.002678,0.000431,0.001175
29222000,0.0324,0.013523,0.002678,0.000431,0.001175
29223000,0.0324,0.013523,0.002678,0.000431,0.000940
29224000,0.0324,0.013523,0.002678,0.000431,0.001058
29225000,0.0324,0.013523,0.002678,0.000431,0.000823
29226000,0.0324,0.013523,0.002678,0.000431,0.001410
29227000,0.0324,0.013523,0.002678,0.000431,0.001293
29228000,0.0324,0.013523,0.002678,0.000431,0.000940
29229000,0.0324,0.013523,0.002678,0.000431,0.001058
29230000,0.0324,0.013523,0.002678,0.000431,0.001410
29231000,0.0324,0.013523,0.002678,0.000431,0.001410
29232000,0.0324,0.013523,0.002678,0.000431,0.001058
29233000,0.0324,0.013523,0.002678,0.000431,0.000823
29234000,0.0324,0.013523,0.002678,0.000431,0.001645
29235000,0.0324,0.013523,0.002678,0.000431,0.001058
29236000,0.0324,0.013523,0.002678,0.000431,0.001528
29237000,0.0324,0.013523,0.002678,0.000431,0.000588
29238000,0.0324,0.013523,0.002678,0.000431,0.001293
29239000,0.0324,0.013523,0.002678,0.000431,0.000940
29240000,0.0324,0.013523,0.002678,0.000431,0.001410
29241000,0.0324,0.013523,0.002678,0.000431,0.001293
29242000,0.0324,0.013523,0.002678,0.000431,0.000823
29243000,0.0324,0.013523,0.002678,0.000431,0.001293
29244000,0.0324,0.013523,0.002678,0.000431,0.001058
29245000,0.0324,0.013523,0.002678,0.000431,0.001058
29246000,0.0324,0.013523,0.002678,0.000431,0.001528
29247000,0.0324,0.013523,0.002678,0.000431,0.001293
29248000,0.0324,0.013523,0.002678,0.000431,0.000940
29249000,0.0324,0.013523,0.002678,0.000431,0.001293
29250000,0.0324,0.013523,0.002678,0.000431,0.001175
29251000,0.0324,0.013523,0.002678,0.000431,0.001410
29252000,0.0324,0.013523,0.002678,0.000431,0.001058
29253000,0.0324,0.013523,0.002678,0.000431,0.000940
29254000,0.0324,0.013523,0.002678,0.000431,0.001058
29255000,0.0324,0.013523,0.002678,0.000431,0.000940
29256000,0.0324,0.013523,0.002678,0.000431,0.000940
29257000,0.0324,0.013523,0.002678,0.000431,0.001058
29258000,0.0324,0.013523,0.002678,0.000431,0.001293
29259000,0.0324,0.013523,0.002678,0.000431,0.001058
29260000,0.0324,0.013523,0.002678,0.000431,0.001293
29261000,0.0324,0.013523,0.002678,0.000431,0.001293
29262000,0.0324,0.013523,0.002678,0.000431,0.001293
29263000,0.0324,0.013523,0.002678,0.000431,0.001058
29264000,0.0324,0.013523,0.002678,0.000431,0.000823
29265000,0.0324,0.013523,0.002678,0.000431,0.001410
29266000,0.0324,0.013523,0.002678,0.000431,0.001175
29267000,0.0324,0.013523,0.002678,0.000431,0.001058
29268000,0.0324,0.013523,0.002678,0.000431,0.000705
29269000,0.0324,0.013523,0.002678,0.000431,0.001058
29270000,0.0324,0.013523,0.002678,0.000431,0.001410
29271000,0.0324,0.013523,0.002678,0.000431,0.001410
29272000,0.0324,0.013523,0.002678,0.000431,0.000823
29273000,0.0324,0.013523,0.002678,0.000431,0.000940
29274000,0.0324,0.013523,0.002678,0.000431,0.001058
29275000,0.0324,0.013523,0.002678,0.000431,0.001058
29276000,0.0324,0.013523,0.002678,0.000431,0.000823
29277000,0.0324,0.013523,0.002678,0.000431,0.000823
29278000,0.0324,0.013523,0.002678,0.000431,0.001058
29279000,0.0324,0.013523,0.002678,0.000431,0.000940
29280000,0.0324,0.013523,0.002678,0.000431,0.001175
29281000,0.0324,0.013523,0.002678,0.000431,0.001175
29282000,0.0324,0.013523,0.002678,0.000431,0.001175
29283000,0.0324,0.013523,0.002678,0.000431,0.001410
29284000,0.0324,0.013523,0.002678,0.000431,0.001293
29285000,0.0324,0.013523,0.002678,0.000431,0.001175
29286000,0.0324,0.013523,0.002678,0.000431,0.001058
29287000,0.0324,0.013523,0.002678,0.000431,0.001058
29288000,0.0324,0.013523,0.002678,0.000431,0.001293
29289000,0.0324,0.013523,0.002678,0.000431,0.001175
29290000,0.0324,0.013523,0.002678,0.000431,0.001293
29291000,0.0324,0.013523,0.002678,0.000431,0.001175
29292000,0.0324,0.013523,0.002678,0.000431,0.001645
29293000,0.0324,0.013523,0.002678,0.000431,0.000470
29294000,0.0324,0.013523,0.002678,0.000431,0.001410
29295000,0.0324,0.013523,0.002678,0.000431,0.001293
29296000,0.0324,0.013523,0.002678,0.000431,0.001645
29297000,0.0324,0.013523,0.002678,0.000431,0.001175
29298000,0.0324,0.013523,0.002678,0.000431,0.001058
29299000,0.0324,0.013523,0.002678,0.000431,0.001293
29300000,0.0324,0.013523,0.002678,0.000431,0.001175
29301000,0.0324,0.013523,0.002678,0.000431,0.001175
29302000,0.0324,0.013523,0.002678,0.000431,0.001175
29303000,0.0324,0.013523,0.002678,0.000431,0.001175
29304000,0.0324,0.013523,0.002678,0.000431,0.001175
29305000,0.0324,0.013523,0.002678,0.000431,0.001058
29306000,0.0324,0.013523,0.002678,0.000431,0.001293
29307000,0.0324,0.013523,0.002678,0.000431,0.001410
29308000,0.0324,0.013523,0.002678,0.000431,0.001175
29309000,0.0324,0.013523,0.002678,0.000431,0.001175
29310000,0.0324,0.013523,0.002678,0.000431,0.001293
29311000,0.0324,0.013523,0.002678,0.000431,0.000705
29312000,0.0324,0.013523,0.002678,0.000431,0.001763
29313000,0.0324,0.013523,0.002678,0.000431,0.000823
29314000,0.0324,0.013523,0.002678,0.000431,0.000940
29315000,0.0324,0.013523,0.002678,0.000431,0.001410
29316000,0.0324,0.013523,0.002678,0.000431,0.001293
29317000,0.0324,0.013523,0.002678,0.000431,0.001175
29318000,0.0324,0.013523,0.002678,0.000431,0.001293
29319000,0.0324,0.013523,0.002678,0.000431,0.001175
29320000,0.0324,0.013523,0.002678,0.000431,0.001058
29321000,0.0324,0.013523,0.002678,0.000431,0.001410
29322000,0.0324,0.013523,0.002678,0.000431,0.001528
29323000,0.0324,0.013523,0.002678,0.000431,0.000940
29324000,0.0324,0.013523,0.002678,0.000431,0.001175
29325000,0.0324,0.013523,0.002678,0.000431,0.001293
29326000,0.0324,0.013523,0.002678,0.000431,0.001175
29327000,0.0324,0.013523,0.002678,0.000431,0.001410
29328000,0.0324,0.013523,0.002678,0.000431,0.001293
29329000,0.0324,0.013523,0.002678,0.000431,0.000705
29330000,0.0324,0.013523,0.002678,0.000431,0.001058
29331000,0.0324,0.013523,0.002678,0.000431,0.001410
29332000,0.0324,0.013523,0.002678,0.000431,0.001410
29333000,0.0324,0.013523,0.002678,0.000431,0.001058
29334000,0.0324,0.013523,0.002678,0.000431,0.000940
29335000,0.0324,0.013523,0.002678,0.000431,0.000823
29336000,0.0324,0.013523,0.002678,0.000431,0.001293
29337000,0.0324,0.013523,0.002678,0.000431,0.001293
29338000,0.0324,0.013523,0.002678,0.000431,0.001058
29339000,0.0324,0.013523,0.002678,0.000431,0.000940
29340000,0.0324,0.013523,0.002678,0.000431,0.001058
29341000,0.0324,0.013523,0.002678,0.000431,0.001645
29342000,0.0324,0.013523,0.002678,0.000431,0.001175
29343000,0.0324,0.013523,0.002678,0.000431,0.001410
29344000,0.0324,0.013523,0.002678,0.000431,0.001058
29345000,0.0324,0.013523,0.002678,0.000431,0.001058
29346000,0.0324,0.013523,0.002678,0.000431,0.001175
29347000,0.0324,0.013523,0.002678,0.000431,0.001528
29348000,0.0324,0.013523,0.002678,0.000431,0.001058
29349000,0.0324,0.013523,0.002678,0.000431,0.000823
29350000,0.0324,0.013523,0.002678,0.000431,0.000705
29351000,0.0324,0.013523,0.002678,0.000431,0.000823
29352000,0.0324,0.013523,0.002678,0.000431,0.001410
29353000,0.0324,0.013523,0.002678,0.000431,0.001410
29354000,0.0324,0.013523,0.002678,0.000431,0.001175
29355000,0.0324,0.013523,0.002678,0.000431,0.001175
29356000,0.0324,0.013523,0.002678,0.000431,0.001410
29357000,0.0324,0.013523,0.002678,0.000431,0.001175
29358000,0.0324,0.013523,0.002678,0.000431,0.001410
29359000,0.0324,0.013523,0.002678,0.000431,0.001293
29360000,0.0324,0.013523,0.002678,0.000431,0.001058
29361000,0.0324,0.013523,0.002678,0.000431,0.001645
29362000,0.0324,0.013523,0.002678,0.000431,0.001410
29363000,0.0324,0.013523,0.002678,0.000431,0.001175
29364000,0.0324,0.013523,0.002678,0.000431,0.001175
29365000,0.0324,0.013523,0.002678,0.000431,0.001410
29366000,0.0324,0.013523,0.002678,0.000431,0.000940
29367000,0.0324,0.013523,0.002678,0.000431,0.001410
29368000,0.0324,0.013523,0.002678,0.000431,0.001645
29369000,0.0324,0.013523,0.002678,0.000431,0.000823
29370000,0.0324,0.013523,0.002678,0.000431,0.000823
29371000,0.0324,0.013523,0.002678,0.000431,0.000823
29372000,0.0324,0.013523,0.002678,0.000431,0.001058
29373000,0.0324,0.013523,0.002678,0.000431,0.001410
29374000,0.0324,0.013523,0.002678,0.000431,0.001058
29375000,0.0324,0.013523,0.002678,0.000431,0.000705
29376000,0.0324,0.013523,0.002678,0.000431,0.001175
29377000,0.0324,0.013523,0.002678,0.000431,0.000705
29378000,0.0324,0.013523,0.002678,0.000431,0.001293
29379000,0.0324,0.013523,0.002678,0.000431,0.000823
29380000,0.0324,0.013523,0.002678,0.000431,0.000940
29381000,0.0324,0.013523,0.002678,0.000431,0.001058
29382000,0.0324,0.013523,0.002678,0.000431,0.000940
29383000,0.0324,0.013523,0.002678,0.000431,0.001410
29384000,0.0324,0.013523,0.002678,0.000431,0.000940
29385000,0.0324,0.013523,0.002678,0.000431,0.001058
29386000,0.0324,0.013523,0.002678,0.000431,0.001293
29387000,0.0324,0.013523,0.002678,0.000431,0.000940
29388000,0.0324,0.013523,0.002678,0.000431,0.001175
29389000,0.0324,0.013523,0.002678,0.000431,0.001058
29390000,0.0324,0.013523,0.002678,0.000431,0.001293
29391000,0.0324,0.013523,0.002678,0.000431,0.001410
29392000,0.0324,0.013523,0.002678,0.000431,0.001175
29393000,0.0324,0.013523,0.002678,0.000431,0.000940
29394000,0.0324,0.013523,0.002678,0.000431,0.000940
29395000,0.0324,0.013523,0.002678,0.000431,0.001175
29396000,0.0324,0.013523,0.002678,0.000431,0.001645
29397000,0.0324,0.013523,0.002678,0.000431,0.001410
29398000,0.0324,0.013523,0.002678,0.000431,0.001410
29399000,0.0324,0.013523,0.002678,0.000431,0.001763
29400000,0.0324,0.013523,0.002678,0.000431,0.000705
29401000,0.0324,0.013523,0.002678,0.000431,0.001528
29402000,0.0324,0.013523,0.002678,0.000431,0.001175
29403000,0.0324,0.013523,0.002678,0.000431,0.000940
29404000,0.0324,0.013523,0.002678,0.000431,0.001528
29405000,0.0324,0.013523,0.002678,0.000431,0.000940
29406000,0.0324,0.013523,0.002678,0.000431,0.001528
29407000,0.0324,0.013523,0.002678,0.000431,0.001058
29408000,0.0324,0.013523,0.002678,0.000431,0.001058
29409000,0.0324,0.013523,0.002678,0.000431,0.001293
29410000,0.0324,0.013523,0.002678,0.000431,0.000823
29411000,0.0324,0.013523,0.002678,0.000431,0.000940
29412000,0.0324,0.013523,0.002678,0.000431,0.001058
29413000,0.0324,0.013523,0.002678,0.000431,0.001293
29414000,0.0324,0.013523,0.002678,0.000431,0.001175
29415000,0.0324,0.013523,0.002678,0.000431,0.000823
29416000,0.0324,0.013523,0.002678,0.000431,0.001645
29417000,0.0324,0.013523,0.002678,0.000431,0.001058
29418000,0.0324,0.013523,0.002678,0.000431,0.001175
29419000,0.0324,0.013523,0.002678,0.000431,0.001528
29420000,0.0324,0.013523,0.002678,0.000431,0.000940
29421000,0.0324,0.013523,0.002678,0.000431,0.001058
29422000,0.0324,0.013523,0.002678,0.000431,0.000940
29423000,0.0324,0.013523,0.002678,0.000431,0.001175
29424000,0.0324,0.013523,0.002678,0.000431,0.001058
29425000,0.0324,0.013523,0.002678,0.000431,0.001175
29426000,0.0324,0.013523,0.002678,0.000431,0.001645
29427000,0.0324,0.013523,0.002678,0.000431,0.001175
29428000,0.0324,0.013523,0.002678,0.000431,0.001293
29429000,0.0324,0.013523,0.002678,0.000431,0.001058
29430000,0.0324,0.013523,0.002678,0.000431,0.001293
29431000,0.0324,0.013523,0.002678,0.000431,0.001410
29432000,0.0324,0.013523,0.002678,0.000431,0.001293
29433000,0.0324,0.013523,0.002678,0.000431,0.001410
29434000,0.0324,0.013523,0.002678,0.000431,0.000705
29435000,0.0324,0.013523,0.002678,0.000431,0.000940
29436000,0.0324,0.013523,0.002678,0.000431,0.001175
29437000,0.0324,0.013523,0.002678,0.000431,0.000705
29438000,0.0324,0.013523,0.002678,0.000431,0.001293
29439000,0.0324,0.013523,0.002678,0.000431,0.001293
29440000,0.0324,0.013523,0.002678,0.000431,0.000705
29441000,0.0324,0.013523,0.002678,0.000431,0.001528
29442000,0.0324,0.013523,0.002678,0.000431,0.001175
29443000,0.0324,0.013523,0.002678,0.000431,0.000940
29444000,0.0324,0.013523,0.002678,0.000431,0.001410
29445000,0.0324,0.013523,0.002678,0.000431,0.001058
29446000,0.0324,0.013523,0.002678,0.000431,0.000823
29447000,0.0324,0.013523,0.002678,0.000431,0.000823
29448000,0.0324,0.013523,0.002678,0.000431,0.001293
29449000,0.0324,0.013523,0.002678,0.000431,0.001645
29450000,0.0324,0.013523,0.002678,0.000431,0.000940
29451000,0.0324,0.013523,0.002678,0.000431,0.001175
29452000,0.0324,0.013523,0.002678,0.000431,0.001528
29453000,0.0324,0.013523,0.002678,0.000431,0.001058
29454000,0.0324,0.013523,0.002678,0.000431,0.001293
29455000,0.0324,0.013523,0.002678,0.000431,0.001175
29456000,0.0324,0.013523,0.002678,0.000431,0.000940
29457000,0.0324,0.013523,0.002678,0.000431,0.001528
29458000,0.0324,0.013523,0.002678,0.000431,0.001410
29459000,0.0324,0.013523,0.002678,0.000431,0.000823
29460000,0.0324,0.013523,0.002678,0.000431,0.000940
29461000,0.0324,0.013523,0.002678,0.000431,0.001058
29462000,0.0324,0.013523,0.002678,0.000431,0.001058
29463000,0.0324,0.013523,0.002678,0.000431,0.001528
29464000,0.0324,0.013523,0.002678,0.000431,0.001175
29465000,0.0324,0.013523,0.002678,0.000431,0.001410
29466000,0.0324,0.013523,0.002678,0.000431,0.001293
29467000,0.0324,0.013523,0.002678,0.000431,0.001058
29468000,0.0324,0.013523,0.002678,0.000431,0.001410
29469000,0.0324,0.013523,0.002678,0.000431,0.001293
29470000,0.0324,0.013523,0.002678,0.000431,0.001058
29471000,0.0324,0.013523,0.002678,0.000431,0.001175
29472000,0.0324,0.013523,0.002678,0.000431,0.001293
29473000,0.0324,0.013523,0.002678,0.000431,0.000705
29474000,0.0324,0.013523,0.002678,0.000431,0.001528
29475000,0.0324,0.013523,0.002678,0.000431,0.001528
29476000,0.0324,0.013523,0.002678,0.000431,0.000823
29477000,0.0324,0.013523,0.002678,0.000431,0.001410
29478000,0.0324,0.013523,0.002678,0.000431,0.001645
29479000,0.0324,0.013523,0.002678,0.000431,0.001410
29480000,0.0324,0.013523,0.002678,0.000431,0.000705
29481000,0.0324,0.013523,0.002678,0.000431,0.001410
29482000,0.0324,0.013523,0.002678,0.000431,0.000940
29483000,0.0324,0.013523,0.002678,0.000431,0.001175
29484000,0.0324,0.013523,0.002678,0.000431,0.001293
29485000,0.0324,0.013523,0.002678,0.000431,0.001058
29486000,0.0324,0.013523,0.002678,0.000431,0.001175
29487000,0.0324,0.013523,0.002678,0.000431,0.000940
29488000,0.0324,0.013523,0.002678,0.000431,0.001645
29489000,0.0324,0.013523,0.002678,0.000431,0.001410
29490000,0.0324,0.013523,0.002678,0.000431,0.001645
29491000,0.0324,0.013523,0.002678,0.000431,0.001410
29492000,0.0324,0.013523,0.002678,0.000431,0.001175
29493000,0.0324,0.013523,0.002678,0.000431,0.001175
29494000,0.0324,0.013523,0.002678,0.000431,0.001645
29495000,0.0324,0.013523,0.002678,0.000431,0.001410
29496000,0.0324,0.013523,0.002678,0.000431,0.001175
29497000,0.0324,0.013523,0.002678,0.000431,0.001175
29498000,0.0324,0.013523,0.002678,0.000431,0.001058
29499000,0.0324,0.013523,0.002678,0.000431,0.000823
29500000,0.0324,0.013523,0.002678,0.000431,0.000823
29501000,0.0324,0.013523,0.002678,0.000431,0.001058
29502000,0.0324,0.013523,0.002678,0.000431,0.001293
29503000,0.0324,0.013523,0.002678,0.000431,0.001058
29504000,0.0324,0.013523,0.002678,0.000431,0.001410
29505000,0.0324,0.013523,0.002678,0.000431,0.000940
29506000,0.0324,0.013523,0.002678,0.000431,0.001293
29507000,0.0324,0.013523,0.002678,0.000431,0.001528
29508000,0.0324,0.013523,0.002678,0.000431,0.001175
29509000,0.0324,0.013523,0.002678,0.000431,0.001410
29510000,0.0324,0.013523,0.002678,0.000431,0.001293
29511000,0.0324,0.013523,0.002678,0.000431,0.000705
29512000,0.0324,0.013523,0.002678,0.000431,0.001410
29513000,0.0324,0.013523,0.002678,0.000431,0.001058
29514000,0.0324,0.013523,0.002678,0.000431,0.001645
29515000,0.0324,0.013523,0.002678,0.000431,0.001293
29516000,0.0324,0.013523,0.002678,0.000431,0.000705
29517000,0.0324,0.013523,0.002678,0.000431,0.001058
29518000,0.0324,0.013523,0.002678,0.000431,0.001410
29519000,0.0324,0.013523,0.002678,0.000431,0.001410
29520000,0.0324,0.013523,0.002678,0.000431,0.001293
29521000,0.0324,0.013523,0.002678,0.000431,0.000823
29522000,0.0324,0.013523,0.002678,0.000431,0.001175
29523000,0.0324,0.013523,0.002678,0.000431,0.001410
29524000,0.0324,0.013523,0.002678,0.000431,0.000940
29525000,0.0324,0.013523,0.002678,0.000431,0.001058
29526000,0.0324,0.013523,0.002678,0.000431,0.001058
29527000,0.0324,0.013523,0.002678,0.000431,0.000940
29528000,0.0324,0.013523,0.002678,0.000431,0.001175
29529000,0.0324,0.013523,0.002678,0.000431,0.000940
29530000,0.0324,0.013523,0.002678,0.000431,0.001293
29531000,0.0324,0.013523,0.002678,0.000431,0.000823
29532000,0.0324,0.013523,0.002678,0.000431,0.001175
29533000,0.0324,0.013523,0.002678,0.000431,0.001293
29534000,0.0324,0.013523,0.002678,0.000431,0.001293
29535000,0.0324,0.013523,0.002678,0.000431,0.001645
29536000,0.0324,0.013523,0.002678,0.000431,0.001058
29537000,0.0324,0.013523,0.002678,0.000431,0.000823
29538000,0.0324,0.013523,0.002678,0.000431,0.001058
29539000,0.0324,0.013523,0.002678,0.000431,0.000823
29540000,0.0324,0.013523,0.002678,0.000431,0.001410
29541000,0.0324,0.013523,0.002678,0.000431,0.001293
29542000,0.0324,0.013523,0.002678,0.000431,0.001058
29543000,0.0324,0.013523,0.002678,0.000431,0.001293
29544000,0.0324,0.013523,0.002678,0.000431,0.001293
29545000,0.0324,0.013523,0.002678,0.000431,0.001175
29546000,0.0324,0.013523,0.002678,0.000431,0.001175
29547000,0.0324,0.013523,0.002678,0.000431,0.001058
29548000,0.0324,0.013523,0.002678,0.000431,0.001293
29549000,0.0324,0.013523,0.002678,0.000431,0.000940
29550000,0.0324,0.013523,0.002678,0.000431,0.001175
29551000,0.0324,0.013523,0.002678,0.000431,0.001175
29552000,0.0324,0.013523,0.002678,0.000431,0.001175
29553000,0.0324,0.013523,0.002678,0.000431,0.001645
29554000,0.0324,0.013523,0.002678,0.000431,0.001175
29555000,0.0324,0.013523,0.002678,0.000431,0.001175
29556000,0.0324,0.013523,0.002678,0.000431,0.001175
29557000,0.0324,0.013523,0.002678,0.000431,0.001058
29558000,0.0324,0.013523,0.002678,0.000431,0.001175
29559000,0.0324,0.013523,0.002678,0.000431,0.000705
29560000,0.0324,0.013523,0.002678,0.000431,0.001058
29561000,0.0324,0.013523,0.002678,0.000431,0.001175
29562000,0.0324,0.013523,0.002678,0.000431,0.001293
29563000,0.0324,0.013523,0.002678,0.000431,0.001293
29564000,0.0324,0.013523,0.002678,0.000431,0.001410
29565000,0.0324,0.013523,0.002678,0.000431,0.001175
29566000,0.0324,0.013523,0.002678,0.000431,0.001175
29567000,0.0324,0.013523,0.002678,0.000431,0.001175
29568000,0.0324,0.013523,0.002678,0.000431,0.001058
29569000,0.0324,0.013523,0.002678,0.000431,0.000705
29570000,0.0324,0.013523,0.002678,0.000431,0.001293
29571000,0.0324,0.013523,0.002678,0.000431,0.000940
29572000,0.0324,0.013523,0.002678,0.000431,0.001058
29573000,0.0324,0.013523,0.002678,0.000431,0.000940
29574000,0.0324,0.013523,0.002678,0.000431,0.001175
29575000,0.0324,0.013523,0.002678,0.000431,0.001528
29576000,0.0324,0.013523,0.002678,0.000431,0.001293
29577000,0.0324,0.013523,0.002678,0.000431,0.000823
29578000,0.0324,0.013523,0.002678,0.000431,0.001410
29579000,0.0324,0.013523,0.002678,0.000431,0.000940
29580000,0.0324,0.013523,0.002678,0.000431,0.001175
29581000,0.0324,0.013523,0.002678,0.000431,0.001175
29582000,0.0324,0.013523,0.002678,0.000431,0.001175
29583000,0.0324,0.013523,0.002678,0.000431,0.001410
29584000,0.0324,0.013523,0.002678,0.000431,0.001410
29585000,0.0324,0.013523,0.002678,0.000431,0.001410
29586000,0.0324,0.013523,0.002678,0.000431,0.001175
29587000,0.0324,0.013523,0.002678,0.000431,0.001410
29588000,0.0324,0.013523,0.002678,0.000431,0.000940
29589000,0.0324,0.013523,0.002678,0.000431,0.001293
29590000,0.0324,0.013523,0.002678,0.000431,0.000823
29591000,0.0324,0.013523,0.002678,0.000431,0.001058
29592000,0.0324,0.013523,0.002678,0.000431,0.001058
29593000,0.0324,0.013523,0.002678,0.000431,0.001410
29594000,0.0324,0.013523,0.002678,0.000431,0.000940
29595000,0.0324,0.013523,0.002678,0.000431,0.000940
29596000,0.0324,0.013523,0.002678,0.000431,0.000705
29597000,0.0324,0.013523,0.002678,0.000431,0.001410
29598000,0.0324,0.013523,0.002678,0.000431,0.001175
29599000,0.0324,0.013523,0.002678,0.000431,0.000940
29600000,0.0324,0.013523,0.002678,0.000431,0.001293
29601000,0.0324,0.013523,0.002678,0.000431,0.000823
29602000,0.0324,0.013523,0.002678,0.000431,0.001293
29603000,0.0324,0.013523,0.002678,0.000431,0.001058
29604000,0.0324,0.013523,0.002678,0.000431,0.001058
29605000,0.0324,0.013523,0.002678,0.000431,0.000705
29606000,0.0324,0.013523,0.002678,0.000431,0.001175
29607000,0.0324,0.013523,0.002678,0.000431,0.001058
29608000,0.0324,0.013523,0.002678,0.000431,0.001293
29609000,0.0324,0.013523,0.002678,0.000431,0.001410
29610000,0.0324,0.013523,0.002678,0.000431,0.000705
29611000,0.0324,0.013523,0.002678,0.000431,0.001058
29612000,0.0324,0.013523,0.002678,0.000431,0.001410
29613000,0.0324,0.013523,0.002678,0.000431,0.001058
29614000,0.0324,0.013523,0.002678,0.000431,0.001293
29615000,0.0324,0.013523,0.002678,0.000431,0.001058
29616000,0.0324,0.013523,0.002678,0.000431,0.001293
29617000,0.0324,0.013523,0.002678,0.000431,0.000940
29618000,0.0324,0.013523,0.002678,0.000431,0.001175
29619000,0.0324,0.013523,0.002678,0.000431,0.001058
29620000,0.0324,0.013523,0.002678,0.000431,0.001293
29621000,0.0324,0.013523,0.002678,0.000431,0.001410
29622000,0.0324,0.013523,0.002678,0.000431,0.001410
29623000,0.0324,0.013523,0.002678,0.000431,0.000940
29624000,0.0324,0.013523,0.002678,0.000431,0.001293
29625000,0.0324,0.013523,0.002678,0.000431,0.000940
29626000,0.0324,0.013523,0.002678,0.000431,0.001058
29627000,0.0324,0.013523,0.002678,0.000431,0.001175
29628000,0.0324,0.013523,0.002678,0.000431,0.000940
29629000,0.0324,0.013523,0.002678,0.000431,0.001763
29630000,0.0324,0.013523,0.002678,0.000431,0.000940
29631000,0.0324,0.013523,0.002678,0.000431,0.001058
29632000,0.0324,0.013523,0.002678,0.000431,0.000940
29633000,0.0324,0.013523,0.002678,0.000431,0.000940
29634000,0.0324,0.013523,0.002678,0.000431,0.001410
29635000,0.0324,0.013523,0.002678,0.000431,0.000823
29636000,0.0324,0.013523,0.002678,0.000431,0.000705
29637000,0.0324,0.013523,0.002678,0.000431,0.001528
29638000,0.0324,0.013523,0.002678,0.000431,0.000823
29639000,0.0324,0.013523,0.002678,0.000431,0.001058
29640000,0.0324,0.013523,0.002678,0.000431,0.001528
29641000,0.0324,0.013523,0.002678,0.000431,0.001058
29642000,0.0324,0.013523,0.002678,0.000431,0.001175
29643000,0.0324,0.013523,0.002678,0.000431,0.001880
29644000,0.0324,0.013523,0.002678,0.000431,0.001058
29645000,0.0324,0.013523,0.002678,0.000431,0.000705
29646000,0.0324,0.013523,0.002678,0.000431,0.001058
29647000,0.0324,0.013523,0.002678,0.000431,0.001293
29648000,0.0324,0.013523,0.002678,0.000431,0.000823
29649000,0.0324,0.013523,0.002678,0.000431,0.001410
29650000,0.0324,0.013523,0.002678,0.000431,0.001410
29651000,0.0324,0.013523,0.002678,0.000431,0.000823
29652000,0.0324,0.013523,0.002678,0.000431,0.001058
29653000,0.0324,0.013523,0.002678,0.000431,0.001645
29654000,0.0324,0.013523,0.002678,0.000431,0.001058
29655000,0.0324,0.013523,0.002678,0.000431,0.000823
29656000,0.0324,0.013523,0.002678,0.000431,0.001410
29657000,0.0324,0.013523,0.002678,0.000431,0.001175
29658000,0.0324,0.013523,0.002678,0.000431,0.001293
29659000,0.0324,0.013523,0.002678,0.000431,0.001293
29660000,0.0324,0.013523,0.002678,0.000431,0.001175
29661000,0.0324,0.013523,0.002678,0.000431,0.000940
29662000,0.0324,0.013523,0.002678,0.000431,0.000940
29663000,0.0324,0.013523,0.002678,0.000431,0.001410
29664000,0.0324,0.013523,0.002678,0.000431,0.001175
29665000,0.0324,0.013523,0.002678,0.000431,0.001175
29666000,0.0324,0.013523,0.002678,0.000431,0.001645
29667000,0.0324,0.013523,0.002678,0.000431,0.000940
29668000,0.0324,0.013523,0.002678,0.000431,0.001058
29669000,0.0324,0.013523,0.002678,0.000431,0.001293
29670000,0.0324,0.013523,0.002678,0.000431,0.001058
29671000,0.0324,0.013523,0.002678,0.000431,0.000705
29672000,0.0324,0.013523,0.002678,0.000431,0.001763
29673000,0.0324,0.013523,0.002678,0.000431,0.001175
29674000,0.0324,0.013523,0.002678,0.000431,0.001410
29675000,0.0324,0.013523,0.002678,0.000431,0.001528
29676000,0.0324,0.013523,0.002678,0.000431,0.000940
29677000,0.0324,0.013523,0.002678,0.000431,0.001058
29678000,0.0324,0.013523,0.002678,0.000431,0.001528
29679000,0.0324,0.013523,0.002678,0.000431,0.001175
29680000,0.0324,0.013523,0.002678,0.000431,0.001175
29681000,0.0324,0.013523,0.002678,0.000431,0.000940
29682000,0.0324,0.013523,0.002678,0.000431,0.001175
29683000,0.0324,0.013523,0.002678,0.000431,0.001645
29684000,0.0324,0.013523,0.002678,0.000431,0.000940
29685000,0.0324,0.013523,0.002678,0.000431,0.000823
29686000,0.0324,0.013523,0.002678,0.000431,0.001293
29687000,0.0324,0.013523,0.002678,0.000431,0.001058
29688000,0.0324,0.013523,0.002678,0.000431,0.000823
29689000,0.0324,0.013523,0.002678,0.000431,0.001058
29690000,0.0324,0.013523,0.002678,0.000431,0.001528
29691000,0.0324,0.013523,0.002678,0.000431,0.000823
29692000,0.0324,0.013523,0.002678,0.000431,0.001645
29693000,0.0324,0.013523,0.002678,0.000431,0.001410
29694000,0.0324,0.013523,0.002678,0.000431,0.000940
29695000,0.0324,0.013523,0.002678,0.000431,0.001058
29696000,0.0324,0.013523,0.002678,0.000431,0.001058
29697000,0.0324,0.013523,0.002678,0.000431,0.001175
29698000,0.0324,0.013523,0.002678,0.000431,0.001058
29699000,0.0324,0.013523,0.002678,0.000431,0.001293
29700000,0.0324,0.013523,0.002678,0.000431,0.000940
29701000,0.0324,0.013523,0.002678,0.000431,0.001175
29702000,0.0324,0.013523,0.002678,0.000431,0.000940
29703000,0.0324,0.013523,0.002678,0.000431,0.001410
29704000,0.0324,0.013523,0.002678,0.000431,0.001410
29705000,0.0324,0.013523,0.002678,0.000431,0.001058
29706000,0.0324,0.013523,0.002678,0.000431,0.000940
29707000,0.0324,0.013523,0.002678,0.000431,0.001058
29708000,0.0324,0.013523,0.002678,0.000431,0.001763
29709000,0.0324,0.013523,0.002678,0.000431,0.000823
29710000,0.0324,0.013523,0.002678,0.000431,0.001293
29711000,0.0324,0.013523,0.002678,0.000431,0.001293
29712000,0.0324,0.013523,0.002678,0.000431,0.001058
29713000,0.0324,0.013523,0.002678,0.000431,0.000940
29714000,0.0324,0.013523,0.002678,0.000431,0.001293
29715000,0.0324,0.013523,0.002678,0.000431,0.001410
29716000,0.0324,0.013523,0.002678,0.000431,0.000823
29717000,0.0324,0.013523,0.002678,0.000431,0.001058
29718000,0.0324,0.013523,0.002678,0.000431,0.001175
29719000,0.0324,0.013523,0.002678,0.000431,0.001058
29720000,0.0324,0.013523,0.002678,0.000431,0.000940
29721000,0.0324,0.013523,0.002678,0.000431,0.001058
29722000,0.0324,0.013523,0.002678,0.000431,0.000823
29723000,0.0324,0.013523,0.002678,0.000431,0.001058
29724000,0.0324,0.013523,0.002678,0.000431,0.001175
29725000,0.0324,0.013523,0.002678,0.000431,0.001058
29726000,0.0324,0.013523,0.002678,0.000431,0.000705
29727000,0.0324,0.013523,0.002678,0.000431,0.001175
29728000,0.0324,0.013523,0.002678,0.000431,0.000705
29729000,0.0324,0.013523,0.002678,0.000431,0.000705
29730000,0.0324,0.013523,0.002678,0.000431,0.000940
29731000,0.0324,0.013523,0.002678,0.000431,0.000588
29732000,0.0324,0.013523,0.002678,0.000431,0.000705
29733000,0.0324,0.013523,0.002678,0.000431,0.000823
29734000,0.0324,0.013523,0.002678,0.000431,0.001058
29735000,0.0324,0.013523,0.002678,0.000431,0.001058
29736000,0.0324,0.013523,0.002678,0.000431,0.000940
29737000,0.0324,0.013523,0.002678,0.000431,0.000940
29738000,0.0324,0.013523,0.002678,0.000431,0.001528
29739000,0.0324,0.013523,0.002678,0.000431,0.000940
29740000,0.0324,0.013523,0.002678,0.000431,0.001410
29741000,0.0324,0.013523,0.002678,0.000431,0.001293
29742000,0.0324,0.013523,0.002678,0.000431,0.001058
29743000,0.0324,0.013523,0.002678,0.000431,0.000940
29744000,0.0324,0.013523,0.002678,0.000431,0.001645
29745000,0.0324,0.013523,0.002678,0.000431,0.000940
29746000,0.0324,0.013523,0.002678,0.000431,0.001410
29747000,0.0324,0.013523,0.002678,0.000431,0.001410
29748000,0.0324,0.013523,0.002678,0.000431,0.001058
29749000,0.0324,0.013523,0.002678,0.000431,0.001528
29750000,0.0324,0.013523,0.002678,0.000431,0.000823
29751000,0.0324,0.013523,0.002678,0.000431,0.000940
29752000,0.0324,0.013523,0.002678,0.000431,0.001058
29753000,0.0324,0.013523,0.002678,0.000431,0.000940
29754000,0.0324,0.013523,0.002678,0.000431,0.001293
29755000,0.0324,0.013523,0.002678,0.000431,0.000705
29756000,0.0324,0.013523,0.002678,0.000431,0.001058
29757000,0.0324,0.013523,0.002678,0.000431,0.000940
29758000,0.0324,0.013523,0.002678,0.000431,0.001293
29759000,0.0324,0.013523,0.002678,0.000431,0.001058
29760000,0.0324,0.013523,0.002678,0.000431,0.001175
29761000,0.0324,0.013523,0.002678,0.000431,0.001175
29762000,0.0324,0.013523,0.002678,0.000431,0.001175
29763000,0.0324,0.013523,0.002678,0.000431,0.001645
29764000,0.0324,0.013523,0.002678,0.000431,0.001058
29765000,0.0324,0.013523,0.002678,0.000431,0.001058
29766000,0.0324,0.013523,0.002678,0.000431,0.001410
29767000,0.0324,0.013523,0.002678,0.000431,0.000823
29768000,0.0324,0.013523,0.002678,0.000431,0.000940
29769000,0.0324,0.013523,0.002678,0.000431,0.001058
29770000,0.0324,0.013523,0.002678,0.000431,0.000940
29771000,0.0324,0.013523,0.002678,0.000431,0.001175
29772000,0.0324,0.013523,0.002678,0.000431,0.001410
29773000,0.0324,0.013523,0.002678,0.000431,0.001410
29774000,0.0324,0.013523,0.002678,0.000431,0.001410
29775000,0.0324,0.013523,0.002678,0.000431,0.000940
29776000,0.0324,0.013523,0.002678,0.000431,0.001058
29777000,0.0324,0.013523,0.002678,0.000431,0.001293
29778000,0.0324,0.013523,0.002678,0.000431,0.001175
29779000,0.0324,0.013523,0.002678,0.000431,0.001175
29780000,0.0324,0.013523,0.002678,0.000431,0.000940
29781000,0.0324,0.013523,0.002678,0.000431,0.001175
29782000,0.0324,0.013523,0.002678,0.000431,0.001410
29783000,0.0324,0.013523,0.002678,0.000431,0.001175
29784000,0.0324,0.013523,0.002678,0.000431,0.001410
29785000,0.0324,0.013523,0.002678,0.000431,0.001175
29786000,0.0324,0.013523,0.002678,0.000431,0.001058
29787000,0.0324,0.013523,0.002678,0.000431,0.000823
29788000,0.0324,0.013523,0.002678,0.000431,0.001293
29789000,0.0324,0.013523,0.002678,0.000431,0.001293
29790000,0.0324,0.013523,0.002678,0.000431,0.001293
29791000,0.0324,0.013523,0.002678,0.000431,0.000705
29792000,0.0324,0.013523,0.002678,0.000431,0.001293
29793000,0.0324,0.013523,0.002678,0.000431,0.001293
29794000,0.0324,0.013523,0.002678,0.000431,0.000940
29795000,0.0324,0.013523,0.002678,0.000431,0.000940
29796000,0.0324,0.013523,0.002678,0.000431,0.000823
29797000,0.0324,0.013523,0.002678,0.000431,0.001293
29798000,0.0324,0.013523,0.002678,0.000431,0.001528
29799000,0.0324,0.013523,0.002678,0.000431,0.001058
29800000,0.0324,0.013523,0.002678,0.000431,0.001175
29801000,0.0324,0.013523,0.002678,0.000431,0.000823
29802000,0.0324,0.013523,0.002678,0.000431,0.001175
29803000,0.0324,0.013523,0.002678,0.000431,0.001293
29804000,0.0324,0.013523,0.002678,0.000431,0.001058
29805000,0.0324,0.013523,0.002678,0.000431,0.000823
29806000,0.0324,0.013523,0.002678,0.000431,0.000823
29807000,0.0324,0.013523,0.002678,0.000431,0.001410
29808000,0.0324,0.013523,0.002678,0.000431,0.001058
29809000,0.0324,0.013523,0.002678,0.000431,0.000940
29810000,0.0324,0.013523,0.002678,0.000431,0.001058
29811000,0.0324,0.013523,0.002678,0.000431,0.000705
29812000,0.0324,0.013523,0.002678,0.000431,0.000940
29813000,0.0324,0.013523,0.002678,0.000431,0.001175
29814000,0.0324,0.013523,0.002678,0.000431,0.001175
29815000,0.0324,0.013523,0.002678,0.000431,0.000940
29816000,0.0324,0.013523,0.002678,0.000431,0.000940
29817000,0.0324,0.013523,0.002678,0.000431,0.001293
29818000,0.0324,0.013523,0.002678,0.000431,0.001058
29819000,0.0324,0.013523,0.002678,0.000431,0.001058
29820000,0.0324,0.013523,0.002678,0.000431,0.001058
29821000,0.0324,0.013523,0.002678,0.000431,0.001175
29822000,0.0324,0.013523,0.002678,0.000431,0.001410
29823000,0.0324,0.013523,0.002678,0.000431,0.001293
29824000,0.0324,0.013523,0.002678,0.000431,0.001293
29825000,0.0324,0.013523,0.002678,0.000431,0.001293
29826000,0.0324,0.013523,0.002678,0.000431,0.001058
29827000,0.0324,0.013523,0.002678,0.000431,0.001175
29828000,0.0324,0.013523,0.002678,0.000431,0.001293
29829000,0.0324,0.013523,0.002678,0.000431,0.000940
29830000,0.0324,0.013523,0.002678,0.000431,0.001058
29831000,0.0324,0.013523,0.002678,0.000431,0.000940
29832000,0.0324,0.013523,0.002678,0.000431,0.001058
29833000,0.0324,0.013523,0.002678,0.000431,0.001528
29834000,0.0324,0.013523,0.002678,0.000431,0.001058
29835000,0.0324,0.013523,0.002678,0.000431,0.000940
29836000,0.0324,0.013523,0.002678,0.000431,0.001058
29837000,0.0324,0.013523,0.002678,0.000431,0.001175
29838000,0.0324,0.013523,0.002678,0.000431,0.000940
29839000,0.0324,0.013523,0.002678,0.000431,0.000823
29840000,0.0324,0.013523,0.002678,0.000431,0.001175
29841000,0.0324,0.013523,0.002678,0.000431,0.001293
29842000,0.0324,0.013523,0.002678,0.000431,0.001410
29843000,0.0324,0.013523,0.002678,0.000431,0.001410
29844000,0.0324,0.013523,0.002678,0.000431,0.001410
29845000,0.0324,0.013523,0.002678,0.000431,0.001175
29846000,0.0324,0.013523,0.002678,0.000431,0.001175
29847000,0.0324,0.013523,0.002678,0.000431,0.001175
29848000,0.0324,0.013523,0.002678,0.000431,0.001293
29849000,0.0324,0.013523,0.002678,0.000431,0.001058
29850000,0.0324,0.013523,0.002678,0.000431,0.001058
29851000,0.0324,0.013523,0.002678,0.000431,0.000705
29852000,0.0324,0.013523,0.002678,0.000431,0.001058
29853000,0.0324,0.013523,0.002678,0.000431,0.001175
29854000,0.0324,0.013523,0.002678,0.000431,0.001058
29855000,0.0324,0.013523,0.002678,0.000431,0.001058
29856000,0.0324,0.013523,0.002678,0.000431,0.000940
29857000,0.0324,0.013523,0.002678,0.000431,0.001410
29858000,0.0324,0.013523,0.002678,0.000431,0.001175
29859000,0.0324,0.013523,0.002678,0.000431,0.001293
29860000,0.0324,0.013523,0.002678,0.000431,0.000940
29861000,0.0324,0.013523,0.002678,0.000431,0.001293
29862000,0.0324,0.013523,0.002678,0.000431,0.001175
29863000,0.0324,0.013523,0.002678,0.000431,0.001175
29864000,0.0324,0.013523,0.002678,0.000431,0.001175
29865000,0.0324,0.013523,0.002678,0.000431,0.001175
29866000,0.0324,0.013523,0.002678,0.000431,0.001410
29867000,0.0324,0.013523,0.002678,0.000431,0.000823
29868000,0.0324,0.013523,0.002678,0.000431,0.001058
29869000,0.0324,0.013523,0.002678,0.000431,0.001528
29870000,0.0324,0.013523,0.002678,0.000431,0.000705
29871000,0.0324,0.013523,0.002678,0.000431,0.001058
29872000,0.0324,0.013523,0.002678,0.000431,0.000940
29873000,0.0324,0.013523,0.002678,0.000431,0.001645
29874000,0.0324,0.013523,0.002678,0.000431,0.001058
29875000,0.0324,0.013523,0.002678,0.000431,0.001175
29876000,0.0324,0.013523,0.002678,0.000431,0.001058
29877000,0.0324,0.013523,0.002678,0.000431,0.001410
29878000,0.0324,0.013523,0.002678,0.000431,0.001293
29879000,0.0324,0.013523,0.002678,0.000431,0.001293
29880000,0.0324,0.013523,0.002678,0.000431,0.001175
29881000,0.0324,0.013523,0.002678,0.000431,0.000940
29882000,0.0324,0.013523,0.002678,0.000431,0.001175
29883000,0.0324,0.013523,0.002678,0.000431,0.000823
29884000,0.0324,0.013523,0.002678,0.000431,0.001175
29885000,0.0324,0.013523,0.002678,0.000431,0.000940
29886000,0.0324,0.013523,0.002678,0.000431,0.001528
29887000,0.0324,0.013523,0.002678,0.000431,0.000940
29888000,0.0324,0.013523,0.002678,0.000431,0.001528
29889000,0.0324,0.013523,0.002678,0.000431,0.000940
29890000,0.0324,0.013523,0.002678,0.000431,0.001175
29891000,0.0324,0.013523,0.002678,0.000431,0.001058
29892000,0.0324,0.013523,0.002678,0.000431,0.001175
29893000,0.0324,0.013523,0.002678,0.000431,0.001528
29894000,0.0324,0.013523,0.002678,0.000431,0.001175
29895000,0.0324,0.013523,0.002678,0.000431,0.000940
29896000,0.0324,0.013523,0.002678,0.000431,0.001058
29897000,0.0324,0.013523,0.002678,0.000431,0.001293
29898000,0.0324,0.013523,0.002678,0.000431,0.001293
29899000,0.0324,0.013523,0.002678,0.000431,0.001410
29900000,0.0324,0.013523,0.002678,0.000431,0.001175
29901000,0.0324,0.013523,0.002678,0.000431,0.001410
29902000,0.0324,0.013523,0.002678,0.000431,0.000823
29903000,0.0324,0.013523,0.002678,0.000431,0.001410
29904000,0.0324,0.013523,0.002678,0.000431,0.000705
29905000,0.0324,0.013523,0.002678,0.000431,0.000705
29906000,0.0324,0.013523,0.002678,0.000431,0.000705
29907000,0.0324,0.013523,0.002678,0.000431,0.000588
29908000,0.0324,0.013523,0.002678,0.000431,0.000588
29909000,0.0324,0.013523,0.002678,0.000431,0.000940
29910000,0.0324,0.013523,0.002678,0.000431,0.000705
29911000,0.0324,0.013523,0.002678,0.000431,0.000823
29912000,0.0324,0.013523,0.002678,0.000431,0.000705
29913000,0.0324,0.013523,0.002678,0.000431,0.000588
29914000,0.0324,0.013523,0.002678,0.000431,0.000940
29915000,0.0324,0.013523,0.002678,0.000431,0.000705
29916000,0.0324,0.013523,0.002678,0.000431,0.000823
29917000,0.0324,0.013523,0.002678,0.000431,0.000823
29918000,0.0324,0.013523,0.002678,0.000431,0.000705
29919000,0.0324,0.013523,0.002678,0.000431,0.000705
29920000,0.0324,0.013523,0.002678,0.000431,0.000705
29921000,0.0324,0.013523,0.002678,0.000431,0.000823
29922000,0.0324,0.013523,0.002678,0.000431,0.000823
29923000,0.0324,0.013523,0.002678,0.000431,0.000705
29924000,0.0324,0.013523,0.002678,0.000431,0.000588
29925000,0.0324,0.013523,0.002678,0.000431,0.000823
29926000,0.0324,0.013523,0.002678,0.000431,0.000823
29927000,0.0324,0.013523,0.002678,0.000431,0.000823
29928000,0.0324,0.013523,0.002678,0.000431,0.000705
29929000,0.0324,0.013523,0.002678,0.000431,0.000823
29930000,0.0324,0.013523,0.002678,0.000431,0.000588
29931000,0.0324,0.013523,0.002678,0.000431,0.000705
29932000,0.0324,0.013523,0.002678,0.000431,0.000588
29933000,0.0324,0.013523,0.002678,0.000431,0.000588
29934000,0.0324,0.013523,0.002678,0.000431,0.000940
29935000,0.0324,0.013523,0.002678,0.000431,0.000705
29936000,0.0324,0.013523,0.002678,0.000431,0.000588
29937000,0.0324,0.013523,0.002678,0.000431,0.000588
29938000,0.0324,0.013523,0.002678,0.000431,0.000705
29939000,0.0324,0.013523,0.002678,0.000431,0.000823
29940000,0.0324,0.013523,0.002678,0.000431,0.000588
29941000,0.0324,0.013523,0.002678,0.000431,0.000470
29942000,0.0324,0.013523,0.002678,0.000431,0.000705
29943000,0.0324,0.013523,0.002678,0.000431,0.000588
29944000,0.0324,0.013523,0.002678,0.000431,0.000705
29945000,0.0324,0.013523,0.002678,0.000431,0.000823
29946000,0.0324,0.013523,0.002678,0.000431,0.000705
29947000,0.0324,0.013523,0.002678,0.000431,0.000705
29948000,0.0324,0.013523,0.002678,0.000431,0.000823
29949000,0.0324,0.013523,0.002678,0.000431,0.000823
29950000,0.0324,0.013523,0.002678,0.000431,0.000470
29951000,0.0324,0.013523,0.002678,0.000431,0.000823
29952000,0.0324,0.013523,0.002678,0.000431,0.000588
29953000,0.0324,0.013523,0.002678,0.000431,0.000940
29954000,0.0324,0.013523,0.002678,0.000431,0.000470
29955000,0.0324,0.013523,0.002678,0.000431,0.000823
29956000,0.0324,0.013523,0.002678,0.000431,0.000705
29957000,0.0324,0.013523,0.002678,0.000431,0.000588
29958000,0.0324,0.013523,0.002678,0.000431,0.000588
29959000,0.0324,0.013523,0.002678,0.000431,0.000823
29960000,0.0324,0.013523,0.002678,0.000431,0.000705
29961000,0.0324,0.013523,0.002678,0.000431,0.000705
29962000,0.0324,0.013523,0.002678,0.000431,0.000705
29963000,0.0324,0.013523,0.002678,0.000431,0.000705
29964000,0.0324,0.013523,0.002678,0.000431,0.000823
29965000,0.0324,0.013523,0.002678,0.000431,0.000823
29966000,0.0324,0.013523,0.002678,0.000431,0.000588
29967000,0.0324,0.013523,0.002678,0.000431,0.000823
29968000,0.0324,0.013523,0.002678,0.000431,0.000705
29969000,0.0324,0.013523,0.002678,0.000431,0.000705
29970000,0.0324,0.013523,0.002678,0.000431,0.000705
29971000,0.0324,0.013523,0.002678,0.000431,0.000705
29972000,0.0324,0.013523,0.002678,0.000431,0.000705
29973000,0.0324,0.013523,0.002678,0.000431,0.000940
29974000,0.0324,0.013523,0.002678,0.000431,0.000588
29975000,0.0324,0.013523,0.002678,0.000431,0.000823
29976000,0.0324,0.013523,0.002678,0.000431,0.000705
29977000,0.0324,0.013523,0.002678,0.000431,0.000705
29978000,0.0324,0.013523,0.002678,0.000431,0.000705
29979000,0.0324,0.013523,0.002678,0.000431,0.000823
29980000,0.0324,0.013523,0.002678,0.000431,0.000823
29981000,0.0324,0.013523,0.002678,0.000431,0.000705
29982000,0.0324,0.013523,0.002678,0.000431,0.000823
29983000,0.0324,0.013523,0.002678,0.000431,0.000705
29984000,0.0324,0.013523,0.002678,0.000431,0.000823
29985000,0.0324,0.013523,0.002678,0.000431,0.000705
29986000,0.0324,0.013523,0.002678,0.000431,0.000823
29987000,0.0324,0.013523,0.002678,0.000431,0.000705
29988000,0.0324,0.013523,0.002678,0.000431,0.000823
29989000,0.0324,0.013523,0.002678,0.000431,0.000705
29990000,0.0324,0.013523,0.002678,0.000431,0.000823
29991000,0.0324,0.013523,0.002678,0.000431,0.000705
29992000,0.0324,0.013523,0.002678,0.000431,0.000823
29993000,0.0324,0.013523,0.002678,0.000431,0.000705
29994000,0.0324,0.013523,0.002678,0.000431,0.000705
29995000,0.0324,0.013523,0.002678,0.000431,0.000705
29996000,0.0324,0.013523,0.002678,0.000431,0.000823
29997000,0.0324,0.013523,0.002678,0.000431,0.000705
29998000,0.0324,0.013523,0.002678,0.000431,0.000588
29999000,0.0324,0.013523,0.002678,0.000431,0.000940
