Cycle,Area(mm^2),PeakDynamic(W),SubthresholdLeakage(W),GateLeakage(W),RunTimeDynamic(W)
4000000,0.0324,0.013523,0.002678,0.000431,1.577933
4001000,0.0324,0.013523,0.002678,0.000431,1.590861
4002000,0.0324,0.013523,0.002678,0.000431,1.564300
4003000,0.0324,0.013523,0.002678,0.000431,1.574055
4004000,0.0324,0.013523,0.002678,0.000431,1.533978
4005000,0.0324,0.013523,0.002678,0.000431,1.501775
4006000,0.0324,0.013523,0.002678,0.000431,1.596503
4007000,0.0324,0.013523,0.002678,0.000431,1.546436
4008000,0.0324,0.013523,0.002678,0.000431,1.505771
4009000,0.0324,0.013523,0.002678,0.000431,1.611311
4010000,0.0324,0.013523,0.002678,0.000431,1.678302
4011000,0.0324,0.013523,0.002678,0.000431,1.673719
4012000,0.0324,0.013523,0.002678,0.000431,1.698635
4013000,0.0324,0.013523,0.002678,0.000431,1.678773
4014000,0.0324,0.013523,0.002678,0.000431,1.656795
4015000,0.0324,0.013523,0.002678,0.000431,1.639753
4016000,0.0324,0.013523,0.002678,0.000431,1.592977
4017000,0.0324,0.013523,0.002678,0.000431,1.573467
4018000,0.0324,0.013523,0.002678,0.000431,1.587923
4019000,0.0324,0.013523,0.002678,0.000431,1.565358
4020000,0.0324,0.013523,0.002678,0.000431,1.609431
4021000,0.0324,0.013523,0.002678,0.000431,1.678773
4022000,0.0324,0.013523,0.002678,0.000431,1.649391
4023000,0.0324,0.013523,0.002678,0.000431,1.713678
4024000,0.0324,0.013523,0.002678,0.000431,1.830031
4025000,0.0324,0.013523,0.002678,0.000431,1.849071
4026000,0.0324,0.013523,0.002678,0.000431,1.897610
4027000,0.0324,0.013523,0.002678,0.000431,1.805585
4028000,0.0324,0.013523,0.002678,0.000431,1.903016
4029000,0.0324,0.013523,0.002678,0.000431,1.948617
4030000,0.0324,0.013523,0.002678,0.000431,1.937452
4031000,0.0324,0.013523,0.002678,0.000431,1.915357
4032000,0.0324,0.013523,0.002678,0.000431,1.918177
4033000,0.0324,0.013523,0.002678,0.000431,1.885857
4034000,0.0324,0.013523,0.002678,0.000431,1.841902
4035000,0.0324,0.013523,0.002678,0.000431,1.862704
4036000,0.0324,0.013523,0.002678,0.000431,1.905132
4037000,0.0324,0.013523,0.002678,0.000431,1.874457
4038000,0.0324,0.013523,0.002678,0.000431,1.913711
4039000,0.0324,0.013523,0.002678,0.000431,1.867758
4040000,0.0324,0.013523,0.002678,0.000431,1.909950
4041000,0.0324,0.013523,0.002678,0.000431,1.944739
4042000,0.0324,0.013523,0.002678,0.000431,1.947207
4043000,0.0324,0.013523,0.002678,0.000431,1.900901
4044000,0.0324,0.013523,0.002678,0.000431,1.918295
4045000,0.0324,0.013523,0.002678,0.000431,1.849541
4046000,0.0324,0.013523,0.002678,0.000431,1.844017
4047000,0.0324,0.013523,0.002678,0.000431,1.852832
4048000,0.0324,0.013523,0.002678,0.000431,1.827916
4049000,0.0324,0.013523,0.002678,0.000431,1.842137
4050000,0.0324,0.013523,0.002678,0.000431,1.748467
4051000,0.0324,0.013523,0.002678,0.000431,1.818749
4052000,0.0324,0.013523,0.002678,0.000431,1.762218
4053000,0.0324,0.013523,0.002678,0.000431,1.804058
4054000,0.0324,0.013523,0.002678,0.000431,1.822157
4055000,0.0324,0.013523,0.002678,0.000431,1.764803
4056000,0.0324,0.013523,0.002678,0.000431,1.738124
4057000,0.0324,0.013523,0.002678,0.000431,1.689703
4058000,0.0324,0.013523,0.002678,0.000431,1.642339
4059000,0.0324,0.013523,0.002678,0.000431,1.671838
4060000,0.0324,0.013523,0.002678,0.000431,1.629881
4061000,0.0324,0.013523,0.002678,0.000431,1.581224
4062000,0.0324,0.013523,0.002678,0.000431,1.599911
4063000,0.0324,0.013523,0.002678,0.000431,1.557366
4064000,0.0324,0.013523,0.002678,0.000431,1.549374
4065000,0.0324,0.013523,0.002678,0.000431,1.524576
4066000,0.0324,0.013523,0.002678,0.000431,1.502715
4067000,0.0324,0.013523,0.002678,0.000431,1.452766
4068000,0.0324,0.013523,0.002678,0.000431,1.478152
4069000,0.0324,0.013523,0.002678,0.000431,1.413276
4070000,0.0324,0.013523,0.002678,0.000431,1.386833
4071000,0.0324,0.013523,0.002678,0.000431,1.382366
4072000,0.0324,0.013523,0.002678,0.000431,1.350634
4073000,0.0324,0.013523,0.002678,0.000431,1.300802
4074000,0.0324,0.013523,0.002678,0.000431,1.261430
4075000,0.0324,0.013523,0.002678,0.000431,1.252615
4076000,0.0324,0.013523,0.002678,0.000431,1.283525
4077000,0.0324,0.013523,0.002678,0.000431,1.254848
4078000,0.0324,0.013523,0.002678,0.000431,1.191971
4079000,0.0324,0.013523,0.002678,0.000431,1.227582
4080000,0.0324,0.013523,0.002678,0.000431,1.242155
4081000,0.0324,0.013523,0.002678,0.000431,1.226759
4082000,0.0324,0.013523,0.002678,0.000431,1.295866
4083000,0.0324,0.013523,0.002678,0.000431,1.262018
4084000,0.0324,0.013523,0.002678,0.000431,1.291282
4085000,0.0324,0.013523,0.002678,0.000431,1.282585
4086000,0.0324,0.013523,0.002678,0.000431,1.271067
4087000,0.0324,0.013523,0.002678,0.000431,1.272713
4088000,0.0324,0.013523,0.002678,0.000431,1.259197
4089000,0.0324,0.013523,0.002678,0.000431,1.245329
4090000,0.0324,0.013523,0.002678,0.000431,1.209483
4091000,0.0324,0.013523,0.002678,0.000431,1.241685
4092000,0.0324,0.013523,0.002678,0.000431,1.269539
4093000,0.0324,0.013523,0.002678,0.000431,1.262018
4094000,0.0324,0.013523,0.002678,0.000431,1.299039
4095000,0.0324,0.013523,0.002678,0.000431,1.345463
4096000,0.0324,0.013523,0.002678,0.000431,1.359566
4097000,0.0324,0.013523,0.002678,0.000431,1.417860
4098000,0.0324,0.013523,0.002678,0.000431,1.449475
4099000,0.0324,0.013523,0.002678,0.000431,1.470513
4100000,0.0324,0.013523,0.002678,0.000431,1.451473
4101000,0.0324,0.013523,0.002678,0.000431,1.460288
4102000,0.0324,0.013523,0.002678,0.000431,1.448300
4103000,0.0324,0.013523,0.002678,0.000431,1.441601
4104000,0.0324,0.013523,0.002678,0.000431,1.420211
4105000,0.0324,0.013523,0.002678,0.000431,1.433609
4106000,0.0324,0.013523,0.002678,0.000431,1.494253
4107000,0.0324,0.013523,0.002678,0.000431,1.529042
4108000,0.0324,0.013523,0.002678,0.000431,1.504478
4109000,0.0324,0.013523,0.002678,0.000431,1.544203
4110000,0.0324,0.013523,0.002678,0.000431,1.680418
4111000,0.0324,0.013523,0.002678,0.000431,1.642339
4112000,0.0324,0.013523,0.002678,0.000431,1.671133
4113000,0.0324,0.013523,0.002678,0.000431,1.661966
4114000,0.0324,0.013523,0.002678,0.000431,1.678302
4115000,0.0324,0.013523,0.002678,0.000431,1.691818
4116000,0.0324,0.013523,0.002678,0.000431,1.634229
4117000,0.0324,0.013523,0.002678,0.000431,1.638813
4118000,0.0324,0.013523,0.002678,0.000431,1.670428
4119000,0.0324,0.013523,0.002678,0.000431,1.688645
4120000,0.0324,0.013523,0.002678,0.000431,1.664904
4121000,0.0324,0.013523,0.002678,0.000431,1.619538
4122000,0.0324,0.013523,0.002678,0.000431,1.616718
4123000,0.0324,0.013523,0.002678,0.000431,1.573115
4124000,0.0324,0.013523,0.002678,0.000431,1.575935
4125000,0.0324,0.013523,0.002678,0.000431,1.547846
4126000,0.0324,0.013523,0.002678,0.000431,1.522578
4127000,0.0324,0.013523,0.002678,0.000431,1.474626
4128000,0.0324,0.013523,0.002678,0.000431,1.479915
4129000,0.0324,0.013523,0.002678,0.000431,1.451238
4130000,0.0324,0.013523,0.002678,0.000431,1.435019
4131000,0.0324,0.013523,0.002678,0.000431,1.409868
4132000,0.0324,0.013523,0.002678,0.000431,1.366383
4133000,0.0324,0.013523,0.002678,0.000431,1.352867
4134000,0.0324,0.013523,0.002678,0.000431,1.317021
4135000,0.0324,0.013523,0.002678,0.000431,1.289167
4136000,0.0324,0.013523,0.002678,0.000431,1.286228
4137000,0.0324,0.013523,0.002678,0.000431,1.240275
4138000,0.0324,0.013523,0.002678,0.000431,1.234163
4139000,0.0324,0.013523,0.002678,0.000431,1.203254
4140000,0.0324,0.013523,0.002678,0.000431,1.179160
4141000,0.0324,0.013523,0.002678,0.000431,1.191148
4142000,0.0324,0.013523,0.002678,0.000431,1.212421
4143000,0.0324,0.013523,0.002678,0.000431,1.297394
4144000,0.0324,0.013523,0.002678,0.000431,1.208660
4145000,0.0324,0.013523,0.002678,0.000431,1.288579
4146000,0.0324,0.013523,0.002678,0.000431,1.424912
4147000,0.0324,0.013523,0.002678,0.000431,1.455351
4148000,0.0324,0.013523,0.002678,0.000431,1.380133
4149000,0.0324,0.013523,0.002678,0.000431,1.521755
4150000,0.0324,0.013523,0.002678,0.000431,1.662319
4151000,0.0324,0.013523,0.002678,0.000431,1.680418
4152000,0.0324,0.013523,0.002678,0.000431,1.588393
4153000,0.0324,0.013523,0.002678,0.000431,1.702161
4154000,0.0324,0.013523,0.002678,0.000431,1.720613
4155000,0.0324,0.013523,0.002678,0.000431,1.665844
4156000,0.0324,0.013523,0.002678,0.000431,1.717792
4157000,0.0324,0.013523,0.002678,0.000431,1.810757
4158000,0.0324,0.013523,0.002678,0.000431,1.799709
4159000,0.0324,0.013523,0.002678,0.000431,1.735186
4160000,0.0324,0.013523,0.002678,0.000431,1.792422
4161000,0.0324,0.013523,0.002678,0.000431,1.814635
4162000,0.0324,0.013523,0.002678,0.000431,1.867170
4163000,0.0324,0.013523,0.002678,0.000431,1.798299
4164000,0.0324,0.013523,0.002678,0.000431,1.821687
4165000,0.0324,0.013523,0.002678,0.000431,1.907600
4166000,0.0324,0.013523,0.002678,0.000431,1.907130
4167000,0.0324,0.013523,0.002678,0.000431,1.887973
4168000,0.0324,0.013523,0.002678,0.000431,1.904192
4169000,0.0324,0.013523,0.002678,0.000431,1.975884
4170000,0.0324,0.013523,0.002678,0.000431,1.996451
4171000,0.0324,0.013523,0.002678,0.000431,1.998802
4172000,0.0324,0.013523,0.002678,0.000431,2.052982
4173000,0.0324,0.013523,0.002678,0.000431,2.008674
4174000,0.0324,0.013523,0.002678,0.000431,2.054158
4175000,0.0324,0.013523,0.002678,0.000431,2.096115
4176000,0.0324,0.013523,0.002678,0.000431,2.027009
4177000,0.0324,0.013523,0.002678,0.000431,2.024540
4178000,0.0324,0.013523,0.002678,0.000431,2.071082
4179000,0.0324,0.013523,0.002678,0.000431,2.032297
4180000,0.0324,0.013523,0.002678,0.000431,1.992220
4181000,0.0324,0.013523,0.002678,0.000431,1.974709
4182000,0.0324,0.013523,0.002678,0.000431,1.965306
4183000,0.0324,0.013523,0.002678,0.000431,1.916297
4184000,0.0324,0.013523,0.002678,0.000431,1.914417
4185000,0.0324,0.013523,0.002678,0.000431,1.866583
4186000,0.0324,0.013523,0.002678,0.000431,1.841197
4187000,0.0324,0.013523,0.002678,0.000431,1.809111
4188000,0.0324,0.013523,0.002678,0.000431,1.809581
4189000,0.0324,0.013523,0.002678,0.000431,1.831207
4190000,0.0324,0.013523,0.002678,0.000431,1.790777
4191000,0.0324,0.013523,0.002678,0.000431,1.743060
4192000,0.0324,0.013523,0.002678,0.000431,1.715911
4193000,0.0324,0.013523,0.002678,0.000431,1.685942
4194000,0.0324,0.013523,0.002678,0.000431,1.651036
4195000,0.0324,0.013523,0.002678,0.000431,1.627178
4196000,0.0324,0.013523,0.002678,0.000431,1.563948
4197000,0.0324,0.013523,0.002678,0.000431,1.565710
4198000,0.0324,0.013523,0.002678,0.000431,1.529747
4199000,0.0324,0.013523,0.002678,0.000431,1.421503
4200000,0.0324,0.013523,0.002678,0.000431,1.473686
4201000,0.0324,0.013523,0.002678,0.000431,1.477682
4202000,0.0324,0.013523,0.002678,0.000431,1.438780
4203000,0.0324,0.013523,0.002678,0.000431,1.439720
4204000,0.0324,0.013523,0.002678,0.000431,1.445714
4205000,0.0324,0.013523,0.002678,0.000431,1.446889
4206000,0.0324,0.013523,0.002678,0.000431,1.447360
4207000,0.0324,0.013523,0.002678,0.000431,1.363680
4208000,0.0324,0.013523,0.002678,0.000431,1.378253
4209000,0.0324,0.013523,0.002678,0.000431,1.432316
4210000,0.0324,0.013523,0.002678,0.000431,1.382249
4211000,0.0324,0.013523,0.002678,0.000431,1.327951
4212000,0.0324,0.013523,0.002678,0.000431,1.335120
4213000,0.0324,0.013523,0.002678,0.000431,1.308206
4214000,0.0324,0.013523,0.002678,0.000431,1.300919
4215000,0.0324,0.013523,0.002678,0.000431,1.323367
4216000,0.0324,0.013523,0.002678,0.000431,1.235691
4217000,0.0324,0.013523,0.002678,0.000431,1.271537
4218000,0.0324,0.013523,0.002678,0.000431,1.314553
4219000,0.0324,0.013523,0.002678,0.000431,1.311262
4220000,0.0324,0.013523,0.002678,0.000431,1.266249
4221000,0.0324,0.013523,0.002678,0.000431,1.265308
4222000,0.0324,0.013523,0.002678,0.000431,1.285758
4223000,0.0324,0.013523,0.002678,0.000431,1.254261
4224000,0.0324,0.013523,0.002678,0.000431,1.215947
4225000,0.0324,0.013523,0.002678,0.000431,1.175517
4226000,0.0324,0.013523,0.002678,0.000431,1.166350
4227000,0.0324,0.013523,0.002678,0.000431,1.217592
4228000,0.0324,0.013523,0.002678,0.000431,1.177515
4229000,0.0324,0.013523,0.002678,0.000431,1.172931
4230000,0.0324,0.013523,0.002678,0.000431,1.169288
4231000,0.0324,0.013523,0.002678,0.000431,1.184214
4232000,0.0324,0.013523,0.002678,0.000431,1.175282
4233000,0.0324,0.013523,0.002678,0.000431,1.214184
4234000,0.0324,0.013523,0.002678,0.000431,1.225936
4235000,0.0324,0.013523,0.002678,0.000431,1.215594
4236000,0.0324,0.013523,0.002678,0.000431,1.324660
4237000,0.0324,0.013523,0.002678,0.000431,1.462051
4238000,0.0324,0.013523,0.002678,0.000431,1.441248
4239000,0.0324,0.013523,0.002678,0.000431,1.424912
4240000,0.0324,0.013523,0.002678,0.000431,1.568061
4241000,0.0324,0.013523,0.002678,0.000431,1.633877
4242000,0.0324,0.013523,0.002678,0.000431,1.616130
4243000,0.0324,0.013523,0.002678,0.000431,1.644219
4244000,0.0324,0.013523,0.002678,0.000431,1.666432
4245000,0.0324,0.013523,0.002678,0.000431,1.695462
4246000,0.0324,0.013523,0.002678,0.000431,1.772325
4247000,0.0324,0.013523,0.002678,0.000431,1.783138
4248000,0.0324,0.013523,0.002678,0.000431,1.799827
4249000,0.0324,0.013523,0.002678,0.000431,1.797241
4250000,0.0324,0.013523,0.002678,0.000431,1.703571
4251000,0.0324,0.013523,0.002678,0.000431,1.776086
4252000,0.0324,0.013523,0.002678,0.000431,1.783608
4253000,0.0324,0.013523,0.002678,0.000431,1.798064
4254000,0.0324,0.013523,0.002678,0.000431,1.787134
4255000,0.0324,0.013523,0.002678,0.000431,1.859648
4256000,0.0324,0.013523,0.002678,0.000431,1.802765
4257000,0.0324,0.013523,0.002678,0.000431,1.798886
4258000,0.0324,0.013523,0.002678,0.000431,1.834850
4259000,0.0324,0.013523,0.002678,0.000431,1.841314
4260000,0.0324,0.013523,0.002678,0.000431,1.873282
4261000,0.0324,0.013523,0.002678,0.000431,1.851774
4262000,0.0324,0.013523,0.002678,0.000431,1.819924
4263000,0.0324,0.013523,0.002678,0.000431,1.757046
4264000,0.0324,0.013523,0.002678,0.000431,1.812872
4265000,0.0324,0.013523,0.002678,0.000431,1.773970
4266000,0.0324,0.013523,0.002678,0.000431,1.765861
4267000,0.0324,0.013523,0.002678,0.000431,1.709800
4268000,0.0324,0.013523,0.002678,0.000431,1.719202
4269000,0.0324,0.013523,0.002678,0.000431,1.709800
4270000,0.0324,0.013523,0.002678,0.000431,1.684414
4271000,0.0324,0.013523,0.002678,0.000431,1.681828
4272000,0.0324,0.013523,0.002678,0.000431,1.688527
4273000,0.0324,0.013523,0.002678,0.000431,1.655149
4274000,0.0324,0.013523,0.002678,0.000431,1.637050
4275000,0.0324,0.013523,0.002678,0.000431,1.670075
4276000,0.0324,0.013523,0.002678,0.000431,1.768682
4277000,0.0324,0.013523,0.002678,0.000431,1.828033
4278000,0.0324,0.013523,0.002678,0.000431,1.731660
4279000,0.0324,0.013523,0.002678,0.000431,1.717792
4280000,0.0324,0.013523,0.002678,0.000431,1.829796
4281000,0.0324,0.013523,0.002678,0.000431,1.839199
4282000,0.0324,0.013523,0.002678,0.000431,1.848483
4283000,0.0324,0.013523,0.002678,0.000431,1.812990
4284000,0.0324,0.013523,0.002678,0.000431,1.782315
4285000,0.0324,0.013523,0.002678,0.000431,1.819806
4286000,0.0324,0.013523,0.002678,0.000431,1.788896
4287000,0.0324,0.013523,0.002678,0.000431,1.786311
4288000,0.0324,0.013523,0.002678,0.000431,1.733776
4289000,0.0324,0.013523,0.002678,0.000431,1.738477
4290000,0.0324,0.013523,0.002678,0.000431,1.706157
4291000,0.0324,0.013523,0.002678,0.000431,1.750582
4292000,0.0324,0.013523,0.002678,0.000431,1.668548
4293000,0.0324,0.013523,0.002678,0.000431,1.634229
4294000,0.0324,0.013523,0.002678,0.000431,1.672896
4295000,0.0324,0.013523,0.002678,0.000431,1.688762
4296000,0.0324,0.013523,0.002678,0.000431,1.601321
4297000,0.0324,0.013523,0.002678,0.000431,1.600381
4298000,0.0324,0.013523,0.002678,0.000431,1.667490
4299000,0.0324,0.013523,0.002678,0.000431,1.636815
4300000,0.0324,0.013523,0.002678,0.000431,1.605788
4301000,0.0324,0.013523,0.002678,0.000431,1.597913
4302000,0.0324,0.013523,0.002678,0.000431,1.654797
4303000,0.0324,0.013523,0.002678,0.000431,1.613309
4304000,0.0324,0.013523,0.002678,0.000431,1.623182
4305000,0.0324,0.013523,0.002678,0.000431,1.605905
4306000,0.0324,0.013523,0.002678,0.000431,1.608491
4307000,0.0324,0.013523,0.002678,0.000431,1.560657
4308000,0.0324,0.013523,0.002678,0.000431,1.534801
4309000,0.0324,0.013523,0.002678,0.000431,1.509767
4310000,0.0324,0.013523,0.002678,0.000431,1.477917
4311000,0.0324,0.013523,0.002678,0.000431,1.512235
4312000,0.0324,0.013523,0.002678,0.000431,1.490727
4313000,0.0324,0.013523,0.002678,0.000431,1.550784
4314000,0.0324,0.013523,0.002678,0.000431,1.697812
4315000,0.0324,0.013523,0.002678,0.000431,1.630704
4316000,0.0324,0.013523,0.002678,0.000431,1.616835
4317000,0.0324,0.013523,0.002678,0.000431,1.745529
4318000,0.0324,0.013523,0.002678,0.000431,1.797476
4319000,0.0324,0.013523,0.002678,0.000431,1.818749
4320000,0.0324,0.013523,0.002678,0.000431,1.792892
4321000,0.0324,0.013523,0.002678,0.000431,1.789837
4322000,0.0324,0.013523,0.002678,0.000431,1.833322
4323000,0.0324,0.013523,0.002678,0.000431,1.876102
4324000,0.0324,0.013523,0.002678,0.000431,1.836848
4325000,0.0324,0.013523,0.002678,0.000431,1.796301
4326000,0.0324,0.013523,0.002678,0.000431,1.862704
4327000,0.0324,0.013523,0.002678,0.000431,1.858238
4328000,0.0324,0.013523,0.002678,0.000431,1.866583
4329000,0.0324,0.013523,0.002678,0.000431,1.847896
4330000,0.0324,0.013523,0.002678,0.000431,1.813812
4331000,0.0324,0.013523,0.002678,0.000431,1.800297
4332000,0.0324,0.013523,0.002678,0.000431,1.803823
4333000,0.0324,0.013523,0.002678,0.000431,1.755283
4334000,0.0324,0.013523,0.002678,0.000431,1.751523
4335000,0.0324,0.013523,0.002678,0.000431,1.782080
4336000,0.0324,0.013523,0.002678,0.000431,1.753050
4337000,0.0324,0.013523,0.002678,0.000431,1.714384
4338000,0.0324,0.013523,0.002678,0.000431,1.705099
4339000,0.0324,0.013523,0.002678,0.000431,1.735304
4340000,0.0324,0.013523,0.002678,0.000431,1.772325
4341000,0.0324,0.013523,0.002678,0.000431,1.762805
4342000,0.0324,0.013523,0.002678,0.000431,1.732953
4343000,0.0324,0.013523,0.002678,0.000431,1.732248
4344000,0.0324,0.013523,0.002678,0.000431,1.836848
4345000,0.0324,0.013523,0.002678,0.000431,1.845310
4346000,0.0324,0.013523,0.002678,0.000431,1.796301
4347000,0.0324,0.013523,0.002678,0.000431,1.766801
4348000,0.0324,0.013523,0.002678,0.000431,1.749760
4349000,0.0324,0.013523,0.002678,0.000431,1.719907
4350000,0.0324,0.013523,0.002678,0.000431,1.621889
4351000,0.0324,0.013523,0.002678,0.000431,1.624004
4352000,0.0324,0.013523,0.002678,0.000431,1.616835
4353000,0.0324,0.013523,0.002678,0.000431,1.593682
4354000,0.0324,0.013523,0.002678,0.000431,1.561714
4355000,0.0324,0.013523,0.002678,0.000431,1.501540
4356000,0.0324,0.013523,0.002678,0.000431,1.501540
4357000,0.0324,0.013523,0.002678,0.000431,1.472040
4358000,0.0324,0.013523,0.002678,0.000431,1.444069
4359000,0.0324,0.013523,0.002678,0.000431,1.414217
4360000,0.0324,0.013523,0.002678,0.000431,1.388595
4361000,0.0324,0.013523,0.002678,0.000431,1.371084
4362000,0.0324,0.013523,0.002678,0.000431,1.367323
4363000,0.0324,0.013523,0.002678,0.000431,1.345110
4364000,0.0324,0.013523,0.002678,0.000431,1.294690
4365000,0.0324,0.013523,0.002678,0.000431,1.272008
4366000,0.0324,0.013523,0.002678,0.000431,1.254496
4367000,0.0324,0.013523,0.002678,0.000431,1.252968
4368000,0.0324,0.013523,0.002678,0.000431,1.236161
4369000,0.0324,0.013523,0.002678,0.000431,1.209953
4370000,0.0324,0.013523,0.002678,0.000431,1.188915
4371000,0.0324,0.013523,0.002678,0.000431,1.184096
4372000,0.0324,0.013523,0.002678,0.000431,1.146840
4373000,0.0324,0.013523,0.002678,0.000431,1.122277
4374000,0.0324,0.013523,0.002678,0.000431,1.116283
4375000,0.0324,0.013523,0.002678,0.000431,1.149073
4376000,0.0324,0.013523,0.002678,0.000431,1.066098
4377000,0.0324,0.013523,0.002678,0.000431,1.091602
4378000,0.0324,0.013523,0.002678,0.000431,1.129211
4379000,0.0324,0.013523,0.002678,0.000431,1.132031
4380000,0.0324,0.013523,0.002678,0.000431,1.122982
4381000,0.0324,0.013523,0.002678,0.000431,1.177750
4382000,0.0324,0.013523,0.002678,0.000431,1.162589
4383000,0.0324,0.013523,0.002678,0.000431,1.134264
4384000,0.0324,0.013523,0.002678,0.000431,1.099711
4385000,0.0324,0.013523,0.002678,0.000431,1.088899
4386000,0.0324,0.013523,0.002678,0.000431,1.135087
4387000,0.0324,0.013523,0.002678,0.000431,1.127683
4388000,0.0324,0.013523,0.002678,0.000431,1.061162
4389000,0.0324,0.013523,0.002678,0.000431,1.098889
4390000,0.0324,0.013523,0.002678,0.000431,1.092660
4391000,0.0324,0.013523,0.002678,0.000431,1.087841
4392000,0.0324,0.013523,0.002678,0.000431,1.079144
4393000,0.0324,0.013523,0.002678,0.000431,1.027079
4394000,0.0324,0.013523,0.002678,0.000431,1.036951
4395000,0.0324,0.013523,0.002678,0.000431,0.997814
4396000,0.0324,0.013523,0.002678,0.000431,0.992643
4397000,0.0324,0.013523,0.002678,0.000431,0.969490
4398000,0.0324,0.013523,0.002678,0.000431,0.958325
4399000,0.0324,0.013523,0.002678,0.000431,0.931646
4400000,0.0324,0.013523,0.002678,0.000431,0.913312
4401000,0.0324,0.013523,0.002678,0.000431,0.881931
4402000,0.0324,0.013523,0.002678,0.000431,0.881579
4403000,0.0324,0.013523,0.002678,0.000431,0.871824
4404000,0.0324,0.013523,0.002678,0.000431,0.846555
4405000,0.0324,0.013523,0.002678,0.000431,0.876878
4406000,0.0324,0.013523,0.002678,0.000431,0.893214
4407000,0.0324,0.013523,0.002678,0.000431,0.837623
4408000,0.0324,0.013523,0.002678,0.000431,0.821169
4409000,0.0324,0.013523,0.002678,0.000431,0.859484
4410000,0.0324,0.013523,0.002678,0.000431,0.876760
4411000,0.0324,0.013523,0.002678,0.000431,0.868063
4412000,0.0324,0.013523,0.002678,0.000431,0.924242
4413000,0.0324,0.013523,0.002678,0.000431,0.930588
4414000,0.0324,0.013523,0.002678,0.000431,0.926710
4415000,0.0324,0.013523,0.002678,0.000431,0.965729
4416000,0.0324,0.013523,0.002678,0.000431,1.045883
4417000,0.0324,0.013523,0.002678,0.000431,1.084433
4418000,0.0324,0.013523,0.002678,0.000431,1.112052
4419000,0.0324,0.013523,0.002678,0.000431,1.115578
4420000,0.0324,0.013523,0.002678,0.000431,1.139671
4421000,0.0324,0.013523,0.002678,0.000431,1.159886
4422000,0.0324,0.013523,0.002678,0.000431,1.245799
4423000,0.0324,0.013523,0.002678,0.000431,1.195144
4424000,0.0324,0.013523,0.002678,0.000431,1.206544
4425000,0.0324,0.013523,0.002678,0.000431,1.268247
4426000,0.0324,0.013523,0.002678,0.000431,1.278237
4427000,0.0324,0.013523,0.002678,0.000431,1.334650
4428000,0.0324,0.013523,0.002678,0.000431,1.351339
4429000,0.0324,0.013523,0.002678,0.000431,1.278707
4430000,0.0324,0.013523,0.002678,0.000431,1.273535
4431000,0.0324,0.013523,0.002678,0.000431,1.349459
4432000,0.0324,0.013523,0.002678,0.000431,1.356275
4433000,0.0324,0.013523,0.002678,0.000431,1.347226
4434000,0.0324,0.013523,0.002678,0.000431,1.353807
4435000,0.0324,0.013523,0.002678,0.000431,1.334768
4436000,0.0324,0.013523,0.002678,0.000431,1.399878
4437000,0.0324,0.013523,0.002678,0.000431,1.384952
4438000,0.0324,0.013523,0.002678,0.000431,1.406695
4439000,0.0324,0.013523,0.002678,0.000431,1.397175
4440000,0.0324,0.013523,0.002678,0.000431,1.344170
4441000,0.0324,0.013523,0.002678,0.000431,1.355100
4442000,0.0324,0.013523,0.002678,0.000431,1.404109
4443000,0.0324,0.013523,0.002678,0.000431,1.362974
4444000,0.0324,0.013523,0.002678,0.000431,1.366853
4445000,0.0324,0.013523,0.002678,0.000431,1.378371
4446000,0.0324,0.013523,0.002678,0.000431,1.383307
4447000,0.0324,0.013523,0.002678,0.000431,1.351692
4448000,0.0324,0.013523,0.002678,0.000431,1.315846
4449000,0.0324,0.013523,0.002678,0.000431,1.342877
4450000,0.0324,0.013523,0.002678,0.000431,1.334885
4451000,0.0324,0.013523,0.002678,0.000431,1.316551
4452000,0.0324,0.013523,0.002678,0.000431,1.319254
4453000,0.0324,0.013523,0.002678,0.000431,1.276826
4454000,0.0324,0.013523,0.002678,0.000431,1.267541
4455000,0.0324,0.013523,0.002678,0.000431,1.246151
4456000,0.0324,0.013523,0.002678,0.000431,1.258492
4457000,0.0324,0.013523,0.002678,0.000431,1.257199
4458000,0.0324,0.013523,0.002678,0.000431,1.247914
4459000,0.0324,0.013523,0.002678,0.000431,1.278824
4460000,0.0324,0.013523,0.002678,0.000431,1.303975
4461000,0.0324,0.013523,0.002678,0.000431,1.336530
4462000,0.0324,0.013523,0.002678,0.000431,1.393532
4463000,0.0324,0.013523,0.002678,0.000431,1.339821
4464000,0.0324,0.013523,0.002678,0.000431,1.414687
4465000,0.0324,0.013523,0.002678,0.000431,1.363562
4466000,0.0324,0.013523,0.002678,0.000431,1.322310
4467000,0.0324,0.013523,0.002678,0.000431,1.299627
4468000,0.0324,0.013523,0.002678,0.000431,1.282938
4469000,0.0324,0.013523,0.002678,0.000431,1.272948
4470000,0.0324,0.013523,0.002678,0.000431,1.256494
4471000,0.0324,0.013523,0.002678,0.000431,1.274476
4472000,0.0324,0.013523,0.002678,0.000431,1.343582
4473000,0.0324,0.013523,0.002678,0.000431,1.253438
4474000,0.0324,0.013523,0.002678,0.000431,1.262958
4475000,0.0324,0.013523,0.002678,0.000431,1.340526
4476000,0.0324,0.013523,0.002678,0.000431,1.386010
4477000,0.0324,0.013523,0.002678,0.000431,1.395765
4478000,0.0324,0.013523,0.002678,0.000431,1.400936
4479000,0.0324,0.013523,0.002678,0.000431,1.393649
4480000,0.0324,0.013523,0.002678,0.000431,1.383072
4481000,0.0324,0.013523,0.002678,0.000431,1.450180
4482000,0.0324,0.013523,0.002678,0.000431,1.406577
4483000,0.0324,0.013523,0.002678,0.000431,1.421268
4484000,0.0324,0.013523,0.002678,0.000431,1.432786
4485000,0.0324,0.013523,0.002678,0.000431,1.453471
4486000,0.0324,0.013523,0.002678,0.000431,1.387303
4487000,0.0324,0.013523,0.002678,0.000431,1.457702
4488000,0.0324,0.013523,0.002678,0.000431,1.452413
4489000,0.0324,0.013523,0.002678,0.000431,1.504831
4490000,0.0324,0.013523,0.002678,0.000431,1.553723
4491000,0.0324,0.013523,0.002678,0.000431,1.532450
4492000,0.0324,0.013523,0.002678,0.000431,1.625885
4493000,0.0324,0.013523,0.002678,0.000431,1.581812
4494000,0.0324,0.013523,0.002678,0.000431,1.621771
4495000,0.0324,0.013523,0.002678,0.000431,1.670546
4496000,0.0324,0.013523,0.002678,0.000431,1.693581
4497000,0.0324,0.013523,0.002678,0.000431,1.750935
4498000,0.0324,0.013523,0.002678,0.000431,1.730720
4499000,0.0324,0.013523,0.002678,0.000431,1.767271
4500000,0.0324,0.013523,0.002678,0.000431,1.802765
4501000,0.0324,0.013523,0.002678,0.000431,1.834380
4502000,0.0324,0.013523,0.002678,0.000431,1.845192
4503000,0.0324,0.013523,0.002678,0.000431,1.820864
4504000,0.0324,0.013523,0.002678,0.000431,1.806408
4505000,0.0324,0.013523,0.002678,0.000431,1.856475
4506000,0.0324,0.013523,0.002678,0.000431,1.883154
4507000,0.0324,0.013523,0.002678,0.000431,1.866583
4508000,0.0324,0.013523,0.002678,0.000431,1.865055
4509000,0.0324,0.013523,0.002678,0.000431,1.858943
4510000,0.0324,0.013523,0.002678,0.000431,1.827211
4511000,0.0324,0.013523,0.002678,0.000431,1.747997
4512000,0.0324,0.013523,0.002678,0.000431,1.851657
4513000,0.0324,0.013523,0.002678,0.000431,1.838141
4514000,0.0324,0.013523,0.002678,0.000431,1.779612
4515000,0.0324,0.013523,0.002678,0.000431,1.796301
4516000,0.0324,0.013523,0.002678,0.000431,1.795125
4517000,0.0324,0.013523,0.002678,0.000431,1.743766
4518000,0.0324,0.013523,0.002678,0.000431,1.755989
4519000,0.0324,0.013523,0.002678,0.000431,1.683944
4520000,0.0324,0.013523,0.002678,0.000431,1.707449
4521000,0.0324,0.013523,0.002678,0.000431,1.702631
4522000,0.0324,0.013523,0.002678,0.000431,1.673954
4523000,0.0324,0.013523,0.002678,0.000431,1.703689
4524000,0.0324,0.013523,0.002678,0.000431,1.728369
4525000,0.0324,0.013523,0.002678,0.000431,1.655737
4526000,0.0324,0.013523,0.002678,0.000431,1.688292
4527000,0.0324,0.013523,0.002678,0.000431,1.719202
4528000,0.0324,0.013523,0.002678,0.000431,1.697460
4529000,0.0324,0.013523,0.002678,0.000431,1.649273
4530000,0.0324,0.013523,0.002678,0.000431,1.634817
4531000,0.0324,0.013523,0.002678,0.000431,1.626473
4532000,0.0324,0.013523,0.002678,0.000431,1.618951
4533000,0.0324,0.013523,0.002678,0.000431,1.602849
4534000,0.0324,0.013523,0.002678,0.000431,1.581459
4535000,0.0324,0.013523,0.002678,0.000431,1.528219
4536000,0.0324,0.013523,0.002678,0.000431,1.470160
4537000,0.0324,0.013523,0.002678,0.000431,1.466399
4538000,0.0324,0.013523,0.002678,0.000431,1.459818
4539000,0.0324,0.013523,0.002678,0.000431,1.429495
4540000,0.0324,0.013523,0.002678,0.000431,1.407988
4541000,0.0324,0.013523,0.002678,0.000431,1.406225
4542000,0.0324,0.013523,0.002678,0.000431,1.382602
4543000,0.0324,0.013523,0.002678,0.000431,1.353455
4544000,0.0324,0.013523,0.002678,0.000431,1.326541
4545000,0.0324,0.013523,0.002678,0.000431,1.250617
4546000,0.0324,0.013523,0.002678,0.000431,1.297394
4547000,0.0324,0.013523,0.002678,0.000431,1.272478
4548000,0.0324,0.013523,0.002678,0.000431,1.328539
4549000,0.0324,0.013523,0.002678,0.000431,1.270597
4550000,0.0324,0.013523,0.002678,0.000431,1.324190
4551000,0.0324,0.013523,0.002678,0.000431,1.276239
4552000,0.0324,0.013523,0.002678,0.000431,1.308441
4553000,0.0324,0.013523,0.002678,0.000431,1.334650
4554000,0.0324,0.013523,0.002678,0.000431,1.316316
4555000,0.0324,0.013523,0.002678,0.000431,1.321487
4556000,0.0324,0.013523,0.002678,0.000431,1.403874
4557000,0.0324,0.013523,0.002678,0.000431,1.362974
4558000,0.0324,0.013523,0.002678,0.000431,1.324425
4559000,0.0324,0.013523,0.002678,0.000431,1.356275
4560000,0.0324,0.013523,0.002678,0.000431,1.354630
4561000,0.0324,0.013523,0.002678,0.000431,1.300097
4562000,0.0324,0.013523,0.002678,0.000431,1.381426
4563000,0.0324,0.013523,0.002678,0.000431,1.335708
4564000,0.0324,0.013523,0.002678,0.000431,1.353455
4565000,0.0324,0.013523,0.002678,0.000431,1.374492
4566000,0.0324,0.013523,0.002678,0.000431,1.342054
4567000,0.0324,0.013523,0.002678,0.000431,1.324190
4568000,0.0324,0.013523,0.002678,0.000431,1.304915
4569000,0.0324,0.013523,0.002678,0.000431,1.321369
4570000,0.0324,0.013523,0.002678,0.000431,1.361917
4571000,0.0324,0.013523,0.002678,0.000431,1.302682
4572000,0.0324,0.013523,0.002678,0.000431,1.378488
4573000,0.0324,0.013523,0.002678,0.000431,1.313142
4574000,0.0324,0.013523,0.002678,0.000431,1.426792
4575000,0.0324,0.013523,0.002678,0.000431,1.402229
4576000,0.0324,0.013523,0.002678,0.000431,1.401994
4577000,0.0324,0.013523,0.002678,0.000431,1.478269
4578000,0.0324,0.013523,0.002678,0.000431,1.524458
4579000,0.0324,0.013523,0.002678,0.000431,1.476624
4580000,0.0324,0.013523,0.002678,0.000431,1.574172
4581000,0.0324,0.013523,0.002678,0.000431,1.615190
4582000,0.0324,0.013523,0.002678,0.000431,1.612369
4583000,0.0324,0.013523,0.002678,0.000431,1.596503
4584000,0.0324,0.013523,0.002678,0.000431,1.575583
4585000,0.0324,0.013523,0.002678,0.000431,1.540677
4586000,0.0324,0.013523,0.002678,0.000431,1.563242
4587000,0.0324,0.013523,0.002678,0.000431,1.604965
4588000,0.0324,0.013523,0.002678,0.000431,1.600146
4589000,0.0324,0.013523,0.002678,0.000431,1.575583
4590000,0.0324,0.013523,0.002678,0.000431,1.647275
4591000,0.0324,0.013523,0.002678,0.000431,1.806996
4592000,0.0324,0.013523,0.002678,0.000431,1.768447
4593000,0.0324,0.013523,0.002678,0.000431,1.739887
4594000,0.0324,0.013523,0.002678,0.000431,1.787721
4595000,0.0324,0.013523,0.002678,0.000431,1.732600
4596000,0.0324,0.013523,0.002678,0.000431,1.717087
4597000,0.0324,0.013523,0.002678,0.000431,1.716147
4598000,0.0324,0.013523,0.002678,0.000431,1.716264
4599000,0.0324,0.013523,0.002678,0.000431,1.680888
4600000,0.0324,0.013523,0.002678,0.000431,1.652799
4601000,0.0324,0.013523,0.002678,0.000431,1.656442
4602000,0.0324,0.013523,0.002678,0.000431,1.604377
4603000,0.0324,0.013523,0.002678,0.000431,1.663611
4604000,0.0324,0.013523,0.002678,0.000431,1.662671
4605000,0.0324,0.013523,0.002678,0.000431,1.653739
4606000,0.0324,0.013523,0.002678,0.000431,1.670075
4607000,0.0324,0.013523,0.002678,0.000431,1.647275
4608000,0.0324,0.013523,0.002678,0.000431,1.624357
4609000,0.0324,0.013523,0.002678,0.000431,1.729192
4610000,0.0324,0.013523,0.002678,0.000431,1.705451
4611000,0.0324,0.013523,0.002678,0.000431,1.685119
4612000,0.0324,0.013523,0.002678,0.000431,1.656325
4613000,0.0324,0.013523,0.002678,0.000431,1.637873
4614000,0.0324,0.013523,0.002678,0.000431,1.630586
4615000,0.0324,0.013523,0.002678,0.000431,1.585690
4616000,0.0324,0.013523,0.002678,0.000431,1.606728
4617000,0.0324,0.013523,0.002678,0.000431,1.702513
4618000,0.0324,0.013523,0.002678,0.000431,1.725431
4619000,0.0324,0.013523,0.002678,0.000431,1.678538
4620000,0.0324,0.013523,0.002678,0.000431,1.720142
4621000,0.0324,0.013523,0.002678,0.000431,1.853302
4622000,0.0324,0.013523,0.002678,0.000431,1.935689
4623000,0.0324,0.013523,0.002678,0.000431,1.897610
4624000,0.0324,0.013523,0.002678,0.000431,1.838258
4625000,0.0324,0.013523,0.002678,0.000431,1.827681
4626000,0.0324,0.013523,0.002678,0.000431,1.825565
4627000,0.0324,0.013523,0.002678,0.000431,1.813930
4628000,0.0324,0.013523,0.002678,0.000431,1.787369
4629000,0.0324,0.013523,0.002678,0.000431,1.736361
4630000,0.0324,0.013523,0.002678,0.000431,1.706862
4631000,0.0324,0.013523,0.002678,0.000431,1.762453
4632000,0.0324,0.013523,0.002678,0.000431,1.698047
4633000,0.0324,0.013523,0.002678,0.000431,1.717674
4634000,0.0324,0.013523,0.002678,0.000431,1.721553
4635000,0.0324,0.013523,0.002678,0.000431,1.668077
4636000,0.0324,0.013523,0.002678,0.000431,1.679595
4637000,0.0324,0.013523,0.002678,0.000431,1.813577
4638000,0.0324,0.013523,0.002678,0.000431,1.744588
4639000,0.0324,0.013523,0.002678,0.000431,1.725079
4640000,0.0324,0.013523,0.002678,0.000431,1.797358
4641000,0.0324,0.013523,0.002678,0.000431,1.811932
4642000,0.0324,0.013523,0.002678,0.000431,1.798769
4643000,0.0324,0.013523,0.002678,0.000431,1.744471
4644000,0.0324,0.013523,0.002678,0.000431,1.833910
4645000,0.0324,0.013523,0.002678,0.000431,1.838846
4646000,0.0324,0.013523,0.002678,0.000431,1.865877
4647000,0.0324,0.013523,0.002678,0.000431,1.882801
4648000,0.0324,0.013523,0.002678,0.000431,1.862587
4649000,0.0324,0.013523,0.002678,0.000431,1.917825
4650000,0.0324,0.013523,0.002678,0.000431,1.938627
4651000,0.0324,0.013523,0.002678,0.000431,1.919940
4652000,0.0324,0.013523,0.002678,0.000431,1.851774
4653000,0.0324,0.013523,0.002678,0.000431,1.855770
4654000,0.0324,0.013523,0.002678,0.000431,1.845428
4655000,0.0324,0.013523,0.002678,0.000431,1.771972
4656000,0.0324,0.013523,0.002678,0.000431,1.763745
4657000,0.0324,0.013523,0.002678,0.000431,1.748937
4658000,0.0324,0.013523,0.002678,0.000431,1.675129
4659000,0.0324,0.013523,0.002678,0.000431,1.738947
4660000,0.0324,0.013523,0.002678,0.000431,1.717087
4661000,0.0324,0.013523,0.002678,0.000431,1.682533
4662000,0.0324,0.013523,0.002678,0.000431,1.696519
4663000,0.0324,0.013523,0.002678,0.000431,1.699340
4664000,0.0324,0.013523,0.002678,0.000431,1.640811
4665000,0.0324,0.013523,0.002678,0.000431,1.646570
4666000,0.0324,0.013523,0.002678,0.000431,1.601909
4667000,0.0324,0.013523,0.002678,0.000431,1.604730
4668000,0.0324,0.013523,0.002678,0.000431,1.584750
4669000,0.0324,0.013523,0.002678,0.000431,1.559011
4670000,0.0324,0.013523,0.002678,0.000431,1.510120
4671000,0.0324,0.013523,0.002678,0.000431,1.465341
4672000,0.0324,0.013523,0.002678,0.000431,1.462286
4673000,0.0324,0.013523,0.002678,0.000431,1.418565
4674000,0.0324,0.013523,0.002678,0.000431,1.411396
4675000,0.0324,0.013523,0.002678,0.000431,1.378488
4676000,0.0324,0.013523,0.002678,0.000431,1.396235
4677000,0.0324,0.013523,0.002678,0.000431,1.362034
4678000,0.0324,0.013523,0.002678,0.000431,1.425382
4679000,0.0324,0.013523,0.002678,0.000431,1.398468
4680000,0.0324,0.013523,0.002678,0.000431,1.404697
4681000,0.0324,0.013523,0.002678,0.000431,1.416685
4682000,0.0324,0.013523,0.002678,0.000431,1.470043
4683000,0.0324,0.013523,0.002678,0.000431,1.498602
4684000,0.0324,0.013523,0.002678,0.000431,1.525868
4685000,0.0324,0.013523,0.002678,0.000431,1.498249
4686000,0.0324,0.013523,0.002678,0.000431,1.492255
4687000,0.0324,0.013523,0.002678,0.000431,1.567826
4688000,0.0324,0.013523,0.002678,0.000431,1.584397
4689000,0.0324,0.013523,0.002678,0.000431,1.509414
4690000,0.0324,0.013523,0.002678,0.000431,1.551607
4691000,0.0324,0.013523,0.002678,0.000431,1.560422
4692000,0.0324,0.013523,0.002678,0.000431,1.547376
4693000,0.0324,0.013523,0.002678,0.000431,1.595210
4694000,0.0324,0.013523,0.002678,0.000431,1.554780
4695000,0.0324,0.013523,0.002678,0.000431,1.590626
4696000,0.0324,0.013523,0.002678,0.000431,1.678773
4697000,0.0324,0.013523,0.002678,0.000431,1.698400
4698000,0.0324,0.013523,0.002678,0.000431,1.754696
4699000,0.0324,0.013523,0.002678,0.000431,1.769739
4700000,0.0324,0.013523,0.002678,0.000431,1.821334
4701000,0.0324,0.013523,0.002678,0.000431,1.789367
4702000,0.0324,0.013523,0.002678,0.000431,1.774911
4703000,0.0324,0.013523,0.002678,0.000431,1.818279
4704000,0.0324,0.013523,0.002678,0.000431,1.721435
4705000,0.0324,0.013523,0.002678,0.000431,1.822157
4706000,0.0324,0.013523,0.002678,0.000431,1.822274
4707000,0.0324,0.013523,0.002678,0.000431,1.849776
4708000,0.0324,0.013523,0.002678,0.000431,1.883272
4709000,0.0324,0.013523,0.002678,0.000431,1.804293
4710000,0.0324,0.013523,0.002678,0.000431,1.784783
4711000,0.0324,0.013523,0.002678,0.000431,1.768212
4712000,0.0324,0.013523,0.002678,0.000431,1.800532
4713000,0.0324,0.013523,0.002678,0.000431,1.808876
4714000,0.0324,0.013523,0.002678,0.000431,1.822862
4715000,0.0324,0.013523,0.002678,0.000431,1.827916
4716000,0.0324,0.013523,0.002678,0.000431,1.781727
4717000,0.0324,0.013523,0.002678,0.000431,1.805350
4718000,0.0324,0.013523,0.002678,0.000431,1.833675
4719000,0.0324,0.013523,0.002678,0.000431,1.793363
4720000,0.0324,0.013523,0.002678,0.000431,1.749525
4721000,0.0324,0.013523,0.002678,0.000431,1.827681
4722000,0.0324,0.013523,0.002678,0.000431,1.820512
4723000,0.0324,0.013523,0.002678,0.000431,1.748937
4724000,0.0324,0.013523,0.002678,0.000431,1.731660
4725000,0.0324,0.013523,0.002678,0.000431,1.732483
4726000,0.0324,0.013523,0.002678,0.000431,1.695227
4727000,0.0324,0.013523,0.002678,0.000431,1.731660
4728000,0.0324,0.013523,0.002678,0.000431,1.662084
4729000,0.0324,0.013523,0.002678,0.000431,1.600734
4730000,0.0324,0.013523,0.002678,0.000431,1.784195
4731000,0.0324,0.013523,0.002678,0.000431,1.746116
4732000,0.0324,0.013523,0.002678,0.000431,1.717439
4733000,0.0324,0.013523,0.002678,0.000431,1.748349
4734000,0.0324,0.013523,0.002678,0.000431,1.755401
4735000,0.0324,0.013523,0.002678,0.000431,1.757399
4736000,0.0324,0.013523,0.002678,0.000431,1.812637
4737000,0.0324,0.013523,0.002678,0.000431,1.692053
4738000,0.0324,0.013523,0.002678,0.000431,1.752110
4739000,0.0324,0.013523,0.002678,0.000431,1.823920
4740000,0.0324,0.013523,0.002678,0.000431,1.795948
4741000,0.0324,0.013523,0.002678,0.000431,1.776086
4742000,0.0324,0.013523,0.002678,0.000431,1.739535
4743000,0.0324,0.013523,0.002678,0.000431,1.694991
4744000,0.0324,0.013523,0.002678,0.000431,1.657265
4745000,0.0324,0.013523,0.002678,0.000431,1.637050
4746000,0.0324,0.013523,0.002678,0.000431,1.615307
4747000,0.0324,0.013523,0.002678,0.000431,1.568884
4748000,0.0324,0.013523,0.002678,0.000431,1.587806
4749000,0.0324,0.013523,0.002678,0.000431,1.580989
4750000,0.0324,0.013523,0.002678,0.000431,1.592742
4751000,0.0324,0.013523,0.002678,0.000431,1.599676
4752000,0.0324,0.013523,0.002678,0.000431,1.618598
4753000,0.0324,0.013523,0.002678,0.000431,1.705804
4754000,0.0324,0.013523,0.002678,0.000431,1.673601
4755000,0.0324,0.013523,0.002678,0.000431,1.619538
4756000,0.0324,0.013523,0.002678,0.000431,1.676892
4757000,0.0324,0.013523,0.002678,0.000431,1.713326
4758000,0.0324,0.013523,0.002678,0.000431,1.681358
4759000,0.0324,0.013523,0.002678,0.000431,1.686059
4760000,0.0324,0.013523,0.002678,0.000431,1.859296
4761000,0.0324,0.013523,0.002678,0.000431,1.852127
4762000,0.0324,0.013523,0.002678,0.000431,1.808524
4763000,0.0324,0.013523,0.002678,0.000431,1.831559
4764000,0.0324,0.013523,0.002678,0.000431,1.877983
4765000,0.0324,0.013523,0.002678,0.000431,1.884917
4766000,0.0324,0.013523,0.002678,0.000431,1.896905
4767000,0.0324,0.013523,0.002678,0.000431,1.864467
4768000,0.0324,0.013523,0.002678,0.000431,1.840609
4769000,0.0324,0.013523,0.002678,0.000431,1.816986
4770000,0.0324,0.013523,0.002678,0.000431,1.771502
4771000,0.0324,0.013523,0.002678,0.000431,1.822510
4772000,0.0324,0.013523,0.002678,0.000431,1.807936
4773000,0.0324,0.013523,0.002678,0.000431,1.884094
4774000,0.0324,0.013523,0.002678,0.000431,1.818396
4775000,0.0324,0.013523,0.002678,0.000431,1.808759
4776000,0.0324,0.013523,0.002678,0.000431,1.847308
4777000,0.0324,0.013523,0.002678,0.000431,1.856123
4778000,0.0324,0.013523,0.002678,0.000431,1.807819
4779000,0.0324,0.013523,0.002678,0.000431,1.759397
4780000,0.0324,0.013523,0.002678,0.000431,1.764568
4781000,0.0324,0.013523,0.002678,0.000431,1.779259
4782000,0.0324,0.013523,0.002678,0.000431,1.772678
4783000,0.0324,0.013523,0.002678,0.000431,1.779612
4784000,0.0324,0.013523,0.002678,0.000431,1.847896
4785000,0.0324,0.013523,0.002678,0.000431,1.860941
4786000,0.0324,0.013523,0.002678,0.000431,1.838611
4787000,0.0324,0.013523,0.002678,0.000431,1.896787
4788000,0.0324,0.013523,0.002678,0.000431,1.925464
4789000,0.0324,0.013523,0.002678,0.000431,1.867875
4790000,0.0324,0.013523,0.002678,0.000431,1.830031
4791000,0.0324,0.013523,0.002678,0.000431,1.815340
4792000,0.0324,0.013523,0.002678,0.000431,1.790542
4793000,0.0324,0.013523,0.002678,0.000431,1.755283
4794000,0.0324,0.013523,0.002678,0.000431,1.717439
4795000,0.0324,0.013523,0.002678,0.000431,1.691583
4796000,0.0324,0.013523,0.002678,0.000431,1.763628
4797000,0.0324,0.013523,0.002678,0.000431,1.717439
4798000,0.0324,0.013523,0.002678,0.000431,1.669488
4799000,0.0324,0.013523,0.002678,0.000431,1.774911
4800000,0.0324,0.013523,0.002678,0.000431,1.760690
4801000,0.0324,0.013523,0.002678,0.000431,1.713561
4802000,0.0324,0.013523,0.002678,0.000431,1.688175
4803000,0.0324,0.013523,0.002678,0.000431,1.604142
4804000,0.0324,0.013523,0.002678,0.000431,1.706979
4805000,0.0324,0.013523,0.002678,0.000431,1.662789
4806000,0.0324,0.013523,0.002678,0.000431,1.670193
4807000,0.0324,0.013523,0.002678,0.000431,1.593800
4808000,0.0324,0.013523,0.002678,0.000431,1.631996
4809000,0.0324,0.013523,0.002678,0.000431,1.599206
4810000,0.0324,0.013523,0.002678,0.000431,1.577346
4811000,0.0324,0.013523,0.002678,0.000431,1.558306
4812000,0.0324,0.013523,0.002678,0.000431,1.513998
4813000,0.0324,0.013523,0.002678,0.000431,1.503303
4814000,0.0324,0.013523,0.002678,0.000431,1.471453
4815000,0.0324,0.013523,0.002678,0.000431,1.404697
4816000,0.0324,0.013523,0.002678,0.000431,1.441248
4817000,0.0324,0.013523,0.002678,0.000431,1.422091
4818000,0.0324,0.013523,0.002678,0.000431,1.352867
4819000,0.0324,0.013523,0.002678,0.000431,1.404932
4820000,0.0324,0.013523,0.002678,0.000431,1.468750
4821000,0.0324,0.013523,0.002678,0.000431,1.450415
4822000,0.0324,0.013523,0.002678,0.000431,1.391769
4823000,0.0324,0.013523,0.002678,0.000431,1.383659
4824000,0.0324,0.013523,0.002678,0.000431,1.366265
4825000,0.0324,0.013523,0.002678,0.000431,1.363680
4826000,0.0324,0.013523,0.002678,0.000431,1.345698
4827000,0.0324,0.013523,0.002678,0.000431,1.304798
4828000,0.0324,0.013523,0.002678,0.000431,1.333357
4829000,0.0324,0.013523,0.002678,0.000431,1.316316
4830000,0.0324,0.013523,0.002678,0.000431,1.304093
4831000,0.0324,0.013523,0.002678,0.000431,1.337118
4832000,0.0324,0.013523,0.002678,0.000431,1.300449
4833000,0.0324,0.013523,0.002678,0.000431,1.271420
4834000,0.0324,0.013523,0.002678,0.000431,1.321017
4835000,0.0324,0.013523,0.002678,0.000431,1.331007
4836000,0.0324,0.013523,0.002678,0.000431,1.248972
4837000,0.0324,0.013523,0.002678,0.000431,1.261665
4838000,0.0324,0.013523,0.002678,0.000431,1.291165
4839000,0.0324,0.013523,0.002678,0.000431,1.313495
4840000,0.0324,0.013523,0.002678,0.000431,1.345110
4841000,0.0324,0.013523,0.002678,0.000431,1.325953
4842000,0.0324,0.013523,0.002678,0.000431,1.456292
4843000,0.0324,0.013523,0.002678,0.000431,1.419153
4844000,0.0324,0.013523,0.002678,0.000431,1.403639
4845000,0.0324,0.013523,0.002678,0.000431,1.506476
4846000,0.0324,0.013523,0.002678,0.000431,1.540559
4847000,0.0324,0.013523,0.002678,0.000431,1.510472
4848000,0.0324,0.013523,0.002678,0.000431,1.535741
4849000,0.0324,0.013523,0.002678,0.000431,1.557836
4850000,0.0324,0.013523,0.002678,0.000431,1.560774
4851000,0.0324,0.013523,0.002678,0.000431,1.538091
4852000,0.0324,0.013523,0.002678,0.000431,1.505066
4853000,0.0324,0.013523,0.002678,0.000431,1.483911
4854000,0.0324,0.013523,0.002678,0.000431,1.466399
4855000,0.0324,0.013523,0.002678,0.000431,1.461463
4856000,0.0324,0.013523,0.002678,0.000431,1.520932
4857000,0.0324,0.013523,0.002678,0.000431,1.484381
4858000,0.0324,0.013523,0.002678,0.000431,1.468045
4859000,0.0324,0.013523,0.002678,0.000431,1.566533
4860000,0.0324,0.013523,0.002678,0.000431,1.599324
4861000,0.0324,0.013523,0.002678,0.000431,1.549374
4862000,0.0324,0.013523,0.002678,0.000431,1.496369
4863000,0.0324,0.013523,0.002678,0.000431,1.491315
4864000,0.0324,0.013523,0.002678,0.000431,1.516231
4865000,0.0324,0.013523,0.002678,0.000431,1.488259
4866000,0.0324,0.013523,0.002678,0.000431,1.455351
4867000,0.0324,0.013523,0.002678,0.000431,1.508827
4868000,0.0324,0.013523,0.002678,0.000431,1.487789
4869000,0.0324,0.013523,0.002678,0.000431,1.512588
4870000,0.0324,0.013523,0.002678,0.000431,1.454411
4871000,0.0324,0.013523,0.002678,0.000431,1.422091
4872000,0.0324,0.013523,0.002678,0.000431,1.487789
4873000,0.0324,0.013523,0.002678,0.000431,1.488729
4874000,0.0324,0.013523,0.002678,0.000431,1.428790
4875000,0.0324,0.013523,0.002678,0.000431,1.442541
4876000,0.0324,0.013523,0.002678,0.000431,1.428790
4877000,0.0324,0.013523,0.002678,0.000431,1.417742
4878000,0.0324,0.013523,0.002678,0.000431,1.402581
4879000,0.0324,0.013523,0.002678,0.000431,1.405637
4880000,0.0324,0.013523,0.002678,0.000431,1.537269
4881000,0.0324,0.013523,0.002678,0.000431,1.455469
4882000,0.0324,0.013523,0.002678,0.000431,1.442541
4883000,0.0324,0.013523,0.002678,0.000431,1.562655
4884000,0.0324,0.013523,0.002678,0.000431,1.604495
4885000,0.0324,0.013523,0.002678,0.000431,1.600264
4886000,0.0324,0.013523,0.002678,0.000431,1.558189
4887000,0.0324,0.013523,0.002678,0.000431,1.600381
4888000,0.0324,0.013523,0.002678,0.000431,1.577933
4889000,0.0324,0.013523,0.002678,0.000431,1.532567
4890000,0.0324,0.013523,0.002678,0.000431,1.523753
4891000,0.0324,0.013523,0.002678,0.000431,1.502833
4892000,0.0324,0.013523,0.002678,0.000431,1.478505
4893000,0.0324,0.013523,0.002678,0.000431,1.449240
4894000,0.0324,0.013523,0.002678,0.000431,1.442071
4895000,0.0324,0.013523,0.002678,0.000431,1.447125
4896000,0.0324,0.013523,0.002678,0.000431,1.494606
4897000,0.0324,0.013523,0.002678,0.000431,1.413041
4898000,0.0324,0.013523,0.002678,0.000431,1.374257
4899000,0.0324,0.013523,0.002678,0.000431,1.456409
4900000,0.0324,0.013523,0.002678,0.000431,1.482971
4901000,0.0324,0.013523,0.002678,0.000431,1.472511
4902000,0.0324,0.013523,0.002678,0.000431,1.525633
4903000,0.0324,0.013523,0.002678,0.000431,1.445009
4904000,0.0324,0.013523,0.002678,0.000431,1.439368
4905000,0.0324,0.013523,0.002678,0.000431,1.493078
4906000,0.0324,0.013523,0.002678,0.000431,1.526574
4907000,0.0324,0.013523,0.002678,0.000431,1.470160
4908000,0.0324,0.013523,0.002678,0.000431,1.499660
4909000,0.0324,0.013523,0.002678,0.000431,1.479562
4910000,0.0324,0.013523,0.002678,0.000431,1.499307
4911000,0.0324,0.013523,0.002678,0.000431,1.527044
4912000,0.0324,0.013523,0.002678,0.000431,1.501187
4913000,0.0324,0.013523,0.002678,0.000431,1.480032
4914000,0.0324,0.013523,0.002678,0.000431,1.503891
4915000,0.0324,0.013523,0.002678,0.000431,1.431023
4916000,0.0324,0.013523,0.002678,0.000431,1.408458
4917000,0.0324,0.013523,0.002678,0.000431,1.433374
4918000,0.0324,0.013523,0.002678,0.000431,1.477447
4919000,0.0324,0.013523,0.002678,0.000431,1.406107
4920000,0.0324,0.013523,0.002678,0.000431,1.447007
4921000,0.0324,0.013523,0.002678,0.000431,1.457467
4922000,0.0324,0.013523,0.002678,0.000431,1.442893
4923000,0.0324,0.013523,0.002678,0.000431,1.534213
4924000,0.0324,0.013523,0.002678,0.000431,1.570059
4925000,0.0324,0.013523,0.002678,0.000431,1.523635
4926000,0.0324,0.013523,0.002678,0.000431,1.733893
4927000,0.0324,0.013523,0.002678,0.000431,1.649391
4928000,0.0324,0.013523,0.002678,0.000431,1.725666
4929000,0.0324,0.013523,0.002678,0.000431,1.797946
4930000,0.0324,0.013523,0.002678,0.000431,1.780905
4931000,0.0324,0.013523,0.002678,0.000431,1.763745
4932000,0.0324,0.013523,0.002678,0.000431,1.856240
4933000,0.0324,0.013523,0.002678,0.000431,1.882684
4934000,0.0324,0.013523,0.002678,0.000431,1.877748
4935000,0.0324,0.013523,0.002678,0.000431,1.923701
4936000,0.0324,0.013523,0.002678,0.000431,1.942036
4937000,0.0324,0.013523,0.002678,0.000431,1.965189
4938000,0.0324,0.013523,0.002678,0.000431,2.033825
4939000,0.0324,0.013523,0.002678,0.000431,2.058036
4940000,0.0324,0.013523,0.002678,0.000431,2.042405
4941000,0.0324,0.013523,0.002678,0.000431,1.909950
4942000,0.0324,0.013523,0.002678,0.000431,1.974356
4943000,0.0324,0.013523,0.002678,0.000431,1.852009
4944000,0.0324,0.013523,0.002678,0.000431,1.885740
4945000,0.0324,0.013523,0.002678,0.000431,1.948265
4946000,0.0324,0.013523,0.002678,0.000431,1.886327
4947000,0.0324,0.013523,0.002678,0.000431,1.886445
4948000,0.0324,0.013523,0.002678,0.000431,1.853654
4949000,0.0324,0.013523,0.002678,0.000431,1.857886
4950000,0.0324,0.013523,0.002678,0.000431,1.844605
4951000,0.0324,0.013523,0.002678,0.000431,1.801707
4952000,0.0324,0.013523,0.002678,0.000431,1.807348
4953000,0.0324,0.013523,0.002678,0.000431,1.790894
4954000,0.0324,0.013523,0.002678,0.000431,1.766801
4955000,0.0324,0.013523,0.002678,0.000431,1.619538
4956000,0.0324,0.013523,0.002678,0.000431,1.716852
4957000,0.0324,0.013523,0.002678,0.000431,1.738477
4958000,0.0324,0.013523,0.002678,0.000431,1.743883
4959000,0.0324,0.013523,0.002678,0.000431,1.768329
4960000,0.0324,0.013523,0.002678,0.000431,1.790189
4961000,0.0324,0.013523,0.002678,0.000431,1.661026
4962000,0.0324,0.013523,0.002678,0.000431,1.932516
4963000,0.0324,0.013523,0.002678,0.000431,1.952496
4964000,0.0324,0.013523,0.002678,0.000431,1.906777
4965000,0.0324,0.013523,0.002678,0.000431,1.833675
4966000,0.0324,0.013523,0.002678,0.000431,1.833322
4967000,0.0324,0.013523,0.002678,0.000431,1.963661
4968000,0.0324,0.013523,0.002678,0.000431,1.869756
4969000,0.0324,0.013523,0.002678,0.000431,1.912889
4970000,0.0324,0.013523,0.002678,0.000431,1.799239
4971000,0.0324,0.013523,0.002678,0.000431,1.921468
4972000,0.0324,0.013523,0.002678,0.000431,2.005971
4973000,0.0324,0.013523,0.002678,0.000431,1.954141
4974000,0.0324,0.013523,0.002678,0.000431,1.990457
4975000,0.0324,0.013523,0.002678,0.000431,1.950028
4976000,0.0324,0.013523,0.002678,0.000431,1.918648
4977000,0.0324,0.013523,0.002678,0.000431,1.906190
4978000,0.0324,0.013523,0.002678,0.000431,1.899020
4979000,0.0324,0.013523,0.002678,0.000431,1.881626
4980000,0.0324,0.013523,0.002678,0.000431,1.838376
4981000,0.0324,0.013523,0.002678,0.000431,1.960840
4982000,0.0324,0.013523,0.002678,0.000431,1.940273
4983000,0.0324,0.013523,0.002678,0.000431,1.981290
4984000,0.0324,0.013523,0.002678,0.000431,1.999272
4985000,0.0324,0.013523,0.002678,0.000431,2.017136
4986000,0.0324,0.013523,0.002678,0.000431,2.005266
4987000,0.0324,0.013523,0.002678,0.000431,2.091061
4988000,0.0324,0.013523,0.002678,0.000431,2.021720
4989000,0.0324,0.013523,0.002678,0.000431,2.093412
4990000,0.0324,0.013523,0.002678,0.000431,2.022307
4991000,0.0324,0.013523,0.002678,0.000431,1.986344
4992000,0.0324,0.013523,0.002678,0.000431,2.023365
4993000,0.0324,0.013523,0.002678,0.000431,1.993866
4994000,0.0324,0.013523,0.002678,0.000431,1.963661
4995000,0.0324,0.013523,0.002678,0.000431,1.968597
4996000,0.0324,0.013523,0.002678,0.000431,1.946032
4997000,0.0324,0.013523,0.002678,0.000431,1.942976
4998000,0.0324,0.013523,0.002678,0.000431,1.873164
4999000,0.0324,0.013523,0.002678,0.000431,1.793833
