Cycle,Area(mm^2),PeakDynamic(W),SubthresholdLeakage(W),GateLeakage(W),RunTimeDynamic(W)
22000000,0.0324,0.013523,0.002678,0.000431,0.008697
22001000,0.0324,0.013523,0.002678,0.000431,0.008109
22002000,0.0324,0.013523,0.002678,0.000431,0.008109
22003000,0.0324,0.013523,0.002678,0.000431,0.008580
22004000,0.0324,0.013523,0.002678,0.000431,0.007169
22005000,0.0324,0.013523,0.002678,0.000431,0.008227
22006000,0.0324,0.013523,0.002678,0.000431,0.007757
22007000,0.0324,0.013523,0.002678,0.000431,0.008227
22008000,0.0324,0.013523,0.002678,0.000431,0.008227
22009000,0.0324,0.013523,0.002678,0.000431,0.007404
22010000,0.0324,0.013523,0.002678,0.000431,0.008697
22011000,0.0324,0.013523,0.002678,0.000431,0.007169
22012000,0.0324,0.013523,0.002678,0.000431,0.007639
22013000,0.0324,0.013523,0.002678,0.000431,0.007874
22014000,0.0324,0.013523,0.002678,0.000431,0.006934
22015000,0.0324,0.013523,0.002678,0.000431,0.007874
22016000,0.0324,0.013523,0.002678,0.000431,0.008227
22017000,0.0324,0.013523,0.002678,0.000431,0.008345
22018000,0.0324,0.013523,0.002678,0.000431,0.008697
22019000,0.0324,0.013523,0.002678,0.000431,0.007874
22020000,0.0324,0.013523,0.002678,0.000431,0.008109
22021000,0.0324,0.013523,0.002678,0.000431,0.007404
22022000,0.0324,0.013523,0.002678,0.000431,0.007992
22023000,0.0324,0.013523,0.002678,0.000431,0.007404
22024000,0.0324,0.013523,0.002678,0.000431,0.007992
22025000,0.0324,0.013523,0.002678,0.000431,0.008462
22026000,0.0324,0.013523,0.002678,0.000431,0.006934
22027000,0.0324,0.013523,0.002678,0.000431,0.008109
22028000,0.0324,0.013523,0.002678,0.000431,0.007522
22029000,0.0324,0.013523,0.002678,0.000431,0.008109
22030000,0.0324,0.013523,0.002678,0.000431,0.007874
22031000,0.0324,0.013523,0.002678,0.000431,0.007757
22032000,0.0324,0.013523,0.002678,0.000431,0.008345
22033000,0.0324,0.013523,0.002678,0.000431,0.008580
22034000,0.0324,0.013523,0.002678,0.000431,0.008109
22035000,0.0324,0.013523,0.002678,0.000431,0.007874
22036000,0.0324,0.013523,0.002678,0.000431,0.007757
22037000,0.0324,0.013523,0.002678,0.000431,0.007874
22038000,0.0324,0.013523,0.002678,0.000431,0.007639
22039000,0.0324,0.013523,0.002678,0.000431,0.007404
22040000,0.0324,0.013523,0.002678,0.000431,0.008227
22041000,0.0324,0.013523,0.002678,0.000431,0.007639
22042000,0.0324,0.013523,0.002678,0.000431,0.007287
22043000,0.0324,0.013523,0.002678,0.000431,0.008109
22044000,0.0324,0.013523,0.002678,0.000431,0.008580
22045000,0.0324,0.013523,0.002678,0.000431,0.007992
22046000,0.0324,0.013523,0.002678,0.000431,0.008227
22047000,0.0324,0.013523,0.002678,0.000431,0.007992
22048000,0.0324,0.013523,0.002678,0.000431,0.008109
22049000,0.0324,0.013523,0.002678,0.000431,0.008462
22050000,0.0324,0.013523,0.002678,0.000431,0.007522
22051000,0.0324,0.013523,0.002678,0.000431,0.007287
22052000,0.0324,0.013523,0.002678,0.000431,0.008932
22053000,0.0324,0.013523,0.002678,0.000431,0.008227
22054000,0.0324,0.013523,0.002678,0.000431,0.007992
22055000,0.0324,0.013523,0.002678,0.000431,0.007992
22056000,0.0324,0.013523,0.002678,0.000431,0.007992
22057000,0.0324,0.013523,0.002678,0.000431,0.008345
22058000,0.0324,0.013523,0.002678,0.000431,0.007757
22059000,0.0324,0.013523,0.002678,0.000431,0.007522
22060000,0.0324,0.013523,0.002678,0.000431,0.008227
22061000,0.0324,0.013523,0.002678,0.000431,0.007639
22062000,0.0324,0.013523,0.002678,0.000431,0.008580
22063000,0.0324,0.013523,0.002678,0.000431,0.007522
22064000,0.0324,0.013523,0.002678,0.000431,0.008580
22065000,0.0324,0.013523,0.002678,0.000431,0.008462
22066000,0.0324,0.013523,0.002678,0.000431,0.008109
22067000,0.0324,0.013523,0.002678,0.000431,0.007874
22068000,0.0324,0.013523,0.002678,0.000431,0.008462
22069000,0.0324,0.013523,0.002678,0.000431,0.007757
22070000,0.0324,0.013523,0.002678,0.000431,0.008345
22071000,0.0324,0.013523,0.002678,0.000431,0.008697
22072000,0.0324,0.013523,0.002678,0.000431,0.007522
22073000,0.0324,0.013523,0.002678,0.000431,0.007639
22074000,0.0324,0.013523,0.002678,0.000431,0.008345
22075000,0.0324,0.013523,0.002678,0.000431,0.007639
22076000,0.0324,0.013523,0.002678,0.000431,0.008462
22077000,0.0324,0.013523,0.002678,0.000431,0.007522
22078000,0.0324,0.013523,0.002678,0.000431,0.007874
22079000,0.0324,0.013523,0.002678,0.000431,0.008227
22080000,0.0324,0.013523,0.002678,0.000431,0.008109
22081000,0.0324,0.013523,0.002678,0.000431,0.008462
22082000,0.0324,0.013523,0.002678,0.000431,0.008109
22083000,0.0324,0.013523,0.002678,0.000431,0.008697
22084000,0.0324,0.013523,0.002678,0.000431,0.008345
22085000,0.0324,0.013523,0.002678,0.000431,0.008815
22086000,0.0324,0.013523,0.002678,0.000431,0.008580
22087000,0.0324,0.013523,0.002678,0.000431,0.007874
22088000,0.0324,0.013523,0.002678,0.000431,0.007992
22089000,0.0324,0.013523,0.002678,0.000431,0.008345
22090000,0.0324,0.013523,0.002678,0.000431,0.008109
22091000,0.0324,0.013523,0.002678,0.000431,0.008815
22092000,0.0324,0.013523,0.002678,0.000431,0.007639
22093000,0.0324,0.013523,0.002678,0.000431,0.007757
22094000,0.0324,0.013523,0.002678,0.000431,0.008109
22095000,0.0324,0.013523,0.002678,0.000431,0.008227
22096000,0.0324,0.013523,0.002678,0.000431,0.008815
22097000,0.0324,0.013523,0.002678,0.000431,0.007874
22098000,0.0324,0.013523,0.002678,0.000431,0.008109
22099000,0.0324,0.013523,0.002678,0.000431,0.007522
22100000,0.0324,0.013523,0.002678,0.000431,0.007874
22101000,0.0324,0.013523,0.002678,0.000431,0.007404
22102000,0.0324,0.013523,0.002678,0.000431,0.008227
22103000,0.0324,0.013523,0.002678,0.000431,0.008580
22104000,0.0324,0.013523,0.002678,0.000431,0.008462
22105000,0.0324,0.013523,0.002678,0.000431,0.008109
22106000,0.0324,0.013523,0.002678,0.000431,0.008109
22107000,0.0324,0.013523,0.002678,0.000431,0.008345
22108000,0.0324,0.013523,0.002678,0.000431,0.007404
22109000,0.0324,0.013523,0.002678,0.000431,0.007992
22110000,0.0324,0.013523,0.002678,0.000431,0.007992
22111000,0.0324,0.013523,0.002678,0.000431,0.007757
22112000,0.0324,0.013523,0.002678,0.000431,0.007169
22113000,0.0324,0.013523,0.002678,0.000431,0.008462
22114000,0.0324,0.013523,0.002678,0.000431,0.007639
22115000,0.0324,0.013523,0.002678,0.000431,0.007404
22116000,0.0324,0.013523,0.002678,0.000431,0.008815
22117000,0.0324,0.013523,0.002678,0.000431,0.007639
22118000,0.0324,0.013523,0.002678,0.000431,0.008227
22119000,0.0324,0.013523,0.002678,0.000431,0.007404
22120000,0.0324,0.013523,0.002678,0.000431,0.008580
22121000,0.0324,0.013523,0.002678,0.000431,0.008109
22122000,0.0324,0.013523,0.002678,0.000431,0.007757
22123000,0.0324,0.013523,0.002678,0.000431,0.007874
22124000,0.0324,0.013523,0.002678,0.000431,0.008932
22125000,0.0324,0.013523,0.002678,0.000431,0.008580
22126000,0.0324,0.013523,0.002678,0.000431,0.008227
22127000,0.0324,0.013523,0.002678,0.000431,0.008227
22128000,0.0324,0.013523,0.002678,0.000431,0.007874
22129000,0.0324,0.013523,0.002678,0.000431,0.007522
22130000,0.0324,0.013523,0.002678,0.000431,0.007757
22131000,0.0324,0.013523,0.002678,0.000431,0.008227
22132000,0.0324,0.013523,0.002678,0.000431,0.009050
22133000,0.0324,0.013523,0.002678,0.000431,0.007522
22134000,0.0324,0.013523,0.002678,0.000431,0.008697
22135000,0.0324,0.013523,0.002678,0.000431,0.008227
22136000,0.0324,0.013523,0.002678,0.000431,0.007052
22137000,0.0324,0.013523,0.002678,0.000431,0.006934
22138000,0.0324,0.013523,0.002678,0.000431,0.008580
22139000,0.0324,0.013523,0.002678,0.000431,0.007874
22140000,0.0324,0.013523,0.002678,0.000431,0.007522
22141000,0.0324,0.013523,0.002678,0.000431,0.007522
22142000,0.0324,0.013523,0.002678,0.000431,0.008345
22143000,0.0324,0.013523,0.002678,0.000431,0.008345
22144000,0.0324,0.013523,0.002678,0.000431,0.008109
22145000,0.0324,0.013523,0.002678,0.000431,0.007639
22146000,0.0324,0.013523,0.002678,0.000431,0.007757
22147000,0.0324,0.013523,0.002678,0.000431,0.008697
22148000,0.0324,0.013523,0.002678,0.000431,0.008227
22149000,0.0324,0.013523,0.002678,0.000431,0.008109
22150000,0.0324,0.013523,0.002678,0.000431,0.008227
22151000,0.0324,0.013523,0.002678,0.000431,0.007992
22152000,0.0324,0.013523,0.002678,0.000431,0.008580
22153000,0.0324,0.013523,0.002678,0.000431,0.008227
22154000,0.0324,0.013523,0.002678,0.000431,0.007639
22155000,0.0324,0.013523,0.002678,0.000431,0.007639
22156000,0.0324,0.013523,0.002678,0.000431,0.006934
22157000,0.0324,0.013523,0.002678,0.000431,0.009050
22158000,0.0324,0.013523,0.002678,0.000431,0.007757
22159000,0.0324,0.013523,0.002678,0.000431,0.007992
22160000,0.0324,0.013523,0.002678,0.000431,0.007874
22161000,0.0324,0.013523,0.002678,0.000431,0.007874
22162000,0.0324,0.013523,0.002678,0.000431,0.008345
22163000,0.0324,0.013523,0.002678,0.000431,0.008697
22164000,0.0324,0.013523,0.002678,0.000431,0.007757
22165000,0.0324,0.013523,0.002678,0.000431,0.007874
22166000,0.0324,0.013523,0.002678,0.000431,0.007874
22167000,0.0324,0.013523,0.002678,0.000431,0.007404
22168000,0.0324,0.013523,0.002678,0.000431,0.008815
22169000,0.0324,0.013523,0.002678,0.000431,0.008109
22170000,0.0324,0.013523,0.002678,0.000431,0.008345
22171000,0.0324,0.013523,0.002678,0.000431,0.008227
22172000,0.0324,0.013523,0.002678,0.000431,0.007992
22173000,0.0324,0.013523,0.002678,0.000431,0.007757
22174000,0.0324,0.013523,0.002678,0.000431,0.007874
22175000,0.0324,0.013523,0.002678,0.000431,0.008345
22176000,0.0324,0.013523,0.002678,0.000431,0.007639
22177000,0.0324,0.013523,0.002678,0.000431,0.007992
22178000,0.0324,0.013523,0.002678,0.000431,0.008580
22179000,0.0324,0.013523,0.002678,0.000431,0.007757
22180000,0.0324,0.013523,0.002678,0.000431,0.008462
22181000,0.0324,0.013523,0.002678,0.000431,0.007992
22182000,0.0324,0.013523,0.002678,0.000431,0.008345
22183000,0.0324,0.013523,0.002678,0.000431,0.008227
22184000,0.0324,0.013523,0.002678,0.000431,0.008462
22185000,0.0324,0.013523,0.002678,0.000431,0.007874
22186000,0.0324,0.013523,0.002678,0.000431,0.007874
22187000,0.0324,0.013523,0.002678,0.000431,0.007639
22188000,0.0324,0.013523,0.002678,0.000431,0.008932
22189000,0.0324,0.013523,0.002678,0.000431,0.008227
22190000,0.0324,0.013523,0.002678,0.000431,0.008697
22191000,0.0324,0.013523,0.002678,0.000431,0.007874
22192000,0.0324,0.013523,0.002678,0.000431,0.007874
22193000,0.0324,0.013523,0.002678,0.000431,0.008345
22194000,0.0324,0.013523,0.002678,0.000431,0.008345
22195000,0.0324,0.013523,0.002678,0.000431,0.007522
22196000,0.0324,0.013523,0.002678,0.000431,0.007992
22197000,0.0324,0.013523,0.002678,0.000431,0.007522
22198000,0.0324,0.013523,0.002678,0.000431,0.007992
22199000,0.0324,0.013523,0.002678,0.000431,0.008580
22200000,0.0324,0.013523,0.002678,0.000431,0.007522
22201000,0.0324,0.013523,0.002678,0.000431,0.007169
22202000,0.0324,0.013523,0.002678,0.000431,0.008227
22203000,0.0324,0.013523,0.002678,0.000431,0.008462
22204000,0.0324,0.013523,0.002678,0.000431,0.008697
22205000,0.0324,0.013523,0.002678,0.000431,0.008697
22206000,0.0324,0.013523,0.002678,0.000431,0.007639
22207000,0.0324,0.013523,0.002678,0.000431,0.007757
22208000,0.0324,0.013523,0.002678,0.000431,0.008580
22209000,0.0324,0.013523,0.002678,0.000431,0.007757
22210000,0.0324,0.013523,0.002678,0.000431,0.007992
22211000,0.0324,0.013523,0.002678,0.000431,0.008697
22212000,0.0324,0.013523,0.002678,0.000431,0.007287
22213000,0.0324,0.013523,0.002678,0.000431,0.007404
22214000,0.0324,0.013523,0.002678,0.000431,0.008462
22215000,0.0324,0.013523,0.002678,0.000431,0.007757
22216000,0.0324,0.013523,0.002678,0.000431,0.008697
22217000,0.0324,0.013523,0.002678,0.000431,0.008109
22218000,0.0324,0.013523,0.002678,0.000431,0.008109
22219000,0.0324,0.013523,0.002678,0.000431,0.008580
22220000,0.0324,0.013523,0.002678,0.000431,0.008345
22221000,0.0324,0.013523,0.002678,0.000431,0.008345
22222000,0.0324,0.013523,0.002678,0.000431,0.006934
22223000,0.0324,0.013523,0.002678,0.000431,0.007757
22224000,0.0324,0.013523,0.002678,0.000431,0.008227
22225000,0.0324,0.013523,0.002678,0.000431,0.007992
22226000,0.0324,0.013523,0.002678,0.000431,0.008697
22227000,0.0324,0.013523,0.002678,0.000431,0.008109
22228000,0.0324,0.013523,0.002678,0.000431,0.007052
22229000,0.0324,0.013523,0.002678,0.000431,0.007639
22230000,0.0324,0.013523,0.002678,0.000431,0.008345
22231000,0.0324,0.013523,0.002678,0.000431,0.008109
22232000,0.0324,0.013523,0.002678,0.000431,0.007874
22233000,0.0324,0.013523,0.002678,0.000431,0.007169
22234000,0.0324,0.013523,0.002678,0.000431,0.008580
22235000,0.0324,0.013523,0.002678,0.000431,0.007874
22236000,0.0324,0.013523,0.002678,0.000431,0.007287
22237000,0.0324,0.013523,0.002678,0.000431,0.007287
22238000,0.0324,0.013523,0.002678,0.000431,0.007757
22239000,0.0324,0.013523,0.002678,0.000431,0.008109
22240000,0.0324,0.013523,0.002678,0.000431,0.008815
22241000,0.0324,0.013523,0.002678,0.000431,0.007992
22242000,0.0324,0.013523,0.002678,0.000431,0.007874
22243000,0.0324,0.013523,0.002678,0.000431,0.007169
22244000,0.0324,0.013523,0.002678,0.000431,0.007874
22245000,0.0324,0.013523,0.002678,0.000431,0.008345
22246000,0.0324,0.013523,0.002678,0.000431,0.008697
22247000,0.0324,0.013523,0.002678,0.000431,0.008227
22248000,0.0324,0.013523,0.002678,0.000431,0.007404
22249000,0.0324,0.013523,0.002678,0.000431,0.007874
22250000,0.0324,0.013523,0.002678,0.000431,0.008815
22251000,0.0324,0.013523,0.002678,0.000431,0.007992
22252000,0.0324,0.013523,0.002678,0.000431,0.008345
22253000,0.0324,0.013523,0.002678,0.000431,0.007052
22254000,0.0324,0.013523,0.002678,0.000431,0.008109
22255000,0.0324,0.013523,0.002678,0.000431,0.008580
22256000,0.0324,0.013523,0.002678,0.000431,0.008932
22257000,0.0324,0.013523,0.002678,0.000431,0.007639
22258000,0.0324,0.013523,0.002678,0.000431,0.007992
22259000,0.0324,0.013523,0.002678,0.000431,0.008345
22260000,0.0324,0.013523,0.002678,0.000431,0.008345
22261000,0.0324,0.013523,0.002678,0.000431,0.008109
22262000,0.0324,0.013523,0.002678,0.000431,0.007287
22263000,0.0324,0.013523,0.002678,0.000431,0.007992
22264000,0.0324,0.013523,0.002678,0.000431,0.008932
22265000,0.0324,0.013523,0.002678,0.000431,0.007874
22266000,0.0324,0.013523,0.002678,0.000431,0.007522
22267000,0.0324,0.013523,0.002678,0.000431,0.008462
22268000,0.0324,0.013523,0.002678,0.000431,0.008462
22269000,0.0324,0.013523,0.002678,0.000431,0.008580
22270000,0.0324,0.013523,0.002678,0.000431,0.007992
22271000,0.0324,0.013523,0.002678,0.000431,0.007874
22272000,0.0324,0.013523,0.002678,0.000431,0.008932
22273000,0.0324,0.013523,0.002678,0.000431,0.008227
22274000,0.0324,0.013523,0.002678,0.000431,0.007639
22275000,0.0324,0.013523,0.002678,0.000431,0.008462
22276000,0.0324,0.013523,0.002678,0.000431,0.007992
22277000,0.0324,0.013523,0.002678,0.000431,0.007404
22278000,0.0324,0.013523,0.002678,0.000431,0.007757
22279000,0.0324,0.013523,0.002678,0.000431,0.007992
22280000,0.0324,0.013523,0.002678,0.000431,0.008580
22281000,0.0324,0.013523,0.002678,0.000431,0.008580
22282000,0.0324,0.013523,0.002678,0.000431,0.008345
22283000,0.0324,0.013523,0.002678,0.000431,0.007639
22284000,0.0324,0.013523,0.002678,0.000431,0.007757
22285000,0.0324,0.013523,0.002678,0.000431,0.008932
22286000,0.0324,0.013523,0.002678,0.000431,0.007992
22287000,0.0324,0.013523,0.002678,0.000431,0.008109
22288000,0.0324,0.013523,0.002678,0.000431,0.007992
22289000,0.0324,0.013523,0.002678,0.000431,0.008109
22290000,0.0324,0.013523,0.002678,0.000431,0.008227
22291000,0.0324,0.013523,0.002678,0.000431,0.007052
22292000,0.0324,0.013523,0.002678,0.000431,0.009050
22293000,0.0324,0.013523,0.002678,0.000431,0.007522
22294000,0.0324,0.013523,0.002678,0.000431,0.007874
22295000,0.0324,0.013523,0.002678,0.000431,0.008227
22296000,0.0324,0.013523,0.002678,0.000431,0.008227
22297000,0.0324,0.013523,0.002678,0.000431,0.008345
22298000,0.0324,0.013523,0.002678,0.000431,0.008345
22299000,0.0324,0.013523,0.002678,0.000431,0.007522
22300000,0.0324,0.013523,0.002678,0.000431,0.007992
22301000,0.0324,0.013523,0.002678,0.000431,0.008345
22302000,0.0324,0.013523,0.002678,0.000431,0.008697
22303000,0.0324,0.013523,0.002678,0.000431,0.008345
22304000,0.0324,0.013523,0.002678,0.000431,0.008109
22305000,0.0324,0.013523,0.002678,0.000431,0.007757
22306000,0.0324,0.013523,0.002678,0.000431,0.007639
22307000,0.0324,0.013523,0.002678,0.000431,0.008462
22308000,0.0324,0.013523,0.002678,0.000431,0.007757
22309000,0.0324,0.013523,0.002678,0.000431,0.008462
22310000,0.0324,0.013523,0.002678,0.000431,0.007169
22311000,0.0324,0.013523,0.002678,0.000431,0.007052
22312000,0.0324,0.013523,0.002678,0.000431,0.007874
22313000,0.0324,0.013523,0.002678,0.000431,0.008462
22314000,0.0324,0.013523,0.002678,0.000431,0.008345
22315000,0.0324,0.013523,0.002678,0.000431,0.007874
22316000,0.0324,0.013523,0.002678,0.000431,0.007639
22317000,0.0324,0.013523,0.002678,0.000431,0.007874
22318000,0.0324,0.013523,0.002678,0.000431,0.008227
22319000,0.0324,0.013523,0.002678,0.000431,0.007757
22320000,0.0324,0.013523,0.002678,0.000431,0.007874
22321000,0.0324,0.013523,0.002678,0.000431,0.008109
22322000,0.0324,0.013523,0.002678,0.000431,0.009167
22323000,0.0324,0.013523,0.002678,0.000431,0.008932
22324000,0.0324,0.013523,0.002678,0.000431,0.008345
22325000,0.0324,0.013523,0.002678,0.000431,0.008227
22326000,0.0324,0.013523,0.002678,0.000431,0.007639
22327000,0.0324,0.013523,0.002678,0.000431,0.008109
22328000,0.0324,0.013523,0.002678,0.000431,0.008580
22329000,0.0324,0.013523,0.002678,0.000431,0.007874
22330000,0.0324,0.013523,0.002678,0.000431,0.008580
22331000,0.0324,0.013523,0.002678,0.000431,0.007522
22332000,0.0324,0.013523,0.002678,0.000431,0.008109
22333000,0.0324,0.013523,0.002678,0.000431,0.007992
22334000,0.0324,0.013523,0.002678,0.000431,0.008109
22335000,0.0324,0.013523,0.002678,0.000431,0.008109
22336000,0.0324,0.013523,0.002678,0.000431,0.007992
22337000,0.0324,0.013523,0.002678,0.000431,0.008462
22338000,0.0324,0.013523,0.002678,0.000431,0.007404
22339000,0.0324,0.013523,0.002678,0.000431,0.008580
22340000,0.0324,0.013523,0.002678,0.000431,0.008815
22341000,0.0324,0.013523,0.002678,0.000431,0.008227
22342000,0.0324,0.013523,0.002678,0.000431,0.007639
22343000,0.0324,0.013523,0.002678,0.000431,0.008227
22344000,0.0324,0.013523,0.002678,0.000431,0.007874
22345000,0.0324,0.013523,0.002678,0.000431,0.007522
22346000,0.0324,0.013523,0.002678,0.000431,0.007874
22347000,0.0324,0.013523,0.002678,0.000431,0.008109
22348000,0.0324,0.013523,0.002678,0.000431,0.008109
22349000,0.0324,0.013523,0.002678,0.000431,0.007757
22350000,0.0324,0.013523,0.002678,0.000431,0.008932
22351000,0.0324,0.013523,0.002678,0.000431,0.007874
22352000,0.0324,0.013523,0.002678,0.000431,0.007522
22353000,0.0324,0.013523,0.002678,0.000431,0.007757
22354000,0.0324,0.013523,0.002678,0.000431,0.007992
22355000,0.0324,0.013523,0.002678,0.000431,0.007992
22356000,0.0324,0.013523,0.002678,0.000431,0.008932
22357000,0.0324,0.013523,0.002678,0.000431,0.007757
22358000,0.0324,0.013523,0.002678,0.000431,0.008109
22359000,0.0324,0.013523,0.002678,0.000431,0.008932
22360000,0.0324,0.013523,0.002678,0.000431,0.008462
22361000,0.0324,0.013523,0.002678,0.000431,0.007992
22362000,0.0324,0.013523,0.002678,0.000431,0.007522
22363000,0.0324,0.013523,0.002678,0.000431,0.007404
22364000,0.0324,0.013523,0.002678,0.000431,0.008697
22365000,0.0324,0.013523,0.002678,0.000431,0.008580
22366000,0.0324,0.013523,0.002678,0.000431,0.008697
22367000,0.0324,0.013523,0.002678,0.000431,0.008227
22368000,0.0324,0.013523,0.002678,0.000431,0.008109
22369000,0.0324,0.013523,0.002678,0.000431,0.008580
22370000,0.0324,0.013523,0.002678,0.000431,0.008462
22371000,0.0324,0.013523,0.002678,0.000431,0.008109
22372000,0.0324,0.013523,0.002678,0.000431,0.007874
22373000,0.0324,0.013523,0.002678,0.000431,0.007874
22374000,0.0324,0.013523,0.002678,0.000431,0.007404
22375000,0.0324,0.013523,0.002678,0.000431,0.008345
22376000,0.0324,0.013523,0.002678,0.000431,0.008932
22377000,0.0324,0.013523,0.002678,0.000431,0.007992
22378000,0.0324,0.013523,0.002678,0.000431,0.008462
22379000,0.0324,0.013523,0.002678,0.000431,0.007287
22380000,0.0324,0.013523,0.002678,0.000431,0.008697
22381000,0.0324,0.013523,0.002678,0.000431,0.008932
22382000,0.0324,0.013523,0.002678,0.000431,0.008227
22383000,0.0324,0.013523,0.002678,0.000431,0.007639
22384000,0.0324,0.013523,0.002678,0.000431,0.008227
22385000,0.0324,0.013523,0.002678,0.000431,0.007404
22386000,0.0324,0.013523,0.002678,0.000431,0.008345
22387000,0.0324,0.013523,0.002678,0.000431,0.008345
22388000,0.0324,0.013523,0.002678,0.000431,0.009050
22389000,0.0324,0.013523,0.002678,0.000431,0.007169
22390000,0.0324,0.013523,0.002678,0.000431,0.007757
22391000,0.0324,0.013523,0.002678,0.000431,0.008580
22392000,0.0324,0.013523,0.002678,0.000431,0.007992
22393000,0.0324,0.013523,0.002678,0.000431,0.008109
22394000,0.0324,0.013523,0.002678,0.000431,0.008227
22395000,0.0324,0.013523,0.002678,0.000431,0.009167
22396000,0.0324,0.013523,0.002678,0.000431,0.007639
22397000,0.0324,0.013523,0.002678,0.000431,0.008109
22398000,0.0324,0.013523,0.002678,0.000431,0.008109
22399000,0.0324,0.013523,0.002678,0.000431,0.008462
22400000,0.0324,0.013523,0.002678,0.000431,0.007639
22401000,0.0324,0.013523,0.002678,0.000431,0.008345
22402000,0.0324,0.013523,0.002678,0.000431,0.007992
22403000,0.0324,0.013523,0.002678,0.000431,0.007992
22404000,0.0324,0.013523,0.002678,0.000431,0.007404
22405000,0.0324,0.013523,0.002678,0.000431,0.008462
22406000,0.0324,0.013523,0.002678,0.000431,0.008227
22407000,0.0324,0.013523,0.002678,0.000431,0.008815
22408000,0.0324,0.013523,0.002678,0.000431,0.007757
22409000,0.0324,0.013523,0.002678,0.000431,0.007992
22410000,0.0324,0.013523,0.002678,0.000431,0.008697
22411000,0.0324,0.013523,0.002678,0.000431,0.007992
22412000,0.0324,0.013523,0.002678,0.000431,0.007992
22413000,0.0324,0.013523,0.002678,0.000431,0.008345
22414000,0.0324,0.013523,0.002678,0.000431,0.007639
22415000,0.0324,0.013523,0.002678,0.000431,0.007874
22416000,0.0324,0.013523,0.002678,0.000431,0.008227
22417000,0.0324,0.013523,0.002678,0.000431,0.008462
22418000,0.0324,0.013523,0.002678,0.000431,0.008227
22419000,0.0324,0.013523,0.002678,0.000431,0.007639
22420000,0.0324,0.013523,0.002678,0.000431,0.007757
22421000,0.0324,0.013523,0.002678,0.000431,0.008109
22422000,0.0324,0.013523,0.002678,0.000431,0.008580
22423000,0.0324,0.013523,0.002678,0.000431,0.007522
22424000,0.0324,0.013523,0.002678,0.000431,0.008227
22425000,0.0324,0.013523,0.002678,0.000431,0.008345
22426000,0.0324,0.013523,0.002678,0.000431,0.007639
22427000,0.0324,0.013523,0.002678,0.000431,0.008227
22428000,0.0324,0.013523,0.002678,0.000431,0.008462
22429000,0.0324,0.013523,0.002678,0.000431,0.008580
22430000,0.0324,0.013523,0.002678,0.000431,0.007757
22431000,0.0324,0.013523,0.002678,0.000431,0.008345
22432000,0.0324,0.013523,0.002678,0.000431,0.008109
22433000,0.0324,0.013523,0.002678,0.000431,0.007287
22434000,0.0324,0.013523,0.002678,0.000431,0.008109
22435000,0.0324,0.013523,0.002678,0.000431,0.007522
22436000,0.0324,0.013523,0.002678,0.000431,0.007757
22437000,0.0324,0.013523,0.002678,0.000431,0.008227
22438000,0.0324,0.013523,0.002678,0.000431,0.007639
22439000,0.0324,0.013523,0.002678,0.000431,0.007404
22440000,0.0324,0.013523,0.002678,0.000431,0.008227
22441000,0.0324,0.013523,0.002678,0.000431,0.007992
22442000,0.0324,0.013523,0.002678,0.000431,0.007522
22443000,0.0324,0.013523,0.002678,0.000431,0.008109
22444000,0.0324,0.013523,0.002678,0.000431,0.007992
22445000,0.0324,0.013523,0.002678,0.000431,0.008345
22446000,0.0324,0.013523,0.002678,0.000431,0.007522
22447000,0.0324,0.013523,0.002678,0.000431,0.007052
22448000,0.0324,0.013523,0.002678,0.000431,0.008580
22449000,0.0324,0.013523,0.002678,0.000431,0.008109
22450000,0.0324,0.013523,0.002678,0.000431,0.008697
22451000,0.0324,0.013523,0.002678,0.000431,0.008109
22452000,0.0324,0.013523,0.002678,0.000431,0.007874
22453000,0.0324,0.013523,0.002678,0.000431,0.008345
22454000,0.0324,0.013523,0.002678,0.000431,0.008697
22455000,0.0324,0.013523,0.002678,0.000431,0.008345
22456000,0.0324,0.013523,0.002678,0.000431,0.008227
22457000,0.0324,0.013523,0.002678,0.000431,0.007522
22458000,0.0324,0.013523,0.002678,0.000431,0.008109
22459000,0.0324,0.013523,0.002678,0.000431,0.007992
22460000,0.0324,0.013523,0.002678,0.000431,0.008462
22461000,0.0324,0.013523,0.002678,0.000431,0.008227
22462000,0.0324,0.013523,0.002678,0.000431,0.007874
22463000,0.0324,0.013523,0.002678,0.000431,0.007992
22464000,0.0324,0.013523,0.002678,0.000431,0.008580
22465000,0.0324,0.013523,0.002678,0.000431,0.008109
22466000,0.0324,0.013523,0.002678,0.000431,0.007992
22467000,0.0324,0.013523,0.002678,0.000431,0.007757
22468000,0.0324,0.013523,0.002678,0.000431,0.008345
22469000,0.0324,0.013523,0.002678,0.000431,0.008580
22470000,0.0324,0.013523,0.002678,0.000431,0.007757
22471000,0.0324,0.013523,0.002678,0.000431,0.007639
22472000,0.0324,0.013523,0.002678,0.000431,0.007992
22473000,0.0324,0.013523,0.002678,0.000431,0.007992
22474000,0.0324,0.013523,0.002678,0.000431,0.007992
22475000,0.0324,0.013523,0.002678,0.000431,0.009050
22476000,0.0324,0.013523,0.002678,0.000431,0.007992
22477000,0.0324,0.013523,0.002678,0.000431,0.007874
22478000,0.0324,0.013523,0.002678,0.000431,0.008815
22479000,0.0324,0.013523,0.002678,0.000431,0.007639
22480000,0.0324,0.013523,0.002678,0.000431,0.008697
22481000,0.0324,0.013523,0.002678,0.000431,0.008580
22482000,0.0324,0.013523,0.002678,0.000431,0.007639
22483000,0.0324,0.013523,0.002678,0.000431,0.007874
22484000,0.0324,0.013523,0.002678,0.000431,0.008815
22485000,0.0324,0.013523,0.002678,0.000431,0.007992
22486000,0.0324,0.013523,0.002678,0.000431,0.008345
22487000,0.0324,0.013523,0.002678,0.000431,0.007992
22488000,0.0324,0.013523,0.002678,0.000431,0.007992
22489000,0.0324,0.013523,0.002678,0.000431,0.007404
22490000,0.0324,0.013523,0.002678,0.000431,0.008815
22491000,0.0324,0.013523,0.002678,0.000431,0.008580
22492000,0.0324,0.013523,0.002678,0.000431,0.008932
22493000,0.0324,0.013523,0.002678,0.000431,0.007522
22494000,0.0324,0.013523,0.002678,0.000431,0.007874
22495000,0.0324,0.013523,0.002678,0.000431,0.009167
22496000,0.0324,0.013523,0.002678,0.000431,0.007639
22497000,0.0324,0.013523,0.002678,0.000431,0.007522
22498000,0.0324,0.013523,0.002678,0.000431,0.007992
22499000,0.0324,0.013523,0.002678,0.000431,0.008109
22500000,0.0324,0.013523,0.002678,0.000431,0.008109
22501000,0.0324,0.013523,0.002678,0.000431,0.008462
22502000,0.0324,0.013523,0.002678,0.000431,0.007522
22503000,0.0324,0.013523,0.002678,0.000431,0.007404
22504000,0.0324,0.013523,0.002678,0.000431,0.008345
22505000,0.0324,0.013523,0.002678,0.000431,0.009050
22506000,0.0324,0.013523,0.002678,0.000431,0.008109
22507000,0.0324,0.013523,0.002678,0.000431,0.007874
22508000,0.0324,0.013523,0.002678,0.000431,0.006699
22509000,0.0324,0.013523,0.002678,0.000431,0.008462
22510000,0.0324,0.013523,0.002678,0.000431,0.007874
22511000,0.0324,0.013523,0.002678,0.000431,0.008462
22512000,0.0324,0.013523,0.002678,0.000431,0.008697
22513000,0.0324,0.013523,0.002678,0.000431,0.007522
22514000,0.0324,0.013523,0.002678,0.000431,0.007522
22515000,0.0324,0.013523,0.002678,0.000431,0.007874
22516000,0.0324,0.013523,0.002678,0.000431,0.008932
22517000,0.0324,0.013523,0.002678,0.000431,0.007404
22518000,0.0324,0.013523,0.002678,0.000431,0.007522
22519000,0.0324,0.013523,0.002678,0.000431,0.007992
22520000,0.0324,0.013523,0.002678,0.000431,0.008109
22521000,0.0324,0.013523,0.002678,0.000431,0.008227
22522000,0.0324,0.013523,0.002678,0.000431,0.007404
22523000,0.0324,0.013523,0.002678,0.000431,0.008109
22524000,0.0324,0.013523,0.002678,0.000431,0.007874
22525000,0.0324,0.013523,0.002678,0.000431,0.008109
22526000,0.0324,0.013523,0.002678,0.000431,0.008345
22527000,0.0324,0.013523,0.002678,0.000431,0.007757
22528000,0.0324,0.013523,0.002678,0.000431,0.007757
22529000,0.0324,0.013523,0.002678,0.000431,0.007404
22530000,0.0324,0.013523,0.002678,0.000431,0.007874
22531000,0.0324,0.013523,0.002678,0.000431,0.007404
22532000,0.0324,0.013523,0.002678,0.000431,0.007404
22533000,0.0324,0.013523,0.002678,0.000431,0.007522
22534000,0.0324,0.013523,0.002678,0.000431,0.007992
22535000,0.0324,0.013523,0.002678,0.000431,0.008227
22536000,0.0324,0.013523,0.002678,0.000431,0.007992
22537000,0.0324,0.013523,0.002678,0.000431,0.008109
22538000,0.0324,0.013523,0.002678,0.000431,0.007404
22539000,0.0324,0.013523,0.002678,0.000431,0.007639
22540000,0.0324,0.013523,0.002678,0.000431,0.006699
22541000,0.0324,0.013523,0.002678,0.000431,0.008345
22542000,0.0324,0.013523,0.002678,0.000431,0.007052
22543000,0.0324,0.013523,0.002678,0.000431,0.008109
22544000,0.0324,0.013523,0.002678,0.000431,0.008109
22545000,0.0324,0.013523,0.002678,0.000431,0.008227
22546000,0.0324,0.013523,0.002678,0.000431,0.008227
22547000,0.0324,0.013523,0.002678,0.000431,0.008462
22548000,0.0324,0.013523,0.002678,0.000431,0.007757
22549000,0.0324,0.013523,0.002678,0.000431,0.008345
22550000,0.0324,0.013523,0.002678,0.000431,0.008462
22551000,0.0324,0.013523,0.002678,0.000431,0.008345
22552000,0.0324,0.013523,0.002678,0.000431,0.008109
22553000,0.0324,0.013523,0.002678,0.000431,0.007874
22554000,0.0324,0.013523,0.002678,0.000431,0.007874
22555000,0.0324,0.013523,0.002678,0.000431,0.008345
22556000,0.0324,0.013523,0.002678,0.000431,0.009050
22557000,0.0324,0.013523,0.002678,0.000431,0.007874
22558000,0.0324,0.013523,0.002678,0.000431,0.007522
22559000,0.0324,0.013523,0.002678,0.000431,0.007287
22560000,0.0324,0.013523,0.002678,0.000431,0.007874
22561000,0.0324,0.013523,0.002678,0.000431,0.009050
22562000,0.0324,0.013523,0.002678,0.000431,0.008462
22563000,0.0324,0.013523,0.002678,0.000431,0.007404
22564000,0.0324,0.013523,0.002678,0.000431,0.008697
22565000,0.0324,0.013523,0.002678,0.000431,0.008345
22566000,0.0324,0.013523,0.002678,0.000431,0.008227
22567000,0.0324,0.013523,0.002678,0.000431,0.008462
22568000,0.0324,0.013523,0.002678,0.000431,0.007639
22569000,0.0324,0.013523,0.002678,0.000431,0.007992
22570000,0.0324,0.013523,0.002678,0.000431,0.008109
22571000,0.0324,0.013523,0.002678,0.000431,0.009167
22572000,0.0324,0.013523,0.002678,0.000431,0.007992
22573000,0.0324,0.013523,0.002678,0.000431,0.008697
22574000,0.0324,0.013523,0.002678,0.000431,0.007287
22575000,0.0324,0.013523,0.002678,0.000431,0.007522
22576000,0.0324,0.013523,0.002678,0.000431,0.008580
22577000,0.0324,0.013523,0.002678,0.000431,0.007992
22578000,0.0324,0.013523,0.002678,0.000431,0.007757
22579000,0.0324,0.013523,0.002678,0.000431,0.008227
22580000,0.0324,0.013523,0.002678,0.000431,0.007757
22581000,0.0324,0.013523,0.002678,0.000431,0.008345
22582000,0.0324,0.013523,0.002678,0.000431,0.008462
22583000,0.0324,0.013523,0.002678,0.000431,0.008697
22584000,0.0324,0.013523,0.002678,0.000431,0.007757
22585000,0.0324,0.013523,0.002678,0.000431,0.007992
22586000,0.0324,0.013523,0.002678,0.000431,0.007874
22587000,0.0324,0.013523,0.002678,0.000431,0.007992
22588000,0.0324,0.013523,0.002678,0.000431,0.007287
22589000,0.0324,0.013523,0.002678,0.000431,0.008815
22590000,0.0324,0.013523,0.002678,0.000431,0.008580
22591000,0.0324,0.013523,0.002678,0.000431,0.006817
22592000,0.0324,0.013523,0.002678,0.000431,0.008932
22593000,0.0324,0.013523,0.002678,0.000431,0.008815
22594000,0.0324,0.013523,0.002678,0.000431,0.008462
22595000,0.0324,0.013523,0.002678,0.000431,0.007992
22596000,0.0324,0.013523,0.002678,0.000431,0.008697
22597000,0.0324,0.013523,0.002678,0.000431,0.007757
22598000,0.0324,0.013523,0.002678,0.000431,0.008697
22599000,0.0324,0.013523,0.002678,0.000431,0.007992
22600000,0.0324,0.013523,0.002678,0.000431,0.007992
22601000,0.0324,0.013523,0.002678,0.000431,0.007287
22602000,0.0324,0.013523,0.002678,0.000431,0.009050
22603000,0.0324,0.013523,0.002678,0.000431,0.008345
22604000,0.0324,0.013523,0.002678,0.000431,0.007874
22605000,0.0324,0.013523,0.002678,0.000431,0.008227
22606000,0.0324,0.013523,0.002678,0.000431,0.008227
22607000,0.0324,0.013523,0.002678,0.000431,0.008227
22608000,0.0324,0.013523,0.002678,0.000431,0.007874
22609000,0.0324,0.013523,0.002678,0.000431,0.007757
22610000,0.0324,0.013523,0.002678,0.000431,0.007874
22611000,0.0324,0.013523,0.002678,0.000431,0.008462
22612000,0.0324,0.013523,0.002678,0.000431,0.007522
22613000,0.0324,0.013523,0.002678,0.000431,0.007874
22614000,0.0324,0.013523,0.002678,0.000431,0.008345
22615000,0.0324,0.013523,0.002678,0.000431,0.008697
22616000,0.0324,0.013523,0.002678,0.000431,0.007874
22617000,0.0324,0.013523,0.002678,0.000431,0.008109
22618000,0.0324,0.013523,0.002678,0.000431,0.008580
22619000,0.0324,0.013523,0.002678,0.000431,0.007874
22620000,0.0324,0.013523,0.002678,0.000431,0.007287
22621000,0.0324,0.013523,0.002678,0.000431,0.008227
22622000,0.0324,0.013523,0.002678,0.000431,0.008697
22623000,0.0324,0.013523,0.002678,0.000431,0.007992
22624000,0.0324,0.013523,0.002678,0.000431,0.007992
22625000,0.0324,0.013523,0.002678,0.000431,0.007874
22626000,0.0324,0.013523,0.002678,0.000431,0.008227
22627000,0.0324,0.013523,0.002678,0.000431,0.007992
22628000,0.0324,0.013523,0.002678,0.000431,0.008815
22629000,0.0324,0.013523,0.002678,0.000431,0.007639
22630000,0.0324,0.013523,0.002678,0.000431,0.008815
22631000,0.0324,0.013523,0.002678,0.000431,0.008462
22632000,0.0324,0.013523,0.002678,0.000431,0.008580
22633000,0.0324,0.013523,0.002678,0.000431,0.008580
22634000,0.0324,0.013523,0.002678,0.000431,0.007874
22635000,0.0324,0.013523,0.002678,0.000431,0.008462
22636000,0.0324,0.013523,0.002678,0.000431,0.008580
22637000,0.0324,0.013523,0.002678,0.000431,0.007874
22638000,0.0324,0.013523,0.002678,0.000431,0.007522
22639000,0.0324,0.013523,0.002678,0.000431,0.007522
22640000,0.0324,0.013523,0.002678,0.000431,0.008462
22641000,0.0324,0.013523,0.002678,0.000431,0.008932
22642000,0.0324,0.013523,0.002678,0.000431,0.007874
22643000,0.0324,0.013523,0.002678,0.000431,0.007169
22644000,0.0324,0.013523,0.002678,0.000431,0.008345
22645000,0.0324,0.013523,0.002678,0.000431,0.008109
22646000,0.0324,0.013523,0.002678,0.000431,0.008345
22647000,0.0324,0.013523,0.002678,0.000431,0.007874
22648000,0.0324,0.013523,0.002678,0.000431,0.008109
22649000,0.0324,0.013523,0.002678,0.000431,0.008815
22650000,0.0324,0.013523,0.002678,0.000431,0.008227
22651000,0.0324,0.013523,0.002678,0.000431,0.008227
22652000,0.0324,0.013523,0.002678,0.000431,0.007639
22653000,0.0324,0.013523,0.002678,0.000431,0.007874
22654000,0.0324,0.013523,0.002678,0.000431,0.008580
22655000,0.0324,0.013523,0.002678,0.000431,0.007757
22656000,0.0324,0.013523,0.002678,0.000431,0.008109
22657000,0.0324,0.013523,0.002678,0.000431,0.007992
22658000,0.0324,0.013523,0.002678,0.000431,0.007874
22659000,0.0324,0.013523,0.002678,0.000431,0.007169
22660000,0.0324,0.013523,0.002678,0.000431,0.008697
22661000,0.0324,0.013523,0.002678,0.000431,0.008109
22662000,0.0324,0.013523,0.002678,0.000431,0.008580
22663000,0.0324,0.013523,0.002678,0.000431,0.007992
22664000,0.0324,0.013523,0.002678,0.000431,0.008462
22665000,0.0324,0.013523,0.002678,0.000431,0.007522
22666000,0.0324,0.013523,0.002678,0.000431,0.007874
22667000,0.0324,0.013523,0.002678,0.000431,0.009402
22668000,0.0324,0.013523,0.002678,0.000431,0.008462
22669000,0.0324,0.013523,0.002678,0.000431,0.007992
22670000,0.0324,0.013523,0.002678,0.000431,0.008345
22671000,0.0324,0.013523,0.002678,0.000431,0.008580
22672000,0.0324,0.013523,0.002678,0.000431,0.007757
22673000,0.0324,0.013523,0.002678,0.000431,0.007757
22674000,0.0324,0.013523,0.002678,0.000431,0.008227
22675000,0.0324,0.013523,0.002678,0.000431,0.007992
22676000,0.0324,0.013523,0.002678,0.000431,0.007874
22677000,0.0324,0.013523,0.002678,0.000431,0.008109
22678000,0.0324,0.013523,0.002678,0.000431,0.007639
22679000,0.0324,0.013523,0.002678,0.000431,0.008109
22680000,0.0324,0.013523,0.002678,0.000431,0.007757
22681000,0.0324,0.013523,0.002678,0.000431,0.008227
22682000,0.0324,0.013523,0.002678,0.000431,0.008462
22683000,0.0324,0.013523,0.002678,0.000431,0.007522
22684000,0.0324,0.013523,0.002678,0.000431,0.007757
22685000,0.0324,0.013523,0.002678,0.000431,0.007874
22686000,0.0324,0.013523,0.002678,0.000431,0.007052
22687000,0.0324,0.013523,0.002678,0.000431,0.008109
22688000,0.0324,0.013523,0.002678,0.000431,0.008580
22689000,0.0324,0.013523,0.002678,0.000431,0.006934
22690000,0.0324,0.013523,0.002678,0.000431,0.007874
22691000,0.0324,0.013523,0.002678,0.000431,0.008345
22692000,0.0324,0.013523,0.002678,0.000431,0.007639
22693000,0.0324,0.013523,0.002678,0.000431,0.007639
22694000,0.0324,0.013523,0.002678,0.000431,0.007757
22695000,0.0324,0.013523,0.002678,0.000431,0.008345
22696000,0.0324,0.013523,0.002678,0.000431,0.007639
22697000,0.0324,0.013523,0.002678,0.000431,0.007169
22698000,0.0324,0.013523,0.002678,0.000431,0.007757
22699000,0.0324,0.013523,0.002678,0.000431,0.006934
22700000,0.0324,0.013523,0.002678,0.000431,0.008227
22701000,0.0324,0.013523,0.002678,0.000431,0.007992
22702000,0.0324,0.013523,0.002678,0.000431,0.008109
22703000,0.0324,0.013523,0.002678,0.000431,0.007992
22704000,0.0324,0.013523,0.002678,0.000431,0.007992
22705000,0.0324,0.013523,0.002678,0.000431,0.007992
22706000,0.0324,0.013523,0.002678,0.000431,0.007992
22707000,0.0324,0.013523,0.002678,0.000431,0.007639
22708000,0.0324,0.013523,0.002678,0.000431,0.008345
22709000,0.0324,0.013523,0.002678,0.000431,0.008109
22710000,0.0324,0.013523,0.002678,0.000431,0.007874
22711000,0.0324,0.013523,0.002678,0.000431,0.007522
22712000,0.0324,0.013523,0.002678,0.000431,0.008345
22713000,0.0324,0.013523,0.002678,0.000431,0.007992
22714000,0.0324,0.013523,0.002678,0.000431,0.008109
22715000,0.0324,0.013523,0.002678,0.000431,0.008227
22716000,0.0324,0.013523,0.002678,0.000431,0.007874
22717000,0.0324,0.013523,0.002678,0.000431,0.007757
22718000,0.0324,0.013523,0.002678,0.000431,0.008227
22719000,0.0324,0.013523,0.002678,0.000431,0.008580
22720000,0.0324,0.013523,0.002678,0.000431,0.008227
22721000,0.0324,0.013523,0.002678,0.000431,0.007992
22722000,0.0324,0.013523,0.002678,0.000431,0.008109
22723000,0.0324,0.013523,0.002678,0.000431,0.008462
22724000,0.0324,0.013523,0.002678,0.000431,0.007404
22725000,0.0324,0.013523,0.002678,0.000431,0.007757
22726000,0.0324,0.013523,0.002678,0.000431,0.007639
22727000,0.0324,0.013523,0.002678,0.000431,0.007287
22728000,0.0324,0.013523,0.002678,0.000431,0.007757
22729000,0.0324,0.013523,0.002678,0.000431,0.007874
22730000,0.0324,0.013523,0.002678,0.000431,0.007874
22731000,0.0324,0.013523,0.002678,0.000431,0.007287
22732000,0.0324,0.013523,0.002678,0.000431,0.007169
22733000,0.0324,0.013523,0.002678,0.000431,0.007874
22734000,0.0324,0.013523,0.002678,0.000431,0.008580
22735000,0.0324,0.013523,0.002678,0.000431,0.007522
22736000,0.0324,0.013523,0.002678,0.000431,0.008345
22737000,0.0324,0.013523,0.002678,0.000431,0.007404
22738000,0.0324,0.013523,0.002678,0.000431,0.006582
22739000,0.0324,0.013523,0.002678,0.000431,0.007874
22740000,0.0324,0.013523,0.002678,0.000431,0.007404
22741000,0.0324,0.013523,0.002678,0.000431,0.007639
22742000,0.0324,0.013523,0.002678,0.000431,0.007992
22743000,0.0324,0.013523,0.002678,0.000431,0.007169
22744000,0.0324,0.013523,0.002678,0.000431,0.007874
22745000,0.0324,0.013523,0.002678,0.000431,0.007522
22746000,0.0324,0.013523,0.002678,0.000431,0.007757
22747000,0.0324,0.013523,0.002678,0.000431,0.006934
22748000,0.0324,0.013523,0.002678,0.000431,0.007639
22749000,0.0324,0.013523,0.002678,0.000431,0.008462
22750000,0.0324,0.013523,0.002678,0.000431,0.007992
22751000,0.0324,0.013523,0.002678,0.000431,0.007522
22752000,0.0324,0.013523,0.002678,0.000431,0.007639
22753000,0.0324,0.013523,0.002678,0.000431,0.007639
22754000,0.0324,0.013523,0.002678,0.000431,0.007874
22755000,0.0324,0.013523,0.002678,0.000431,0.007992
22756000,0.0324,0.013523,0.002678,0.000431,0.007992
22757000,0.0324,0.013523,0.002678,0.000431,0.007522
22758000,0.0324,0.013523,0.002678,0.000431,0.007874
22759000,0.0324,0.013523,0.002678,0.000431,0.007757
22760000,0.0324,0.013523,0.002678,0.000431,0.008109
22761000,0.0324,0.013523,0.002678,0.000431,0.007404
22762000,0.0324,0.013523,0.002678,0.000431,0.007757
22763000,0.0324,0.013523,0.002678,0.000431,0.007639
22764000,0.0324,0.013523,0.002678,0.000431,0.007287
22765000,0.0324,0.013523,0.002678,0.000431,0.008109
22766000,0.0324,0.013523,0.002678,0.000431,0.006464
22767000,0.0324,0.013523,0.002678,0.000431,0.008109
22768000,0.0324,0.013523,0.002678,0.000431,0.007639
22769000,0.0324,0.013523,0.002678,0.000431,0.007639
22770000,0.0324,0.013523,0.002678,0.000431,0.007874
22771000,0.0324,0.013523,0.002678,0.000431,0.007757
22772000,0.0324,0.013523,0.002678,0.000431,0.006934
22773000,0.0324,0.013523,0.002678,0.000431,0.007992
22774000,0.0324,0.013523,0.002678,0.000431,0.007404
22775000,0.0324,0.013523,0.002678,0.000431,0.007404
22776000,0.0324,0.013523,0.002678,0.000431,0.007992
22777000,0.0324,0.013523,0.002678,0.000431,0.006934
22778000,0.0324,0.013523,0.002678,0.000431,0.007169
22779000,0.0324,0.013523,0.002678,0.000431,0.007404
22780000,0.0324,0.013523,0.002678,0.000431,0.007757
22781000,0.0324,0.013523,0.002678,0.000431,0.006817
22782000,0.0324,0.013523,0.002678,0.000431,0.007169
22783000,0.0324,0.013523,0.002678,0.000431,0.007992
22784000,0.0324,0.013523,0.002678,0.000431,0.007639
22785000,0.0324,0.013523,0.002678,0.000431,0.008109
22786000,0.0324,0.013523,0.002678,0.000431,0.006817
22787000,0.0324,0.013523,0.002678,0.000431,0.007522
22788000,0.0324,0.013523,0.002678,0.000431,0.007522
22789000,0.0324,0.013523,0.002678,0.000431,0.007639
22790000,0.0324,0.013523,0.002678,0.000431,0.007992
22791000,0.0324,0.013523,0.002678,0.000431,0.007992
22792000,0.0324,0.013523,0.002678,0.000431,0.007639
22793000,0.0324,0.013523,0.002678,0.000431,0.006934
22794000,0.0324,0.013523,0.002678,0.000431,0.007992
22795000,0.0324,0.013523,0.002678,0.000431,0.006934
22796000,0.0324,0.013523,0.002678,0.000431,0.007522
22797000,0.0324,0.013523,0.002678,0.000431,0.007757
22798000,0.0324,0.013523,0.002678,0.000431,0.007169
22799000,0.0324,0.013523,0.002678,0.000431,0.007522
22800000,0.0324,0.013523,0.002678,0.000431,0.007639
22801000,0.0324,0.013523,0.002678,0.000431,0.006699
22802000,0.0324,0.013523,0.002678,0.000431,0.007757
22803000,0.0324,0.013523,0.002678,0.000431,0.007757
22804000,0.0324,0.013523,0.002678,0.000431,0.007169
22805000,0.0324,0.013523,0.002678,0.000431,0.008227
22806000,0.0324,0.013523,0.002678,0.000431,0.006934
22807000,0.0324,0.013523,0.002678,0.000431,0.007522
22808000,0.0324,0.013523,0.002678,0.000431,0.007639
22809000,0.0324,0.013523,0.002678,0.000431,0.007757
22810000,0.0324,0.013523,0.002678,0.000431,0.007639
22811000,0.0324,0.013523,0.002678,0.000431,0.007757
22812000,0.0324,0.013523,0.002678,0.000431,0.007052
22813000,0.0324,0.013523,0.002678,0.000431,0.007757
22814000,0.0324,0.013523,0.002678,0.000431,0.007757
22815000,0.0324,0.013523,0.002678,0.000431,0.007169
22816000,0.0324,0.013523,0.002678,0.000431,0.007639
22817000,0.0324,0.013523,0.002678,0.000431,0.007874
22818000,0.0324,0.013523,0.002678,0.000431,0.007169
22819000,0.0324,0.013523,0.002678,0.000431,0.007757
22820000,0.0324,0.013523,0.002678,0.000431,0.007052
22821000,0.0324,0.013523,0.002678,0.000431,0.007757
22822000,0.0324,0.013523,0.002678,0.000431,0.007404
22823000,0.0324,0.013523,0.002678,0.000431,0.008345
22824000,0.0324,0.013523,0.002678,0.000431,0.008109
22825000,0.0324,0.013523,0.002678,0.000431,0.007169
22826000,0.0324,0.013523,0.002678,0.000431,0.007287
22827000,0.0324,0.013523,0.002678,0.000431,0.008109
22828000,0.0324,0.013523,0.002678,0.000431,0.007522
22829000,0.0324,0.013523,0.002678,0.000431,0.007757
22830000,0.0324,0.013523,0.002678,0.000431,0.007757
22831000,0.0324,0.013523,0.002678,0.000431,0.007757
22832000,0.0324,0.013523,0.002678,0.000431,0.007757
22833000,0.0324,0.013523,0.002678,0.000431,0.008109
22834000,0.0324,0.013523,0.002678,0.000431,0.006817
22835000,0.0324,0.013523,0.002678,0.000431,0.007287
22836000,0.0324,0.013523,0.002678,0.000431,0.007874
22837000,0.0324,0.013523,0.002678,0.000431,0.007757
22838000,0.0324,0.013523,0.002678,0.000431,0.008462
22839000,0.0324,0.013523,0.002678,0.000431,0.006817
22840000,0.0324,0.013523,0.002678,0.000431,0.007874
22841000,0.0324,0.013523,0.002678,0.000431,0.008345
22842000,0.0324,0.013523,0.002678,0.000431,0.006817
22843000,0.0324,0.013523,0.002678,0.000431,0.007992
22844000,0.0324,0.013523,0.002678,0.000431,0.007757
22845000,0.0324,0.013523,0.002678,0.000431,0.007874
22846000,0.0324,0.013523,0.002678,0.000431,0.007639
22847000,0.0324,0.013523,0.002678,0.000431,0.007757
22848000,0.0324,0.013523,0.002678,0.000431,0.007874
22849000,0.0324,0.013523,0.002678,0.000431,0.008345
22850000,0.0324,0.013523,0.002678,0.000431,0.007874
22851000,0.0324,0.013523,0.002678,0.000431,0.007404
22852000,0.0324,0.013523,0.002678,0.000431,0.007639
22853000,0.0324,0.013523,0.002678,0.000431,0.007757
22854000,0.0324,0.013523,0.002678,0.000431,0.008109
22855000,0.0324,0.013523,0.002678,0.000431,0.006934
22856000,0.0324,0.013523,0.002678,0.000431,0.006934
22857000,0.0324,0.013523,0.002678,0.000431,0.008227
22858000,0.0324,0.013523,0.002678,0.000431,0.007287
22859000,0.0324,0.013523,0.002678,0.000431,0.008227
22860000,0.0324,0.013523,0.002678,0.000431,0.007404
22861000,0.0324,0.013523,0.002678,0.000431,0.007287
22862000,0.0324,0.013523,0.002678,0.000431,0.008109
22863000,0.0324,0.013523,0.002678,0.000431,0.007169
22864000,0.0324,0.013523,0.002678,0.000431,0.008580
22865000,0.0324,0.013523,0.002678,0.000431,0.007404
22866000,0.0324,0.013523,0.002678,0.000431,0.007639
22867000,0.0324,0.013523,0.002678,0.000431,0.007169
22868000,0.0324,0.013523,0.002678,0.000431,0.008109
22869000,0.0324,0.013523,0.002678,0.000431,0.007404
22870000,0.0324,0.013523,0.002678,0.000431,0.008109
22871000,0.0324,0.013523,0.002678,0.000431,0.007052
22872000,0.0324,0.013523,0.002678,0.000431,0.007757
22873000,0.0324,0.013523,0.002678,0.000431,0.007757
22874000,0.0324,0.013523,0.002678,0.000431,0.008109
22875000,0.0324,0.013523,0.002678,0.000431,0.007287
22876000,0.0324,0.013523,0.002678,0.000431,0.007992
22877000,0.0324,0.013523,0.002678,0.000431,0.007169
22878000,0.0324,0.013523,0.002678,0.000431,0.008109
22879000,0.0324,0.013523,0.002678,0.000431,0.007639
22880000,0.0324,0.013523,0.002678,0.000431,0.007404
22881000,0.0324,0.013523,0.002678,0.000431,0.007404
22882000,0.0324,0.013523,0.002678,0.000431,0.006582
22883000,0.0324,0.013523,0.002678,0.000431,0.008580
22884000,0.0324,0.013523,0.002678,0.000431,0.007757
22885000,0.0324,0.013523,0.002678,0.000431,0.007874
22886000,0.0324,0.013523,0.002678,0.000431,0.007404
22887000,0.0324,0.013523,0.002678,0.000431,0.007639
22888000,0.0324,0.013523,0.002678,0.000431,0.007639
22889000,0.0324,0.013523,0.002678,0.000431,0.008109
22890000,0.0324,0.013523,0.002678,0.000431,0.007992
22891000,0.0324,0.013523,0.002678,0.000431,0.007522
22892000,0.0324,0.013523,0.002678,0.000431,0.007287
22893000,0.0324,0.013523,0.002678,0.000431,0.008580
22894000,0.0324,0.013523,0.002678,0.000431,0.007404
22895000,0.0324,0.013523,0.002678,0.000431,0.007169
22896000,0.0324,0.013523,0.002678,0.000431,0.008109
22897000,0.0324,0.013523,0.002678,0.000431,0.007639
22898000,0.0324,0.013523,0.002678,0.000431,0.007404
22899000,0.0324,0.013523,0.002678,0.000431,0.008109
22900000,0.0324,0.013523,0.002678,0.000431,0.007757
22901000,0.0324,0.013523,0.002678,0.000431,0.008345
22902000,0.0324,0.013523,0.002678,0.000431,0.006817
22903000,0.0324,0.013523,0.002678,0.000431,0.007169
22904000,0.0324,0.013523,0.002678,0.000431,0.008580
22905000,0.0324,0.013523,0.002678,0.000431,0.007992
22906000,0.0324,0.013523,0.002678,0.000431,0.007992
22907000,0.0324,0.013523,0.002678,0.000431,0.007639
22908000,0.0324,0.013523,0.002678,0.000431,0.007052
22909000,0.0324,0.013523,0.002678,0.000431,0.007992
22910000,0.0324,0.013523,0.002678,0.000431,0.007757
22911000,0.0324,0.013523,0.002678,0.000431,0.007522
22912000,0.0324,0.013523,0.002678,0.000431,0.006934
22913000,0.0324,0.013523,0.002678,0.000431,0.007404
22914000,0.0324,0.013523,0.002678,0.000431,0.008697
22915000,0.0324,0.013523,0.002678,0.000431,0.008109
22916000,0.0324,0.013523,0.002678,0.000431,0.007639
22917000,0.0324,0.013523,0.002678,0.000431,0.007404
22918000,0.0324,0.013523,0.002678,0.000431,0.007757
22919000,0.0324,0.013523,0.002678,0.000431,0.007404
22920000,0.0324,0.013523,0.002678,0.000431,0.007522
22921000,0.0324,0.013523,0.002678,0.000431,0.006699
22922000,0.0324,0.013523,0.002678,0.000431,0.007757
22923000,0.0324,0.013523,0.002678,0.000431,0.007052
22924000,0.0324,0.013523,0.002678,0.000431,0.007757
22925000,0.0324,0.013523,0.002678,0.000431,0.007757
22926000,0.0324,0.013523,0.002678,0.000431,0.008109
22927000,0.0324,0.013523,0.002678,0.000431,0.007169
22928000,0.0324,0.013523,0.002678,0.000431,0.006817
22929000,0.0324,0.013523,0.002678,0.000431,0.007052
22930000,0.0324,0.013523,0.002678,0.000431,0.007992
22931000,0.0324,0.013523,0.002678,0.000431,0.007874
22932000,0.0324,0.013523,0.002678,0.000431,0.007169
22933000,0.0324,0.013523,0.002678,0.000431,0.007522
22934000,0.0324,0.013523,0.002678,0.000431,0.007522
22935000,0.0324,0.013523,0.002678,0.000431,0.008109
22936000,0.0324,0.013523,0.002678,0.000431,0.007639
22937000,0.0324,0.013523,0.002678,0.000431,0.006934
22938000,0.0324,0.013523,0.002678,0.000431,0.007522
22939000,0.0324,0.013523,0.002678,0.000431,0.007287
22940000,0.0324,0.013523,0.002678,0.000431,0.007169
22941000,0.0324,0.013523,0.002678,0.000431,0.007874
22942000,0.0324,0.013523,0.002678,0.000431,0.007169
22943000,0.0324,0.013523,0.002678,0.000431,0.007992
22944000,0.0324,0.013523,0.002678,0.000431,0.007169
22945000,0.0324,0.013523,0.002678,0.000431,0.007639
22946000,0.0324,0.013523,0.002678,0.000431,0.007992
22947000,0.0324,0.013523,0.002678,0.000431,0.007404
22948000,0.0324,0.013523,0.002678,0.000431,0.007757
22949000,0.0324,0.013523,0.002678,0.000431,0.007404
22950000,0.0324,0.013523,0.002678,0.000431,0.007992
22951000,0.0324,0.013523,0.002678,0.000431,0.007404
22952000,0.0324,0.013523,0.002678,0.000431,0.008227
22953000,0.0324,0.013523,0.002678,0.000431,0.007639
22954000,0.0324,0.013523,0.002678,0.000431,0.007404
22955000,0.0324,0.013523,0.002678,0.000431,0.007874
22956000,0.0324,0.013523,0.002678,0.000431,0.007052
22957000,0.0324,0.013523,0.002678,0.000431,0.008345
22958000,0.0324,0.013523,0.002678,0.000431,0.006817
22959000,0.0324,0.013523,0.002678,0.000431,0.007639
22960000,0.0324,0.013523,0.002678,0.000431,0.008345
22961000,0.0324,0.013523,0.002678,0.000431,0.008345
22962000,0.0324,0.013523,0.002678,0.000431,0.007639
22963000,0.0324,0.013523,0.002678,0.000431,0.007287
22964000,0.0324,0.013523,0.002678,0.000431,0.007052
22965000,0.0324,0.013523,0.002678,0.000431,0.006934
22966000,0.0324,0.013523,0.002678,0.000431,0.006817
22967000,0.0324,0.013523,0.002678,0.000431,0.007639
22968000,0.0324,0.013523,0.002678,0.000431,0.007404
22969000,0.0324,0.013523,0.002678,0.000431,0.007287
22970000,0.0324,0.013523,0.002678,0.000431,0.007874
22971000,0.0324,0.013523,0.002678,0.000431,0.007757
22972000,0.0324,0.013523,0.002678,0.000431,0.007639
22973000,0.0324,0.013523,0.002678,0.000431,0.007287
22974000,0.0324,0.013523,0.002678,0.000431,0.008109
22975000,0.0324,0.013523,0.002678,0.000431,0.006464
22976000,0.0324,0.013523,0.002678,0.000431,0.007992
22977000,0.0324,0.013523,0.002678,0.000431,0.007992
22978000,0.0324,0.013523,0.002678,0.000431,0.008227
22979000,0.0324,0.013523,0.002678,0.000431,0.007757
22980000,0.0324,0.013523,0.002678,0.000431,0.007287
22981000,0.0324,0.013523,0.002678,0.000431,0.007757
22982000,0.0324,0.013523,0.002678,0.000431,0.006582
22983000,0.0324,0.013523,0.002678,0.000431,0.007522
22984000,0.0324,0.013523,0.002678,0.000431,0.007169
22985000,0.0324,0.013523,0.002678,0.000431,0.007287
22986000,0.0324,0.013523,0.002678,0.000431,0.008345
22987000,0.0324,0.013523,0.002678,0.000431,0.007992
22988000,0.0324,0.013523,0.002678,0.000431,0.007522
22989000,0.0324,0.013523,0.002678,0.000431,0.007052
22990000,0.0324,0.013523,0.002678,0.000431,0.008109
22991000,0.0324,0.013523,0.002678,0.000431,0.007757
22992000,0.0324,0.013523,0.002678,0.000431,0.008227
22993000,0.0324,0.013523,0.002678,0.000431,0.007404
22994000,0.0324,0.013523,0.002678,0.000431,0.007287
22995000,0.0324,0.013523,0.002678,0.000431,0.007639
22996000,0.0324,0.013523,0.002678,0.000431,0.007874
22997000,0.0324,0.013523,0.002678,0.000431,0.007874
22998000,0.0324,0.013523,0.002678,0.000431,0.007404
22999000,0.0324,0.013523,0.002678,0.000431,0.007522
