Cycle,Area(mm^2),PeakDynamic(W),SubthresholdLeakage(W),GateLeakage(W),RunTimeDynamic(W)
14000000,0.0324,0.013523,0.002678,0.000431,0.017394
14001000,0.0324,0.013523,0.002678,0.000431,0.017982
14002000,0.0324,0.013523,0.002678,0.000431,0.018569
14003000,0.0324,0.013523,0.002678,0.000431,0.018334
14004000,0.0324,0.013523,0.002678,0.000431,0.017982
14005000,0.0324,0.013523,0.002678,0.000431,0.017982
14006000,0.0324,0.013523,0.002678,0.000431,0.018452
14007000,0.0324,0.013523,0.002678,0.000431,0.017394
14008000,0.0324,0.013523,0.002678,0.000431,0.018687
14009000,0.0324,0.013523,0.002678,0.000431,0.016571
14010000,0.0324,0.013523,0.002678,0.000431,0.018922
14011000,0.0324,0.013523,0.002678,0.000431,0.019157
14012000,0.0324,0.013523,0.002678,0.000431,0.017277
14013000,0.0324,0.013523,0.002678,0.000431,0.017512
14014000,0.0324,0.013523,0.002678,0.000431,0.018569
14015000,0.0324,0.013523,0.002678,0.000431,0.017394
14016000,0.0324,0.013523,0.002678,0.000431,0.017982
14017000,0.0324,0.013523,0.002678,0.000431,0.017277
14018000,0.0324,0.013523,0.002678,0.000431,0.016689
14019000,0.0324,0.013523,0.002678,0.000431,0.018099
14020000,0.0324,0.013523,0.002678,0.000431,0.018099
14021000,0.0324,0.013523,0.002678,0.000431,0.017394
14022000,0.0324,0.013523,0.002678,0.000431,0.018805
14023000,0.0324,0.013523,0.002678,0.000431,0.017512
14024000,0.0324,0.013523,0.002678,0.000431,0.017394
14025000,0.0324,0.013523,0.002678,0.000431,0.017747
14026000,0.0324,0.013523,0.002678,0.000431,0.016689
14027000,0.0324,0.013523,0.002678,0.000431,0.019040
14028000,0.0324,0.013523,0.002678,0.000431,0.016689
14029000,0.0324,0.013523,0.002678,0.000431,0.018922
14030000,0.0324,0.013523,0.002678,0.000431,0.017394
14031000,0.0324,0.013523,0.002678,0.000431,0.016454
14032000,0.0324,0.013523,0.002678,0.000431,0.017512
14033000,0.0324,0.013523,0.002678,0.000431,0.017629
14034000,0.0324,0.013523,0.002678,0.000431,0.016219
14035000,0.0324,0.013523,0.002678,0.000431,0.018452
14036000,0.0324,0.013523,0.002678,0.000431,0.017747
14037000,0.0324,0.013523,0.002678,0.000431,0.016336
14038000,0.0324,0.013523,0.002678,0.000431,0.018099
14039000,0.0324,0.013523,0.002678,0.000431,0.017159
14040000,0.0324,0.013523,0.002678,0.000431,0.017747
14041000,0.0324,0.013523,0.002678,0.000431,0.018334
14042000,0.0324,0.013523,0.002678,0.000431,0.016219
14043000,0.0324,0.013523,0.002678,0.000431,0.016336
14044000,0.0324,0.013523,0.002678,0.000431,0.017159
14045000,0.0324,0.013523,0.002678,0.000431,0.018099
14046000,0.0324,0.013523,0.002678,0.000431,0.017864
14047000,0.0324,0.013523,0.002678,0.000431,0.018334
14048000,0.0324,0.013523,0.002678,0.000431,0.017512
14049000,0.0324,0.013523,0.002678,0.000431,0.017042
14050000,0.0324,0.013523,0.002678,0.000431,0.016219
14051000,0.0324,0.013523,0.002678,0.000431,0.017159
14052000,0.0324,0.013523,0.002678,0.000431,0.017512
14053000,0.0324,0.013523,0.002678,0.000431,0.017982
14054000,0.0324,0.013523,0.002678,0.000431,0.016924
14055000,0.0324,0.013523,0.002678,0.000431,0.017042
14056000,0.0324,0.013523,0.002678,0.000431,0.016807
14057000,0.0324,0.013523,0.002678,0.000431,0.015866
14058000,0.0324,0.013523,0.002678,0.000431,0.017629
14059000,0.0324,0.013523,0.002678,0.000431,0.017277
14060000,0.0324,0.013523,0.002678,0.000431,0.016924
14061000,0.0324,0.013523,0.002678,0.000431,0.016454
14062000,0.0324,0.013523,0.002678,0.000431,0.017042
14063000,0.0324,0.013523,0.002678,0.000431,0.016807
14064000,0.0324,0.013523,0.002678,0.000431,0.016454
14065000,0.0324,0.013523,0.002678,0.000431,0.017159
14066000,0.0324,0.013523,0.002678,0.000431,0.017159
14067000,0.0324,0.013523,0.002678,0.000431,0.016219
14068000,0.0324,0.013523,0.002678,0.000431,0.017864
14069000,0.0324,0.013523,0.002678,0.000431,0.016336
14070000,0.0324,0.013523,0.002678,0.000431,0.017394
14071000,0.0324,0.013523,0.002678,0.000431,0.017277
14072000,0.0324,0.013523,0.002678,0.000431,0.017512
14073000,0.0324,0.013523,0.002678,0.000431,0.016454
14074000,0.0324,0.013523,0.002678,0.000431,0.016924
14075000,0.0324,0.013523,0.002678,0.000431,0.015984
14076000,0.0324,0.013523,0.002678,0.000431,0.018569
14077000,0.0324,0.013523,0.002678,0.000431,0.016336
14078000,0.0324,0.013523,0.002678,0.000431,0.017394
14079000,0.0324,0.013523,0.002678,0.000431,0.018569
14080000,0.0324,0.013523,0.002678,0.000431,0.017394
14081000,0.0324,0.013523,0.002678,0.000431,0.016807
14082000,0.0324,0.013523,0.002678,0.000431,0.018217
14083000,0.0324,0.013523,0.002678,0.000431,0.017629
14084000,0.0324,0.013523,0.002678,0.000431,0.015749
14085000,0.0324,0.013523,0.002678,0.000431,0.019157
14086000,0.0324,0.013523,0.002678,0.000431,0.017394
14087000,0.0324,0.013523,0.002678,0.000431,0.016219
14088000,0.0324,0.013523,0.002678,0.000431,0.016336
14089000,0.0324,0.013523,0.002678,0.000431,0.016689
14090000,0.0324,0.013523,0.002678,0.000431,0.017042
14091000,0.0324,0.013523,0.002678,0.000431,0.017394
14092000,0.0324,0.013523,0.002678,0.000431,0.015279
14093000,0.0324,0.013523,0.002678,0.000431,0.016336
14094000,0.0324,0.013523,0.002678,0.000431,0.018217
14095000,0.0324,0.013523,0.002678,0.000431,0.016571
14096000,0.0324,0.013523,0.002678,0.000431,0.016807
14097000,0.0324,0.013523,0.002678,0.000431,0.018334
14098000,0.0324,0.013523,0.002678,0.000431,0.015631
14099000,0.0324,0.013523,0.002678,0.000431,0.016689
14100000,0.0324,0.013523,0.002678,0.000431,0.018334
14101000,0.0324,0.013523,0.002678,0.000431,0.016454
14102000,0.0324,0.013523,0.002678,0.000431,0.017394
14103000,0.0324,0.013523,0.002678,0.000431,0.017159
14104000,0.0324,0.013523,0.002678,0.000431,0.017629
14105000,0.0324,0.013523,0.002678,0.000431,0.017629
14106000,0.0324,0.013523,0.002678,0.000431,0.017864
14107000,0.0324,0.013523,0.002678,0.000431,0.016807
14108000,0.0324,0.013523,0.002678,0.000431,0.017394
14109000,0.0324,0.013523,0.002678,0.000431,0.018217
14110000,0.0324,0.013523,0.002678,0.000431,0.017159
14111000,0.0324,0.013523,0.002678,0.000431,0.017864
14112000,0.0324,0.013523,0.002678,0.000431,0.018805
14113000,0.0324,0.013523,0.002678,0.000431,0.016689
14114000,0.0324,0.013523,0.002678,0.000431,0.017512
14115000,0.0324,0.013523,0.002678,0.000431,0.016689
14116000,0.0324,0.013523,0.002678,0.000431,0.017042
14117000,0.0324,0.013523,0.002678,0.000431,0.017159
14118000,0.0324,0.013523,0.002678,0.000431,0.019040
14119000,0.0324,0.013523,0.002678,0.000431,0.016219
14120000,0.0324,0.013523,0.002678,0.000431,0.017394
14121000,0.0324,0.013523,0.002678,0.000431,0.017747
14122000,0.0324,0.013523,0.002678,0.000431,0.017159
14123000,0.0324,0.013523,0.002678,0.000431,0.018687
14124000,0.0324,0.013523,0.002678,0.000431,0.017629
14125000,0.0324,0.013523,0.002678,0.000431,0.015984
14126000,0.0324,0.013523,0.002678,0.000431,0.017864
14127000,0.0324,0.013523,0.002678,0.000431,0.017394
14128000,0.0324,0.013523,0.002678,0.000431,0.016689
14129000,0.0324,0.013523,0.002678,0.000431,0.017982
14130000,0.0324,0.013523,0.002678,0.000431,0.017864
14131000,0.0324,0.013523,0.002678,0.000431,0.018569
14132000,0.0324,0.013523,0.002678,0.000431,0.015161
14133000,0.0324,0.013523,0.002678,0.000431,0.016807
14134000,0.0324,0.013523,0.002678,0.000431,0.017042
14135000,0.0324,0.013523,0.002678,0.000431,0.017747
14136000,0.0324,0.013523,0.002678,0.000431,0.019745
14137000,0.0324,0.013523,0.002678,0.000431,0.016571
14138000,0.0324,0.013523,0.002678,0.000431,0.016219
14139000,0.0324,0.013523,0.002678,0.000431,0.017394
14140000,0.0324,0.013523,0.002678,0.000431,0.015279
14141000,0.0324,0.013523,0.002678,0.000431,0.017864
14142000,0.0324,0.013523,0.002678,0.000431,0.018217
14143000,0.0324,0.013523,0.002678,0.000431,0.016689
14144000,0.0324,0.013523,0.002678,0.000431,0.017394
14145000,0.0324,0.013523,0.002678,0.000431,0.018452
14146000,0.0324,0.013523,0.002678,0.000431,0.016336
14147000,0.0324,0.013523,0.002678,0.000431,0.017512
14148000,0.0324,0.013523,0.002678,0.000431,0.016101
14149000,0.0324,0.013523,0.002678,0.000431,0.018334
14150000,0.0324,0.013523,0.002678,0.000431,0.016924
14151000,0.0324,0.013523,0.002678,0.000431,0.016689
14152000,0.0324,0.013523,0.002678,0.000431,0.016924
14153000,0.0324,0.013523,0.002678,0.000431,0.016924
14154000,0.0324,0.013523,0.002678,0.000431,0.016689
14155000,0.0324,0.013523,0.002678,0.000431,0.016924
14156000,0.0324,0.013523,0.002678,0.000431,0.016924
14157000,0.0324,0.013523,0.002678,0.000431,0.015749
14158000,0.0324,0.013523,0.002678,0.000431,0.015984
14159000,0.0324,0.013523,0.002678,0.000431,0.016924
14160000,0.0324,0.013523,0.002678,0.000431,0.016571
14161000,0.0324,0.013523,0.002678,0.000431,0.017394
14162000,0.0324,0.013523,0.002678,0.000431,0.015631
14163000,0.0324,0.013523,0.002678,0.000431,0.016454
14164000,0.0324,0.013523,0.002678,0.000431,0.016219
14165000,0.0324,0.013523,0.002678,0.000431,0.017512
14166000,0.0324,0.013523,0.002678,0.000431,0.015984
14167000,0.0324,0.013523,0.002678,0.000431,0.016571
14168000,0.0324,0.013523,0.002678,0.000431,0.015514
14169000,0.0324,0.013523,0.002678,0.000431,0.015749
14170000,0.0324,0.013523,0.002678,0.000431,0.017394
14171000,0.0324,0.013523,0.002678,0.000431,0.016924
14172000,0.0324,0.013523,0.002678,0.000431,0.016571
14173000,0.0324,0.013523,0.002678,0.000431,0.015866
14174000,0.0324,0.013523,0.002678,0.000431,0.015631
14175000,0.0324,0.013523,0.002678,0.000431,0.017277
14176000,0.0324,0.013523,0.002678,0.000431,0.017042
14177000,0.0324,0.013523,0.002678,0.000431,0.016336
14178000,0.0324,0.013523,0.002678,0.000431,0.016689
14179000,0.0324,0.013523,0.002678,0.000431,0.015866
14180000,0.0324,0.013523,0.002678,0.000431,0.014926
14181000,0.0324,0.013523,0.002678,0.000431,0.017159
14182000,0.0324,0.013523,0.002678,0.000431,0.016101
14183000,0.0324,0.013523,0.002678,0.000431,0.016571
14184000,0.0324,0.013523,0.002678,0.000431,0.015866
14185000,0.0324,0.013523,0.002678,0.000431,0.016101
14186000,0.0324,0.013523,0.002678,0.000431,0.016336
14187000,0.0324,0.013523,0.002678,0.000431,0.017394
14188000,0.0324,0.013523,0.002678,0.000431,0.015514
14189000,0.0324,0.013523,0.002678,0.000431,0.017277
14190000,0.0324,0.013523,0.002678,0.000431,0.015749
14191000,0.0324,0.013523,0.002678,0.000431,0.016924
14192000,0.0324,0.013523,0.002678,0.000431,0.016101
14193000,0.0324,0.013523,0.002678,0.000431,0.016101
14194000,0.0324,0.013523,0.002678,0.000431,0.015866
14195000,0.0324,0.013523,0.002678,0.000431,0.016924
14196000,0.0324,0.013523,0.002678,0.000431,0.016924
14197000,0.0324,0.013523,0.002678,0.000431,0.016689
14198000,0.0324,0.013523,0.002678,0.000431,0.016571
14199000,0.0324,0.013523,0.002678,0.000431,0.015514
14200000,0.0324,0.013523,0.002678,0.000431,0.016571
14201000,0.0324,0.013523,0.002678,0.000431,0.017159
14202000,0.0324,0.013523,0.002678,0.000431,0.016454
14203000,0.0324,0.013523,0.002678,0.000431,0.016454
14204000,0.0324,0.013523,0.002678,0.000431,0.015866
14205000,0.0324,0.013523,0.002678,0.000431,0.016219
14206000,0.0324,0.013523,0.002678,0.000431,0.016101
14207000,0.0324,0.013523,0.002678,0.000431,0.016689
14208000,0.0324,0.013523,0.002678,0.000431,0.017159
14209000,0.0324,0.013523,0.002678,0.000431,0.014926
14210000,0.0324,0.013523,0.002678,0.000431,0.016807
14211000,0.0324,0.013523,0.002678,0.000431,0.017042
14212000,0.0324,0.013523,0.002678,0.000431,0.017394
14213000,0.0324,0.013523,0.002678,0.000431,0.017394
14214000,0.0324,0.013523,0.002678,0.000431,0.015161
14215000,0.0324,0.013523,0.002678,0.000431,0.014809
14216000,0.0324,0.013523,0.002678,0.000431,0.016807
14217000,0.0324,0.013523,0.002678,0.000431,0.016571
14218000,0.0324,0.013523,0.002678,0.000431,0.015866
14219000,0.0324,0.013523,0.002678,0.000431,0.017512
14220000,0.0324,0.013523,0.002678,0.000431,0.017277
14221000,0.0324,0.013523,0.002678,0.000431,0.015866
14222000,0.0324,0.013523,0.002678,0.000431,0.015631
14223000,0.0324,0.013523,0.002678,0.000431,0.015514
14224000,0.0324,0.013523,0.002678,0.000431,0.016101
14225000,0.0324,0.013523,0.002678,0.000431,0.017277
14226000,0.0324,0.013523,0.002678,0.000431,0.017159
14227000,0.0324,0.013523,0.002678,0.000431,0.016454
14228000,0.0324,0.013523,0.002678,0.000431,0.016219
14229000,0.0324,0.013523,0.002678,0.000431,0.016219
14230000,0.0324,0.013523,0.002678,0.000431,0.016219
14231000,0.0324,0.013523,0.002678,0.000431,0.016101
14232000,0.0324,0.013523,0.002678,0.000431,0.017394
14233000,0.0324,0.013523,0.002678,0.000431,0.017042
14234000,0.0324,0.013523,0.002678,0.000431,0.017042
14235000,0.0324,0.013523,0.002678,0.000431,0.017042
14236000,0.0324,0.013523,0.002678,0.000431,0.016219
14237000,0.0324,0.013523,0.002678,0.000431,0.017747
14238000,0.0324,0.013523,0.002678,0.000431,0.016336
14239000,0.0324,0.013523,0.002678,0.000431,0.016924
14240000,0.0324,0.013523,0.002678,0.000431,0.017042
14241000,0.0324,0.013523,0.002678,0.000431,0.016219
14242000,0.0324,0.013523,0.002678,0.000431,0.016336
14243000,0.0324,0.013523,0.002678,0.000431,0.016689
14244000,0.0324,0.013523,0.002678,0.000431,0.016924
14245000,0.0324,0.013523,0.002678,0.000431,0.016101
14246000,0.0324,0.013523,0.002678,0.000431,0.016101
14247000,0.0324,0.013523,0.002678,0.000431,0.017747
14248000,0.0324,0.013523,0.002678,0.000431,0.015984
14249000,0.0324,0.013523,0.002678,0.000431,0.017864
14250000,0.0324,0.013523,0.002678,0.000431,0.017747
14251000,0.0324,0.013523,0.002678,0.000431,0.014573
14252000,0.0324,0.013523,0.002678,0.000431,0.017512
14253000,0.0324,0.013523,0.002678,0.000431,0.016219
14254000,0.0324,0.013523,0.002678,0.000431,0.016689
14255000,0.0324,0.013523,0.002678,0.000431,0.016101
14256000,0.0324,0.013523,0.002678,0.000431,0.017277
14257000,0.0324,0.013523,0.002678,0.000431,0.016571
14258000,0.0324,0.013523,0.002678,0.000431,0.016336
14259000,0.0324,0.013523,0.002678,0.000431,0.016924
14260000,0.0324,0.013523,0.002678,0.000431,0.016101
14261000,0.0324,0.013523,0.002678,0.000431,0.017982
14262000,0.0324,0.013523,0.002678,0.000431,0.017159
14263000,0.0324,0.013523,0.002678,0.000431,0.015514
14264000,0.0324,0.013523,0.002678,0.000431,0.017629
14265000,0.0324,0.013523,0.002678,0.000431,0.015749
14266000,0.0324,0.013523,0.002678,0.000431,0.016571
14267000,0.0324,0.013523,0.002678,0.000431,0.017982
14268000,0.0324,0.013523,0.002678,0.000431,0.016571
14269000,0.0324,0.013523,0.002678,0.000431,0.016807
14270000,0.0324,0.013523,0.002678,0.000431,0.018217
14271000,0.0324,0.013523,0.002678,0.000431,0.015514
14272000,0.0324,0.013523,0.002678,0.000431,0.016571
14273000,0.0324,0.013523,0.002678,0.000431,0.017277
14274000,0.0324,0.013523,0.002678,0.000431,0.015866
14275000,0.0324,0.013523,0.002678,0.000431,0.016454
14276000,0.0324,0.013523,0.002678,0.000431,0.016219
14277000,0.0324,0.013523,0.002678,0.000431,0.015631
14278000,0.0324,0.013523,0.002678,0.000431,0.017629
14279000,0.0324,0.013523,0.002678,0.000431,0.016101
14280000,0.0324,0.013523,0.002678,0.000431,0.016807
14281000,0.0324,0.013523,0.002678,0.000431,0.014691
14282000,0.0324,0.013523,0.002678,0.000431,0.017747
14283000,0.0324,0.013523,0.002678,0.000431,0.017159
14284000,0.0324,0.013523,0.002678,0.000431,0.016924
14285000,0.0324,0.013523,0.002678,0.000431,0.017512
14286000,0.0324,0.013523,0.002678,0.000431,0.015631
14287000,0.0324,0.013523,0.002678,0.000431,0.017159
14288000,0.0324,0.013523,0.002678,0.000431,0.016219
14289000,0.0324,0.013523,0.002678,0.000431,0.017864
14290000,0.0324,0.013523,0.002678,0.000431,0.015396
14291000,0.0324,0.013523,0.002678,0.000431,0.017042
14292000,0.0324,0.013523,0.002678,0.000431,0.016924
14293000,0.0324,0.013523,0.002678,0.000431,0.015866
14294000,0.0324,0.013523,0.002678,0.000431,0.016101
14295000,0.0324,0.013523,0.002678,0.000431,0.016807
14296000,0.0324,0.013523,0.002678,0.000431,0.016454
14297000,0.0324,0.013523,0.002678,0.000431,0.016924
14298000,0.0324,0.013523,0.002678,0.000431,0.016924
14299000,0.0324,0.013523,0.002678,0.000431,0.016101
14300000,0.0324,0.013523,0.002678,0.000431,0.016807
14301000,0.0324,0.013523,0.002678,0.000431,0.015984
14302000,0.0324,0.013523,0.002678,0.000431,0.016807
14303000,0.0324,0.013523,0.002678,0.000431,0.017394
14304000,0.0324,0.013523,0.002678,0.000431,0.015749
14305000,0.0324,0.013523,0.002678,0.000431,0.017159
14306000,0.0324,0.013523,0.002678,0.000431,0.016924
14307000,0.0324,0.013523,0.002678,0.000431,0.016336
14308000,0.0324,0.013523,0.002678,0.000431,0.016336
14309000,0.0324,0.013523,0.002678,0.000431,0.016924
14310000,0.0324,0.013523,0.002678,0.000431,0.017277
14311000,0.0324,0.013523,0.002678,0.000431,0.016336
14312000,0.0324,0.013523,0.002678,0.000431,0.016807
14313000,0.0324,0.013523,0.002678,0.000431,0.015161
14314000,0.0324,0.013523,0.002678,0.000431,0.015631
14315000,0.0324,0.013523,0.002678,0.000431,0.015631
14316000,0.0324,0.013523,0.002678,0.000431,0.016336
14317000,0.0324,0.013523,0.002678,0.000431,0.016336
14318000,0.0324,0.013523,0.002678,0.000431,0.016454
14319000,0.0324,0.013523,0.002678,0.000431,0.016219
14320000,0.0324,0.013523,0.002678,0.000431,0.017512
14321000,0.0324,0.013523,0.002678,0.000431,0.016689
14322000,0.0324,0.013523,0.002678,0.000431,0.015279
14323000,0.0324,0.013523,0.002678,0.000431,0.017159
14324000,0.0324,0.013523,0.002678,0.000431,0.016689
14325000,0.0324,0.013523,0.002678,0.000431,0.016924
14326000,0.0324,0.013523,0.002678,0.000431,0.016336
14327000,0.0324,0.013523,0.002678,0.000431,0.015279
14328000,0.0324,0.013523,0.002678,0.000431,0.017042
14329000,0.0324,0.013523,0.002678,0.000431,0.017042
14330000,0.0324,0.013523,0.002678,0.000431,0.016336
14331000,0.0324,0.013523,0.002678,0.000431,0.015866
14332000,0.0324,0.013523,0.002678,0.000431,0.017042
14333000,0.0324,0.013523,0.002678,0.000431,0.015749
14334000,0.0324,0.013523,0.002678,0.000431,0.016219
14335000,0.0324,0.013523,0.002678,0.000431,0.017159
14336000,0.0324,0.013523,0.002678,0.000431,0.016101
14337000,0.0324,0.013523,0.002678,0.000431,0.016219
14338000,0.0324,0.013523,0.002678,0.000431,0.015866
14339000,0.0324,0.013523,0.002678,0.000431,0.017042
14340000,0.0324,0.013523,0.002678,0.000431,0.017394
14341000,0.0324,0.013523,0.002678,0.000431,0.016219
14342000,0.0324,0.013523,0.002678,0.000431,0.016336
14343000,0.0324,0.013523,0.002678,0.000431,0.017277
14344000,0.0324,0.013523,0.002678,0.000431,0.016336
14345000,0.0324,0.013523,0.002678,0.000431,0.016807
14346000,0.0324,0.013523,0.002678,0.000431,0.015749
14347000,0.0324,0.013523,0.002678,0.000431,0.016571
14348000,0.0324,0.013523,0.002678,0.000431,0.017394
14349000,0.0324,0.013523,0.002678,0.000431,0.015866
14350000,0.0324,0.013523,0.002678,0.000431,0.016336
14351000,0.0324,0.013523,0.002678,0.000431,0.016807
14352000,0.0324,0.013523,0.002678,0.000431,0.015984
14353000,0.0324,0.013523,0.002678,0.000431,0.016689
14354000,0.0324,0.013523,0.002678,0.000431,0.016219
14355000,0.0324,0.013523,0.002678,0.000431,0.016219
14356000,0.0324,0.013523,0.002678,0.000431,0.016924
14357000,0.0324,0.013523,0.002678,0.000431,0.018099
14358000,0.0324,0.013523,0.002678,0.000431,0.015396
14359000,0.0324,0.013523,0.002678,0.000431,0.016924
14360000,0.0324,0.013523,0.002678,0.000431,0.017982
14361000,0.0324,0.013523,0.002678,0.000431,0.016454
14362000,0.0324,0.013523,0.002678,0.000431,0.016924
14363000,0.0324,0.013523,0.002678,0.000431,0.016219
14364000,0.0324,0.013523,0.002678,0.000431,0.017042
14365000,0.0324,0.013523,0.002678,0.000431,0.016689
14366000,0.0324,0.013523,0.002678,0.000431,0.017042
14367000,0.0324,0.013523,0.002678,0.000431,0.016689
14368000,0.0324,0.013523,0.002678,0.000431,0.016571
14369000,0.0324,0.013523,0.002678,0.000431,0.017159
14370000,0.0324,0.013523,0.002678,0.000431,0.015396
14371000,0.0324,0.013523,0.002678,0.000431,0.018452
14372000,0.0324,0.013523,0.002678,0.000431,0.015044
14373000,0.0324,0.013523,0.002678,0.000431,0.016336
14374000,0.0324,0.013523,0.002678,0.000431,0.015984
14375000,0.0324,0.013523,0.002678,0.000431,0.016219
14376000,0.0324,0.013523,0.002678,0.000431,0.017394
14377000,0.0324,0.013523,0.002678,0.000431,0.016219
14378000,0.0324,0.013523,0.002678,0.000431,0.015984
14379000,0.0324,0.013523,0.002678,0.000431,0.017864
14380000,0.0324,0.013523,0.002678,0.000431,0.016689
14381000,0.0324,0.013523,0.002678,0.000431,0.017394
14382000,0.0324,0.013523,0.002678,0.000431,0.017159
14383000,0.0324,0.013523,0.002678,0.000431,0.015396
14384000,0.0324,0.013523,0.002678,0.000431,0.016571
14385000,0.0324,0.013523,0.002678,0.000431,0.017277
14386000,0.0324,0.013523,0.002678,0.000431,0.015984
14387000,0.0324,0.013523,0.002678,0.000431,0.017747
14388000,0.0324,0.013523,0.002678,0.000431,0.016101
14389000,0.0324,0.013523,0.002678,0.000431,0.016219
14390000,0.0324,0.013523,0.002678,0.000431,0.017864
14391000,0.0324,0.013523,0.002678,0.000431,0.015749
14392000,0.0324,0.013523,0.002678,0.000431,0.017394
14393000,0.0324,0.013523,0.002678,0.000431,0.017042
14394000,0.0324,0.013523,0.002678,0.000431,0.015514
14395000,0.0324,0.013523,0.002678,0.000431,0.016571
14396000,0.0324,0.013523,0.002678,0.000431,0.017042
14397000,0.0324,0.013523,0.002678,0.000431,0.016101
14398000,0.0324,0.013523,0.002678,0.000431,0.015514
14399000,0.0324,0.013523,0.002678,0.000431,0.017512
14400000,0.0324,0.013523,0.002678,0.000431,0.016101
14401000,0.0324,0.013523,0.002678,0.000431,0.016336
14402000,0.0324,0.013523,0.002678,0.000431,0.016571
14403000,0.0324,0.013523,0.002678,0.000431,0.015631
14404000,0.0324,0.013523,0.002678,0.000431,0.017747
14405000,0.0324,0.013523,0.002678,0.000431,0.015631
14406000,0.0324,0.013523,0.002678,0.000431,0.017394
14407000,0.0324,0.013523,0.002678,0.000431,0.017394
14408000,0.0324,0.013523,0.002678,0.000431,0.014926
14409000,0.0324,0.013523,0.002678,0.000431,0.015514
14410000,0.0324,0.013523,0.002678,0.000431,0.018217
14411000,0.0324,0.013523,0.002678,0.000431,0.017277
14412000,0.0324,0.013523,0.002678,0.000431,0.016219
14413000,0.0324,0.013523,0.002678,0.000431,0.017042
14414000,0.0324,0.013523,0.002678,0.000431,0.015984
14415000,0.0324,0.013523,0.002678,0.000431,0.017394
14416000,0.0324,0.013523,0.002678,0.000431,0.017864
14417000,0.0324,0.013523,0.002678,0.000431,0.015866
14418000,0.0324,0.013523,0.002678,0.000431,0.015984
14419000,0.0324,0.013523,0.002678,0.000431,0.016807
14420000,0.0324,0.013523,0.002678,0.000431,0.016219
14421000,0.0324,0.013523,0.002678,0.000431,0.017629
14422000,0.0324,0.013523,0.002678,0.000431,0.016571
14423000,0.0324,0.013523,0.002678,0.000431,0.014573
14424000,0.0324,0.013523,0.002678,0.000431,0.015514
14425000,0.0324,0.013523,0.002678,0.000431,0.015984
14426000,0.0324,0.013523,0.002678,0.000431,0.016571
14427000,0.0324,0.013523,0.002678,0.000431,0.016454
14428000,0.0324,0.013523,0.002678,0.000431,0.015161
14429000,0.0324,0.013523,0.002678,0.000431,0.016336
14430000,0.0324,0.013523,0.002678,0.000431,0.015631
14431000,0.0324,0.013523,0.002678,0.000431,0.017042
14432000,0.0324,0.013523,0.002678,0.000431,0.017629
14433000,0.0324,0.013523,0.002678,0.000431,0.016101
14434000,0.0324,0.013523,0.002678,0.000431,0.015866
14435000,0.0324,0.013523,0.002678,0.000431,0.016336
14436000,0.0324,0.013523,0.002678,0.000431,0.017042
14437000,0.0324,0.013523,0.002678,0.000431,0.015749
14438000,0.0324,0.013523,0.002678,0.000431,0.017747
14439000,0.0324,0.013523,0.002678,0.000431,0.016807
14440000,0.0324,0.013523,0.002678,0.000431,0.017277
14441000,0.0324,0.013523,0.002678,0.000431,0.016571
14442000,0.0324,0.013523,0.002678,0.000431,0.016454
14443000,0.0324,0.013523,0.002678,0.000431,0.016101
14444000,0.0324,0.013523,0.002678,0.000431,0.018217
14445000,0.0324,0.013523,0.002678,0.000431,0.015984
14446000,0.0324,0.013523,0.002678,0.000431,0.016101
14447000,0.0324,0.013523,0.002678,0.000431,0.016454
14448000,0.0324,0.013523,0.002678,0.000431,0.016101
14449000,0.0324,0.013523,0.002678,0.000431,0.016807
14450000,0.0324,0.013523,0.002678,0.000431,0.015866
14451000,0.0324,0.013523,0.002678,0.000431,0.017277
14452000,0.0324,0.013523,0.002678,0.000431,0.016571
14453000,0.0324,0.013523,0.002678,0.000431,0.014338
14454000,0.0324,0.013523,0.002678,0.000431,0.015984
14455000,0.0324,0.013523,0.002678,0.000431,0.017042
14456000,0.0324,0.013523,0.002678,0.000431,0.015044
14457000,0.0324,0.013523,0.002678,0.000431,0.017277
14458000,0.0324,0.013523,0.002678,0.000431,0.016807
14459000,0.0324,0.013523,0.002678,0.000431,0.016101
14460000,0.0324,0.013523,0.002678,0.000431,0.017277
14461000,0.0324,0.013523,0.002678,0.000431,0.015279
14462000,0.0324,0.013523,0.002678,0.000431,0.016219
14463000,0.0324,0.013523,0.002678,0.000431,0.016807
14464000,0.0324,0.013523,0.002678,0.000431,0.016924
14465000,0.0324,0.013523,0.002678,0.000431,0.015749
14466000,0.0324,0.013523,0.002678,0.000431,0.016571
14467000,0.0324,0.013523,0.002678,0.000431,0.017394
14468000,0.0324,0.013523,0.002678,0.000431,0.015161
14469000,0.0324,0.013523,0.002678,0.000431,0.018687
14470000,0.0324,0.013523,0.002678,0.000431,0.016807
14471000,0.0324,0.013523,0.002678,0.000431,0.016454
14472000,0.0324,0.013523,0.002678,0.000431,0.016219
14473000,0.0324,0.013523,0.002678,0.000431,0.016101
14474000,0.0324,0.013523,0.002678,0.000431,0.016807
14475000,0.0324,0.013523,0.002678,0.000431,0.018569
14476000,0.0324,0.013523,0.002678,0.000431,0.015866
14477000,0.0324,0.013523,0.002678,0.000431,0.015984
14478000,0.0324,0.013523,0.002678,0.000431,0.015984
14479000,0.0324,0.013523,0.002678,0.000431,0.015514
14480000,0.0324,0.013523,0.002678,0.000431,0.016336
14481000,0.0324,0.013523,0.002678,0.000431,0.016689
14482000,0.0324,0.013523,0.002678,0.000431,0.015749
14483000,0.0324,0.013523,0.002678,0.000431,0.018217
14484000,0.0324,0.013523,0.002678,0.000431,0.015984
14485000,0.0324,0.013523,0.002678,0.000431,0.015396
14486000,0.0324,0.013523,0.002678,0.000431,0.015514
14487000,0.0324,0.013523,0.002678,0.000431,0.016219
14488000,0.0324,0.013523,0.002678,0.000431,0.016219
14489000,0.0324,0.013523,0.002678,0.000431,0.016924
14490000,0.0324,0.013523,0.002678,0.000431,0.016454
14491000,0.0324,0.013523,0.002678,0.000431,0.016454
14492000,0.0324,0.013523,0.002678,0.000431,0.017394
14493000,0.0324,0.013523,0.002678,0.000431,0.017042
14494000,0.0324,0.013523,0.002678,0.000431,0.017159
14495000,0.0324,0.013523,0.002678,0.000431,0.015631
14496000,0.0324,0.013523,0.002678,0.000431,0.016101
14497000,0.0324,0.013523,0.002678,0.000431,0.016101
14498000,0.0324,0.013523,0.002678,0.000431,0.016219
14499000,0.0324,0.013523,0.002678,0.000431,0.016807
14500000,0.0324,0.013523,0.002678,0.000431,0.018452
14501000,0.0324,0.013523,0.002678,0.000431,0.016454
14502000,0.0324,0.013523,0.002678,0.000431,0.015044
14503000,0.0324,0.013523,0.002678,0.000431,0.015749
14504000,0.0324,0.013523,0.002678,0.000431,0.014926
14505000,0.0324,0.013523,0.002678,0.000431,0.017159
14506000,0.0324,0.013523,0.002678,0.000431,0.016807
14507000,0.0324,0.013523,0.002678,0.000431,0.016336
14508000,0.0324,0.013523,0.002678,0.000431,0.017394
14509000,0.0324,0.013523,0.002678,0.000431,0.016454
14510000,0.0324,0.013523,0.002678,0.000431,0.016807
14511000,0.0324,0.013523,0.002678,0.000431,0.017159
14512000,0.0324,0.013523,0.002678,0.000431,0.017159
14513000,0.0324,0.013523,0.002678,0.000431,0.017042
14514000,0.0324,0.013523,0.002678,0.000431,0.016219
14515000,0.0324,0.013523,0.002678,0.000431,0.017159
14516000,0.0324,0.013523,0.002678,0.000431,0.015631
14517000,0.0324,0.013523,0.002678,0.000431,0.017629
14518000,0.0324,0.013523,0.002678,0.000431,0.015514
14519000,0.0324,0.013523,0.002678,0.000431,0.015984
14520000,0.0324,0.013523,0.002678,0.000431,0.017394
14521000,0.0324,0.013523,0.002678,0.000431,0.015161
14522000,0.0324,0.013523,0.002678,0.000431,0.016807
14523000,0.0324,0.013523,0.002678,0.000431,0.018099
14524000,0.0324,0.013523,0.002678,0.000431,0.016101
14525000,0.0324,0.013523,0.002678,0.000431,0.015396
14526000,0.0324,0.013523,0.002678,0.000431,0.016454
14527000,0.0324,0.013523,0.002678,0.000431,0.017159
14528000,0.0324,0.013523,0.002678,0.000431,0.015279
14529000,0.0324,0.013523,0.002678,0.000431,0.017512
14530000,0.0324,0.013523,0.002678,0.000431,0.015396
14531000,0.0324,0.013523,0.002678,0.000431,0.015984
14532000,0.0324,0.013523,0.002678,0.000431,0.016924
14533000,0.0324,0.013523,0.002678,0.000431,0.016454
14534000,0.0324,0.013523,0.002678,0.000431,0.016336
14535000,0.0324,0.013523,0.002678,0.000431,0.017629
14536000,0.0324,0.013523,0.002678,0.000431,0.016454
14537000,0.0324,0.013523,0.002678,0.000431,0.014691
14538000,0.0324,0.013523,0.002678,0.000431,0.017394
14539000,0.0324,0.013523,0.002678,0.000431,0.016924
14540000,0.0324,0.013523,0.002678,0.000431,0.017042
14541000,0.0324,0.013523,0.002678,0.000431,0.016689
14542000,0.0324,0.013523,0.002678,0.000431,0.016454
14543000,0.0324,0.013523,0.002678,0.000431,0.015161
14544000,0.0324,0.013523,0.002678,0.000431,0.016689
14545000,0.0324,0.013523,0.002678,0.000431,0.016689
14546000,0.0324,0.013523,0.002678,0.000431,0.016336
14547000,0.0324,0.013523,0.002678,0.000431,0.016219
14548000,0.0324,0.013523,0.002678,0.000431,0.017277
14549000,0.0324,0.013523,0.002678,0.000431,0.016689
14550000,0.0324,0.013523,0.002678,0.000431,0.016454
14551000,0.0324,0.013523,0.002678,0.000431,0.017277
14552000,0.0324,0.013523,0.002678,0.000431,0.015279
14553000,0.0324,0.013523,0.002678,0.000431,0.017277
14554000,0.0324,0.013523,0.002678,0.000431,0.016101
14555000,0.0324,0.013523,0.002678,0.000431,0.017277
14556000,0.0324,0.013523,0.002678,0.000431,0.017982
14557000,0.0324,0.013523,0.002678,0.000431,0.015631
14558000,0.0324,0.013523,0.002678,0.000431,0.016454
14559000,0.0324,0.013523,0.002678,0.000431,0.016454
14560000,0.0324,0.013523,0.002678,0.000431,0.016807
14561000,0.0324,0.013523,0.002678,0.000431,0.017042
14562000,0.0324,0.013523,0.002678,0.000431,0.016219
14563000,0.0324,0.013523,0.002678,0.000431,0.016454
14564000,0.0324,0.013523,0.002678,0.000431,0.016689
14565000,0.0324,0.013523,0.002678,0.000431,0.016101
14566000,0.0324,0.013523,0.002678,0.000431,0.018217
14567000,0.0324,0.013523,0.002678,0.000431,0.017042
14568000,0.0324,0.013523,0.002678,0.000431,0.015631
14569000,0.0324,0.013523,0.002678,0.000431,0.015514
14570000,0.0324,0.013523,0.002678,0.000431,0.017042
14571000,0.0324,0.013523,0.002678,0.000431,0.016807
14572000,0.0324,0.013523,0.002678,0.000431,0.015279
14573000,0.0324,0.013523,0.002678,0.000431,0.016336
14574000,0.0324,0.013523,0.002678,0.000431,0.016807
14575000,0.0324,0.013523,0.002678,0.000431,0.015866
14576000,0.0324,0.013523,0.002678,0.000431,0.017982
14577000,0.0324,0.013523,0.002678,0.000431,0.017394
14578000,0.0324,0.013523,0.002678,0.000431,0.015749
14579000,0.0324,0.013523,0.002678,0.000431,0.017394
14580000,0.0324,0.013523,0.002678,0.000431,0.016571
14581000,0.0324,0.013523,0.002678,0.000431,0.016454
14582000,0.0324,0.013523,0.002678,0.000431,0.018217
14583000,0.0324,0.013523,0.002678,0.000431,0.016689
14584000,0.0324,0.013523,0.002678,0.000431,0.014809
14585000,0.0324,0.013523,0.002678,0.000431,0.016101
14586000,0.0324,0.013523,0.002678,0.000431,0.017277
14587000,0.0324,0.013523,0.002678,0.000431,0.014809
14588000,0.0324,0.013523,0.002678,0.000431,0.015866
14589000,0.0324,0.013523,0.002678,0.000431,0.016101
14590000,0.0324,0.013523,0.002678,0.000431,0.015279
14591000,0.0324,0.013523,0.002678,0.000431,0.015396
14592000,0.0324,0.013523,0.002678,0.000431,0.015984
14593000,0.0324,0.013523,0.002678,0.000431,0.014691
14594000,0.0324,0.013523,0.002678,0.000431,0.016807
14595000,0.0324,0.013523,0.002678,0.000431,0.015866
14596000,0.0324,0.013523,0.002678,0.000431,0.016336
14597000,0.0324,0.013523,0.002678,0.000431,0.015514
14598000,0.0324,0.013523,0.002678,0.000431,0.015044
14599000,0.0324,0.013523,0.002678,0.000431,0.015631
14600000,0.0324,0.013523,0.002678,0.000431,0.016101
14601000,0.0324,0.013523,0.002678,0.000431,0.015161
14602000,0.0324,0.013523,0.002678,0.000431,0.015749
14603000,0.0324,0.013523,0.002678,0.000431,0.015631
14604000,0.0324,0.013523,0.002678,0.000431,0.014221
14605000,0.0324,0.013523,0.002678,0.000431,0.016807
14606000,0.0324,0.013523,0.002678,0.000431,0.015866
14607000,0.0324,0.013523,0.002678,0.000431,0.015631
14608000,0.0324,0.013523,0.002678,0.000431,0.016219
14609000,0.0324,0.013523,0.002678,0.000431,0.014926
14610000,0.0324,0.013523,0.002678,0.000431,0.016219
14611000,0.0324,0.013523,0.002678,0.000431,0.017277
14612000,0.0324,0.013523,0.002678,0.000431,0.016336
14613000,0.0324,0.013523,0.002678,0.000431,0.017042
14614000,0.0324,0.013523,0.002678,0.000431,0.016101
14615000,0.0324,0.013523,0.002678,0.000431,0.015396
14616000,0.0324,0.013523,0.002678,0.000431,0.015396
14617000,0.0324,0.013523,0.002678,0.000431,0.015161
14618000,0.0324,0.013523,0.002678,0.000431,0.015396
14619000,0.0324,0.013523,0.002678,0.000431,0.017277
14620000,0.0324,0.013523,0.002678,0.000431,0.014456
14621000,0.0324,0.013523,0.002678,0.000431,0.015514
14622000,0.0324,0.013523,0.002678,0.000431,0.016807
14623000,0.0324,0.013523,0.002678,0.000431,0.015866
14624000,0.0324,0.013523,0.002678,0.000431,0.015749
14625000,0.0324,0.013523,0.002678,0.000431,0.016101
14626000,0.0324,0.013523,0.002678,0.000431,0.014573
14627000,0.0324,0.013523,0.002678,0.000431,0.014926
14628000,0.0324,0.013523,0.002678,0.000431,0.016336
14629000,0.0324,0.013523,0.002678,0.000431,0.015866
14630000,0.0324,0.013523,0.002678,0.000431,0.016571
14631000,0.0324,0.013523,0.002678,0.000431,0.017277
14632000,0.0324,0.013523,0.002678,0.000431,0.015749
14633000,0.0324,0.013523,0.002678,0.000431,0.016336
14634000,0.0324,0.013523,0.002678,0.000431,0.015396
14635000,0.0324,0.013523,0.002678,0.000431,0.015161
14636000,0.0324,0.013523,0.002678,0.000431,0.016454
14637000,0.0324,0.013523,0.002678,0.000431,0.015161
14638000,0.0324,0.013523,0.002678,0.000431,0.017277
14639000,0.0324,0.013523,0.002678,0.000431,0.016689
14640000,0.0324,0.013523,0.002678,0.000431,0.014456
14641000,0.0324,0.013523,0.002678,0.000431,0.016924
14642000,0.0324,0.013523,0.002678,0.000431,0.015749
14643000,0.0324,0.013523,0.002678,0.000431,0.016807
14644000,0.0324,0.013523,0.002678,0.000431,0.015279
14645000,0.0324,0.013523,0.002678,0.000431,0.016219
14646000,0.0324,0.013523,0.002678,0.000431,0.016101
14647000,0.0324,0.013523,0.002678,0.000431,0.015984
14648000,0.0324,0.013523,0.002678,0.000431,0.015749
14649000,0.0324,0.013523,0.002678,0.000431,0.014691
14650000,0.0324,0.013523,0.002678,0.000431,0.016219
14651000,0.0324,0.013523,0.002678,0.000431,0.016807
14652000,0.0324,0.013523,0.002678,0.000431,0.015631
14653000,0.0324,0.013523,0.002678,0.000431,0.017394
14654000,0.0324,0.013523,0.002678,0.000431,0.016807
14655000,0.0324,0.013523,0.002678,0.000431,0.015631
14656000,0.0324,0.013523,0.002678,0.000431,0.015749
14657000,0.0324,0.013523,0.002678,0.000431,0.015749
14658000,0.0324,0.013523,0.002678,0.000431,0.017042
14659000,0.0324,0.013523,0.002678,0.000431,0.015866
14660000,0.0324,0.013523,0.002678,0.000431,0.016807
14661000,0.0324,0.013523,0.002678,0.000431,0.016454
14662000,0.0324,0.013523,0.002678,0.000431,0.015044
14663000,0.0324,0.013523,0.002678,0.000431,0.016336
14664000,0.0324,0.013523,0.002678,0.000431,0.017042
14665000,0.0324,0.013523,0.002678,0.000431,0.014691
14666000,0.0324,0.013523,0.002678,0.000431,0.015161
14667000,0.0324,0.013523,0.002678,0.000431,0.015631
14668000,0.0324,0.013523,0.002678,0.000431,0.015749
14669000,0.0324,0.013523,0.002678,0.000431,0.015044
14670000,0.0324,0.013523,0.002678,0.000431,0.016807
14671000,0.0324,0.013523,0.002678,0.000431,0.015631
14672000,0.0324,0.013523,0.002678,0.000431,0.017277
14673000,0.0324,0.013523,0.002678,0.000431,0.014926
14674000,0.0324,0.013523,0.002678,0.000431,0.015984
14675000,0.0324,0.013523,0.002678,0.000431,0.015866
14676000,0.0324,0.013523,0.002678,0.000431,0.015514
14677000,0.0324,0.013523,0.002678,0.000431,0.015396
14678000,0.0324,0.013523,0.002678,0.000431,0.015749
14679000,0.0324,0.013523,0.002678,0.000431,0.014691
14680000,0.0324,0.013523,0.002678,0.000431,0.015631
14681000,0.0324,0.013523,0.002678,0.000431,0.015984
14682000,0.0324,0.013523,0.002678,0.000431,0.015749
14683000,0.0324,0.013523,0.002678,0.000431,0.014103
14684000,0.0324,0.013523,0.002678,0.000431,0.016219
14685000,0.0324,0.013523,0.002678,0.000431,0.016571
14686000,0.0324,0.013523,0.002678,0.000431,0.015749
14687000,0.0324,0.013523,0.002678,0.000431,0.015279
14688000,0.0324,0.013523,0.002678,0.000431,0.015514
14689000,0.0324,0.013523,0.002678,0.000431,0.014573
14690000,0.0324,0.013523,0.002678,0.000431,0.015866
14691000,0.0324,0.013523,0.002678,0.000431,0.015984
14692000,0.0324,0.013523,0.002678,0.000431,0.015161
14693000,0.0324,0.013523,0.002678,0.000431,0.015514
14694000,0.0324,0.013523,0.002678,0.000431,0.015161
14695000,0.0324,0.013523,0.002678,0.000431,0.014573
14696000,0.0324,0.013523,0.002678,0.000431,0.015279
14697000,0.0324,0.013523,0.002678,0.000431,0.015749
14698000,0.0324,0.013523,0.002678,0.000431,0.015749
14699000,0.0324,0.013523,0.002678,0.000431,0.017747
14700000,0.0324,0.013523,0.002678,0.000431,0.015161
14701000,0.0324,0.013523,0.002678,0.000431,0.015279
14702000,0.0324,0.013523,0.002678,0.000431,0.016454
14703000,0.0324,0.013523,0.002678,0.000431,0.014691
14704000,0.0324,0.013523,0.002678,0.000431,0.015044
14705000,0.0324,0.013523,0.002678,0.000431,0.016807
14706000,0.0324,0.013523,0.002678,0.000431,0.014573
14707000,0.0324,0.013523,0.002678,0.000431,0.015279
14708000,0.0324,0.013523,0.002678,0.000431,0.015984
14709000,0.0324,0.013523,0.002678,0.000431,0.014926
14710000,0.0324,0.013523,0.002678,0.000431,0.015514
14711000,0.0324,0.013523,0.002678,0.000431,0.016571
14712000,0.0324,0.013523,0.002678,0.000431,0.014103
14713000,0.0324,0.013523,0.002678,0.000431,0.014926
14714000,0.0324,0.013523,0.002678,0.000431,0.015396
14715000,0.0324,0.013523,0.002678,0.000431,0.015161
14716000,0.0324,0.013523,0.002678,0.000431,0.016101
14717000,0.0324,0.013523,0.002678,0.000431,0.015514
14718000,0.0324,0.013523,0.002678,0.000431,0.015984
14719000,0.0324,0.013523,0.002678,0.000431,0.014573
14720000,0.0324,0.013523,0.002678,0.000431,0.015866
14721000,0.0324,0.013523,0.002678,0.000431,0.014573
14722000,0.0324,0.013523,0.002678,0.000431,0.013751
14723000,0.0324,0.013523,0.002678,0.000431,0.013633
14724000,0.0324,0.013523,0.002678,0.000431,0.014926
14725000,0.0324,0.013523,0.002678,0.000431,0.014691
14726000,0.0324,0.013523,0.002678,0.000431,0.014691
14727000,0.0324,0.013523,0.002678,0.000431,0.014573
14728000,0.0324,0.013523,0.002678,0.000431,0.013986
14729000,0.0324,0.013523,0.002678,0.000431,0.014691
14730000,0.0324,0.013523,0.002678,0.000431,0.015044
14731000,0.0324,0.013523,0.002678,0.000431,0.014926
14732000,0.0324,0.013523,0.002678,0.000431,0.015514
14733000,0.0324,0.013523,0.002678,0.000431,0.015984
14734000,0.0324,0.013523,0.002678,0.000431,0.014338
14735000,0.0324,0.013523,0.002678,0.000431,0.015279
14736000,0.0324,0.013523,0.002678,0.000431,0.015514
14737000,0.0324,0.013523,0.002678,0.000431,0.015279
14738000,0.0324,0.013523,0.002678,0.000431,0.014691
14739000,0.0324,0.013523,0.002678,0.000431,0.015866
14740000,0.0324,0.013523,0.002678,0.000431,0.015866
14741000,0.0324,0.013523,0.002678,0.000431,0.016454
14742000,0.0324,0.013523,0.002678,0.000431,0.014926
14743000,0.0324,0.013523,0.002678,0.000431,0.015161
14744000,0.0324,0.013523,0.002678,0.000431,0.015631
14745000,0.0324,0.013523,0.002678,0.000431,0.015279
14746000,0.0324,0.013523,0.002678,0.000431,0.015631
14747000,0.0324,0.013523,0.002678,0.000431,0.014221
14748000,0.0324,0.013523,0.002678,0.000431,0.013986
14749000,0.0324,0.013523,0.002678,0.000431,0.017394
14750000,0.0324,0.013523,0.002678,0.000431,0.014573
14751000,0.0324,0.013523,0.002678,0.000431,0.015631
14752000,0.0324,0.013523,0.002678,0.000431,0.016454
14753000,0.0324,0.013523,0.002678,0.000431,0.015279
14754000,0.0324,0.013523,0.002678,0.000431,0.014103
14755000,0.0324,0.013523,0.002678,0.000431,0.015514
14756000,0.0324,0.013523,0.002678,0.000431,0.015279
14757000,0.0324,0.013523,0.002678,0.000431,0.013986
14758000,0.0324,0.013523,0.002678,0.000431,0.015396
14759000,0.0324,0.013523,0.002678,0.000431,0.014691
14760000,0.0324,0.013523,0.002678,0.000431,0.014691
14761000,0.0324,0.013523,0.002678,0.000431,0.016336
14762000,0.0324,0.013523,0.002678,0.000431,0.015044
14763000,0.0324,0.013523,0.002678,0.000431,0.014926
14764000,0.0324,0.013523,0.002678,0.000431,0.016689
14765000,0.0324,0.013523,0.002678,0.000431,0.014338
14766000,0.0324,0.013523,0.002678,0.000431,0.014691
14767000,0.0324,0.013523,0.002678,0.000431,0.016101
14768000,0.0324,0.013523,0.002678,0.000431,0.015161
14769000,0.0324,0.013523,0.002678,0.000431,0.014809
14770000,0.0324,0.013523,0.002678,0.000431,0.013398
14771000,0.0324,0.013523,0.002678,0.000431,0.015044
14772000,0.0324,0.013523,0.002678,0.000431,0.015984
14773000,0.0324,0.013523,0.002678,0.000431,0.015514
14774000,0.0324,0.013523,0.002678,0.000431,0.015514
14775000,0.0324,0.013523,0.002678,0.000431,0.014573
14776000,0.0324,0.013523,0.002678,0.000431,0.015044
14777000,0.0324,0.013523,0.002678,0.000431,0.014926
14778000,0.0324,0.013523,0.002678,0.000431,0.014691
14779000,0.0324,0.013523,0.002678,0.000431,0.015866
14780000,0.0324,0.013523,0.002678,0.000431,0.014926
14781000,0.0324,0.013523,0.002678,0.000431,0.016454
14782000,0.0324,0.013523,0.002678,0.000431,0.015044
14783000,0.0324,0.013523,0.002678,0.000431,0.015749
14784000,0.0324,0.013523,0.002678,0.000431,0.015044
14785000,0.0324,0.013523,0.002678,0.000431,0.014691
14786000,0.0324,0.013523,0.002678,0.000431,0.014691
14787000,0.0324,0.013523,0.002678,0.000431,0.014926
14788000,0.0324,0.013523,0.002678,0.000431,0.016336
14789000,0.0324,0.013523,0.002678,0.000431,0.015396
14790000,0.0324,0.013523,0.002678,0.000431,0.014809
14791000,0.0324,0.013523,0.002678,0.000431,0.015631
14792000,0.0324,0.013523,0.002678,0.000431,0.015514
14793000,0.0324,0.013523,0.002678,0.000431,0.014221
14794000,0.0324,0.013523,0.002678,0.000431,0.014809
14795000,0.0324,0.013523,0.002678,0.000431,0.015514
14796000,0.0324,0.013523,0.002678,0.000431,0.015161
14797000,0.0324,0.013523,0.002678,0.000431,0.015631
14798000,0.0324,0.013523,0.002678,0.000431,0.015044
14799000,0.0324,0.013523,0.002678,0.000431,0.015279
14800000,0.0324,0.013523,0.002678,0.000431,0.014573
14801000,0.0324,0.013523,0.002678,0.000431,0.014338
14802000,0.0324,0.013523,0.002678,0.000431,0.014573
14803000,0.0324,0.013523,0.002678,0.000431,0.014573
14804000,0.0324,0.013523,0.002678,0.000431,0.014926
14805000,0.0324,0.013523,0.002678,0.000431,0.013868
14806000,0.0324,0.013523,0.002678,0.000431,0.015749
14807000,0.0324,0.013523,0.002678,0.000431,0.014456
14808000,0.0324,0.013523,0.002678,0.000431,0.015161
14809000,0.0324,0.013523,0.002678,0.000431,0.015749
14810000,0.0324,0.013523,0.002678,0.000431,0.015161
14811000,0.0324,0.013523,0.002678,0.000431,0.014456
14812000,0.0324,0.013523,0.002678,0.000431,0.016101
14813000,0.0324,0.013523,0.002678,0.000431,0.015279
14814000,0.0324,0.013523,0.002678,0.000431,0.014926
14815000,0.0324,0.013523,0.002678,0.000431,0.015984
14816000,0.0324,0.013523,0.002678,0.000431,0.014456
14817000,0.0324,0.013523,0.002678,0.000431,0.015514
14818000,0.0324,0.013523,0.002678,0.000431,0.014809
14819000,0.0324,0.013523,0.002678,0.000431,0.013986
14820000,0.0324,0.013523,0.002678,0.000431,0.015396
14821000,0.0324,0.013523,0.002678,0.000431,0.015161
14822000,0.0324,0.013523,0.002678,0.000431,0.014809
14823000,0.0324,0.013523,0.002678,0.000431,0.014809
14824000,0.0324,0.013523,0.002678,0.000431,0.013633
14825000,0.0324,0.013523,0.002678,0.000431,0.014809
14826000,0.0324,0.013523,0.002678,0.000431,0.016924
14827000,0.0324,0.013523,0.002678,0.000431,0.014573
14828000,0.0324,0.013523,0.002678,0.000431,0.015044
14829000,0.0324,0.013523,0.002678,0.000431,0.014573
14830000,0.0324,0.013523,0.002678,0.000431,0.014809
14831000,0.0324,0.013523,0.002678,0.000431,0.016219
14832000,0.0324,0.013523,0.002678,0.000431,0.015984
14833000,0.0324,0.013523,0.002678,0.000431,0.015866
14834000,0.0324,0.013523,0.002678,0.000431,0.013986
14835000,0.0324,0.013523,0.002678,0.000431,0.015161
14836000,0.0324,0.013523,0.002678,0.000431,0.015396
14837000,0.0324,0.013523,0.002678,0.000431,0.014456
14838000,0.0324,0.013523,0.002678,0.000431,0.016924
14839000,0.0324,0.013523,0.002678,0.000431,0.016336
14840000,0.0324,0.013523,0.002678,0.000431,0.013751
14841000,0.0324,0.013523,0.002678,0.000431,0.014691
14842000,0.0324,0.013523,0.002678,0.000431,0.014573
14843000,0.0324,0.013523,0.002678,0.000431,0.015514
14844000,0.0324,0.013523,0.002678,0.000431,0.015279
14845000,0.0324,0.013523,0.002678,0.000431,0.016689
14846000,0.0324,0.013523,0.002678,0.000431,0.015279
14847000,0.0324,0.013523,0.002678,0.000431,0.015749
14848000,0.0324,0.013523,0.002678,0.000431,0.014338
14849000,0.0324,0.013523,0.002678,0.000431,0.015631
14850000,0.0324,0.013523,0.002678,0.000431,0.015866
14851000,0.0324,0.013523,0.002678,0.000431,0.017042
14852000,0.0324,0.013523,0.002678,0.000431,0.013398
14853000,0.0324,0.013523,0.002678,0.000431,0.015279
14854000,0.0324,0.013523,0.002678,0.000431,0.014926
14855000,0.0324,0.013523,0.002678,0.000431,0.014338
14856000,0.0324,0.013523,0.002678,0.000431,0.014691
14857000,0.0324,0.013523,0.002678,0.000431,0.015161
14858000,0.0324,0.013523,0.002678,0.000431,0.014691
14859000,0.0324,0.013523,0.002678,0.000431,0.013986
14860000,0.0324,0.013523,0.002678,0.000431,0.015631
14861000,0.0324,0.013523,0.002678,0.000431,0.014456
14862000,0.0324,0.013523,0.002678,0.000431,0.015279
14863000,0.0324,0.013523,0.002678,0.000431,0.015161
14864000,0.0324,0.013523,0.002678,0.000431,0.014573
14865000,0.0324,0.013523,0.002678,0.000431,0.014573
14866000,0.0324,0.013523,0.002678,0.000431,0.014103
14867000,0.0324,0.013523,0.002678,0.000431,0.014809
14868000,0.0324,0.013523,0.002678,0.000431,0.015866
14869000,0.0324,0.013523,0.002678,0.000431,0.014573
14870000,0.0324,0.013523,0.002678,0.000431,0.014573
14871000,0.0324,0.013523,0.002678,0.000431,0.015749
14872000,0.0324,0.013523,0.002678,0.000431,0.015866
14873000,0.0324,0.013523,0.002678,0.000431,0.014691
14874000,0.0324,0.013523,0.002678,0.000431,0.015396
14875000,0.0324,0.013523,0.002678,0.000431,0.014926
14876000,0.0324,0.013523,0.002678,0.000431,0.015161
14877000,0.0324,0.013523,0.002678,0.000431,0.014221
14878000,0.0324,0.013523,0.002678,0.000431,0.015396
14879000,0.0324,0.013523,0.002678,0.000431,0.015396
14880000,0.0324,0.013523,0.002678,0.000431,0.015279
14881000,0.0324,0.013523,0.002678,0.000431,0.016101
14882000,0.0324,0.013523,0.002678,0.000431,0.014926
14883000,0.0324,0.013523,0.002678,0.000431,0.014926
14884000,0.0324,0.013523,0.002678,0.000431,0.014456
14885000,0.0324,0.013523,0.002678,0.000431,0.014809
14886000,0.0324,0.013523,0.002678,0.000431,0.015631
14887000,0.0324,0.013523,0.002678,0.000431,0.015631
14888000,0.0324,0.013523,0.002678,0.000431,0.015514
14889000,0.0324,0.013523,0.002678,0.000431,0.015044
14890000,0.0324,0.013523,0.002678,0.000431,0.014338
14891000,0.0324,0.013523,0.002678,0.000431,0.015749
14892000,0.0324,0.013523,0.002678,0.000431,0.013751
14893000,0.0324,0.013523,0.002678,0.000431,0.015984
14894000,0.0324,0.013523,0.002678,0.000431,0.014338
14895000,0.0324,0.013523,0.002678,0.000431,0.013751
14896000,0.0324,0.013523,0.002678,0.000431,0.014926
14897000,0.0324,0.013523,0.002678,0.000431,0.014926
14898000,0.0324,0.013523,0.002678,0.000431,0.015396
14899000,0.0324,0.013523,0.002678,0.000431,0.016336
14900000,0.0324,0.013523,0.002678,0.000431,0.014456
14901000,0.0324,0.013523,0.002678,0.000431,0.015044
14902000,0.0324,0.013523,0.002678,0.000431,0.014456
14903000,0.0324,0.013523,0.002678,0.000431,0.014221
14904000,0.0324,0.013523,0.002678,0.000431,0.016689
14905000,0.0324,0.013523,0.002678,0.000431,0.014809
14906000,0.0324,0.013523,0.002678,0.000431,0.015749
14907000,0.0324,0.013523,0.002678,0.000431,0.014809
14908000,0.0324,0.013523,0.002678,0.000431,0.015396
14909000,0.0324,0.013523,0.002678,0.000431,0.013986
14910000,0.0324,0.013523,0.002678,0.000431,0.015749
14911000,0.0324,0.013523,0.002678,0.000431,0.015279
14912000,0.0324,0.013523,0.002678,0.000431,0.014809
14913000,0.0324,0.013523,0.002678,0.000431,0.015984
14914000,0.0324,0.013523,0.002678,0.000431,0.015514
14915000,0.0324,0.013523,0.002678,0.000431,0.014809
14916000,0.0324,0.013523,0.002678,0.000431,0.015631
14917000,0.0324,0.013523,0.002678,0.000431,0.014809
14918000,0.0324,0.013523,0.002678,0.000431,0.014456
14919000,0.0324,0.013523,0.002678,0.000431,0.014573
14920000,0.0324,0.013523,0.002678,0.000431,0.015161
14921000,0.0324,0.013523,0.002678,0.000431,0.014809
14922000,0.0324,0.013523,0.002678,0.000431,0.016689
14923000,0.0324,0.013523,0.002678,0.000431,0.015984
14924000,0.0324,0.013523,0.002678,0.000431,0.015279
14925000,0.0324,0.013523,0.002678,0.000431,0.015044
14926000,0.0324,0.013523,0.002678,0.000431,0.015044
14927000,0.0324,0.013523,0.002678,0.000431,0.014221
14928000,0.0324,0.013523,0.002678,0.000431,0.015161
14929000,0.0324,0.013523,0.002678,0.000431,0.015749
14930000,0.0324,0.013523,0.002678,0.000431,0.013281
14931000,0.0324,0.013523,0.002678,0.000431,0.014338
14932000,0.0324,0.013523,0.002678,0.000431,0.015044
14933000,0.0324,0.013523,0.002678,0.000431,0.014691
14934000,0.0324,0.013523,0.002678,0.000431,0.017042
14935000,0.0324,0.013523,0.002678,0.000431,0.014103
14936000,0.0324,0.013523,0.002678,0.000431,0.013751
14937000,0.0324,0.013523,0.002678,0.000431,0.015514
14938000,0.0324,0.013523,0.002678,0.000431,0.014573
14939000,0.0324,0.013523,0.002678,0.000431,0.014691
14940000,0.0324,0.013523,0.002678,0.000431,0.015396
14941000,0.0324,0.013523,0.002678,0.000431,0.015161
14942000,0.0324,0.013523,0.002678,0.000431,0.013986
14943000,0.0324,0.013523,0.002678,0.000431,0.017512
14944000,0.0324,0.013523,0.002678,0.000431,0.013046
14945000,0.0324,0.013523,0.002678,0.000431,0.015514
14946000,0.0324,0.013523,0.002678,0.000431,0.015749
14947000,0.0324,0.013523,0.002678,0.000431,0.015514
14948000,0.0324,0.013523,0.002678,0.000431,0.013986
14949000,0.0324,0.013523,0.002678,0.000431,0.014691
14950000,0.0324,0.013523,0.002678,0.000431,0.014338
14951000,0.0324,0.013523,0.002678,0.000431,0.014809
14952000,0.0324,0.013523,0.002678,0.000431,0.015866
14953000,0.0324,0.013523,0.002678,0.000431,0.014809
14954000,0.0324,0.013523,0.002678,0.000431,0.015514
14955000,0.0324,0.013523,0.002678,0.000431,0.014809
14956000,0.0324,0.013523,0.002678,0.000431,0.014573
14957000,0.0324,0.013523,0.002678,0.000431,0.016101
14958000,0.0324,0.013523,0.002678,0.000431,0.015396
14959000,0.0324,0.013523,0.002678,0.000431,0.015161
14960000,0.0324,0.013523,0.002678,0.000431,0.014221
14961000,0.0324,0.013523,0.002678,0.000431,0.015396
14962000,0.0324,0.013523,0.002678,0.000431,0.015161
14963000,0.0324,0.013523,0.002678,0.000431,0.014809
14964000,0.0324,0.013523,0.002678,0.000431,0.015396
14965000,0.0324,0.013523,0.002678,0.000431,0.014338
14966000,0.0324,0.013523,0.002678,0.000431,0.015631
14967000,0.0324,0.013523,0.002678,0.000431,0.015866
14968000,0.0324,0.013523,0.002678,0.000431,0.015161
14969000,0.0324,0.013523,0.002678,0.000431,0.015631
14970000,0.0324,0.013523,0.002678,0.000431,0.015044
14971000,0.0324,0.013523,0.002678,0.000431,0.014926
14972000,0.0324,0.013523,0.002678,0.000431,0.015866
14973000,0.0324,0.013523,0.002678,0.000431,0.015631
14974000,0.0324,0.013523,0.002678,0.000431,0.013633
14975000,0.0324,0.013523,0.002678,0.000431,0.015631
14976000,0.0324,0.013523,0.002678,0.000431,0.016101
14977000,0.0324,0.013523,0.002678,0.000431,0.014926
14978000,0.0324,0.013523,0.002678,0.000431,0.014338
14979000,0.0324,0.013523,0.002678,0.000431,0.015161
14980000,0.0324,0.013523,0.002678,0.000431,0.015161
14981000,0.0324,0.013523,0.002678,0.000431,0.015044
14982000,0.0324,0.013523,0.002678,0.000431,0.014809
14983000,0.0324,0.013523,0.002678,0.000431,0.014691
14984000,0.0324,0.013523,0.002678,0.000431,0.015631
14985000,0.0324,0.013523,0.002678,0.000431,0.014809
14986000,0.0324,0.013523,0.002678,0.000431,0.012576
14987000,0.0324,0.013523,0.002678,0.000431,0.016454
14988000,0.0324,0.013523,0.002678,0.000431,0.015984
14989000,0.0324,0.013523,0.002678,0.000431,0.015161
14990000,0.0324,0.013523,0.002678,0.000431,0.015514
14991000,0.0324,0.013523,0.002678,0.000431,0.015161
14992000,0.0324,0.013523,0.002678,0.000431,0.014691
14993000,0.0324,0.013523,0.002678,0.000431,0.016571
14994000,0.0324,0.013523,0.002678,0.000431,0.016219
14995000,0.0324,0.013523,0.002678,0.000431,0.014691
14996000,0.0324,0.013523,0.002678,0.000431,0.012223
14997000,0.0324,0.013523,0.002678,0.000431,0.014809
14998000,0.0324,0.013523,0.002678,0.000431,0.014221
14999000,0.0324,0.013523,0.002678,0.000431,0.015279
