Cycle,Area(mm^2),PeakDynamic(W),SubthresholdLeakage(W),GateLeakage(W),RunTimeDynamic(W)
28000000,0.0324,0.013523,0.002678,0.000431,0.001058
28001000,0.0324,0.013523,0.002678,0.000431,0.001058
28002000,0.0324,0.013523,0.002678,0.000431,0.001528
28003000,0.0324,0.013523,0.002678,0.000431,0.000940
28004000,0.0324,0.013523,0.002678,0.000431,0.001410
28005000,0.0324,0.013523,0.002678,0.000431,0.001293
28006000,0.0324,0.013523,0.002678,0.000431,0.000940
28007000,0.0324,0.013523,0.002678,0.000431,0.000705
28008000,0.0324,0.013523,0.002678,0.000431,0.000705
28009000,0.0324,0.013523,0.002678,0.000431,0.000823
28010000,0.0324,0.013523,0.002678,0.000431,0.001175
28011000,0.0324,0.013523,0.002678,0.000431,0.000940
28012000,0.0324,0.013523,0.002678,0.000431,0.000940
28013000,0.0324,0.013523,0.002678,0.000431,0.001175
28014000,0.0324,0.013523,0.002678,0.000431,0.000940
28015000,0.0324,0.013523,0.002678,0.000431,0.001410
28016000,0.0324,0.013523,0.002678,0.000431,0.001058
28017000,0.0324,0.013523,0.002678,0.000431,0.000823
28018000,0.0324,0.013523,0.002678,0.000431,0.001175
28019000,0.0324,0.013523,0.002678,0.000431,0.001410
28020000,0.0324,0.013523,0.002678,0.000431,0.000940
28021000,0.0324,0.013523,0.002678,0.000431,0.001175
28022000,0.0324,0.013523,0.002678,0.000431,0.001175
28023000,0.0324,0.013523,0.002678,0.000431,0.001175
28024000,0.0324,0.013523,0.002678,0.000431,0.001175
28025000,0.0324,0.013523,0.002678,0.000431,0.001645
28026000,0.0324,0.013523,0.002678,0.000431,0.000823
28027000,0.0324,0.013523,0.002678,0.000431,0.001175
28028000,0.0324,0.013523,0.002678,0.000431,0.001645
28029000,0.0324,0.013523,0.002678,0.000431,0.001058
28030000,0.0324,0.013523,0.002678,0.000431,0.001293
28031000,0.0324,0.013523,0.002678,0.000431,0.000823
28032000,0.0324,0.013523,0.002678,0.000431,0.001293
28033000,0.0324,0.013523,0.002678,0.000431,0.001293
28034000,0.0324,0.013523,0.002678,0.000431,0.001175
28035000,0.0324,0.013523,0.002678,0.000431,0.001645
28036000,0.0324,0.013523,0.002678,0.000431,0.001058
28037000,0.0324,0.013523,0.002678,0.000431,0.001175
28038000,0.0324,0.013523,0.002678,0.000431,0.000940
28039000,0.0324,0.013523,0.002678,0.000431,0.001528
28040000,0.0324,0.013523,0.002678,0.000431,0.001175
28041000,0.0324,0.013523,0.002678,0.000431,0.000588
28042000,0.0324,0.013523,0.002678,0.000431,0.001293
28043000,0.0324,0.013523,0.002678,0.000431,0.001410
28044000,0.0324,0.013523,0.002678,0.000431,0.001410
28045000,0.0324,0.013523,0.002678,0.000431,0.001410
28046000,0.0324,0.013523,0.002678,0.000431,0.001058
28047000,0.0324,0.013523,0.002678,0.000431,0.000705
28048000,0.0324,0.013523,0.002678,0.000431,0.001410
28049000,0.0324,0.013523,0.002678,0.000431,0.001293
28050000,0.0324,0.013523,0.002678,0.000431,0.001645
28051000,0.0324,0.013523,0.002678,0.000431,0.001293
28052000,0.0324,0.013523,0.002678,0.000431,0.000940
28053000,0.0324,0.013523,0.002678,0.000431,0.000940
28054000,0.0324,0.013523,0.002678,0.000431,0.001293
28055000,0.0324,0.013523,0.002678,0.000431,0.001175
28056000,0.0324,0.013523,0.002678,0.000431,0.001410
28057000,0.0324,0.013523,0.002678,0.000431,0.001175
28058000,0.0324,0.013523,0.002678,0.000431,0.001175
28059000,0.0324,0.013523,0.002678,0.000431,0.001410
28060000,0.0324,0.013523,0.002678,0.000431,0.001293
28061000,0.0324,0.013523,0.002678,0.000431,0.001175
28062000,0.0324,0.013523,0.002678,0.000431,0.001528
28063000,0.0324,0.013523,0.002678,0.000431,0.001175
28064000,0.0324,0.013523,0.002678,0.000431,0.001058
28065000,0.0324,0.013523,0.002678,0.000431,0.001058
28066000,0.0324,0.013523,0.002678,0.000431,0.001058
28067000,0.0324,0.013523,0.002678,0.000431,0.000823
28068000,0.0324,0.013523,0.002678,0.000431,0.001175
28069000,0.0324,0.013523,0.002678,0.000431,0.001293
28070000,0.0324,0.013523,0.002678,0.000431,0.001293
28071000,0.0324,0.013523,0.002678,0.000431,0.001528
28072000,0.0324,0.013523,0.002678,0.000431,0.000705
28073000,0.0324,0.013523,0.002678,0.000431,0.001293
28074000,0.0324,0.013523,0.002678,0.000431,0.001293
28075000,0.0324,0.013523,0.002678,0.000431,0.001293
28076000,0.0324,0.013523,0.002678,0.000431,0.001645
28077000,0.0324,0.013523,0.002678,0.000431,0.001058
28078000,0.0324,0.013523,0.002678,0.000431,0.000823
28079000,0.0324,0.013523,0.002678,0.000431,0.001175
28080000,0.0324,0.013523,0.002678,0.000431,0.001175
28081000,0.0324,0.013523,0.002678,0.000431,0.001175
28082000,0.0324,0.013523,0.002678,0.000431,0.001058
28083000,0.0324,0.013523,0.002678,0.000431,0.000705
28084000,0.0324,0.013523,0.002678,0.000431,0.000823
28085000,0.0324,0.013523,0.002678,0.000431,0.001645
28086000,0.0324,0.013523,0.002678,0.000431,0.001293
28087000,0.0324,0.013523,0.002678,0.000431,0.001058
28088000,0.0324,0.013523,0.002678,0.000431,0.001293
28089000,0.0324,0.013523,0.002678,0.000431,0.001058
28090000,0.0324,0.013523,0.002678,0.000431,0.001175
28091000,0.0324,0.013523,0.002678,0.000431,0.001410
28092000,0.0324,0.013523,0.002678,0.000431,0.001058
28093000,0.0324,0.013523,0.002678,0.000431,0.001175
28094000,0.0324,0.013523,0.002678,0.000431,0.001058
28095000,0.0324,0.013523,0.002678,0.000431,0.001175
28096000,0.0324,0.013523,0.002678,0.000431,0.001293
28097000,0.0324,0.013523,0.002678,0.000431,0.001528
28098000,0.0324,0.013523,0.002678,0.000431,0.001058
28099000,0.0324,0.013523,0.002678,0.000431,0.000823
28100000,0.0324,0.013523,0.002678,0.000431,0.001175
28101000,0.0324,0.013523,0.002678,0.000431,0.001293
28102000,0.0324,0.013523,0.002678,0.000431,0.001058
28103000,0.0324,0.013523,0.002678,0.000431,0.001645
28104000,0.0324,0.013523,0.002678,0.000431,0.001175
28105000,0.0324,0.013523,0.002678,0.000431,0.001645
28106000,0.0324,0.013523,0.002678,0.000431,0.001410
28107000,0.0324,0.013523,0.002678,0.000431,0.001410
28108000,0.0324,0.013523,0.002678,0.000431,0.001175
28109000,0.0324,0.013523,0.002678,0.000431,0.001293
28110000,0.0324,0.013523,0.002678,0.000431,0.001293
28111000,0.0324,0.013523,0.002678,0.000431,0.001410
28112000,0.0324,0.013523,0.002678,0.000431,0.001410
28113000,0.0324,0.013523,0.002678,0.000431,0.001763
28114000,0.0324,0.013523,0.002678,0.000431,0.000940
28115000,0.0324,0.013523,0.002678,0.000431,0.001058
28116000,0.0324,0.013523,0.002678,0.000431,0.001175
28117000,0.0324,0.013523,0.002678,0.000431,0.001410
28118000,0.0324,0.013523,0.002678,0.000431,0.001293
28119000,0.0324,0.013523,0.002678,0.000431,0.000940
28120000,0.0324,0.013523,0.002678,0.000431,0.001175
28121000,0.0324,0.013523,0.002678,0.000431,0.001293
28122000,0.0324,0.013523,0.002678,0.000431,0.001528
28123000,0.0324,0.013523,0.002678,0.000431,0.001058
28124000,0.0324,0.013523,0.002678,0.000431,0.001410
28125000,0.0324,0.013523,0.002678,0.000431,0.000940
28126000,0.0324,0.013523,0.002678,0.000431,0.001175
28127000,0.0324,0.013523,0.002678,0.000431,0.000940
28128000,0.0324,0.013523,0.002678,0.000431,0.001293
28129000,0.0324,0.013523,0.002678,0.000431,0.001058
28130000,0.0324,0.013523,0.002678,0.000431,0.001410
28131000,0.0324,0.013523,0.002678,0.000431,0.001645
28132000,0.0324,0.013523,0.002678,0.000431,0.001410
28133000,0.0324,0.013523,0.002678,0.000431,0.001058
28134000,0.0324,0.013523,0.002678,0.000431,0.001293
28135000,0.0324,0.013523,0.002678,0.000431,0.001175
28136000,0.0324,0.013523,0.002678,0.000431,0.001293
28137000,0.0324,0.013523,0.002678,0.000431,0.000823
28138000,0.0324,0.013523,0.002678,0.000431,0.000940
28139000,0.0324,0.013523,0.002678,0.000431,0.001175
28140000,0.0324,0.013523,0.002678,0.000431,0.001175
28141000,0.0324,0.013523,0.002678,0.000431,0.001175
28142000,0.0324,0.013523,0.002678,0.000431,0.001645
28143000,0.0324,0.013523,0.002678,0.000431,0.001058
28144000,0.0324,0.013523,0.002678,0.000431,0.000823
28145000,0.0324,0.013523,0.002678,0.000431,0.001528
28146000,0.0324,0.013523,0.002678,0.000431,0.001293
28147000,0.0324,0.013523,0.002678,0.000431,0.001175
28148000,0.0324,0.013523,0.002678,0.000431,0.001058
28149000,0.0324,0.013523,0.002678,0.000431,0.000940
28150000,0.0324,0.013523,0.002678,0.000431,0.001763
28151000,0.0324,0.013523,0.002678,0.000431,0.001058
28152000,0.0324,0.013523,0.002678,0.000431,0.001528
28153000,0.0324,0.013523,0.002678,0.000431,0.000940
28154000,0.0324,0.013523,0.002678,0.000431,0.000823
28155000,0.0324,0.013523,0.002678,0.000431,0.001528
28156000,0.0324,0.013523,0.002678,0.000431,0.001293
28157000,0.0324,0.013523,0.002678,0.000431,0.001293
28158000,0.0324,0.013523,0.002678,0.000431,0.001293
28159000,0.0324,0.013523,0.002678,0.000431,0.000823
28160000,0.0324,0.013523,0.002678,0.000431,0.000940
28161000,0.0324,0.013523,0.002678,0.000431,0.001528
28162000,0.0324,0.013523,0.002678,0.000431,0.001058
28163000,0.0324,0.013523,0.002678,0.000431,0.001410
28164000,0.0324,0.013523,0.002678,0.000431,0.001175
28165000,0.0324,0.013523,0.002678,0.000431,0.000823
28166000,0.0324,0.013523,0.002678,0.000431,0.001058
28167000,0.0324,0.013523,0.002678,0.000431,0.001528
28168000,0.0324,0.013523,0.002678,0.000431,0.001058
28169000,0.0324,0.013523,0.002678,0.000431,0.000940
28170000,0.0324,0.013523,0.002678,0.000431,0.001410
28171000,0.0324,0.013523,0.002678,0.000431,0.001058
28172000,0.0324,0.013523,0.002678,0.000431,0.001058
28173000,0.0324,0.013523,0.002678,0.000431,0.001410
28174000,0.0324,0.013523,0.002678,0.000431,0.000940
28175000,0.0324,0.013523,0.002678,0.000431,0.001410
28176000,0.0324,0.013523,0.002678,0.000431,0.001410
28177000,0.0324,0.013523,0.002678,0.000431,0.001175
28178000,0.0324,0.013523,0.002678,0.000431,0.000705
28179000,0.0324,0.013523,0.002678,0.000431,0.000940
28180000,0.0324,0.013523,0.002678,0.000431,0.000940
28181000,0.0324,0.013523,0.002678,0.000431,0.001410
28182000,0.0324,0.013523,0.002678,0.000431,0.001175
28183000,0.0324,0.013523,0.002678,0.000431,0.001528
28184000,0.0324,0.013523,0.002678,0.000431,0.000823
28185000,0.0324,0.013523,0.002678,0.000431,0.001175
28186000,0.0324,0.013523,0.002678,0.000431,0.001293
28187000,0.0324,0.013523,0.002678,0.000431,0.001293
28188000,0.0324,0.013523,0.002678,0.000431,0.001645
28189000,0.0324,0.013523,0.002678,0.000431,0.001293
28190000,0.0324,0.013523,0.002678,0.000431,0.000940
28191000,0.0324,0.013523,0.002678,0.000431,0.000823
28192000,0.0324,0.013523,0.002678,0.000431,0.001528
28193000,0.0324,0.013523,0.002678,0.000431,0.001058
28194000,0.0324,0.013523,0.002678,0.000431,0.001058
28195000,0.0324,0.013523,0.002678,0.000431,0.001058
28196000,0.0324,0.013523,0.002678,0.000431,0.001175
28197000,0.0324,0.013523,0.002678,0.000431,0.001528
28198000,0.0324,0.013523,0.002678,0.000431,0.001058
28199000,0.0324,0.013523,0.002678,0.000431,0.001763
28200000,0.0324,0.013523,0.002678,0.000431,0.000705
28201000,0.0324,0.013523,0.002678,0.000431,0.001293
28202000,0.0324,0.013523,0.002678,0.000431,0.001175
28203000,0.0324,0.013523,0.002678,0.000431,0.001645
28204000,0.0324,0.013523,0.002678,0.000431,0.001058
28205000,0.0324,0.013523,0.002678,0.000431,0.001293
28206000,0.0324,0.013523,0.002678,0.000431,0.001175
28207000,0.0324,0.013523,0.002678,0.000431,0.001175
28208000,0.0324,0.013523,0.002678,0.000431,0.001880
28209000,0.0324,0.013523,0.002678,0.000431,0.000823
28210000,0.0324,0.013523,0.002678,0.000431,0.000705
28211000,0.0324,0.013523,0.002678,0.000431,0.001410
28212000,0.0324,0.013523,0.002678,0.000431,0.000705
28213000,0.0324,0.013523,0.002678,0.000431,0.001293
28214000,0.0324,0.013523,0.002678,0.000431,0.000823
28215000,0.0324,0.013523,0.002678,0.000431,0.001528
28216000,0.0324,0.013523,0.002678,0.000431,0.001058
28217000,0.0324,0.013523,0.002678,0.000431,0.001528
28218000,0.0324,0.013523,0.002678,0.000431,0.001058
28219000,0.0324,0.013523,0.002678,0.000431,0.001175
28220000,0.0324,0.013523,0.002678,0.000431,0.000940
28221000,0.0324,0.013523,0.002678,0.000431,0.001528
28222000,0.0324,0.013523,0.002678,0.000431,0.001175
28223000,0.0324,0.013523,0.002678,0.000431,0.001410
28224000,0.0324,0.013523,0.002678,0.000431,0.000940
28225000,0.0324,0.013523,0.002678,0.000431,0.001293
28226000,0.0324,0.013523,0.002678,0.000431,0.001058
28227000,0.0324,0.013523,0.002678,0.000431,0.001293
28228000,0.0324,0.013523,0.002678,0.000431,0.001175
28229000,0.0324,0.013523,0.002678,0.000431,0.001293
28230000,0.0324,0.013523,0.002678,0.000431,0.001058
28231000,0.0324,0.013523,0.002678,0.000431,0.000823
28232000,0.0324,0.013523,0.002678,0.000431,0.000940
28233000,0.0324,0.013523,0.002678,0.000431,0.001175
28234000,0.0324,0.013523,0.002678,0.000431,0.001410
28235000,0.0324,0.013523,0.002678,0.000431,0.001293
28236000,0.0324,0.013523,0.002678,0.000431,0.000823
28237000,0.0324,0.013523,0.002678,0.000431,0.000940
28238000,0.0324,0.013523,0.002678,0.000431,0.001175
28239000,0.0324,0.013523,0.002678,0.000431,0.001175
28240000,0.0324,0.013523,0.002678,0.000431,0.000940
28241000,0.0324,0.013523,0.002678,0.000431,0.001058
28242000,0.0324,0.013523,0.002678,0.000431,0.001293
28243000,0.0324,0.013523,0.002678,0.000431,0.001175
28244000,0.0324,0.013523,0.002678,0.000431,0.000823
28245000,0.0324,0.013523,0.002678,0.000431,0.000823
28246000,0.0324,0.013523,0.002678,0.000431,0.001175
28247000,0.0324,0.013523,0.002678,0.000431,0.001293
28248000,0.0324,0.013523,0.002678,0.000431,0.001175
28249000,0.0324,0.013523,0.002678,0.000431,0.001293
28250000,0.0324,0.013523,0.002678,0.000431,0.001410
28251000,0.0324,0.013523,0.002678,0.000431,0.001175
28252000,0.0324,0.013523,0.002678,0.000431,0.001645
28253000,0.0324,0.013523,0.002678,0.000431,0.001528
28254000,0.0324,0.013523,0.002678,0.000431,0.001528
28255000,0.0324,0.013523,0.002678,0.000431,0.000823
28256000,0.0324,0.013523,0.002678,0.000431,0.001410
28257000,0.0324,0.013523,0.002678,0.000431,0.001058
28258000,0.0324,0.013523,0.002678,0.000431,0.001058
28259000,0.0324,0.013523,0.002678,0.000431,0.001175
28260000,0.0324,0.013523,0.002678,0.000431,0.001175
28261000,0.0324,0.013523,0.002678,0.000431,0.001175
28262000,0.0324,0.013523,0.002678,0.000431,0.001293
28263000,0.0324,0.013523,0.002678,0.000431,0.001293
28264000,0.0324,0.013523,0.002678,0.000431,0.001058
28265000,0.0324,0.013523,0.002678,0.000431,0.001058
28266000,0.0324,0.013523,0.002678,0.000431,0.001058
28267000,0.0324,0.013523,0.002678,0.000431,0.001175
28268000,0.0324,0.013523,0.002678,0.000431,0.001293
28269000,0.0324,0.013523,0.002678,0.000431,0.001528
28270000,0.0324,0.013523,0.002678,0.000431,0.000940
28271000,0.0324,0.013523,0.002678,0.000431,0.001175
28272000,0.0324,0.013523,0.002678,0.000431,0.001175
28273000,0.0324,0.013523,0.002678,0.000431,0.001175
28274000,0.0324,0.013523,0.002678,0.000431,0.000940
28275000,0.0324,0.013523,0.002678,0.000431,0.001058
28276000,0.0324,0.013523,0.002678,0.000431,0.000940
28277000,0.0324,0.013523,0.002678,0.000431,0.000940
28278000,0.0324,0.013523,0.002678,0.000431,0.000940
28279000,0.0324,0.013523,0.002678,0.000431,0.001293
28280000,0.0324,0.013523,0.002678,0.000431,0.001293
28281000,0.0324,0.013523,0.002678,0.000431,0.000823
28282000,0.0324,0.013523,0.002678,0.000431,0.001175
28283000,0.0324,0.013523,0.002678,0.000431,0.001410
28284000,0.0324,0.013523,0.002678,0.000431,0.001528
28285000,0.0324,0.013523,0.002678,0.000431,0.000940
28286000,0.0324,0.013523,0.002678,0.000431,0.000823
28287000,0.0324,0.013523,0.002678,0.000431,0.001058
28288000,0.0324,0.013523,0.002678,0.000431,0.001293
28289000,0.0324,0.013523,0.002678,0.000431,0.001410
28290000,0.0324,0.013523,0.002678,0.000431,0.001410
28291000,0.0324,0.013523,0.002678,0.000431,0.000940
28292000,0.0324,0.013523,0.002678,0.000431,0.001058
28293000,0.0324,0.013523,0.002678,0.000431,0.001175
28294000,0.0324,0.013523,0.002678,0.000431,0.001175
28295000,0.0324,0.013523,0.002678,0.000431,0.000823
28296000,0.0324,0.013523,0.002678,0.000431,0.000940
28297000,0.0324,0.013523,0.002678,0.000431,0.001175
28298000,0.0324,0.013523,0.002678,0.000431,0.001410
28299000,0.0324,0.013523,0.002678,0.000431,0.001410
28300000,0.0324,0.013523,0.002678,0.000431,0.001293
28301000,0.0324,0.013523,0.002678,0.000431,0.000940
28302000,0.0324,0.013523,0.002678,0.000431,0.001058
28303000,0.0324,0.013523,0.002678,0.000431,0.001293
28304000,0.0324,0.013523,0.002678,0.000431,0.001058
28305000,0.0324,0.013523,0.002678,0.000431,0.001528
28306000,0.0324,0.013523,0.002678,0.000431,0.001175
28307000,0.0324,0.013523,0.002678,0.000431,0.001293
28308000,0.0324,0.013523,0.002678,0.000431,0.001410
28309000,0.0324,0.013523,0.002678,0.000431,0.001175
28310000,0.0324,0.013523,0.002678,0.000431,0.001763
28311000,0.0324,0.013523,0.002678,0.000431,0.000940
28312000,0.0324,0.013523,0.002678,0.000431,0.000705
28313000,0.0324,0.013523,0.002678,0.000431,0.001058
28314000,0.0324,0.013523,0.002678,0.000431,0.001293
28315000,0.0324,0.013523,0.002678,0.000431,0.001175
28316000,0.0324,0.013523,0.002678,0.000431,0.001293
28317000,0.0324,0.013523,0.002678,0.000431,0.000823
28318000,0.0324,0.013523,0.002678,0.000431,0.000823
28319000,0.0324,0.013523,0.002678,0.000431,0.001410
28320000,0.0324,0.013523,0.002678,0.000431,0.001293
28321000,0.0324,0.013523,0.002678,0.000431,0.000705
28322000,0.0324,0.013523,0.002678,0.000431,0.001293
28323000,0.0324,0.013523,0.002678,0.000431,0.001293
28324000,0.0324,0.013523,0.002678,0.000431,0.001058
28325000,0.0324,0.013523,0.002678,0.000431,0.000940
28326000,0.0324,0.013523,0.002678,0.000431,0.000940
28327000,0.0324,0.013523,0.002678,0.000431,0.000940
28328000,0.0324,0.013523,0.002678,0.000431,0.001645
28329000,0.0324,0.013523,0.002678,0.000431,0.001058
28330000,0.0324,0.013523,0.002678,0.000431,0.001175
28331000,0.0324,0.013523,0.002678,0.000431,0.000940
28332000,0.0324,0.013523,0.002678,0.000431,0.001175
28333000,0.0324,0.013523,0.002678,0.000431,0.001763
28334000,0.0324,0.013523,0.002678,0.000431,0.001410
28335000,0.0324,0.013523,0.002678,0.000431,0.001645
28336000,0.0324,0.013523,0.002678,0.000431,0.001528
28337000,0.0324,0.013523,0.002678,0.000431,0.000823
28338000,0.0324,0.013523,0.002678,0.000431,0.000940
28339000,0.0324,0.013523,0.002678,0.000431,0.001175
28340000,0.0324,0.013523,0.002678,0.000431,0.001175
28341000,0.0324,0.013523,0.002678,0.000431,0.001528
28342000,0.0324,0.013523,0.002678,0.000431,0.000940
28343000,0.0324,0.013523,0.002678,0.000431,0.000823
28344000,0.0324,0.013523,0.002678,0.000431,0.000940
28345000,0.0324,0.013523,0.002678,0.000431,0.001410
28346000,0.0324,0.013523,0.002678,0.000431,0.001175
28347000,0.0324,0.013523,0.002678,0.000431,0.001410
28348000,0.0324,0.013523,0.002678,0.000431,0.001293
28349000,0.0324,0.013523,0.002678,0.000431,0.001058
28350000,0.0324,0.013523,0.002678,0.000431,0.001410
28351000,0.0324,0.013523,0.002678,0.000431,0.001410
28352000,0.0324,0.013523,0.002678,0.000431,0.000823
28353000,0.0324,0.013523,0.002678,0.000431,0.001175
28354000,0.0324,0.013523,0.002678,0.000431,0.001293
28355000,0.0324,0.013523,0.002678,0.000431,0.000940
28356000,0.0324,0.013523,0.002678,0.000431,0.000940
28357000,0.0324,0.013523,0.002678,0.000431,0.001058
28358000,0.0324,0.013523,0.002678,0.000431,0.001293
28359000,0.0324,0.013523,0.002678,0.000431,0.001175
28360000,0.0324,0.013523,0.002678,0.000431,0.001528
28361000,0.0324,0.013523,0.002678,0.000431,0.001058
28362000,0.0324,0.013523,0.002678,0.000431,0.000705
28363000,0.0324,0.013523,0.002678,0.000431,0.001293
28364000,0.0324,0.013523,0.002678,0.000431,0.001058
28365000,0.0324,0.013523,0.002678,0.000431,0.000940
28366000,0.0324,0.013523,0.002678,0.000431,0.001175
28367000,0.0324,0.013523,0.002678,0.000431,0.001293
28368000,0.0324,0.013523,0.002678,0.000431,0.000705
28369000,0.0324,0.013523,0.002678,0.000431,0.001528
28370000,0.0324,0.013523,0.002678,0.000431,0.001058
28371000,0.0324,0.013523,0.002678,0.000431,0.000940
28372000,0.0324,0.013523,0.002678,0.000431,0.000823
28373000,0.0324,0.013523,0.002678,0.000431,0.000940
28374000,0.0324,0.013523,0.002678,0.000431,0.001175
28375000,0.0324,0.013523,0.002678,0.000431,0.001058
28376000,0.0324,0.013523,0.002678,0.000431,0.001293
28377000,0.0324,0.013523,0.002678,0.000431,0.001058
28378000,0.0324,0.013523,0.002678,0.000431,0.001175
28379000,0.0324,0.013523,0.002678,0.000431,0.001175
28380000,0.0324,0.013523,0.002678,0.000431,0.001175
28381000,0.0324,0.013523,0.002678,0.000431,0.001645
28382000,0.0324,0.013523,0.002678,0.000431,0.001175
28383000,0.0324,0.013523,0.002678,0.000431,0.000940
28384000,0.0324,0.013523,0.002678,0.000431,0.001293
28385000,0.0324,0.013523,0.002678,0.000431,0.001293
28386000,0.0324,0.013523,0.002678,0.000431,0.000940
28387000,0.0324,0.013523,0.002678,0.000431,0.000705
28388000,0.0324,0.013523,0.002678,0.000431,0.001293
28389000,0.0324,0.013523,0.002678,0.000431,0.000823
28390000,0.0324,0.013523,0.002678,0.000431,0.001293
28391000,0.0324,0.013523,0.002678,0.000431,0.001175
28392000,0.0324,0.013523,0.002678,0.000431,0.001175
28393000,0.0324,0.013523,0.002678,0.000431,0.000588
28394000,0.0324,0.013523,0.002678,0.000431,0.001645
28395000,0.0324,0.013523,0.002678,0.000431,0.001058
28396000,0.0324,0.013523,0.002678,0.000431,0.001410
28397000,0.0324,0.013523,0.002678,0.000431,0.001058
28398000,0.0324,0.013523,0.002678,0.000431,0.000940
28399000,0.0324,0.013523,0.002678,0.000431,0.001175
28400000,0.0324,0.013523,0.002678,0.000431,0.001293
28401000,0.0324,0.013523,0.002678,0.000431,0.000940
28402000,0.0324,0.013523,0.002678,0.000431,0.001175
28403000,0.0324,0.013523,0.002678,0.000431,0.000823
28404000,0.0324,0.013523,0.002678,0.000431,0.001058
28405000,0.0324,0.013523,0.002678,0.000431,0.001293
28406000,0.0324,0.013523,0.002678,0.000431,0.001058
28407000,0.0324,0.013523,0.002678,0.000431,0.001175
28408000,0.0324,0.013523,0.002678,0.000431,0.001410
28409000,0.0324,0.013523,0.002678,0.000431,0.001293
28410000,0.0324,0.013523,0.002678,0.000431,0.000940
28411000,0.0324,0.013523,0.002678,0.000431,0.001293
28412000,0.0324,0.013523,0.002678,0.000431,0.001293
28413000,0.0324,0.013523,0.002678,0.000431,0.000823
28414000,0.0324,0.013523,0.002678,0.000431,0.001175
28415000,0.0324,0.013523,0.002678,0.000431,0.001293
28416000,0.0324,0.013523,0.002678,0.000431,0.000940
28417000,0.0324,0.013523,0.002678,0.000431,0.001293
28418000,0.0324,0.013523,0.002678,0.000431,0.001175
28419000,0.0324,0.013523,0.002678,0.000431,0.001058
28420000,0.0324,0.013523,0.002678,0.000431,0.001058
28421000,0.0324,0.013523,0.002678,0.000431,0.001410
28422000,0.0324,0.013523,0.002678,0.000431,0.001645
28423000,0.0324,0.013523,0.002678,0.000431,0.000940
28424000,0.0324,0.013523,0.002678,0.000431,0.001293
28425000,0.0324,0.013523,0.002678,0.000431,0.001058
28426000,0.0324,0.013523,0.002678,0.000431,0.001410
28427000,0.0324,0.013523,0.002678,0.000431,0.001410
28428000,0.0324,0.013523,0.002678,0.000431,0.001058
28429000,0.0324,0.013523,0.002678,0.000431,0.001058
28430000,0.0324,0.013523,0.002678,0.000431,0.000940
28431000,0.0324,0.013523,0.002678,0.000431,0.001410
28432000,0.0324,0.013523,0.002678,0.000431,0.001175
28433000,0.0324,0.013523,0.002678,0.000431,0.001293
28434000,0.0324,0.013523,0.002678,0.000431,0.000940
28435000,0.0324,0.013523,0.002678,0.000431,0.001410
28436000,0.0324,0.013523,0.002678,0.000431,0.000940
28437000,0.0324,0.013523,0.002678,0.000431,0.001058
28438000,0.0324,0.013523,0.002678,0.000431,0.001293
28439000,0.0324,0.013523,0.002678,0.000431,0.001293
28440000,0.0324,0.013523,0.002678,0.000431,0.000940
28441000,0.0324,0.013523,0.002678,0.000431,0.001293
28442000,0.0324,0.013523,0.002678,0.000431,0.000823
28443000,0.0324,0.013523,0.002678,0.000431,0.001058
28444000,0.0324,0.013523,0.002678,0.000431,0.000823
28445000,0.0324,0.013523,0.002678,0.000431,0.001175
28446000,0.0324,0.013523,0.002678,0.000431,0.001293
28447000,0.0324,0.013523,0.002678,0.000431,0.000940
28448000,0.0324,0.013523,0.002678,0.000431,0.001293
28449000,0.0324,0.013523,0.002678,0.000431,0.000940
28450000,0.0324,0.013523,0.002678,0.000431,0.001058
28451000,0.0324,0.013523,0.002678,0.000431,0.001293
28452000,0.0324,0.013523,0.002678,0.000431,0.001293
28453000,0.0324,0.013523,0.002678,0.000431,0.001293
28454000,0.0324,0.013523,0.002678,0.000431,0.001528
28455000,0.0324,0.013523,0.002678,0.000431,0.000705
28456000,0.0324,0.013523,0.002678,0.000431,0.001528
28457000,0.0324,0.013523,0.002678,0.000431,0.000823
28458000,0.0324,0.013523,0.002678,0.000431,0.001528
28459000,0.0324,0.013523,0.002678,0.000431,0.001528
28460000,0.0324,0.013523,0.002678,0.000431,0.000940
28461000,0.0324,0.013523,0.002678,0.000431,0.001293
28462000,0.0324,0.013523,0.002678,0.000431,0.001410
28463000,0.0324,0.013523,0.002678,0.000431,0.001175
28464000,0.0324,0.013523,0.002678,0.000431,0.000705
28465000,0.0324,0.013523,0.002678,0.000431,0.000940
28466000,0.0324,0.013523,0.002678,0.000431,0.001410
28467000,0.0324,0.013523,0.002678,0.000431,0.001058
28468000,0.0324,0.013523,0.002678,0.000431,0.001528
28469000,0.0324,0.013523,0.002678,0.000431,0.001175
28470000,0.0324,0.013523,0.002678,0.000431,0.000823
28471000,0.0324,0.013523,0.002678,0.000431,0.001058
28472000,0.0324,0.013523,0.002678,0.000431,0.001645
28473000,0.0324,0.013523,0.002678,0.000431,0.001410
28474000,0.0324,0.013523,0.002678,0.000431,0.001058
28475000,0.0324,0.013523,0.002678,0.000431,0.000940
28476000,0.0324,0.013523,0.002678,0.000431,0.001058
28477000,0.0324,0.013523,0.002678,0.000431,0.001410
28478000,0.0324,0.013523,0.002678,0.000431,0.001645
28479000,0.0324,0.013523,0.002678,0.000431,0.000823
28480000,0.0324,0.013523,0.002678,0.000431,0.001058
28481000,0.0324,0.013523,0.002678,0.000431,0.001410
28482000,0.0324,0.013523,0.002678,0.000431,0.001175
28483000,0.0324,0.013523,0.002678,0.000431,0.001175
28484000,0.0324,0.013523,0.002678,0.000431,0.001410
28485000,0.0324,0.013523,0.002678,0.000431,0.001175
28486000,0.0324,0.013523,0.002678,0.000431,0.001175
28487000,0.0324,0.013523,0.002678,0.000431,0.000705
28488000,0.0324,0.013523,0.002678,0.000431,0.000940
28489000,0.0324,0.013523,0.002678,0.000431,0.001293
28490000,0.0324,0.013523,0.002678,0.000431,0.000823
28491000,0.0324,0.013523,0.002678,0.000431,0.001175
28492000,0.0324,0.013523,0.002678,0.000431,0.001293
28493000,0.0324,0.013523,0.002678,0.000431,0.001293
28494000,0.0324,0.013523,0.002678,0.000431,0.001293
28495000,0.0324,0.013523,0.002678,0.000431,0.000705
28496000,0.0324,0.013523,0.002678,0.000431,0.000940
28497000,0.0324,0.013523,0.002678,0.000431,0.001293
28498000,0.0324,0.013523,0.002678,0.000431,0.001175
28499000,0.0324,0.013523,0.002678,0.000431,0.001293
28500000,0.0324,0.013523,0.002678,0.000431,0.000823
28501000,0.0324,0.013523,0.002678,0.000431,0.000940
28502000,0.0324,0.013523,0.002678,0.000431,0.001058
28503000,0.0324,0.013523,0.002678,0.000431,0.000823
28504000,0.0324,0.013523,0.002678,0.000431,0.001293
28505000,0.0324,0.013523,0.002678,0.000431,0.000940
28506000,0.0324,0.013523,0.002678,0.000431,0.001058
28507000,0.0324,0.013523,0.002678,0.000431,0.001293
28508000,0.0324,0.013523,0.002678,0.000431,0.001058
28509000,0.0324,0.013523,0.002678,0.000431,0.001293
28510000,0.0324,0.013523,0.002678,0.000431,0.000705
28511000,0.0324,0.013523,0.002678,0.000431,0.000705
28512000,0.0324,0.013523,0.002678,0.000431,0.000940
28513000,0.0324,0.013523,0.002678,0.000431,0.001058
28514000,0.0324,0.013523,0.002678,0.000431,0.001410
28515000,0.0324,0.013523,0.002678,0.000431,0.001293
28516000,0.0324,0.013523,0.002678,0.000431,0.001293
28517000,0.0324,0.013523,0.002678,0.000431,0.001293
28518000,0.0324,0.013523,0.002678,0.000431,0.001528
28519000,0.0324,0.013523,0.002678,0.000431,0.001058
28520000,0.0324,0.013523,0.002678,0.000431,0.000705
28521000,0.0324,0.013523,0.002678,0.000431,0.000823
28522000,0.0324,0.013523,0.002678,0.000431,0.000940
28523000,0.0324,0.013523,0.002678,0.000431,0.001410
28524000,0.0324,0.013523,0.002678,0.000431,0.001410
28525000,0.0324,0.013523,0.002678,0.000431,0.001528
28526000,0.0324,0.013523,0.002678,0.000431,0.001058
28527000,0.0324,0.013523,0.002678,0.000431,0.001175
28528000,0.0324,0.013523,0.002678,0.000431,0.001410
28529000,0.0324,0.013523,0.002678,0.000431,0.001175
28530000,0.0324,0.013523,0.002678,0.000431,0.001175
28531000,0.0324,0.013523,0.002678,0.000431,0.000940
28532000,0.0324,0.013523,0.002678,0.000431,0.001410
28533000,0.0324,0.013523,0.002678,0.000431,0.001645
28534000,0.0324,0.013523,0.002678,0.000431,0.000823
28535000,0.0324,0.013523,0.002678,0.000431,0.000823
28536000,0.0324,0.013523,0.002678,0.000431,0.001175
28537000,0.0324,0.013523,0.002678,0.000431,0.001410
28538000,0.0324,0.013523,0.002678,0.000431,0.001410
28539000,0.0324,0.013523,0.002678,0.000431,0.001175
28540000,0.0324,0.013523,0.002678,0.000431,0.000823
28541000,0.0324,0.013523,0.002678,0.000431,0.000705
28542000,0.0324,0.013523,0.002678,0.000431,0.001293
28543000,0.0324,0.013523,0.002678,0.000431,0.000940
28544000,0.0324,0.013523,0.002678,0.000431,0.000823
28545000,0.0324,0.013523,0.002678,0.000431,0.001293
28546000,0.0324,0.013523,0.002678,0.000431,0.000588
28547000,0.0324,0.013523,0.002678,0.000431,0.001058
28548000,0.0324,0.013523,0.002678,0.000431,0.001058
28549000,0.0324,0.013523,0.002678,0.000431,0.000823
28550000,0.0324,0.013523,0.002678,0.000431,0.001410
28551000,0.0324,0.013523,0.002678,0.000431,0.001410
28552000,0.0324,0.013523,0.002678,0.000431,0.001175
28553000,0.0324,0.013523,0.002678,0.000431,0.001058
28554000,0.0324,0.013523,0.002678,0.000431,0.000705
28555000,0.0324,0.013523,0.002678,0.000431,0.001410
28556000,0.0324,0.013523,0.002678,0.000431,0.000823
28557000,0.0324,0.013523,0.002678,0.000431,0.001410
28558000,0.0324,0.013523,0.002678,0.000431,0.001058
28559000,0.0324,0.013523,0.002678,0.000431,0.000705
28560000,0.0324,0.013523,0.002678,0.000431,0.001293
28561000,0.0324,0.013523,0.002678,0.000431,0.001175
28562000,0.0324,0.013523,0.002678,0.000431,0.001058
28563000,0.0324,0.013523,0.002678,0.000431,0.001175
28564000,0.0324,0.013523,0.002678,0.000431,0.000823
28565000,0.0324,0.013523,0.002678,0.000431,0.001293
28566000,0.0324,0.013523,0.002678,0.000431,0.001528
28567000,0.0324,0.013523,0.002678,0.000431,0.001175
28568000,0.0324,0.013523,0.002678,0.000431,0.001058
28569000,0.0324,0.013523,0.002678,0.000431,0.001058
28570000,0.0324,0.013523,0.002678,0.000431,0.000705
28571000,0.0324,0.013523,0.002678,0.000431,0.001175
28572000,0.0324,0.013523,0.002678,0.000431,0.001410
28573000,0.0324,0.013523,0.002678,0.000431,0.001175
28574000,0.0324,0.013523,0.002678,0.000431,0.001293
28575000,0.0324,0.013523,0.002678,0.000431,0.001058
28576000,0.0324,0.013523,0.002678,0.000431,0.001058
28577000,0.0324,0.013523,0.002678,0.000431,0.001058
28578000,0.0324,0.013523,0.002678,0.000431,0.000940
28579000,0.0324,0.013523,0.002678,0.000431,0.001175
28580000,0.0324,0.013523,0.002678,0.000431,0.000940
28581000,0.0324,0.013523,0.002678,0.000431,0.001175
28582000,0.0324,0.013523,0.002678,0.000431,0.001410
28583000,0.0324,0.013523,0.002678,0.000431,0.001175
28584000,0.0324,0.013523,0.002678,0.000431,0.000940
28585000,0.0324,0.013523,0.002678,0.000431,0.001175
28586000,0.0324,0.013523,0.002678,0.000431,0.001410
28587000,0.0324,0.013523,0.002678,0.000431,0.001410
28588000,0.0324,0.013523,0.002678,0.000431,0.001175
28589000,0.0324,0.013523,0.002678,0.000431,0.001410
28590000,0.0324,0.013523,0.002678,0.000431,0.001293
28591000,0.0324,0.013523,0.002678,0.000431,0.001058
28592000,0.0324,0.013523,0.002678,0.000431,0.001410
28593000,0.0324,0.013523,0.002678,0.000431,0.001645
28594000,0.0324,0.013523,0.002678,0.000431,0.001410
28595000,0.0324,0.013523,0.002678,0.000431,0.000940
28596000,0.0324,0.013523,0.002678,0.000431,0.001410
28597000,0.0324,0.013523,0.002678,0.000431,0.000940
28598000,0.0324,0.013523,0.002678,0.000431,0.001645
28599000,0.0324,0.013523,0.002678,0.000431,0.000940
28600000,0.0324,0.013523,0.002678,0.000431,0.001175
28601000,0.0324,0.013523,0.002678,0.000431,0.001410
28602000,0.0324,0.013523,0.002678,0.000431,0.001410
28603000,0.0324,0.013523,0.002678,0.000431,0.000823
28604000,0.0324,0.013523,0.002678,0.000431,0.000705
28605000,0.0324,0.013523,0.002678,0.000431,0.001293
28606000,0.0324,0.013523,0.002678,0.000431,0.001645
28607000,0.0324,0.013523,0.002678,0.000431,0.001645
28608000,0.0324,0.013523,0.002678,0.000431,0.001645
28609000,0.0324,0.013523,0.002678,0.000431,0.000940
28610000,0.0324,0.013523,0.002678,0.000431,0.000940
28611000,0.0324,0.013523,0.002678,0.000431,0.000940
28612000,0.0324,0.013523,0.002678,0.000431,0.001410
28613000,0.0324,0.013523,0.002678,0.000431,0.001645
28614000,0.0324,0.013523,0.002678,0.000431,0.001528
28615000,0.0324,0.013523,0.002678,0.000431,0.001175
28616000,0.0324,0.013523,0.002678,0.000431,0.001175
28617000,0.0324,0.013523,0.002678,0.000431,0.001175
28618000,0.0324,0.013523,0.002678,0.000431,0.001058
28619000,0.0324,0.013523,0.002678,0.000431,0.001058
28620000,0.0324,0.013523,0.002678,0.000431,0.001058
28621000,0.0324,0.013523,0.002678,0.000431,0.001175
28622000,0.0324,0.013523,0.002678,0.000431,0.001410
28623000,0.0324,0.013523,0.002678,0.000431,0.001410
28624000,0.0324,0.013523,0.002678,0.000431,0.001293
28625000,0.0324,0.013523,0.002678,0.000431,0.000940
28626000,0.0324,0.013523,0.002678,0.000431,0.001293
28627000,0.0324,0.013523,0.002678,0.000431,0.001058
28628000,0.0324,0.013523,0.002678,0.000431,0.001293
28629000,0.0324,0.013523,0.002678,0.000431,0.001645
28630000,0.0324,0.013523,0.002678,0.000431,0.001058
28631000,0.0324,0.013523,0.002678,0.000431,0.001175
28632000,0.0324,0.013523,0.002678,0.000431,0.001293
28633000,0.0324,0.013523,0.002678,0.000431,0.001410
28634000,0.0324,0.013523,0.002678,0.000431,0.001058
28635000,0.0324,0.013523,0.002678,0.000431,0.000940
28636000,0.0324,0.013523,0.002678,0.000431,0.001058
28637000,0.0324,0.013523,0.002678,0.000431,0.001058
28638000,0.0324,0.013523,0.002678,0.000431,0.001410
28639000,0.0324,0.013523,0.002678,0.000431,0.001175
28640000,0.0324,0.013523,0.002678,0.000431,0.001645
28641000,0.0324,0.013523,0.002678,0.000431,0.000705
28642000,0.0324,0.013523,0.002678,0.000431,0.000940
28643000,0.0324,0.013523,0.002678,0.000431,0.001058
28644000,0.0324,0.013523,0.002678,0.000431,0.001175
28645000,0.0324,0.013523,0.002678,0.000431,0.001175
28646000,0.0324,0.013523,0.002678,0.000431,0.001058
28647000,0.0324,0.013523,0.002678,0.000431,0.000940
28648000,0.0324,0.013523,0.002678,0.000431,0.000940
28649000,0.0324,0.013523,0.002678,0.000431,0.001293
28650000,0.0324,0.013523,0.002678,0.000431,0.001293
28651000,0.0324,0.013523,0.002678,0.000431,0.000940
28652000,0.0324,0.013523,0.002678,0.000431,0.001058
28653000,0.0324,0.013523,0.002678,0.000431,0.001410
28654000,0.0324,0.013523,0.002678,0.000431,0.001410
28655000,0.0324,0.013523,0.002678,0.000431,0.000823
28656000,0.0324,0.013523,0.002678,0.000431,0.000940
28657000,0.0324,0.013523,0.002678,0.000431,0.001058
28658000,0.0324,0.013523,0.002678,0.000431,0.001410
28659000,0.0324,0.013523,0.002678,0.000431,0.001175
28660000,0.0324,0.013523,0.002678,0.000431,0.000823
28661000,0.0324,0.013523,0.002678,0.000431,0.001175
28662000,0.0324,0.013523,0.002678,0.000431,0.001058
28663000,0.0324,0.013523,0.002678,0.000431,0.001410
28664000,0.0324,0.013523,0.002678,0.000431,0.001058
28665000,0.0324,0.013523,0.002678,0.000431,0.001528
28666000,0.0324,0.013523,0.002678,0.000431,0.001058
28667000,0.0324,0.013523,0.002678,0.000431,0.000823
28668000,0.0324,0.013523,0.002678,0.000431,0.000823
28669000,0.0324,0.013523,0.002678,0.000431,0.001175
28670000,0.0324,0.013523,0.002678,0.000431,0.000940
28671000,0.0324,0.013523,0.002678,0.000431,0.000823
28672000,0.0324,0.013523,0.002678,0.000431,0.001410
28673000,0.0324,0.013523,0.002678,0.000431,0.001410
28674000,0.0324,0.013523,0.002678,0.000431,0.001410
28675000,0.0324,0.013523,0.002678,0.000431,0.000940
28676000,0.0324,0.013523,0.002678,0.000431,0.001410
28677000,0.0324,0.013523,0.002678,0.000431,0.001175
28678000,0.0324,0.013523,0.002678,0.000431,0.001645
28679000,0.0324,0.013523,0.002678,0.000431,0.001175
28680000,0.0324,0.013523,0.002678,0.000431,0.001410
28681000,0.0324,0.013523,0.002678,0.000431,0.000940
28682000,0.0324,0.013523,0.002678,0.000431,0.001175
28683000,0.0324,0.013523,0.002678,0.000431,0.001880
28684000,0.0324,0.013523,0.002678,0.000431,0.001175
28685000,0.0324,0.013523,0.002678,0.000431,0.001058
28686000,0.0324,0.013523,0.002678,0.000431,0.001528
28687000,0.0324,0.013523,0.002678,0.000431,0.001175
28688000,0.0324,0.013523,0.002678,0.000431,0.001058
28689000,0.0324,0.013523,0.002678,0.000431,0.000940
28690000,0.0324,0.013523,0.002678,0.000431,0.001410
28691000,0.0324,0.013523,0.002678,0.000431,0.001175
28692000,0.0324,0.013523,0.002678,0.000431,0.001175
28693000,0.0324,0.013523,0.002678,0.000431,0.001293
28694000,0.0324,0.013523,0.002678,0.000431,0.001645
28695000,0.0324,0.013523,0.002678,0.000431,0.001645
28696000,0.0324,0.013523,0.002678,0.000431,0.000705
28697000,0.0324,0.013523,0.002678,0.000431,0.001175
28698000,0.0324,0.013523,0.002678,0.000431,0.000940
28699000,0.0324,0.013523,0.002678,0.000431,0.001175
28700000,0.0324,0.013523,0.002678,0.000431,0.001175
28701000,0.0324,0.013523,0.002678,0.000431,0.000940
28702000,0.0324,0.013523,0.002678,0.000431,0.001175
28703000,0.0324,0.013523,0.002678,0.000431,0.001058
28704000,0.0324,0.013523,0.002678,0.000431,0.001293
28705000,0.0324,0.013523,0.002678,0.000431,0.001175
28706000,0.0324,0.013523,0.002678,0.000431,0.001175
28707000,0.0324,0.013523,0.002678,0.000431,0.001058
28708000,0.0324,0.013523,0.002678,0.000431,0.001293
28709000,0.0324,0.013523,0.002678,0.000431,0.001645
28710000,0.0324,0.013523,0.002678,0.000431,0.001645
28711000,0.0324,0.013523,0.002678,0.000431,0.001058
28712000,0.0324,0.013523,0.002678,0.000431,0.000940
28713000,0.0324,0.013523,0.002678,0.000431,0.001058
28714000,0.0324,0.013523,0.002678,0.000431,0.000705
28715000,0.0324,0.013523,0.002678,0.000431,0.001410
28716000,0.0324,0.013523,0.002678,0.000431,0.001175
28717000,0.0324,0.013523,0.002678,0.000431,0.000940
28718000,0.0324,0.013523,0.002678,0.000431,0.001175
28719000,0.0324,0.013523,0.002678,0.000431,0.001293
28720000,0.0324,0.013523,0.002678,0.000431,0.001058
28721000,0.0324,0.013523,0.002678,0.000431,0.001410
28722000,0.0324,0.013523,0.002678,0.000431,0.000940
28723000,0.0324,0.013523,0.002678,0.000431,0.001175
28724000,0.0324,0.013523,0.002678,0.000431,0.001410
28725000,0.0324,0.013523,0.002678,0.000431,0.001528
28726000,0.0324,0.013523,0.002678,0.000431,0.000823
28727000,0.0324,0.013523,0.002678,0.000431,0.001175
28728000,0.0324,0.013523,0.002678,0.000431,0.001645
28729000,0.0324,0.013523,0.002678,0.000431,0.001293
28730000,0.0324,0.013523,0.002678,0.000431,0.001293
28731000,0.0324,0.013523,0.002678,0.000431,0.000940
28732000,0.0324,0.013523,0.002678,0.000431,0.000823
28733000,0.0324,0.013523,0.002678,0.000431,0.001175
28734000,0.0324,0.013523,0.002678,0.000431,0.001058
28735000,0.0324,0.013523,0.002678,0.000431,0.000823
28736000,0.0324,0.013523,0.002678,0.000431,0.000705
28737000,0.0324,0.013523,0.002678,0.000431,0.001293
28738000,0.0324,0.013523,0.002678,0.000431,0.001528
28739000,0.0324,0.013523,0.002678,0.000431,0.001175
28740000,0.0324,0.013523,0.002678,0.000431,0.001528
28741000,0.0324,0.013523,0.002678,0.000431,0.001058
28742000,0.0324,0.013523,0.002678,0.000431,0.000940
28743000,0.0324,0.013523,0.002678,0.000431,0.001293
28744000,0.0324,0.013523,0.002678,0.000431,0.001410
28745000,0.0324,0.013523,0.002678,0.000431,0.001175
28746000,0.0324,0.013523,0.002678,0.000431,0.001058
28747000,0.0324,0.013523,0.002678,0.000431,0.000940
28748000,0.0324,0.013523,0.002678,0.000431,0.001293
28749000,0.0324,0.013523,0.002678,0.000431,0.001645
28750000,0.0324,0.013523,0.002678,0.000431,0.001175
28751000,0.0324,0.013523,0.002678,0.000431,0.000823
28752000,0.0324,0.013523,0.002678,0.000431,0.001058
28753000,0.0324,0.013523,0.002678,0.000431,0.001293
28754000,0.0324,0.013523,0.002678,0.000431,0.000823
28755000,0.0324,0.013523,0.002678,0.000431,0.001528
28756000,0.0324,0.013523,0.002678,0.000431,0.000823
28757000,0.0324,0.013523,0.002678,0.000431,0.001175
28758000,0.0324,0.013523,0.002678,0.000431,0.001175
28759000,0.0324,0.013523,0.002678,0.000431,0.001058
28760000,0.0324,0.013523,0.002678,0.000431,0.001528
28761000,0.0324,0.013523,0.002678,0.000431,0.001293
28762000,0.0324,0.013523,0.002678,0.000431,0.001175
28763000,0.0324,0.013523,0.002678,0.000431,0.001175
28764000,0.0324,0.013523,0.002678,0.000431,0.001175
28765000,0.0324,0.013523,0.002678,0.000431,0.001410
28766000,0.0324,0.013523,0.002678,0.000431,0.000823
28767000,0.0324,0.013523,0.002678,0.000431,0.001175
28768000,0.0324,0.013523,0.002678,0.000431,0.000940
28769000,0.0324,0.013523,0.002678,0.000431,0.001293
28770000,0.0324,0.013523,0.002678,0.000431,0.001293
28771000,0.0324,0.013523,0.002678,0.000431,0.001528
28772000,0.0324,0.013523,0.002678,0.000431,0.000940
28773000,0.0324,0.013523,0.002678,0.000431,0.001293
28774000,0.0324,0.013523,0.002678,0.000431,0.001410
28775000,0.0324,0.013523,0.002678,0.000431,0.001410
28776000,0.0324,0.013523,0.002678,0.000431,0.001175
28777000,0.0324,0.013523,0.002678,0.000431,0.001175
28778000,0.0324,0.013523,0.002678,0.000431,0.001175
28779000,0.0324,0.013523,0.002678,0.000431,0.001645
28780000,0.0324,0.013523,0.002678,0.000431,0.001410
28781000,0.0324,0.013523,0.002678,0.000431,0.001175
28782000,0.0324,0.013523,0.002678,0.000431,0.001058
28783000,0.0324,0.013523,0.002678,0.000431,0.001058
28784000,0.0324,0.013523,0.002678,0.000431,0.001175
28785000,0.0324,0.013523,0.002678,0.000431,0.000823
28786000,0.0324,0.013523,0.002678,0.000431,0.000940
28787000,0.0324,0.013523,0.002678,0.000431,0.001410
28788000,0.0324,0.013523,0.002678,0.000431,0.000940
28789000,0.0324,0.013523,0.002678,0.000431,0.001058
28790000,0.0324,0.013523,0.002678,0.000431,0.001175
28791000,0.0324,0.013523,0.002678,0.000431,0.000823
28792000,0.0324,0.013523,0.002678,0.000431,0.001293
28793000,0.0324,0.013523,0.002678,0.000431,0.001058
28794000,0.0324,0.013523,0.002678,0.000431,0.001058
28795000,0.0324,0.013523,0.002678,0.000431,0.001410
28796000,0.0324,0.013523,0.002678,0.000431,0.001410
28797000,0.0324,0.013523,0.002678,0.000431,0.000823
28798000,0.0324,0.013523,0.002678,0.000431,0.001175
28799000,0.0324,0.013523,0.002678,0.000431,0.000940
28800000,0.0324,0.013523,0.002678,0.000431,0.001058
28801000,0.0324,0.013523,0.002678,0.000431,0.001410
28802000,0.0324,0.013523,0.002678,0.000431,0.001175
28803000,0.0324,0.013523,0.002678,0.000431,0.001175
28804000,0.0324,0.013523,0.002678,0.000431,0.001175
28805000,0.0324,0.013523,0.002678,0.000431,0.001175
28806000,0.0324,0.013523,0.002678,0.000431,0.001175
28807000,0.0324,0.013523,0.002678,0.000431,0.000940
28808000,0.0324,0.013523,0.002678,0.000431,0.000940
28809000,0.0324,0.013523,0.002678,0.000431,0.000940
28810000,0.0324,0.013523,0.002678,0.000431,0.001058
28811000,0.0324,0.013523,0.002678,0.000431,0.000940
28812000,0.0324,0.013523,0.002678,0.000431,0.000823
28813000,0.0324,0.013523,0.002678,0.000431,0.001410
28814000,0.0324,0.013523,0.002678,0.000431,0.001175
28815000,0.0324,0.013523,0.002678,0.000431,0.001175
28816000,0.0324,0.013523,0.002678,0.000431,0.000823
28817000,0.0324,0.013523,0.002678,0.000431,0.000823
28818000,0.0324,0.013523,0.002678,0.000431,0.001763
28819000,0.0324,0.013523,0.002678,0.000431,0.000940
28820000,0.0324,0.013523,0.002678,0.000431,0.001293
28821000,0.0324,0.013523,0.002678,0.000431,0.001528
28822000,0.0324,0.013523,0.002678,0.000431,0.000940
28823000,0.0324,0.013523,0.002678,0.000431,0.001058
28824000,0.0324,0.013523,0.002678,0.000431,0.001175
28825000,0.0324,0.013523,0.002678,0.000431,0.001410
28826000,0.0324,0.013523,0.002678,0.000431,0.001410
28827000,0.0324,0.013523,0.002678,0.000431,0.001058
28828000,0.0324,0.013523,0.002678,0.000431,0.001528
28829000,0.0324,0.013523,0.002678,0.000431,0.000940
28830000,0.0324,0.013523,0.002678,0.000431,0.000823
28831000,0.0324,0.013523,0.002678,0.000431,0.001293
28832000,0.0324,0.013523,0.002678,0.000431,0.001528
28833000,0.0324,0.013523,0.002678,0.000431,0.001293
28834000,0.0324,0.013523,0.002678,0.000431,0.001058
28835000,0.0324,0.013523,0.002678,0.000431,0.000823
28836000,0.0324,0.013523,0.002678,0.000431,0.001175
28837000,0.0324,0.013523,0.002678,0.000431,0.001058
28838000,0.0324,0.013523,0.002678,0.000431,0.001293
28839000,0.0324,0.013523,0.002678,0.000431,0.001528
28840000,0.0324,0.013523,0.002678,0.000431,0.000940
28841000,0.0324,0.013523,0.002678,0.000431,0.000823
28842000,0.0324,0.013523,0.002678,0.000431,0.001528
28843000,0.0324,0.013523,0.002678,0.000431,0.000705
28844000,0.0324,0.013523,0.002678,0.000431,0.001293
28845000,0.0324,0.013523,0.002678,0.000431,0.001175
28846000,0.0324,0.013523,0.002678,0.000431,0.001175
28847000,0.0324,0.013523,0.002678,0.000431,0.001645
28848000,0.0324,0.013523,0.002678,0.000431,0.001410
28849000,0.0324,0.013523,0.002678,0.000431,0.001410
28850000,0.0324,0.013523,0.002678,0.000431,0.000940
28851000,0.0324,0.013523,0.002678,0.000431,0.000823
28852000,0.0324,0.013523,0.002678,0.000431,0.001528
28853000,0.0324,0.013523,0.002678,0.000431,0.001175
28854000,0.0324,0.013523,0.002678,0.000431,0.001410
28855000,0.0324,0.013523,0.002678,0.000431,0.001058
28856000,0.0324,0.013523,0.002678,0.000431,0.001058
28857000,0.0324,0.013523,0.002678,0.000431,0.001175
28858000,0.0324,0.013523,0.002678,0.000431,0.001645
28859000,0.0324,0.013523,0.002678,0.000431,0.001410
28860000,0.0324,0.013523,0.002678,0.000431,0.001175
28861000,0.0324,0.013523,0.002678,0.000431,0.000823
28862000,0.0324,0.013523,0.002678,0.000431,0.001410
28863000,0.0324,0.013523,0.002678,0.000431,0.001058
28864000,0.0324,0.013523,0.002678,0.000431,0.001410
28865000,0.0324,0.013523,0.002678,0.000431,0.001058
28866000,0.0324,0.013523,0.002678,0.000431,0.000940
28867000,0.0324,0.013523,0.002678,0.000431,0.001293
28868000,0.0324,0.013523,0.002678,0.000431,0.001175
28869000,0.0324,0.013523,0.002678,0.000431,0.001175
28870000,0.0324,0.013523,0.002678,0.000431,0.000940
28871000,0.0324,0.013523,0.002678,0.000431,0.001175
28872000,0.0324,0.013523,0.002678,0.000431,0.001410
28873000,0.0324,0.013523,0.002678,0.000431,0.001410
28874000,0.0324,0.013523,0.002678,0.000431,0.001058
28875000,0.0324,0.013523,0.002678,0.000431,0.000940
28876000,0.0324,0.013523,0.002678,0.000431,0.001058
28877000,0.0324,0.013523,0.002678,0.000431,0.001175
28878000,0.0324,0.013523,0.002678,0.000431,0.001410
28879000,0.0324,0.013523,0.002678,0.000431,0.000940
28880000,0.0324,0.013523,0.002678,0.000431,0.000940
28881000,0.0324,0.013523,0.002678,0.000431,0.000940
28882000,0.0324,0.013523,0.002678,0.000431,0.001175
28883000,0.0324,0.013523,0.002678,0.000431,0.001410
28884000,0.0324,0.013523,0.002678,0.000431,0.001410
28885000,0.0324,0.013523,0.002678,0.000431,0.001175
28886000,0.0324,0.013523,0.002678,0.000431,0.000940
28887000,0.0324,0.013523,0.002678,0.000431,0.001410
28888000,0.0324,0.013523,0.002678,0.000431,0.001175
28889000,0.0324,0.013523,0.002678,0.000431,0.000823
28890000,0.0324,0.013523,0.002678,0.000431,0.000823
28891000,0.0324,0.013523,0.002678,0.000431,0.001410
28892000,0.0324,0.013523,0.002678,0.000431,0.000940
28893000,0.0324,0.013523,0.002678,0.000431,0.001410
28894000,0.0324,0.013523,0.002678,0.000431,0.001410
28895000,0.0324,0.013523,0.002678,0.000431,0.000823
28896000,0.0324,0.013523,0.002678,0.000431,0.001293
28897000,0.0324,0.013523,0.002678,0.000431,0.001175
28898000,0.0324,0.013523,0.002678,0.000431,0.001175
28899000,0.0324,0.013523,0.002678,0.000431,0.001410
28900000,0.0324,0.013523,0.002678,0.000431,0.001058
28901000,0.0324,0.013523,0.002678,0.000431,0.001058
28902000,0.0324,0.013523,0.002678,0.000431,0.001175
28903000,0.0324,0.013523,0.002678,0.000431,0.001175
28904000,0.0324,0.013523,0.002678,0.000431,0.001645
28905000,0.0324,0.013523,0.002678,0.000431,0.000940
28906000,0.0324,0.013523,0.002678,0.000431,0.001410
28907000,0.0324,0.013523,0.002678,0.000431,0.001175
28908000,0.0324,0.013523,0.002678,0.000431,0.001175
28909000,0.0324,0.013523,0.002678,0.000431,0.001058
28910000,0.0324,0.013523,0.002678,0.000431,0.001175
28911000,0.0324,0.013523,0.002678,0.000431,0.000823
28912000,0.0324,0.013523,0.002678,0.000431,0.001645
28913000,0.0324,0.013523,0.002678,0.000431,0.001645
28914000,0.0324,0.013523,0.002678,0.000431,0.001175
28915000,0.0324,0.013523,0.002678,0.000431,0.000940
28916000,0.0324,0.013523,0.002678,0.000431,0.001410
28917000,0.0324,0.013523,0.002678,0.000431,0.000823
28918000,0.0324,0.013523,0.002678,0.000431,0.001293
28919000,0.0324,0.013523,0.002678,0.000431,0.001293
28920000,0.0324,0.013523,0.002678,0.000431,0.001175
28921000,0.0324,0.013523,0.002678,0.000431,0.000705
28922000,0.0324,0.013523,0.002678,0.000431,0.000940
28923000,0.0324,0.013523,0.002678,0.000431,0.001293
28924000,0.0324,0.013523,0.002678,0.000431,0.001410
28925000,0.0324,0.013523,0.002678,0.000431,0.000940
28926000,0.0324,0.013523,0.002678,0.000431,0.001058
28927000,0.0324,0.013523,0.002678,0.000431,0.000940
28928000,0.0324,0.013523,0.002678,0.000431,0.001293
28929000,0.0324,0.013523,0.002678,0.000431,0.001175
28930000,0.0324,0.013523,0.002678,0.000431,0.001175
28931000,0.0324,0.013523,0.002678,0.000431,0.001410
28932000,0.0324,0.013523,0.002678,0.000431,0.001410
28933000,0.0324,0.013523,0.002678,0.000431,0.000940
28934000,0.0324,0.013523,0.002678,0.000431,0.001645
28935000,0.0324,0.013523,0.002678,0.000431,0.000940
28936000,0.0324,0.013523,0.002678,0.000431,0.000940
28937000,0.0324,0.013523,0.002678,0.000431,0.001175
28938000,0.0324,0.013523,0.002678,0.000431,0.001175
28939000,0.0324,0.013523,0.002678,0.000431,0.001058
28940000,0.0324,0.013523,0.002678,0.000431,0.001293
28941000,0.0324,0.013523,0.002678,0.000431,0.000940
28942000,0.0324,0.013523,0.002678,0.000431,0.001175
28943000,0.0324,0.013523,0.002678,0.000431,0.001410
28944000,0.0324,0.013523,0.002678,0.000431,0.001175
28945000,0.0324,0.013523,0.002678,0.000431,0.001410
28946000,0.0324,0.013523,0.002678,0.000431,0.001058
28947000,0.0324,0.013523,0.002678,0.000431,0.001058
28948000,0.0324,0.013523,0.002678,0.000431,0.000940
28949000,0.0324,0.013523,0.002678,0.000431,0.000940
28950000,0.0324,0.013523,0.002678,0.000431,0.001293
28951000,0.0324,0.013523,0.002678,0.000431,0.001293
28952000,0.0324,0.013523,0.002678,0.000431,0.001645
28953000,0.0324,0.013523,0.002678,0.000431,0.001058
28954000,0.0324,0.013523,0.002678,0.000431,0.001175
28955000,0.0324,0.013523,0.002678,0.000431,0.001058
28956000,0.0324,0.013523,0.002678,0.000431,0.001175
28957000,0.0324,0.013523,0.002678,0.000431,0.000940
28958000,0.0324,0.013523,0.002678,0.000431,0.001175
28959000,0.0324,0.013523,0.002678,0.000431,0.001645
28960000,0.0324,0.013523,0.002678,0.000431,0.001058
28961000,0.0324,0.013523,0.002678,0.000431,0.000705
28962000,0.0324,0.013523,0.002678,0.000431,0.000940
28963000,0.0324,0.013523,0.002678,0.000431,0.001058
28964000,0.0324,0.013523,0.002678,0.000431,0.001528
28965000,0.0324,0.013523,0.002678,0.000431,0.001175
28966000,0.0324,0.013523,0.002678,0.000431,0.001410
28967000,0.0324,0.013523,0.002678,0.000431,0.000940
28968000,0.0324,0.013523,0.002678,0.000431,0.001058
28969000,0.0324,0.013523,0.002678,0.000431,0.001410
28970000,0.0324,0.013523,0.002678,0.000431,0.001293
28971000,0.0324,0.013523,0.002678,0.000431,0.001175
28972000,0.0324,0.013523,0.002678,0.000431,0.000823
28973000,0.0324,0.013523,0.002678,0.000431,0.001175
28974000,0.0324,0.013523,0.002678,0.000431,0.001528
28975000,0.0324,0.013523,0.002678,0.000431,0.001293
28976000,0.0324,0.013523,0.002678,0.000431,0.001528
28977000,0.0324,0.013523,0.002678,0.000431,0.001175
28978000,0.0324,0.013523,0.002678,0.000431,0.000705
28979000,0.0324,0.013523,0.002678,0.000431,0.001175
28980000,0.0324,0.013523,0.002678,0.000431,0.000940
28981000,0.0324,0.013523,0.002678,0.000431,0.000940
28982000,0.0324,0.013523,0.002678,0.000431,0.001293
28983000,0.0324,0.013523,0.002678,0.000431,0.000940
28984000,0.0324,0.013523,0.002678,0.000431,0.000823
28985000,0.0324,0.013523,0.002678,0.000431,0.001058
28986000,0.0324,0.013523,0.002678,0.000431,0.001058
28987000,0.0324,0.013523,0.002678,0.000431,0.000823
28988000,0.0324,0.013523,0.002678,0.000431,0.001175
28989000,0.0324,0.013523,0.002678,0.000431,0.001645
28990000,0.0324,0.013523,0.002678,0.000431,0.001175
28991000,0.0324,0.013523,0.002678,0.000431,0.001175
28992000,0.0324,0.013523,0.002678,0.000431,0.001175
28993000,0.0324,0.013523,0.002678,0.000431,0.001058
28994000,0.0324,0.013523,0.002678,0.000431,0.001528
28995000,0.0324,0.013523,0.002678,0.000431,0.000588
28996000,0.0324,0.013523,0.002678,0.000431,0.001175
28997000,0.0324,0.013523,0.002678,0.000431,0.000940
28998000,0.0324,0.013523,0.002678,0.000431,0.001058
28999000,0.0324,0.013523,0.002678,0.000431,0.001058
