Cycle,Area(mm^2),PeakDynamic(W),SubthresholdLeakage(W),GateLeakage(W),RunTimeDynamic(W)
23000000,0.0324,0.013523,0.002678,0.000431,0.007874
23001000,0.0324,0.013523,0.002678,0.000431,0.008109
23002000,0.0324,0.013523,0.002678,0.000431,0.007639
23003000,0.0324,0.013523,0.002678,0.000431,0.008109
23004000,0.0324,0.013523,0.002678,0.000431,0.007052
23005000,0.0324,0.013523,0.002678,0.000431,0.007757
23006000,0.0324,0.013523,0.002678,0.000431,0.007639
23007000,0.0324,0.013523,0.002678,0.000431,0.007404
23008000,0.0324,0.013523,0.002678,0.000431,0.007404
23009000,0.0324,0.013523,0.002678,0.000431,0.007522
23010000,0.0324,0.013523,0.002678,0.000431,0.008227
23011000,0.0324,0.013523,0.002678,0.000431,0.007052
23012000,0.0324,0.013523,0.002678,0.000431,0.007639
23013000,0.0324,0.013523,0.002678,0.000431,0.008462
23014000,0.0324,0.013523,0.002678,0.000431,0.007757
23015000,0.0324,0.013523,0.002678,0.000431,0.007992
23016000,0.0324,0.013523,0.002678,0.000431,0.007757
23017000,0.0324,0.013523,0.002678,0.000431,0.008462
23018000,0.0324,0.013523,0.002678,0.000431,0.007287
23019000,0.0324,0.013523,0.002678,0.000431,0.007639
23020000,0.0324,0.013523,0.002678,0.000431,0.007992
23021000,0.0324,0.013523,0.002678,0.000431,0.007639
23022000,0.0324,0.013523,0.002678,0.000431,0.007992
23023000,0.0324,0.013523,0.002678,0.000431,0.007169
23024000,0.0324,0.013523,0.002678,0.000431,0.007287
23025000,0.0324,0.013523,0.002678,0.000431,0.007522
23026000,0.0324,0.013523,0.002678,0.000431,0.007052
23027000,0.0324,0.013523,0.002678,0.000431,0.007757
23028000,0.0324,0.013523,0.002678,0.000431,0.007874
23029000,0.0324,0.013523,0.002678,0.000431,0.007639
23030000,0.0324,0.013523,0.002678,0.000431,0.007522
23031000,0.0324,0.013523,0.002678,0.000431,0.008109
23032000,0.0324,0.013523,0.002678,0.000431,0.007757
23033000,0.0324,0.013523,0.002678,0.000431,0.007992
23034000,0.0324,0.013523,0.002678,0.000431,0.007169
23035000,0.0324,0.013523,0.002678,0.000431,0.007287
23036000,0.0324,0.013523,0.002678,0.000431,0.007757
23037000,0.0324,0.013523,0.002678,0.000431,0.007404
23038000,0.0324,0.013523,0.002678,0.000431,0.007757
23039000,0.0324,0.013523,0.002678,0.000431,0.007874
23040000,0.0324,0.013523,0.002678,0.000431,0.007757
23041000,0.0324,0.013523,0.002678,0.000431,0.007522
23042000,0.0324,0.013523,0.002678,0.000431,0.006934
23043000,0.0324,0.013523,0.002678,0.000431,0.007992
23044000,0.0324,0.013523,0.002678,0.000431,0.007757
23045000,0.0324,0.013523,0.002678,0.000431,0.007404
23046000,0.0324,0.013523,0.002678,0.000431,0.007639
23047000,0.0324,0.013523,0.002678,0.000431,0.007404
23048000,0.0324,0.013523,0.002678,0.000431,0.008227
23049000,0.0324,0.013523,0.002678,0.000431,0.007639
23050000,0.0324,0.013523,0.002678,0.000431,0.007404
23051000,0.0324,0.013523,0.002678,0.000431,0.007052
23052000,0.0324,0.013523,0.002678,0.000431,0.007992
23053000,0.0324,0.013523,0.002678,0.000431,0.007522
23054000,0.0324,0.013523,0.002678,0.000431,0.008462
23055000,0.0324,0.013523,0.002678,0.000431,0.008345
23056000,0.0324,0.013523,0.002678,0.000431,0.007052
23057000,0.0324,0.013523,0.002678,0.000431,0.007522
23058000,0.0324,0.013523,0.002678,0.000431,0.007522
23059000,0.0324,0.013523,0.002678,0.000431,0.007287
23060000,0.0324,0.013523,0.002678,0.000431,0.006817
23061000,0.0324,0.013523,0.002678,0.000431,0.007169
23062000,0.0324,0.013523,0.002678,0.000431,0.007287
23063000,0.0324,0.013523,0.002678,0.000431,0.008109
23064000,0.0324,0.013523,0.002678,0.000431,0.007522
23065000,0.0324,0.013523,0.002678,0.000431,0.008345
23066000,0.0324,0.013523,0.002678,0.000431,0.007639
23067000,0.0324,0.013523,0.002678,0.000431,0.007287
23068000,0.0324,0.013523,0.002678,0.000431,0.007639
23069000,0.0324,0.013523,0.002678,0.000431,0.007992
23070000,0.0324,0.013523,0.002678,0.000431,0.007992
23071000,0.0324,0.013523,0.002678,0.000431,0.007639
23072000,0.0324,0.013523,0.002678,0.000431,0.007404
23073000,0.0324,0.013523,0.002678,0.000431,0.008109
23074000,0.0324,0.013523,0.002678,0.000431,0.007404
23075000,0.0324,0.013523,0.002678,0.000431,0.007874
23076000,0.0324,0.013523,0.002678,0.000431,0.007169
23077000,0.0324,0.013523,0.002678,0.000431,0.007052
23078000,0.0324,0.013523,0.002678,0.000431,0.007404
23079000,0.0324,0.013523,0.002678,0.000431,0.007404
23080000,0.0324,0.013523,0.002678,0.000431,0.007992
23081000,0.0324,0.013523,0.002678,0.000431,0.007404
23082000,0.0324,0.013523,0.002678,0.000431,0.007639
23083000,0.0324,0.013523,0.002678,0.000431,0.007052
23084000,0.0324,0.013523,0.002678,0.000431,0.007639
23085000,0.0324,0.013523,0.002678,0.000431,0.007404
23086000,0.0324,0.013523,0.002678,0.000431,0.007757
23087000,0.0324,0.013523,0.002678,0.000431,0.007052
23088000,0.0324,0.013523,0.002678,0.000431,0.007052
23089000,0.0324,0.013523,0.002678,0.000431,0.007287
23090000,0.0324,0.013523,0.002678,0.000431,0.007287
23091000,0.0324,0.013523,0.002678,0.000431,0.006817
23092000,0.0324,0.013523,0.002678,0.000431,0.008109
23093000,0.0324,0.013523,0.002678,0.000431,0.007522
23094000,0.0324,0.013523,0.002678,0.000431,0.007639
23095000,0.0324,0.013523,0.002678,0.000431,0.007404
23096000,0.0324,0.013523,0.002678,0.000431,0.007169
23097000,0.0324,0.013523,0.002678,0.000431,0.007287
23098000,0.0324,0.013523,0.002678,0.000431,0.007404
23099000,0.0324,0.013523,0.002678,0.000431,0.007992
23100000,0.0324,0.013523,0.002678,0.000431,0.007404
23101000,0.0324,0.013523,0.002678,0.000431,0.007169
23102000,0.0324,0.013523,0.002678,0.000431,0.007639
23103000,0.0324,0.013523,0.002678,0.000431,0.007757
23104000,0.0324,0.013523,0.002678,0.000431,0.007874
23105000,0.0324,0.013523,0.002678,0.000431,0.007757
23106000,0.0324,0.013523,0.002678,0.000431,0.008697
23107000,0.0324,0.013523,0.002678,0.000431,0.007639
23108000,0.0324,0.013523,0.002678,0.000431,0.007992
23109000,0.0324,0.013523,0.002678,0.000431,0.007522
23110000,0.0324,0.013523,0.002678,0.000431,0.008462
23111000,0.0324,0.013523,0.002678,0.000431,0.006817
23112000,0.0324,0.013523,0.002678,0.000431,0.006817
23113000,0.0324,0.013523,0.002678,0.000431,0.006817
23114000,0.0324,0.013523,0.002678,0.000431,0.006934
23115000,0.0324,0.013523,0.002678,0.000431,0.006699
23116000,0.0324,0.013523,0.002678,0.000431,0.006464
23117000,0.0324,0.013523,0.002678,0.000431,0.007287
23118000,0.0324,0.013523,0.002678,0.000431,0.006582
23119000,0.0324,0.013523,0.002678,0.000431,0.006817
23120000,0.0324,0.013523,0.002678,0.000431,0.007522
23121000,0.0324,0.013523,0.002678,0.000431,0.007052
23122000,0.0324,0.013523,0.002678,0.000431,0.006934
23123000,0.0324,0.013523,0.002678,0.000431,0.006464
23124000,0.0324,0.013523,0.002678,0.000431,0.007052
23125000,0.0324,0.013523,0.002678,0.000431,0.007169
23126000,0.0324,0.013523,0.002678,0.000431,0.006347
23127000,0.0324,0.013523,0.002678,0.000431,0.007522
23128000,0.0324,0.013523,0.002678,0.000431,0.006817
23129000,0.0324,0.013523,0.002678,0.000431,0.006934
23130000,0.0324,0.013523,0.002678,0.000431,0.006934
23131000,0.0324,0.013523,0.002678,0.000431,0.005994
23132000,0.0324,0.013523,0.002678,0.000431,0.007639
23133000,0.0324,0.013523,0.002678,0.000431,0.006817
23134000,0.0324,0.013523,0.002678,0.000431,0.005994
23135000,0.0324,0.013523,0.002678,0.000431,0.006464
23136000,0.0324,0.013523,0.002678,0.000431,0.006347
23137000,0.0324,0.013523,0.002678,0.000431,0.006582
23138000,0.0324,0.013523,0.002678,0.000431,0.006582
23139000,0.0324,0.013523,0.002678,0.000431,0.006817
23140000,0.0324,0.013523,0.002678,0.000431,0.006817
23141000,0.0324,0.013523,0.002678,0.000431,0.007052
23142000,0.0324,0.013523,0.002678,0.000431,0.006934
23143000,0.0324,0.013523,0.002678,0.000431,0.007287
23144000,0.0324,0.013523,0.002678,0.000431,0.006934
23145000,0.0324,0.013523,0.002678,0.000431,0.007404
23146000,0.0324,0.013523,0.002678,0.000431,0.006111
23147000,0.0324,0.013523,0.002678,0.000431,0.006464
23148000,0.0324,0.013523,0.002678,0.000431,0.007052
23149000,0.0324,0.013523,0.002678,0.000431,0.006229
23150000,0.0324,0.013523,0.002678,0.000431,0.006817
23151000,0.0324,0.013523,0.002678,0.000431,0.006817
23152000,0.0324,0.013523,0.002678,0.000431,0.007052
23153000,0.0324,0.013523,0.002678,0.000431,0.006817
23154000,0.0324,0.013523,0.002678,0.000431,0.006934
23155000,0.0324,0.013523,0.002678,0.000431,0.006934
23156000,0.0324,0.013523,0.002678,0.000431,0.006934
23157000,0.0324,0.013523,0.002678,0.000431,0.006582
23158000,0.0324,0.013523,0.002678,0.000431,0.006817
23159000,0.0324,0.013523,0.002678,0.000431,0.006934
23160000,0.0324,0.013523,0.002678,0.000431,0.006347
23161000,0.0324,0.013523,0.002678,0.000431,0.006229
23162000,0.0324,0.013523,0.002678,0.000431,0.006934
23163000,0.0324,0.013523,0.002678,0.000431,0.006464
23164000,0.0324,0.013523,0.002678,0.000431,0.005994
23165000,0.0324,0.013523,0.002678,0.000431,0.007404
23166000,0.0324,0.013523,0.002678,0.000431,0.006817
23167000,0.0324,0.013523,0.002678,0.000431,0.006699
23168000,0.0324,0.013523,0.002678,0.000431,0.007052
23169000,0.0324,0.013523,0.002678,0.000431,0.007404
23170000,0.0324,0.013523,0.002678,0.000431,0.006111
23171000,0.0324,0.013523,0.002678,0.000431,0.006817
23172000,0.0324,0.013523,0.002678,0.000431,0.007522
23173000,0.0324,0.013523,0.002678,0.000431,0.006817
23174000,0.0324,0.013523,0.002678,0.000431,0.006699
23175000,0.0324,0.013523,0.002678,0.000431,0.006699
23176000,0.0324,0.013523,0.002678,0.000431,0.007052
23177000,0.0324,0.013523,0.002678,0.000431,0.006934
23178000,0.0324,0.013523,0.002678,0.000431,0.006934
23179000,0.0324,0.013523,0.002678,0.000431,0.007169
23180000,0.0324,0.013523,0.002678,0.000431,0.006699
23181000,0.0324,0.013523,0.002678,0.000431,0.006699
23182000,0.0324,0.013523,0.002678,0.000431,0.006111
23183000,0.0324,0.013523,0.002678,0.000431,0.006582
23184000,0.0324,0.013523,0.002678,0.000431,0.006817
23185000,0.0324,0.013523,0.002678,0.000431,0.007052
23186000,0.0324,0.013523,0.002678,0.000431,0.006934
23187000,0.0324,0.013523,0.002678,0.000431,0.007287
23188000,0.0324,0.013523,0.002678,0.000431,0.007404
23189000,0.0324,0.013523,0.002678,0.000431,0.006582
23190000,0.0324,0.013523,0.002678,0.000431,0.007052
23191000,0.0324,0.013523,0.002678,0.000431,0.007052
23192000,0.0324,0.013523,0.002678,0.000431,0.006817
23193000,0.0324,0.013523,0.002678,0.000431,0.006817
23194000,0.0324,0.013523,0.002678,0.000431,0.006582
23195000,0.0324,0.013523,0.002678,0.000431,0.007287
23196000,0.0324,0.013523,0.002678,0.000431,0.007169
23197000,0.0324,0.013523,0.002678,0.000431,0.007287
23198000,0.0324,0.013523,0.002678,0.000431,0.006464
23199000,0.0324,0.013523,0.002678,0.000431,0.007639
23200000,0.0324,0.013523,0.002678,0.000431,0.007052
23201000,0.0324,0.013523,0.002678,0.000431,0.007052
23202000,0.0324,0.013523,0.002678,0.000431,0.007052
23203000,0.0324,0.013523,0.002678,0.000431,0.007169
23204000,0.0324,0.013523,0.002678,0.000431,0.006582
23205000,0.0324,0.013523,0.002678,0.000431,0.007052
23206000,0.0324,0.013523,0.002678,0.000431,0.006582
23207000,0.0324,0.013523,0.002678,0.000431,0.006817
23208000,0.0324,0.013523,0.002678,0.000431,0.006817
23209000,0.0324,0.013523,0.002678,0.000431,0.005994
23210000,0.0324,0.013523,0.002678,0.000431,0.007052
23211000,0.0324,0.013523,0.002678,0.000431,0.006817
23212000,0.0324,0.013523,0.002678,0.000431,0.006229
23213000,0.0324,0.013523,0.002678,0.000431,0.007052
23214000,0.0324,0.013523,0.002678,0.000431,0.006582
23215000,0.0324,0.013523,0.002678,0.000431,0.006817
23216000,0.0324,0.013523,0.002678,0.000431,0.006934
23217000,0.0324,0.013523,0.002678,0.000431,0.006582
23218000,0.0324,0.013523,0.002678,0.000431,0.006229
23219000,0.0324,0.013523,0.002678,0.000431,0.006347
23220000,0.0324,0.013523,0.002678,0.000431,0.006111
23221000,0.0324,0.013523,0.002678,0.000431,0.006699
23222000,0.0324,0.013523,0.002678,0.000431,0.007052
23223000,0.0324,0.013523,0.002678,0.000431,0.006817
23224000,0.0324,0.013523,0.002678,0.000431,0.005876
23225000,0.0324,0.013523,0.002678,0.000431,0.006817
23226000,0.0324,0.013523,0.002678,0.000431,0.006934
23227000,0.0324,0.013523,0.002678,0.000431,0.006699
23228000,0.0324,0.013523,0.002678,0.000431,0.006817
23229000,0.0324,0.013523,0.002678,0.000431,0.006934
23230000,0.0324,0.013523,0.002678,0.000431,0.007404
23231000,0.0324,0.013523,0.002678,0.000431,0.006934
23232000,0.0324,0.013523,0.002678,0.000431,0.007052
23233000,0.0324,0.013523,0.002678,0.000431,0.006464
23234000,0.0324,0.013523,0.002678,0.000431,0.007169
23235000,0.0324,0.013523,0.002678,0.000431,0.006464
23236000,0.0324,0.013523,0.002678,0.000431,0.007052
23237000,0.0324,0.013523,0.002678,0.000431,0.007052
23238000,0.0324,0.013523,0.002678,0.000431,0.007287
23239000,0.0324,0.013523,0.002678,0.000431,0.006934
23240000,0.0324,0.013523,0.002678,0.000431,0.007052
23241000,0.0324,0.013523,0.002678,0.000431,0.006699
23242000,0.0324,0.013523,0.002678,0.000431,0.007522
23243000,0.0324,0.013523,0.002678,0.000431,0.006464
23244000,0.0324,0.013523,0.002678,0.000431,0.007052
23245000,0.0324,0.013523,0.002678,0.000431,0.006934
23246000,0.0324,0.013523,0.002678,0.000431,0.007169
23247000,0.0324,0.013523,0.002678,0.000431,0.006582
23248000,0.0324,0.013523,0.002678,0.000431,0.007757
23249000,0.0324,0.013523,0.002678,0.000431,0.006817
23250000,0.0324,0.013523,0.002678,0.000431,0.006699
23251000,0.0324,0.013523,0.002678,0.000431,0.006347
23252000,0.0324,0.013523,0.002678,0.000431,0.007287
23253000,0.0324,0.013523,0.002678,0.000431,0.007287
23254000,0.0324,0.013523,0.002678,0.000431,0.006699
23255000,0.0324,0.013523,0.002678,0.000431,0.006699
23256000,0.0324,0.013523,0.002678,0.000431,0.006934
23257000,0.0324,0.013523,0.002678,0.000431,0.006934
23258000,0.0324,0.013523,0.002678,0.000431,0.007522
23259000,0.0324,0.013523,0.002678,0.000431,0.006347
23260000,0.0324,0.013523,0.002678,0.000431,0.006817
23261000,0.0324,0.013523,0.002678,0.000431,0.006347
23262000,0.0324,0.013523,0.002678,0.000431,0.006934
23263000,0.0324,0.013523,0.002678,0.000431,0.006934
23264000,0.0324,0.013523,0.002678,0.000431,0.007522
23265000,0.0324,0.013523,0.002678,0.000431,0.007287
23266000,0.0324,0.013523,0.002678,0.000431,0.006464
23267000,0.0324,0.013523,0.002678,0.000431,0.006817
23268000,0.0324,0.013523,0.002678,0.000431,0.007052
23269000,0.0324,0.013523,0.002678,0.000431,0.006817
23270000,0.0324,0.013523,0.002678,0.000431,0.007757
23271000,0.0324,0.013523,0.002678,0.000431,0.006699
23272000,0.0324,0.013523,0.002678,0.000431,0.007169
23273000,0.0324,0.013523,0.002678,0.000431,0.006817
23274000,0.0324,0.013523,0.002678,0.000431,0.007639
23275000,0.0324,0.013523,0.002678,0.000431,0.007404
23276000,0.0324,0.013523,0.002678,0.000431,0.006934
23277000,0.0324,0.013523,0.002678,0.000431,0.007404
23278000,0.0324,0.013523,0.002678,0.000431,0.006934
23279000,0.0324,0.013523,0.002678,0.000431,0.006582
23280000,0.0324,0.013523,0.002678,0.000431,0.007522
23281000,0.0324,0.013523,0.002678,0.000431,0.007522
23282000,0.0324,0.013523,0.002678,0.000431,0.006582
23283000,0.0324,0.013523,0.002678,0.000431,0.007169
23284000,0.0324,0.013523,0.002678,0.000431,0.006464
23285000,0.0324,0.013523,0.002678,0.000431,0.006464
23286000,0.0324,0.013523,0.002678,0.000431,0.006464
23287000,0.0324,0.013523,0.002678,0.000431,0.007052
23288000,0.0324,0.013523,0.002678,0.000431,0.006229
23289000,0.0324,0.013523,0.002678,0.000431,0.006817
23290000,0.0324,0.013523,0.002678,0.000431,0.006817
23291000,0.0324,0.013523,0.002678,0.000431,0.006582
23292000,0.0324,0.013523,0.002678,0.000431,0.006934
23293000,0.0324,0.013523,0.002678,0.000431,0.006582
23294000,0.0324,0.013523,0.002678,0.000431,0.007169
23295000,0.0324,0.013523,0.002678,0.000431,0.005876
23296000,0.0324,0.013523,0.002678,0.000431,0.006582
23297000,0.0324,0.013523,0.002678,0.000431,0.006229
23298000,0.0324,0.013523,0.002678,0.000431,0.006347
23299000,0.0324,0.013523,0.002678,0.000431,0.005759
23300000,0.0324,0.013523,0.002678,0.000431,0.006699
23301000,0.0324,0.013523,0.002678,0.000431,0.005641
23302000,0.0324,0.013523,0.002678,0.000431,0.005759
23303000,0.0324,0.013523,0.002678,0.000431,0.006464
23304000,0.0324,0.013523,0.002678,0.000431,0.006464
23305000,0.0324,0.013523,0.002678,0.000431,0.005641
23306000,0.0324,0.013523,0.002678,0.000431,0.006111
23307000,0.0324,0.013523,0.002678,0.000431,0.005759
23308000,0.0324,0.013523,0.002678,0.000431,0.005994
23309000,0.0324,0.013523,0.002678,0.000431,0.005994
23310000,0.0324,0.013523,0.002678,0.000431,0.005759
23311000,0.0324,0.013523,0.002678,0.000431,0.006582
23312000,0.0324,0.013523,0.002678,0.000431,0.005524
23313000,0.0324,0.013523,0.002678,0.000431,0.005641
23314000,0.0324,0.013523,0.002678,0.000431,0.006817
23315000,0.0324,0.013523,0.002678,0.000431,0.005876
23316000,0.0324,0.013523,0.002678,0.000431,0.006464
23317000,0.0324,0.013523,0.002678,0.000431,0.006347
23318000,0.0324,0.013523,0.002678,0.000431,0.006111
23319000,0.0324,0.013523,0.002678,0.000431,0.005759
23320000,0.0324,0.013523,0.002678,0.000431,0.005876
23321000,0.0324,0.013523,0.002678,0.000431,0.005994
23322000,0.0324,0.013523,0.002678,0.000431,0.005641
23323000,0.0324,0.013523,0.002678,0.000431,0.006464
23324000,0.0324,0.013523,0.002678,0.000431,0.006229
23325000,0.0324,0.013523,0.002678,0.000431,0.006229
23326000,0.0324,0.013523,0.002678,0.000431,0.005994
23327000,0.0324,0.013523,0.002678,0.000431,0.006229
23328000,0.0324,0.013523,0.002678,0.000431,0.005406
23329000,0.0324,0.013523,0.002678,0.000431,0.006464
23330000,0.0324,0.013523,0.002678,0.000431,0.006582
23331000,0.0324,0.013523,0.002678,0.000431,0.005876
23332000,0.0324,0.013523,0.002678,0.000431,0.006582
23333000,0.0324,0.013523,0.002678,0.000431,0.006817
23334000,0.0324,0.013523,0.002678,0.000431,0.005289
23335000,0.0324,0.013523,0.002678,0.000431,0.006347
23336000,0.0324,0.013523,0.002678,0.000431,0.006229
23337000,0.0324,0.013523,0.002678,0.000431,0.005524
23338000,0.0324,0.013523,0.002678,0.000431,0.005876
23339000,0.0324,0.013523,0.002678,0.000431,0.006464
23340000,0.0324,0.013523,0.002678,0.000431,0.006347
23341000,0.0324,0.013523,0.002678,0.000431,0.006699
23342000,0.0324,0.013523,0.002678,0.000431,0.006111
23343000,0.0324,0.013523,0.002678,0.000431,0.006347
23344000,0.0324,0.013523,0.002678,0.000431,0.005994
23345000,0.0324,0.013523,0.002678,0.000431,0.006229
23346000,0.0324,0.013523,0.002678,0.000431,0.005994
23347000,0.0324,0.013523,0.002678,0.000431,0.006111
23348000,0.0324,0.013523,0.002678,0.000431,0.006347
23349000,0.0324,0.013523,0.002678,0.000431,0.006699
23350000,0.0324,0.013523,0.002678,0.000431,0.006111
23351000,0.0324,0.013523,0.002678,0.000431,0.005876
23352000,0.0324,0.013523,0.002678,0.000431,0.006347
23353000,0.0324,0.013523,0.002678,0.000431,0.005641
23354000,0.0324,0.013523,0.002678,0.000431,0.006229
23355000,0.0324,0.013523,0.002678,0.000431,0.006229
23356000,0.0324,0.013523,0.002678,0.000431,0.006229
23357000,0.0324,0.013523,0.002678,0.000431,0.006464
23358000,0.0324,0.013523,0.002678,0.000431,0.005406
23359000,0.0324,0.013523,0.002678,0.000431,0.006229
23360000,0.0324,0.013523,0.002678,0.000431,0.006934
23361000,0.0324,0.013523,0.002678,0.000431,0.005759
23362000,0.0324,0.013523,0.002678,0.000431,0.006817
23363000,0.0324,0.013523,0.002678,0.000431,0.006111
23364000,0.0324,0.013523,0.002678,0.000431,0.006111
23365000,0.0324,0.013523,0.002678,0.000431,0.006347
23366000,0.0324,0.013523,0.002678,0.000431,0.006347
23367000,0.0324,0.013523,0.002678,0.000431,0.006464
23368000,0.0324,0.013523,0.002678,0.000431,0.006582
23369000,0.0324,0.013523,0.002678,0.000431,0.005406
23370000,0.0324,0.013523,0.002678,0.000431,0.005994
23371000,0.0324,0.013523,0.002678,0.000431,0.006347
23372000,0.0324,0.013523,0.002678,0.000431,0.006111
23373000,0.0324,0.013523,0.002678,0.000431,0.006347
23374000,0.0324,0.013523,0.002678,0.000431,0.006111
23375000,0.0324,0.013523,0.002678,0.000431,0.006699
23376000,0.0324,0.013523,0.002678,0.000431,0.006229
23377000,0.0324,0.013523,0.002678,0.000431,0.005759
23378000,0.0324,0.013523,0.002678,0.000431,0.005876
23379000,0.0324,0.013523,0.002678,0.000431,0.006229
23380000,0.0324,0.013523,0.002678,0.000431,0.006229
23381000,0.0324,0.013523,0.002678,0.000431,0.007052
23382000,0.0324,0.013523,0.002678,0.000431,0.005994
23383000,0.0324,0.013523,0.002678,0.000431,0.005406
23384000,0.0324,0.013523,0.002678,0.000431,0.006582
23385000,0.0324,0.013523,0.002678,0.000431,0.005524
23386000,0.0324,0.013523,0.002678,0.000431,0.005876
23387000,0.0324,0.013523,0.002678,0.000431,0.005994
23388000,0.0324,0.013523,0.002678,0.000431,0.005641
23389000,0.0324,0.013523,0.002678,0.000431,0.005876
23390000,0.0324,0.013523,0.002678,0.000431,0.005994
23391000,0.0324,0.013523,0.002678,0.000431,0.005876
23392000,0.0324,0.013523,0.002678,0.000431,0.006229
23393000,0.0324,0.013523,0.002678,0.000431,0.006111
23394000,0.0324,0.013523,0.002678,0.000431,0.005641
23395000,0.0324,0.013523,0.002678,0.000431,0.007052
23396000,0.0324,0.013523,0.002678,0.000431,0.005759
23397000,0.0324,0.013523,0.002678,0.000431,0.006111
23398000,0.0324,0.013523,0.002678,0.000431,0.005876
23399000,0.0324,0.013523,0.002678,0.000431,0.006347
23400000,0.0324,0.013523,0.002678,0.000431,0.005876
23401000,0.0324,0.013523,0.002678,0.000431,0.006229
23402000,0.0324,0.013523,0.002678,0.000431,0.005641
23403000,0.0324,0.013523,0.002678,0.000431,0.006229
23404000,0.0324,0.013523,0.002678,0.000431,0.007169
23405000,0.0324,0.013523,0.002678,0.000431,0.005994
23406000,0.0324,0.013523,0.002678,0.000431,0.006229
23407000,0.0324,0.013523,0.002678,0.000431,0.006699
23408000,0.0324,0.013523,0.002678,0.000431,0.006111
23409000,0.0324,0.013523,0.002678,0.000431,0.006582
23410000,0.0324,0.013523,0.002678,0.000431,0.005994
23411000,0.0324,0.013523,0.002678,0.000431,0.006111
23412000,0.0324,0.013523,0.002678,0.000431,0.006464
23413000,0.0324,0.013523,0.002678,0.000431,0.006464
23414000,0.0324,0.013523,0.002678,0.000431,0.005289
23415000,0.0324,0.013523,0.002678,0.000431,0.006347
23416000,0.0324,0.013523,0.002678,0.000431,0.005524
23417000,0.0324,0.013523,0.002678,0.000431,0.005759
23418000,0.0324,0.013523,0.002678,0.000431,0.006347
23419000,0.0324,0.013523,0.002678,0.000431,0.006229
23420000,0.0324,0.013523,0.002678,0.000431,0.005759
23421000,0.0324,0.013523,0.002678,0.000431,0.006229
23422000,0.0324,0.013523,0.002678,0.000431,0.005994
23423000,0.0324,0.013523,0.002678,0.000431,0.006111
23424000,0.0324,0.013523,0.002678,0.000431,0.007169
23425000,0.0324,0.013523,0.002678,0.000431,0.005994
23426000,0.0324,0.013523,0.002678,0.000431,0.006347
23427000,0.0324,0.013523,0.002678,0.000431,0.006111
23428000,0.0324,0.013523,0.002678,0.000431,0.006229
23429000,0.0324,0.013523,0.002678,0.000431,0.005994
23430000,0.0324,0.013523,0.002678,0.000431,0.006582
23431000,0.0324,0.013523,0.002678,0.000431,0.006111
23432000,0.0324,0.013523,0.002678,0.000431,0.005641
23433000,0.0324,0.013523,0.002678,0.000431,0.006582
23434000,0.0324,0.013523,0.002678,0.000431,0.006464
23435000,0.0324,0.013523,0.002678,0.000431,0.005876
23436000,0.0324,0.013523,0.002678,0.000431,0.006347
23437000,0.0324,0.013523,0.002678,0.000431,0.005641
23438000,0.0324,0.013523,0.002678,0.000431,0.005641
23439000,0.0324,0.013523,0.002678,0.000431,0.005406
23440000,0.0324,0.013523,0.002678,0.000431,0.006934
23441000,0.0324,0.013523,0.002678,0.000431,0.006347
23442000,0.0324,0.013523,0.002678,0.000431,0.005994
23443000,0.0324,0.013523,0.002678,0.000431,0.005994
23444000,0.0324,0.013523,0.002678,0.000431,0.006111
23445000,0.0324,0.013523,0.002678,0.000431,0.006111
23446000,0.0324,0.013523,0.002678,0.000431,0.007052
23447000,0.0324,0.013523,0.002678,0.000431,0.006111
23448000,0.0324,0.013523,0.002678,0.000431,0.006464
23449000,0.0324,0.013523,0.002678,0.000431,0.005994
23450000,0.0324,0.013523,0.002678,0.000431,0.005524
23451000,0.0324,0.013523,0.002678,0.000431,0.006464
23452000,0.0324,0.013523,0.002678,0.000431,0.005524
23453000,0.0324,0.013523,0.002678,0.000431,0.006111
23454000,0.0324,0.013523,0.002678,0.000431,0.005524
23455000,0.0324,0.013523,0.002678,0.000431,0.006347
23456000,0.0324,0.013523,0.002678,0.000431,0.006347
23457000,0.0324,0.013523,0.002678,0.000431,0.005994
23458000,0.0324,0.013523,0.002678,0.000431,0.005876
23459000,0.0324,0.013523,0.002678,0.000431,0.005876
23460000,0.0324,0.013523,0.002678,0.000431,0.005759
23461000,0.0324,0.013523,0.002678,0.000431,0.005994
23462000,0.0324,0.013523,0.002678,0.000431,0.006699
23463000,0.0324,0.013523,0.002678,0.000431,0.006229
23464000,0.0324,0.013523,0.002678,0.000431,0.005876
23465000,0.0324,0.013523,0.002678,0.000431,0.006934
23466000,0.0324,0.013523,0.002678,0.000431,0.006111
23467000,0.0324,0.013523,0.002678,0.000431,0.006229
23468000,0.0324,0.013523,0.002678,0.000431,0.005876
23469000,0.0324,0.013523,0.002678,0.000431,0.006229
23470000,0.0324,0.013523,0.002678,0.000431,0.005876
23471000,0.0324,0.013523,0.002678,0.000431,0.005759
23472000,0.0324,0.013523,0.002678,0.000431,0.006111
23473000,0.0324,0.013523,0.002678,0.000431,0.006229
23474000,0.0324,0.013523,0.002678,0.000431,0.005759
23475000,0.0324,0.013523,0.002678,0.000431,0.006347
23476000,0.0324,0.013523,0.002678,0.000431,0.006582
23477000,0.0324,0.013523,0.002678,0.000431,0.005994
23478000,0.0324,0.013523,0.002678,0.000431,0.006229
23479000,0.0324,0.013523,0.002678,0.000431,0.005641
23480000,0.0324,0.013523,0.002678,0.000431,0.005876
23481000,0.0324,0.013523,0.002678,0.000431,0.006229
23482000,0.0324,0.013523,0.002678,0.000431,0.006229
23483000,0.0324,0.013523,0.002678,0.000431,0.006111
23484000,0.0324,0.013523,0.002678,0.000431,0.006464
23485000,0.0324,0.013523,0.002678,0.000431,0.005641
23486000,0.0324,0.013523,0.002678,0.000431,0.006464
23487000,0.0324,0.013523,0.002678,0.000431,0.006347
23488000,0.0324,0.013523,0.002678,0.000431,0.006347
23489000,0.0324,0.013523,0.002678,0.000431,0.005994
23490000,0.0324,0.013523,0.002678,0.000431,0.006582
23491000,0.0324,0.013523,0.002678,0.000431,0.005994
23492000,0.0324,0.013523,0.002678,0.000431,0.005876
23493000,0.0324,0.013523,0.002678,0.000431,0.006347
23494000,0.0324,0.013523,0.002678,0.000431,0.006229
23495000,0.0324,0.013523,0.002678,0.000431,0.005054
23496000,0.0324,0.013523,0.002678,0.000431,0.005876
23497000,0.0324,0.013523,0.002678,0.000431,0.006582
23498000,0.0324,0.013523,0.002678,0.000431,0.006464
23499000,0.0324,0.013523,0.002678,0.000431,0.005759
23500000,0.0324,0.013523,0.002678,0.000431,0.006699
23501000,0.0324,0.013523,0.002678,0.000431,0.006347
23502000,0.0324,0.013523,0.002678,0.000431,0.006229
23503000,0.0324,0.013523,0.002678,0.000431,0.005876
23504000,0.0324,0.013523,0.002678,0.000431,0.006111
23505000,0.0324,0.013523,0.002678,0.000431,0.005876
23506000,0.0324,0.013523,0.002678,0.000431,0.005759
23507000,0.0324,0.013523,0.002678,0.000431,0.006817
23508000,0.0324,0.013523,0.002678,0.000431,0.005406
23509000,0.0324,0.013523,0.002678,0.000431,0.006229
23510000,0.0324,0.013523,0.002678,0.000431,0.005994
23511000,0.0324,0.013523,0.002678,0.000431,0.005994
23512000,0.0324,0.013523,0.002678,0.000431,0.006229
23513000,0.0324,0.013523,0.002678,0.000431,0.005641
23514000,0.0324,0.013523,0.002678,0.000431,0.006582
23515000,0.0324,0.013523,0.002678,0.000431,0.006347
23516000,0.0324,0.013523,0.002678,0.000431,0.006111
23517000,0.0324,0.013523,0.002678,0.000431,0.006934
23518000,0.0324,0.013523,0.002678,0.000431,0.005994
23519000,0.0324,0.013523,0.002678,0.000431,0.006582
23520000,0.0324,0.013523,0.002678,0.000431,0.006699
23521000,0.0324,0.013523,0.002678,0.000431,0.005759
23522000,0.0324,0.013523,0.002678,0.000431,0.005994
23523000,0.0324,0.013523,0.002678,0.000431,0.006582
23524000,0.0324,0.013523,0.002678,0.000431,0.006347
23525000,0.0324,0.013523,0.002678,0.000431,0.006111
23526000,0.0324,0.013523,0.002678,0.000431,0.005406
23527000,0.0324,0.013523,0.002678,0.000431,0.005994
23528000,0.0324,0.013523,0.002678,0.000431,0.006699
23529000,0.0324,0.013523,0.002678,0.000431,0.006817
23530000,0.0324,0.013523,0.002678,0.000431,0.005876
23531000,0.0324,0.013523,0.002678,0.000431,0.005876
23532000,0.0324,0.013523,0.002678,0.000431,0.005994
23533000,0.0324,0.013523,0.002678,0.000431,0.006464
23534000,0.0324,0.013523,0.002678,0.000431,0.005876
23535000,0.0324,0.013523,0.002678,0.000431,0.005406
23536000,0.0324,0.013523,0.002678,0.000431,0.006464
23537000,0.0324,0.013523,0.002678,0.000431,0.005876
23538000,0.0324,0.013523,0.002678,0.000431,0.006111
23539000,0.0324,0.013523,0.002678,0.000431,0.007287
23540000,0.0324,0.013523,0.002678,0.000431,0.005994
23541000,0.0324,0.013523,0.002678,0.000431,0.005876
23542000,0.0324,0.013523,0.002678,0.000431,0.005759
23543000,0.0324,0.013523,0.002678,0.000431,0.006347
23544000,0.0324,0.013523,0.002678,0.000431,0.006347
23545000,0.0324,0.013523,0.002678,0.000431,0.006582
23546000,0.0324,0.013523,0.002678,0.000431,0.005994
23547000,0.0324,0.013523,0.002678,0.000431,0.006347
23548000,0.0324,0.013523,0.002678,0.000431,0.006699
23549000,0.0324,0.013523,0.002678,0.000431,0.005994
23550000,0.0324,0.013523,0.002678,0.000431,0.006111
23551000,0.0324,0.013523,0.002678,0.000431,0.005876
23552000,0.0324,0.013523,0.002678,0.000431,0.006347
23553000,0.0324,0.013523,0.002678,0.000431,0.005876
23554000,0.0324,0.013523,0.002678,0.000431,0.005994
23555000,0.0324,0.013523,0.002678,0.000431,0.006817
23556000,0.0324,0.013523,0.002678,0.000431,0.005759
23557000,0.0324,0.013523,0.002678,0.000431,0.006111
23558000,0.0324,0.013523,0.002678,0.000431,0.005759
23559000,0.0324,0.013523,0.002678,0.000431,0.006229
23560000,0.0324,0.013523,0.002678,0.000431,0.006934
23561000,0.0324,0.013523,0.002678,0.000431,0.006111
23562000,0.0324,0.013523,0.002678,0.000431,0.005994
23563000,0.0324,0.013523,0.002678,0.000431,0.006582
23564000,0.0324,0.013523,0.002678,0.000431,0.006347
23565000,0.0324,0.013523,0.002678,0.000431,0.005641
23566000,0.0324,0.013523,0.002678,0.000431,0.005876
23567000,0.0324,0.013523,0.002678,0.000431,0.005524
23568000,0.0324,0.013523,0.002678,0.000431,0.006582
23569000,0.0324,0.013523,0.002678,0.000431,0.005876
23570000,0.0324,0.013523,0.002678,0.000431,0.006699
23571000,0.0324,0.013523,0.002678,0.000431,0.006582
23572000,0.0324,0.013523,0.002678,0.000431,0.005289
23573000,0.0324,0.013523,0.002678,0.000431,0.005406
23574000,0.0324,0.013523,0.002678,0.000431,0.006111
23575000,0.0324,0.013523,0.002678,0.000431,0.006111
23576000,0.0324,0.013523,0.002678,0.000431,0.006229
23577000,0.0324,0.013523,0.002678,0.000431,0.005994
23578000,0.0324,0.013523,0.002678,0.000431,0.005759
23579000,0.0324,0.013523,0.002678,0.000431,0.006582
23580000,0.0324,0.013523,0.002678,0.000431,0.005641
23581000,0.0324,0.013523,0.002678,0.000431,0.006347
23582000,0.0324,0.013523,0.002678,0.000431,0.006464
23583000,0.0324,0.013523,0.002678,0.000431,0.006347
23584000,0.0324,0.013523,0.002678,0.000431,0.006229
23585000,0.0324,0.013523,0.002678,0.000431,0.006582
23586000,0.0324,0.013523,0.002678,0.000431,0.006582
23587000,0.0324,0.013523,0.002678,0.000431,0.006464
23588000,0.0324,0.013523,0.002678,0.000431,0.006464
23589000,0.0324,0.013523,0.002678,0.000431,0.006464
23590000,0.0324,0.013523,0.002678,0.000431,0.006582
23591000,0.0324,0.013523,0.002678,0.000431,0.005994
23592000,0.0324,0.013523,0.002678,0.000431,0.005641
23593000,0.0324,0.013523,0.002678,0.000431,0.006347
23594000,0.0324,0.013523,0.002678,0.000431,0.005759
23595000,0.0324,0.013523,0.002678,0.000431,0.005994
23596000,0.0324,0.013523,0.002678,0.000431,0.006347
23597000,0.0324,0.013523,0.002678,0.000431,0.005759
23598000,0.0324,0.013523,0.002678,0.000431,0.007169
23599000,0.0324,0.013523,0.002678,0.000431,0.005406
23600000,0.0324,0.013523,0.002678,0.000431,0.005994
23601000,0.0324,0.013523,0.002678,0.000431,0.005289
23602000,0.0324,0.013523,0.002678,0.000431,0.005171
23603000,0.0324,0.013523,0.002678,0.000431,0.005524
23604000,0.0324,0.013523,0.002678,0.000431,0.005994
23605000,0.0324,0.013523,0.002678,0.000431,0.006347
23606000,0.0324,0.013523,0.002678,0.000431,0.006582
23607000,0.0324,0.013523,0.002678,0.000431,0.006111
23608000,0.0324,0.013523,0.002678,0.000431,0.005641
23609000,0.0324,0.013523,0.002678,0.000431,0.005994
23610000,0.0324,0.013523,0.002678,0.000431,0.005641
23611000,0.0324,0.013523,0.002678,0.000431,0.005994
23612000,0.0324,0.013523,0.002678,0.000431,0.006229
23613000,0.0324,0.013523,0.002678,0.000431,0.005876
23614000,0.0324,0.013523,0.002678,0.000431,0.005759
23615000,0.0324,0.013523,0.002678,0.000431,0.006111
23616000,0.0324,0.013523,0.002678,0.000431,0.006464
23617000,0.0324,0.013523,0.002678,0.000431,0.006229
23618000,0.0324,0.013523,0.002678,0.000431,0.006347
23619000,0.0324,0.013523,0.002678,0.000431,0.006229
23620000,0.0324,0.013523,0.002678,0.000431,0.006111
23621000,0.0324,0.013523,0.002678,0.000431,0.005876
23622000,0.0324,0.013523,0.002678,0.000431,0.006111
23623000,0.0324,0.013523,0.002678,0.000431,0.006229
23624000,0.0324,0.013523,0.002678,0.000431,0.005876
23625000,0.0324,0.013523,0.002678,0.000431,0.006111
23626000,0.0324,0.013523,0.002678,0.000431,0.005759
23627000,0.0324,0.013523,0.002678,0.000431,0.006817
23628000,0.0324,0.013523,0.002678,0.000431,0.005289
23629000,0.0324,0.013523,0.002678,0.000431,0.006229
23630000,0.0324,0.013523,0.002678,0.000431,0.005876
23631000,0.0324,0.013523,0.002678,0.000431,0.005759
23632000,0.0324,0.013523,0.002678,0.000431,0.007052
23633000,0.0324,0.013523,0.002678,0.000431,0.006347
23634000,0.0324,0.013523,0.002678,0.000431,0.005994
23635000,0.0324,0.013523,0.002678,0.000431,0.006464
23636000,0.0324,0.013523,0.002678,0.000431,0.006111
23637000,0.0324,0.013523,0.002678,0.000431,0.007052
23638000,0.0324,0.013523,0.002678,0.000431,0.005994
23639000,0.0324,0.013523,0.002678,0.000431,0.005994
23640000,0.0324,0.013523,0.002678,0.000431,0.005641
23641000,0.0324,0.013523,0.002678,0.000431,0.006229
23642000,0.0324,0.013523,0.002678,0.000431,0.006347
23643000,0.0324,0.013523,0.002678,0.000431,0.005876
23644000,0.0324,0.013523,0.002678,0.000431,0.006111
23645000,0.0324,0.013523,0.002678,0.000431,0.006229
23646000,0.0324,0.013523,0.002678,0.000431,0.006464
23647000,0.0324,0.013523,0.002678,0.000431,0.006347
23648000,0.0324,0.013523,0.002678,0.000431,0.006347
23649000,0.0324,0.013523,0.002678,0.000431,0.005994
23650000,0.0324,0.013523,0.002678,0.000431,0.005759
23651000,0.0324,0.013523,0.002678,0.000431,0.006111
23652000,0.0324,0.013523,0.002678,0.000431,0.006699
23653000,0.0324,0.013523,0.002678,0.000431,0.006229
23654000,0.0324,0.013523,0.002678,0.000431,0.005524
23655000,0.0324,0.013523,0.002678,0.000431,0.006229
23656000,0.0324,0.013523,0.002678,0.000431,0.006582
23657000,0.0324,0.013523,0.002678,0.000431,0.005171
23658000,0.0324,0.013523,0.002678,0.000431,0.005994
23659000,0.0324,0.013523,0.002678,0.000431,0.005759
23660000,0.0324,0.013523,0.002678,0.000431,0.006699
23661000,0.0324,0.013523,0.002678,0.000431,0.006347
23662000,0.0324,0.013523,0.002678,0.000431,0.006582
23663000,0.0324,0.013523,0.002678,0.000431,0.006934
23664000,0.0324,0.013523,0.002678,0.000431,0.005759
23665000,0.0324,0.013523,0.002678,0.000431,0.005759
23666000,0.0324,0.013523,0.002678,0.000431,0.006111
23667000,0.0324,0.013523,0.002678,0.000431,0.006817
23668000,0.0324,0.013523,0.002678,0.000431,0.005876
23669000,0.0324,0.013523,0.002678,0.000431,0.005759
23670000,0.0324,0.013523,0.002678,0.000431,0.005994
23671000,0.0324,0.013523,0.002678,0.000431,0.005641
23672000,0.0324,0.013523,0.002678,0.000431,0.006111
23673000,0.0324,0.013523,0.002678,0.000431,0.005759
23674000,0.0324,0.013523,0.002678,0.000431,0.005641
23675000,0.0324,0.013523,0.002678,0.000431,0.006464
23676000,0.0324,0.013523,0.002678,0.000431,0.006464
23677000,0.0324,0.013523,0.002678,0.000431,0.005994
23678000,0.0324,0.013523,0.002678,0.000431,0.006934
23679000,0.0324,0.013523,0.002678,0.000431,0.005876
23680000,0.0324,0.013523,0.002678,0.000431,0.005524
23681000,0.0324,0.013523,0.002678,0.000431,0.005876
23682000,0.0324,0.013523,0.002678,0.000431,0.005994
23683000,0.0324,0.013523,0.002678,0.000431,0.006347
23684000,0.0324,0.013523,0.002678,0.000431,0.005994
23685000,0.0324,0.013523,0.002678,0.000431,0.006699
23686000,0.0324,0.013523,0.002678,0.000431,0.006347
23687000,0.0324,0.013523,0.002678,0.000431,0.005759
23688000,0.0324,0.013523,0.002678,0.000431,0.005994
23689000,0.0324,0.013523,0.002678,0.000431,0.006582
23690000,0.0324,0.013523,0.002678,0.000431,0.005406
23691000,0.0324,0.013523,0.002678,0.000431,0.006582
23692000,0.0324,0.013523,0.002678,0.000431,0.005641
23693000,0.0324,0.013523,0.002678,0.000431,0.006464
23694000,0.0324,0.013523,0.002678,0.000431,0.005994
23695000,0.0324,0.013523,0.002678,0.000431,0.005876
23696000,0.0324,0.013523,0.002678,0.000431,0.006229
23697000,0.0324,0.013523,0.002678,0.000431,0.006111
23698000,0.0324,0.013523,0.002678,0.000431,0.005524
23699000,0.0324,0.013523,0.002678,0.000431,0.005994
23700000,0.0324,0.013523,0.002678,0.000431,0.006347
23701000,0.0324,0.013523,0.002678,0.000431,0.005641
23702000,0.0324,0.013523,0.002678,0.000431,0.005876
23703000,0.0324,0.013523,0.002678,0.000431,0.006582
23704000,0.0324,0.013523,0.002678,0.000431,0.006347
23705000,0.0324,0.013523,0.002678,0.000431,0.006111
23706000,0.0324,0.013523,0.002678,0.000431,0.006934
23707000,0.0324,0.013523,0.002678,0.000431,0.005876
23708000,0.0324,0.013523,0.002678,0.000431,0.006699
23709000,0.0324,0.013523,0.002678,0.000431,0.005759
23710000,0.0324,0.013523,0.002678,0.000431,0.005994
23711000,0.0324,0.013523,0.002678,0.000431,0.005524
23712000,0.0324,0.013523,0.002678,0.000431,0.006582
23713000,0.0324,0.013523,0.002678,0.000431,0.006347
23714000,0.0324,0.013523,0.002678,0.000431,0.006699
23715000,0.0324,0.013523,0.002678,0.000431,0.005876
23716000,0.0324,0.013523,0.002678,0.000431,0.006111
23717000,0.0324,0.013523,0.002678,0.000431,0.006229
23718000,0.0324,0.013523,0.002678,0.000431,0.005994
23719000,0.0324,0.013523,0.002678,0.000431,0.006464
23720000,0.0324,0.013523,0.002678,0.000431,0.006111
23721000,0.0324,0.013523,0.002678,0.000431,0.005641
23722000,0.0324,0.013523,0.002678,0.000431,0.005994
23723000,0.0324,0.013523,0.002678,0.000431,0.006229
23724000,0.0324,0.013523,0.002678,0.000431,0.006229
23725000,0.0324,0.013523,0.002678,0.000431,0.005641
23726000,0.0324,0.013523,0.002678,0.000431,0.006582
23727000,0.0324,0.013523,0.002678,0.000431,0.005406
23728000,0.0324,0.013523,0.002678,0.000431,0.006111
23729000,0.0324,0.013523,0.002678,0.000431,0.006347
23730000,0.0324,0.013523,0.002678,0.000431,0.005876
23731000,0.0324,0.013523,0.002678,0.000431,0.005994
23732000,0.0324,0.013523,0.002678,0.000431,0.005524
23733000,0.0324,0.013523,0.002678,0.000431,0.006229
23734000,0.0324,0.013523,0.002678,0.000431,0.006699
23735000,0.0324,0.013523,0.002678,0.000431,0.005876
23736000,0.0324,0.013523,0.002678,0.000431,0.005994
23737000,0.0324,0.013523,0.002678,0.000431,0.005759
23738000,0.0324,0.013523,0.002678,0.000431,0.005759
23739000,0.0324,0.013523,0.002678,0.000431,0.006111
23740000,0.0324,0.013523,0.002678,0.000431,0.006817
23741000,0.0324,0.013523,0.002678,0.000431,0.005994
23742000,0.0324,0.013523,0.002678,0.000431,0.005759
23743000,0.0324,0.013523,0.002678,0.000431,0.005876
23744000,0.0324,0.013523,0.002678,0.000431,0.006229
23745000,0.0324,0.013523,0.002678,0.000431,0.006347
23746000,0.0324,0.013523,0.002678,0.000431,0.005641
23747000,0.0324,0.013523,0.002678,0.000431,0.005759
23748000,0.0324,0.013523,0.002678,0.000431,0.005759
23749000,0.0324,0.013523,0.002678,0.000431,0.005994
23750000,0.0324,0.013523,0.002678,0.000431,0.006699
23751000,0.0324,0.013523,0.002678,0.000431,0.005994
23752000,0.0324,0.013523,0.002678,0.000431,0.005759
23753000,0.0324,0.013523,0.002678,0.000431,0.006934
23754000,0.0324,0.013523,0.002678,0.000431,0.006229
23755000,0.0324,0.013523,0.002678,0.000431,0.005759
23756000,0.0324,0.013523,0.002678,0.000431,0.005994
23757000,0.0324,0.013523,0.002678,0.000431,0.006229
23758000,0.0324,0.013523,0.002678,0.000431,0.005876
23759000,0.0324,0.013523,0.002678,0.000431,0.005994
23760000,0.0324,0.013523,0.002678,0.000431,0.006229
23761000,0.0324,0.013523,0.002678,0.000431,0.006229
23762000,0.0324,0.013523,0.002678,0.000431,0.006699
23763000,0.0324,0.013523,0.002678,0.000431,0.005641
23764000,0.0324,0.013523,0.002678,0.000431,0.005759
23765000,0.0324,0.013523,0.002678,0.000431,0.006934
23766000,0.0324,0.013523,0.002678,0.000431,0.005876
23767000,0.0324,0.013523,0.002678,0.000431,0.005759
23768000,0.0324,0.013523,0.002678,0.000431,0.005994
23769000,0.0324,0.013523,0.002678,0.000431,0.005524
23770000,0.0324,0.013523,0.002678,0.000431,0.005876
23771000,0.0324,0.013523,0.002678,0.000431,0.006817
23772000,0.0324,0.013523,0.002678,0.000431,0.006347
23773000,0.0324,0.013523,0.002678,0.000431,0.005876
23774000,0.0324,0.013523,0.002678,0.000431,0.006347
23775000,0.0324,0.013523,0.002678,0.000431,0.006229
23776000,0.0324,0.013523,0.002678,0.000431,0.005994
23777000,0.0324,0.013523,0.002678,0.000431,0.006347
23778000,0.0324,0.013523,0.002678,0.000431,0.006817
23779000,0.0324,0.013523,0.002678,0.000431,0.005876
23780000,0.0324,0.013523,0.002678,0.000431,0.007287
23781000,0.0324,0.013523,0.002678,0.000431,0.005641
23782000,0.0324,0.013523,0.002678,0.000431,0.006582
23783000,0.0324,0.013523,0.002678,0.000431,0.006347
23784000,0.0324,0.013523,0.002678,0.000431,0.005759
23785000,0.0324,0.013523,0.002678,0.000431,0.006347
23786000,0.0324,0.013523,0.002678,0.000431,0.006229
23787000,0.0324,0.013523,0.002678,0.000431,0.005641
23788000,0.0324,0.013523,0.002678,0.000431,0.005876
23789000,0.0324,0.013523,0.002678,0.000431,0.006347
23790000,0.0324,0.013523,0.002678,0.000431,0.006111
23791000,0.0324,0.013523,0.002678,0.000431,0.006111
23792000,0.0324,0.013523,0.002678,0.000431,0.005524
23793000,0.0324,0.013523,0.002678,0.000431,0.006229
23794000,0.0324,0.013523,0.002678,0.000431,0.006464
23795000,0.0324,0.013523,0.002678,0.000431,0.005994
23796000,0.0324,0.013523,0.002678,0.000431,0.006464
23797000,0.0324,0.013523,0.002678,0.000431,0.006464
23798000,0.0324,0.013523,0.002678,0.000431,0.005994
23799000,0.0324,0.013523,0.002678,0.000431,0.006347
23800000,0.0324,0.013523,0.002678,0.000431,0.005994
23801000,0.0324,0.013523,0.002678,0.000431,0.005876
23802000,0.0324,0.013523,0.002678,0.000431,0.005994
23803000,0.0324,0.013523,0.002678,0.000431,0.005876
23804000,0.0324,0.013523,0.002678,0.000431,0.006229
23805000,0.0324,0.013523,0.002678,0.000431,0.006699
23806000,0.0324,0.013523,0.002678,0.000431,0.006111
23807000,0.0324,0.013523,0.002678,0.000431,0.005994
23808000,0.0324,0.013523,0.002678,0.000431,0.006464
23809000,0.0324,0.013523,0.002678,0.000431,0.006347
23810000,0.0324,0.013523,0.002678,0.000431,0.006111
23811000,0.0324,0.013523,0.002678,0.000431,0.006347
23812000,0.0324,0.013523,0.002678,0.000431,0.006699
23813000,0.0324,0.013523,0.002678,0.000431,0.005641
23814000,0.0324,0.013523,0.002678,0.000431,0.005641
23815000,0.0324,0.013523,0.002678,0.000431,0.005876
23816000,0.0324,0.013523,0.002678,0.000431,0.006464
23817000,0.0324,0.013523,0.002678,0.000431,0.005994
23818000,0.0324,0.013523,0.002678,0.000431,0.006229
23819000,0.0324,0.013523,0.002678,0.000431,0.006111
23820000,0.0324,0.013523,0.002678,0.000431,0.006347
23821000,0.0324,0.013523,0.002678,0.000431,0.005876
23822000,0.0324,0.013523,0.002678,0.000431,0.005994
23823000,0.0324,0.013523,0.002678,0.000431,0.005994
23824000,0.0324,0.013523,0.002678,0.000431,0.005994
23825000,0.0324,0.013523,0.002678,0.000431,0.005876
23826000,0.0324,0.013523,0.002678,0.000431,0.005876
23827000,0.0324,0.013523,0.002678,0.000431,0.005524
23828000,0.0324,0.013523,0.002678,0.000431,0.006111
23829000,0.0324,0.013523,0.002678,0.000431,0.005994
23830000,0.0324,0.013523,0.002678,0.000431,0.005994
23831000,0.0324,0.013523,0.002678,0.000431,0.005994
23832000,0.0324,0.013523,0.002678,0.000431,0.005641
23833000,0.0324,0.013523,0.002678,0.000431,0.006111
23834000,0.0324,0.013523,0.002678,0.000431,0.005641
23835000,0.0324,0.013523,0.002678,0.000431,0.006347
23836000,0.0324,0.013523,0.002678,0.000431,0.006464
23837000,0.0324,0.013523,0.002678,0.000431,0.006111
23838000,0.0324,0.013523,0.002678,0.000431,0.006582
23839000,0.0324,0.013523,0.002678,0.000431,0.006111
23840000,0.0324,0.013523,0.002678,0.000431,0.005406
23841000,0.0324,0.013523,0.002678,0.000431,0.006699
23842000,0.0324,0.013523,0.002678,0.000431,0.006229
23843000,0.0324,0.013523,0.002678,0.000431,0.006111
23844000,0.0324,0.013523,0.002678,0.000431,0.006464
23845000,0.0324,0.013523,0.002678,0.000431,0.005994
23846000,0.0324,0.013523,0.002678,0.000431,0.005406
23847000,0.0324,0.013523,0.002678,0.000431,0.005994
23848000,0.0324,0.013523,0.002678,0.000431,0.006464
23849000,0.0324,0.013523,0.002678,0.000431,0.006111
23850000,0.0324,0.013523,0.002678,0.000431,0.005524
23851000,0.0324,0.013523,0.002678,0.000431,0.005759
23852000,0.0324,0.013523,0.002678,0.000431,0.005994
23853000,0.0324,0.013523,0.002678,0.000431,0.006347
23854000,0.0324,0.013523,0.002678,0.000431,0.006347
23855000,0.0324,0.013523,0.002678,0.000431,0.005406
23856000,0.0324,0.013523,0.002678,0.000431,0.005876
23857000,0.0324,0.013523,0.002678,0.000431,0.006464
23858000,0.0324,0.013523,0.002678,0.000431,0.005994
23859000,0.0324,0.013523,0.002678,0.000431,0.006347
23860000,0.0324,0.013523,0.002678,0.000431,0.006582
23861000,0.0324,0.013523,0.002678,0.000431,0.006111
23862000,0.0324,0.013523,0.002678,0.000431,0.005641
23863000,0.0324,0.013523,0.002678,0.000431,0.006111
23864000,0.0324,0.013523,0.002678,0.000431,0.005994
23865000,0.0324,0.013523,0.002678,0.000431,0.006347
23866000,0.0324,0.013523,0.002678,0.000431,0.006582
23867000,0.0324,0.013523,0.002678,0.000431,0.005994
23868000,0.0324,0.013523,0.002678,0.000431,0.006699
23869000,0.0324,0.013523,0.002678,0.000431,0.006111
23870000,0.0324,0.013523,0.002678,0.000431,0.006347
23871000,0.0324,0.013523,0.002678,0.000431,0.006111
23872000,0.0324,0.013523,0.002678,0.000431,0.006229
23873000,0.0324,0.013523,0.002678,0.000431,0.006347
23874000,0.0324,0.013523,0.002678,0.000431,0.006111
23875000,0.0324,0.013523,0.002678,0.000431,0.005641
23876000,0.0324,0.013523,0.002678,0.000431,0.006229
23877000,0.0324,0.013523,0.002678,0.000431,0.006464
23878000,0.0324,0.013523,0.002678,0.000431,0.006111
23879000,0.0324,0.013523,0.002678,0.000431,0.005994
23880000,0.0324,0.013523,0.002678,0.000431,0.006699
23881000,0.0324,0.013523,0.002678,0.000431,0.006347
23882000,0.0324,0.013523,0.002678,0.000431,0.005876
23883000,0.0324,0.013523,0.002678,0.000431,0.006347
23884000,0.0324,0.013523,0.002678,0.000431,0.005876
23885000,0.0324,0.013523,0.002678,0.000431,0.006934
23886000,0.0324,0.013523,0.002678,0.000431,0.005406
23887000,0.0324,0.013523,0.002678,0.000431,0.005994
23888000,0.0324,0.013523,0.002678,0.000431,0.006934
23889000,0.0324,0.013523,0.002678,0.000431,0.006347
23890000,0.0324,0.013523,0.002678,0.000431,0.005759
23891000,0.0324,0.013523,0.002678,0.000431,0.005406
23892000,0.0324,0.013523,0.002678,0.000431,0.005406
23893000,0.0324,0.013523,0.002678,0.000431,0.006111
23894000,0.0324,0.013523,0.002678,0.000431,0.006347
23895000,0.0324,0.013523,0.002678,0.000431,0.006582
23896000,0.0324,0.013523,0.002678,0.000431,0.005759
23897000,0.0324,0.013523,0.002678,0.000431,0.005759
23898000,0.0324,0.013523,0.002678,0.000431,0.006229
23899000,0.0324,0.013523,0.002678,0.000431,0.006111
23900000,0.0324,0.013523,0.002678,0.000431,0.007404
23901000,0.0324,0.013523,0.002678,0.000431,0.005641
23902000,0.0324,0.013523,0.002678,0.000431,0.005524
23903000,0.0324,0.013523,0.002678,0.000431,0.005876
23904000,0.0324,0.013523,0.002678,0.000431,0.006464
23905000,0.0324,0.013523,0.002678,0.000431,0.006934
23906000,0.0324,0.013523,0.002678,0.000431,0.005876
23907000,0.0324,0.013523,0.002678,0.000431,0.005524
23908000,0.0324,0.013523,0.002678,0.000431,0.006229
23909000,0.0324,0.013523,0.002678,0.000431,0.006817
23910000,0.0324,0.013523,0.002678,0.000431,0.006229
23911000,0.0324,0.013523,0.002678,0.000431,0.005994
23912000,0.0324,0.013523,0.002678,0.000431,0.005994
23913000,0.0324,0.013523,0.002678,0.000431,0.005876
23914000,0.0324,0.013523,0.002678,0.000431,0.006347
23915000,0.0324,0.013523,0.002678,0.000431,0.006347
23916000,0.0324,0.013523,0.002678,0.000431,0.006229
23917000,0.0324,0.013523,0.002678,0.000431,0.005641
23918000,0.0324,0.013523,0.002678,0.000431,0.006699
23919000,0.0324,0.013523,0.002678,0.000431,0.006464
23920000,0.0324,0.013523,0.002678,0.000431,0.005876
23921000,0.0324,0.013523,0.002678,0.000431,0.006464
23922000,0.0324,0.013523,0.002678,0.000431,0.005994
23923000,0.0324,0.013523,0.002678,0.000431,0.005289
23924000,0.0324,0.013523,0.002678,0.000431,0.006229
23925000,0.0324,0.013523,0.002678,0.000431,0.005994
23926000,0.0324,0.013523,0.002678,0.000431,0.007287
23927000,0.0324,0.013523,0.002678,0.000431,0.005759
23928000,0.0324,0.013523,0.002678,0.000431,0.005406
23929000,0.0324,0.013523,0.002678,0.000431,0.006111
23930000,0.0324,0.013523,0.002678,0.000431,0.006934
23931000,0.0324,0.013523,0.002678,0.000431,0.006229
23932000,0.0324,0.013523,0.002678,0.000431,0.006111
23933000,0.0324,0.013523,0.002678,0.000431,0.006582
23934000,0.0324,0.013523,0.002678,0.000431,0.006229
23935000,0.0324,0.013523,0.002678,0.000431,0.006699
23936000,0.0324,0.013523,0.002678,0.000431,0.005759
23937000,0.0324,0.013523,0.002678,0.000431,0.005524
23938000,0.0324,0.013523,0.002678,0.000431,0.005641
23939000,0.0324,0.013523,0.002678,0.000431,0.006934
23940000,0.0324,0.013523,0.002678,0.000431,0.005641
23941000,0.0324,0.013523,0.002678,0.000431,0.005759
23942000,0.0324,0.013523,0.002678,0.000431,0.005994
23943000,0.0324,0.013523,0.002678,0.000431,0.006229
23944000,0.0324,0.013523,0.002678,0.000431,0.007052
23945000,0.0324,0.013523,0.002678,0.000431,0.005876
23946000,0.0324,0.013523,0.002678,0.000431,0.006464
23947000,0.0324,0.013523,0.002678,0.000431,0.006229
23948000,0.0324,0.013523,0.002678,0.000431,0.006229
23949000,0.0324,0.013523,0.002678,0.000431,0.006229
23950000,0.0324,0.013523,0.002678,0.000431,0.006111
23951000,0.0324,0.013523,0.002678,0.000431,0.006111
23952000,0.0324,0.013523,0.002678,0.000431,0.006111
23953000,0.0324,0.013523,0.002678,0.000431,0.005994
23954000,0.0324,0.013523,0.002678,0.000431,0.006229
23955000,0.0324,0.013523,0.002678,0.000431,0.005994
23956000,0.0324,0.013523,0.002678,0.000431,0.005876
23957000,0.0324,0.013523,0.002678,0.000431,0.006111
23958000,0.0324,0.013523,0.002678,0.000431,0.006229
23959000,0.0324,0.013523,0.002678,0.000431,0.006347
23960000,0.0324,0.013523,0.002678,0.000431,0.006347
23961000,0.0324,0.013523,0.002678,0.000431,0.006464
23962000,0.0324,0.013523,0.002678,0.000431,0.006464
23963000,0.0324,0.013523,0.002678,0.000431,0.006111
23964000,0.0324,0.013523,0.002678,0.000431,0.005524
23965000,0.0324,0.013523,0.002678,0.000431,0.006229
23966000,0.0324,0.013523,0.002678,0.000431,0.006111
23967000,0.0324,0.013523,0.002678,0.000431,0.006111
23968000,0.0324,0.013523,0.002678,0.000431,0.006229
23969000,0.0324,0.013523,0.002678,0.000431,0.005289
23970000,0.0324,0.013523,0.002678,0.000431,0.006111
23971000,0.0324,0.013523,0.002678,0.000431,0.005876
23972000,0.0324,0.013523,0.002678,0.000431,0.005406
23973000,0.0324,0.013523,0.002678,0.000431,0.006582
23974000,0.0324,0.013523,0.002678,0.000431,0.005876
23975000,0.0324,0.013523,0.002678,0.000431,0.005994
23976000,0.0324,0.013523,0.002678,0.000431,0.006229
23977000,0.0324,0.013523,0.002678,0.000431,0.006229
23978000,0.0324,0.013523,0.002678,0.000431,0.006347
23979000,0.0324,0.013523,0.002678,0.000431,0.006347
23980000,0.0324,0.013523,0.002678,0.000431,0.006347
23981000,0.0324,0.013523,0.002678,0.000431,0.006464
23982000,0.0324,0.013523,0.002678,0.000431,0.005641
23983000,0.0324,0.013523,0.002678,0.000431,0.007052
23984000,0.0324,0.013523,0.002678,0.000431,0.005524
23985000,0.0324,0.013523,0.002678,0.000431,0.005994
23986000,0.0324,0.013523,0.002678,0.000431,0.006111
23987000,0.0324,0.013523,0.002678,0.000431,0.005994
23988000,0.0324,0.013523,0.002678,0.000431,0.006699
23989000,0.0324,0.013523,0.002678,0.000431,0.005524
23990000,0.0324,0.013523,0.002678,0.000431,0.005994
23991000,0.0324,0.013523,0.002678,0.000431,0.006347
23992000,0.0324,0.013523,0.002678,0.000431,0.006347
23993000,0.0324,0.013523,0.002678,0.000431,0.006582
23994000,0.0324,0.013523,0.002678,0.000431,0.006111
23995000,0.0324,0.013523,0.002678,0.000431,0.006229
23996000,0.0324,0.013523,0.002678,0.000431,0.005994
23997000,0.0324,0.013523,0.002678,0.000431,0.006582
23998000,0.0324,0.013523,0.002678,0.000431,0.006111
23999000,0.0324,0.013523,0.002678,0.000431,0.006229
