Cycle,Area(mm^2),PeakDynamic(W),SubthresholdLeakage(W),GateLeakage(W),RunTimeDynamic(W)
21000000,0.0324,0.013523,0.002678,0.000431,0.009167
21001000,0.0324,0.013523,0.002678,0.000431,0.009167
21002000,0.0324,0.013523,0.002678,0.000431,0.009637
21003000,0.0324,0.013523,0.002678,0.000431,0.008109
21004000,0.0324,0.013523,0.002678,0.000431,0.009402
21005000,0.0324,0.013523,0.002678,0.000431,0.009990
21006000,0.0324,0.013523,0.002678,0.000431,0.008815
21007000,0.0324,0.013523,0.002678,0.000431,0.008109
21008000,0.0324,0.013523,0.002678,0.000431,0.008109
21009000,0.0324,0.013523,0.002678,0.000431,0.009755
21010000,0.0324,0.013523,0.002678,0.000431,0.010107
21011000,0.0324,0.013523,0.002678,0.000431,0.008227
21012000,0.0324,0.013523,0.002678,0.000431,0.008227
21013000,0.0324,0.013523,0.002678,0.000431,0.009872
21014000,0.0324,0.013523,0.002678,0.000431,0.008580
21015000,0.0324,0.013523,0.002678,0.000431,0.008815
21016000,0.0324,0.013523,0.002678,0.000431,0.009520
21017000,0.0324,0.013523,0.002678,0.000431,0.009285
21018000,0.0324,0.013523,0.002678,0.000431,0.009167
21019000,0.0324,0.013523,0.002678,0.000431,0.008580
21020000,0.0324,0.013523,0.002678,0.000431,0.009755
21021000,0.0324,0.013523,0.002678,0.000431,0.009637
21022000,0.0324,0.013523,0.002678,0.000431,0.009167
21023000,0.0324,0.013523,0.002678,0.000431,0.009050
21024000,0.0324,0.013523,0.002678,0.000431,0.009520
21025000,0.0324,0.013523,0.002678,0.000431,0.009637
21026000,0.0324,0.013523,0.002678,0.000431,0.009167
21027000,0.0324,0.013523,0.002678,0.000431,0.010342
21028000,0.0324,0.013523,0.002678,0.000431,0.009402
21029000,0.0324,0.013523,0.002678,0.000431,0.008462
21030000,0.0324,0.013523,0.002678,0.000431,0.009872
21031000,0.0324,0.013523,0.002678,0.000431,0.008580
21032000,0.0324,0.013523,0.002678,0.000431,0.009637
21033000,0.0324,0.013523,0.002678,0.000431,0.009990
21034000,0.0324,0.013523,0.002678,0.000431,0.008109
21035000,0.0324,0.013523,0.002678,0.000431,0.008345
21036000,0.0324,0.013523,0.002678,0.000431,0.009050
21037000,0.0324,0.013523,0.002678,0.000431,0.008932
21038000,0.0324,0.013523,0.002678,0.000431,0.009637
21039000,0.0324,0.013523,0.002678,0.000431,0.008815
21040000,0.0324,0.013523,0.002678,0.000431,0.009167
21041000,0.0324,0.013523,0.002678,0.000431,0.008462
21042000,0.0324,0.013523,0.002678,0.000431,0.009050
21043000,0.0324,0.013523,0.002678,0.000431,0.009520
21044000,0.0324,0.013523,0.002678,0.000431,0.008109
21045000,0.0324,0.013523,0.002678,0.000431,0.008932
21046000,0.0324,0.013523,0.002678,0.000431,0.009520
21047000,0.0324,0.013523,0.002678,0.000431,0.009402
21048000,0.0324,0.013523,0.002678,0.000431,0.008580
21049000,0.0324,0.013523,0.002678,0.000431,0.009285
21050000,0.0324,0.013523,0.002678,0.000431,0.009402
21051000,0.0324,0.013523,0.002678,0.000431,0.010225
21052000,0.0324,0.013523,0.002678,0.000431,0.007757
21053000,0.0324,0.013523,0.002678,0.000431,0.009872
21054000,0.0324,0.013523,0.002678,0.000431,0.009755
21055000,0.0324,0.013523,0.002678,0.000431,0.008697
21056000,0.0324,0.013523,0.002678,0.000431,0.009990
21057000,0.0324,0.013523,0.002678,0.000431,0.007992
21058000,0.0324,0.013523,0.002678,0.000431,0.008345
21059000,0.0324,0.013523,0.002678,0.000431,0.009285
21060000,0.0324,0.013523,0.002678,0.000431,0.007992
21061000,0.0324,0.013523,0.002678,0.000431,0.009050
21062000,0.0324,0.013523,0.002678,0.000431,0.009167
21063000,0.0324,0.013523,0.002678,0.000431,0.007639
21064000,0.0324,0.013523,0.002678,0.000431,0.009990
21065000,0.0324,0.013523,0.002678,0.000431,0.008815
21066000,0.0324,0.013523,0.002678,0.000431,0.009990
21067000,0.0324,0.013523,0.002678,0.000431,0.009167
21068000,0.0324,0.013523,0.002678,0.000431,0.008580
21069000,0.0324,0.013523,0.002678,0.000431,0.009050
21070000,0.0324,0.013523,0.002678,0.000431,0.008932
21071000,0.0324,0.013523,0.002678,0.000431,0.009285
21072000,0.0324,0.013523,0.002678,0.000431,0.010578
21073000,0.0324,0.013523,0.002678,0.000431,0.009285
21074000,0.0324,0.013523,0.002678,0.000431,0.007874
21075000,0.0324,0.013523,0.002678,0.000431,0.008109
21076000,0.0324,0.013523,0.002678,0.000431,0.010813
21077000,0.0324,0.013523,0.002678,0.000431,0.009050
21078000,0.0324,0.013523,0.002678,0.000431,0.009755
21079000,0.0324,0.013523,0.002678,0.000431,0.009402
21080000,0.0324,0.013523,0.002678,0.000431,0.008345
21081000,0.0324,0.013523,0.002678,0.000431,0.008932
21082000,0.0324,0.013523,0.002678,0.000431,0.008815
21083000,0.0324,0.013523,0.002678,0.000431,0.009402
21084000,0.0324,0.013523,0.002678,0.000431,0.009872
21085000,0.0324,0.013523,0.002678,0.000431,0.007757
21086000,0.0324,0.013523,0.002678,0.000431,0.009167
21087000,0.0324,0.013523,0.002678,0.000431,0.009167
21088000,0.0324,0.013523,0.002678,0.000431,0.009285
21089000,0.0324,0.013523,0.002678,0.000431,0.009285
21090000,0.0324,0.013523,0.002678,0.000431,0.008462
21091000,0.0324,0.013523,0.002678,0.000431,0.008932
21092000,0.0324,0.013523,0.002678,0.000431,0.008932
21093000,0.0324,0.013523,0.002678,0.000431,0.009637
21094000,0.0324,0.013523,0.002678,0.000431,0.009872
21095000,0.0324,0.013523,0.002678,0.000431,0.009637
21096000,0.0324,0.013523,0.002678,0.000431,0.008580
21097000,0.0324,0.013523,0.002678,0.000431,0.008932
21098000,0.0324,0.013523,0.002678,0.000431,0.009402
21099000,0.0324,0.013523,0.002678,0.000431,0.009050
21100000,0.0324,0.013523,0.002678,0.000431,0.009402
21101000,0.0324,0.013523,0.002678,0.000431,0.008580
21102000,0.0324,0.013523,0.002678,0.000431,0.008815
21103000,0.0324,0.013523,0.002678,0.000431,0.009637
21104000,0.0324,0.013523,0.002678,0.000431,0.009755
21105000,0.0324,0.013523,0.002678,0.000431,0.009990
21106000,0.0324,0.013523,0.002678,0.000431,0.010342
21107000,0.0324,0.013523,0.002678,0.000431,0.008462
21108000,0.0324,0.013523,0.002678,0.000431,0.009402
21109000,0.0324,0.013523,0.002678,0.000431,0.008815
21110000,0.0324,0.013523,0.002678,0.000431,0.009050
21111000,0.0324,0.013523,0.002678,0.000431,0.008815
21112000,0.0324,0.013523,0.002678,0.000431,0.008345
21113000,0.0324,0.013523,0.002678,0.000431,0.008697
21114000,0.0324,0.013523,0.002678,0.000431,0.009402
21115000,0.0324,0.013523,0.002678,0.000431,0.008932
21116000,0.0324,0.013523,0.002678,0.000431,0.008932
21117000,0.0324,0.013523,0.002678,0.000431,0.009050
21118000,0.0324,0.013523,0.002678,0.000431,0.009402
21119000,0.0324,0.013523,0.002678,0.000431,0.009050
21120000,0.0324,0.013523,0.002678,0.000431,0.008345
21121000,0.0324,0.013523,0.002678,0.000431,0.009520
21122000,0.0324,0.013523,0.002678,0.000431,0.008227
21123000,0.0324,0.013523,0.002678,0.000431,0.009990
21124000,0.0324,0.013523,0.002678,0.000431,0.008697
21125000,0.0324,0.013523,0.002678,0.000431,0.008932
21126000,0.0324,0.013523,0.002678,0.000431,0.008580
21127000,0.0324,0.013523,0.002678,0.000431,0.009520
21128000,0.0324,0.013523,0.002678,0.000431,0.009872
21129000,0.0324,0.013523,0.002678,0.000431,0.009167
21130000,0.0324,0.013523,0.002678,0.000431,0.009520
21131000,0.0324,0.013523,0.002678,0.000431,0.009050
21132000,0.0324,0.013523,0.002678,0.000431,0.009402
21133000,0.0324,0.013523,0.002678,0.000431,0.009402
21134000,0.0324,0.013523,0.002678,0.000431,0.008815
21135000,0.0324,0.013523,0.002678,0.000431,0.009520
21136000,0.0324,0.013523,0.002678,0.000431,0.009285
21137000,0.0324,0.013523,0.002678,0.000431,0.008580
21138000,0.0324,0.013523,0.002678,0.000431,0.009990
21139000,0.0324,0.013523,0.002678,0.000431,0.009285
21140000,0.0324,0.013523,0.002678,0.000431,0.009050
21141000,0.0324,0.013523,0.002678,0.000431,0.009402
21142000,0.0324,0.013523,0.002678,0.000431,0.008345
21143000,0.0324,0.013523,0.002678,0.000431,0.008932
21144000,0.0324,0.013523,0.002678,0.000431,0.009637
21145000,0.0324,0.013523,0.002678,0.000431,0.009167
21146000,0.0324,0.013523,0.002678,0.000431,0.009637
21147000,0.0324,0.013523,0.002678,0.000431,0.008697
21148000,0.0324,0.013523,0.002678,0.000431,0.009167
21149000,0.0324,0.013523,0.002678,0.000431,0.008697
21150000,0.0324,0.013523,0.002678,0.000431,0.009167
21151000,0.0324,0.013523,0.002678,0.000431,0.009285
21152000,0.0324,0.013523,0.002678,0.000431,0.008227
21153000,0.0324,0.013523,0.002678,0.000431,0.009285
21154000,0.0324,0.013523,0.002678,0.000431,0.008345
21155000,0.0324,0.013523,0.002678,0.000431,0.009520
21156000,0.0324,0.013523,0.002678,0.000431,0.009285
21157000,0.0324,0.013523,0.002678,0.000431,0.008815
21158000,0.0324,0.013523,0.002678,0.000431,0.008345
21159000,0.0324,0.013523,0.002678,0.000431,0.008462
21160000,0.0324,0.013523,0.002678,0.000431,0.010460
21161000,0.0324,0.013523,0.002678,0.000431,0.009755
21162000,0.0324,0.013523,0.002678,0.000431,0.010107
21163000,0.0324,0.013523,0.002678,0.000431,0.008815
21164000,0.0324,0.013523,0.002678,0.000431,0.009167
21165000,0.0324,0.013523,0.002678,0.000431,0.009050
21166000,0.0324,0.013523,0.002678,0.000431,0.009285
21167000,0.0324,0.013523,0.002678,0.000431,0.009285
21168000,0.0324,0.013523,0.002678,0.000431,0.009050
21169000,0.0324,0.013523,0.002678,0.000431,0.010225
21170000,0.0324,0.013523,0.002678,0.000431,0.009167
21171000,0.0324,0.013523,0.002678,0.000431,0.009050
21172000,0.0324,0.013523,0.002678,0.000431,0.008932
21173000,0.0324,0.013523,0.002678,0.000431,0.008580
21174000,0.0324,0.013523,0.002678,0.000431,0.008580
21175000,0.0324,0.013523,0.002678,0.000431,0.008462
21176000,0.0324,0.013523,0.002678,0.000431,0.009285
21177000,0.0324,0.013523,0.002678,0.000431,0.009755
21178000,0.0324,0.013523,0.002678,0.000431,0.009402
21179000,0.0324,0.013523,0.002678,0.000431,0.009402
21180000,0.0324,0.013523,0.002678,0.000431,0.008580
21181000,0.0324,0.013523,0.002678,0.000431,0.009755
21182000,0.0324,0.013523,0.002678,0.000431,0.009050
21183000,0.0324,0.013523,0.002678,0.000431,0.009050
21184000,0.0324,0.013523,0.002678,0.000431,0.009402
21185000,0.0324,0.013523,0.002678,0.000431,0.009402
21186000,0.0324,0.013523,0.002678,0.000431,0.008815
21187000,0.0324,0.013523,0.002678,0.000431,0.008580
21188000,0.0324,0.013523,0.002678,0.000431,0.008462
21189000,0.0324,0.013523,0.002678,0.000431,0.009167
21190000,0.0324,0.013523,0.002678,0.000431,0.007992
21191000,0.0324,0.013523,0.002678,0.000431,0.009050
21192000,0.0324,0.013523,0.002678,0.000431,0.009402
21193000,0.0324,0.013523,0.002678,0.000431,0.008227
21194000,0.0324,0.013523,0.002678,0.000431,0.009285
21195000,0.0324,0.013523,0.002678,0.000431,0.009402
21196000,0.0324,0.013523,0.002678,0.000431,0.009637
21197000,0.0324,0.013523,0.002678,0.000431,0.009872
21198000,0.0324,0.013523,0.002678,0.000431,0.009050
21199000,0.0324,0.013523,0.002678,0.000431,0.008815
21200000,0.0324,0.013523,0.002678,0.000431,0.009755
21201000,0.0324,0.013523,0.002678,0.000431,0.009285
21202000,0.0324,0.013523,0.002678,0.000431,0.008109
21203000,0.0324,0.013523,0.002678,0.000431,0.008815
21204000,0.0324,0.013523,0.002678,0.000431,0.008580
21205000,0.0324,0.013523,0.002678,0.000431,0.009285
21206000,0.0324,0.013523,0.002678,0.000431,0.009050
21207000,0.0324,0.013523,0.002678,0.000431,0.008932
21208000,0.0324,0.013523,0.002678,0.000431,0.009637
21209000,0.0324,0.013523,0.002678,0.000431,0.009520
21210000,0.0324,0.013523,0.002678,0.000431,0.007992
21211000,0.0324,0.013523,0.002678,0.000431,0.009285
21212000,0.0324,0.013523,0.002678,0.000431,0.007757
21213000,0.0324,0.013523,0.002678,0.000431,0.009520
21214000,0.0324,0.013523,0.002678,0.000431,0.008815
21215000,0.0324,0.013523,0.002678,0.000431,0.009167
21216000,0.0324,0.013523,0.002678,0.000431,0.008697
21217000,0.0324,0.013523,0.002678,0.000431,0.010342
21218000,0.0324,0.013523,0.002678,0.000431,0.009402
21219000,0.0324,0.013523,0.002678,0.000431,0.009050
21220000,0.0324,0.013523,0.002678,0.000431,0.009637
21221000,0.0324,0.013523,0.002678,0.000431,0.008815
21222000,0.0324,0.013523,0.002678,0.000431,0.009167
21223000,0.0324,0.013523,0.002678,0.000431,0.009167
21224000,0.0324,0.013523,0.002678,0.000431,0.008932
21225000,0.0324,0.013523,0.002678,0.000431,0.008815
21226000,0.0324,0.013523,0.002678,0.000431,0.009520
21227000,0.0324,0.013523,0.002678,0.000431,0.008697
21228000,0.0324,0.013523,0.002678,0.000431,0.010225
21229000,0.0324,0.013523,0.002678,0.000431,0.009050
21230000,0.0324,0.013523,0.002678,0.000431,0.009167
21231000,0.0324,0.013523,0.002678,0.000431,0.009285
21232000,0.0324,0.013523,0.002678,0.000431,0.009050
21233000,0.0324,0.013523,0.002678,0.000431,0.008580
21234000,0.0324,0.013523,0.002678,0.000431,0.009872
21235000,0.0324,0.013523,0.002678,0.000431,0.008345
21236000,0.0324,0.013523,0.002678,0.000431,0.009167
21237000,0.0324,0.013523,0.002678,0.000431,0.009402
21238000,0.0324,0.013523,0.002678,0.000431,0.008109
21239000,0.0324,0.013523,0.002678,0.000431,0.009872
21240000,0.0324,0.013523,0.002678,0.000431,0.008227
21241000,0.0324,0.013523,0.002678,0.000431,0.008227
21242000,0.0324,0.013523,0.002678,0.000431,0.009167
21243000,0.0324,0.013523,0.002678,0.000431,0.008580
21244000,0.0324,0.013523,0.002678,0.000431,0.008345
21245000,0.0324,0.013523,0.002678,0.000431,0.010578
21246000,0.0324,0.013523,0.002678,0.000431,0.008697
21247000,0.0324,0.013523,0.002678,0.000431,0.008580
21248000,0.0324,0.013523,0.002678,0.000431,0.009167
21249000,0.0324,0.013523,0.002678,0.000431,0.008109
21250000,0.0324,0.013523,0.002678,0.000431,0.009167
21251000,0.0324,0.013523,0.002678,0.000431,0.009050
21252000,0.0324,0.013523,0.002678,0.000431,0.008932
21253000,0.0324,0.013523,0.002678,0.000431,0.009637
21254000,0.0324,0.013523,0.002678,0.000431,0.008932
21255000,0.0324,0.013523,0.002678,0.000431,0.008580
21256000,0.0324,0.013523,0.002678,0.000431,0.010107
21257000,0.0324,0.013523,0.002678,0.000431,0.008932
21258000,0.0324,0.013523,0.002678,0.000431,0.008932
21259000,0.0324,0.013523,0.002678,0.000431,0.009285
21260000,0.0324,0.013523,0.002678,0.000431,0.008580
21261000,0.0324,0.013523,0.002678,0.000431,0.009520
21262000,0.0324,0.013523,0.002678,0.000431,0.009050
21263000,0.0324,0.013523,0.002678,0.000431,0.009050
21264000,0.0324,0.013523,0.002678,0.000431,0.008932
21265000,0.0324,0.013523,0.002678,0.000431,0.008109
21266000,0.0324,0.013523,0.002678,0.000431,0.007992
21267000,0.0324,0.013523,0.002678,0.000431,0.009872
21268000,0.0324,0.013523,0.002678,0.000431,0.009167
21269000,0.0324,0.013523,0.002678,0.000431,0.009755
21270000,0.0324,0.013523,0.002678,0.000431,0.008932
21271000,0.0324,0.013523,0.002678,0.000431,0.009167
21272000,0.0324,0.013523,0.002678,0.000431,0.009402
21273000,0.0324,0.013523,0.002678,0.000431,0.009520
21274000,0.0324,0.013523,0.002678,0.000431,0.009520
21275000,0.0324,0.013523,0.002678,0.000431,0.009990
21276000,0.0324,0.013523,0.002678,0.000431,0.008462
21277000,0.0324,0.013523,0.002678,0.000431,0.009167
21278000,0.0324,0.013523,0.002678,0.000431,0.009872
21279000,0.0324,0.013523,0.002678,0.000431,0.009402
21280000,0.0324,0.013523,0.002678,0.000431,0.008697
21281000,0.0324,0.013523,0.002678,0.000431,0.008932
21282000,0.0324,0.013523,0.002678,0.000431,0.009050
21283000,0.0324,0.013523,0.002678,0.000431,0.009167
21284000,0.0324,0.013523,0.002678,0.000431,0.009520
21285000,0.0324,0.013523,0.002678,0.000431,0.008932
21286000,0.0324,0.013523,0.002678,0.000431,0.009872
21287000,0.0324,0.013523,0.002678,0.000431,0.008697
21288000,0.0324,0.013523,0.002678,0.000431,0.008580
21289000,0.0324,0.013523,0.002678,0.000431,0.009402
21290000,0.0324,0.013523,0.002678,0.000431,0.010225
21291000,0.0324,0.013523,0.002678,0.000431,0.008932
21292000,0.0324,0.013523,0.002678,0.000431,0.008345
21293000,0.0324,0.013523,0.002678,0.000431,0.009167
21294000,0.0324,0.013523,0.002678,0.000431,0.008580
21295000,0.0324,0.013523,0.002678,0.000431,0.009402
21296000,0.0324,0.013523,0.002678,0.000431,0.008815
21297000,0.0324,0.013523,0.002678,0.000431,0.008697
21298000,0.0324,0.013523,0.002678,0.000431,0.009872
21299000,0.0324,0.013523,0.002678,0.000431,0.008697
21300000,0.0324,0.013523,0.002678,0.000431,0.008580
21301000,0.0324,0.013523,0.002678,0.000431,0.009637
21302000,0.0324,0.013523,0.002678,0.000431,0.008697
21303000,0.0324,0.013523,0.002678,0.000431,0.009520
21304000,0.0324,0.013523,0.002678,0.000431,0.008932
21305000,0.0324,0.013523,0.002678,0.000431,0.009990
21306000,0.0324,0.013523,0.002678,0.000431,0.008697
21307000,0.0324,0.013523,0.002678,0.000431,0.008932
21308000,0.0324,0.013523,0.002678,0.000431,0.009167
21309000,0.0324,0.013523,0.002678,0.000431,0.008815
21310000,0.0324,0.013523,0.002678,0.000431,0.009285
21311000,0.0324,0.013523,0.002678,0.000431,0.008345
21312000,0.0324,0.013523,0.002678,0.000431,0.009872
21313000,0.0324,0.013523,0.002678,0.000431,0.009402
21314000,0.0324,0.013523,0.002678,0.000431,0.009167
21315000,0.0324,0.013523,0.002678,0.000431,0.008932
21316000,0.0324,0.013523,0.002678,0.000431,0.009167
21317000,0.0324,0.013523,0.002678,0.000431,0.008932
21318000,0.0324,0.013523,0.002678,0.000431,0.009872
21319000,0.0324,0.013523,0.002678,0.000431,0.009402
21320000,0.0324,0.013523,0.002678,0.000431,0.009755
21321000,0.0324,0.013523,0.002678,0.000431,0.009167
21322000,0.0324,0.013523,0.002678,0.000431,0.008227
21323000,0.0324,0.013523,0.002678,0.000431,0.009285
21324000,0.0324,0.013523,0.002678,0.000431,0.010578
21325000,0.0324,0.013523,0.002678,0.000431,0.008697
21326000,0.0324,0.013523,0.002678,0.000431,0.008932
21327000,0.0324,0.013523,0.002678,0.000431,0.007992
21328000,0.0324,0.013523,0.002678,0.000431,0.009050
21329000,0.0324,0.013523,0.002678,0.000431,0.010107
21330000,0.0324,0.013523,0.002678,0.000431,0.009872
21331000,0.0324,0.013523,0.002678,0.000431,0.009520
21332000,0.0324,0.013523,0.002678,0.000431,0.009755
21333000,0.0324,0.013523,0.002678,0.000431,0.008462
21334000,0.0324,0.013523,0.002678,0.000431,0.008580
21335000,0.0324,0.013523,0.002678,0.000431,0.009637
21336000,0.0324,0.013523,0.002678,0.000431,0.009050
21337000,0.0324,0.013523,0.002678,0.000431,0.008932
21338000,0.0324,0.013523,0.002678,0.000431,0.008815
21339000,0.0324,0.013523,0.002678,0.000431,0.009637
21340000,0.0324,0.013523,0.002678,0.000431,0.008462
21341000,0.0324,0.013523,0.002678,0.000431,0.008932
21342000,0.0324,0.013523,0.002678,0.000431,0.009167
21343000,0.0324,0.013523,0.002678,0.000431,0.008462
21344000,0.0324,0.013523,0.002678,0.000431,0.008580
21345000,0.0324,0.013523,0.002678,0.000431,0.008462
21346000,0.0324,0.013523,0.002678,0.000431,0.009402
21347000,0.0324,0.013523,0.002678,0.000431,0.008227
21348000,0.0324,0.013523,0.002678,0.000431,0.009167
21349000,0.0324,0.013523,0.002678,0.000431,0.008815
21350000,0.0324,0.013523,0.002678,0.000431,0.008345
21351000,0.0324,0.013523,0.002678,0.000431,0.008932
21352000,0.0324,0.013523,0.002678,0.000431,0.009285
21353000,0.0324,0.013523,0.002678,0.000431,0.008932
21354000,0.0324,0.013523,0.002678,0.000431,0.008227
21355000,0.0324,0.013523,0.002678,0.000431,0.009167
21356000,0.0324,0.013523,0.002678,0.000431,0.008815
21357000,0.0324,0.013523,0.002678,0.000431,0.009050
21358000,0.0324,0.013523,0.002678,0.000431,0.008697
21359000,0.0324,0.013523,0.002678,0.000431,0.008580
21360000,0.0324,0.013523,0.002678,0.000431,0.009285
21361000,0.0324,0.013523,0.002678,0.000431,0.008462
21362000,0.0324,0.013523,0.002678,0.000431,0.008109
21363000,0.0324,0.013523,0.002678,0.000431,0.008932
21364000,0.0324,0.013523,0.002678,0.000431,0.008227
21365000,0.0324,0.013523,0.002678,0.000431,0.010107
21366000,0.0324,0.013523,0.002678,0.000431,0.009285
21367000,0.0324,0.013523,0.002678,0.000431,0.009167
21368000,0.0324,0.013523,0.002678,0.000431,0.008815
21369000,0.0324,0.013523,0.002678,0.000431,0.009050
21370000,0.0324,0.013523,0.002678,0.000431,0.008815
21371000,0.0324,0.013523,0.002678,0.000431,0.008697
21372000,0.0324,0.013523,0.002678,0.000431,0.009637
21373000,0.0324,0.013523,0.002678,0.000431,0.008345
21374000,0.0324,0.013523,0.002678,0.000431,0.008580
21375000,0.0324,0.013523,0.002678,0.000431,0.008697
21376000,0.0324,0.013523,0.002678,0.000431,0.010342
21377000,0.0324,0.013523,0.002678,0.000431,0.009520
21378000,0.0324,0.013523,0.002678,0.000431,0.009285
21379000,0.0324,0.013523,0.002678,0.000431,0.009285
21380000,0.0324,0.013523,0.002678,0.000431,0.008580
21381000,0.0324,0.013523,0.002678,0.000431,0.008697
21382000,0.0324,0.013523,0.002678,0.000431,0.008109
21383000,0.0324,0.013523,0.002678,0.000431,0.009990
21384000,0.0324,0.013523,0.002678,0.000431,0.009285
21385000,0.0324,0.013523,0.002678,0.000431,0.009755
21386000,0.0324,0.013523,0.002678,0.000431,0.009285
21387000,0.0324,0.013523,0.002678,0.000431,0.007992
21388000,0.0324,0.013523,0.002678,0.000431,0.009285
21389000,0.0324,0.013523,0.002678,0.000431,0.008345
21390000,0.0324,0.013523,0.002678,0.000431,0.009285
21391000,0.0324,0.013523,0.002678,0.000431,0.008815
21392000,0.0324,0.013523,0.002678,0.000431,0.009050
21393000,0.0324,0.013523,0.002678,0.000431,0.008227
21394000,0.0324,0.013523,0.002678,0.000431,0.009637
21395000,0.0324,0.013523,0.002678,0.000431,0.009050
21396000,0.0324,0.013523,0.002678,0.000431,0.009402
21397000,0.0324,0.013523,0.002678,0.000431,0.008345
21398000,0.0324,0.013523,0.002678,0.000431,0.008932
21399000,0.0324,0.013523,0.002678,0.000431,0.009520
21400000,0.0324,0.013523,0.002678,0.000431,0.009520
21401000,0.0324,0.013523,0.002678,0.000431,0.008932
21402000,0.0324,0.013523,0.002678,0.000431,0.008227
21403000,0.0324,0.013523,0.002678,0.000431,0.008345
21404000,0.0324,0.013523,0.002678,0.000431,0.009167
21405000,0.0324,0.013523,0.002678,0.000431,0.009050
21406000,0.0324,0.013523,0.002678,0.000431,0.009167
21407000,0.0324,0.013523,0.002678,0.000431,0.008227
21408000,0.0324,0.013523,0.002678,0.000431,0.008697
21409000,0.0324,0.013523,0.002678,0.000431,0.007874
21410000,0.0324,0.013523,0.002678,0.000431,0.009637
21411000,0.0324,0.013523,0.002678,0.000431,0.009990
21412000,0.0324,0.013523,0.002678,0.000431,0.008580
21413000,0.0324,0.013523,0.002678,0.000431,0.008815
21414000,0.0324,0.013523,0.002678,0.000431,0.009050
21415000,0.0324,0.013523,0.002678,0.000431,0.009637
21416000,0.0324,0.013523,0.002678,0.000431,0.009050
21417000,0.0324,0.013523,0.002678,0.000431,0.009402
21418000,0.0324,0.013523,0.002678,0.000431,0.008227
21419000,0.0324,0.013523,0.002678,0.000431,0.008697
21420000,0.0324,0.013523,0.002678,0.000431,0.008815
21421000,0.0324,0.013523,0.002678,0.000431,0.008462
21422000,0.0324,0.013523,0.002678,0.000431,0.009050
21423000,0.0324,0.013523,0.002678,0.000431,0.008580
21424000,0.0324,0.013523,0.002678,0.000431,0.008932
21425000,0.0324,0.013523,0.002678,0.000431,0.009285
21426000,0.0324,0.013523,0.002678,0.000431,0.009520
21427000,0.0324,0.013523,0.002678,0.000431,0.009520
21428000,0.0324,0.013523,0.002678,0.000431,0.008932
21429000,0.0324,0.013523,0.002678,0.000431,0.010460
21430000,0.0324,0.013523,0.002678,0.000431,0.008580
21431000,0.0324,0.013523,0.002678,0.000431,0.009520
21432000,0.0324,0.013523,0.002678,0.000431,0.009285
21433000,0.0324,0.013523,0.002678,0.000431,0.009520
21434000,0.0324,0.013523,0.002678,0.000431,0.010342
21435000,0.0324,0.013523,0.002678,0.000431,0.008815
21436000,0.0324,0.013523,0.002678,0.000431,0.008462
21437000,0.0324,0.013523,0.002678,0.000431,0.008932
21438000,0.0324,0.013523,0.002678,0.000431,0.008580
21439000,0.0324,0.013523,0.002678,0.000431,0.010460
21440000,0.0324,0.013523,0.002678,0.000431,0.009285
21441000,0.0324,0.013523,0.002678,0.000431,0.008109
21442000,0.0324,0.013523,0.002678,0.000431,0.009872
21443000,0.0324,0.013523,0.002678,0.000431,0.009520
21444000,0.0324,0.013523,0.002678,0.000431,0.009402
21445000,0.0324,0.013523,0.002678,0.000431,0.009637
21446000,0.0324,0.013523,0.002678,0.000431,0.008227
21447000,0.0324,0.013523,0.002678,0.000431,0.008462
21448000,0.0324,0.013523,0.002678,0.000431,0.009402
21449000,0.0324,0.013523,0.002678,0.000431,0.007874
21450000,0.0324,0.013523,0.002678,0.000431,0.009755
21451000,0.0324,0.013523,0.002678,0.000431,0.009050
21452000,0.0324,0.013523,0.002678,0.000431,0.009285
21453000,0.0324,0.013523,0.002678,0.000431,0.009285
21454000,0.0324,0.013523,0.002678,0.000431,0.008345
21455000,0.0324,0.013523,0.002678,0.000431,0.009050
21456000,0.0324,0.013523,0.002678,0.000431,0.009167
21457000,0.0324,0.013523,0.002678,0.000431,0.008815
21458000,0.0324,0.013523,0.002678,0.000431,0.008462
21459000,0.0324,0.013523,0.002678,0.000431,0.009050
21460000,0.0324,0.013523,0.002678,0.000431,0.008932
21461000,0.0324,0.013523,0.002678,0.000431,0.009167
21462000,0.0324,0.013523,0.002678,0.000431,0.009755
21463000,0.0324,0.013523,0.002678,0.000431,0.008697
21464000,0.0324,0.013523,0.002678,0.000431,0.008109
21465000,0.0324,0.013523,0.002678,0.000431,0.008697
21466000,0.0324,0.013523,0.002678,0.000431,0.008462
21467000,0.0324,0.013523,0.002678,0.000431,0.009755
21468000,0.0324,0.013523,0.002678,0.000431,0.008697
21469000,0.0324,0.013523,0.002678,0.000431,0.009167
21470000,0.0324,0.013523,0.002678,0.000431,0.008932
21471000,0.0324,0.013523,0.002678,0.000431,0.008697
21472000,0.0324,0.013523,0.002678,0.000431,0.008697
21473000,0.0324,0.013523,0.002678,0.000431,0.009990
21474000,0.0324,0.013523,0.002678,0.000431,0.008697
21475000,0.0324,0.013523,0.002678,0.000431,0.009872
21476000,0.0324,0.013523,0.002678,0.000431,0.009285
21477000,0.0324,0.013523,0.002678,0.000431,0.008462
21478000,0.0324,0.013523,0.002678,0.000431,0.009872
21479000,0.0324,0.013523,0.002678,0.000431,0.009167
21480000,0.0324,0.013523,0.002678,0.000431,0.008227
21481000,0.0324,0.013523,0.002678,0.000431,0.009402
21482000,0.0324,0.013523,0.002678,0.000431,0.009402
21483000,0.0324,0.013523,0.002678,0.000431,0.008932
21484000,0.0324,0.013523,0.002678,0.000431,0.009285
21485000,0.0324,0.013523,0.002678,0.000431,0.009285
21486000,0.0324,0.013523,0.002678,0.000431,0.008227
21487000,0.0324,0.013523,0.002678,0.000431,0.007874
21488000,0.0324,0.013523,0.002678,0.000431,0.008932
21489000,0.0324,0.013523,0.002678,0.000431,0.009285
21490000,0.0324,0.013523,0.002678,0.000431,0.009637
21491000,0.0324,0.013523,0.002678,0.000431,0.007757
21492000,0.0324,0.013523,0.002678,0.000431,0.008345
21493000,0.0324,0.013523,0.002678,0.000431,0.009755
21494000,0.0324,0.013523,0.002678,0.000431,0.008227
21495000,0.0324,0.013523,0.002678,0.000431,0.009285
21496000,0.0324,0.013523,0.002678,0.000431,0.008932
21497000,0.0324,0.013523,0.002678,0.000431,0.007757
21498000,0.0324,0.013523,0.002678,0.000431,0.008932
21499000,0.0324,0.013523,0.002678,0.000431,0.008462
21500000,0.0324,0.013523,0.002678,0.000431,0.009520
21501000,0.0324,0.013523,0.002678,0.000431,0.008462
21502000,0.0324,0.013523,0.002678,0.000431,0.008697
21503000,0.0324,0.013523,0.002678,0.000431,0.009167
21504000,0.0324,0.013523,0.002678,0.000431,0.009520
21505000,0.0324,0.013523,0.002678,0.000431,0.008462
21506000,0.0324,0.013523,0.002678,0.000431,0.009285
21507000,0.0324,0.013523,0.002678,0.000431,0.009520
21508000,0.0324,0.013523,0.002678,0.000431,0.008109
21509000,0.0324,0.013523,0.002678,0.000431,0.008932
21510000,0.0324,0.013523,0.002678,0.000431,0.009285
21511000,0.0324,0.013523,0.002678,0.000431,0.007992
21512000,0.0324,0.013523,0.002678,0.000431,0.009402
21513000,0.0324,0.013523,0.002678,0.000431,0.008580
21514000,0.0324,0.013523,0.002678,0.000431,0.008697
21515000,0.0324,0.013523,0.002678,0.000431,0.009285
21516000,0.0324,0.013523,0.002678,0.000431,0.008815
21517000,0.0324,0.013523,0.002678,0.000431,0.008932
21518000,0.0324,0.013523,0.002678,0.000431,0.008932
21519000,0.0324,0.013523,0.002678,0.000431,0.008462
21520000,0.0324,0.013523,0.002678,0.000431,0.008580
21521000,0.0324,0.013523,0.002678,0.000431,0.009050
21522000,0.0324,0.013523,0.002678,0.000431,0.008345
21523000,0.0324,0.013523,0.002678,0.000431,0.009402
21524000,0.0324,0.013523,0.002678,0.000431,0.009637
21525000,0.0324,0.013523,0.002678,0.000431,0.008580
21526000,0.0324,0.013523,0.002678,0.000431,0.009050
21527000,0.0324,0.013523,0.002678,0.000431,0.009050
21528000,0.0324,0.013523,0.002678,0.000431,0.008462
21529000,0.0324,0.013523,0.002678,0.000431,0.009872
21530000,0.0324,0.013523,0.002678,0.000431,0.009050
21531000,0.0324,0.013523,0.002678,0.000431,0.008345
21532000,0.0324,0.013523,0.002678,0.000431,0.009990
21533000,0.0324,0.013523,0.002678,0.000431,0.008580
21534000,0.0324,0.013523,0.002678,0.000431,0.009402
21535000,0.0324,0.013523,0.002678,0.000431,0.009637
21536000,0.0324,0.013523,0.002678,0.000431,0.009050
21537000,0.0324,0.013523,0.002678,0.000431,0.008815
21538000,0.0324,0.013523,0.002678,0.000431,0.008815
21539000,0.0324,0.013523,0.002678,0.000431,0.008932
21540000,0.0324,0.013523,0.002678,0.000431,0.010225
21541000,0.0324,0.013523,0.002678,0.000431,0.009167
21542000,0.0324,0.013523,0.002678,0.000431,0.008109
21543000,0.0324,0.013523,0.002678,0.000431,0.010460
21544000,0.0324,0.013523,0.002678,0.000431,0.008932
21545000,0.0324,0.013523,0.002678,0.000431,0.008932
21546000,0.0324,0.013523,0.002678,0.000431,0.009990
21547000,0.0324,0.013523,0.002678,0.000431,0.008580
21548000,0.0324,0.013523,0.002678,0.000431,0.008462
21549000,0.0324,0.013523,0.002678,0.000431,0.009637
21550000,0.0324,0.013523,0.002678,0.000431,0.008580
21551000,0.0324,0.013523,0.002678,0.000431,0.010107
21552000,0.0324,0.013523,0.002678,0.000431,0.009050
21553000,0.0324,0.013523,0.002678,0.000431,0.007287
21554000,0.0324,0.013523,0.002678,0.000431,0.008580
21555000,0.0324,0.013523,0.002678,0.000431,0.009755
21556000,0.0324,0.013523,0.002678,0.000431,0.008345
21557000,0.0324,0.013523,0.002678,0.000431,0.009402
21558000,0.0324,0.013523,0.002678,0.000431,0.007874
21559000,0.0324,0.013523,0.002678,0.000431,0.009050
21560000,0.0324,0.013523,0.002678,0.000431,0.009755
21561000,0.0324,0.013523,0.002678,0.000431,0.008345
21562000,0.0324,0.013523,0.002678,0.000431,0.009167
21563000,0.0324,0.013523,0.002678,0.000431,0.009050
21564000,0.0324,0.013523,0.002678,0.000431,0.008462
21565000,0.0324,0.013523,0.002678,0.000431,0.008345
21566000,0.0324,0.013523,0.002678,0.000431,0.009402
21567000,0.0324,0.013523,0.002678,0.000431,0.009285
21568000,0.0324,0.013523,0.002678,0.000431,0.009520
21569000,0.0324,0.013523,0.002678,0.000431,0.009167
21570000,0.0324,0.013523,0.002678,0.000431,0.008462
21571000,0.0324,0.013523,0.002678,0.000431,0.008462
21572000,0.0324,0.013523,0.002678,0.000431,0.009167
21573000,0.0324,0.013523,0.002678,0.000431,0.009285
21574000,0.0324,0.013523,0.002678,0.000431,0.008345
21575000,0.0324,0.013523,0.002678,0.000431,0.009285
21576000,0.0324,0.013523,0.002678,0.000431,0.008109
21577000,0.0324,0.013523,0.002678,0.000431,0.009520
21578000,0.0324,0.013523,0.002678,0.000431,0.009050
21579000,0.0324,0.013523,0.002678,0.000431,0.009050
21580000,0.0324,0.013523,0.002678,0.000431,0.009167
21581000,0.0324,0.013523,0.002678,0.000431,0.009755
21582000,0.0324,0.013523,0.002678,0.000431,0.008462
21583000,0.0324,0.013523,0.002678,0.000431,0.009402
21584000,0.0324,0.013523,0.002678,0.000431,0.008697
21585000,0.0324,0.013523,0.002678,0.000431,0.008109
21586000,0.0324,0.013523,0.002678,0.000431,0.010225
21587000,0.0324,0.013523,0.002678,0.000431,0.007287
21588000,0.0324,0.013523,0.002678,0.000431,0.008580
21589000,0.0324,0.013523,0.002678,0.000431,0.009520
21590000,0.0324,0.013523,0.002678,0.000431,0.009050
21591000,0.0324,0.013523,0.002678,0.000431,0.009167
21592000,0.0324,0.013523,0.002678,0.000431,0.008815
21593000,0.0324,0.013523,0.002678,0.000431,0.009285
21594000,0.0324,0.013523,0.002678,0.000431,0.008815
21595000,0.0324,0.013523,0.002678,0.000431,0.008580
21596000,0.0324,0.013523,0.002678,0.000431,0.009755
21597000,0.0324,0.013523,0.002678,0.000431,0.009167
21598000,0.0324,0.013523,0.002678,0.000431,0.008109
21599000,0.0324,0.013523,0.002678,0.000431,0.008345
21600000,0.0324,0.013523,0.002678,0.000431,0.008697
21601000,0.0324,0.013523,0.002678,0.000431,0.009167
21602000,0.0324,0.013523,0.002678,0.000431,0.009402
21603000,0.0324,0.013523,0.002678,0.000431,0.007757
21604000,0.0324,0.013523,0.002678,0.000431,0.008462
21605000,0.0324,0.013523,0.002678,0.000431,0.008580
21606000,0.0324,0.013523,0.002678,0.000431,0.008697
21607000,0.0324,0.013523,0.002678,0.000431,0.008697
21608000,0.0324,0.013523,0.002678,0.000431,0.007874
21609000,0.0324,0.013523,0.002678,0.000431,0.007874
21610000,0.0324,0.013523,0.002678,0.000431,0.008462
21611000,0.0324,0.013523,0.002678,0.000431,0.009050
21612000,0.0324,0.013523,0.002678,0.000431,0.008580
21613000,0.0324,0.013523,0.002678,0.000431,0.009520
21614000,0.0324,0.013523,0.002678,0.000431,0.008227
21615000,0.0324,0.013523,0.002678,0.000431,0.008932
21616000,0.0324,0.013523,0.002678,0.000431,0.008345
21617000,0.0324,0.013523,0.002678,0.000431,0.009755
21618000,0.0324,0.013523,0.002678,0.000431,0.007757
21619000,0.0324,0.013523,0.002678,0.000431,0.008345
21620000,0.0324,0.013523,0.002678,0.000431,0.007874
21621000,0.0324,0.013523,0.002678,0.000431,0.007874
21622000,0.0324,0.013523,0.002678,0.000431,0.008227
21623000,0.0324,0.013523,0.002678,0.000431,0.007992
21624000,0.0324,0.013523,0.002678,0.000431,0.007639
21625000,0.0324,0.013523,0.002678,0.000431,0.007639
21626000,0.0324,0.013523,0.002678,0.000431,0.007874
21627000,0.0324,0.013523,0.002678,0.000431,0.007992
21628000,0.0324,0.013523,0.002678,0.000431,0.008345
21629000,0.0324,0.013523,0.002678,0.000431,0.007992
21630000,0.0324,0.013523,0.002678,0.000431,0.008109
21631000,0.0324,0.013523,0.002678,0.000431,0.007992
21632000,0.0324,0.013523,0.002678,0.000431,0.008462
21633000,0.0324,0.013523,0.002678,0.000431,0.008815
21634000,0.0324,0.013523,0.002678,0.000431,0.007522
21635000,0.0324,0.013523,0.002678,0.000431,0.007757
21636000,0.0324,0.013523,0.002678,0.000431,0.008227
21637000,0.0324,0.013523,0.002678,0.000431,0.007992
21638000,0.0324,0.013523,0.002678,0.000431,0.008462
21639000,0.0324,0.013523,0.002678,0.000431,0.008462
21640000,0.0324,0.013523,0.002678,0.000431,0.007404
21641000,0.0324,0.013523,0.002678,0.000431,0.008697
21642000,0.0324,0.013523,0.002678,0.000431,0.007992
21643000,0.0324,0.013523,0.002678,0.000431,0.008345
21644000,0.0324,0.013523,0.002678,0.000431,0.008580
21645000,0.0324,0.013523,0.002678,0.000431,0.007404
21646000,0.0324,0.013523,0.002678,0.000431,0.007992
21647000,0.0324,0.013523,0.002678,0.000431,0.007992
21648000,0.0324,0.013523,0.002678,0.000431,0.007992
21649000,0.0324,0.013523,0.002678,0.000431,0.008345
21650000,0.0324,0.013523,0.002678,0.000431,0.007287
21651000,0.0324,0.013523,0.002678,0.000431,0.008109
21652000,0.0324,0.013523,0.002678,0.000431,0.007874
21653000,0.0324,0.013523,0.002678,0.000431,0.008345
21654000,0.0324,0.013523,0.002678,0.000431,0.008227
21655000,0.0324,0.013523,0.002678,0.000431,0.007522
21656000,0.0324,0.013523,0.002678,0.000431,0.008345
21657000,0.0324,0.013523,0.002678,0.000431,0.008109
21658000,0.0324,0.013523,0.002678,0.000431,0.008109
21659000,0.0324,0.013523,0.002678,0.000431,0.007992
21660000,0.0324,0.013523,0.002678,0.000431,0.007404
21661000,0.0324,0.013523,0.002678,0.000431,0.008580
21662000,0.0324,0.013523,0.002678,0.000431,0.008227
21663000,0.0324,0.013523,0.002678,0.000431,0.007874
21664000,0.0324,0.013523,0.002678,0.000431,0.007404
21665000,0.0324,0.013523,0.002678,0.000431,0.008345
21666000,0.0324,0.013523,0.002678,0.000431,0.008815
21667000,0.0324,0.013523,0.002678,0.000431,0.007639
21668000,0.0324,0.013523,0.002678,0.000431,0.007992
21669000,0.0324,0.013523,0.002678,0.000431,0.008697
21670000,0.0324,0.013523,0.002678,0.000431,0.007992
21671000,0.0324,0.013523,0.002678,0.000431,0.009402
21672000,0.0324,0.013523,0.002678,0.000431,0.008462
21673000,0.0324,0.013523,0.002678,0.000431,0.007404
21674000,0.0324,0.013523,0.002678,0.000431,0.008462
21675000,0.0324,0.013523,0.002678,0.000431,0.008697
21676000,0.0324,0.013523,0.002678,0.000431,0.007522
21677000,0.0324,0.013523,0.002678,0.000431,0.008345
21678000,0.0324,0.013523,0.002678,0.000431,0.007992
21679000,0.0324,0.013523,0.002678,0.000431,0.007404
21680000,0.0324,0.013523,0.002678,0.000431,0.008345
21681000,0.0324,0.013523,0.002678,0.000431,0.008109
21682000,0.0324,0.013523,0.002678,0.000431,0.008109
21683000,0.0324,0.013523,0.002678,0.000431,0.008697
21684000,0.0324,0.013523,0.002678,0.000431,0.007874
21685000,0.0324,0.013523,0.002678,0.000431,0.008109
21686000,0.0324,0.013523,0.002678,0.000431,0.008345
21687000,0.0324,0.013523,0.002678,0.000431,0.008697
21688000,0.0324,0.013523,0.002678,0.000431,0.007522
21689000,0.0324,0.013523,0.002678,0.000431,0.008580
21690000,0.0324,0.013523,0.002678,0.000431,0.007992
21691000,0.0324,0.013523,0.002678,0.000431,0.008580
21692000,0.0324,0.013523,0.002678,0.000431,0.007522
21693000,0.0324,0.013523,0.002678,0.000431,0.007992
21694000,0.0324,0.013523,0.002678,0.000431,0.008345
21695000,0.0324,0.013523,0.002678,0.000431,0.007169
21696000,0.0324,0.013523,0.002678,0.000431,0.008109
21697000,0.0324,0.013523,0.002678,0.000431,0.007404
21698000,0.0324,0.013523,0.002678,0.000431,0.007287
21699000,0.0324,0.013523,0.002678,0.000431,0.007874
21700000,0.0324,0.013523,0.002678,0.000431,0.007874
21701000,0.0324,0.013523,0.002678,0.000431,0.008462
21702000,0.0324,0.013523,0.002678,0.000431,0.007992
21703000,0.0324,0.013523,0.002678,0.000431,0.007287
21704000,0.0324,0.013523,0.002678,0.000431,0.007992
21705000,0.0324,0.013523,0.002678,0.000431,0.008109
21706000,0.0324,0.013523,0.002678,0.000431,0.008345
21707000,0.0324,0.013523,0.002678,0.000431,0.007874
21708000,0.0324,0.013523,0.002678,0.000431,0.007757
21709000,0.0324,0.013523,0.002678,0.000431,0.007522
21710000,0.0324,0.013523,0.002678,0.000431,0.007757
21711000,0.0324,0.013523,0.002678,0.000431,0.007757
21712000,0.0324,0.013523,0.002678,0.000431,0.008345
21713000,0.0324,0.013523,0.002678,0.000431,0.007757
21714000,0.0324,0.013523,0.002678,0.000431,0.007992
21715000,0.0324,0.013523,0.002678,0.000431,0.008345
21716000,0.0324,0.013523,0.002678,0.000431,0.008462
21717000,0.0324,0.013523,0.002678,0.000431,0.007757
21718000,0.0324,0.013523,0.002678,0.000431,0.008580
21719000,0.0324,0.013523,0.002678,0.000431,0.007052
21720000,0.0324,0.013523,0.002678,0.000431,0.008345
21721000,0.0324,0.013523,0.002678,0.000431,0.008227
21722000,0.0324,0.013523,0.002678,0.000431,0.007757
21723000,0.0324,0.013523,0.002678,0.000431,0.008932
21724000,0.0324,0.013523,0.002678,0.000431,0.007404
21725000,0.0324,0.013523,0.002678,0.000431,0.007639
21726000,0.0324,0.013523,0.002678,0.000431,0.008227
21727000,0.0324,0.013523,0.002678,0.000431,0.008462
21728000,0.0324,0.013523,0.002678,0.000431,0.008697
21729000,0.0324,0.013523,0.002678,0.000431,0.007992
21730000,0.0324,0.013523,0.002678,0.000431,0.008227
21731000,0.0324,0.013523,0.002678,0.000431,0.008462
21732000,0.0324,0.013523,0.002678,0.000431,0.008227
21733000,0.0324,0.013523,0.002678,0.000431,0.008462
21734000,0.0324,0.013523,0.002678,0.000431,0.007992
21735000,0.0324,0.013523,0.002678,0.000431,0.008462
21736000,0.0324,0.013523,0.002678,0.000431,0.007404
21737000,0.0324,0.013523,0.002678,0.000431,0.008580
21738000,0.0324,0.013523,0.002678,0.000431,0.008109
21739000,0.0324,0.013523,0.002678,0.000431,0.007992
21740000,0.0324,0.013523,0.002678,0.000431,0.007169
21741000,0.0324,0.013523,0.002678,0.000431,0.008580
21742000,0.0324,0.013523,0.002678,0.000431,0.007992
21743000,0.0324,0.013523,0.002678,0.000431,0.007874
21744000,0.0324,0.013523,0.002678,0.000431,0.007522
21745000,0.0324,0.013523,0.002678,0.000431,0.007639
21746000,0.0324,0.013523,0.002678,0.000431,0.008580
21747000,0.0324,0.013523,0.002678,0.000431,0.007757
21748000,0.0324,0.013523,0.002678,0.000431,0.008109
21749000,0.0324,0.013523,0.002678,0.000431,0.008580
21750000,0.0324,0.013523,0.002678,0.000431,0.007287
21751000,0.0324,0.013523,0.002678,0.000431,0.007757
21752000,0.0324,0.013523,0.002678,0.000431,0.008345
21753000,0.0324,0.013523,0.002678,0.000431,0.008697
21754000,0.0324,0.013523,0.002678,0.000431,0.007287
21755000,0.0324,0.013523,0.002678,0.000431,0.007757
21756000,0.0324,0.013523,0.002678,0.000431,0.008227
21757000,0.0324,0.013523,0.002678,0.000431,0.007874
21758000,0.0324,0.013523,0.002678,0.000431,0.007874
21759000,0.0324,0.013523,0.002678,0.000431,0.008932
21760000,0.0324,0.013523,0.002678,0.000431,0.007874
21761000,0.0324,0.013523,0.002678,0.000431,0.007757
21762000,0.0324,0.013523,0.002678,0.000431,0.008345
21763000,0.0324,0.013523,0.002678,0.000431,0.007639
21764000,0.0324,0.013523,0.002678,0.000431,0.007757
21765000,0.0324,0.013523,0.002678,0.000431,0.008109
21766000,0.0324,0.013523,0.002678,0.000431,0.008227
21767000,0.0324,0.013523,0.002678,0.000431,0.007992
21768000,0.0324,0.013523,0.002678,0.000431,0.007052
21769000,0.0324,0.013523,0.002678,0.000431,0.007874
21770000,0.0324,0.013523,0.002678,0.000431,0.007874
21771000,0.0324,0.013523,0.002678,0.000431,0.008109
21772000,0.0324,0.013523,0.002678,0.000431,0.008580
21773000,0.0324,0.013523,0.002678,0.000431,0.008932
21774000,0.0324,0.013523,0.002678,0.000431,0.008815
21775000,0.0324,0.013523,0.002678,0.000431,0.007874
21776000,0.0324,0.013523,0.002678,0.000431,0.008227
21777000,0.0324,0.013523,0.002678,0.000431,0.008227
21778000,0.0324,0.013523,0.002678,0.000431,0.008345
21779000,0.0324,0.013523,0.002678,0.000431,0.008345
21780000,0.0324,0.013523,0.002678,0.000431,0.007522
21781000,0.0324,0.013523,0.002678,0.000431,0.009050
21782000,0.0324,0.013523,0.002678,0.000431,0.007757
21783000,0.0324,0.013523,0.002678,0.000431,0.008697
21784000,0.0324,0.013523,0.002678,0.000431,0.008109
21785000,0.0324,0.013523,0.002678,0.000431,0.008345
21786000,0.0324,0.013523,0.002678,0.000431,0.008227
21787000,0.0324,0.013523,0.002678,0.000431,0.007522
21788000,0.0324,0.013523,0.002678,0.000431,0.008109
21789000,0.0324,0.013523,0.002678,0.000431,0.007992
21790000,0.0324,0.013523,0.002678,0.000431,0.007639
21791000,0.0324,0.013523,0.002678,0.000431,0.007992
21792000,0.0324,0.013523,0.002678,0.000431,0.007757
21793000,0.0324,0.013523,0.002678,0.000431,0.008345
21794000,0.0324,0.013523,0.002678,0.000431,0.008815
21795000,0.0324,0.013523,0.002678,0.000431,0.008462
21796000,0.0324,0.013523,0.002678,0.000431,0.007757
21797000,0.0324,0.013523,0.002678,0.000431,0.008462
21798000,0.0324,0.013523,0.002678,0.000431,0.008109
21799000,0.0324,0.013523,0.002678,0.000431,0.008697
21800000,0.0324,0.013523,0.002678,0.000431,0.008697
21801000,0.0324,0.013523,0.002678,0.000431,0.008697
21802000,0.0324,0.013523,0.002678,0.000431,0.007992
21803000,0.0324,0.013523,0.002678,0.000431,0.007522
21804000,0.0324,0.013523,0.002678,0.000431,0.007992
21805000,0.0324,0.013523,0.002678,0.000431,0.008697
21806000,0.0324,0.013523,0.002678,0.000431,0.008580
21807000,0.0324,0.013523,0.002678,0.000431,0.007639
21808000,0.0324,0.013523,0.002678,0.000431,0.008932
21809000,0.0324,0.013523,0.002678,0.000431,0.007992
21810000,0.0324,0.013523,0.002678,0.000431,0.008580
21811000,0.0324,0.013523,0.002678,0.000431,0.008697
21812000,0.0324,0.013523,0.002678,0.000431,0.007287
21813000,0.0324,0.013523,0.002678,0.000431,0.008227
21814000,0.0324,0.013523,0.002678,0.000431,0.007404
21815000,0.0324,0.013523,0.002678,0.000431,0.008697
21816000,0.0324,0.013523,0.002678,0.000431,0.007522
21817000,0.0324,0.013523,0.002678,0.000431,0.008227
21818000,0.0324,0.013523,0.002678,0.000431,0.007639
21819000,0.0324,0.013523,0.002678,0.000431,0.007522
21820000,0.0324,0.013523,0.002678,0.000431,0.008462
21821000,0.0324,0.013523,0.002678,0.000431,0.008815
21822000,0.0324,0.013523,0.002678,0.000431,0.008227
21823000,0.0324,0.013523,0.002678,0.000431,0.008109
21824000,0.0324,0.013523,0.002678,0.000431,0.008345
21825000,0.0324,0.013523,0.002678,0.000431,0.008697
21826000,0.0324,0.013523,0.002678,0.000431,0.007992
21827000,0.0324,0.013523,0.002678,0.000431,0.007874
21828000,0.0324,0.013523,0.002678,0.000431,0.007287
21829000,0.0324,0.013523,0.002678,0.000431,0.008815
21830000,0.0324,0.013523,0.002678,0.000431,0.008580
21831000,0.0324,0.013523,0.002678,0.000431,0.008815
21832000,0.0324,0.013523,0.002678,0.000431,0.007992
21833000,0.0324,0.013523,0.002678,0.000431,0.007052
21834000,0.0324,0.013523,0.002678,0.000431,0.008580
21835000,0.0324,0.013523,0.002678,0.000431,0.008345
21836000,0.0324,0.013523,0.002678,0.000431,0.007874
21837000,0.0324,0.013523,0.002678,0.000431,0.009050
21838000,0.0324,0.013523,0.002678,0.000431,0.007992
21839000,0.0324,0.013523,0.002678,0.000431,0.007287
21840000,0.0324,0.013523,0.002678,0.000431,0.008345
21841000,0.0324,0.013523,0.002678,0.000431,0.007992
21842000,0.0324,0.013523,0.002678,0.000431,0.008697
21843000,0.0324,0.013523,0.002678,0.000431,0.007639
21844000,0.0324,0.013523,0.002678,0.000431,0.007639
21845000,0.0324,0.013523,0.002678,0.000431,0.008580
21846000,0.0324,0.013523,0.002678,0.000431,0.008697
21847000,0.0324,0.013523,0.002678,0.000431,0.008815
21848000,0.0324,0.013523,0.002678,0.000431,0.007404
21849000,0.0324,0.013523,0.002678,0.000431,0.007522
21850000,0.0324,0.013523,0.002678,0.000431,0.008227
21851000,0.0324,0.013523,0.002678,0.000431,0.009167
21852000,0.0324,0.013523,0.002678,0.000431,0.007874
21853000,0.0324,0.013523,0.002678,0.000431,0.008227
21854000,0.0324,0.013523,0.002678,0.000431,0.007992
21855000,0.0324,0.013523,0.002678,0.000431,0.007639
21856000,0.0324,0.013523,0.002678,0.000431,0.007874
21857000,0.0324,0.013523,0.002678,0.000431,0.008580
21858000,0.0324,0.013523,0.002678,0.000431,0.007874
21859000,0.0324,0.013523,0.002678,0.000431,0.009050
21860000,0.0324,0.013523,0.002678,0.000431,0.007757
21861000,0.0324,0.013523,0.002678,0.000431,0.008227
21862000,0.0324,0.013523,0.002678,0.000431,0.007287
21863000,0.0324,0.013523,0.002678,0.000431,0.007404
21864000,0.0324,0.013523,0.002678,0.000431,0.007404
21865000,0.0324,0.013523,0.002678,0.000431,0.007874
21866000,0.0324,0.013523,0.002678,0.000431,0.007522
21867000,0.0324,0.013523,0.002678,0.000431,0.007874
21868000,0.0324,0.013523,0.002678,0.000431,0.007522
21869000,0.0324,0.013523,0.002678,0.000431,0.007052
21870000,0.0324,0.013523,0.002678,0.000431,0.007757
21871000,0.0324,0.013523,0.002678,0.000431,0.008462
21872000,0.0324,0.013523,0.002678,0.000431,0.008227
21873000,0.0324,0.013523,0.002678,0.000431,0.007757
21874000,0.0324,0.013523,0.002678,0.000431,0.008345
21875000,0.0324,0.013523,0.002678,0.000431,0.007992
21876000,0.0324,0.013523,0.002678,0.000431,0.008697
21877000,0.0324,0.013523,0.002678,0.000431,0.008932
21878000,0.0324,0.013523,0.002678,0.000431,0.008227
21879000,0.0324,0.013523,0.002678,0.000431,0.007404
21880000,0.0324,0.013523,0.002678,0.000431,0.007757
21881000,0.0324,0.013523,0.002678,0.000431,0.008462
21882000,0.0324,0.013523,0.002678,0.000431,0.008580
21883000,0.0324,0.013523,0.002678,0.000431,0.007757
21884000,0.0324,0.013523,0.002678,0.000431,0.007404
21885000,0.0324,0.013523,0.002678,0.000431,0.007992
21886000,0.0324,0.013523,0.002678,0.000431,0.008227
21887000,0.0324,0.013523,0.002678,0.000431,0.007874
21888000,0.0324,0.013523,0.002678,0.000431,0.008345
21889000,0.0324,0.013523,0.002678,0.000431,0.008227
21890000,0.0324,0.013523,0.002678,0.000431,0.008109
21891000,0.0324,0.013523,0.002678,0.000431,0.007874
21892000,0.0324,0.013523,0.002678,0.000431,0.008345
21893000,0.0324,0.013523,0.002678,0.000431,0.007757
21894000,0.0324,0.013523,0.002678,0.000431,0.008227
21895000,0.0324,0.013523,0.002678,0.000431,0.007287
21896000,0.0324,0.013523,0.002678,0.000431,0.008932
21897000,0.0324,0.013523,0.002678,0.000431,0.007404
21898000,0.0324,0.013523,0.002678,0.000431,0.007992
21899000,0.0324,0.013523,0.002678,0.000431,0.007404
21900000,0.0324,0.013523,0.002678,0.000431,0.007874
21901000,0.0324,0.013523,0.002678,0.000431,0.008109
21902000,0.0324,0.013523,0.002678,0.000431,0.007992
21903000,0.0324,0.013523,0.002678,0.000431,0.007404
21904000,0.0324,0.013523,0.002678,0.000431,0.007757
21905000,0.0324,0.013523,0.002678,0.000431,0.007287
21906000,0.0324,0.013523,0.002678,0.000431,0.008697
21907000,0.0324,0.013523,0.002678,0.000431,0.008580
21908000,0.0324,0.013523,0.002678,0.000431,0.007874
21909000,0.0324,0.013523,0.002678,0.000431,0.007639
21910000,0.0324,0.013523,0.002678,0.000431,0.008227
21911000,0.0324,0.013523,0.002678,0.000431,0.008580
21912000,0.0324,0.013523,0.002678,0.000431,0.008109
21913000,0.0324,0.013523,0.002678,0.000431,0.007639
21914000,0.0324,0.013523,0.002678,0.000431,0.008227
21915000,0.0324,0.013523,0.002678,0.000431,0.008345
21916000,0.0324,0.013523,0.002678,0.000431,0.007874
21917000,0.0324,0.013523,0.002678,0.000431,0.008815
21918000,0.0324,0.013523,0.002678,0.000431,0.007522
21919000,0.0324,0.013523,0.002678,0.000431,0.008109
21920000,0.0324,0.013523,0.002678,0.000431,0.007874
21921000,0.0324,0.013523,0.002678,0.000431,0.007874
21922000,0.0324,0.013523,0.002678,0.000431,0.008109
21923000,0.0324,0.013523,0.002678,0.000431,0.008697
21924000,0.0324,0.013523,0.002678,0.000431,0.007992
21925000,0.0324,0.013523,0.002678,0.000431,0.008227
21926000,0.0324,0.013523,0.002678,0.000431,0.008227
21927000,0.0324,0.013523,0.002678,0.000431,0.008227
21928000,0.0324,0.013523,0.002678,0.000431,0.007992
21929000,0.0324,0.013523,0.002678,0.000431,0.008580
21930000,0.0324,0.013523,0.002678,0.000431,0.008227
21931000,0.0324,0.013523,0.002678,0.000431,0.007874
21932000,0.0324,0.013523,0.002678,0.000431,0.007639
21933000,0.0324,0.013523,0.002678,0.000431,0.008345
21934000,0.0324,0.013523,0.002678,0.000431,0.007522
21935000,0.0324,0.013523,0.002678,0.000431,0.008109
21936000,0.0324,0.013523,0.002678,0.000431,0.008345
21937000,0.0324,0.013523,0.002678,0.000431,0.007874
21938000,0.0324,0.013523,0.002678,0.000431,0.007992
21939000,0.0324,0.013523,0.002678,0.000431,0.007757
21940000,0.0324,0.013523,0.002678,0.000431,0.007874
21941000,0.0324,0.013523,0.002678,0.000431,0.007874
21942000,0.0324,0.013523,0.002678,0.000431,0.008109
21943000,0.0324,0.013523,0.002678,0.000431,0.007874
21944000,0.0324,0.013523,0.002678,0.000431,0.007404
21945000,0.0324,0.013523,0.002678,0.000431,0.008227
21946000,0.0324,0.013523,0.002678,0.000431,0.007992
21947000,0.0324,0.013523,0.002678,0.000431,0.007404
21948000,0.0324,0.013523,0.002678,0.000431,0.007522
21949000,0.0324,0.013523,0.002678,0.000431,0.007639
21950000,0.0324,0.013523,0.002678,0.000431,0.008227
21951000,0.0324,0.013523,0.002678,0.000431,0.008462
21952000,0.0324,0.013523,0.002678,0.000431,0.007874
21953000,0.0324,0.013523,0.002678,0.000431,0.008462
21954000,0.0324,0.013523,0.002678,0.000431,0.007874
21955000,0.0324,0.013523,0.002678,0.000431,0.007522
21956000,0.0324,0.013523,0.002678,0.000431,0.008580
21957000,0.0324,0.013523,0.002678,0.000431,0.008462
21958000,0.0324,0.013523,0.002678,0.000431,0.008345
21959000,0.0324,0.013523,0.002678,0.000431,0.007757
21960000,0.0324,0.013523,0.002678,0.000431,0.006817
21961000,0.0324,0.013523,0.002678,0.000431,0.007874
21962000,0.0324,0.013523,0.002678,0.000431,0.007522
21963000,0.0324,0.013523,0.002678,0.000431,0.007522
21964000,0.0324,0.013523,0.002678,0.000431,0.007404
21965000,0.0324,0.013523,0.002678,0.000431,0.006934
21966000,0.0324,0.013523,0.002678,0.000431,0.007404
21967000,0.0324,0.013523,0.002678,0.000431,0.007992
21968000,0.0324,0.013523,0.002678,0.000431,0.007639
21969000,0.0324,0.013523,0.002678,0.000431,0.008227
21970000,0.0324,0.013523,0.002678,0.000431,0.007169
21971000,0.0324,0.013523,0.002678,0.000431,0.007639
21972000,0.0324,0.013523,0.002678,0.000431,0.007169
21973000,0.0324,0.013523,0.002678,0.000431,0.007639
21974000,0.0324,0.013523,0.002678,0.000431,0.008462
21975000,0.0324,0.013523,0.002678,0.000431,0.007874
21976000,0.0324,0.013523,0.002678,0.000431,0.007992
21977000,0.0324,0.013523,0.002678,0.000431,0.007522
21978000,0.0324,0.013523,0.002678,0.000431,0.007639
21979000,0.0324,0.013523,0.002678,0.000431,0.008462
21980000,0.0324,0.013523,0.002678,0.000431,0.007639
21981000,0.0324,0.013523,0.002678,0.000431,0.007404
21982000,0.0324,0.013523,0.002678,0.000431,0.007992
21983000,0.0324,0.013523,0.002678,0.000431,0.007169
21984000,0.0324,0.013523,0.002678,0.000431,0.007639
21985000,0.0324,0.013523,0.002678,0.000431,0.007404
21986000,0.0324,0.013523,0.002678,0.000431,0.007757
21987000,0.0324,0.013523,0.002678,0.000431,0.007874
21988000,0.0324,0.013523,0.002678,0.000431,0.007992
21989000,0.0324,0.013523,0.002678,0.000431,0.008109
21990000,0.0324,0.013523,0.002678,0.000431,0.008580
21991000,0.0324,0.013523,0.002678,0.000431,0.008345
21992000,0.0324,0.013523,0.002678,0.000431,0.008697
21993000,0.0324,0.013523,0.002678,0.000431,0.008109
21994000,0.0324,0.013523,0.002678,0.000431,0.008227
21995000,0.0324,0.013523,0.002678,0.000431,0.008109
21996000,0.0324,0.013523,0.002678,0.000431,0.008815
21997000,0.0324,0.013523,0.002678,0.000431,0.007874
21998000,0.0324,0.013523,0.002678,0.000431,0.007757
21999000,0.0324,0.013523,0.002678,0.000431,0.007992
