Cycle,Area(mm^2),PeakDynamic(W),SubthresholdLeakage(W),GateLeakage(W),RunTimeDynamic(W)
17000000,0.0324,0.013523,0.002678,0.000431,0.012458
17001000,0.0324,0.013523,0.002678,0.000431,0.011635
17002000,0.0324,0.013523,0.002678,0.000431,0.010930
17003000,0.0324,0.013523,0.002678,0.000431,0.012693
17004000,0.0324,0.013523,0.002678,0.000431,0.010930
17005000,0.0324,0.013523,0.002678,0.000431,0.012340
17006000,0.0324,0.013523,0.002678,0.000431,0.010930
17007000,0.0324,0.013523,0.002678,0.000431,0.011753
17008000,0.0324,0.013523,0.002678,0.000431,0.010695
17009000,0.0324,0.013523,0.002678,0.000431,0.011988
17010000,0.0324,0.013523,0.002678,0.000431,0.011635
17011000,0.0324,0.013523,0.002678,0.000431,0.012105
17012000,0.0324,0.013523,0.002678,0.000431,0.011518
17013000,0.0324,0.013523,0.002678,0.000431,0.010813
17014000,0.0324,0.013523,0.002678,0.000431,0.011870
17015000,0.0324,0.013523,0.002678,0.000431,0.012693
17016000,0.0324,0.013523,0.002678,0.000431,0.011753
17017000,0.0324,0.013523,0.002678,0.000431,0.011165
17018000,0.0324,0.013523,0.002678,0.000431,0.011518
17019000,0.0324,0.013523,0.002678,0.000431,0.011048
17020000,0.0324,0.013523,0.002678,0.000431,0.012458
17021000,0.0324,0.013523,0.002678,0.000431,0.011400
17022000,0.0324,0.013523,0.002678,0.000431,0.013046
17023000,0.0324,0.013523,0.002678,0.000431,0.011635
17024000,0.0324,0.013523,0.002678,0.000431,0.010930
17025000,0.0324,0.013523,0.002678,0.000431,0.011518
17026000,0.0324,0.013523,0.002678,0.000431,0.011400
17027000,0.0324,0.013523,0.002678,0.000431,0.011635
17028000,0.0324,0.013523,0.002678,0.000431,0.012576
17029000,0.0324,0.013523,0.002678,0.000431,0.010578
17030000,0.0324,0.013523,0.002678,0.000431,0.012223
17031000,0.0324,0.013523,0.002678,0.000431,0.011400
17032000,0.0324,0.013523,0.002678,0.000431,0.012105
17033000,0.0324,0.013523,0.002678,0.000431,0.012811
17034000,0.0324,0.013523,0.002678,0.000431,0.012693
17035000,0.0324,0.013523,0.002678,0.000431,0.010342
17036000,0.0324,0.013523,0.002678,0.000431,0.010225
17037000,0.0324,0.013523,0.002678,0.000431,0.011753
17038000,0.0324,0.013523,0.002678,0.000431,0.011048
17039000,0.0324,0.013523,0.002678,0.000431,0.013281
17040000,0.0324,0.013523,0.002678,0.000431,0.011165
17041000,0.0324,0.013523,0.002678,0.000431,0.012458
17042000,0.0324,0.013523,0.002678,0.000431,0.011753
17043000,0.0324,0.013523,0.002678,0.000431,0.011283
17044000,0.0324,0.013523,0.002678,0.000431,0.012458
17045000,0.0324,0.013523,0.002678,0.000431,0.011753
17046000,0.0324,0.013523,0.002678,0.000431,0.012576
17047000,0.0324,0.013523,0.002678,0.000431,0.011753
17048000,0.0324,0.013523,0.002678,0.000431,0.012340
17049000,0.0324,0.013523,0.002678,0.000431,0.011635
17050000,0.0324,0.013523,0.002678,0.000431,0.011988
17051000,0.0324,0.013523,0.002678,0.000431,0.012223
17052000,0.0324,0.013523,0.002678,0.000431,0.013163
17053000,0.0324,0.013523,0.002678,0.000431,0.011400
17054000,0.0324,0.013523,0.002678,0.000431,0.012105
17055000,0.0324,0.013523,0.002678,0.000431,0.011165
17056000,0.0324,0.013523,0.002678,0.000431,0.011048
17057000,0.0324,0.013523,0.002678,0.000431,0.012811
17058000,0.0324,0.013523,0.002678,0.000431,0.012928
17059000,0.0324,0.013523,0.002678,0.000431,0.010107
17060000,0.0324,0.013523,0.002678,0.000431,0.012340
17061000,0.0324,0.013523,0.002678,0.000431,0.012928
17062000,0.0324,0.013523,0.002678,0.000431,0.012458
17063000,0.0324,0.013523,0.002678,0.000431,0.011870
17064000,0.0324,0.013523,0.002678,0.000431,0.012105
17065000,0.0324,0.013523,0.002678,0.000431,0.011283
17066000,0.0324,0.013523,0.002678,0.000431,0.010460
17067000,0.0324,0.013523,0.002678,0.000431,0.012928
17068000,0.0324,0.013523,0.002678,0.000431,0.012458
17069000,0.0324,0.013523,0.002678,0.000431,0.012458
17070000,0.0324,0.013523,0.002678,0.000431,0.012340
17071000,0.0324,0.013523,0.002678,0.000431,0.011283
17072000,0.0324,0.013523,0.002678,0.000431,0.011635
17073000,0.0324,0.013523,0.002678,0.000431,0.011988
17074000,0.0324,0.013523,0.002678,0.000431,0.011165
17075000,0.0324,0.013523,0.002678,0.000431,0.012105
17076000,0.0324,0.013523,0.002678,0.000431,0.012811
17077000,0.0324,0.013523,0.002678,0.000431,0.011165
17078000,0.0324,0.013523,0.002678,0.000431,0.011870
17079000,0.0324,0.013523,0.002678,0.000431,0.011988
17080000,0.0324,0.013523,0.002678,0.000431,0.012223
17081000,0.0324,0.013523,0.002678,0.000431,0.011870
17082000,0.0324,0.013523,0.002678,0.000431,0.012340
17083000,0.0324,0.013523,0.002678,0.000431,0.011753
17084000,0.0324,0.013523,0.002678,0.000431,0.011635
17085000,0.0324,0.013523,0.002678,0.000431,0.011635
17086000,0.0324,0.013523,0.002678,0.000431,0.011048
17087000,0.0324,0.013523,0.002678,0.000431,0.011635
17088000,0.0324,0.013523,0.002678,0.000431,0.012223
17089000,0.0324,0.013523,0.002678,0.000431,0.011753
17090000,0.0324,0.013523,0.002678,0.000431,0.012576
17091000,0.0324,0.013523,0.002678,0.000431,0.010695
17092000,0.0324,0.013523,0.002678,0.000431,0.011635
17093000,0.0324,0.013523,0.002678,0.000431,0.011635
17094000,0.0324,0.013523,0.002678,0.000431,0.012223
17095000,0.0324,0.013523,0.002678,0.000431,0.011048
17096000,0.0324,0.013523,0.002678,0.000431,0.012576
17097000,0.0324,0.013523,0.002678,0.000431,0.011165
17098000,0.0324,0.013523,0.002678,0.000431,0.012693
17099000,0.0324,0.013523,0.002678,0.000431,0.011988
17100000,0.0324,0.013523,0.002678,0.000431,0.011518
17101000,0.0324,0.013523,0.002678,0.000431,0.011048
17102000,0.0324,0.013523,0.002678,0.000431,0.012105
17103000,0.0324,0.013523,0.002678,0.000431,0.011283
17104000,0.0324,0.013523,0.002678,0.000431,0.011753
17105000,0.0324,0.013523,0.002678,0.000431,0.012340
17106000,0.0324,0.013523,0.002678,0.000431,0.011988
17107000,0.0324,0.013523,0.002678,0.000431,0.012928
17108000,0.0324,0.013523,0.002678,0.000431,0.011988
17109000,0.0324,0.013523,0.002678,0.000431,0.011870
17110000,0.0324,0.013523,0.002678,0.000431,0.011518
17111000,0.0324,0.013523,0.002678,0.000431,0.011518
17112000,0.0324,0.013523,0.002678,0.000431,0.010578
17113000,0.0324,0.013523,0.002678,0.000431,0.011870
17114000,0.0324,0.013523,0.002678,0.000431,0.012340
17115000,0.0324,0.013523,0.002678,0.000431,0.011988
17116000,0.0324,0.013523,0.002678,0.000431,0.012576
17117000,0.0324,0.013523,0.002678,0.000431,0.012576
17118000,0.0324,0.013523,0.002678,0.000431,0.011400
17119000,0.0324,0.013523,0.002678,0.000431,0.011988
17120000,0.0324,0.013523,0.002678,0.000431,0.013046
17121000,0.0324,0.013523,0.002678,0.000431,0.011870
17122000,0.0324,0.013523,0.002678,0.000431,0.012340
17123000,0.0324,0.013523,0.002678,0.000431,0.011165
17124000,0.0324,0.013523,0.002678,0.000431,0.011518
17125000,0.0324,0.013523,0.002678,0.000431,0.011635
17126000,0.0324,0.013523,0.002678,0.000431,0.011283
17127000,0.0324,0.013523,0.002678,0.000431,0.012928
17128000,0.0324,0.013523,0.002678,0.000431,0.012223
17129000,0.0324,0.013523,0.002678,0.000431,0.013046
17130000,0.0324,0.013523,0.002678,0.000431,0.011753
17131000,0.0324,0.013523,0.002678,0.000431,0.011048
17132000,0.0324,0.013523,0.002678,0.000431,0.013516
17133000,0.0324,0.013523,0.002678,0.000431,0.011400
17134000,0.0324,0.013523,0.002678,0.000431,0.011635
17135000,0.0324,0.013523,0.002678,0.000431,0.013516
17136000,0.0324,0.013523,0.002678,0.000431,0.011753
17137000,0.0324,0.013523,0.002678,0.000431,0.011753
17138000,0.0324,0.013523,0.002678,0.000431,0.012458
17139000,0.0324,0.013523,0.002678,0.000431,0.011870
17140000,0.0324,0.013523,0.002678,0.000431,0.011870
17141000,0.0324,0.013523,0.002678,0.000431,0.012693
17142000,0.0324,0.013523,0.002678,0.000431,0.010813
17143000,0.0324,0.013523,0.002678,0.000431,0.012693
17144000,0.0324,0.013523,0.002678,0.000431,0.011635
17145000,0.0324,0.013523,0.002678,0.000431,0.011283
17146000,0.0324,0.013523,0.002678,0.000431,0.011753
17147000,0.0324,0.013523,0.002678,0.000431,0.012223
17148000,0.0324,0.013523,0.002678,0.000431,0.011635
17149000,0.0324,0.013523,0.002678,0.000431,0.012811
17150000,0.0324,0.013523,0.002678,0.000431,0.011753
17151000,0.0324,0.013523,0.002678,0.000431,0.011635
17152000,0.0324,0.013523,0.002678,0.000431,0.013633
17153000,0.0324,0.013523,0.002678,0.000431,0.011400
17154000,0.0324,0.013523,0.002678,0.000431,0.011988
17155000,0.0324,0.013523,0.002678,0.000431,0.011753
17156000,0.0324,0.013523,0.002678,0.000431,0.011753
17157000,0.0324,0.013523,0.002678,0.000431,0.012105
17158000,0.0324,0.013523,0.002678,0.000431,0.012223
17159000,0.0324,0.013523,0.002678,0.000431,0.012223
17160000,0.0324,0.013523,0.002678,0.000431,0.011400
17161000,0.0324,0.013523,0.002678,0.000431,0.010695
17162000,0.0324,0.013523,0.002678,0.000431,0.012105
17163000,0.0324,0.013523,0.002678,0.000431,0.011518
17164000,0.0324,0.013523,0.002678,0.000431,0.011400
17165000,0.0324,0.013523,0.002678,0.000431,0.011165
17166000,0.0324,0.013523,0.002678,0.000431,0.012340
17167000,0.0324,0.013523,0.002678,0.000431,0.011400
17168000,0.0324,0.013523,0.002678,0.000431,0.010460
17169000,0.0324,0.013523,0.002678,0.000431,0.011283
17170000,0.0324,0.013523,0.002678,0.000431,0.013516
17171000,0.0324,0.013523,0.002678,0.000431,0.011165
17172000,0.0324,0.013523,0.002678,0.000431,0.012693
17173000,0.0324,0.013523,0.002678,0.000431,0.012223
17174000,0.0324,0.013523,0.002678,0.000431,0.011400
17175000,0.0324,0.013523,0.002678,0.000431,0.011400
17176000,0.0324,0.013523,0.002678,0.000431,0.012223
17177000,0.0324,0.013523,0.002678,0.000431,0.012223
17178000,0.0324,0.013523,0.002678,0.000431,0.011635
17179000,0.0324,0.013523,0.002678,0.000431,0.010578
17180000,0.0324,0.013523,0.002678,0.000431,0.011048
17181000,0.0324,0.013523,0.002678,0.000431,0.012105
17182000,0.0324,0.013523,0.002678,0.000431,0.011988
17183000,0.0324,0.013523,0.002678,0.000431,0.011635
17184000,0.0324,0.013523,0.002678,0.000431,0.011400
17185000,0.0324,0.013523,0.002678,0.000431,0.011988
17186000,0.0324,0.013523,0.002678,0.000431,0.012458
17187000,0.0324,0.013523,0.002678,0.000431,0.010813
17188000,0.0324,0.013523,0.002678,0.000431,0.013516
17189000,0.0324,0.013523,0.002678,0.000431,0.012928
17190000,0.0324,0.013523,0.002678,0.000431,0.010930
17191000,0.0324,0.013523,0.002678,0.000431,0.011988
17192000,0.0324,0.013523,0.002678,0.000431,0.011048
17193000,0.0324,0.013523,0.002678,0.000431,0.012223
17194000,0.0324,0.013523,0.002678,0.000431,0.012458
17195000,0.0324,0.013523,0.002678,0.000431,0.012693
17196000,0.0324,0.013523,0.002678,0.000431,0.010695
17197000,0.0324,0.013523,0.002678,0.000431,0.011048
17198000,0.0324,0.013523,0.002678,0.000431,0.012223
17199000,0.0324,0.013523,0.002678,0.000431,0.010107
17200000,0.0324,0.013523,0.002678,0.000431,0.013281
17201000,0.0324,0.013523,0.002678,0.000431,0.011518
17202000,0.0324,0.013523,0.002678,0.000431,0.011988
17203000,0.0324,0.013523,0.002678,0.000431,0.012105
17204000,0.0324,0.013523,0.002678,0.000431,0.011400
17205000,0.0324,0.013523,0.002678,0.000431,0.011283
17206000,0.0324,0.013523,0.002678,0.000431,0.012811
17207000,0.0324,0.013523,0.002678,0.000431,0.011635
17208000,0.0324,0.013523,0.002678,0.000431,0.011870
17209000,0.0324,0.013523,0.002678,0.000431,0.011283
17210000,0.0324,0.013523,0.002678,0.000431,0.011635
17211000,0.0324,0.013523,0.002678,0.000431,0.011165
17212000,0.0324,0.013523,0.002678,0.000431,0.013163
17213000,0.0324,0.013523,0.002678,0.000431,0.013046
17214000,0.0324,0.013523,0.002678,0.000431,0.012105
17215000,0.0324,0.013523,0.002678,0.000431,0.011753
17216000,0.0324,0.013523,0.002678,0.000431,0.010695
17217000,0.0324,0.013523,0.002678,0.000431,0.012458
17218000,0.0324,0.013523,0.002678,0.000431,0.011283
17219000,0.0324,0.013523,0.002678,0.000431,0.012693
17220000,0.0324,0.013523,0.002678,0.000431,0.010930
17221000,0.0324,0.013523,0.002678,0.000431,0.010695
17222000,0.0324,0.013523,0.002678,0.000431,0.011870
17223000,0.0324,0.013523,0.002678,0.000431,0.011283
17224000,0.0324,0.013523,0.002678,0.000431,0.011518
17225000,0.0324,0.013523,0.002678,0.000431,0.012693
17226000,0.0324,0.013523,0.002678,0.000431,0.012576
17227000,0.0324,0.013523,0.002678,0.000431,0.010813
17228000,0.0324,0.013523,0.002678,0.000431,0.012693
17229000,0.0324,0.013523,0.002678,0.000431,0.012340
17230000,0.0324,0.013523,0.002678,0.000431,0.011988
17231000,0.0324,0.013523,0.002678,0.000431,0.012576
17232000,0.0324,0.013523,0.002678,0.000431,0.010695
17233000,0.0324,0.013523,0.002678,0.000431,0.011753
17234000,0.0324,0.013523,0.002678,0.000431,0.011988
17235000,0.0324,0.013523,0.002678,0.000431,0.012223
17236000,0.0324,0.013523,0.002678,0.000431,0.011283
17237000,0.0324,0.013523,0.002678,0.000431,0.011870
17238000,0.0324,0.013523,0.002678,0.000431,0.010813
17239000,0.0324,0.013523,0.002678,0.000431,0.011400
17240000,0.0324,0.013523,0.002678,0.000431,0.011283
17241000,0.0324,0.013523,0.002678,0.000431,0.011635
17242000,0.0324,0.013523,0.002678,0.000431,0.012928
17243000,0.0324,0.013523,0.002678,0.000431,0.012693
17244000,0.0324,0.013523,0.002678,0.000431,0.010930
17245000,0.0324,0.013523,0.002678,0.000431,0.012340
17246000,0.0324,0.013523,0.002678,0.000431,0.010930
17247000,0.0324,0.013523,0.002678,0.000431,0.011518
17248000,0.0324,0.013523,0.002678,0.000431,0.012340
17249000,0.0324,0.013523,0.002678,0.000431,0.010342
17250000,0.0324,0.013523,0.002678,0.000431,0.011635
17251000,0.0324,0.013523,0.002678,0.000431,0.013046
17252000,0.0324,0.013523,0.002678,0.000431,0.009872
17253000,0.0324,0.013523,0.002678,0.000431,0.011870
17254000,0.0324,0.013523,0.002678,0.000431,0.011988
17255000,0.0324,0.013523,0.002678,0.000431,0.011753
17256000,0.0324,0.013523,0.002678,0.000431,0.012458
17257000,0.0324,0.013523,0.002678,0.000431,0.010930
17258000,0.0324,0.013523,0.002678,0.000431,0.011400
17259000,0.0324,0.013523,0.002678,0.000431,0.012340
17260000,0.0324,0.013523,0.002678,0.000431,0.011165
17261000,0.0324,0.013523,0.002678,0.000431,0.011753
17262000,0.0324,0.013523,0.002678,0.000431,0.011400
17263000,0.0324,0.013523,0.002678,0.000431,0.011988
17264000,0.0324,0.013523,0.002678,0.000431,0.011048
17265000,0.0324,0.013523,0.002678,0.000431,0.012576
17266000,0.0324,0.013523,0.002678,0.000431,0.012340
17267000,0.0324,0.013523,0.002678,0.000431,0.011635
17268000,0.0324,0.013523,0.002678,0.000431,0.012340
17269000,0.0324,0.013523,0.002678,0.000431,0.011400
17270000,0.0324,0.013523,0.002678,0.000431,0.011753
17271000,0.0324,0.013523,0.002678,0.000431,0.012223
17272000,0.0324,0.013523,0.002678,0.000431,0.011870
17273000,0.0324,0.013523,0.002678,0.000431,0.011635
17274000,0.0324,0.013523,0.002678,0.000431,0.011165
17275000,0.0324,0.013523,0.002678,0.000431,0.011988
17276000,0.0324,0.013523,0.002678,0.000431,0.011283
17277000,0.0324,0.013523,0.002678,0.000431,0.011283
17278000,0.0324,0.013523,0.002678,0.000431,0.011165
17279000,0.0324,0.013523,0.002678,0.000431,0.012340
17280000,0.0324,0.013523,0.002678,0.000431,0.011165
17281000,0.0324,0.013523,0.002678,0.000431,0.012576
17282000,0.0324,0.013523,0.002678,0.000431,0.011518
17283000,0.0324,0.013523,0.002678,0.000431,0.010225
17284000,0.0324,0.013523,0.002678,0.000431,0.012928
17285000,0.0324,0.013523,0.002678,0.000431,0.011165
17286000,0.0324,0.013523,0.002678,0.000431,0.011048
17287000,0.0324,0.013523,0.002678,0.000431,0.011988
17288000,0.0324,0.013523,0.002678,0.000431,0.012223
17289000,0.0324,0.013523,0.002678,0.000431,0.011518
17290000,0.0324,0.013523,0.002678,0.000431,0.011870
17291000,0.0324,0.013523,0.002678,0.000431,0.011400
17292000,0.0324,0.013523,0.002678,0.000431,0.012458
17293000,0.0324,0.013523,0.002678,0.000431,0.012223
17294000,0.0324,0.013523,0.002678,0.000431,0.010578
17295000,0.0324,0.013523,0.002678,0.000431,0.011988
17296000,0.0324,0.013523,0.002678,0.000431,0.012928
17297000,0.0324,0.013523,0.002678,0.000431,0.011753
17298000,0.0324,0.013523,0.002678,0.000431,0.012340
17299000,0.0324,0.013523,0.002678,0.000431,0.011400
17300000,0.0324,0.013523,0.002678,0.000431,0.011870
17301000,0.0324,0.013523,0.002678,0.000431,0.012693
17302000,0.0324,0.013523,0.002678,0.000431,0.011283
17303000,0.0324,0.013523,0.002678,0.000431,0.011635
17304000,0.0324,0.013523,0.002678,0.000431,0.011753
17305000,0.0324,0.013523,0.002678,0.000431,0.011753
17306000,0.0324,0.013523,0.002678,0.000431,0.011988
17307000,0.0324,0.013523,0.002678,0.000431,0.012576
17308000,0.0324,0.013523,0.002678,0.000431,0.011635
17309000,0.0324,0.013523,0.002678,0.000431,0.011635
17310000,0.0324,0.013523,0.002678,0.000431,0.010813
17311000,0.0324,0.013523,0.002678,0.000431,0.011753
17312000,0.0324,0.013523,0.002678,0.000431,0.012928
17313000,0.0324,0.013523,0.002678,0.000431,0.011753
17314000,0.0324,0.013523,0.002678,0.000431,0.012340
17315000,0.0324,0.013523,0.002678,0.000431,0.012105
17316000,0.0324,0.013523,0.002678,0.000431,0.012105
17317000,0.0324,0.013523,0.002678,0.000431,0.012458
17318000,0.0324,0.013523,0.002678,0.000431,0.012576
17319000,0.0324,0.013523,0.002678,0.000431,0.011988
17320000,0.0324,0.013523,0.002678,0.000431,0.013398
17321000,0.0324,0.013523,0.002678,0.000431,0.010460
17322000,0.0324,0.013523,0.002678,0.000431,0.012340
17323000,0.0324,0.013523,0.002678,0.000431,0.011165
17324000,0.0324,0.013523,0.002678,0.000431,0.013281
17325000,0.0324,0.013523,0.002678,0.000431,0.012458
17326000,0.0324,0.013523,0.002678,0.000431,0.013046
17327000,0.0324,0.013523,0.002678,0.000431,0.011283
17328000,0.0324,0.013523,0.002678,0.000431,0.011283
17329000,0.0324,0.013523,0.002678,0.000431,0.011753
17330000,0.0324,0.013523,0.002678,0.000431,0.010695
17331000,0.0324,0.013523,0.002678,0.000431,0.012693
17332000,0.0324,0.013523,0.002678,0.000431,0.012693
17333000,0.0324,0.013523,0.002678,0.000431,0.011400
17334000,0.0324,0.013523,0.002678,0.000431,0.011400
17335000,0.0324,0.013523,0.002678,0.000431,0.011753
17336000,0.0324,0.013523,0.002678,0.000431,0.011400
17337000,0.0324,0.013523,0.002678,0.000431,0.012928
17338000,0.0324,0.013523,0.002678,0.000431,0.012693
17339000,0.0324,0.013523,0.002678,0.000431,0.011753
17340000,0.0324,0.013523,0.002678,0.000431,0.011400
17341000,0.0324,0.013523,0.002678,0.000431,0.011870
17342000,0.0324,0.013523,0.002678,0.000431,0.012340
17343000,0.0324,0.013523,0.002678,0.000431,0.013281
17344000,0.0324,0.013523,0.002678,0.000431,0.011870
17345000,0.0324,0.013523,0.002678,0.000431,0.012458
17346000,0.0324,0.013523,0.002678,0.000431,0.011635
17347000,0.0324,0.013523,0.002678,0.000431,0.011635
17348000,0.0324,0.013523,0.002678,0.000431,0.012458
17349000,0.0324,0.013523,0.002678,0.000431,0.013516
17350000,0.0324,0.013523,0.002678,0.000431,0.011753
17351000,0.0324,0.013523,0.002678,0.000431,0.011048
17352000,0.0324,0.013523,0.002678,0.000431,0.011283
17353000,0.0324,0.013523,0.002678,0.000431,0.011635
17354000,0.0324,0.013523,0.002678,0.000431,0.011400
17355000,0.0324,0.013523,0.002678,0.000431,0.012340
17356000,0.0324,0.013523,0.002678,0.000431,0.011400
17357000,0.0324,0.013523,0.002678,0.000431,0.011518
17358000,0.0324,0.013523,0.002678,0.000431,0.011400
17359000,0.0324,0.013523,0.002678,0.000431,0.012105
17360000,0.0324,0.013523,0.002678,0.000431,0.012928
17361000,0.0324,0.013523,0.002678,0.000431,0.011753
17362000,0.0324,0.013523,0.002678,0.000431,0.012223
17363000,0.0324,0.013523,0.002678,0.000431,0.010930
17364000,0.0324,0.013523,0.002678,0.000431,0.011400
17365000,0.0324,0.013523,0.002678,0.000431,0.012928
17366000,0.0324,0.013523,0.002678,0.000431,0.011870
17367000,0.0324,0.013523,0.002678,0.000431,0.012223
17368000,0.0324,0.013523,0.002678,0.000431,0.012928
17369000,0.0324,0.013523,0.002678,0.000431,0.011870
17370000,0.0324,0.013523,0.002678,0.000431,0.011988
17371000,0.0324,0.013523,0.002678,0.000431,0.011518
17372000,0.0324,0.013523,0.002678,0.000431,0.011870
17373000,0.0324,0.013523,0.002678,0.000431,0.011635
17374000,0.0324,0.013523,0.002678,0.000431,0.012105
17375000,0.0324,0.013523,0.002678,0.000431,0.011518
17376000,0.0324,0.013523,0.002678,0.000431,0.012458
17377000,0.0324,0.013523,0.002678,0.000431,0.012340
17378000,0.0324,0.013523,0.002678,0.000431,0.011518
17379000,0.0324,0.013523,0.002678,0.000431,0.011753
17380000,0.0324,0.013523,0.002678,0.000431,0.012928
17381000,0.0324,0.013523,0.002678,0.000431,0.011283
17382000,0.0324,0.013523,0.002678,0.000431,0.012340
17383000,0.0324,0.013523,0.002678,0.000431,0.012340
17384000,0.0324,0.013523,0.002678,0.000431,0.011283
17385000,0.0324,0.013523,0.002678,0.000431,0.011870
17386000,0.0324,0.013523,0.002678,0.000431,0.011988
17387000,0.0324,0.013523,0.002678,0.000431,0.010930
17388000,0.0324,0.013523,0.002678,0.000431,0.013633
17389000,0.0324,0.013523,0.002678,0.000431,0.010578
17390000,0.0324,0.013523,0.002678,0.000431,0.011753
17391000,0.0324,0.013523,0.002678,0.000431,0.012928
17392000,0.0324,0.013523,0.002678,0.000431,0.011518
17393000,0.0324,0.013523,0.002678,0.000431,0.012105
17394000,0.0324,0.013523,0.002678,0.000431,0.011635
17395000,0.0324,0.013523,0.002678,0.000431,0.011400
17396000,0.0324,0.013523,0.002678,0.000431,0.011400
17397000,0.0324,0.013523,0.002678,0.000431,0.011635
17398000,0.0324,0.013523,0.002678,0.000431,0.010578
17399000,0.0324,0.013523,0.002678,0.000431,0.011518
17400000,0.0324,0.013523,0.002678,0.000431,0.013163
17401000,0.0324,0.013523,0.002678,0.000431,0.010930
17402000,0.0324,0.013523,0.002678,0.000431,0.011635
17403000,0.0324,0.013523,0.002678,0.000431,0.012928
17404000,0.0324,0.013523,0.002678,0.000431,0.011753
17405000,0.0324,0.013523,0.002678,0.000431,0.012105
17406000,0.0324,0.013523,0.002678,0.000431,0.011283
17407000,0.0324,0.013523,0.002678,0.000431,0.011283
17408000,0.0324,0.013523,0.002678,0.000431,0.013281
17409000,0.0324,0.013523,0.002678,0.000431,0.012340
17410000,0.0324,0.013523,0.002678,0.000431,0.012223
17411000,0.0324,0.013523,0.002678,0.000431,0.013516
17412000,0.0324,0.013523,0.002678,0.000431,0.010930
17413000,0.0324,0.013523,0.002678,0.000431,0.011165
17414000,0.0324,0.013523,0.002678,0.000431,0.012811
17415000,0.0324,0.013523,0.002678,0.000431,0.011870
17416000,0.0324,0.013523,0.002678,0.000431,0.011753
17417000,0.0324,0.013523,0.002678,0.000431,0.011635
17418000,0.0324,0.013523,0.002678,0.000431,0.012458
17419000,0.0324,0.013523,0.002678,0.000431,0.011518
17420000,0.0324,0.013523,0.002678,0.000431,0.011753
17421000,0.0324,0.013523,0.002678,0.000431,0.011518
17422000,0.0324,0.013523,0.002678,0.000431,0.011635
17423000,0.0324,0.013523,0.002678,0.000431,0.011870
17424000,0.0324,0.013523,0.002678,0.000431,0.011283
17425000,0.0324,0.013523,0.002678,0.000431,0.011988
17426000,0.0324,0.013523,0.002678,0.000431,0.011988
17427000,0.0324,0.013523,0.002678,0.000431,0.012105
17428000,0.0324,0.013523,0.002678,0.000431,0.012811
17429000,0.0324,0.013523,0.002678,0.000431,0.012458
17430000,0.0324,0.013523,0.002678,0.000431,0.011283
17431000,0.0324,0.013523,0.002678,0.000431,0.012576
17432000,0.0324,0.013523,0.002678,0.000431,0.012458
17433000,0.0324,0.013523,0.002678,0.000431,0.012340
17434000,0.0324,0.013523,0.002678,0.000431,0.011635
17435000,0.0324,0.013523,0.002678,0.000431,0.010695
17436000,0.0324,0.013523,0.002678,0.000431,0.011988
17437000,0.0324,0.013523,0.002678,0.000431,0.011165
17438000,0.0324,0.013523,0.002678,0.000431,0.011635
17439000,0.0324,0.013523,0.002678,0.000431,0.012458
17440000,0.0324,0.013523,0.002678,0.000431,0.011635
17441000,0.0324,0.013523,0.002678,0.000431,0.011870
17442000,0.0324,0.013523,0.002678,0.000431,0.011518
17443000,0.0324,0.013523,0.002678,0.000431,0.010578
17444000,0.0324,0.013523,0.002678,0.000431,0.012458
17445000,0.0324,0.013523,0.002678,0.000431,0.011870
17446000,0.0324,0.013523,0.002678,0.000431,0.012105
17447000,0.0324,0.013523,0.002678,0.000431,0.011635
17448000,0.0324,0.013523,0.002678,0.000431,0.010695
17449000,0.0324,0.013523,0.002678,0.000431,0.011870
17450000,0.0324,0.013523,0.002678,0.000431,0.011400
17451000,0.0324,0.013523,0.002678,0.000431,0.011988
17452000,0.0324,0.013523,0.002678,0.000431,0.010930
17453000,0.0324,0.013523,0.002678,0.000431,0.011283
17454000,0.0324,0.013523,0.002678,0.000431,0.010342
17455000,0.0324,0.013523,0.002678,0.000431,0.012811
17456000,0.0324,0.013523,0.002678,0.000431,0.011870
17457000,0.0324,0.013523,0.002678,0.000431,0.012105
17458000,0.0324,0.013523,0.002678,0.000431,0.011635
17459000,0.0324,0.013523,0.002678,0.000431,0.012105
17460000,0.0324,0.013523,0.002678,0.000431,0.011283
17461000,0.0324,0.013523,0.002678,0.000431,0.012576
17462000,0.0324,0.013523,0.002678,0.000431,0.011635
17463000,0.0324,0.013523,0.002678,0.000431,0.012223
17464000,0.0324,0.013523,0.002678,0.000431,0.012458
17465000,0.0324,0.013523,0.002678,0.000431,0.012105
17466000,0.0324,0.013523,0.002678,0.000431,0.011870
17467000,0.0324,0.013523,0.002678,0.000431,0.011753
17468000,0.0324,0.013523,0.002678,0.000431,0.011048
17469000,0.0324,0.013523,0.002678,0.000431,0.012458
17470000,0.0324,0.013523,0.002678,0.000431,0.012340
17471000,0.0324,0.013523,0.002678,0.000431,0.011753
17472000,0.0324,0.013523,0.002678,0.000431,0.012458
17473000,0.0324,0.013523,0.002678,0.000431,0.010930
17474000,0.0324,0.013523,0.002678,0.000431,0.011988
17475000,0.0324,0.013523,0.002678,0.000431,0.013163
17476000,0.0324,0.013523,0.002678,0.000431,0.010813
17477000,0.0324,0.013523,0.002678,0.000431,0.011518
17478000,0.0324,0.013523,0.002678,0.000431,0.012458
17479000,0.0324,0.013523,0.002678,0.000431,0.012105
17480000,0.0324,0.013523,0.002678,0.000431,0.010930
17481000,0.0324,0.013523,0.002678,0.000431,0.012811
17482000,0.0324,0.013523,0.002678,0.000431,0.011635
17483000,0.0324,0.013523,0.002678,0.000431,0.011165
17484000,0.0324,0.013523,0.002678,0.000431,0.012576
17485000,0.0324,0.013523,0.002678,0.000431,0.012340
17486000,0.0324,0.013523,0.002678,0.000431,0.012223
17487000,0.0324,0.013523,0.002678,0.000431,0.013398
17488000,0.0324,0.013523,0.002678,0.000431,0.010578
17489000,0.0324,0.013523,0.002678,0.000431,0.011753
17490000,0.0324,0.013523,0.002678,0.000431,0.012105
17491000,0.0324,0.013523,0.002678,0.000431,0.010107
17492000,0.0324,0.013523,0.002678,0.000431,0.011988
17493000,0.0324,0.013523,0.002678,0.000431,0.011518
17494000,0.0324,0.013523,0.002678,0.000431,0.012340
17495000,0.0324,0.013523,0.002678,0.000431,0.011400
17496000,0.0324,0.013523,0.002678,0.000431,0.011870
17497000,0.0324,0.013523,0.002678,0.000431,0.010225
17498000,0.0324,0.013523,0.002678,0.000431,0.014338
17499000,0.0324,0.013523,0.002678,0.000431,0.010695
17500000,0.0324,0.013523,0.002678,0.000431,0.011283
17501000,0.0324,0.013523,0.002678,0.000431,0.012811
17502000,0.0324,0.013523,0.002678,0.000431,0.011518
17503000,0.0324,0.013523,0.002678,0.000431,0.011753
17504000,0.0324,0.013523,0.002678,0.000431,0.013163
17505000,0.0324,0.013523,0.002678,0.000431,0.011165
17506000,0.0324,0.013523,0.002678,0.000431,0.012340
17507000,0.0324,0.013523,0.002678,0.000431,0.013163
17508000,0.0324,0.013523,0.002678,0.000431,0.010813
17509000,0.0324,0.013523,0.002678,0.000431,0.011988
17510000,0.0324,0.013523,0.002678,0.000431,0.011753
17511000,0.0324,0.013523,0.002678,0.000431,0.011635
17512000,0.0324,0.013523,0.002678,0.000431,0.012105
17513000,0.0324,0.013523,0.002678,0.000431,0.011753
17514000,0.0324,0.013523,0.002678,0.000431,0.011635
17515000,0.0324,0.013523,0.002678,0.000431,0.011400
17516000,0.0324,0.013523,0.002678,0.000431,0.012458
17517000,0.0324,0.013523,0.002678,0.000431,0.011635
17518000,0.0324,0.013523,0.002678,0.000431,0.012458
17519000,0.0324,0.013523,0.002678,0.000431,0.010695
17520000,0.0324,0.013523,0.002678,0.000431,0.011870
17521000,0.0324,0.013523,0.002678,0.000431,0.012458
17522000,0.0324,0.013523,0.002678,0.000431,0.012693
17523000,0.0324,0.013523,0.002678,0.000431,0.011870
17524000,0.0324,0.013523,0.002678,0.000431,0.010813
17525000,0.0324,0.013523,0.002678,0.000431,0.011518
17526000,0.0324,0.013523,0.002678,0.000431,0.011988
17527000,0.0324,0.013523,0.002678,0.000431,0.010930
17528000,0.0324,0.013523,0.002678,0.000431,0.012693
17529000,0.0324,0.013523,0.002678,0.000431,0.011165
17530000,0.0324,0.013523,0.002678,0.000431,0.010578
17531000,0.0324,0.013523,0.002678,0.000431,0.012576
17532000,0.0324,0.013523,0.002678,0.000431,0.010460
17533000,0.0324,0.013523,0.002678,0.000431,0.012105
17534000,0.0324,0.013523,0.002678,0.000431,0.012105
17535000,0.0324,0.013523,0.002678,0.000431,0.011518
17536000,0.0324,0.013523,0.002678,0.000431,0.011400
17537000,0.0324,0.013523,0.002678,0.000431,0.011870
17538000,0.0324,0.013523,0.002678,0.000431,0.010813
17539000,0.0324,0.013523,0.002678,0.000431,0.012693
17540000,0.0324,0.013523,0.002678,0.000431,0.012458
17541000,0.0324,0.013523,0.002678,0.000431,0.012223
17542000,0.0324,0.013523,0.002678,0.000431,0.011988
17543000,0.0324,0.013523,0.002678,0.000431,0.011400
17544000,0.0324,0.013523,0.002678,0.000431,0.011988
17545000,0.0324,0.013523,0.002678,0.000431,0.012811
17546000,0.0324,0.013523,0.002678,0.000431,0.012458
17547000,0.0324,0.013523,0.002678,0.000431,0.012458
17548000,0.0324,0.013523,0.002678,0.000431,0.011870
17549000,0.0324,0.013523,0.002678,0.000431,0.011635
17550000,0.0324,0.013523,0.002678,0.000431,0.011635
17551000,0.0324,0.013523,0.002678,0.000431,0.012693
17552000,0.0324,0.013523,0.002678,0.000431,0.011283
17553000,0.0324,0.013523,0.002678,0.000431,0.012340
17554000,0.0324,0.013523,0.002678,0.000431,0.011400
17555000,0.0324,0.013523,0.002678,0.000431,0.012340
17556000,0.0324,0.013523,0.002678,0.000431,0.012223
17557000,0.0324,0.013523,0.002678,0.000431,0.011988
17558000,0.0324,0.013523,0.002678,0.000431,0.012223
17559000,0.0324,0.013523,0.002678,0.000431,0.011988
17560000,0.0324,0.013523,0.002678,0.000431,0.011635
17561000,0.0324,0.013523,0.002678,0.000431,0.010695
17562000,0.0324,0.013523,0.002678,0.000431,0.012576
17563000,0.0324,0.013523,0.002678,0.000431,0.012928
17564000,0.0324,0.013523,0.002678,0.000431,0.012576
17565000,0.0324,0.013523,0.002678,0.000431,0.011283
17566000,0.0324,0.013523,0.002678,0.000431,0.012340
17567000,0.0324,0.013523,0.002678,0.000431,0.011283
17568000,0.0324,0.013523,0.002678,0.000431,0.011283
17569000,0.0324,0.013523,0.002678,0.000431,0.011753
17570000,0.0324,0.013523,0.002678,0.000431,0.011635
17571000,0.0324,0.013523,0.002678,0.000431,0.012340
17572000,0.0324,0.013523,0.002678,0.000431,0.011165
17573000,0.0324,0.013523,0.002678,0.000431,0.011518
17574000,0.0324,0.013523,0.002678,0.000431,0.012693
17575000,0.0324,0.013523,0.002678,0.000431,0.011283
17576000,0.0324,0.013523,0.002678,0.000431,0.011988
17577000,0.0324,0.013523,0.002678,0.000431,0.011048
17578000,0.0324,0.013523,0.002678,0.000431,0.011635
17579000,0.0324,0.013523,0.002678,0.000431,0.012576
17580000,0.0324,0.013523,0.002678,0.000431,0.012223
17581000,0.0324,0.013523,0.002678,0.000431,0.011400
17582000,0.0324,0.013523,0.002678,0.000431,0.012811
17583000,0.0324,0.013523,0.002678,0.000431,0.011400
17584000,0.0324,0.013523,0.002678,0.000431,0.011518
17585000,0.0324,0.013523,0.002678,0.000431,0.012458
17586000,0.0324,0.013523,0.002678,0.000431,0.011400
17587000,0.0324,0.013523,0.002678,0.000431,0.011988
17588000,0.0324,0.013523,0.002678,0.000431,0.012693
17589000,0.0324,0.013523,0.002678,0.000431,0.010695
17590000,0.0324,0.013523,0.002678,0.000431,0.013281
17591000,0.0324,0.013523,0.002678,0.000431,0.011635
17592000,0.0324,0.013523,0.002678,0.000431,0.011165
17593000,0.0324,0.013523,0.002678,0.000431,0.012340
17594000,0.0324,0.013523,0.002678,0.000431,0.011635
17595000,0.0324,0.013523,0.002678,0.000431,0.011048
17596000,0.0324,0.013523,0.002678,0.000431,0.012105
17597000,0.0324,0.013523,0.002678,0.000431,0.012576
17598000,0.0324,0.013523,0.002678,0.000431,0.010813
17599000,0.0324,0.013523,0.002678,0.000431,0.012693
17600000,0.0324,0.013523,0.002678,0.000431,0.011753
17601000,0.0324,0.013523,0.002678,0.000431,0.011165
17602000,0.0324,0.013523,0.002678,0.000431,0.012693
17603000,0.0324,0.013523,0.002678,0.000431,0.012105
17604000,0.0324,0.013523,0.002678,0.000431,0.011635
17605000,0.0324,0.013523,0.002678,0.000431,0.012811
17606000,0.0324,0.013523,0.002678,0.000431,0.011870
17607000,0.0324,0.013523,0.002678,0.000431,0.011635
17608000,0.0324,0.013523,0.002678,0.000431,0.012458
17609000,0.0324,0.013523,0.002678,0.000431,0.011753
17610000,0.0324,0.013523,0.002678,0.000431,0.011988
17611000,0.0324,0.013523,0.002678,0.000431,0.011518
17612000,0.0324,0.013523,0.002678,0.000431,0.011635
17613000,0.0324,0.013523,0.002678,0.000431,0.011400
17614000,0.0324,0.013523,0.002678,0.000431,0.012105
17615000,0.0324,0.013523,0.002678,0.000431,0.010813
17616000,0.0324,0.013523,0.002678,0.000431,0.013046
17617000,0.0324,0.013523,0.002678,0.000431,0.011753
17618000,0.0324,0.013523,0.002678,0.000431,0.011635
17619000,0.0324,0.013523,0.002678,0.000431,0.012223
17620000,0.0324,0.013523,0.002678,0.000431,0.011870
17621000,0.0324,0.013523,0.002678,0.000431,0.011283
17622000,0.0324,0.013523,0.002678,0.000431,0.011518
17623000,0.0324,0.013523,0.002678,0.000431,0.011518
17624000,0.0324,0.013523,0.002678,0.000431,0.011635
17625000,0.0324,0.013523,0.002678,0.000431,0.010578
17626000,0.0324,0.013523,0.002678,0.000431,0.013281
17627000,0.0324,0.013523,0.002678,0.000431,0.011400
17628000,0.0324,0.013523,0.002678,0.000431,0.011518
17629000,0.0324,0.013523,0.002678,0.000431,0.012340
17630000,0.0324,0.013523,0.002678,0.000431,0.011400
17631000,0.0324,0.013523,0.002678,0.000431,0.010930
17632000,0.0324,0.013523,0.002678,0.000431,0.011635
17633000,0.0324,0.013523,0.002678,0.000431,0.011048
17634000,0.0324,0.013523,0.002678,0.000431,0.012340
17635000,0.0324,0.013523,0.002678,0.000431,0.012458
17636000,0.0324,0.013523,0.002678,0.000431,0.010225
17637000,0.0324,0.013523,0.002678,0.000431,0.012105
17638000,0.0324,0.013523,0.002678,0.000431,0.011048
17639000,0.0324,0.013523,0.002678,0.000431,0.011518
17640000,0.0324,0.013523,0.002678,0.000431,0.013046
17641000,0.0324,0.013523,0.002678,0.000431,0.012811
17642000,0.0324,0.013523,0.002678,0.000431,0.011753
17643000,0.0324,0.013523,0.002678,0.000431,0.011518
17644000,0.0324,0.013523,0.002678,0.000431,0.011283
17645000,0.0324,0.013523,0.002678,0.000431,0.011870
17646000,0.0324,0.013523,0.002678,0.000431,0.011400
17647000,0.0324,0.013523,0.002678,0.000431,0.011988
17648000,0.0324,0.013523,0.002678,0.000431,0.010930
17649000,0.0324,0.013523,0.002678,0.000431,0.011283
17650000,0.0324,0.013523,0.002678,0.000431,0.011988
17651000,0.0324,0.013523,0.002678,0.000431,0.011635
17652000,0.0324,0.013523,0.002678,0.000431,0.011048
17653000,0.0324,0.013523,0.002678,0.000431,0.011753
17654000,0.0324,0.013523,0.002678,0.000431,0.011165
17655000,0.0324,0.013523,0.002678,0.000431,0.011400
17656000,0.0324,0.013523,0.002678,0.000431,0.011635
17657000,0.0324,0.013523,0.002678,0.000431,0.011165
17658000,0.0324,0.013523,0.002678,0.000431,0.010695
17659000,0.0324,0.013523,0.002678,0.000431,0.011870
17660000,0.0324,0.013523,0.002678,0.000431,0.011048
17661000,0.0324,0.013523,0.002678,0.000431,0.011400
17662000,0.0324,0.013523,0.002678,0.000431,0.011988
17663000,0.0324,0.013523,0.002678,0.000431,0.010460
17664000,0.0324,0.013523,0.002678,0.000431,0.011635
17665000,0.0324,0.013523,0.002678,0.000431,0.011283
17666000,0.0324,0.013523,0.002678,0.000431,0.011283
17667000,0.0324,0.013523,0.002678,0.000431,0.012576
17668000,0.0324,0.013523,0.002678,0.000431,0.010930
17669000,0.0324,0.013523,0.002678,0.000431,0.011048
17670000,0.0324,0.013523,0.002678,0.000431,0.010930
17671000,0.0324,0.013523,0.002678,0.000431,0.011165
17672000,0.0324,0.013523,0.002678,0.000431,0.011048
17673000,0.0324,0.013523,0.002678,0.000431,0.011753
17674000,0.0324,0.013523,0.002678,0.000431,0.011988
17675000,0.0324,0.013523,0.002678,0.000431,0.012223
17676000,0.0324,0.013523,0.002678,0.000431,0.012105
17677000,0.0324,0.013523,0.002678,0.000431,0.011753
17678000,0.0324,0.013523,0.002678,0.000431,0.011400
17679000,0.0324,0.013523,0.002678,0.000431,0.011518
17680000,0.0324,0.013523,0.002678,0.000431,0.011400
17681000,0.0324,0.013523,0.002678,0.000431,0.011400
17682000,0.0324,0.013523,0.002678,0.000431,0.012223
17683000,0.0324,0.013523,0.002678,0.000431,0.011165
17684000,0.0324,0.013523,0.002678,0.000431,0.009755
17685000,0.0324,0.013523,0.002678,0.000431,0.012105
17686000,0.0324,0.013523,0.002678,0.000431,0.012340
17687000,0.0324,0.013523,0.002678,0.000431,0.013163
17688000,0.0324,0.013523,0.002678,0.000431,0.010930
17689000,0.0324,0.013523,0.002678,0.000431,0.010813
17690000,0.0324,0.013523,0.002678,0.000431,0.011753
17691000,0.0324,0.013523,0.002678,0.000431,0.010813
17692000,0.0324,0.013523,0.002678,0.000431,0.012105
17693000,0.0324,0.013523,0.002678,0.000431,0.011635
17694000,0.0324,0.013523,0.002678,0.000431,0.011635
17695000,0.0324,0.013523,0.002678,0.000431,0.011870
17696000,0.0324,0.013523,0.002678,0.000431,0.011635
17697000,0.0324,0.013523,0.002678,0.000431,0.010813
17698000,0.0324,0.013523,0.002678,0.000431,0.012458
17699000,0.0324,0.013523,0.002678,0.000431,0.010460
17700000,0.0324,0.013523,0.002678,0.000431,0.010813
17701000,0.0324,0.013523,0.002678,0.000431,0.012693
17702000,0.0324,0.013523,0.002678,0.000431,0.011518
17703000,0.0324,0.013523,0.002678,0.000431,0.011518
17704000,0.0324,0.013523,0.002678,0.000431,0.012928
17705000,0.0324,0.013523,0.002678,0.000431,0.011635
17706000,0.0324,0.013523,0.002678,0.000431,0.011988
17707000,0.0324,0.013523,0.002678,0.000431,0.012340
17708000,0.0324,0.013523,0.002678,0.000431,0.010695
17709000,0.0324,0.013523,0.002678,0.000431,0.010930
17710000,0.0324,0.013523,0.002678,0.000431,0.012811
17711000,0.0324,0.013523,0.002678,0.000431,0.011048
17712000,0.0324,0.013523,0.002678,0.000431,0.011518
17713000,0.0324,0.013523,0.002678,0.000431,0.011870
17714000,0.0324,0.013523,0.002678,0.000431,0.010460
17715000,0.0324,0.013523,0.002678,0.000431,0.012576
17716000,0.0324,0.013523,0.002678,0.000431,0.011518
17717000,0.0324,0.013523,0.002678,0.000431,0.011048
17718000,0.0324,0.013523,0.002678,0.000431,0.012576
17719000,0.0324,0.013523,0.002678,0.000431,0.010813
17720000,0.0324,0.013523,0.002678,0.000431,0.011988
17721000,0.0324,0.013523,0.002678,0.000431,0.011400
17722000,0.0324,0.013523,0.002678,0.000431,0.012223
17723000,0.0324,0.013523,0.002678,0.000431,0.010813
17724000,0.0324,0.013523,0.002678,0.000431,0.012693
17725000,0.0324,0.013523,0.002678,0.000431,0.010813
17726000,0.0324,0.013523,0.002678,0.000431,0.011400
17727000,0.0324,0.013523,0.002678,0.000431,0.012340
17728000,0.0324,0.013523,0.002678,0.000431,0.011165
17729000,0.0324,0.013523,0.002678,0.000431,0.010695
17730000,0.0324,0.013523,0.002678,0.000431,0.012105
17731000,0.0324,0.013523,0.002678,0.000431,0.011400
17732000,0.0324,0.013523,0.002678,0.000431,0.011283
17733000,0.0324,0.013523,0.002678,0.000431,0.011283
17734000,0.0324,0.013523,0.002678,0.000431,0.010695
17735000,0.0324,0.013523,0.002678,0.000431,0.011048
17736000,0.0324,0.013523,0.002678,0.000431,0.013046
17737000,0.0324,0.013523,0.002678,0.000431,0.012811
17738000,0.0324,0.013523,0.002678,0.000431,0.011870
17739000,0.0324,0.013523,0.002678,0.000431,0.011635
17740000,0.0324,0.013523,0.002678,0.000431,0.011400
17741000,0.0324,0.013523,0.002678,0.000431,0.011753
17742000,0.0324,0.013523,0.002678,0.000431,0.012223
17743000,0.0324,0.013523,0.002678,0.000431,0.011635
17744000,0.0324,0.013523,0.002678,0.000431,0.011165
17745000,0.0324,0.013523,0.002678,0.000431,0.011400
17746000,0.0324,0.013523,0.002678,0.000431,0.011870
17747000,0.0324,0.013523,0.002678,0.000431,0.012105
17748000,0.0324,0.013523,0.002678,0.000431,0.011988
17749000,0.0324,0.013523,0.002678,0.000431,0.011400
17750000,0.0324,0.013523,0.002678,0.000431,0.011048
17751000,0.0324,0.013523,0.002678,0.000431,0.010695
17752000,0.0324,0.013523,0.002678,0.000431,0.010930
17753000,0.0324,0.013523,0.002678,0.000431,0.011635
17754000,0.0324,0.013523,0.002678,0.000431,0.011870
17755000,0.0324,0.013523,0.002678,0.000431,0.012223
17756000,0.0324,0.013523,0.002678,0.000431,0.011283
17757000,0.0324,0.013523,0.002678,0.000431,0.011988
17758000,0.0324,0.013523,0.002678,0.000431,0.011518
17759000,0.0324,0.013523,0.002678,0.000431,0.011753
17760000,0.0324,0.013523,0.002678,0.000431,0.011753
17761000,0.0324,0.013523,0.002678,0.000431,0.011165
17762000,0.0324,0.013523,0.002678,0.000431,0.011165
17763000,0.0324,0.013523,0.002678,0.000431,0.011753
17764000,0.0324,0.013523,0.002678,0.000431,0.011400
17765000,0.0324,0.013523,0.002678,0.000431,0.013046
17766000,0.0324,0.013523,0.002678,0.000431,0.012458
17767000,0.0324,0.013523,0.002678,0.000431,0.010225
17768000,0.0324,0.013523,0.002678,0.000431,0.012105
17769000,0.0324,0.013523,0.002678,0.000431,0.011988
17770000,0.0324,0.013523,0.002678,0.000431,0.011165
17771000,0.0324,0.013523,0.002678,0.000431,0.012458
17772000,0.0324,0.013523,0.002678,0.000431,0.012693
17773000,0.0324,0.013523,0.002678,0.000431,0.010578
17774000,0.0324,0.013523,0.002678,0.000431,0.011870
17775000,0.0324,0.013523,0.002678,0.000431,0.010578
17776000,0.0324,0.013523,0.002678,0.000431,0.011283
17777000,0.0324,0.013523,0.002678,0.000431,0.009872
17778000,0.0324,0.013523,0.002678,0.000431,0.011870
17779000,0.0324,0.013523,0.002678,0.000431,0.010695
17780000,0.0324,0.013523,0.002678,0.000431,0.012576
17781000,0.0324,0.013523,0.002678,0.000431,0.011400
17782000,0.0324,0.013523,0.002678,0.000431,0.011283
17783000,0.0324,0.013523,0.002678,0.000431,0.012693
17784000,0.0324,0.013523,0.002678,0.000431,0.011635
17785000,0.0324,0.013523,0.002678,0.000431,0.010813
17786000,0.0324,0.013523,0.002678,0.000431,0.010695
17787000,0.0324,0.013523,0.002678,0.000431,0.010930
17788000,0.0324,0.013523,0.002678,0.000431,0.011283
17789000,0.0324,0.013523,0.002678,0.000431,0.011400
17790000,0.0324,0.013523,0.002678,0.000431,0.011400
17791000,0.0324,0.013523,0.002678,0.000431,0.009990
17792000,0.0324,0.013523,0.002678,0.000431,0.011518
17793000,0.0324,0.013523,0.002678,0.000431,0.011048
17794000,0.0324,0.013523,0.002678,0.000431,0.011518
17795000,0.0324,0.013523,0.002678,0.000431,0.012105
17796000,0.0324,0.013523,0.002678,0.000431,0.011400
17797000,0.0324,0.013523,0.002678,0.000431,0.011165
17798000,0.0324,0.013523,0.002678,0.000431,0.011518
17799000,0.0324,0.013523,0.002678,0.000431,0.011518
17800000,0.0324,0.013523,0.002678,0.000431,0.011048
17801000,0.0324,0.013523,0.002678,0.000431,0.011283
17802000,0.0324,0.013523,0.002678,0.000431,0.012105
17803000,0.0324,0.013523,0.002678,0.000431,0.011988
17804000,0.0324,0.013523,0.002678,0.000431,0.011753
17805000,0.0324,0.013523,0.002678,0.000431,0.010460
17806000,0.0324,0.013523,0.002678,0.000431,0.011518
17807000,0.0324,0.013523,0.002678,0.000431,0.012811
17808000,0.0324,0.013523,0.002678,0.000431,0.011283
17809000,0.0324,0.013523,0.002678,0.000431,0.011870
17810000,0.0324,0.013523,0.002678,0.000431,0.011753
17811000,0.0324,0.013523,0.002678,0.000431,0.011753
17812000,0.0324,0.013523,0.002678,0.000431,0.012105
17813000,0.0324,0.013523,0.002678,0.000431,0.011988
17814000,0.0324,0.013523,0.002678,0.000431,0.012340
17815000,0.0324,0.013523,0.002678,0.000431,0.011400
17816000,0.0324,0.013523,0.002678,0.000431,0.011870
17817000,0.0324,0.013523,0.002678,0.000431,0.011635
17818000,0.0324,0.013523,0.002678,0.000431,0.011870
17819000,0.0324,0.013523,0.002678,0.000431,0.011870
17820000,0.0324,0.013523,0.002678,0.000431,0.011400
17821000,0.0324,0.013523,0.002678,0.000431,0.011165
17822000,0.0324,0.013523,0.002678,0.000431,0.011753
17823000,0.0324,0.013523,0.002678,0.000431,0.012223
17824000,0.0324,0.013523,0.002678,0.000431,0.010578
17825000,0.0324,0.013523,0.002678,0.000431,0.010578
17826000,0.0324,0.013523,0.002678,0.000431,0.011400
17827000,0.0324,0.013523,0.002678,0.000431,0.011988
17828000,0.0324,0.013523,0.002678,0.000431,0.013281
17829000,0.0324,0.013523,0.002678,0.000431,0.011165
17830000,0.0324,0.013523,0.002678,0.000431,0.011283
17831000,0.0324,0.013523,0.002678,0.000431,0.013163
17832000,0.0324,0.013523,0.002678,0.000431,0.011048
17833000,0.0324,0.013523,0.002678,0.000431,0.011518
17834000,0.0324,0.013523,0.002678,0.000431,0.011283
17835000,0.0324,0.013523,0.002678,0.000431,0.009990
17836000,0.0324,0.013523,0.002678,0.000431,0.010578
17837000,0.0324,0.013523,0.002678,0.000431,0.011753
17838000,0.0324,0.013523,0.002678,0.000431,0.010695
17839000,0.0324,0.013523,0.002678,0.000431,0.011165
17840000,0.0324,0.013523,0.002678,0.000431,0.010342
17841000,0.0324,0.013523,0.002678,0.000431,0.010342
17842000,0.0324,0.013523,0.002678,0.000431,0.010578
17843000,0.0324,0.013523,0.002678,0.000431,0.011635
17844000,0.0324,0.013523,0.002678,0.000431,0.011988
17845000,0.0324,0.013523,0.002678,0.000431,0.010578
17846000,0.0324,0.013523,0.002678,0.000431,0.011048
17847000,0.0324,0.013523,0.002678,0.000431,0.011518
17848000,0.0324,0.013523,0.002678,0.000431,0.011400
17849000,0.0324,0.013523,0.002678,0.000431,0.011518
17850000,0.0324,0.013523,0.002678,0.000431,0.010578
17851000,0.0324,0.013523,0.002678,0.000431,0.010695
17852000,0.0324,0.013523,0.002678,0.000431,0.011635
17853000,0.0324,0.013523,0.002678,0.000431,0.009050
17854000,0.0324,0.013523,0.002678,0.000431,0.010695
17855000,0.0324,0.013523,0.002678,0.000431,0.010695
17856000,0.0324,0.013523,0.002678,0.000431,0.011635
17857000,0.0324,0.013523,0.002678,0.000431,0.011283
17858000,0.0324,0.013523,0.002678,0.000431,0.011048
17859000,0.0324,0.013523,0.002678,0.000431,0.011400
17860000,0.0324,0.013523,0.002678,0.000431,0.011518
17861000,0.0324,0.013523,0.002678,0.000431,0.011518
17862000,0.0324,0.013523,0.002678,0.000431,0.011518
17863000,0.0324,0.013523,0.002678,0.000431,0.011165
17864000,0.0324,0.013523,0.002678,0.000431,0.009637
17865000,0.0324,0.013523,0.002678,0.000431,0.010930
17866000,0.0324,0.013523,0.002678,0.000431,0.011283
17867000,0.0324,0.013523,0.002678,0.000431,0.010813
17868000,0.0324,0.013523,0.002678,0.000431,0.011518
17869000,0.0324,0.013523,0.002678,0.000431,0.011283
17870000,0.0324,0.013523,0.002678,0.000431,0.012458
17871000,0.0324,0.013523,0.002678,0.000431,0.010578
17872000,0.0324,0.013523,0.002678,0.000431,0.010460
17873000,0.0324,0.013523,0.002678,0.000431,0.012340
17874000,0.0324,0.013523,0.002678,0.000431,0.011048
17875000,0.0324,0.013523,0.002678,0.000431,0.010225
17876000,0.0324,0.013523,0.002678,0.000431,0.011400
17877000,0.0324,0.013523,0.002678,0.000431,0.010225
17878000,0.0324,0.013523,0.002678,0.000431,0.011635
17879000,0.0324,0.013523,0.002678,0.000431,0.011518
17880000,0.0324,0.013523,0.002678,0.000431,0.011753
17881000,0.0324,0.013523,0.002678,0.000431,0.011400
17882000,0.0324,0.013523,0.002678,0.000431,0.010813
17883000,0.0324,0.013523,0.002678,0.000431,0.010578
17884000,0.0324,0.013523,0.002678,0.000431,0.011635
17885000,0.0324,0.013523,0.002678,0.000431,0.011165
17886000,0.0324,0.013523,0.002678,0.000431,0.011870
17887000,0.0324,0.013523,0.002678,0.000431,0.010225
17888000,0.0324,0.013523,0.002678,0.000431,0.010695
17889000,0.0324,0.013523,0.002678,0.000431,0.011988
17890000,0.0324,0.013523,0.002678,0.000431,0.011283
17891000,0.0324,0.013523,0.002678,0.000431,0.011165
17892000,0.0324,0.013523,0.002678,0.000431,0.010695
17893000,0.0324,0.013523,0.002678,0.000431,0.010107
17894000,0.0324,0.013523,0.002678,0.000431,0.012693
17895000,0.0324,0.013523,0.002678,0.000431,0.011753
17896000,0.0324,0.013523,0.002678,0.000431,0.011165
17897000,0.0324,0.013523,0.002678,0.000431,0.011753
17898000,0.0324,0.013523,0.002678,0.000431,0.011870
17899000,0.0324,0.013523,0.002678,0.000431,0.009872
17900000,0.0324,0.013523,0.002678,0.000431,0.012693
17901000,0.0324,0.013523,0.002678,0.000431,0.011283
17902000,0.0324,0.013523,0.002678,0.000431,0.011283
17903000,0.0324,0.013523,0.002678,0.000431,0.011283
17904000,0.0324,0.013523,0.002678,0.000431,0.010225
17905000,0.0324,0.013523,0.002678,0.000431,0.010695
17906000,0.0324,0.013523,0.002678,0.000431,0.010695
17907000,0.0324,0.013523,0.002678,0.000431,0.010813
17908000,0.0324,0.013523,0.002678,0.000431,0.011753
17909000,0.0324,0.013523,0.002678,0.000431,0.013163
17910000,0.0324,0.013523,0.002678,0.000431,0.009167
17911000,0.0324,0.013523,0.002678,0.000431,0.011165
17912000,0.0324,0.013523,0.002678,0.000431,0.011165
17913000,0.0324,0.013523,0.002678,0.000431,0.010695
17914000,0.0324,0.013523,0.002678,0.000431,0.011870
17915000,0.0324,0.013523,0.002678,0.000431,0.011635
17916000,0.0324,0.013523,0.002678,0.000431,0.011400
17917000,0.0324,0.013523,0.002678,0.000431,0.011165
17918000,0.0324,0.013523,0.002678,0.000431,0.011283
17919000,0.0324,0.013523,0.002678,0.000431,0.011165
17920000,0.0324,0.013523,0.002678,0.000431,0.011048
17921000,0.0324,0.013523,0.002678,0.000431,0.013046
17922000,0.0324,0.013523,0.002678,0.000431,0.010460
17923000,0.0324,0.013523,0.002678,0.000431,0.011518
17924000,0.0324,0.013523,0.002678,0.000431,0.010930
17925000,0.0324,0.013523,0.002678,0.000431,0.010695
17926000,0.0324,0.013523,0.002678,0.000431,0.012576
17927000,0.0324,0.013523,0.002678,0.000431,0.011283
17928000,0.0324,0.013523,0.002678,0.000431,0.011400
17929000,0.0324,0.013523,0.002678,0.000431,0.010813
17930000,0.0324,0.013523,0.002678,0.000431,0.010930
17931000,0.0324,0.013523,0.002678,0.000431,0.009990
17932000,0.0324,0.013523,0.002678,0.000431,0.011048
17933000,0.0324,0.013523,0.002678,0.000431,0.011635
17934000,0.0324,0.013523,0.002678,0.000431,0.010930
17935000,0.0324,0.013523,0.002678,0.000431,0.012693
17936000,0.0324,0.013523,0.002678,0.000431,0.010460
17937000,0.0324,0.013523,0.002678,0.000431,0.010695
17938000,0.0324,0.013523,0.002678,0.000431,0.011988
17939000,0.0324,0.013523,0.002678,0.000431,0.011048
17940000,0.0324,0.013523,0.002678,0.000431,0.011283
17941000,0.0324,0.013523,0.002678,0.000431,0.011165
17942000,0.0324,0.013523,0.002678,0.000431,0.010342
17943000,0.0324,0.013523,0.002678,0.000431,0.011753
17944000,0.0324,0.013523,0.002678,0.000431,0.011165
17945000,0.0324,0.013523,0.002678,0.000431,0.012223
17946000,0.0324,0.013523,0.002678,0.000431,0.012105
17947000,0.0324,0.013523,0.002678,0.000431,0.010342
17948000,0.0324,0.013523,0.002678,0.000431,0.010813
17949000,0.0324,0.013523,0.002678,0.000431,0.011988
17950000,0.0324,0.013523,0.002678,0.000431,0.010695
17951000,0.0324,0.013523,0.002678,0.000431,0.012576
17952000,0.0324,0.013523,0.002678,0.000431,0.011165
17953000,0.0324,0.013523,0.002678,0.000431,0.010342
17954000,0.0324,0.013523,0.002678,0.000431,0.011635
17955000,0.0324,0.013523,0.002678,0.000431,0.011165
17956000,0.0324,0.013523,0.002678,0.000431,0.010813
17957000,0.0324,0.013523,0.002678,0.000431,0.011518
17958000,0.0324,0.013523,0.002678,0.000431,0.009990
17959000,0.0324,0.013523,0.002678,0.000431,0.010813
17960000,0.0324,0.013523,0.002678,0.000431,0.011518
17961000,0.0324,0.013523,0.002678,0.000431,0.010930
17962000,0.0324,0.013523,0.002678,0.000431,0.010578
17963000,0.0324,0.013523,0.002678,0.000431,0.011988
17964000,0.0324,0.013523,0.002678,0.000431,0.010695
17965000,0.0324,0.013523,0.002678,0.000431,0.011283
17966000,0.0324,0.013523,0.002678,0.000431,0.011048
17967000,0.0324,0.013523,0.002678,0.000431,0.010813
17968000,0.0324,0.013523,0.002678,0.000431,0.011048
17969000,0.0324,0.013523,0.002678,0.000431,0.011518
17970000,0.0324,0.013523,0.002678,0.000431,0.010107
17971000,0.0324,0.013523,0.002678,0.000431,0.011518
17972000,0.0324,0.013523,0.002678,0.000431,0.010695
17973000,0.0324,0.013523,0.002678,0.000431,0.010578
17974000,0.0324,0.013523,0.002678,0.000431,0.012340
17975000,0.0324,0.013523,0.002678,0.000431,0.010578
17976000,0.0324,0.013523,0.002678,0.000431,0.010930
17977000,0.0324,0.013523,0.002678,0.000431,0.010460
17978000,0.0324,0.013523,0.002678,0.000431,0.010107
17979000,0.0324,0.013523,0.002678,0.000431,0.011635
17980000,0.0324,0.013523,0.002678,0.000431,0.012105
17981000,0.0324,0.013523,0.002678,0.000431,0.011283
17982000,0.0324,0.013523,0.002678,0.000431,0.010813
17983000,0.0324,0.013523,0.002678,0.000431,0.011988
17984000,0.0324,0.013523,0.002678,0.000431,0.010930
17985000,0.0324,0.013523,0.002678,0.000431,0.010813
17986000,0.0324,0.013523,0.002678,0.000431,0.012340
17987000,0.0324,0.013523,0.002678,0.000431,0.010578
17988000,0.0324,0.013523,0.002678,0.000431,0.011165
17989000,0.0324,0.013523,0.002678,0.000431,0.011165
17990000,0.0324,0.013523,0.002678,0.000431,0.010813
17991000,0.0324,0.013523,0.002678,0.000431,0.011165
17992000,0.0324,0.013523,0.002678,0.000431,0.011518
17993000,0.0324,0.013523,0.002678,0.000431,0.012340
17994000,0.0324,0.013523,0.002678,0.000431,0.009872
17995000,0.0324,0.013523,0.002678,0.000431,0.011870
17996000,0.0324,0.013523,0.002678,0.000431,0.011283
17997000,0.0324,0.013523,0.002678,0.000431,0.011635
17998000,0.0324,0.013523,0.002678,0.000431,0.010342
17999000,0.0324,0.013523,0.002678,0.000431,0.011870
