Cycle,Area(mm^2),PeakDynamic(W),SubthresholdLeakage(W),GateLeakage(W),RunTimeDynamic(W)
18000000,0.0324,0.013523,0.002678,0.000431,0.011048
18001000,0.0324,0.013523,0.002678,0.000431,0.012458
18002000,0.0324,0.013523,0.002678,0.000431,0.011165
18003000,0.0324,0.013523,0.002678,0.000431,0.010225
18004000,0.0324,0.013523,0.002678,0.000431,0.011400
18005000,0.0324,0.013523,0.002678,0.000431,0.011988
18006000,0.0324,0.013523,0.002678,0.000431,0.010342
18007000,0.0324,0.013523,0.002678,0.000431,0.011400
18008000,0.0324,0.013523,0.002678,0.000431,0.011165
18009000,0.0324,0.013523,0.002678,0.000431,0.011048
18010000,0.0324,0.013523,0.002678,0.000431,0.011518
18011000,0.0324,0.013523,0.002678,0.000431,0.011400
18012000,0.0324,0.013523,0.002678,0.000431,0.011518
18013000,0.0324,0.013523,0.002678,0.000431,0.011988
18014000,0.0324,0.013523,0.002678,0.000431,0.011870
18015000,0.0324,0.013523,0.002678,0.000431,0.011400
18016000,0.0324,0.013523,0.002678,0.000431,0.011870
18017000,0.0324,0.013523,0.002678,0.000431,0.010107
18018000,0.0324,0.013523,0.002678,0.000431,0.011165
18019000,0.0324,0.013523,0.002678,0.000431,0.011283
18020000,0.0324,0.013523,0.002678,0.000431,0.011400
18021000,0.0324,0.013523,0.002678,0.000431,0.011165
18022000,0.0324,0.013523,0.002678,0.000431,0.012105
18023000,0.0324,0.013523,0.002678,0.000431,0.011165
18024000,0.0324,0.013523,0.002678,0.000431,0.011635
18025000,0.0324,0.013523,0.002678,0.000431,0.011988
18026000,0.0324,0.013523,0.002678,0.000431,0.011165
18027000,0.0324,0.013523,0.002678,0.000431,0.011048
18028000,0.0324,0.013523,0.002678,0.000431,0.011870
18029000,0.0324,0.013523,0.002678,0.000431,0.010813
18030000,0.0324,0.013523,0.002678,0.000431,0.011048
18031000,0.0324,0.013523,0.002678,0.000431,0.011518
18032000,0.0324,0.013523,0.002678,0.000431,0.009755
18033000,0.0324,0.013523,0.002678,0.000431,0.010342
18034000,0.0324,0.013523,0.002678,0.000431,0.011048
18035000,0.0324,0.013523,0.002678,0.000431,0.011635
18036000,0.0324,0.013523,0.002678,0.000431,0.011635
18037000,0.0324,0.013523,0.002678,0.000431,0.010342
18038000,0.0324,0.013523,0.002678,0.000431,0.009637
18039000,0.0324,0.013523,0.002678,0.000431,0.010225
18040000,0.0324,0.013523,0.002678,0.000431,0.011753
18041000,0.0324,0.013523,0.002678,0.000431,0.011635
18042000,0.0324,0.013523,0.002678,0.000431,0.010225
18043000,0.0324,0.013523,0.002678,0.000431,0.010460
18044000,0.0324,0.013523,0.002678,0.000431,0.011635
18045000,0.0324,0.013523,0.002678,0.000431,0.012340
18046000,0.0324,0.013523,0.002678,0.000431,0.011165
18047000,0.0324,0.013523,0.002678,0.000431,0.012105
18048000,0.0324,0.013523,0.002678,0.000431,0.010342
18049000,0.0324,0.013523,0.002678,0.000431,0.010460
18050000,0.0324,0.013523,0.002678,0.000431,0.011048
18051000,0.0324,0.013523,0.002678,0.000431,0.010813
18052000,0.0324,0.013523,0.002678,0.000431,0.011753
18053000,0.0324,0.013523,0.002678,0.000431,0.011753
18054000,0.0324,0.013523,0.002678,0.000431,0.010107
18055000,0.0324,0.013523,0.002678,0.000431,0.010695
18056000,0.0324,0.013523,0.002678,0.000431,0.012458
18057000,0.0324,0.013523,0.002678,0.000431,0.010342
18058000,0.0324,0.013523,0.002678,0.000431,0.011518
18059000,0.0324,0.013523,0.002678,0.000431,0.011400
18060000,0.0324,0.013523,0.002678,0.000431,0.010225
18061000,0.0324,0.013523,0.002678,0.000431,0.011165
18062000,0.0324,0.013523,0.002678,0.000431,0.010107
18063000,0.0324,0.013523,0.002678,0.000431,0.009990
18064000,0.0324,0.013523,0.002678,0.000431,0.012223
18065000,0.0324,0.013523,0.002678,0.000431,0.010813
18066000,0.0324,0.013523,0.002678,0.000431,0.010930
18067000,0.0324,0.013523,0.002678,0.000431,0.012105
18068000,0.0324,0.013523,0.002678,0.000431,0.011753
18069000,0.0324,0.013523,0.002678,0.000431,0.011870
18070000,0.0324,0.013523,0.002678,0.000431,0.011753
18071000,0.0324,0.013523,0.002678,0.000431,0.010107
18072000,0.0324,0.013523,0.002678,0.000431,0.009990
18073000,0.0324,0.013523,0.002678,0.000431,0.010460
18074000,0.0324,0.013523,0.002678,0.000431,0.009755
18075000,0.0324,0.013523,0.002678,0.000431,0.012811
18076000,0.0324,0.013523,0.002678,0.000431,0.011870
18077000,0.0324,0.013523,0.002678,0.000431,0.010460
18078000,0.0324,0.013523,0.002678,0.000431,0.011283
18079000,0.0324,0.013523,0.002678,0.000431,0.011988
18080000,0.0324,0.013523,0.002678,0.000431,0.010930
18081000,0.0324,0.013523,0.002678,0.000431,0.012811
18082000,0.0324,0.013523,0.002678,0.000431,0.010813
18083000,0.0324,0.013523,0.002678,0.000431,0.011988
18084000,0.0324,0.013523,0.002678,0.000431,0.011400
18085000,0.0324,0.013523,0.002678,0.000431,0.010695
18086000,0.0324,0.013523,0.002678,0.000431,0.011400
18087000,0.0324,0.013523,0.002678,0.000431,0.010695
18088000,0.0324,0.013523,0.002678,0.000431,0.012458
18089000,0.0324,0.013523,0.002678,0.000431,0.010930
18090000,0.0324,0.013523,0.002678,0.000431,0.012458
18091000,0.0324,0.013523,0.002678,0.000431,0.010225
18092000,0.0324,0.013523,0.002678,0.000431,0.011518
18093000,0.0324,0.013523,0.002678,0.000431,0.011753
18094000,0.0324,0.013523,0.002678,0.000431,0.011048
18095000,0.0324,0.013523,0.002678,0.000431,0.011635
18096000,0.0324,0.013523,0.002678,0.000431,0.010813
18097000,0.0324,0.013523,0.002678,0.000431,0.010930
18098000,0.0324,0.013523,0.002678,0.000431,0.011048
18099000,0.0324,0.013523,0.002678,0.000431,0.011518
18100000,0.0324,0.013523,0.002678,0.000431,0.010813
18101000,0.0324,0.013523,0.002678,0.000431,0.011753
18102000,0.0324,0.013523,0.002678,0.000431,0.010578
18103000,0.0324,0.013523,0.002678,0.000431,0.011283
18104000,0.0324,0.013523,0.002678,0.000431,0.012340
18105000,0.0324,0.013523,0.002678,0.000431,0.011048
18106000,0.0324,0.013523,0.002678,0.000431,0.011635
18107000,0.0324,0.013523,0.002678,0.000431,0.009990
18108000,0.0324,0.013523,0.002678,0.000431,0.009755
18109000,0.0324,0.013523,0.002678,0.000431,0.010460
18110000,0.0324,0.013523,0.002678,0.000431,0.011165
18111000,0.0324,0.013523,0.002678,0.000431,0.010695
18112000,0.0324,0.013523,0.002678,0.000431,0.011988
18113000,0.0324,0.013523,0.002678,0.000431,0.010695
18114000,0.0324,0.013523,0.002678,0.000431,0.011988
18115000,0.0324,0.013523,0.002678,0.000431,0.010342
18116000,0.0324,0.013523,0.002678,0.000431,0.011988
18117000,0.0324,0.013523,0.002678,0.000431,0.010578
18118000,0.0324,0.013523,0.002678,0.000431,0.011283
18119000,0.0324,0.013523,0.002678,0.000431,0.011988
18120000,0.0324,0.013523,0.002678,0.000431,0.010930
18121000,0.0324,0.013523,0.002678,0.000431,0.011048
18122000,0.0324,0.013523,0.002678,0.000431,0.011283
18123000,0.0324,0.013523,0.002678,0.000431,0.011165
18124000,0.0324,0.013523,0.002678,0.000431,0.012340
18125000,0.0324,0.013523,0.002678,0.000431,0.009872
18126000,0.0324,0.013523,0.002678,0.000431,0.012458
18127000,0.0324,0.013523,0.002678,0.000431,0.010813
18128000,0.0324,0.013523,0.002678,0.000431,0.011165
18129000,0.0324,0.013523,0.002678,0.000431,0.012340
18130000,0.0324,0.013523,0.002678,0.000431,0.011988
18131000,0.0324,0.013523,0.002678,0.000431,0.010930
18132000,0.0324,0.013523,0.002678,0.000431,0.011635
18133000,0.0324,0.013523,0.002678,0.000431,0.011283
18134000,0.0324,0.013523,0.002678,0.000431,0.011283
18135000,0.0324,0.013523,0.002678,0.000431,0.011518
18136000,0.0324,0.013523,0.002678,0.000431,0.012340
18137000,0.0324,0.013523,0.002678,0.000431,0.010695
18138000,0.0324,0.013523,0.002678,0.000431,0.011283
18139000,0.0324,0.013523,0.002678,0.000431,0.010225
18140000,0.0324,0.013523,0.002678,0.000431,0.009990
18141000,0.0324,0.013523,0.002678,0.000431,0.012928
18142000,0.0324,0.013523,0.002678,0.000431,0.010813
18143000,0.0324,0.013523,0.002678,0.000431,0.010930
18144000,0.0324,0.013523,0.002678,0.000431,0.011048
18145000,0.0324,0.013523,0.002678,0.000431,0.009637
18146000,0.0324,0.013523,0.002678,0.000431,0.010930
18147000,0.0324,0.013523,0.002678,0.000431,0.011870
18148000,0.0324,0.013523,0.002678,0.000431,0.011518
18149000,0.0324,0.013523,0.002678,0.000431,0.012693
18150000,0.0324,0.013523,0.002678,0.000431,0.011048
18151000,0.0324,0.013523,0.002678,0.000431,0.010930
18152000,0.0324,0.013523,0.002678,0.000431,0.011635
18153000,0.0324,0.013523,0.002678,0.000431,0.011048
18154000,0.0324,0.013523,0.002678,0.000431,0.011048
18155000,0.0324,0.013523,0.002678,0.000431,0.009990
18156000,0.0324,0.013523,0.002678,0.000431,0.010813
18157000,0.0324,0.013523,0.002678,0.000431,0.010930
18158000,0.0324,0.013523,0.002678,0.000431,0.010930
18159000,0.0324,0.013523,0.002678,0.000431,0.011518
18160000,0.0324,0.013523,0.002678,0.000431,0.011400
18161000,0.0324,0.013523,0.002678,0.000431,0.010342
18162000,0.0324,0.013523,0.002678,0.000431,0.011753
18163000,0.0324,0.013523,0.002678,0.000431,0.011165
18164000,0.0324,0.013523,0.002678,0.000431,0.011283
18165000,0.0324,0.013523,0.002678,0.000431,0.012928
18166000,0.0324,0.013523,0.002678,0.000431,0.011753
18167000,0.0324,0.013523,0.002678,0.000431,0.011165
18168000,0.0324,0.013523,0.002678,0.000431,0.011165
18169000,0.0324,0.013523,0.002678,0.000431,0.011870
18170000,0.0324,0.013523,0.002678,0.000431,0.010813
18171000,0.0324,0.013523,0.002678,0.000431,0.011283
18172000,0.0324,0.013523,0.002678,0.000431,0.009990
18173000,0.0324,0.013523,0.002678,0.000431,0.010695
18174000,0.0324,0.013523,0.002678,0.000431,0.011753
18175000,0.0324,0.013523,0.002678,0.000431,0.010930
18176000,0.0324,0.013523,0.002678,0.000431,0.012223
18177000,0.0324,0.013523,0.002678,0.000431,0.010813
18178000,0.0324,0.013523,0.002678,0.000431,0.010813
18179000,0.0324,0.013523,0.002678,0.000431,0.011635
18180000,0.0324,0.013523,0.002678,0.000431,0.011518
18181000,0.0324,0.013523,0.002678,0.000431,0.009755
18182000,0.0324,0.013523,0.002678,0.000431,0.011518
18183000,0.0324,0.013523,0.002678,0.000431,0.012340
18184000,0.0324,0.013523,0.002678,0.000431,0.010930
18185000,0.0324,0.013523,0.002678,0.000431,0.011165
18186000,0.0324,0.013523,0.002678,0.000431,0.011635
18187000,0.0324,0.013523,0.002678,0.000431,0.010107
18188000,0.0324,0.013523,0.002678,0.000431,0.012576
18189000,0.0324,0.013523,0.002678,0.000431,0.010578
18190000,0.0324,0.013523,0.002678,0.000431,0.011165
18191000,0.0324,0.013523,0.002678,0.000431,0.011635
18192000,0.0324,0.013523,0.002678,0.000431,0.010578
18193000,0.0324,0.013523,0.002678,0.000431,0.011283
18194000,0.0324,0.013523,0.002678,0.000431,0.011165
18195000,0.0324,0.013523,0.002678,0.000431,0.010930
18196000,0.0324,0.013523,0.002678,0.000431,0.009872
18197000,0.0324,0.013523,0.002678,0.000431,0.012105
18198000,0.0324,0.013523,0.002678,0.000431,0.011400
18199000,0.0324,0.013523,0.002678,0.000431,0.010813
18200000,0.0324,0.013523,0.002678,0.000431,0.010695
18201000,0.0324,0.013523,0.002678,0.000431,0.012105
18202000,0.0324,0.013523,0.002678,0.000431,0.011988
18203000,0.0324,0.013523,0.002678,0.000431,0.009990
18204000,0.0324,0.013523,0.002678,0.000431,0.011400
18205000,0.0324,0.013523,0.002678,0.000431,0.011870
18206000,0.0324,0.013523,0.002678,0.000431,0.010930
18207000,0.0324,0.013523,0.002678,0.000431,0.012340
18208000,0.0324,0.013523,0.002678,0.000431,0.011753
18209000,0.0324,0.013523,0.002678,0.000431,0.010342
18210000,0.0324,0.013523,0.002678,0.000431,0.012340
18211000,0.0324,0.013523,0.002678,0.000431,0.011283
18212000,0.0324,0.013523,0.002678,0.000431,0.011283
18213000,0.0324,0.013523,0.002678,0.000431,0.012223
18214000,0.0324,0.013523,0.002678,0.000431,0.011870
18215000,0.0324,0.013523,0.002678,0.000431,0.010460
18216000,0.0324,0.013523,0.002678,0.000431,0.011518
18217000,0.0324,0.013523,0.002678,0.000431,0.009990
18218000,0.0324,0.013523,0.002678,0.000431,0.010813
18219000,0.0324,0.013523,0.002678,0.000431,0.011635
18220000,0.0324,0.013523,0.002678,0.000431,0.010930
18221000,0.0324,0.013523,0.002678,0.000431,0.011870
18222000,0.0324,0.013523,0.002678,0.000431,0.011635
18223000,0.0324,0.013523,0.002678,0.000431,0.009167
18224000,0.0324,0.013523,0.002678,0.000431,0.011518
18225000,0.0324,0.013523,0.002678,0.000431,0.012576
18226000,0.0324,0.013523,0.002678,0.000431,0.009520
18227000,0.0324,0.013523,0.002678,0.000431,0.011635
18228000,0.0324,0.013523,0.002678,0.000431,0.012105
18229000,0.0324,0.013523,0.002678,0.000431,0.009755
18230000,0.0324,0.013523,0.002678,0.000431,0.011870
18231000,0.0324,0.013523,0.002678,0.000431,0.010813
18232000,0.0324,0.013523,0.002678,0.000431,0.011753
18233000,0.0324,0.013523,0.002678,0.000431,0.011048
18234000,0.0324,0.013523,0.002678,0.000431,0.011283
18235000,0.0324,0.013523,0.002678,0.000431,0.010578
18236000,0.0324,0.013523,0.002678,0.000431,0.011518
18237000,0.0324,0.013523,0.002678,0.000431,0.011048
18238000,0.0324,0.013523,0.002678,0.000431,0.009755
18239000,0.0324,0.013523,0.002678,0.000431,0.011988
18240000,0.0324,0.013523,0.002678,0.000431,0.011400
18241000,0.0324,0.013523,0.002678,0.000431,0.010107
18242000,0.0324,0.013523,0.002678,0.000431,0.012340
18243000,0.0324,0.013523,0.002678,0.000431,0.012458
18244000,0.0324,0.013523,0.002678,0.000431,0.010813
18245000,0.0324,0.013523,0.002678,0.000431,0.011400
18246000,0.0324,0.013523,0.002678,0.000431,0.010930
18247000,0.0324,0.013523,0.002678,0.000431,0.011283
18248000,0.0324,0.013523,0.002678,0.000431,0.011870
18249000,0.0324,0.013523,0.002678,0.000431,0.011518
18250000,0.0324,0.013523,0.002678,0.000431,0.011518
18251000,0.0324,0.013523,0.002678,0.000431,0.010342
18252000,0.0324,0.013523,0.002678,0.000431,0.010342
18253000,0.0324,0.013523,0.002678,0.000431,0.011988
18254000,0.0324,0.013523,0.002678,0.000431,0.011635
18255000,0.0324,0.013523,0.002678,0.000431,0.011048
18256000,0.0324,0.013523,0.002678,0.000431,0.011870
18257000,0.0324,0.013523,0.002678,0.000431,0.009990
18258000,0.0324,0.013523,0.002678,0.000431,0.011635
18259000,0.0324,0.013523,0.002678,0.000431,0.010578
18260000,0.0324,0.013523,0.002678,0.000431,0.009872
18261000,0.0324,0.013523,0.002678,0.000431,0.011165
18262000,0.0324,0.013523,0.002678,0.000431,0.010930
18263000,0.0324,0.013523,0.002678,0.000431,0.010107
18264000,0.0324,0.013523,0.002678,0.000431,0.012105
18265000,0.0324,0.013523,0.002678,0.000431,0.009755
18266000,0.0324,0.013523,0.002678,0.000431,0.011283
18267000,0.0324,0.013523,0.002678,0.000431,0.011400
18268000,0.0324,0.013523,0.002678,0.000431,0.010460
18269000,0.0324,0.013523,0.002678,0.000431,0.009872
18270000,0.0324,0.013523,0.002678,0.000431,0.010695
18271000,0.0324,0.013523,0.002678,0.000431,0.010107
18272000,0.0324,0.013523,0.002678,0.000431,0.011870
18273000,0.0324,0.013523,0.002678,0.000431,0.011048
18274000,0.0324,0.013523,0.002678,0.000431,0.009755
18275000,0.0324,0.013523,0.002678,0.000431,0.010107
18276000,0.0324,0.013523,0.002678,0.000431,0.010578
18277000,0.0324,0.013523,0.002678,0.000431,0.011635
18278000,0.0324,0.013523,0.002678,0.000431,0.011400
18279000,0.0324,0.013523,0.002678,0.000431,0.012223
18280000,0.0324,0.013523,0.002678,0.000431,0.010225
18281000,0.0324,0.013523,0.002678,0.000431,0.010695
18282000,0.0324,0.013523,0.002678,0.000431,0.010225
18283000,0.0324,0.013523,0.002678,0.000431,0.010225
18284000,0.0324,0.013523,0.002678,0.000431,0.011283
18285000,0.0324,0.013523,0.002678,0.000431,0.010813
18286000,0.0324,0.013523,0.002678,0.000431,0.010578
18287000,0.0324,0.013523,0.002678,0.000431,0.010578
18288000,0.0324,0.013523,0.002678,0.000431,0.011165
18289000,0.0324,0.013523,0.002678,0.000431,0.010460
18290000,0.0324,0.013523,0.002678,0.000431,0.011165
18291000,0.0324,0.013523,0.002678,0.000431,0.011518
18292000,0.0324,0.013523,0.002678,0.000431,0.009755
18293000,0.0324,0.013523,0.002678,0.000431,0.010578
18294000,0.0324,0.013523,0.002678,0.000431,0.010813
18295000,0.0324,0.013523,0.002678,0.000431,0.011283
18296000,0.0324,0.013523,0.002678,0.000431,0.010930
18297000,0.0324,0.013523,0.002678,0.000431,0.011635
18298000,0.0324,0.013523,0.002678,0.000431,0.011165
18299000,0.0324,0.013523,0.002678,0.000431,0.010695
18300000,0.0324,0.013523,0.002678,0.000431,0.010460
18301000,0.0324,0.013523,0.002678,0.000431,0.009990
18302000,0.0324,0.013523,0.002678,0.000431,0.011518
18303000,0.0324,0.013523,0.002678,0.000431,0.010578
18304000,0.0324,0.013523,0.002678,0.000431,0.010813
18305000,0.0324,0.013523,0.002678,0.000431,0.011283
18306000,0.0324,0.013523,0.002678,0.000431,0.010460
18307000,0.0324,0.013523,0.002678,0.000431,0.010813
18308000,0.0324,0.013523,0.002678,0.000431,0.011283
18309000,0.0324,0.013523,0.002678,0.000431,0.011518
18310000,0.0324,0.013523,0.002678,0.000431,0.011635
18311000,0.0324,0.013523,0.002678,0.000431,0.010695
18312000,0.0324,0.013523,0.002678,0.000431,0.010342
18313000,0.0324,0.013523,0.002678,0.000431,0.009637
18314000,0.0324,0.013523,0.002678,0.000431,0.009990
18315000,0.0324,0.013523,0.002678,0.000431,0.012340
18316000,0.0324,0.013523,0.002678,0.000431,0.010695
18317000,0.0324,0.013523,0.002678,0.000431,0.011283
18318000,0.0324,0.013523,0.002678,0.000431,0.008932
18319000,0.0324,0.013523,0.002678,0.000431,0.011283
18320000,0.0324,0.013523,0.002678,0.000431,0.010578
18321000,0.0324,0.013523,0.002678,0.000431,0.011635
18322000,0.0324,0.013523,0.002678,0.000431,0.011870
18323000,0.0324,0.013523,0.002678,0.000431,0.010695
18324000,0.0324,0.013523,0.002678,0.000431,0.010342
18325000,0.0324,0.013523,0.002678,0.000431,0.010578
18326000,0.0324,0.013523,0.002678,0.000431,0.012105
18327000,0.0324,0.013523,0.002678,0.000431,0.011635
18328000,0.0324,0.013523,0.002678,0.000431,0.010107
18329000,0.0324,0.013523,0.002678,0.000431,0.010695
18330000,0.0324,0.013523,0.002678,0.000431,0.010342
18331000,0.0324,0.013523,0.002678,0.000431,0.011518
18332000,0.0324,0.013523,0.002678,0.000431,0.010342
18333000,0.0324,0.013523,0.002678,0.000431,0.011518
18334000,0.0324,0.013523,0.002678,0.000431,0.010460
18335000,0.0324,0.013523,0.002678,0.000431,0.011753
18336000,0.0324,0.013523,0.002678,0.000431,0.010107
18337000,0.0324,0.013523,0.002678,0.000431,0.010813
18338000,0.0324,0.013523,0.002678,0.000431,0.011988
18339000,0.0324,0.013523,0.002678,0.000431,0.010813
18340000,0.0324,0.013523,0.002678,0.000431,0.009167
18341000,0.0324,0.013523,0.002678,0.000431,0.011400
18342000,0.0324,0.013523,0.002678,0.000431,0.010107
18343000,0.0324,0.013523,0.002678,0.000431,0.010695
18344000,0.0324,0.013523,0.002678,0.000431,0.012693
18345000,0.0324,0.013523,0.002678,0.000431,0.009755
18346000,0.0324,0.013523,0.002678,0.000431,0.010813
18347000,0.0324,0.013523,0.002678,0.000431,0.010107
18348000,0.0324,0.013523,0.002678,0.000431,0.010107
18349000,0.0324,0.013523,0.002678,0.000431,0.010813
18350000,0.0324,0.013523,0.002678,0.000431,0.011518
18351000,0.0324,0.013523,0.002678,0.000431,0.010225
18352000,0.0324,0.013523,0.002678,0.000431,0.009990
18353000,0.0324,0.013523,0.002678,0.000431,0.011753
18354000,0.0324,0.013523,0.002678,0.000431,0.010813
18355000,0.0324,0.013523,0.002678,0.000431,0.011165
18356000,0.0324,0.013523,0.002678,0.000431,0.010578
18357000,0.0324,0.013523,0.002678,0.000431,0.010695
18358000,0.0324,0.013523,0.002678,0.000431,0.010342
18359000,0.0324,0.013523,0.002678,0.000431,0.011870
18360000,0.0324,0.013523,0.002678,0.000431,0.010342
18361000,0.0324,0.013523,0.002678,0.000431,0.011635
18362000,0.0324,0.013523,0.002678,0.000431,0.010930
18363000,0.0324,0.013523,0.002678,0.000431,0.010225
18364000,0.0324,0.013523,0.002678,0.000431,0.010107
18365000,0.0324,0.013523,0.002678,0.000431,0.010578
18366000,0.0324,0.013523,0.002678,0.000431,0.011165
18367000,0.0324,0.013523,0.002678,0.000431,0.011283
18368000,0.0324,0.013523,0.002678,0.000431,0.011988
18369000,0.0324,0.013523,0.002678,0.000431,0.010695
18370000,0.0324,0.013523,0.002678,0.000431,0.010342
18371000,0.0324,0.013523,0.002678,0.000431,0.011283
18372000,0.0324,0.013523,0.002678,0.000431,0.009755
18373000,0.0324,0.013523,0.002678,0.000431,0.010342
18374000,0.0324,0.013523,0.002678,0.000431,0.011165
18375000,0.0324,0.013523,0.002678,0.000431,0.010225
18376000,0.0324,0.013523,0.002678,0.000431,0.010813
18377000,0.0324,0.013523,0.002678,0.000431,0.010107
18378000,0.0324,0.013523,0.002678,0.000431,0.011518
18379000,0.0324,0.013523,0.002678,0.000431,0.010930
18380000,0.0324,0.013523,0.002678,0.000431,0.011518
18381000,0.0324,0.013523,0.002678,0.000431,0.010460
18382000,0.0324,0.013523,0.002678,0.000431,0.011048
18383000,0.0324,0.013523,0.002678,0.000431,0.009872
18384000,0.0324,0.013523,0.002678,0.000431,0.011635
18385000,0.0324,0.013523,0.002678,0.000431,0.010695
18386000,0.0324,0.013523,0.002678,0.000431,0.009990
18387000,0.0324,0.013523,0.002678,0.000431,0.010225
18388000,0.0324,0.013523,0.002678,0.000431,0.010460
18389000,0.0324,0.013523,0.002678,0.000431,0.011635
18390000,0.0324,0.013523,0.002678,0.000431,0.011400
18391000,0.0324,0.013523,0.002678,0.000431,0.009637
18392000,0.0324,0.013523,0.002678,0.000431,0.010107
18393000,0.0324,0.013523,0.002678,0.000431,0.011165
18394000,0.0324,0.013523,0.002678,0.000431,0.010342
18395000,0.0324,0.013523,0.002678,0.000431,0.011753
18396000,0.0324,0.013523,0.002678,0.000431,0.011283
18397000,0.0324,0.013523,0.002678,0.000431,0.010578
18398000,0.0324,0.013523,0.002678,0.000431,0.011518
18399000,0.0324,0.013523,0.002678,0.000431,0.010695
18400000,0.0324,0.013523,0.002678,0.000431,0.009990
18401000,0.0324,0.013523,0.002678,0.000431,0.011753
18402000,0.0324,0.013523,0.002678,0.000431,0.008815
18403000,0.0324,0.013523,0.002678,0.000431,0.009520
18404000,0.0324,0.013523,0.002678,0.000431,0.011283
18405000,0.0324,0.013523,0.002678,0.000431,0.009872
18406000,0.0324,0.013523,0.002678,0.000431,0.010578
18407000,0.0324,0.013523,0.002678,0.000431,0.011753
18408000,0.0324,0.013523,0.002678,0.000431,0.009872
18409000,0.0324,0.013523,0.002678,0.000431,0.009990
18410000,0.0324,0.013523,0.002678,0.000431,0.012105
18411000,0.0324,0.013523,0.002678,0.000431,0.010225
18412000,0.0324,0.013523,0.002678,0.000431,0.009167
18413000,0.0324,0.013523,0.002678,0.000431,0.012105
18414000,0.0324,0.013523,0.002678,0.000431,0.010225
18415000,0.0324,0.013523,0.002678,0.000431,0.010225
18416000,0.0324,0.013523,0.002678,0.000431,0.011635
18417000,0.0324,0.013523,0.002678,0.000431,0.009520
18418000,0.0324,0.013523,0.002678,0.000431,0.010813
18419000,0.0324,0.013523,0.002678,0.000431,0.009872
18420000,0.0324,0.013523,0.002678,0.000431,0.011048
18421000,0.0324,0.013523,0.002678,0.000431,0.011635
18422000,0.0324,0.013523,0.002678,0.000431,0.011048
18423000,0.0324,0.013523,0.002678,0.000431,0.011048
18424000,0.0324,0.013523,0.002678,0.000431,0.009402
18425000,0.0324,0.013523,0.002678,0.000431,0.010460
18426000,0.0324,0.013523,0.002678,0.000431,0.011635
18427000,0.0324,0.013523,0.002678,0.000431,0.012105
18428000,0.0324,0.013523,0.002678,0.000431,0.010930
18429000,0.0324,0.013523,0.002678,0.000431,0.011165
18430000,0.0324,0.013523,0.002678,0.000431,0.010578
18431000,0.0324,0.013523,0.002678,0.000431,0.011048
18432000,0.0324,0.013523,0.002678,0.000431,0.010695
18433000,0.0324,0.013523,0.002678,0.000431,0.010460
18434000,0.0324,0.013523,0.002678,0.000431,0.011518
18435000,0.0324,0.013523,0.002678,0.000431,0.010578
18436000,0.0324,0.013523,0.002678,0.000431,0.010342
18437000,0.0324,0.013523,0.002678,0.000431,0.010578
18438000,0.0324,0.013523,0.002678,0.000431,0.010578
18439000,0.0324,0.013523,0.002678,0.000431,0.011048
18440000,0.0324,0.013523,0.002678,0.000431,0.010695
18441000,0.0324,0.013523,0.002678,0.000431,0.010695
18442000,0.0324,0.013523,0.002678,0.000431,0.010342
18443000,0.0324,0.013523,0.002678,0.000431,0.009402
18444000,0.0324,0.013523,0.002678,0.000431,0.011048
18445000,0.0324,0.013523,0.002678,0.000431,0.011048
18446000,0.0324,0.013523,0.002678,0.000431,0.011048
18447000,0.0324,0.013523,0.002678,0.000431,0.009872
18448000,0.0324,0.013523,0.002678,0.000431,0.010460
18449000,0.0324,0.013523,0.002678,0.000431,0.009990
18450000,0.0324,0.013523,0.002678,0.000431,0.010695
18451000,0.0324,0.013523,0.002678,0.000431,0.011165
18452000,0.0324,0.013523,0.002678,0.000431,0.010107
18453000,0.0324,0.013523,0.002678,0.000431,0.010813
18454000,0.0324,0.013523,0.002678,0.000431,0.009872
18455000,0.0324,0.013523,0.002678,0.000431,0.011165
18456000,0.0324,0.013523,0.002678,0.000431,0.010460
18457000,0.0324,0.013523,0.002678,0.000431,0.012105
18458000,0.0324,0.013523,0.002678,0.000431,0.010578
18459000,0.0324,0.013523,0.002678,0.000431,0.010225
18460000,0.0324,0.013523,0.002678,0.000431,0.010342
18461000,0.0324,0.013523,0.002678,0.000431,0.010460
18462000,0.0324,0.013523,0.002678,0.000431,0.010107
18463000,0.0324,0.013523,0.002678,0.000431,0.011635
18464000,0.0324,0.013523,0.002678,0.000431,0.011283
18465000,0.0324,0.013523,0.002678,0.000431,0.009872
18466000,0.0324,0.013523,0.002678,0.000431,0.010930
18467000,0.0324,0.013523,0.002678,0.000431,0.010695
18468000,0.0324,0.013523,0.002678,0.000431,0.010342
18469000,0.0324,0.013523,0.002678,0.000431,0.011400
18470000,0.0324,0.013523,0.002678,0.000431,0.011753
18471000,0.0324,0.013523,0.002678,0.000431,0.009637
18472000,0.0324,0.013523,0.002678,0.000431,0.011870
18473000,0.0324,0.013523,0.002678,0.000431,0.010930
18474000,0.0324,0.013523,0.002678,0.000431,0.011283
18475000,0.0324,0.013523,0.002678,0.000431,0.011988
18476000,0.0324,0.013523,0.002678,0.000431,0.011283
18477000,0.0324,0.013523,0.002678,0.000431,0.011518
18478000,0.0324,0.013523,0.002678,0.000431,0.010813
18479000,0.0324,0.013523,0.002678,0.000431,0.011400
18480000,0.0324,0.013523,0.002678,0.000431,0.010342
18481000,0.0324,0.013523,0.002678,0.000431,0.010813
18482000,0.0324,0.013523,0.002678,0.000431,0.010930
18483000,0.0324,0.013523,0.002678,0.000431,0.011165
18484000,0.0324,0.013523,0.002678,0.000431,0.010460
18485000,0.0324,0.013523,0.002678,0.000431,0.010342
18486000,0.0324,0.013523,0.002678,0.000431,0.011635
18487000,0.0324,0.013523,0.002678,0.000431,0.010225
18488000,0.0324,0.013523,0.002678,0.000431,0.010813
18489000,0.0324,0.013523,0.002678,0.000431,0.011048
18490000,0.0324,0.013523,0.002678,0.000431,0.010813
18491000,0.0324,0.013523,0.002678,0.000431,0.011753
18492000,0.0324,0.013523,0.002678,0.000431,0.011400
18493000,0.0324,0.013523,0.002678,0.000431,0.011283
18494000,0.0324,0.013523,0.002678,0.000431,0.011753
18495000,0.0324,0.013523,0.002678,0.000431,0.009755
18496000,0.0324,0.013523,0.002678,0.000431,0.009285
18497000,0.0324,0.013523,0.002678,0.000431,0.010813
18498000,0.0324,0.013523,0.002678,0.000431,0.010342
18499000,0.0324,0.013523,0.002678,0.000431,0.010930
18500000,0.0324,0.013523,0.002678,0.000431,0.010930
18501000,0.0324,0.013523,0.002678,0.000431,0.010342
18502000,0.0324,0.013523,0.002678,0.000431,0.009872
18503000,0.0324,0.013523,0.002678,0.000431,0.011518
18504000,0.0324,0.013523,0.002678,0.000431,0.009872
18505000,0.0324,0.013523,0.002678,0.000431,0.011400
18506000,0.0324,0.013523,0.002678,0.000431,0.010225
18507000,0.0324,0.013523,0.002678,0.000431,0.009637
18508000,0.0324,0.013523,0.002678,0.000431,0.011518
18509000,0.0324,0.013523,0.002678,0.000431,0.011165
18510000,0.0324,0.013523,0.002678,0.000431,0.009755
18511000,0.0324,0.013523,0.002678,0.000431,0.012458
18512000,0.0324,0.013523,0.002678,0.000431,0.010460
18513000,0.0324,0.013523,0.002678,0.000431,0.010813
18514000,0.0324,0.013523,0.002678,0.000431,0.011635
18515000,0.0324,0.013523,0.002678,0.000431,0.010578
18516000,0.0324,0.013523,0.002678,0.000431,0.010930
18517000,0.0324,0.013523,0.002678,0.000431,0.011165
18518000,0.0324,0.013523,0.002678,0.000431,0.010460
18519000,0.0324,0.013523,0.002678,0.000431,0.010460
18520000,0.0324,0.013523,0.002678,0.000431,0.011048
18521000,0.0324,0.013523,0.002678,0.000431,0.010695
18522000,0.0324,0.013523,0.002678,0.000431,0.009990
18523000,0.0324,0.013523,0.002678,0.000431,0.011988
18524000,0.0324,0.013523,0.002678,0.000431,0.010695
18525000,0.0324,0.013523,0.002678,0.000431,0.010813
18526000,0.0324,0.013523,0.002678,0.000431,0.011518
18527000,0.0324,0.013523,0.002678,0.000431,0.010342
18528000,0.0324,0.013523,0.002678,0.000431,0.010813
18529000,0.0324,0.013523,0.002678,0.000431,0.010813
18530000,0.0324,0.013523,0.002678,0.000431,0.010578
18531000,0.0324,0.013523,0.002678,0.000431,0.011518
18532000,0.0324,0.013523,0.002678,0.000431,0.011518
18533000,0.0324,0.013523,0.002678,0.000431,0.009637
18534000,0.0324,0.013523,0.002678,0.000431,0.011165
18535000,0.0324,0.013523,0.002678,0.000431,0.011165
18536000,0.0324,0.013523,0.002678,0.000431,0.011518
18537000,0.0324,0.013523,0.002678,0.000431,0.011283
18538000,0.0324,0.013523,0.002678,0.000431,0.011048
18539000,0.0324,0.013523,0.002678,0.000431,0.010578
18540000,0.0324,0.013523,0.002678,0.000431,0.011283
18541000,0.0324,0.013523,0.002678,0.000431,0.011283
18542000,0.0324,0.013523,0.002678,0.000431,0.011048
18543000,0.0324,0.013523,0.002678,0.000431,0.011048
18544000,0.0324,0.013523,0.002678,0.000431,0.011283
18545000,0.0324,0.013523,0.002678,0.000431,0.011518
18546000,0.0324,0.013523,0.002678,0.000431,0.010107
18547000,0.0324,0.013523,0.002678,0.000431,0.011753
18548000,0.0324,0.013523,0.002678,0.000431,0.011400
18549000,0.0324,0.013523,0.002678,0.000431,0.010930
18550000,0.0324,0.013523,0.002678,0.000431,0.011048
18551000,0.0324,0.013523,0.002678,0.000431,0.011165
18552000,0.0324,0.013523,0.002678,0.000431,0.010107
18553000,0.0324,0.013523,0.002678,0.000431,0.011165
18554000,0.0324,0.013523,0.002678,0.000431,0.011988
18555000,0.0324,0.013523,0.002678,0.000431,0.011400
18556000,0.0324,0.013523,0.002678,0.000431,0.011048
18557000,0.0324,0.013523,0.002678,0.000431,0.010695
18558000,0.0324,0.013523,0.002678,0.000431,0.010695
18559000,0.0324,0.013523,0.002678,0.000431,0.011165
18560000,0.0324,0.013523,0.002678,0.000431,0.010225
18561000,0.0324,0.013523,0.002678,0.000431,0.009990
18562000,0.0324,0.013523,0.002678,0.000431,0.010930
18563000,0.0324,0.013523,0.002678,0.000431,0.010930
18564000,0.0324,0.013523,0.002678,0.000431,0.010578
18565000,0.0324,0.013523,0.002678,0.000431,0.012223
18566000,0.0324,0.013523,0.002678,0.000431,0.010578
18567000,0.0324,0.013523,0.002678,0.000431,0.009872
18568000,0.0324,0.013523,0.002678,0.000431,0.011870
18569000,0.0324,0.013523,0.002678,0.000431,0.009755
18570000,0.0324,0.013523,0.002678,0.000431,0.011283
18571000,0.0324,0.013523,0.002678,0.000431,0.011400
18572000,0.0324,0.013523,0.002678,0.000431,0.010225
18573000,0.0324,0.013523,0.002678,0.000431,0.009637
18574000,0.0324,0.013523,0.002678,0.000431,0.010225
18575000,0.0324,0.013523,0.002678,0.000431,0.009872
18576000,0.0324,0.013523,0.002678,0.000431,0.011635
18577000,0.0324,0.013523,0.002678,0.000431,0.010578
18578000,0.0324,0.013523,0.002678,0.000431,0.010813
18579000,0.0324,0.013523,0.002678,0.000431,0.011988
18580000,0.0324,0.013523,0.002678,0.000431,0.011870
18581000,0.0324,0.013523,0.002678,0.000431,0.010813
18582000,0.0324,0.013523,0.002678,0.000431,0.011400
18583000,0.0324,0.013523,0.002678,0.000431,0.011283
18584000,0.0324,0.013523,0.002678,0.000431,0.010225
18585000,0.0324,0.013523,0.002678,0.000431,0.011400
18586000,0.0324,0.013523,0.002678,0.000431,0.009872
18587000,0.0324,0.013523,0.002678,0.000431,0.010930
18588000,0.0324,0.013523,0.002678,0.000431,0.010460
18589000,0.0324,0.013523,0.002678,0.000431,0.010813
18590000,0.0324,0.013523,0.002678,0.000431,0.011283
18591000,0.0324,0.013523,0.002678,0.000431,0.009637
18592000,0.0324,0.013523,0.002678,0.000431,0.010578
18593000,0.0324,0.013523,0.002678,0.000431,0.011283
18594000,0.0324,0.013523,0.002678,0.000431,0.010578
18595000,0.0324,0.013523,0.002678,0.000431,0.011048
18596000,0.0324,0.013523,0.002678,0.000431,0.011518
18597000,0.0324,0.013523,0.002678,0.000431,0.010107
18598000,0.0324,0.013523,0.002678,0.000431,0.010578
18599000,0.0324,0.013523,0.002678,0.000431,0.011635
18600000,0.0324,0.013523,0.002678,0.000431,0.011518
18601000,0.0324,0.013523,0.002678,0.000431,0.010930
18602000,0.0324,0.013523,0.002678,0.000431,0.010342
18603000,0.0324,0.013523,0.002678,0.000431,0.010813
18604000,0.0324,0.013523,0.002678,0.000431,0.009872
18605000,0.0324,0.013523,0.002678,0.000431,0.009990
18606000,0.0324,0.013523,0.002678,0.000431,0.010813
18607000,0.0324,0.013523,0.002678,0.000431,0.011283
18608000,0.0324,0.013523,0.002678,0.000431,0.010107
18609000,0.0324,0.013523,0.002678,0.000431,0.010695
18610000,0.0324,0.013523,0.002678,0.000431,0.010342
18611000,0.0324,0.013523,0.002678,0.000431,0.009872
18612000,0.0324,0.013523,0.002678,0.000431,0.011283
18613000,0.0324,0.013523,0.002678,0.000431,0.011048
18614000,0.0324,0.013523,0.002678,0.000431,0.010225
18615000,0.0324,0.013523,0.002678,0.000431,0.010813
18616000,0.0324,0.013523,0.002678,0.000431,0.010225
18617000,0.0324,0.013523,0.002678,0.000431,0.010342
18618000,0.0324,0.013523,0.002678,0.000431,0.011400
18619000,0.0324,0.013523,0.002678,0.000431,0.011753
18620000,0.0324,0.013523,0.002678,0.000431,0.010813
18621000,0.0324,0.013523,0.002678,0.000431,0.011283
18622000,0.0324,0.013523,0.002678,0.000431,0.010225
18623000,0.0324,0.013523,0.002678,0.000431,0.010107
18624000,0.0324,0.013523,0.002678,0.000431,0.011048
18625000,0.0324,0.013523,0.002678,0.000431,0.012105
18626000,0.0324,0.013523,0.002678,0.000431,0.011400
18627000,0.0324,0.013523,0.002678,0.000431,0.011283
18628000,0.0324,0.013523,0.002678,0.000431,0.010107
18629000,0.0324,0.013523,0.002678,0.000431,0.010225
18630000,0.0324,0.013523,0.002678,0.000431,0.011988
18631000,0.0324,0.013523,0.002678,0.000431,0.011048
18632000,0.0324,0.013523,0.002678,0.000431,0.010930
18633000,0.0324,0.013523,0.002678,0.000431,0.011518
18634000,0.0324,0.013523,0.002678,0.000431,0.009872
18635000,0.0324,0.013523,0.002678,0.000431,0.010578
18636000,0.0324,0.013523,0.002678,0.000431,0.010107
18637000,0.0324,0.013523,0.002678,0.000431,0.010460
18638000,0.0324,0.013523,0.002678,0.000431,0.011988
18639000,0.0324,0.013523,0.002678,0.000431,0.010695
18640000,0.0324,0.013523,0.002678,0.000431,0.009167
18641000,0.0324,0.013523,0.002678,0.000431,0.011635
18642000,0.0324,0.013523,0.002678,0.000431,0.011518
18643000,0.0324,0.013523,0.002678,0.000431,0.011400
18644000,0.0324,0.013523,0.002678,0.000431,0.010578
18645000,0.0324,0.013523,0.002678,0.000431,0.010813
18646000,0.0324,0.013523,0.002678,0.000431,0.010107
18647000,0.0324,0.013523,0.002678,0.000431,0.011165
18648000,0.0324,0.013523,0.002678,0.000431,0.011048
18649000,0.0324,0.013523,0.002678,0.000431,0.011400
18650000,0.0324,0.013523,0.002678,0.000431,0.010813
18651000,0.0324,0.013523,0.002678,0.000431,0.010695
18652000,0.0324,0.013523,0.002678,0.000431,0.010930
18653000,0.0324,0.013523,0.002678,0.000431,0.010930
18654000,0.0324,0.013523,0.002678,0.000431,0.010342
18655000,0.0324,0.013523,0.002678,0.000431,0.011753
18656000,0.0324,0.013523,0.002678,0.000431,0.010225
18657000,0.0324,0.013523,0.002678,0.000431,0.010107
18658000,0.0324,0.013523,0.002678,0.000431,0.010813
18659000,0.0324,0.013523,0.002678,0.000431,0.011400
18660000,0.0324,0.013523,0.002678,0.000431,0.011048
18661000,0.0324,0.013523,0.002678,0.000431,0.011518
18662000,0.0324,0.013523,0.002678,0.000431,0.009990
18663000,0.0324,0.013523,0.002678,0.000431,0.010342
18664000,0.0324,0.013523,0.002678,0.000431,0.011635
18665000,0.0324,0.013523,0.002678,0.000431,0.010225
18666000,0.0324,0.013523,0.002678,0.000431,0.010225
18667000,0.0324,0.013523,0.002678,0.000431,0.011518
18668000,0.0324,0.013523,0.002678,0.000431,0.010225
18669000,0.0324,0.013523,0.002678,0.000431,0.009872
18670000,0.0324,0.013523,0.002678,0.000431,0.011400
18671000,0.0324,0.013523,0.002678,0.000431,0.009872
18672000,0.0324,0.013523,0.002678,0.000431,0.009872
18673000,0.0324,0.013523,0.002678,0.000431,0.010107
18674000,0.0324,0.013523,0.002678,0.000431,0.009872
18675000,0.0324,0.013523,0.002678,0.000431,0.011870
18676000,0.0324,0.013523,0.002678,0.000431,0.011400
18677000,0.0324,0.013523,0.002678,0.000431,0.010342
18678000,0.0324,0.013523,0.002678,0.000431,0.010225
18679000,0.0324,0.013523,0.002678,0.000431,0.009990
18680000,0.0324,0.013523,0.002678,0.000431,0.010578
18681000,0.0324,0.013523,0.002678,0.000431,0.010813
18682000,0.0324,0.013523,0.002678,0.000431,0.010813
18683000,0.0324,0.013523,0.002678,0.000431,0.010813
18684000,0.0324,0.013523,0.002678,0.000431,0.011283
18685000,0.0324,0.013523,0.002678,0.000431,0.011283
18686000,0.0324,0.013523,0.002678,0.000431,0.010813
18687000,0.0324,0.013523,0.002678,0.000431,0.011048
18688000,0.0324,0.013523,0.002678,0.000431,0.010695
18689000,0.0324,0.013523,0.002678,0.000431,0.010578
18690000,0.0324,0.013523,0.002678,0.000431,0.011048
18691000,0.0324,0.013523,0.002678,0.000431,0.011165
18692000,0.0324,0.013523,0.002678,0.000431,0.009990
18693000,0.0324,0.013523,0.002678,0.000431,0.011518
18694000,0.0324,0.013523,0.002678,0.000431,0.010460
18695000,0.0324,0.013523,0.002678,0.000431,0.010460
18696000,0.0324,0.013523,0.002678,0.000431,0.011518
18697000,0.0324,0.013523,0.002678,0.000431,0.009872
18698000,0.0324,0.013523,0.002678,0.000431,0.010460
18699000,0.0324,0.013523,0.002678,0.000431,0.011400
18700000,0.0324,0.013523,0.002678,0.000431,0.010225
18701000,0.0324,0.013523,0.002678,0.000431,0.011635
18702000,0.0324,0.013523,0.002678,0.000431,0.010813
18703000,0.0324,0.013523,0.002678,0.000431,0.010695
18704000,0.0324,0.013523,0.002678,0.000431,0.010813
18705000,0.0324,0.013523,0.002678,0.000431,0.012576
18706000,0.0324,0.013523,0.002678,0.000431,0.010695
18707000,0.0324,0.013523,0.002678,0.000431,0.011400
18708000,0.0324,0.013523,0.002678,0.000431,0.009990
18709000,0.0324,0.013523,0.002678,0.000431,0.010460
18710000,0.0324,0.013523,0.002678,0.000431,0.010695
18711000,0.0324,0.013523,0.002678,0.000431,0.011400
18712000,0.0324,0.013523,0.002678,0.000431,0.011635
18713000,0.0324,0.013523,0.002678,0.000431,0.010107
18714000,0.0324,0.013523,0.002678,0.000431,0.010578
18715000,0.0324,0.013523,0.002678,0.000431,0.011635
18716000,0.0324,0.013523,0.002678,0.000431,0.010342
18717000,0.0324,0.013523,0.002678,0.000431,0.011870
18718000,0.0324,0.013523,0.002678,0.000431,0.010107
18719000,0.0324,0.013523,0.002678,0.000431,0.010930
18720000,0.0324,0.013523,0.002678,0.000431,0.011048
18721000,0.0324,0.013523,0.002678,0.000431,0.010225
18722000,0.0324,0.013523,0.002678,0.000431,0.011518
18723000,0.0324,0.013523,0.002678,0.000431,0.011048
18724000,0.0324,0.013523,0.002678,0.000431,0.010342
18725000,0.0324,0.013523,0.002678,0.000431,0.010107
18726000,0.0324,0.013523,0.002678,0.000431,0.011988
18727000,0.0324,0.013523,0.002678,0.000431,0.010342
18728000,0.0324,0.013523,0.002678,0.000431,0.009990
18729000,0.0324,0.013523,0.002678,0.000431,0.011165
18730000,0.0324,0.013523,0.002678,0.000431,0.010578
18731000,0.0324,0.013523,0.002678,0.000431,0.010460
18732000,0.0324,0.013523,0.002678,0.000431,0.011400
18733000,0.0324,0.013523,0.002678,0.000431,0.009050
18734000,0.0324,0.013523,0.002678,0.000431,0.010460
18735000,0.0324,0.013523,0.002678,0.000431,0.011518
18736000,0.0324,0.013523,0.002678,0.000431,0.010107
18737000,0.0324,0.013523,0.002678,0.000431,0.009755
18738000,0.0324,0.013523,0.002678,0.000431,0.010695
18739000,0.0324,0.013523,0.002678,0.000431,0.011988
18740000,0.0324,0.013523,0.002678,0.000431,0.010107
18741000,0.0324,0.013523,0.002678,0.000431,0.010342
18742000,0.0324,0.013523,0.002678,0.000431,0.011400
18743000,0.0324,0.013523,0.002678,0.000431,0.010695
18744000,0.0324,0.013523,0.002678,0.000431,0.010695
18745000,0.0324,0.013523,0.002678,0.000431,0.011165
18746000,0.0324,0.013523,0.002678,0.000431,0.010460
18747000,0.0324,0.013523,0.002678,0.000431,0.010695
18748000,0.0324,0.013523,0.002678,0.000431,0.011165
18749000,0.0324,0.013523,0.002678,0.000431,0.011400
18750000,0.0324,0.013523,0.002678,0.000431,0.010460
18751000,0.0324,0.013523,0.002678,0.000431,0.010578
18752000,0.0324,0.013523,0.002678,0.000431,0.010342
18753000,0.0324,0.013523,0.002678,0.000431,0.010225
18754000,0.0324,0.013523,0.002678,0.000431,0.010695
18755000,0.0324,0.013523,0.002678,0.000431,0.010578
18756000,0.0324,0.013523,0.002678,0.000431,0.012340
18757000,0.0324,0.013523,0.002678,0.000431,0.011048
18758000,0.0324,0.013523,0.002678,0.000431,0.010107
18759000,0.0324,0.013523,0.002678,0.000431,0.010930
18760000,0.0324,0.013523,0.002678,0.000431,0.010107
18761000,0.0324,0.013523,0.002678,0.000431,0.011635
18762000,0.0324,0.013523,0.002678,0.000431,0.012693
18763000,0.0324,0.013523,0.002678,0.000431,0.009637
18764000,0.0324,0.013523,0.002678,0.000431,0.009050
18765000,0.0324,0.013523,0.002678,0.000431,0.011870
18766000,0.0324,0.013523,0.002678,0.000431,0.010813
18767000,0.0324,0.013523,0.002678,0.000431,0.011165
18768000,0.0324,0.013523,0.002678,0.000431,0.011753
18769000,0.0324,0.013523,0.002678,0.000431,0.009520
18770000,0.0324,0.013523,0.002678,0.000431,0.010225
18771000,0.0324,0.013523,0.002678,0.000431,0.010930
18772000,0.0324,0.013523,0.002678,0.000431,0.010225
18773000,0.0324,0.013523,0.002678,0.000431,0.009402
18774000,0.0324,0.013523,0.002678,0.000431,0.011400
18775000,0.0324,0.013523,0.002678,0.000431,0.010813
18776000,0.0324,0.013523,0.002678,0.000431,0.010813
18777000,0.0324,0.013523,0.002678,0.000431,0.010225
18778000,0.0324,0.013523,0.002678,0.000431,0.010225
18779000,0.0324,0.013523,0.002678,0.000431,0.011165
18780000,0.0324,0.013523,0.002678,0.000431,0.011635
18781000,0.0324,0.013523,0.002678,0.000431,0.011048
18782000,0.0324,0.013523,0.002678,0.000431,0.011283
18783000,0.0324,0.013523,0.002678,0.000431,0.010225
18784000,0.0324,0.013523,0.002678,0.000431,0.011283
18785000,0.0324,0.013523,0.002678,0.000431,0.011165
18786000,0.0324,0.013523,0.002678,0.000431,0.010930
18787000,0.0324,0.013523,0.002678,0.000431,0.010695
18788000,0.0324,0.013523,0.002678,0.000431,0.011048
18789000,0.0324,0.013523,0.002678,0.000431,0.010225
18790000,0.0324,0.013523,0.002678,0.000431,0.012105
18791000,0.0324,0.013523,0.002678,0.000431,0.011400
18792000,0.0324,0.013523,0.002678,0.000431,0.011165
18793000,0.0324,0.013523,0.002678,0.000431,0.010225
18794000,0.0324,0.013523,0.002678,0.000431,0.011518
18795000,0.0324,0.013523,0.002678,0.000431,0.010460
18796000,0.0324,0.013523,0.002678,0.000431,0.010578
18797000,0.0324,0.013523,0.002678,0.000431,0.010460
18798000,0.0324,0.013523,0.002678,0.000431,0.011400
18799000,0.0324,0.013523,0.002678,0.000431,0.010813
18800000,0.0324,0.013523,0.002678,0.000431,0.011283
18801000,0.0324,0.013523,0.002678,0.000431,0.010930
18802000,0.0324,0.013523,0.002678,0.000431,0.011165
18803000,0.0324,0.013523,0.002678,0.000431,0.010813
18804000,0.0324,0.013523,0.002678,0.000431,0.011165
18805000,0.0324,0.013523,0.002678,0.000431,0.010578
18806000,0.0324,0.013523,0.002678,0.000431,0.010225
18807000,0.0324,0.013523,0.002678,0.000431,0.010225
18808000,0.0324,0.013523,0.002678,0.000431,0.010695
18809000,0.0324,0.013523,0.002678,0.000431,0.011283
18810000,0.0324,0.013523,0.002678,0.000431,0.011518
18811000,0.0324,0.013523,0.002678,0.000431,0.009637
18812000,0.0324,0.013523,0.002678,0.000431,0.011518
18813000,0.0324,0.013523,0.002678,0.000431,0.010578
18814000,0.0324,0.013523,0.002678,0.000431,0.010460
18815000,0.0324,0.013523,0.002678,0.000431,0.010578
18816000,0.0324,0.013523,0.002678,0.000431,0.011518
18817000,0.0324,0.013523,0.002678,0.000431,0.009637
18818000,0.0324,0.013523,0.002678,0.000431,0.010813
18819000,0.0324,0.013523,0.002678,0.000431,0.011635
18820000,0.0324,0.013523,0.002678,0.000431,0.009990
18821000,0.0324,0.013523,0.002678,0.000431,0.011988
18822000,0.0324,0.013523,0.002678,0.000431,0.011165
18823000,0.0324,0.013523,0.002678,0.000431,0.010342
18824000,0.0324,0.013523,0.002678,0.000431,0.010930
18825000,0.0324,0.013523,0.002678,0.000431,0.010460
18826000,0.0324,0.013523,0.002678,0.000431,0.011165
18827000,0.0324,0.013523,0.002678,0.000431,0.011635
18828000,0.0324,0.013523,0.002678,0.000431,0.011165
18829000,0.0324,0.013523,0.002678,0.000431,0.011400
18830000,0.0324,0.013523,0.002678,0.000431,0.011400
18831000,0.0324,0.013523,0.002678,0.000431,0.011753
18832000,0.0324,0.013523,0.002678,0.000431,0.010225
18833000,0.0324,0.013523,0.002678,0.000431,0.011283
18834000,0.0324,0.013523,0.002678,0.000431,0.010695
18835000,0.0324,0.013523,0.002678,0.000431,0.010225
18836000,0.0324,0.013523,0.002678,0.000431,0.011165
18837000,0.0324,0.013523,0.002678,0.000431,0.009637
18838000,0.0324,0.013523,0.002678,0.000431,0.009872
18839000,0.0324,0.013523,0.002678,0.000431,0.011635
18840000,0.0324,0.013523,0.002678,0.000431,0.009872
18841000,0.0324,0.013523,0.002678,0.000431,0.010460
18842000,0.0324,0.013523,0.002678,0.000431,0.011518
18843000,0.0324,0.013523,0.002678,0.000431,0.009050
18844000,0.0324,0.013523,0.002678,0.000431,0.011048
18845000,0.0324,0.013523,0.002678,0.000431,0.012105
18846000,0.0324,0.013523,0.002678,0.000431,0.010813
18847000,0.0324,0.013523,0.002678,0.000431,0.010813
18848000,0.0324,0.013523,0.002678,0.000431,0.010930
18849000,0.0324,0.013523,0.002678,0.000431,0.009637
18850000,0.0324,0.013523,0.002678,0.000431,0.010578
18851000,0.0324,0.013523,0.002678,0.000431,0.011400
18852000,0.0324,0.013523,0.002678,0.000431,0.010460
18853000,0.0324,0.013523,0.002678,0.000431,0.010342
18854000,0.0324,0.013523,0.002678,0.000431,0.010225
18855000,0.0324,0.013523,0.002678,0.000431,0.009637
18856000,0.0324,0.013523,0.002678,0.000431,0.010460
18857000,0.0324,0.013523,0.002678,0.000431,0.010107
18858000,0.0324,0.013523,0.002678,0.000431,0.010225
18859000,0.0324,0.013523,0.002678,0.000431,0.011048
18860000,0.0324,0.013523,0.002678,0.000431,0.011165
18861000,0.0324,0.013523,0.002678,0.000431,0.009990
18862000,0.0324,0.013523,0.002678,0.000431,0.010578
18863000,0.0324,0.013523,0.002678,0.000431,0.012223
18864000,0.0324,0.013523,0.002678,0.000431,0.011400
18865000,0.0324,0.013523,0.002678,0.000431,0.009990
18866000,0.0324,0.013523,0.002678,0.000431,0.010930
18867000,0.0324,0.013523,0.002678,0.000431,0.011518
18868000,0.0324,0.013523,0.002678,0.000431,0.009755
18869000,0.0324,0.013523,0.002678,0.000431,0.011283
18870000,0.0324,0.013523,0.002678,0.000431,0.009520
18871000,0.0324,0.013523,0.002678,0.000431,0.010342
18872000,0.0324,0.013523,0.002678,0.000431,0.012105
18873000,0.0324,0.013523,0.002678,0.000431,0.010225
18874000,0.0324,0.013523,0.002678,0.000431,0.011283
18875000,0.0324,0.013523,0.002678,0.000431,0.011165
18876000,0.0324,0.013523,0.002678,0.000431,0.009872
18877000,0.0324,0.013523,0.002678,0.000431,0.009990
18878000,0.0324,0.013523,0.002678,0.000431,0.011048
18879000,0.0324,0.013523,0.002678,0.000431,0.011283
18880000,0.0324,0.013523,0.002678,0.000431,0.009755
18881000,0.0324,0.013523,0.002678,0.000431,0.011165
18882000,0.0324,0.013523,0.002678,0.000431,0.010342
18883000,0.0324,0.013523,0.002678,0.000431,0.011048
18884000,0.0324,0.013523,0.002678,0.000431,0.011400
18885000,0.0324,0.013523,0.002678,0.000431,0.008932
18886000,0.0324,0.013523,0.002678,0.000431,0.010930
18887000,0.0324,0.013523,0.002678,0.000431,0.011753
18888000,0.0324,0.013523,0.002678,0.000431,0.010342
18889000,0.0324,0.013523,0.002678,0.000431,0.010342
18890000,0.0324,0.013523,0.002678,0.000431,0.009637
18891000,0.0324,0.013523,0.002678,0.000431,0.011048
18892000,0.0324,0.013523,0.002678,0.000431,0.010813
18893000,0.0324,0.013523,0.002678,0.000431,0.012105
18894000,0.0324,0.013523,0.002678,0.000431,0.009990
18895000,0.0324,0.013523,0.002678,0.000431,0.009872
18896000,0.0324,0.013523,0.002678,0.000431,0.011048
18897000,0.0324,0.013523,0.002678,0.000431,0.010578
18898000,0.0324,0.013523,0.002678,0.000431,0.010930
18899000,0.0324,0.013523,0.002678,0.000431,0.011165
18900000,0.0324,0.013523,0.002678,0.000431,0.010342
18901000,0.0324,0.013523,0.002678,0.000431,0.010695
18902000,0.0324,0.013523,0.002678,0.000431,0.010460
18903000,0.0324,0.013523,0.002678,0.000431,0.010930
18904000,0.0324,0.013523,0.002678,0.000431,0.010460
18905000,0.0324,0.013523,0.002678,0.000431,0.010342
18906000,0.0324,0.013523,0.002678,0.000431,0.010460
18907000,0.0324,0.013523,0.002678,0.000431,0.011048
18908000,0.0324,0.013523,0.002678,0.000431,0.009755
18909000,0.0324,0.013523,0.002678,0.000431,0.011048
18910000,0.0324,0.013523,0.002678,0.000431,0.010695
18911000,0.0324,0.013523,0.002678,0.000431,0.009872
18912000,0.0324,0.013523,0.002678,0.000431,0.010813
18913000,0.0324,0.013523,0.002678,0.000431,0.010225
18914000,0.0324,0.013523,0.002678,0.000431,0.011165
18915000,0.0324,0.013523,0.002678,0.000431,0.010225
18916000,0.0324,0.013523,0.002678,0.000431,0.010930
18917000,0.0324,0.013523,0.002678,0.000431,0.011400
18918000,0.0324,0.013523,0.002678,0.000431,0.009990
18919000,0.0324,0.013523,0.002678,0.000431,0.009402
18920000,0.0324,0.013523,0.002678,0.000431,0.010342
18921000,0.0324,0.013523,0.002678,0.000431,0.010107
18922000,0.0324,0.013523,0.002678,0.000431,0.009990
18923000,0.0324,0.013523,0.002678,0.000431,0.011988
18924000,0.0324,0.013523,0.002678,0.000431,0.010695
18925000,0.0324,0.013523,0.002678,0.000431,0.010578
18926000,0.0324,0.013523,0.002678,0.000431,0.011400
18927000,0.0324,0.013523,0.002678,0.000431,0.008697
18928000,0.0324,0.013523,0.002678,0.000431,0.012458
18929000,0.0324,0.013523,0.002678,0.000431,0.010930
18930000,0.0324,0.013523,0.002678,0.000431,0.010695
18931000,0.0324,0.013523,0.002678,0.000431,0.010695
18932000,0.0324,0.013523,0.002678,0.000431,0.010460
18933000,0.0324,0.013523,0.002678,0.000431,0.010342
18934000,0.0324,0.013523,0.002678,0.000431,0.011400
18935000,0.0324,0.013523,0.002678,0.000431,0.012340
18936000,0.0324,0.013523,0.002678,0.000431,0.009755
18937000,0.0324,0.013523,0.002678,0.000431,0.011635
18938000,0.0324,0.013523,0.002678,0.000431,0.010460
18939000,0.0324,0.013523,0.002678,0.000431,0.011635
18940000,0.0324,0.013523,0.002678,0.000431,0.010342
18941000,0.0324,0.013523,0.002678,0.000431,0.010342
18942000,0.0324,0.013523,0.002678,0.000431,0.010695
18943000,0.0324,0.013523,0.002678,0.000431,0.010578
18944000,0.0324,0.013523,0.002678,0.000431,0.009637
18945000,0.0324,0.013523,0.002678,0.000431,0.011165
18946000,0.0324,0.013523,0.002678,0.000431,0.011753
18947000,0.0324,0.013523,0.002678,0.000431,0.010813
18948000,0.0324,0.013523,0.002678,0.000431,0.011400
18949000,0.0324,0.013523,0.002678,0.000431,0.010342
18950000,0.0324,0.013523,0.002678,0.000431,0.010107
18951000,0.0324,0.013523,0.002678,0.000431,0.010930
18952000,0.0324,0.013523,0.002678,0.000431,0.010930
18953000,0.0324,0.013523,0.002678,0.000431,0.012340
18954000,0.0324,0.013523,0.002678,0.000431,0.010813
18955000,0.0324,0.013523,0.002678,0.000431,0.010930
18956000,0.0324,0.013523,0.002678,0.000431,0.010813
18957000,0.0324,0.013523,0.002678,0.000431,0.011518
18958000,0.0324,0.013523,0.002678,0.000431,0.010225
18959000,0.0324,0.013523,0.002678,0.000431,0.010695
18960000,0.0324,0.013523,0.002678,0.000431,0.010930
18961000,0.0324,0.013523,0.002678,0.000431,0.009637
18962000,0.0324,0.013523,0.002678,0.000431,0.010578
18963000,0.0324,0.013523,0.002678,0.000431,0.010342
18964000,0.0324,0.013523,0.002678,0.000431,0.011635
18965000,0.0324,0.013523,0.002678,0.000431,0.012693
18966000,0.0324,0.013523,0.002678,0.000431,0.009637
18967000,0.0324,0.013523,0.002678,0.000431,0.010695
18968000,0.0324,0.013523,0.002678,0.000431,0.010578
18969000,0.0324,0.013523,0.002678,0.000431,0.010578
18970000,0.0324,0.013523,0.002678,0.000431,0.012458
18971000,0.0324,0.013523,0.002678,0.000431,0.011400
18972000,0.0324,0.013523,0.002678,0.000431,0.009520
18973000,0.0324,0.013523,0.002678,0.000431,0.010578
18974000,0.0324,0.013523,0.002678,0.000431,0.011283
18975000,0.0324,0.013523,0.002678,0.000431,0.010342
18976000,0.0324,0.013523,0.002678,0.000431,0.011635
18977000,0.0324,0.013523,0.002678,0.000431,0.009637
18978000,0.0324,0.013523,0.002678,0.000431,0.010225
18979000,0.0324,0.013523,0.002678,0.000431,0.010342
18980000,0.0324,0.013523,0.002678,0.000431,0.009872
18981000,0.0324,0.013523,0.002678,0.000431,0.011988
18982000,0.0324,0.013523,0.002678,0.000431,0.011400
18983000,0.0324,0.013523,0.002678,0.000431,0.010813
18984000,0.0324,0.013523,0.002678,0.000431,0.010107
18985000,0.0324,0.013523,0.002678,0.000431,0.010460
18986000,0.0324,0.013523,0.002678,0.000431,0.010342
18987000,0.0324,0.013523,0.002678,0.000431,0.011753
18988000,0.0324,0.013523,0.002678,0.000431,0.011165
18989000,0.0324,0.013523,0.002678,0.000431,0.010813
18990000,0.0324,0.013523,0.002678,0.000431,0.009990
18991000,0.0324,0.013523,0.002678,0.000431,0.010578
18992000,0.0324,0.013523,0.002678,0.000431,0.010813
18993000,0.0324,0.013523,0.002678,0.000431,0.010342
18994000,0.0324,0.013523,0.002678,0.000431,0.010342
18995000,0.0324,0.013523,0.002678,0.000431,0.010813
18996000,0.0324,0.013523,0.002678,0.000431,0.010460
18997000,0.0324,0.013523,0.002678,0.000431,0.009872
18998000,0.0324,0.013523,0.002678,0.000431,0.011635
18999000,0.0324,0.013523,0.002678,0.000431,0.010930
