Cycle,Area(mm^2),PeakDynamic(W),SubthresholdLeakage(W),GateLeakage(W),RunTimeDynamic(W)
10000000,0.0324,0.013523,0.002678,0.000431,0.032438
10001000,0.0324,0.013523,0.002678,0.000431,0.036786
10002000,0.0324,0.013523,0.002678,0.000431,0.035376
10003000,0.0324,0.013523,0.002678,0.000431,0.033496
10004000,0.0324,0.013523,0.002678,0.000431,0.034083
10005000,0.0324,0.013523,0.002678,0.000431,0.033378
10006000,0.0324,0.013523,0.002678,0.000431,0.033025
10007000,0.0324,0.013523,0.002678,0.000431,0.034553
10008000,0.0324,0.013523,0.002678,0.000431,0.034553
10009000,0.0324,0.013523,0.002678,0.000431,0.034553
10010000,0.0324,0.013523,0.002678,0.000431,0.035141
10011000,0.0324,0.013523,0.002678,0.000431,0.034318
10012000,0.0324,0.013523,0.002678,0.000431,0.032203
10013000,0.0324,0.013523,0.002678,0.000431,0.035376
10014000,0.0324,0.013523,0.002678,0.000431,0.033025
10015000,0.0324,0.013523,0.002678,0.000431,0.034318
10016000,0.0324,0.013523,0.002678,0.000431,0.031968
10017000,0.0324,0.013523,0.002678,0.000431,0.035729
10018000,0.0324,0.013523,0.002678,0.000431,0.034318
10019000,0.0324,0.013523,0.002678,0.000431,0.033848
10020000,0.0324,0.013523,0.002678,0.000431,0.033966
10021000,0.0324,0.013523,0.002678,0.000431,0.031380
10022000,0.0324,0.013523,0.002678,0.000431,0.033848
10023000,0.0324,0.013523,0.002678,0.000431,0.034553
10024000,0.0324,0.013523,0.002678,0.000431,0.035611
10025000,0.0324,0.013523,0.002678,0.000431,0.033848
10026000,0.0324,0.013523,0.002678,0.000431,0.035141
10027000,0.0324,0.013523,0.002678,0.000431,0.032790
10028000,0.0324,0.013523,0.002678,0.000431,0.034083
10029000,0.0324,0.013523,0.002678,0.000431,0.034201
10030000,0.0324,0.013523,0.002678,0.000431,0.034201
10031000,0.0324,0.013523,0.002678,0.000431,0.033378
10032000,0.0324,0.013523,0.002678,0.000431,0.032438
10033000,0.0324,0.013523,0.002678,0.000431,0.033613
10034000,0.0324,0.013523,0.002678,0.000431,0.033966
10035000,0.0324,0.013523,0.002678,0.000431,0.032673
10036000,0.0324,0.013523,0.002678,0.000431,0.036316
10037000,0.0324,0.013523,0.002678,0.000431,0.033025
10038000,0.0324,0.013523,0.002678,0.000431,0.032673
10039000,0.0324,0.013523,0.002678,0.000431,0.035964
10040000,0.0324,0.013523,0.002678,0.000431,0.035611
10041000,0.0324,0.013523,0.002678,0.000431,0.035258
10042000,0.0324,0.013523,0.002678,0.000431,0.034436
10043000,0.0324,0.013523,0.002678,0.000431,0.035023
10044000,0.0324,0.013523,0.002678,0.000431,0.034906
10045000,0.0324,0.013523,0.002678,0.000431,0.033143
10046000,0.0324,0.013523,0.002678,0.000431,0.034553
10047000,0.0324,0.013523,0.002678,0.000431,0.033260
10048000,0.0324,0.013523,0.002678,0.000431,0.031027
10049000,0.0324,0.013523,0.002678,0.000431,0.034906
10050000,0.0324,0.013523,0.002678,0.000431,0.033613
10051000,0.0324,0.013523,0.002678,0.000431,0.032555
10052000,0.0324,0.013523,0.002678,0.000431,0.035494
10053000,0.0324,0.013523,0.002678,0.000431,0.036669
10054000,0.0324,0.013523,0.002678,0.000431,0.035023
10055000,0.0324,0.013523,0.002678,0.000431,0.035023
10056000,0.0324,0.013523,0.002678,0.000431,0.034788
10057000,0.0324,0.013523,0.002678,0.000431,0.034788
10058000,0.0324,0.013523,0.002678,0.000431,0.034318
10059000,0.0324,0.013523,0.002678,0.000431,0.035141
10060000,0.0324,0.013523,0.002678,0.000431,0.036316
10061000,0.0324,0.013523,0.002678,0.000431,0.036081
10062000,0.0324,0.013523,0.002678,0.000431,0.033496
10063000,0.0324,0.013523,0.002678,0.000431,0.032555
10064000,0.0324,0.013523,0.002678,0.000431,0.032908
10065000,0.0324,0.013523,0.002678,0.000431,0.036669
10066000,0.0324,0.013523,0.002678,0.000431,0.033143
10067000,0.0324,0.013523,0.002678,0.000431,0.032438
10068000,0.0324,0.013523,0.002678,0.000431,0.032673
10069000,0.0324,0.013523,0.002678,0.000431,0.032203
10070000,0.0324,0.013523,0.002678,0.000431,0.030322
10071000,0.0324,0.013523,0.002678,0.000431,0.031968
10072000,0.0324,0.013523,0.002678,0.000431,0.031498
10073000,0.0324,0.013523,0.002678,0.000431,0.036786
10074000,0.0324,0.013523,0.002678,0.000431,0.030675
10075000,0.0324,0.013523,0.002678,0.000431,0.032085
10076000,0.0324,0.013523,0.002678,0.000431,0.032908
10077000,0.0324,0.013523,0.002678,0.000431,0.033496
10078000,0.0324,0.013523,0.002678,0.000431,0.031615
10079000,0.0324,0.013523,0.002678,0.000431,0.033260
10080000,0.0324,0.013523,0.002678,0.000431,0.032908
10081000,0.0324,0.013523,0.002678,0.000431,0.034083
10082000,0.0324,0.013523,0.002678,0.000431,0.033496
10083000,0.0324,0.013523,0.002678,0.000431,0.031615
10084000,0.0324,0.013523,0.002678,0.000431,0.032320
10085000,0.0324,0.013523,0.002678,0.000431,0.031145
10086000,0.0324,0.013523,0.002678,0.000431,0.034436
10087000,0.0324,0.013523,0.002678,0.000431,0.031968
10088000,0.0324,0.013523,0.002678,0.000431,0.031380
10089000,0.0324,0.013523,0.002678,0.000431,0.029852
10090000,0.0324,0.013523,0.002678,0.000431,0.035023
10091000,0.0324,0.013523,0.002678,0.000431,0.032908
10092000,0.0324,0.013523,0.002678,0.000431,0.032085
10093000,0.0324,0.013523,0.002678,0.000431,0.032673
10094000,0.0324,0.013523,0.002678,0.000431,0.030910
10095000,0.0324,0.013523,0.002678,0.000431,0.030792
10096000,0.0324,0.013523,0.002678,0.000431,0.032203
10097000,0.0324,0.013523,0.002678,0.000431,0.032438
10098000,0.0324,0.013523,0.002678,0.000431,0.033260
10099000,0.0324,0.013523,0.002678,0.000431,0.031850
10100000,0.0324,0.013523,0.002678,0.000431,0.030322
10101000,0.0324,0.013523,0.002678,0.000431,0.032790
10102000,0.0324,0.013523,0.002678,0.000431,0.032085
10103000,0.0324,0.013523,0.002678,0.000431,0.031733
10104000,0.0324,0.013523,0.002678,0.000431,0.031145
10105000,0.0324,0.013523,0.002678,0.000431,0.030557
10106000,0.0324,0.013523,0.002678,0.000431,0.031380
10107000,0.0324,0.013523,0.002678,0.000431,0.033143
10108000,0.0324,0.013523,0.002678,0.000431,0.031968
10109000,0.0324,0.013523,0.002678,0.000431,0.032790
10110000,0.0324,0.013523,0.002678,0.000431,0.031027
10111000,0.0324,0.013523,0.002678,0.000431,0.032320
10112000,0.0324,0.013523,0.002678,0.000431,0.030322
10113000,0.0324,0.013523,0.002678,0.000431,0.033378
10114000,0.0324,0.013523,0.002678,0.000431,0.031733
10115000,0.0324,0.013523,0.002678,0.000431,0.029500
10116000,0.0324,0.013523,0.002678,0.000431,0.032673
10117000,0.0324,0.013523,0.002678,0.000431,0.032438
10118000,0.0324,0.013523,0.002678,0.000431,0.031968
10119000,0.0324,0.013523,0.002678,0.000431,0.033143
10120000,0.0324,0.013523,0.002678,0.000431,0.029617
10121000,0.0324,0.013523,0.002678,0.000431,0.033025
10122000,0.0324,0.013523,0.002678,0.000431,0.032438
10123000,0.0324,0.013523,0.002678,0.000431,0.033496
10124000,0.0324,0.013523,0.002678,0.000431,0.032908
10125000,0.0324,0.013523,0.002678,0.000431,0.031733
10126000,0.0324,0.013523,0.002678,0.000431,0.033496
10127000,0.0324,0.013523,0.002678,0.000431,0.033025
10128000,0.0324,0.013523,0.002678,0.000431,0.030557
10129000,0.0324,0.013523,0.002678,0.000431,0.032320
10130000,0.0324,0.013523,0.002678,0.000431,0.031968
10131000,0.0324,0.013523,0.002678,0.000431,0.032673
10132000,0.0324,0.013523,0.002678,0.000431,0.032908
10133000,0.0324,0.013523,0.002678,0.000431,0.036081
10134000,0.0324,0.013523,0.002678,0.000431,0.030322
10135000,0.0324,0.013523,0.002678,0.000431,0.031145
10136000,0.0324,0.013523,0.002678,0.000431,0.031733
10137000,0.0324,0.013523,0.002678,0.000431,0.032555
10138000,0.0324,0.013523,0.002678,0.000431,0.032673
10139000,0.0324,0.013523,0.002678,0.000431,0.030910
10140000,0.0324,0.013523,0.002678,0.000431,0.030557
10141000,0.0324,0.013523,0.002678,0.000431,0.031850
10142000,0.0324,0.013523,0.002678,0.000431,0.033731
10143000,0.0324,0.013523,0.002678,0.000431,0.032673
10144000,0.0324,0.013523,0.002678,0.000431,0.030557
10145000,0.0324,0.013523,0.002678,0.000431,0.034318
10146000,0.0324,0.013523,0.002678,0.000431,0.032085
10147000,0.0324,0.013523,0.002678,0.000431,0.033025
10148000,0.0324,0.013523,0.002678,0.000431,0.032085
10149000,0.0324,0.013523,0.002678,0.000431,0.032320
10150000,0.0324,0.013523,0.002678,0.000431,0.032085
10151000,0.0324,0.013523,0.002678,0.000431,0.030205
10152000,0.0324,0.013523,0.002678,0.000431,0.032085
10153000,0.0324,0.013523,0.002678,0.000431,0.032790
10154000,0.0324,0.013523,0.002678,0.000431,0.032203
10155000,0.0324,0.013523,0.002678,0.000431,0.034788
10156000,0.0324,0.013523,0.002678,0.000431,0.032438
10157000,0.0324,0.013523,0.002678,0.000431,0.033025
10158000,0.0324,0.013523,0.002678,0.000431,0.032555
10159000,0.0324,0.013523,0.002678,0.000431,0.031027
10160000,0.0324,0.013523,0.002678,0.000431,0.032555
10161000,0.0324,0.013523,0.002678,0.000431,0.032203
10162000,0.0324,0.013523,0.002678,0.000431,0.032320
10163000,0.0324,0.013523,0.002678,0.000431,0.031968
10164000,0.0324,0.013523,0.002678,0.000431,0.031733
10165000,0.0324,0.013523,0.002678,0.000431,0.032673
10166000,0.0324,0.013523,0.002678,0.000431,0.031733
10167000,0.0324,0.013523,0.002678,0.000431,0.031615
10168000,0.0324,0.013523,0.002678,0.000431,0.030322
10169000,0.0324,0.013523,0.002678,0.000431,0.032790
10170000,0.0324,0.013523,0.002678,0.000431,0.031733
10171000,0.0324,0.013523,0.002678,0.000431,0.031968
10172000,0.0324,0.013523,0.002678,0.000431,0.030557
10173000,0.0324,0.013523,0.002678,0.000431,0.032085
10174000,0.0324,0.013523,0.002678,0.000431,0.032908
10175000,0.0324,0.013523,0.002678,0.000431,0.033496
10176000,0.0324,0.013523,0.002678,0.000431,0.030675
10177000,0.0324,0.013523,0.002678,0.000431,0.030792
10178000,0.0324,0.013523,0.002678,0.000431,0.032790
10179000,0.0324,0.013523,0.002678,0.000431,0.033143
10180000,0.0324,0.013523,0.002678,0.000431,0.033966
10181000,0.0324,0.013523,0.002678,0.000431,0.031968
10182000,0.0324,0.013523,0.002678,0.000431,0.032555
10183000,0.0324,0.013523,0.002678,0.000431,0.033025
10184000,0.0324,0.013523,0.002678,0.000431,0.032085
10185000,0.0324,0.013523,0.002678,0.000431,0.030440
10186000,0.0324,0.013523,0.002678,0.000431,0.034788
10187000,0.0324,0.013523,0.002678,0.000431,0.029970
10188000,0.0324,0.013523,0.002678,0.000431,0.033378
10189000,0.0324,0.013523,0.002678,0.000431,0.033025
10190000,0.0324,0.013523,0.002678,0.000431,0.033260
10191000,0.0324,0.013523,0.002678,0.000431,0.031145
10192000,0.0324,0.013523,0.002678,0.000431,0.031262
10193000,0.0324,0.013523,0.002678,0.000431,0.032320
10194000,0.0324,0.013523,0.002678,0.000431,0.034318
10195000,0.0324,0.013523,0.002678,0.000431,0.032673
10196000,0.0324,0.013523,0.002678,0.000431,0.031380
10197000,0.0324,0.013523,0.002678,0.000431,0.032790
10198000,0.0324,0.013523,0.002678,0.000431,0.032203
10199000,0.0324,0.013523,0.002678,0.000431,0.031380
10200000,0.0324,0.013523,0.002678,0.000431,0.032555
10201000,0.0324,0.013523,0.002678,0.000431,0.032555
10202000,0.0324,0.013523,0.002678,0.000431,0.031498
10203000,0.0324,0.013523,0.002678,0.000431,0.031615
10204000,0.0324,0.013523,0.002678,0.000431,0.033025
10205000,0.0324,0.013523,0.002678,0.000431,0.031262
10206000,0.0324,0.013523,0.002678,0.000431,0.033025
10207000,0.0324,0.013523,0.002678,0.000431,0.033613
10208000,0.0324,0.013523,0.002678,0.000431,0.030910
10209000,0.0324,0.013523,0.002678,0.000431,0.032203
10210000,0.0324,0.013523,0.002678,0.000431,0.034083
10211000,0.0324,0.013523,0.002678,0.000431,0.032908
10212000,0.0324,0.013523,0.002678,0.000431,0.030792
10213000,0.0324,0.013523,0.002678,0.000431,0.030205
10214000,0.0324,0.013523,0.002678,0.000431,0.031850
10215000,0.0324,0.013523,0.002678,0.000431,0.033378
10216000,0.0324,0.013523,0.002678,0.000431,0.032438
10217000,0.0324,0.013523,0.002678,0.000431,0.035141
10218000,0.0324,0.013523,0.002678,0.000431,0.031027
10219000,0.0324,0.013523,0.002678,0.000431,0.032320
10220000,0.0324,0.013523,0.002678,0.000431,0.032908
10221000,0.0324,0.013523,0.002678,0.000431,0.031380
10222000,0.0324,0.013523,0.002678,0.000431,0.032673
10223000,0.0324,0.013523,0.002678,0.000431,0.030910
10224000,0.0324,0.013523,0.002678,0.000431,0.029029
10225000,0.0324,0.013523,0.002678,0.000431,0.030557
10226000,0.0324,0.013523,0.002678,0.000431,0.032908
10227000,0.0324,0.013523,0.002678,0.000431,0.031615
10228000,0.0324,0.013523,0.002678,0.000431,0.031498
10229000,0.0324,0.013523,0.002678,0.000431,0.030205
10230000,0.0324,0.013523,0.002678,0.000431,0.029265
10231000,0.0324,0.013523,0.002678,0.000431,0.032673
10232000,0.0324,0.013523,0.002678,0.000431,0.030910
10233000,0.0324,0.013523,0.002678,0.000431,0.031145
10234000,0.0324,0.013523,0.002678,0.000431,0.032203
10235000,0.0324,0.013523,0.002678,0.000431,0.032790
10236000,0.0324,0.013523,0.002678,0.000431,0.032555
10237000,0.0324,0.013523,0.002678,0.000431,0.028794
10238000,0.0324,0.013523,0.002678,0.000431,0.033731
10239000,0.0324,0.013523,0.002678,0.000431,0.030322
10240000,0.0324,0.013523,0.002678,0.000431,0.028912
10241000,0.0324,0.013523,0.002678,0.000431,0.032555
10242000,0.0324,0.013523,0.002678,0.000431,0.029852
10243000,0.0324,0.013523,0.002678,0.000431,0.031733
10244000,0.0324,0.013523,0.002678,0.000431,0.030675
10245000,0.0324,0.013523,0.002678,0.000431,0.030792
10246000,0.0324,0.013523,0.002678,0.000431,0.035023
10247000,0.0324,0.013523,0.002678,0.000431,0.033143
10248000,0.0324,0.013523,0.002678,0.000431,0.029500
10249000,0.0324,0.013523,0.002678,0.000431,0.031615
10250000,0.0324,0.013523,0.002678,0.000431,0.030440
10251000,0.0324,0.013523,0.002678,0.000431,0.031968
10252000,0.0324,0.013523,0.002678,0.000431,0.030205
10253000,0.0324,0.013523,0.002678,0.000431,0.030087
10254000,0.0324,0.013523,0.002678,0.000431,0.030910
10255000,0.0324,0.013523,0.002678,0.000431,0.031615
10256000,0.0324,0.013523,0.002678,0.000431,0.030792
10257000,0.0324,0.013523,0.002678,0.000431,0.028912
10258000,0.0324,0.013523,0.002678,0.000431,0.032085
10259000,0.0324,0.013523,0.002678,0.000431,0.032085
10260000,0.0324,0.013523,0.002678,0.000431,0.030322
10261000,0.0324,0.013523,0.002678,0.000431,0.030205
10262000,0.0324,0.013523,0.002678,0.000431,0.029617
10263000,0.0324,0.013523,0.002678,0.000431,0.030440
10264000,0.0324,0.013523,0.002678,0.000431,0.034201
10265000,0.0324,0.013523,0.002678,0.000431,0.030910
10266000,0.0324,0.013523,0.002678,0.000431,0.029382
10267000,0.0324,0.013523,0.002678,0.000431,0.030792
10268000,0.0324,0.013523,0.002678,0.000431,0.028207
10269000,0.0324,0.013523,0.002678,0.000431,0.031615
10270000,0.0324,0.013523,0.002678,0.000431,0.031733
10271000,0.0324,0.013523,0.002678,0.000431,0.030675
10272000,0.0324,0.013523,0.002678,0.000431,0.032673
10273000,0.0324,0.013523,0.002678,0.000431,0.029147
10274000,0.0324,0.013523,0.002678,0.000431,0.029617
10275000,0.0324,0.013523,0.002678,0.000431,0.029382
10276000,0.0324,0.013523,0.002678,0.000431,0.029970
10277000,0.0324,0.013523,0.002678,0.000431,0.032438
10278000,0.0324,0.013523,0.002678,0.000431,0.031145
10279000,0.0324,0.013523,0.002678,0.000431,0.031615
10280000,0.0324,0.013523,0.002678,0.000431,0.030087
10281000,0.0324,0.013523,0.002678,0.000431,0.029265
10282000,0.0324,0.013523,0.002678,0.000431,0.030322
10283000,0.0324,0.013523,0.002678,0.000431,0.034083
10284000,0.0324,0.013523,0.002678,0.000431,0.030440
10285000,0.0324,0.013523,0.002678,0.000431,0.030557
10286000,0.0324,0.013523,0.002678,0.000431,0.032908
10287000,0.0324,0.013523,0.002678,0.000431,0.030910
10288000,0.0324,0.013523,0.002678,0.000431,0.030910
10289000,0.0324,0.013523,0.002678,0.000431,0.030675
10290000,0.0324,0.013523,0.002678,0.000431,0.030205
10291000,0.0324,0.013523,0.002678,0.000431,0.032085
10292000,0.0324,0.013523,0.002678,0.000431,0.029970
10293000,0.0324,0.013523,0.002678,0.000431,0.028912
10294000,0.0324,0.013523,0.002678,0.000431,0.031262
10295000,0.0324,0.013523,0.002678,0.000431,0.030440
10296000,0.0324,0.013523,0.002678,0.000431,0.028794
10297000,0.0324,0.013523,0.002678,0.000431,0.032555
10298000,0.0324,0.013523,0.002678,0.000431,0.028677
10299000,0.0324,0.013523,0.002678,0.000431,0.032320
10300000,0.0324,0.013523,0.002678,0.000431,0.031027
10301000,0.0324,0.013523,0.002678,0.000431,0.031145
10302000,0.0324,0.013523,0.002678,0.000431,0.030557
10303000,0.0324,0.013523,0.002678,0.000431,0.031145
10304000,0.0324,0.013523,0.002678,0.000431,0.031733
10305000,0.0324,0.013523,0.002678,0.000431,0.030910
10306000,0.0324,0.013523,0.002678,0.000431,0.030675
10307000,0.0324,0.013523,0.002678,0.000431,0.029852
10308000,0.0324,0.013523,0.002678,0.000431,0.030675
10309000,0.0324,0.013523,0.002678,0.000431,0.030440
10310000,0.0324,0.013523,0.002678,0.000431,0.031027
10311000,0.0324,0.013523,0.002678,0.000431,0.030557
10312000,0.0324,0.013523,0.002678,0.000431,0.030910
10313000,0.0324,0.013523,0.002678,0.000431,0.030087
10314000,0.0324,0.013523,0.002678,0.000431,0.028442
10315000,0.0324,0.013523,0.002678,0.000431,0.029500
10316000,0.0324,0.013523,0.002678,0.000431,0.028794
10317000,0.0324,0.013523,0.002678,0.000431,0.031733
10318000,0.0324,0.013523,0.002678,0.000431,0.032203
10319000,0.0324,0.013523,0.002678,0.000431,0.030440
10320000,0.0324,0.013523,0.002678,0.000431,0.029265
10321000,0.0324,0.013523,0.002678,0.000431,0.029147
10322000,0.0324,0.013523,0.002678,0.000431,0.031380
10323000,0.0324,0.013523,0.002678,0.000431,0.031498
10324000,0.0324,0.013523,0.002678,0.000431,0.031145
10325000,0.0324,0.013523,0.002678,0.000431,0.029735
10326000,0.0324,0.013523,0.002678,0.000431,0.027384
10327000,0.0324,0.013523,0.002678,0.000431,0.029617
10328000,0.0324,0.013523,0.002678,0.000431,0.029970
10329000,0.0324,0.013523,0.002678,0.000431,0.028794
10330000,0.0324,0.013523,0.002678,0.000431,0.029970
10331000,0.0324,0.013523,0.002678,0.000431,0.029029
10332000,0.0324,0.013523,0.002678,0.000431,0.027149
10333000,0.0324,0.013523,0.002678,0.000431,0.030792
10334000,0.0324,0.013523,0.002678,0.000431,0.029500
10335000,0.0324,0.013523,0.002678,0.000431,0.030675
10336000,0.0324,0.013523,0.002678,0.000431,0.030792
10337000,0.0324,0.013523,0.002678,0.000431,0.029265
10338000,0.0324,0.013523,0.002678,0.000431,0.030440
10339000,0.0324,0.013523,0.002678,0.000431,0.029500
10340000,0.0324,0.013523,0.002678,0.000431,0.029265
10341000,0.0324,0.013523,0.002678,0.000431,0.031027
10342000,0.0324,0.013523,0.002678,0.000431,0.028559
10343000,0.0324,0.013523,0.002678,0.000431,0.028324
10344000,0.0324,0.013523,0.002678,0.000431,0.030322
10345000,0.0324,0.013523,0.002678,0.000431,0.030440
10346000,0.0324,0.013523,0.002678,0.000431,0.030205
10347000,0.0324,0.013523,0.002678,0.000431,0.027854
10348000,0.0324,0.013523,0.002678,0.000431,0.029970
10349000,0.0324,0.013523,0.002678,0.000431,0.029029
10350000,0.0324,0.013523,0.002678,0.000431,0.030322
10351000,0.0324,0.013523,0.002678,0.000431,0.030675
10352000,0.0324,0.013523,0.002678,0.000431,0.028089
10353000,0.0324,0.013523,0.002678,0.000431,0.027737
10354000,0.0324,0.013523,0.002678,0.000431,0.028324
10355000,0.0324,0.013523,0.002678,0.000431,0.028794
10356000,0.0324,0.013523,0.002678,0.000431,0.028912
10357000,0.0324,0.013523,0.002678,0.000431,0.027737
10358000,0.0324,0.013523,0.002678,0.000431,0.026679
10359000,0.0324,0.013523,0.002678,0.000431,0.031498
10360000,0.0324,0.013523,0.002678,0.000431,0.028794
10361000,0.0324,0.013523,0.002678,0.000431,0.030675
10362000,0.0324,0.013523,0.002678,0.000431,0.029265
10363000,0.0324,0.013523,0.002678,0.000431,0.028912
10364000,0.0324,0.013523,0.002678,0.000431,0.029147
10365000,0.0324,0.013523,0.002678,0.000431,0.029970
10366000,0.0324,0.013523,0.002678,0.000431,0.029970
10367000,0.0324,0.013523,0.002678,0.000431,0.027854
10368000,0.0324,0.013523,0.002678,0.000431,0.031380
10369000,0.0324,0.013523,0.002678,0.000431,0.028324
10370000,0.0324,0.013523,0.002678,0.000431,0.030675
10371000,0.0324,0.013523,0.002678,0.000431,0.028442
10372000,0.0324,0.013523,0.002678,0.000431,0.030087
10373000,0.0324,0.013523,0.002678,0.000431,0.029617
10374000,0.0324,0.013523,0.002678,0.000431,0.028677
10375000,0.0324,0.013523,0.002678,0.000431,0.032673
10376000,0.0324,0.013523,0.002678,0.000431,0.029147
10377000,0.0324,0.013523,0.002678,0.000431,0.029029
10378000,0.0324,0.013523,0.002678,0.000431,0.026914
10379000,0.0324,0.013523,0.002678,0.000431,0.029617
10380000,0.0324,0.013523,0.002678,0.000431,0.028442
10381000,0.0324,0.013523,0.002678,0.000431,0.029617
10382000,0.0324,0.013523,0.002678,0.000431,0.030322
10383000,0.0324,0.013523,0.002678,0.000431,0.027972
10384000,0.0324,0.013523,0.002678,0.000431,0.028677
10385000,0.0324,0.013523,0.002678,0.000431,0.029382
10386000,0.0324,0.013523,0.002678,0.000431,0.029735
10387000,0.0324,0.013523,0.002678,0.000431,0.030322
10388000,0.0324,0.013523,0.002678,0.000431,0.030205
10389000,0.0324,0.013523,0.002678,0.000431,0.030792
10390000,0.0324,0.013523,0.002678,0.000431,0.031380
10391000,0.0324,0.013523,0.002678,0.000431,0.029617
10392000,0.0324,0.013523,0.002678,0.000431,0.028324
10393000,0.0324,0.013523,0.002678,0.000431,0.031850
10394000,0.0324,0.013523,0.002678,0.000431,0.029147
10395000,0.0324,0.013523,0.002678,0.000431,0.030910
10396000,0.0324,0.013523,0.002678,0.000431,0.029970
10397000,0.0324,0.013523,0.002678,0.000431,0.027384
10398000,0.0324,0.013523,0.002678,0.000431,0.029500
10399000,0.0324,0.013523,0.002678,0.000431,0.027619
10400000,0.0324,0.013523,0.002678,0.000431,0.029382
10401000,0.0324,0.013523,0.002678,0.000431,0.027854
10402000,0.0324,0.013523,0.002678,0.000431,0.031145
10403000,0.0324,0.013523,0.002678,0.000431,0.028677
10404000,0.0324,0.013523,0.002678,0.000431,0.028912
10405000,0.0324,0.013523,0.002678,0.000431,0.029382
10406000,0.0324,0.013523,0.002678,0.000431,0.026914
10407000,0.0324,0.013523,0.002678,0.000431,0.031380
10408000,0.0324,0.013523,0.002678,0.000431,0.030322
10409000,0.0324,0.013523,0.002678,0.000431,0.028324
10410000,0.0324,0.013523,0.002678,0.000431,0.029852
10411000,0.0324,0.013523,0.002678,0.000431,0.029617
10412000,0.0324,0.013523,0.002678,0.000431,0.028912
10413000,0.0324,0.013523,0.002678,0.000431,0.030675
10414000,0.0324,0.013523,0.002678,0.000431,0.031262
10415000,0.0324,0.013523,0.002678,0.000431,0.030322
10416000,0.0324,0.013523,0.002678,0.000431,0.027972
10417000,0.0324,0.013523,0.002678,0.000431,0.028677
10418000,0.0324,0.013523,0.002678,0.000431,0.028324
10419000,0.0324,0.013523,0.002678,0.000431,0.029029
10420000,0.0324,0.013523,0.002678,0.000431,0.029029
10421000,0.0324,0.013523,0.002678,0.000431,0.030087
10422000,0.0324,0.013523,0.002678,0.000431,0.028089
10423000,0.0324,0.013523,0.002678,0.000431,0.030087
10424000,0.0324,0.013523,0.002678,0.000431,0.033731
10425000,0.0324,0.013523,0.002678,0.000431,0.029500
10426000,0.0324,0.013523,0.002678,0.000431,0.028912
10427000,0.0324,0.013523,0.002678,0.000431,0.028207
10428000,0.0324,0.013523,0.002678,0.000431,0.031145
10429000,0.0324,0.013523,0.002678,0.000431,0.029147
10430000,0.0324,0.013523,0.002678,0.000431,0.029617
10431000,0.0324,0.013523,0.002678,0.000431,0.030792
10432000,0.0324,0.013523,0.002678,0.000431,0.029735
10433000,0.0324,0.013523,0.002678,0.000431,0.029265
10434000,0.0324,0.013523,0.002678,0.000431,0.030675
10435000,0.0324,0.013523,0.002678,0.000431,0.028442
10436000,0.0324,0.013523,0.002678,0.000431,0.031968
10437000,0.0324,0.013523,0.002678,0.000431,0.029852
10438000,0.0324,0.013523,0.002678,0.000431,0.028207
10439000,0.0324,0.013523,0.002678,0.000431,0.027384
10440000,0.0324,0.013523,0.002678,0.000431,0.029617
10441000,0.0324,0.013523,0.002678,0.000431,0.030205
10442000,0.0324,0.013523,0.002678,0.000431,0.028207
10443000,0.0324,0.013523,0.002678,0.000431,0.028912
10444000,0.0324,0.013523,0.002678,0.000431,0.029617
10445000,0.0324,0.013523,0.002678,0.000431,0.032203
10446000,0.0324,0.013523,0.002678,0.000431,0.029617
10447000,0.0324,0.013523,0.002678,0.000431,0.028207
10448000,0.0324,0.013523,0.002678,0.000431,0.027384
10449000,0.0324,0.013523,0.002678,0.000431,0.030322
10450000,0.0324,0.013523,0.002678,0.000431,0.030087
10451000,0.0324,0.013523,0.002678,0.000431,0.030675
10452000,0.0324,0.013523,0.002678,0.000431,0.030322
10453000,0.0324,0.013523,0.002678,0.000431,0.029500
10454000,0.0324,0.013523,0.002678,0.000431,0.031380
10455000,0.0324,0.013523,0.002678,0.000431,0.028089
10456000,0.0324,0.013523,0.002678,0.000431,0.032555
10457000,0.0324,0.013523,0.002678,0.000431,0.029265
10458000,0.0324,0.013523,0.002678,0.000431,0.029617
10459000,0.0324,0.013523,0.002678,0.000431,0.029265
10460000,0.0324,0.013523,0.002678,0.000431,0.029029
10461000,0.0324,0.013523,0.002678,0.000431,0.029265
10462000,0.0324,0.013523,0.002678,0.000431,0.028794
10463000,0.0324,0.013523,0.002678,0.000431,0.028089
10464000,0.0324,0.013523,0.002678,0.000431,0.029500
10465000,0.0324,0.013523,0.002678,0.000431,0.028324
10466000,0.0324,0.013523,0.002678,0.000431,0.026796
10467000,0.0324,0.013523,0.002678,0.000431,0.030675
10468000,0.0324,0.013523,0.002678,0.000431,0.026914
10469000,0.0324,0.013523,0.002678,0.000431,0.029852
10470000,0.0324,0.013523,0.002678,0.000431,0.028207
10471000,0.0324,0.013523,0.002678,0.000431,0.028912
10472000,0.0324,0.013523,0.002678,0.000431,0.032085
10473000,0.0324,0.013523,0.002678,0.000431,0.029147
10474000,0.0324,0.013523,0.002678,0.000431,0.029617
10475000,0.0324,0.013523,0.002678,0.000431,0.029735
10476000,0.0324,0.013523,0.002678,0.000431,0.028207
10477000,0.0324,0.013523,0.002678,0.000431,0.029500
10478000,0.0324,0.013523,0.002678,0.000431,0.030910
10479000,0.0324,0.013523,0.002678,0.000431,0.029617
10480000,0.0324,0.013523,0.002678,0.000431,0.029147
10481000,0.0324,0.013523,0.002678,0.000431,0.031615
10482000,0.0324,0.013523,0.002678,0.000431,0.029852
10483000,0.0324,0.013523,0.002678,0.000431,0.031262
10484000,0.0324,0.013523,0.002678,0.000431,0.029265
10485000,0.0324,0.013523,0.002678,0.000431,0.031380
10486000,0.0324,0.013523,0.002678,0.000431,0.028559
10487000,0.0324,0.013523,0.002678,0.000431,0.027972
10488000,0.0324,0.013523,0.002678,0.000431,0.032320
10489000,0.0324,0.013523,0.002678,0.000431,0.029500
10490000,0.0324,0.013523,0.002678,0.000431,0.027737
10491000,0.0324,0.013523,0.002678,0.000431,0.030675
10492000,0.0324,0.013523,0.002678,0.000431,0.029852
10493000,0.0324,0.013523,0.002678,0.000431,0.030087
10494000,0.0324,0.013523,0.002678,0.000431,0.028442
10495000,0.0324,0.013523,0.002678,0.000431,0.029500
10496000,0.0324,0.013523,0.002678,0.000431,0.029147
10497000,0.0324,0.013523,0.002678,0.000431,0.029147
10498000,0.0324,0.013523,0.002678,0.000431,0.028089
10499000,0.0324,0.013523,0.002678,0.000431,0.030322
10500000,0.0324,0.013523,0.002678,0.000431,0.028912
10501000,0.0324,0.013523,0.002678,0.000431,0.030440
10502000,0.0324,0.013523,0.002678,0.000431,0.029147
10503000,0.0324,0.013523,0.002678,0.000431,0.027619
10504000,0.0324,0.013523,0.002678,0.000431,0.029970
10505000,0.0324,0.013523,0.002678,0.000431,0.027972
10506000,0.0324,0.013523,0.002678,0.000431,0.028559
10507000,0.0324,0.013523,0.002678,0.000431,0.031380
10508000,0.0324,0.013523,0.002678,0.000431,0.028559
10509000,0.0324,0.013523,0.002678,0.000431,0.031615
10510000,0.0324,0.013523,0.002678,0.000431,0.026209
10511000,0.0324,0.013523,0.002678,0.000431,0.026444
10512000,0.0324,0.013523,0.002678,0.000431,0.025856
10513000,0.0324,0.013523,0.002678,0.000431,0.032085
10514000,0.0324,0.013523,0.002678,0.000431,0.029500
10515000,0.0324,0.013523,0.002678,0.000431,0.026914
10516000,0.0324,0.013523,0.002678,0.000431,0.027972
10517000,0.0324,0.013523,0.002678,0.000431,0.029852
10518000,0.0324,0.013523,0.002678,0.000431,0.028324
10519000,0.0324,0.013523,0.002678,0.000431,0.027737
10520000,0.0324,0.013523,0.002678,0.000431,0.028089
10521000,0.0324,0.013523,0.002678,0.000431,0.027737
10522000,0.0324,0.013523,0.002678,0.000431,0.029029
10523000,0.0324,0.013523,0.002678,0.000431,0.030675
10524000,0.0324,0.013523,0.002678,0.000431,0.029029
10525000,0.0324,0.013523,0.002678,0.000431,0.029852
10526000,0.0324,0.013523,0.002678,0.000431,0.030087
10527000,0.0324,0.013523,0.002678,0.000431,0.029147
10528000,0.0324,0.013523,0.002678,0.000431,0.030440
10529000,0.0324,0.013523,0.002678,0.000431,0.029500
10530000,0.0324,0.013523,0.002678,0.000431,0.030205
10531000,0.0324,0.013523,0.002678,0.000431,0.029852
10532000,0.0324,0.013523,0.002678,0.000431,0.028089
10533000,0.0324,0.013523,0.002678,0.000431,0.029029
10534000,0.0324,0.013523,0.002678,0.000431,0.029382
10535000,0.0324,0.013523,0.002678,0.000431,0.027149
10536000,0.0324,0.013523,0.002678,0.000431,0.029617
10537000,0.0324,0.013523,0.002678,0.000431,0.029265
10538000,0.0324,0.013523,0.002678,0.000431,0.027854
10539000,0.0324,0.013523,0.002678,0.000431,0.030440
10540000,0.0324,0.013523,0.002678,0.000431,0.029617
10541000,0.0324,0.013523,0.002678,0.000431,0.029265
10542000,0.0324,0.013523,0.002678,0.000431,0.029147
10543000,0.0324,0.013523,0.002678,0.000431,0.027502
10544000,0.0324,0.013523,0.002678,0.000431,0.030557
10545000,0.0324,0.013523,0.002678,0.000431,0.029265
10546000,0.0324,0.013523,0.002678,0.000431,0.030322
10547000,0.0324,0.013523,0.002678,0.000431,0.028677
10548000,0.0324,0.013523,0.002678,0.000431,0.027972
10549000,0.0324,0.013523,0.002678,0.000431,0.031733
10550000,0.0324,0.013523,0.002678,0.000431,0.025856
10551000,0.0324,0.013523,0.002678,0.000431,0.028324
10552000,0.0324,0.013523,0.002678,0.000431,0.028794
10553000,0.0324,0.013523,0.002678,0.000431,0.029265
10554000,0.0324,0.013523,0.002678,0.000431,0.031615
10555000,0.0324,0.013523,0.002678,0.000431,0.027737
10556000,0.0324,0.013523,0.002678,0.000431,0.030910
10557000,0.0324,0.013523,0.002678,0.000431,0.028442
10558000,0.0324,0.013523,0.002678,0.000431,0.028912
10559000,0.0324,0.013523,0.002678,0.000431,0.029500
10560000,0.0324,0.013523,0.002678,0.000431,0.031733
10561000,0.0324,0.013523,0.002678,0.000431,0.028442
10562000,0.0324,0.013523,0.002678,0.000431,0.028559
10563000,0.0324,0.013523,0.002678,0.000431,0.028324
10564000,0.0324,0.013523,0.002678,0.000431,0.030205
10565000,0.0324,0.013523,0.002678,0.000431,0.028912
10566000,0.0324,0.013523,0.002678,0.000431,0.026914
10567000,0.0324,0.013523,0.002678,0.000431,0.029382
10568000,0.0324,0.013523,0.002678,0.000431,0.030322
10569000,0.0324,0.013523,0.002678,0.000431,0.027737
10570000,0.0324,0.013523,0.002678,0.000431,0.029735
10571000,0.0324,0.013523,0.002678,0.000431,0.027267
10572000,0.0324,0.013523,0.002678,0.000431,0.028677
10573000,0.0324,0.013523,0.002678,0.000431,0.029382
10574000,0.0324,0.013523,0.002678,0.000431,0.028912
10575000,0.0324,0.013523,0.002678,0.000431,0.029029
10576000,0.0324,0.013523,0.002678,0.000431,0.031262
10577000,0.0324,0.013523,0.002678,0.000431,0.029029
10578000,0.0324,0.013523,0.002678,0.000431,0.029147
10579000,0.0324,0.013523,0.002678,0.000431,0.029735
10580000,0.0324,0.013523,0.002678,0.000431,0.027737
10581000,0.0324,0.013523,0.002678,0.000431,0.029265
10582000,0.0324,0.013523,0.002678,0.000431,0.029617
10583000,0.0324,0.013523,0.002678,0.000431,0.026679
10584000,0.0324,0.013523,0.002678,0.000431,0.026914
10585000,0.0324,0.013523,0.002678,0.000431,0.029147
10586000,0.0324,0.013523,0.002678,0.000431,0.027854
10587000,0.0324,0.013523,0.002678,0.000431,0.027854
10588000,0.0324,0.013523,0.002678,0.000431,0.030675
10589000,0.0324,0.013523,0.002678,0.000431,0.026796
10590000,0.0324,0.013523,0.002678,0.000431,0.029735
10591000,0.0324,0.013523,0.002678,0.000431,0.028794
10592000,0.0324,0.013523,0.002678,0.000431,0.029147
10593000,0.0324,0.013523,0.002678,0.000431,0.026561
10594000,0.0324,0.013523,0.002678,0.000431,0.027737
10595000,0.0324,0.013523,0.002678,0.000431,0.027737
10596000,0.0324,0.013523,0.002678,0.000431,0.030322
10597000,0.0324,0.013523,0.002678,0.000431,0.027854
10598000,0.0324,0.013523,0.002678,0.000431,0.029500
10599000,0.0324,0.013523,0.002678,0.000431,0.026796
10600000,0.0324,0.013523,0.002678,0.000431,0.028559
10601000,0.0324,0.013523,0.002678,0.000431,0.028207
10602000,0.0324,0.013523,0.002678,0.000431,0.030322
10603000,0.0324,0.013523,0.002678,0.000431,0.028324
10604000,0.0324,0.013523,0.002678,0.000431,0.027502
10605000,0.0324,0.013523,0.002678,0.000431,0.027737
10606000,0.0324,0.013523,0.002678,0.000431,0.027502
10607000,0.0324,0.013523,0.002678,0.000431,0.026914
10608000,0.0324,0.013523,0.002678,0.000431,0.029147
10609000,0.0324,0.013523,0.002678,0.000431,0.027619
10610000,0.0324,0.013523,0.002678,0.000431,0.029617
10611000,0.0324,0.013523,0.002678,0.000431,0.027737
10612000,0.0324,0.013523,0.002678,0.000431,0.029735
10613000,0.0324,0.013523,0.002678,0.000431,0.030910
10614000,0.0324,0.013523,0.002678,0.000431,0.027031
10615000,0.0324,0.013523,0.002678,0.000431,0.028442
10616000,0.0324,0.013523,0.002678,0.000431,0.028324
10617000,0.0324,0.013523,0.002678,0.000431,0.029852
10618000,0.0324,0.013523,0.002678,0.000431,0.028912
10619000,0.0324,0.013523,0.002678,0.000431,0.029617
10620000,0.0324,0.013523,0.002678,0.000431,0.029852
10621000,0.0324,0.013523,0.002678,0.000431,0.028559
10622000,0.0324,0.013523,0.002678,0.000431,0.027737
10623000,0.0324,0.013523,0.002678,0.000431,0.029852
10624000,0.0324,0.013523,0.002678,0.000431,0.029970
10625000,0.0324,0.013523,0.002678,0.000431,0.025856
10626000,0.0324,0.013523,0.002678,0.000431,0.028912
10627000,0.0324,0.013523,0.002678,0.000431,0.027267
10628000,0.0324,0.013523,0.002678,0.000431,0.027267
10629000,0.0324,0.013523,0.002678,0.000431,0.028794
10630000,0.0324,0.013523,0.002678,0.000431,0.028912
10631000,0.0324,0.013523,0.002678,0.000431,0.025974
10632000,0.0324,0.013523,0.002678,0.000431,0.028559
10633000,0.0324,0.013523,0.002678,0.000431,0.028442
10634000,0.0324,0.013523,0.002678,0.000431,0.027267
10635000,0.0324,0.013523,0.002678,0.000431,0.028207
10636000,0.0324,0.013523,0.002678,0.000431,0.028207
10637000,0.0324,0.013523,0.002678,0.000431,0.027737
10638000,0.0324,0.013523,0.002678,0.000431,0.028207
10639000,0.0324,0.013523,0.002678,0.000431,0.027619
10640000,0.0324,0.013523,0.002678,0.000431,0.026561
10641000,0.0324,0.013523,0.002678,0.000431,0.027972
10642000,0.0324,0.013523,0.002678,0.000431,0.026914
10643000,0.0324,0.013523,0.002678,0.000431,0.027854
10644000,0.0324,0.013523,0.002678,0.000431,0.029147
10645000,0.0324,0.013523,0.002678,0.000431,0.028207
10646000,0.0324,0.013523,0.002678,0.000431,0.027502
10647000,0.0324,0.013523,0.002678,0.000431,0.025151
10648000,0.0324,0.013523,0.002678,0.000431,0.028677
10649000,0.0324,0.013523,0.002678,0.000431,0.027031
10650000,0.0324,0.013523,0.002678,0.000431,0.026796
10651000,0.0324,0.013523,0.002678,0.000431,0.030205
10652000,0.0324,0.013523,0.002678,0.000431,0.027737
10653000,0.0324,0.013523,0.002678,0.000431,0.025151
10654000,0.0324,0.013523,0.002678,0.000431,0.027854
10655000,0.0324,0.013523,0.002678,0.000431,0.027854
10656000,0.0324,0.013523,0.002678,0.000431,0.028324
10657000,0.0324,0.013523,0.002678,0.000431,0.026796
10658000,0.0324,0.013523,0.002678,0.000431,0.028324
10659000,0.0324,0.013523,0.002678,0.000431,0.026796
10660000,0.0324,0.013523,0.002678,0.000431,0.026561
10661000,0.0324,0.013523,0.002678,0.000431,0.028207
10662000,0.0324,0.013523,0.002678,0.000431,0.028912
10663000,0.0324,0.013523,0.002678,0.000431,0.027619
10664000,0.0324,0.013523,0.002678,0.000431,0.029500
10665000,0.0324,0.013523,0.002678,0.000431,0.027737
10666000,0.0324,0.013523,0.002678,0.000431,0.026209
10667000,0.0324,0.013523,0.002678,0.000431,0.028912
10668000,0.0324,0.013523,0.002678,0.000431,0.027737
10669000,0.0324,0.013523,0.002678,0.000431,0.028324
10670000,0.0324,0.013523,0.002678,0.000431,0.028324
10671000,0.0324,0.013523,0.002678,0.000431,0.027267
10672000,0.0324,0.013523,0.002678,0.000431,0.027619
10673000,0.0324,0.013523,0.002678,0.000431,0.025151
10674000,0.0324,0.013523,0.002678,0.000431,0.027854
10675000,0.0324,0.013523,0.002678,0.000431,0.029617
10676000,0.0324,0.013523,0.002678,0.000431,0.026679
10677000,0.0324,0.013523,0.002678,0.000431,0.029147
10678000,0.0324,0.013523,0.002678,0.000431,0.027619
10679000,0.0324,0.013523,0.002678,0.000431,0.028089
10680000,0.0324,0.013523,0.002678,0.000431,0.028559
10681000,0.0324,0.013523,0.002678,0.000431,0.027737
10682000,0.0324,0.013523,0.002678,0.000431,0.028442
10683000,0.0324,0.013523,0.002678,0.000431,0.029382
10684000,0.0324,0.013523,0.002678,0.000431,0.026326
10685000,0.0324,0.013523,0.002678,0.000431,0.028912
10686000,0.0324,0.013523,0.002678,0.000431,0.028794
10687000,0.0324,0.013523,0.002678,0.000431,0.027031
10688000,0.0324,0.013523,0.002678,0.000431,0.028207
10689000,0.0324,0.013523,0.002678,0.000431,0.026796
10690000,0.0324,0.013523,0.002678,0.000431,0.025974
10691000,0.0324,0.013523,0.002678,0.000431,0.027384
10692000,0.0324,0.013523,0.002678,0.000431,0.028794
10693000,0.0324,0.013523,0.002678,0.000431,0.028912
10694000,0.0324,0.013523,0.002678,0.000431,0.026914
10695000,0.0324,0.013523,0.002678,0.000431,0.027737
10696000,0.0324,0.013523,0.002678,0.000431,0.027384
10697000,0.0324,0.013523,0.002678,0.000431,0.028324
10698000,0.0324,0.013523,0.002678,0.000431,0.029970
10699000,0.0324,0.013523,0.002678,0.000431,0.026561
10700000,0.0324,0.013523,0.002678,0.000431,0.027972
10701000,0.0324,0.013523,0.002678,0.000431,0.028324
10702000,0.0324,0.013523,0.002678,0.000431,0.026561
10703000,0.0324,0.013523,0.002678,0.000431,0.028912
10704000,0.0324,0.013523,0.002678,0.000431,0.028442
10705000,0.0324,0.013523,0.002678,0.000431,0.026091
10706000,0.0324,0.013523,0.002678,0.000431,0.027854
10707000,0.0324,0.013523,0.002678,0.000431,0.027502
10708000,0.0324,0.013523,0.002678,0.000431,0.028677
10709000,0.0324,0.013523,0.002678,0.000431,0.028559
10710000,0.0324,0.013523,0.002678,0.000431,0.029617
10711000,0.0324,0.013523,0.002678,0.000431,0.027149
10712000,0.0324,0.013523,0.002678,0.000431,0.027737
10713000,0.0324,0.013523,0.002678,0.000431,0.027972
10714000,0.0324,0.013523,0.002678,0.000431,0.027502
10715000,0.0324,0.013523,0.002678,0.000431,0.028089
10716000,0.0324,0.013523,0.002678,0.000431,0.027384
10717000,0.0324,0.013523,0.002678,0.000431,0.026209
10718000,0.0324,0.013523,0.002678,0.000431,0.026561
10719000,0.0324,0.013523,0.002678,0.000431,0.027854
10720000,0.0324,0.013523,0.002678,0.000431,0.026209
10721000,0.0324,0.013523,0.002678,0.000431,0.025386
10722000,0.0324,0.013523,0.002678,0.000431,0.029617
10723000,0.0324,0.013523,0.002678,0.000431,0.028089
10724000,0.0324,0.013523,0.002678,0.000431,0.029029
10725000,0.0324,0.013523,0.002678,0.000431,0.029147
10726000,0.0324,0.013523,0.002678,0.000431,0.028207
10727000,0.0324,0.013523,0.002678,0.000431,0.027384
10728000,0.0324,0.013523,0.002678,0.000431,0.026796
10729000,0.0324,0.013523,0.002678,0.000431,0.029147
10730000,0.0324,0.013523,0.002678,0.000431,0.027031
10731000,0.0324,0.013523,0.002678,0.000431,0.025856
10732000,0.0324,0.013523,0.002678,0.000431,0.026796
10733000,0.0324,0.013523,0.002678,0.000431,0.030205
10734000,0.0324,0.013523,0.002678,0.000431,0.025739
10735000,0.0324,0.013523,0.002678,0.000431,0.027502
10736000,0.0324,0.013523,0.002678,0.000431,0.027972
10737000,0.0324,0.013523,0.002678,0.000431,0.026796
10738000,0.0324,0.013523,0.002678,0.000431,0.027031
10739000,0.0324,0.013523,0.002678,0.000431,0.025739
10740000,0.0324,0.013523,0.002678,0.000431,0.028207
10741000,0.0324,0.013523,0.002678,0.000431,0.028677
10742000,0.0324,0.013523,0.002678,0.000431,0.027854
10743000,0.0324,0.013523,0.002678,0.000431,0.026796
10744000,0.0324,0.013523,0.002678,0.000431,0.028442
10745000,0.0324,0.013523,0.002678,0.000431,0.026209
10746000,0.0324,0.013523,0.002678,0.000431,0.027267
10747000,0.0324,0.013523,0.002678,0.000431,0.027267
10748000,0.0324,0.013523,0.002678,0.000431,0.027737
10749000,0.0324,0.013523,0.002678,0.000431,0.026796
10750000,0.0324,0.013523,0.002678,0.000431,0.026561
10751000,0.0324,0.013523,0.002678,0.000431,0.029382
10752000,0.0324,0.013523,0.002678,0.000431,0.027149
10753000,0.0324,0.013523,0.002678,0.000431,0.026326
10754000,0.0324,0.013523,0.002678,0.000431,0.028912
10755000,0.0324,0.013523,0.002678,0.000431,0.027619
10756000,0.0324,0.013523,0.002678,0.000431,0.026091
10757000,0.0324,0.013523,0.002678,0.000431,0.027854
10758000,0.0324,0.013523,0.002678,0.000431,0.028442
10759000,0.0324,0.013523,0.002678,0.000431,0.028324
10760000,0.0324,0.013523,0.002678,0.000431,0.027854
10761000,0.0324,0.013523,0.002678,0.000431,0.026326
10762000,0.0324,0.013523,0.002678,0.000431,0.027854
10763000,0.0324,0.013523,0.002678,0.000431,0.027854
10764000,0.0324,0.013523,0.002678,0.000431,0.027384
10765000,0.0324,0.013523,0.002678,0.000431,0.029029
10766000,0.0324,0.013523,0.002678,0.000431,0.025856
10767000,0.0324,0.013523,0.002678,0.000431,0.025856
10768000,0.0324,0.013523,0.002678,0.000431,0.026679
10769000,0.0324,0.013523,0.002678,0.000431,0.027619
10770000,0.0324,0.013523,0.002678,0.000431,0.029617
10771000,0.0324,0.013523,0.002678,0.000431,0.027149
10772000,0.0324,0.013523,0.002678,0.000431,0.026561
10773000,0.0324,0.013523,0.002678,0.000431,0.026914
10774000,0.0324,0.013523,0.002678,0.000431,0.030205
10775000,0.0324,0.013523,0.002678,0.000431,0.026561
10776000,0.0324,0.013523,0.002678,0.000431,0.029029
10777000,0.0324,0.013523,0.002678,0.000431,0.028442
10778000,0.0324,0.013523,0.002678,0.000431,0.027384
10779000,0.0324,0.013523,0.002678,0.000431,0.028912
10780000,0.0324,0.013523,0.002678,0.000431,0.028324
10781000,0.0324,0.013523,0.002678,0.000431,0.026444
10782000,0.0324,0.013523,0.002678,0.000431,0.027502
10783000,0.0324,0.013523,0.002678,0.000431,0.028089
10784000,0.0324,0.013523,0.002678,0.000431,0.027737
10785000,0.0324,0.013523,0.002678,0.000431,0.028089
10786000,0.0324,0.013523,0.002678,0.000431,0.029265
10787000,0.0324,0.013523,0.002678,0.000431,0.028559
10788000,0.0324,0.013523,0.002678,0.000431,0.026914
10789000,0.0324,0.013523,0.002678,0.000431,0.026679
10790000,0.0324,0.013523,0.002678,0.000431,0.026444
10791000,0.0324,0.013523,0.002678,0.000431,0.029500
10792000,0.0324,0.013523,0.002678,0.000431,0.027502
10793000,0.0324,0.013523,0.002678,0.000431,0.025974
10794000,0.0324,0.013523,0.002678,0.000431,0.028677
10795000,0.0324,0.013523,0.002678,0.000431,0.027149
10796000,0.0324,0.013523,0.002678,0.000431,0.026326
10797000,0.0324,0.013523,0.002678,0.000431,0.027737
10798000,0.0324,0.013523,0.002678,0.000431,0.028794
10799000,0.0324,0.013523,0.002678,0.000431,0.028442
10800000,0.0324,0.013523,0.002678,0.000431,0.027031
10801000,0.0324,0.013523,0.002678,0.000431,0.026209
10802000,0.0324,0.013523,0.002678,0.000431,0.027737
10803000,0.0324,0.013523,0.002678,0.000431,0.026326
10804000,0.0324,0.013523,0.002678,0.000431,0.027972
10805000,0.0324,0.013523,0.002678,0.000431,0.025856
10806000,0.0324,0.013523,0.002678,0.000431,0.028089
10807000,0.0324,0.013523,0.002678,0.000431,0.028794
10808000,0.0324,0.013523,0.002678,0.000431,0.026444
10809000,0.0324,0.013523,0.002678,0.000431,0.024563
10810000,0.0324,0.013523,0.002678,0.000431,0.028207
10811000,0.0324,0.013523,0.002678,0.000431,0.026091
10812000,0.0324,0.013523,0.002678,0.000431,0.026209
10813000,0.0324,0.013523,0.002678,0.000431,0.027737
10814000,0.0324,0.013523,0.002678,0.000431,0.028089
10815000,0.0324,0.013523,0.002678,0.000431,0.026561
10816000,0.0324,0.013523,0.002678,0.000431,0.025856
10817000,0.0324,0.013523,0.002678,0.000431,0.027737
10818000,0.0324,0.013523,0.002678,0.000431,0.030205
10819000,0.0324,0.013523,0.002678,0.000431,0.027149
10820000,0.0324,0.013523,0.002678,0.000431,0.025739
10821000,0.0324,0.013523,0.002678,0.000431,0.027854
10822000,0.0324,0.013523,0.002678,0.000431,0.025974
10823000,0.0324,0.013523,0.002678,0.000431,0.027737
10824000,0.0324,0.013523,0.002678,0.000431,0.025504
10825000,0.0324,0.013523,0.002678,0.000431,0.029265
10826000,0.0324,0.013523,0.002678,0.000431,0.026679
10827000,0.0324,0.013523,0.002678,0.000431,0.025974
10828000,0.0324,0.013523,0.002678,0.000431,0.027737
10829000,0.0324,0.013523,0.002678,0.000431,0.027384
10830000,0.0324,0.013523,0.002678,0.000431,0.028912
10831000,0.0324,0.013523,0.002678,0.000431,0.027384
10832000,0.0324,0.013523,0.002678,0.000431,0.026679
10833000,0.0324,0.013523,0.002678,0.000431,0.028794
10834000,0.0324,0.013523,0.002678,0.000431,0.026914
10835000,0.0324,0.013523,0.002678,0.000431,0.027267
10836000,0.0324,0.013523,0.002678,0.000431,0.026326
10837000,0.0324,0.013523,0.002678,0.000431,0.027149
10838000,0.0324,0.013523,0.002678,0.000431,0.026326
10839000,0.0324,0.013523,0.002678,0.000431,0.027149
10840000,0.0324,0.013523,0.002678,0.000431,0.027854
10841000,0.0324,0.013523,0.002678,0.000431,0.026914
10842000,0.0324,0.013523,0.002678,0.000431,0.026444
10843000,0.0324,0.013523,0.002678,0.000431,0.026091
10844000,0.0324,0.013523,0.002678,0.000431,0.028324
10845000,0.0324,0.013523,0.002678,0.000431,0.026209
10846000,0.0324,0.013523,0.002678,0.000431,0.026679
10847000,0.0324,0.013523,0.002678,0.000431,0.028677
10848000,0.0324,0.013523,0.002678,0.000431,0.026796
10849000,0.0324,0.013523,0.002678,0.000431,0.027854
10850000,0.0324,0.013523,0.002678,0.000431,0.026326
10851000,0.0324,0.013523,0.002678,0.000431,0.026561
10852000,0.0324,0.013523,0.002678,0.000431,0.027502
10853000,0.0324,0.013523,0.002678,0.000431,0.027384
10854000,0.0324,0.013523,0.002678,0.000431,0.027502
10855000,0.0324,0.013523,0.002678,0.000431,0.027149
10856000,0.0324,0.013523,0.002678,0.000431,0.024681
10857000,0.0324,0.013523,0.002678,0.000431,0.028089
10858000,0.0324,0.013523,0.002678,0.000431,0.027267
10859000,0.0324,0.013523,0.002678,0.000431,0.027267
10860000,0.0324,0.013523,0.002678,0.000431,0.024916
10861000,0.0324,0.013523,0.002678,0.000431,0.026209
10862000,0.0324,0.013523,0.002678,0.000431,0.025856
10863000,0.0324,0.013523,0.002678,0.000431,0.027384
10864000,0.0324,0.013523,0.002678,0.000431,0.026326
10865000,0.0324,0.013523,0.002678,0.000431,0.026444
10866000,0.0324,0.013523,0.002678,0.000431,0.026796
10867000,0.0324,0.013523,0.002678,0.000431,0.026796
10868000,0.0324,0.013523,0.002678,0.000431,0.025151
10869000,0.0324,0.013523,0.002678,0.000431,0.025151
10870000,0.0324,0.013523,0.002678,0.000431,0.027267
10871000,0.0324,0.013523,0.002678,0.000431,0.026914
10872000,0.0324,0.013523,0.002678,0.000431,0.027384
10873000,0.0324,0.013523,0.002678,0.000431,0.026914
10874000,0.0324,0.013523,0.002678,0.000431,0.024328
10875000,0.0324,0.013523,0.002678,0.000431,0.026444
10876000,0.0324,0.013523,0.002678,0.000431,0.029029
10877000,0.0324,0.013523,0.002678,0.000431,0.024798
10878000,0.0324,0.013523,0.002678,0.000431,0.026091
10879000,0.0324,0.013523,0.002678,0.000431,0.025504
10880000,0.0324,0.013523,0.002678,0.000431,0.023623
10881000,0.0324,0.013523,0.002678,0.000431,0.027267
10882000,0.0324,0.013523,0.002678,0.000431,0.024798
10883000,0.0324,0.013523,0.002678,0.000431,0.026209
10884000,0.0324,0.013523,0.002678,0.000431,0.024798
10885000,0.0324,0.013523,0.002678,0.000431,0.025739
10886000,0.0324,0.013523,0.002678,0.000431,0.029029
10887000,0.0324,0.013523,0.002678,0.000431,0.027384
10888000,0.0324,0.013523,0.002678,0.000431,0.025621
10889000,0.0324,0.013523,0.002678,0.000431,0.028207
10890000,0.0324,0.013523,0.002678,0.000431,0.026679
10891000,0.0324,0.013523,0.002678,0.000431,0.026326
10892000,0.0324,0.013523,0.002678,0.000431,0.027972
10893000,0.0324,0.013523,0.002678,0.000431,0.026444
10894000,0.0324,0.013523,0.002678,0.000431,0.026561
10895000,0.0324,0.013523,0.002678,0.000431,0.026679
10896000,0.0324,0.013523,0.002678,0.000431,0.025974
10897000,0.0324,0.013523,0.002678,0.000431,0.024916
10898000,0.0324,0.013523,0.002678,0.000431,0.026209
10899000,0.0324,0.013523,0.002678,0.000431,0.025504
10900000,0.0324,0.013523,0.002678,0.000431,0.027854
10901000,0.0324,0.013523,0.002678,0.000431,0.025151
10902000,0.0324,0.013523,0.002678,0.000431,0.025034
10903000,0.0324,0.013523,0.002678,0.000431,0.025269
10904000,0.0324,0.013523,0.002678,0.000431,0.024916
10905000,0.0324,0.013523,0.002678,0.000431,0.027502
10906000,0.0324,0.013523,0.002678,0.000431,0.027502
10907000,0.0324,0.013523,0.002678,0.000431,0.026561
10908000,0.0324,0.013523,0.002678,0.000431,0.025974
10909000,0.0324,0.013523,0.002678,0.000431,0.026091
10910000,0.0324,0.013523,0.002678,0.000431,0.024916
10911000,0.0324,0.013523,0.002678,0.000431,0.026796
10912000,0.0324,0.013523,0.002678,0.000431,0.025151
10913000,0.0324,0.013523,0.002678,0.000431,0.026444
10914000,0.0324,0.013523,0.002678,0.000431,0.026444
10915000,0.0324,0.013523,0.002678,0.000431,0.028089
10916000,0.0324,0.013523,0.002678,0.000431,0.025856
10917000,0.0324,0.013523,0.002678,0.000431,0.026326
10918000,0.0324,0.013523,0.002678,0.000431,0.027031
10919000,0.0324,0.013523,0.002678,0.000431,0.024563
10920000,0.0324,0.013523,0.002678,0.000431,0.026209
10921000,0.0324,0.013523,0.002678,0.000431,0.027619
10922000,0.0324,0.013523,0.002678,0.000431,0.024563
10923000,0.0324,0.013523,0.002678,0.000431,0.026209
10924000,0.0324,0.013523,0.002678,0.000431,0.027031
10925000,0.0324,0.013523,0.002678,0.000431,0.025386
10926000,0.0324,0.013523,0.002678,0.000431,0.023858
10927000,0.0324,0.013523,0.002678,0.000431,0.026444
10928000,0.0324,0.013523,0.002678,0.000431,0.024916
10929000,0.0324,0.013523,0.002678,0.000431,0.026091
10930000,0.0324,0.013523,0.002678,0.000431,0.028324
10931000,0.0324,0.013523,0.002678,0.000431,0.025269
10932000,0.0324,0.013523,0.002678,0.000431,0.025269
10933000,0.0324,0.013523,0.002678,0.000431,0.026444
10934000,0.0324,0.013523,0.002678,0.000431,0.023858
10935000,0.0324,0.013523,0.002678,0.000431,0.028324
10936000,0.0324,0.013523,0.002678,0.000431,0.023741
10937000,0.0324,0.013523,0.002678,0.000431,0.027502
10938000,0.0324,0.013523,0.002678,0.000431,0.027149
10939000,0.0324,0.013523,0.002678,0.000431,0.025856
10940000,0.0324,0.013523,0.002678,0.000431,0.027267
10941000,0.0324,0.013523,0.002678,0.000431,0.025974
10942000,0.0324,0.013523,0.002678,0.000431,0.024328
10943000,0.0324,0.013523,0.002678,0.000431,0.026679
10944000,0.0324,0.013523,0.002678,0.000431,0.027972
10945000,0.0324,0.013523,0.002678,0.000431,0.025856
10946000,0.0324,0.013523,0.002678,0.000431,0.026561
10947000,0.0324,0.013523,0.002678,0.000431,0.026209
10948000,0.0324,0.013523,0.002678,0.000431,0.027384
10949000,0.0324,0.013523,0.002678,0.000431,0.026209
10950000,0.0324,0.013523,0.002678,0.000431,0.025034
10951000,0.0324,0.013523,0.002678,0.000431,0.026561
10952000,0.0324,0.013523,0.002678,0.000431,0.027619
10953000,0.0324,0.013523,0.002678,0.000431,0.026914
10954000,0.0324,0.013523,0.002678,0.000431,0.023271
10955000,0.0324,0.013523,0.002678,0.000431,0.025974
10956000,0.0324,0.013523,0.002678,0.000431,0.027384
10957000,0.0324,0.013523,0.002678,0.000431,0.026326
10958000,0.0324,0.013523,0.002678,0.000431,0.025386
10959000,0.0324,0.013523,0.002678,0.000431,0.027619
10960000,0.0324,0.013523,0.002678,0.000431,0.024916
10961000,0.0324,0.013523,0.002678,0.000431,0.023271
10962000,0.0324,0.013523,0.002678,0.000431,0.027384
10963000,0.0324,0.013523,0.002678,0.000431,0.024681
10964000,0.0324,0.013523,0.002678,0.000431,0.025386
10965000,0.0324,0.013523,0.002678,0.000431,0.025269
10966000,0.0324,0.013523,0.002678,0.000431,0.023623
10967000,0.0324,0.013523,0.002678,0.000431,0.024211
10968000,0.0324,0.013523,0.002678,0.000431,0.026796
10969000,0.0324,0.013523,0.002678,0.000431,0.026091
10970000,0.0324,0.013523,0.002678,0.000431,0.024446
10971000,0.0324,0.013523,0.002678,0.000431,0.023976
10972000,0.0324,0.013523,0.002678,0.000431,0.027619
10973000,0.0324,0.013523,0.002678,0.000431,0.026209
10974000,0.0324,0.013523,0.002678,0.000431,0.025386
10975000,0.0324,0.013523,0.002678,0.000431,0.026796
10976000,0.0324,0.013523,0.002678,0.000431,0.026091
10977000,0.0324,0.013523,0.002678,0.000431,0.025034
10978000,0.0324,0.013523,0.002678,0.000431,0.026326
10979000,0.0324,0.013523,0.002678,0.000431,0.024446
10980000,0.0324,0.013523,0.002678,0.000431,0.024916
10981000,0.0324,0.013523,0.002678,0.000431,0.026326
10982000,0.0324,0.013523,0.002678,0.000431,0.025386
10983000,0.0324,0.013523,0.002678,0.000431,0.027972
10984000,0.0324,0.013523,0.002678,0.000431,0.026914
10985000,0.0324,0.013523,0.002678,0.000431,0.026796
10986000,0.0324,0.013523,0.002678,0.000431,0.026326
10987000,0.0324,0.013523,0.002678,0.000431,0.024916
10988000,0.0324,0.013523,0.002678,0.000431,0.026561
10989000,0.0324,0.013523,0.002678,0.000431,0.026914
10990000,0.0324,0.013523,0.002678,0.000431,0.024681
10991000,0.0324,0.013523,0.002678,0.000431,0.026796
10992000,0.0324,0.013523,0.002678,0.000431,0.024681
10993000,0.0324,0.013523,0.002678,0.000431,0.023506
10994000,0.0324,0.013523,0.002678,0.000431,0.027619
10995000,0.0324,0.013523,0.002678,0.000431,0.026326
10996000,0.0324,0.013523,0.002678,0.000431,0.026914
10997000,0.0324,0.013523,0.002678,0.000431,0.024798
10998000,0.0324,0.013523,0.002678,0.000431,0.025739
10999000,0.0324,0.013523,0.002678,0.000431,0.025621
