Cycle,Area(mm^2),PeakDynamic(W),SubthresholdLeakage(W),GateLeakage(W),RunTimeDynamic(W)
3000000,0.0324,0.013523,0.002678,0.000431,0.393367
3001000,0.0324,0.013523,0.002678,0.000431,0.464354
3002000,0.0324,0.013523,0.002678,0.000431,0.505136
3003000,0.0324,0.013523,0.002678,0.000431,0.479397
3004000,0.0324,0.013523,0.002678,0.000431,0.530170
3005000,0.0324,0.013523,0.002678,0.000431,0.576123
3006000,0.0324,0.013523,0.002678,0.000431,0.538749
3007000,0.0324,0.013523,0.002678,0.000431,0.612557
3008000,0.0324,0.013523,0.002678,0.000431,0.611969
3009000,0.0324,0.013523,0.002678,0.000431,0.567661
3010000,0.0324,0.013523,0.002678,0.000431,0.574478
3011000,0.0324,0.013523,0.002678,0.000431,0.597513
3012000,0.0324,0.013523,0.002678,0.000431,0.490328
3013000,0.0324,0.013523,0.002678,0.000431,0.455774
3014000,0.0324,0.013523,0.002678,0.000431,0.489857
3015000,0.0324,0.013523,0.002678,0.000431,0.419458
3016000,0.0324,0.013523,0.002678,0.000431,0.404062
3017000,0.0324,0.013523,0.002678,0.000431,0.470348
3018000,0.0324,0.013523,0.002678,0.000431,0.450721
3019000,0.0324,0.013523,0.002678,0.000431,0.686365
3020000,0.0324,0.013523,0.002678,0.000431,0.772160
3021000,0.0324,0.013523,0.002678,0.000431,0.772630
3022000,0.0324,0.013523,0.002678,0.000431,0.886515
3023000,0.0324,0.013523,0.002678,0.000431,0.803775
3024000,0.0324,0.013523,0.002678,0.000431,0.900383
3025000,0.0324,0.013523,0.002678,0.000431,0.832335
3026000,0.0324,0.013523,0.002678,0.000431,0.813177
3027000,0.0324,0.013523,0.002678,0.000431,0.855370
3028000,0.0324,0.013523,0.002678,0.000431,0.790259
3029000,0.0324,0.013523,0.002678,0.000431,0.677432
3030000,0.0324,0.013523,0.002678,0.000431,0.711281
3031000,0.0324,0.013523,0.002678,0.000431,0.765696
3032000,0.0324,0.013523,0.002678,0.000431,0.822815
3033000,0.0324,0.013523,0.002678,0.000431,0.714101
3034000,0.0324,0.013523,0.002678,0.000431,0.781680
3035000,0.0324,0.013523,0.002678,0.000431,0.814000
3036000,0.0324,0.013523,0.002678,0.000431,0.756411
3037000,0.0324,0.013523,0.002678,0.000431,0.782503
3038000,0.0324,0.013523,0.002678,0.000431,0.674847
3039000,0.0324,0.013523,0.002678,0.000431,0.703759
3040000,0.0324,0.013523,0.002678,0.000431,0.769810
3041000,0.0324,0.013523,0.002678,0.000431,0.730790
3042000,0.0324,0.013523,0.002678,0.000431,0.772278
3043000,0.0324,0.013523,0.002678,0.000431,0.785088
3044000,0.0324,0.013523,0.002678,0.000431,0.812942
3045000,0.0324,0.013523,0.002678,0.000431,0.812355
3046000,0.0324,0.013523,0.002678,0.000431,0.694239
3047000,0.0324,0.013523,0.002678,0.000431,0.758997
3048000,0.0324,0.013523,0.002678,0.000431,0.686247
3049000,0.0324,0.013523,0.002678,0.000431,0.619726
3050000,0.0324,0.013523,0.002678,0.000431,0.566603
3051000,0.0324,0.013523,0.002678,0.000431,0.543333
3052000,0.0324,0.013523,0.002678,0.000431,0.525233
3053000,0.0324,0.013523,0.002678,0.000431,0.474579
3054000,0.0324,0.013523,0.002678,0.000431,0.392662
3055000,0.0324,0.013523,0.002678,0.000431,0.434032
3056000,0.0324,0.013523,0.002678,0.000431,0.495264
3057000,0.0324,0.013523,0.002678,0.000431,0.373975
3058000,0.0324,0.013523,0.002678,0.000431,0.356698
3059000,0.0324,0.013523,0.002678,0.000431,0.359989
3060000,0.0324,0.013523,0.002678,0.000431,0.328021
3061000,0.0324,0.013523,0.002678,0.000431,0.290295
3062000,0.0324,0.013523,0.002678,0.000431,0.269845
3063000,0.0324,0.013523,0.002678,0.000431,0.252451
3064000,0.0324,0.013523,0.002678,0.000431,0.295701
3065000,0.0324,0.013523,0.002678,0.000431,0.353055
3066000,0.0324,0.013523,0.002678,0.000431,0.266436
3067000,0.0324,0.013523,0.002678,0.000431,0.275604
3068000,0.0324,0.013523,0.002678,0.000431,0.360459
3069000,0.0324,0.013523,0.002678,0.000431,0.432739
3070000,0.0324,0.013523,0.002678,0.000431,0.458830
3071000,0.0324,0.013523,0.002678,0.000431,0.421103
3072000,0.0324,0.013523,0.002678,0.000431,0.561902
3073000,0.0324,0.013523,0.002678,0.000431,0.587758
3074000,0.0324,0.013523,0.002678,0.000431,0.612322
3075000,0.0324,0.013523,0.002678,0.000431,0.661331
3076000,0.0324,0.013523,0.002678,0.000431,0.655807
3077000,0.0324,0.013523,0.002678,0.000431,0.698352
3078000,0.0324,0.013523,0.002678,0.000431,0.751240
3079000,0.0324,0.013523,0.002678,0.000431,0.716452
3080000,0.0324,0.013523,0.002678,0.000431,0.647580
3081000,0.0324,0.013523,0.002678,0.000431,0.666737
3082000,0.0324,0.013523,0.002678,0.000431,0.648521
3083000,0.0324,0.013523,0.002678,0.000431,0.638883
3084000,0.0324,0.013523,0.002678,0.000431,0.575418
3085000,0.0324,0.013523,0.002678,0.000431,0.626073
3086000,0.0324,0.013523,0.002678,0.000431,0.619726
3087000,0.0324,0.013523,0.002678,0.000431,0.612674
3088000,0.0324,0.013523,0.002678,0.000431,0.663447
3089000,0.0324,0.013523,0.002678,0.000431,0.783560
3090000,0.0324,0.013523,0.002678,0.000431,0.764991
3091000,0.0324,0.013523,0.002678,0.000431,0.754766
3092000,0.0324,0.013523,0.002678,0.000431,0.775804
3093000,0.0324,0.013523,0.002678,0.000431,0.802717
3094000,0.0324,0.013523,0.002678,0.000431,0.799192
3095000,0.0324,0.013523,0.002678,0.000431,0.801660
3096000,0.0324,0.013523,0.002678,0.000431,0.679548
3097000,0.0324,0.013523,0.002678,0.000431,0.666972
3098000,0.0324,0.013523,0.002678,0.000431,0.674259
3099000,0.0324,0.013523,0.002678,0.000431,0.629128
3100000,0.0324,0.013523,0.002678,0.000431,0.611617
3101000,0.0324,0.013523,0.002678,0.000431,0.545566
3102000,0.0324,0.013523,0.002678,0.000431,0.629951
3103000,0.0324,0.013523,0.002678,0.000431,0.566603
3104000,0.0324,0.013523,0.002678,0.000431,0.474344
3105000,0.0324,0.013523,0.002678,0.000431,0.566838
3106000,0.0324,0.013523,0.002678,0.000431,0.587171
3107000,0.0324,0.013523,0.002678,0.000431,0.484451
3108000,0.0324,0.013523,0.002678,0.000431,0.506076
3109000,0.0324,0.013523,0.002678,0.000431,0.475166
3110000,0.0324,0.013523,0.002678,0.000431,0.432269
3111000,0.0324,0.013523,0.002678,0.000431,0.379734
3112000,0.0324,0.013523,0.002678,0.000431,0.408175
3113000,0.0324,0.013523,0.002678,0.000431,0.449545
3114000,0.0324,0.013523,0.002678,0.000431,0.438498
3115000,0.0324,0.013523,0.002678,0.000431,0.411114
3116000,0.0324,0.013523,0.002678,0.000431,0.483393
3117000,0.0324,0.013523,0.002678,0.000431,0.563078
3118000,0.0324,0.013523,0.002678,0.000431,0.505841
3119000,0.0324,0.013523,0.002678,0.000431,0.514421
3120000,0.0324,0.013523,0.002678,0.000431,0.595280
3121000,0.0324,0.013523,0.002678,0.000431,0.652634
3122000,0.0324,0.013523,0.002678,0.000431,0.700938
3123000,0.0324,0.013523,0.002678,0.000431,0.651811
3124000,0.0324,0.013523,0.002678,0.000431,0.686835
3125000,0.0324,0.013523,0.002678,0.000431,0.830337
3126000,0.0324,0.013523,0.002678,0.000431,0.819406
3127000,0.0324,0.013523,0.002678,0.000431,0.780975
3128000,0.0324,0.013523,0.002678,0.000431,0.796136
3129000,0.0324,0.013523,0.002678,0.000431,0.860659
3130000,0.0324,0.013523,0.002678,0.000431,0.875820
3131000,0.0324,0.013523,0.002678,0.000431,0.836331
3132000,0.0324,0.013523,0.002678,0.000431,0.712573
3133000,0.0324,0.013523,0.002678,0.000431,0.740192
3134000,0.0324,0.013523,0.002678,0.000431,0.678255
3135000,0.0324,0.013523,0.002678,0.000431,0.670263
3136000,0.0324,0.013523,0.002678,0.000431,0.689890
3137000,0.0324,0.013523,0.002678,0.000431,0.621842
3138000,0.0324,0.013523,0.002678,0.000431,0.536399
3139000,0.0324,0.013523,0.002678,0.000431,0.543333
3140000,0.0324,0.013523,0.002678,0.000431,0.483981
3141000,0.0324,0.013523,0.002678,0.000431,0.522648
3142000,0.0324,0.013523,0.002678,0.000431,0.532638
3143000,0.0324,0.013523,0.002678,0.000431,0.500670
3144000,0.0324,0.013523,0.002678,0.000431,0.462238
3145000,0.0324,0.013523,0.002678,0.000431,0.513833
3146000,0.0324,0.013523,0.002678,0.000431,0.567896
3147000,0.0324,0.013523,0.002678,0.000431,0.640176
3148000,0.0324,0.013523,0.002678,0.000431,0.689538
3149000,0.0324,0.013523,0.002678,0.000431,0.755001
3150000,0.0324,0.013523,0.002678,0.000431,0.937170
3151000,0.0324,0.013523,0.002678,0.000431,1.004983
3152000,0.0324,0.013523,0.002678,0.000431,0.849024
3153000,0.0324,0.013523,0.002678,0.000431,0.890864
3154000,0.0324,0.013523,0.002678,0.000431,0.929648
3155000,0.0324,0.013523,0.002678,0.000431,0.917543
3156000,0.0324,0.013523,0.002678,0.000431,0.758762
3157000,0.0324,0.013523,0.002678,0.000431,0.676257
3158000,0.0324,0.013523,0.002678,0.000431,0.673672
3159000,0.0324,0.013523,0.002678,0.000431,0.624427
3160000,0.0324,0.013523,0.002678,0.000431,0.619961
3161000,0.0324,0.013523,0.002678,0.000431,0.565663
3162000,0.0324,0.013523,0.002678,0.000431,0.552147
3163000,0.0324,0.013523,0.002678,0.000431,0.593987
3164000,0.0324,0.013523,0.002678,0.000431,0.663917
3165000,0.0324,0.013523,0.002678,0.000431,0.667913
3166000,0.0324,0.013523,0.002678,0.000431,0.735021
3167000,0.0324,0.013523,0.002678,0.000431,0.690361
3168000,0.0324,0.013523,0.002678,0.000431,0.648991
3169000,0.0324,0.013523,0.002678,0.000431,0.657453
3170000,0.0324,0.013523,0.002678,0.000431,0.645112
3171000,0.0324,0.013523,0.002678,0.000431,0.614320
3172000,0.0324,0.013523,0.002678,0.000431,0.550149
3173000,0.0324,0.013523,0.002678,0.000431,0.613027
3174000,0.0324,0.013523,0.002678,0.000431,0.575300
3175000,0.0324,0.013523,0.002678,0.000431,0.510425
3176000,0.0324,0.013523,0.002678,0.000431,0.534283
3177000,0.0324,0.013523,0.002678,0.000431,0.580119
3178000,0.0324,0.013523,0.002678,0.000431,0.630421
3179000,0.0324,0.013523,0.002678,0.000431,0.670381
3180000,0.0324,0.013523,0.002678,0.000431,0.659333
3181000,0.0324,0.013523,0.002678,0.000431,0.669911
3182000,0.0324,0.013523,0.002678,0.000431,0.620314
3183000,0.0324,0.013523,0.002678,0.000431,0.599746
3184000,0.0324,0.013523,0.002678,0.000431,0.546624
3185000,0.0324,0.013523,0.002678,0.000431,0.483393
3186000,0.0324,0.013523,0.002678,0.000431,0.455774
3187000,0.0324,0.013523,0.002678,0.000431,0.394542
3188000,0.0324,0.013523,0.002678,0.000431,0.375973
3189000,0.0324,0.013523,0.002678,0.000431,0.401946
3190000,0.0324,0.013523,0.002678,0.000431,0.406177
3191000,0.0324,0.013523,0.002678,0.000431,0.450603
3192000,0.0324,0.013523,0.002678,0.000431,0.381379
3193000,0.0324,0.013523,0.002678,0.000431,0.380204
3194000,0.0324,0.013523,0.002678,0.000431,0.634652
3195000,0.0324,0.013523,0.002678,0.000431,0.927180
3196000,0.0324,0.013523,0.002678,0.000431,0.863832
3197000,0.0324,0.013523,0.002678,0.000431,0.787321
3198000,0.0324,0.013523,0.002678,0.000431,0.893214
3199000,0.0324,0.013523,0.002678,0.000431,0.933879
3200000,0.0324,0.013523,0.002678,0.000431,0.948923
3201000,0.0324,0.013523,0.002678,0.000431,0.981360
3202000,0.0324,0.013523,0.002678,0.000431,0.841032
3203000,0.0324,0.013523,0.002678,0.000431,0.838564
3204000,0.0324,0.013523,0.002678,0.000431,0.819054
3205000,0.0324,0.013523,0.002678,0.000431,0.724914
3206000,0.0324,0.013523,0.002678,0.000431,0.660861
3207000,0.0324,0.013523,0.002678,0.000431,0.638883
3208000,0.0324,0.013523,0.002678,0.000431,0.626660
3209000,0.0324,0.013523,0.002678,0.000431,0.628541
3210000,0.0324,0.013523,0.002678,0.000431,0.594575
3211000,0.0324,0.013523,0.002678,0.000431,0.535223
3212000,0.0324,0.013523,0.002678,0.000431,0.649578
3213000,0.0324,0.013523,0.002678,0.000431,0.597631
3214000,0.0324,0.013523,0.002678,0.000431,0.585525
3215000,0.0324,0.013523,0.002678,0.000431,0.612439
3216000,0.0324,0.013523,0.002678,0.000431,0.615730
3217000,0.0324,0.013523,0.002678,0.000431,0.709635
3218000,0.0324,0.013523,0.002678,0.000431,0.684954
3219000,0.0324,0.013523,0.002678,0.000431,0.659098
3220000,0.0324,0.013523,0.002678,0.000431,0.661566
3221000,0.0324,0.013523,0.002678,0.000431,0.576828
3222000,0.0324,0.013523,0.002678,0.000431,0.533813
3223000,0.0324,0.013523,0.002678,0.000431,0.489857
3224000,0.0324,0.013523,0.002678,0.000431,0.541687
3225000,0.0324,0.013523,0.002678,0.000431,0.523941
3226000,0.0324,0.013523,0.002678,0.000431,0.444257
3227000,0.0324,0.013523,0.002678,0.000431,0.488565
3228000,0.0324,0.013523,0.002678,0.000431,0.580472
3229000,0.0324,0.013523,0.002678,0.000431,0.531933
3230000,0.0324,0.013523,0.002678,0.000431,0.506076
3231000,0.0324,0.013523,0.002678,0.000431,0.532873
3232000,0.0324,0.013523,0.002678,0.000431,0.565898
3233000,0.0324,0.013523,0.002678,0.000431,0.505371
3234000,0.0324,0.013523,0.002678,0.000431,0.528642
3235000,0.0324,0.013523,0.002678,0.000431,0.635475
3236000,0.0324,0.013523,0.002678,0.000431,0.629128
3237000,0.0324,0.013523,0.002678,0.000431,0.540395
3238000,0.0324,0.013523,0.002678,0.000431,0.651459
3239000,0.0324,0.013523,0.002678,0.000431,0.649578
3240000,0.0324,0.013523,0.002678,0.000431,0.524881
3241000,0.0324,0.013523,0.002678,0.000431,0.568131
3242000,0.0324,0.013523,0.002678,0.000431,0.565663
3243000,0.0324,0.013523,0.002678,0.000431,0.554028
3244000,0.0324,0.013523,0.002678,0.000431,0.601744
3245000,0.0324,0.013523,0.002678,0.000431,0.557554
3246000,0.0324,0.013523,0.002678,0.000431,0.636063
3247000,0.0324,0.013523,0.002678,0.000431,0.727852
3248000,0.0324,0.013523,0.002678,0.000431,0.660861
3249000,0.0324,0.013523,0.002678,0.000431,0.741720
3250000,0.0324,0.013523,0.002678,0.000431,0.704817
3251000,0.0324,0.013523,0.002678,0.000431,0.839504
3252000,0.0324,0.013523,0.002678,0.000431,0.782268
3253000,0.0324,0.013523,0.002678,0.000431,0.802365
3254000,0.0324,0.013523,0.002678,0.000431,0.870296
3255000,0.0324,0.013523,0.002678,0.000431,0.850199
3256000,0.0324,0.013523,0.002678,0.000431,0.828926
3257000,0.0324,0.013523,0.002678,0.000431,0.873469
3258000,0.0324,0.013523,0.002678,0.000431,0.891451
3259000,0.0324,0.013523,0.002678,0.000431,0.940461
3260000,0.0324,0.013523,0.002678,0.000431,0.906025
3261000,0.0324,0.013523,0.002678,0.000431,0.840327
3262000,0.0324,0.013523,0.002678,0.000431,0.865713
3263000,0.0324,0.013523,0.002678,0.000431,0.885575
3264000,0.0324,0.013523,0.002678,0.000431,0.905907
3265000,0.0324,0.013523,0.002678,0.000431,0.825753
3266000,0.0324,0.013523,0.002678,0.000431,0.744188
3267000,0.0324,0.013523,0.002678,0.000431,0.747009
3268000,0.0324,0.013523,0.002678,0.000431,0.725972
3269000,0.0324,0.013523,0.002678,0.000431,0.636650
3270000,0.0324,0.013523,0.002678,0.000431,0.579179
3271000,0.0324,0.013523,0.002678,0.000431,0.586113
3272000,0.0324,0.013523,0.002678,0.000431,0.625485
3273000,0.0324,0.013523,0.002678,0.000431,0.568131
3274000,0.0324,0.013523,0.002678,0.000431,0.532050
3275000,0.0324,0.013523,0.002678,0.000431,0.522060
3276000,0.0324,0.013523,0.002678,0.000431,0.590932
3277000,0.0324,0.013523,0.002678,0.000431,0.615025
3278000,0.0324,0.013523,0.002678,0.000431,0.502903
3279000,0.0324,0.013523,0.002678,0.000431,0.501728
3280000,0.0324,0.013523,0.002678,0.000431,0.482923
3281000,0.0324,0.013523,0.002678,0.000431,0.470465
3282000,0.0324,0.013523,0.002678,0.000431,0.528524
3283000,0.0324,0.013523,0.002678,0.000431,0.603272
3284000,0.0324,0.013523,0.002678,0.000431,0.503256
3285000,0.0324,0.013523,0.002678,0.000431,0.522060
3286000,0.0324,0.013523,0.002678,0.000431,0.733846
3287000,0.0324,0.013523,0.002678,0.000431,0.681311
3288000,0.0324,0.013523,0.002678,0.000431,0.731025
3289000,0.0324,0.013523,0.002678,0.000431,0.692241
3290000,0.0324,0.013523,0.002678,0.000431,0.698470
3291000,0.0324,0.013523,0.002678,0.000431,0.777802
3292000,0.0324,0.013523,0.002678,0.000431,0.678255
3293000,0.0324,0.013523,0.002678,0.000431,0.662976
3294000,0.0324,0.013523,0.002678,0.000431,0.694944
3295000,0.0324,0.013523,0.002678,0.000431,0.647933
3296000,0.0324,0.013523,0.002678,0.000431,0.584233
3297000,0.0324,0.013523,0.002678,0.000431,0.573773
3298000,0.0324,0.013523,0.002678,0.000431,0.638178
3299000,0.0324,0.013523,0.002678,0.000431,0.528407
3300000,0.0324,0.013523,0.002678,0.000431,0.524293
3301000,0.0324,0.013523,0.002678,0.000431,0.654750
3302000,0.0324,0.013523,0.002678,0.000431,0.568954
3303000,0.0324,0.013523,0.002678,0.000431,0.523823
3304000,0.0324,0.013523,0.002678,0.000431,0.583292
3305000,0.0324,0.013523,0.002678,0.000431,0.617846
3306000,0.0324,0.013523,0.002678,0.000431,0.510072
3307000,0.0324,0.013523,0.002678,0.000431,0.483158
3308000,0.0324,0.013523,0.002678,0.000431,0.523235
3309000,0.0324,0.013523,0.002678,0.000431,0.496909
3310000,0.0324,0.013523,0.002678,0.000431,0.426040
3311000,0.0324,0.013523,0.002678,0.000431,0.495029
3312000,0.0324,0.013523,0.002678,0.000431,0.498437
3313000,0.0324,0.013523,0.002678,0.000431,0.496204
3314000,0.0324,0.013523,0.002678,0.000431,0.540395
3315000,0.0324,0.013523,0.002678,0.000431,0.544273
3316000,0.0324,0.013523,0.002678,0.000431,0.615613
3317000,0.0324,0.013523,0.002678,0.000431,0.548739
3318000,0.0324,0.013523,0.002678,0.000431,0.594222
3319000,0.0324,0.013523,0.002678,0.000431,0.722328
3320000,0.0324,0.013523,0.002678,0.000431,0.713631
3321000,0.0324,0.013523,0.002678,0.000431,0.871707
3322000,0.0324,0.013523,0.002678,0.000431,0.888866
3323000,0.0324,0.013523,0.002678,0.000431,0.989587
3324000,0.0324,0.013523,0.002678,0.000431,0.986179
3325000,0.0324,0.013523,0.002678,0.000431,1.014738
3326000,0.0324,0.013523,0.002678,0.000431,1.087488
3327000,0.0324,0.013523,0.002678,0.000431,1.048821
3328000,0.0324,0.013523,0.002678,0.000431,0.921068
3329000,0.0324,0.013523,0.002678,0.000431,0.899561
3330000,0.0324,0.013523,0.002678,0.000431,0.859131
3331000,0.0324,0.013523,0.002678,0.000431,0.847026
3332000,0.0324,0.013523,0.002678,0.000431,0.802835
3333000,0.0324,0.013523,0.002678,0.000431,0.793668
3334000,0.0324,0.013523,0.002678,0.000431,0.830807
3335000,0.0324,0.013523,0.002678,0.000431,0.771690
3336000,0.0324,0.013523,0.002678,0.000431,0.738195
3337000,0.0324,0.013523,0.002678,0.000431,0.755589
3338000,0.0324,0.013523,0.002678,0.000431,0.776039
3339000,0.0324,0.013523,0.002678,0.000431,0.773923
3340000,0.0324,0.013523,0.002678,0.000431,0.753356
3341000,0.0324,0.013523,0.002678,0.000431,0.717980
3342000,0.0324,0.013523,0.002678,0.000431,0.680253
3343000,0.0324,0.013523,0.002678,0.000431,0.781210
3344000,0.0324,0.013523,0.002678,0.000431,0.787321
3345000,0.0324,0.013523,0.002678,0.000431,0.712926
3346000,0.0324,0.013523,0.002678,0.000431,0.718450
3347000,0.0324,0.013523,0.002678,0.000431,0.726207
3348000,0.0324,0.013523,0.002678,0.000431,0.772748
3349000,0.0324,0.013523,0.002678,0.000431,0.676845
3350000,0.0324,0.013523,0.002678,0.000431,0.678255
3351000,0.0324,0.013523,0.002678,0.000431,0.648638
3352000,0.0324,0.013523,0.002678,0.000431,0.692123
3353000,0.0324,0.013523,0.002678,0.000431,0.731143
3354000,0.0324,0.013523,0.002678,0.000431,0.683779
3355000,0.0324,0.013523,0.002678,0.000431,0.735961
3356000,0.0324,0.013523,0.002678,0.000431,0.628071
3357000,0.0324,0.013523,0.002678,0.000431,0.618668
3358000,0.0324,0.013523,0.002678,0.000431,0.639236
3359000,0.0324,0.013523,0.002678,0.000431,0.603507
3360000,0.0324,0.013523,0.002678,0.000431,0.569071
3361000,0.0324,0.013523,0.002678,0.000431,0.597278
3362000,0.0324,0.013523,0.002678,0.000431,0.587758
3363000,0.0324,0.013523,0.002678,0.000431,0.642292
3364000,0.0324,0.013523,0.002678,0.000431,0.607856
3365000,0.0324,0.013523,0.002678,0.000431,0.725501
3366000,0.0324,0.013523,0.002678,0.000431,0.691301
3367000,0.0324,0.013523,0.002678,0.000431,0.612439
3368000,0.0324,0.013523,0.002678,0.000431,0.647345
3369000,0.0324,0.013523,0.002678,0.000431,0.640529
3370000,0.0324,0.013523,0.002678,0.000431,0.755941
3371000,0.0324,0.013523,0.002678,0.000431,0.649461
3372000,0.0324,0.013523,0.002678,0.000431,0.699293
3373000,0.0324,0.013523,0.002678,0.000431,0.796018
3374000,0.0324,0.013523,0.002678,0.000431,0.744071
3375000,0.0324,0.013523,0.002678,0.000431,0.739487
3376000,0.0324,0.013523,0.002678,0.000431,0.688715
3377000,0.0324,0.013523,0.002678,0.000431,0.775686
3378000,0.0324,0.013523,0.002678,0.000431,0.723974
3379000,0.0324,0.013523,0.002678,0.000431,0.648991
3380000,0.0324,0.013523,0.002678,0.000431,0.689773
3381000,0.0324,0.013523,0.002678,0.000431,0.613027
3382000,0.0324,0.013523,0.002678,0.000431,0.567426
3383000,0.0324,0.013523,0.002678,0.000431,0.604095
3384000,0.0324,0.013523,0.002678,0.000431,0.622077
3385000,0.0324,0.013523,0.002678,0.000431,0.529935
3386000,0.0324,0.013523,0.002678,0.000431,0.534988
3387000,0.0324,0.013523,0.002678,0.000431,0.566838
3388000,0.0324,0.013523,0.002678,0.000431,0.582235
3389000,0.0324,0.013523,0.002678,0.000431,0.495499
3390000,0.0324,0.013523,0.002678,0.000431,0.526879
3391000,0.0324,0.013523,0.002678,0.000431,0.592342
3392000,0.0324,0.013523,0.002678,0.000431,0.486567
3393000,0.0324,0.013523,0.002678,0.000431,0.479045
3394000,0.0324,0.013523,0.002678,0.000431,0.502551
3395000,0.0324,0.013523,0.002678,0.000431,0.586231
3396000,0.0324,0.013523,0.002678,0.000431,0.560022
3397000,0.0324,0.013523,0.002678,0.000431,0.502903
3398000,0.0324,0.013523,0.002678,0.000431,0.466352
3399000,0.0324,0.013523,0.002678,0.000431,0.487507
3400000,0.0324,0.013523,0.002678,0.000431,0.534518
3401000,0.0324,0.013523,0.002678,0.000431,0.511953
3402000,0.0324,0.013523,0.002678,0.000431,0.435442
3403000,0.0324,0.013523,0.002678,0.000431,0.435677
3404000,0.0324,0.013523,0.002678,0.000431,0.461651
3405000,0.0324,0.013523,0.002678,0.000431,0.474461
3406000,0.0324,0.013523,0.002678,0.000431,0.433914
3407000,0.0324,0.013523,0.002678,0.000431,0.477752
3408000,0.0324,0.013523,0.002678,0.000431,0.489505
3409000,0.0324,0.013523,0.002678,0.000431,0.525469
3410000,0.0324,0.013523,0.002678,0.000431,0.522530
3411000,0.0324,0.013523,0.002678,0.000431,0.588816
3412000,0.0324,0.013523,0.002678,0.000431,0.591402
3413000,0.0324,0.013523,0.002678,0.000431,0.615965
3414000,0.0324,0.013523,0.002678,0.000431,0.608561
3415000,0.0324,0.013523,0.002678,0.000431,0.671203
3416000,0.0324,0.013523,0.002678,0.000431,0.653104
3417000,0.0324,0.013523,0.002678,0.000431,0.696002
3418000,0.0324,0.013523,0.002678,0.000431,0.705287
3419000,0.0324,0.013523,0.002678,0.000431,0.769692
3420000,0.0324,0.013523,0.002678,0.000431,0.742896
3421000,0.0324,0.013523,0.002678,0.000431,0.757117
3422000,0.0324,0.013523,0.002678,0.000431,0.809182
3423000,0.0324,0.013523,0.002678,0.000431,0.823638
3424000,0.0324,0.013523,0.002678,0.000431,0.775098
3425000,0.0324,0.013523,0.002678,0.000431,0.787674
3426000,0.0324,0.013523,0.002678,0.000431,0.711163
3427000,0.0324,0.013523,0.002678,0.000431,0.755706
3428000,0.0324,0.013523,0.002678,0.000431,0.655572
3429000,0.0324,0.013523,0.002678,0.000431,0.598924
3430000,0.0324,0.013523,0.002678,0.000431,0.623017
3431000,0.0324,0.013523,0.002678,0.000431,0.678490
3432000,0.0324,0.013523,0.002678,0.000431,0.560844
3433000,0.0324,0.013523,0.002678,0.000431,0.567779
3434000,0.0324,0.013523,0.002678,0.000431,0.549679
3435000,0.0324,0.013523,0.002678,0.000431,0.523235
3436000,0.0324,0.013523,0.002678,0.000431,0.621959
3437000,0.0324,0.013523,0.002678,0.000431,0.544743
3438000,0.0324,0.013523,0.002678,0.000431,0.514068
3439000,0.0324,0.013523,0.002678,0.000431,0.569189
3440000,0.0324,0.013523,0.002678,0.000431,0.596338
3441000,0.0324,0.013523,0.002678,0.000431,0.660508
3442000,0.0324,0.013523,0.002678,0.000431,0.600099
3443000,0.0324,0.013523,0.002678,0.000431,0.643114
3444000,0.0324,0.013523,0.002678,0.000431,0.740898
3445000,0.0324,0.013523,0.002678,0.000431,0.686600
3446000,0.0324,0.013523,0.002678,0.000431,0.656747
3447000,0.0324,0.013523,0.002678,0.000431,0.735256
3448000,0.0324,0.013523,0.002678,0.000431,0.725619
3449000,0.0324,0.013523,0.002678,0.000431,0.630774
3450000,0.0324,0.013523,0.002678,0.000431,0.693064
3451000,0.0324,0.013523,0.002678,0.000431,0.690361
3452000,0.0324,0.013523,0.002678,0.000431,0.718802
3453000,0.0324,0.013523,0.002678,0.000431,0.605858
3454000,0.0324,0.013523,0.002678,0.000431,0.688715
3455000,0.0324,0.013523,0.002678,0.000431,0.615025
3456000,0.0324,0.013523,0.002678,0.000431,0.553440
3457000,0.0324,0.013523,0.002678,0.000431,0.510190
3458000,0.0324,0.013523,0.002678,0.000431,0.465882
3459000,0.0324,0.013523,0.002678,0.000431,0.446137
3460000,0.0324,0.013523,0.002678,0.000431,0.419576
3461000,0.0324,0.013523,0.002678,0.000431,0.380321
3462000,0.0324,0.013523,0.002678,0.000431,0.363162
3463000,0.0324,0.013523,0.002678,0.000431,0.338599
3464000,0.0324,0.013523,0.002678,0.000431,0.315328
3465000,0.0324,0.013523,0.002678,0.000431,0.302400
3466000,0.0324,0.013523,0.002678,0.000431,0.286064
3467000,0.0324,0.013523,0.002678,0.000431,0.274663
3468000,0.0324,0.013523,0.002678,0.000431,0.257622
3469000,0.0324,0.013523,0.002678,0.000431,0.236349
3470000,0.0324,0.013523,0.002678,0.000431,0.232471
3471000,0.0324,0.013523,0.002678,0.000431,0.220483
3472000,0.0324,0.013523,0.002678,0.000431,0.216839
3473000,0.0324,0.013523,0.002678,0.000431,0.211668
3474000,0.0324,0.013523,0.002678,0.000431,0.203324
3475000,0.0324,0.013523,0.002678,0.000431,0.196742
3476000,0.0324,0.013523,0.002678,0.000431,0.190278
3477000,0.0324,0.013523,0.002678,0.000431,0.181346
3478000,0.0324,0.013523,0.002678,0.000431,0.178643
3479000,0.0324,0.013523,0.002678,0.000431,0.174412
3480000,0.0324,0.013523,0.002678,0.000431,0.169593
3481000,0.0324,0.013523,0.002678,0.000431,0.166537
3482000,0.0324,0.013523,0.002678,0.000431,0.156312
3483000,0.0324,0.013523,0.002678,0.000431,0.160896
3484000,0.0324,0.013523,0.002678,0.000431,0.150436
3485000,0.0324,0.013523,0.002678,0.000431,0.149378
3486000,0.0324,0.013523,0.002678,0.000431,0.147380
3487000,0.0324,0.013523,0.002678,0.000431,0.148438
3488000,0.0324,0.013523,0.002678,0.000431,0.144560
3489000,0.0324,0.013523,0.002678,0.000431,0.139976
3490000,0.0324,0.013523,0.002678,0.000431,0.135392
3491000,0.0324,0.013523,0.002678,0.000431,0.131632
3492000,0.0324,0.013523,0.002678,0.000431,0.128341
3493000,0.0324,0.013523,0.002678,0.000431,0.126225
3494000,0.0324,0.013523,0.002678,0.000431,0.126695
3495000,0.0324,0.013523,0.002678,0.000431,0.122229
3496000,0.0324,0.013523,0.002678,0.000431,0.121407
3497000,0.0324,0.013523,0.002678,0.000431,0.118586
3498000,0.0324,0.013523,0.002678,0.000431,0.115648
3499000,0.0324,0.013523,0.002678,0.000431,0.110712
3500000,0.0324,0.013523,0.002678,0.000431,0.113767
3501000,0.0324,0.013523,0.002678,0.000431,0.109066
3502000,0.0324,0.013523,0.002678,0.000431,0.106245
3503000,0.0324,0.013523,0.002678,0.000431,0.106128
3504000,0.0324,0.013523,0.002678,0.000431,0.104012
3505000,0.0324,0.013523,0.002678,0.000431,0.104718
3506000,0.0324,0.013523,0.002678,0.000431,0.100134
3507000,0.0324,0.013523,0.002678,0.000431,0.098606
3508000,0.0324,0.013523,0.002678,0.000431,0.098019
3509000,0.0324,0.013523,0.002678,0.000431,0.095433
3510000,0.0324,0.013523,0.002678,0.000431,0.094023
3511000,0.0324,0.013523,0.002678,0.000431,0.089674
3512000,0.0324,0.013523,0.002678,0.000431,0.089556
3513000,0.0324,0.013523,0.002678,0.000431,0.088381
3514000,0.0324,0.013523,0.002678,0.000431,0.084973
3515000,0.0324,0.013523,0.002678,0.000431,0.085913
3516000,0.0324,0.013523,0.002678,0.000431,0.083210
3517000,0.0324,0.013523,0.002678,0.000431,0.083445
3518000,0.0324,0.013523,0.002678,0.000431,0.083445
3519000,0.0324,0.013523,0.002678,0.000431,0.082152
3520000,0.0324,0.013523,0.002678,0.000431,0.081447
3521000,0.0324,0.013523,0.002678,0.000431,0.079096
3522000,0.0324,0.013523,0.002678,0.000431,0.079214
3523000,0.0324,0.013523,0.002678,0.000431,0.079214
3524000,0.0324,0.013523,0.002678,0.000431,0.078626
3525000,0.0324,0.013523,0.002678,0.000431,0.075571
3526000,0.0324,0.013523,0.002678,0.000431,0.077216
3527000,0.0324,0.013523,0.002678,0.000431,0.078626
3528000,0.0324,0.013523,0.002678,0.000431,0.076158
3529000,0.0324,0.013523,0.002678,0.000431,0.075806
3530000,0.0324,0.013523,0.002678,0.000431,0.075101
3531000,0.0324,0.013523,0.002678,0.000431,0.074043
3532000,0.0324,0.013523,0.002678,0.000431,0.073455
3533000,0.0324,0.013523,0.002678,0.000431,0.071927
3534000,0.0324,0.013523,0.002678,0.000431,0.071575
3535000,0.0324,0.013523,0.002678,0.000431,0.070752
3536000,0.0324,0.013523,0.002678,0.000431,0.068519
3537000,0.0324,0.013523,0.002678,0.000431,0.067579
3538000,0.0324,0.013523,0.002678,0.000431,0.065933
3539000,0.0324,0.013523,0.002678,0.000431,0.065698
3540000,0.0324,0.013523,0.002678,0.000431,0.066521
3541000,0.0324,0.013523,0.002678,0.000431,0.065581
3542000,0.0324,0.013523,0.002678,0.000431,0.063700
3543000,0.0324,0.013523,0.002678,0.000431,0.065463
3544000,0.0324,0.013523,0.002678,0.000431,0.064405
3545000,0.0324,0.013523,0.002678,0.000431,0.062407
3546000,0.0324,0.013523,0.002678,0.000431,0.064523
3547000,0.0324,0.013523,0.002678,0.000431,0.061937
3548000,0.0324,0.013523,0.002678,0.000431,0.062172
3549000,0.0324,0.013523,0.002678,0.000431,0.059704
3550000,0.0324,0.013523,0.002678,0.000431,0.060762
3551000,0.0324,0.013523,0.002678,0.000431,0.060880
3552000,0.0324,0.013523,0.002678,0.000431,0.056414
3553000,0.0324,0.013523,0.002678,0.000431,0.059469
3554000,0.0324,0.013523,0.002678,0.000431,0.058412
3555000,0.0324,0.013523,0.002678,0.000431,0.055473
3556000,0.0324,0.013523,0.002678,0.000431,0.057589
3557000,0.0324,0.013523,0.002678,0.000431,0.057354
3558000,0.0324,0.013523,0.002678,0.000431,0.055238
3559000,0.0324,0.013523,0.002678,0.000431,0.056884
3560000,0.0324,0.013523,0.002678,0.000431,0.054416
3561000,0.0324,0.013523,0.002678,0.000431,0.054886
3562000,0.0324,0.013523,0.002678,0.000431,0.054651
3563000,0.0324,0.013523,0.002678,0.000431,0.056061
3564000,0.0324,0.013523,0.002678,0.000431,0.053593
3565000,0.0324,0.013523,0.002678,0.000431,0.052065
3566000,0.0324,0.013523,0.002678,0.000431,0.052888
3567000,0.0324,0.013523,0.002678,0.000431,0.053358
3568000,0.0324,0.013523,0.002678,0.000431,0.052065
3569000,0.0324,0.013523,0.002678,0.000431,0.051360
3570000,0.0324,0.013523,0.002678,0.000431,0.050537
3571000,0.0324,0.013523,0.002678,0.000431,0.051360
3572000,0.0324,0.013523,0.002678,0.000431,0.049832
3573000,0.0324,0.013523,0.002678,0.000431,0.048774
3574000,0.0324,0.013523,0.002678,0.000431,0.048304
3575000,0.0324,0.013523,0.002678,0.000431,0.045013
3576000,0.0324,0.013523,0.002678,0.000431,0.044426
3577000,0.0324,0.013523,0.002678,0.000431,0.044661
3578000,0.0324,0.013523,0.002678,0.000431,0.044308
3579000,0.0324,0.013523,0.002678,0.000431,0.045248
3580000,0.0324,0.013523,0.002678,0.000431,0.043368
3581000,0.0324,0.013523,0.002678,0.000431,0.045013
3582000,0.0324,0.013523,0.002678,0.000431,0.045013
3583000,0.0324,0.013523,0.002678,0.000431,0.042310
3584000,0.0324,0.013523,0.002678,0.000431,0.043485
3585000,0.0324,0.013523,0.002678,0.000431,0.041605
3586000,0.0324,0.013523,0.002678,0.000431,0.044191
3587000,0.0324,0.013523,0.002678,0.000431,0.042780
3588000,0.0324,0.013523,0.002678,0.000431,0.042780
3589000,0.0324,0.013523,0.002678,0.000431,0.040312
3590000,0.0324,0.013523,0.002678,0.000431,0.043133
3591000,0.0324,0.013523,0.002678,0.000431,0.043133
3592000,0.0324,0.013523,0.002678,0.000431,0.041487
3593000,0.0324,0.013523,0.002678,0.000431,0.042663
3594000,0.0324,0.013523,0.002678,0.000431,0.041723
3595000,0.0324,0.013523,0.002678,0.000431,0.040547
3596000,0.0324,0.013523,0.002678,0.000431,0.042428
3597000,0.0324,0.013523,0.002678,0.000431,0.043133
3598000,0.0324,0.013523,0.002678,0.000431,0.041017
3599000,0.0324,0.013523,0.002678,0.000431,0.041370
3600000,0.0324,0.013523,0.002678,0.000431,0.040665
3601000,0.0324,0.013523,0.002678,0.000431,0.041135
3602000,0.0324,0.013523,0.002678,0.000431,0.040782
3603000,0.0324,0.013523,0.002678,0.000431,0.040195
3604000,0.0324,0.013523,0.002678,0.000431,0.041017
3605000,0.0324,0.013523,0.002678,0.000431,0.040782
3606000,0.0324,0.013523,0.002678,0.000431,0.040782
3607000,0.0324,0.013523,0.002678,0.000431,0.039725
3608000,0.0324,0.013523,0.002678,0.000431,0.039960
3609000,0.0324,0.013523,0.002678,0.000431,0.040782
3610000,0.0324,0.013523,0.002678,0.000431,0.039607
3611000,0.0324,0.013523,0.002678,0.000431,0.038784
3612000,0.0324,0.013523,0.002678,0.000431,0.038432
3613000,0.0324,0.013523,0.002678,0.000431,0.038079
3614000,0.0324,0.013523,0.002678,0.000431,0.037021
3615000,0.0324,0.013523,0.002678,0.000431,0.037021
3616000,0.0324,0.013523,0.002678,0.000431,0.037609
3617000,0.0324,0.013523,0.002678,0.000431,0.036081
3618000,0.0324,0.013523,0.002678,0.000431,0.036199
3619000,0.0324,0.013523,0.002678,0.000431,0.035258
3620000,0.0324,0.013523,0.002678,0.000431,0.036316
3621000,0.0324,0.013523,0.002678,0.000431,0.035258
3622000,0.0324,0.013523,0.002678,0.000431,0.036199
3623000,0.0324,0.013523,0.002678,0.000431,0.037021
3624000,0.0324,0.013523,0.002678,0.000431,0.035376
3625000,0.0324,0.013523,0.002678,0.000431,0.037256
3626000,0.0324,0.013523,0.002678,0.000431,0.035729
3627000,0.0324,0.013523,0.002678,0.000431,0.036316
3628000,0.0324,0.013523,0.002678,0.000431,0.034436
3629000,0.0324,0.013523,0.002678,0.000431,0.034201
3630000,0.0324,0.013523,0.002678,0.000431,0.034788
3631000,0.0324,0.013523,0.002678,0.000431,0.033848
3632000,0.0324,0.013523,0.002678,0.000431,0.033966
3633000,0.0324,0.013523,0.002678,0.000431,0.032790
3634000,0.0324,0.013523,0.002678,0.000431,0.032790
3635000,0.0324,0.013523,0.002678,0.000431,0.032555
3636000,0.0324,0.013523,0.002678,0.000431,0.032673
3637000,0.0324,0.013523,0.002678,0.000431,0.033496
3638000,0.0324,0.013523,0.002678,0.000431,0.032790
3639000,0.0324,0.013523,0.002678,0.000431,0.031850
3640000,0.0324,0.013523,0.002678,0.000431,0.031615
3641000,0.0324,0.013523,0.002678,0.000431,0.032673
3642000,0.0324,0.013523,0.002678,0.000431,0.032555
3643000,0.0324,0.013523,0.002678,0.000431,0.033143
3644000,0.0324,0.013523,0.002678,0.000431,0.032085
3645000,0.0324,0.013523,0.002678,0.000431,0.031262
3646000,0.0324,0.013523,0.002678,0.000431,0.033496
3647000,0.0324,0.013523,0.002678,0.000431,0.031850
3648000,0.0324,0.013523,0.002678,0.000431,0.034083
3649000,0.0324,0.013523,0.002678,0.000431,0.032438
3650000,0.0324,0.013523,0.002678,0.000431,0.031615
3651000,0.0324,0.013523,0.002678,0.000431,0.032203
3652000,0.0324,0.013523,0.002678,0.000431,0.032555
3653000,0.0324,0.013523,0.002678,0.000431,0.032555
3654000,0.0324,0.013523,0.002678,0.000431,0.032790
3655000,0.0324,0.013523,0.002678,0.000431,0.032320
3656000,0.0324,0.013523,0.002678,0.000431,0.033260
3657000,0.0324,0.013523,0.002678,0.000431,0.031850
3658000,0.0324,0.013523,0.002678,0.000431,0.031615
3659000,0.0324,0.013523,0.002678,0.000431,0.032203
3660000,0.0324,0.013523,0.002678,0.000431,0.031380
3661000,0.0324,0.013523,0.002678,0.000431,0.030910
3662000,0.0324,0.013523,0.002678,0.000431,0.031968
3663000,0.0324,0.013523,0.002678,0.000431,0.031850
3664000,0.0324,0.013523,0.002678,0.000431,0.031850
3665000,0.0324,0.013523,0.002678,0.000431,0.032320
3666000,0.0324,0.013523,0.002678,0.000431,0.031027
3667000,0.0324,0.013523,0.002678,0.000431,0.031027
3668000,0.0324,0.013523,0.002678,0.000431,0.029735
3669000,0.0324,0.013523,0.002678,0.000431,0.029500
3670000,0.0324,0.013523,0.002678,0.000431,0.030440
3671000,0.0324,0.013523,0.002678,0.000431,0.029852
3672000,0.0324,0.013523,0.002678,0.000431,0.031027
3673000,0.0324,0.013523,0.002678,0.000431,0.030557
3674000,0.0324,0.013523,0.002678,0.000431,0.031027
3675000,0.0324,0.013523,0.002678,0.000431,0.031380
3676000,0.0324,0.013523,0.002678,0.000431,0.031262
3677000,0.0324,0.013523,0.002678,0.000431,0.031027
3678000,0.0324,0.013523,0.002678,0.000431,0.029500
3679000,0.0324,0.013523,0.002678,0.000431,0.029500
3680000,0.0324,0.013523,0.002678,0.000431,0.029382
3681000,0.0324,0.013523,0.002678,0.000431,0.029147
3682000,0.0324,0.013523,0.002678,0.000431,0.029147
3683000,0.0324,0.013523,0.002678,0.000431,0.029500
3684000,0.0324,0.013523,0.002678,0.000431,0.028442
3685000,0.0324,0.013523,0.002678,0.000431,0.028089
3686000,0.0324,0.013523,0.002678,0.000431,0.028794
3687000,0.0324,0.013523,0.002678,0.000431,0.028794
3688000,0.0324,0.013523,0.002678,0.000431,0.028324
3689000,0.0324,0.013523,0.002678,0.000431,0.028324
3690000,0.0324,0.013523,0.002678,0.000431,0.027031
3691000,0.0324,0.013523,0.002678,0.000431,0.027854
3692000,0.0324,0.013523,0.002678,0.000431,0.027502
3693000,0.0324,0.013523,0.002678,0.000431,0.028442
3694000,0.0324,0.013523,0.002678,0.000431,0.026796
3695000,0.0324,0.013523,0.002678,0.000431,0.028207
3696000,0.0324,0.013523,0.002678,0.000431,0.026679
3697000,0.0324,0.013523,0.002678,0.000431,0.027267
3698000,0.0324,0.013523,0.002678,0.000431,0.028677
3699000,0.0324,0.013523,0.002678,0.000431,0.029029
3700000,0.0324,0.013523,0.002678,0.000431,0.026444
3701000,0.0324,0.013523,0.002678,0.000431,0.028677
3702000,0.0324,0.013523,0.002678,0.000431,0.027267
3703000,0.0324,0.013523,0.002678,0.000431,0.027737
3704000,0.0324,0.013523,0.002678,0.000431,0.027267
3705000,0.0324,0.013523,0.002678,0.000431,0.028442
3706000,0.0324,0.013523,0.002678,0.000431,0.028442
3707000,0.0324,0.013523,0.002678,0.000431,0.028089
3708000,0.0324,0.013523,0.002678,0.000431,0.025974
3709000,0.0324,0.013523,0.002678,0.000431,0.026679
3710000,0.0324,0.013523,0.002678,0.000431,0.027149
3711000,0.0324,0.013523,0.002678,0.000431,0.026209
3712000,0.0324,0.013523,0.002678,0.000431,0.024798
3713000,0.0324,0.013523,0.002678,0.000431,0.025504
3714000,0.0324,0.013523,0.002678,0.000431,0.025034
3715000,0.0324,0.013523,0.002678,0.000431,0.024798
3716000,0.0324,0.013523,0.002678,0.000431,0.025386
3717000,0.0324,0.013523,0.002678,0.000431,0.025034
3718000,0.0324,0.013523,0.002678,0.000431,0.025151
3719000,0.0324,0.013523,0.002678,0.000431,0.024328
3720000,0.0324,0.013523,0.002678,0.000431,0.024328
3721000,0.0324,0.013523,0.002678,0.000431,0.024681
3722000,0.0324,0.013523,0.002678,0.000431,0.023388
3723000,0.0324,0.013523,0.002678,0.000431,0.024211
3724000,0.0324,0.013523,0.002678,0.000431,0.023506
3725000,0.0324,0.013523,0.002678,0.000431,0.022800
3726000,0.0324,0.013523,0.002678,0.000431,0.023388
3727000,0.0324,0.013523,0.002678,0.000431,0.023741
3728000,0.0324,0.013523,0.002678,0.000431,0.022213
3729000,0.0324,0.013523,0.002678,0.000431,0.024446
3730000,0.0324,0.013523,0.002678,0.000431,0.023036
3731000,0.0324,0.013523,0.002678,0.000431,0.024328
3732000,0.0324,0.013523,0.002678,0.000431,0.022918
3733000,0.0324,0.013523,0.002678,0.000431,0.023623
3734000,0.0324,0.013523,0.002678,0.000431,0.021978
3735000,0.0324,0.013523,0.002678,0.000431,0.023976
3736000,0.0324,0.013523,0.002678,0.000431,0.023623
3737000,0.0324,0.013523,0.002678,0.000431,0.022918
3738000,0.0324,0.013523,0.002678,0.000431,0.023741
3739000,0.0324,0.013523,0.002678,0.000431,0.022565
3740000,0.0324,0.013523,0.002678,0.000431,0.023271
3741000,0.0324,0.013523,0.002678,0.000431,0.021978
3742000,0.0324,0.013523,0.002678,0.000431,0.023388
3743000,0.0324,0.013523,0.002678,0.000431,0.023153
3744000,0.0324,0.013523,0.002678,0.000431,0.021743
3745000,0.0324,0.013523,0.002678,0.000431,0.023036
3746000,0.0324,0.013523,0.002678,0.000431,0.023036
3747000,0.0324,0.013523,0.002678,0.000431,0.023388
3748000,0.0324,0.013523,0.002678,0.000431,0.022448
3749000,0.0324,0.013523,0.002678,0.000431,0.022213
3750000,0.0324,0.013523,0.002678,0.000431,0.022213
3751000,0.0324,0.013523,0.002678,0.000431,0.023036
3752000,0.0324,0.013523,0.002678,0.000431,0.023271
3753000,0.0324,0.013523,0.002678,0.000431,0.022800
3754000,0.0324,0.013523,0.002678,0.000431,0.022095
3755000,0.0324,0.013523,0.002678,0.000431,0.022565
3756000,0.0324,0.013523,0.002678,0.000431,0.022918
3757000,0.0324,0.013523,0.002678,0.000431,0.023036
3758000,0.0324,0.013523,0.002678,0.000431,0.022330
3759000,0.0324,0.013523,0.002678,0.000431,0.022565
3760000,0.0324,0.013523,0.002678,0.000431,0.021508
3761000,0.0324,0.013523,0.002678,0.000431,0.021978
3762000,0.0324,0.013523,0.002678,0.000431,0.022213
3763000,0.0324,0.013523,0.002678,0.000431,0.022683
3764000,0.0324,0.013523,0.002678,0.000431,0.021390
3765000,0.0324,0.013523,0.002678,0.000431,0.022565
3766000,0.0324,0.013523,0.002678,0.000431,0.021743
3767000,0.0324,0.013523,0.002678,0.000431,0.021860
3768000,0.0324,0.013523,0.002678,0.000431,0.021038
3769000,0.0324,0.013523,0.002678,0.000431,0.022918
3770000,0.0324,0.013523,0.002678,0.000431,0.022213
3771000,0.0324,0.013523,0.002678,0.000431,0.022918
3772000,0.0324,0.013523,0.002678,0.000431,0.022213
3773000,0.0324,0.013523,0.002678,0.000431,0.022330
3774000,0.0324,0.013523,0.002678,0.000431,0.021860
3775000,0.0324,0.013523,0.002678,0.000431,0.022330
3776000,0.0324,0.013523,0.002678,0.000431,0.021860
3777000,0.0324,0.013523,0.002678,0.000431,0.022800
3778000,0.0324,0.013523,0.002678,0.000431,0.021743
3779000,0.0324,0.013523,0.002678,0.000431,0.022918
3780000,0.0324,0.013523,0.002678,0.000431,0.021860
3781000,0.0324,0.013523,0.002678,0.000431,0.022800
3782000,0.0324,0.013523,0.002678,0.000431,0.021625
3783000,0.0324,0.013523,0.002678,0.000431,0.021860
3784000,0.0324,0.013523,0.002678,0.000431,0.021390
3785000,0.0324,0.013523,0.002678,0.000431,0.021390
3786000,0.0324,0.013523,0.002678,0.000431,0.021273
3787000,0.0324,0.013523,0.002678,0.000431,0.021508
3788000,0.0324,0.013523,0.002678,0.000431,0.021038
3789000,0.0324,0.013523,0.002678,0.000431,0.020332
3790000,0.0324,0.013523,0.002678,0.000431,0.020802
3791000,0.0324,0.013523,0.002678,0.000431,0.020685
3792000,0.0324,0.013523,0.002678,0.000431,0.020802
3793000,0.0324,0.013523,0.002678,0.000431,0.019157
3794000,0.0324,0.013523,0.002678,0.000431,0.020685
3795000,0.0324,0.013523,0.002678,0.000431,0.020215
3796000,0.0324,0.013523,0.002678,0.000431,0.020685
3797000,0.0324,0.013523,0.002678,0.000431,0.020215
3798000,0.0324,0.013523,0.002678,0.000431,0.020685
3799000,0.0324,0.013523,0.002678,0.000431,0.020215
3800000,0.0324,0.013523,0.002678,0.000431,0.020802
3801000,0.0324,0.013523,0.002678,0.000431,0.019980
3802000,0.0324,0.013523,0.002678,0.000431,0.020332
3803000,0.0324,0.013523,0.002678,0.000431,0.021038
3804000,0.0324,0.013523,0.002678,0.000431,0.019862
3805000,0.0324,0.013523,0.002678,0.000431,0.018687
3806000,0.0324,0.013523,0.002678,0.000431,0.018687
3807000,0.0324,0.013523,0.002678,0.000431,0.019980
3808000,0.0324,0.013523,0.002678,0.000431,0.019627
3809000,0.0324,0.013523,0.002678,0.000431,0.019510
3810000,0.0324,0.013523,0.002678,0.000431,0.018452
3811000,0.0324,0.013523,0.002678,0.000431,0.019040
3812000,0.0324,0.013523,0.002678,0.000431,0.018569
3813000,0.0324,0.013523,0.002678,0.000431,0.018452
3814000,0.0324,0.013523,0.002678,0.000431,0.017629
3815000,0.0324,0.013523,0.002678,0.000431,0.018569
3816000,0.0324,0.013523,0.002678,0.000431,0.018922
3817000,0.0324,0.013523,0.002678,0.000431,0.018452
3818000,0.0324,0.013523,0.002678,0.000431,0.017982
3819000,0.0324,0.013523,0.002678,0.000431,0.018452
3820000,0.0324,0.013523,0.002678,0.000431,0.018334
3821000,0.0324,0.013523,0.002678,0.000431,0.018452
3822000,0.0324,0.013523,0.002678,0.000431,0.018334
3823000,0.0324,0.013523,0.002678,0.000431,0.017864
3824000,0.0324,0.013523,0.002678,0.000431,0.017982
3825000,0.0324,0.013523,0.002678,0.000431,0.016807
3826000,0.0324,0.013523,0.002678,0.000431,0.016689
3827000,0.0324,0.013523,0.002678,0.000431,0.017394
3828000,0.0324,0.013523,0.002678,0.000431,0.017512
3829000,0.0324,0.013523,0.002678,0.000431,0.017629
3830000,0.0324,0.013523,0.002678,0.000431,0.017394
3831000,0.0324,0.013523,0.002678,0.000431,0.017042
3832000,0.0324,0.013523,0.002678,0.000431,0.016689
3833000,0.0324,0.013523,0.002678,0.000431,0.016924
3834000,0.0324,0.013523,0.002678,0.000431,0.017277
3835000,0.0324,0.013523,0.002678,0.000431,0.016454
3836000,0.0324,0.013523,0.002678,0.000431,0.016807
3837000,0.0324,0.013523,0.002678,0.000431,0.016924
3838000,0.0324,0.013523,0.002678,0.000431,0.016571
3839000,0.0324,0.013523,0.002678,0.000431,0.017042
3840000,0.0324,0.013523,0.002678,0.000431,0.016454
3841000,0.0324,0.013523,0.002678,0.000431,0.017394
3842000,0.0324,0.013523,0.002678,0.000431,0.016454
3843000,0.0324,0.013523,0.002678,0.000431,0.016924
3844000,0.0324,0.013523,0.002678,0.000431,0.016689
3845000,0.0324,0.013523,0.002678,0.000431,0.017277
3846000,0.0324,0.013523,0.002678,0.000431,0.016571
3847000,0.0324,0.013523,0.002678,0.000431,0.015279
3848000,0.0324,0.013523,0.002678,0.000431,0.016219
3849000,0.0324,0.013523,0.002678,0.000431,0.015866
3850000,0.0324,0.013523,0.002678,0.000431,0.015866
3851000,0.0324,0.013523,0.002678,0.000431,0.016571
3852000,0.0324,0.013523,0.002678,0.000431,0.015749
3853000,0.0324,0.013523,0.002678,0.000431,0.015631
3854000,0.0324,0.013523,0.002678,0.000431,0.016219
3855000,0.0324,0.013523,0.002678,0.000431,0.016689
3856000,0.0324,0.013523,0.002678,0.000431,0.015984
3857000,0.0324,0.013523,0.002678,0.000431,0.016101
3858000,0.0324,0.013523,0.002678,0.000431,0.016219
3859000,0.0324,0.013523,0.002678,0.000431,0.016807
3860000,0.0324,0.013523,0.002678,0.000431,0.015631
3861000,0.0324,0.013523,0.002678,0.000431,0.016571
3862000,0.0324,0.013523,0.002678,0.000431,0.016219
3863000,0.0324,0.013523,0.002678,0.000431,0.016101
3864000,0.0324,0.013523,0.002678,0.000431,0.016219
3865000,0.0324,0.013523,0.002678,0.000431,0.016219
3866000,0.0324,0.013523,0.002678,0.000431,0.016219
3867000,0.0324,0.013523,0.002678,0.000431,0.016336
3868000,0.0324,0.013523,0.002678,0.000431,0.016336
3869000,0.0324,0.013523,0.002678,0.000431,0.015279
3870000,0.0324,0.013523,0.002678,0.000431,0.016219
3871000,0.0324,0.013523,0.002678,0.000431,0.015866
3872000,0.0324,0.013523,0.002678,0.000431,0.016689
3873000,0.0324,0.013523,0.002678,0.000431,0.016336
3874000,0.0324,0.013523,0.002678,0.000431,0.015279
3875000,0.0324,0.013523,0.002678,0.000431,0.015984
3876000,0.0324,0.013523,0.002678,0.000431,0.015749
3877000,0.0324,0.013523,0.002678,0.000431,0.015279
3878000,0.0324,0.013523,0.002678,0.000431,0.015984
3879000,0.0324,0.013523,0.002678,0.000431,0.015866
3880000,0.0324,0.013523,0.002678,0.000431,0.015279
3881000,0.0324,0.013523,0.002678,0.000431,0.015279
3882000,0.0324,0.013523,0.002678,0.000431,0.015631
3883000,0.0324,0.013523,0.002678,0.000431,0.015514
3884000,0.0324,0.013523,0.002678,0.000431,0.015044
3885000,0.0324,0.013523,0.002678,0.000431,0.015396
3886000,0.0324,0.013523,0.002678,0.000431,0.015044
3887000,0.0324,0.013523,0.002678,0.000431,0.015279
3888000,0.0324,0.013523,0.002678,0.000431,0.015514
3889000,0.0324,0.013523,0.002678,0.000431,0.015396
3890000,0.0324,0.013523,0.002678,0.000431,0.014456
3891000,0.0324,0.013523,0.002678,0.000431,0.014926
3892000,0.0324,0.013523,0.002678,0.000431,0.015631
3893000,0.0324,0.013523,0.002678,0.000431,0.015044
3894000,0.0324,0.013523,0.002678,0.000431,0.014573
3895000,0.0324,0.013523,0.002678,0.000431,0.014926
3896000,0.0324,0.013523,0.002678,0.000431,0.015044
3897000,0.0324,0.013523,0.002678,0.000431,0.014926
3898000,0.0324,0.013523,0.002678,0.000431,0.014809
3899000,0.0324,0.013523,0.002678,0.000431,0.014691
3900000,0.0324,0.013523,0.002678,0.000431,0.014456
3901000,0.0324,0.013523,0.002678,0.000431,0.015279
3902000,0.0324,0.013523,0.002678,0.000431,0.013986
3903000,0.0324,0.013523,0.002678,0.000431,0.014456
3904000,0.0324,0.013523,0.002678,0.000431,0.013751
3905000,0.0324,0.013523,0.002678,0.000431,0.015044
3906000,0.0324,0.013523,0.002678,0.000431,0.013986
3907000,0.0324,0.013523,0.002678,0.000431,0.014691
3908000,0.0324,0.013523,0.002678,0.000431,0.014338
3909000,0.0324,0.013523,0.002678,0.000431,0.014573
3910000,0.0324,0.013523,0.002678,0.000431,0.015279
3911000,0.0324,0.013523,0.002678,0.000431,0.014573
3912000,0.0324,0.013523,0.002678,0.000431,0.014221
3913000,0.0324,0.013523,0.002678,0.000431,0.014338
3914000,0.0324,0.013523,0.002678,0.000431,0.015279
3915000,0.0324,0.013523,0.002678,0.000431,0.014338
3916000,0.0324,0.013523,0.002678,0.000431,0.014456
3917000,0.0324,0.013523,0.002678,0.000431,0.014809
3918000,0.0324,0.013523,0.002678,0.000431,0.014926
3919000,0.0324,0.013523,0.002678,0.000431,0.014338
3920000,0.0324,0.013523,0.002678,0.000431,0.014691
3921000,0.0324,0.013523,0.002678,0.000431,0.014691
3922000,0.0324,0.013523,0.002678,0.000431,0.014691
3923000,0.0324,0.013523,0.002678,0.000431,0.014338
3924000,0.0324,0.013523,0.002678,0.000431,0.014103
3925000,0.0324,0.013523,0.002678,0.000431,0.014691
3926000,0.0324,0.013523,0.002678,0.000431,0.015044
3927000,0.0324,0.013523,0.002678,0.000431,0.013868
3928000,0.0324,0.013523,0.002678,0.000431,0.014456
3929000,0.0324,0.013523,0.002678,0.000431,0.013163
3930000,0.0324,0.013523,0.002678,0.000431,0.013986
3931000,0.0324,0.013523,0.002678,0.000431,0.014103
3932000,0.0324,0.013523,0.002678,0.000431,0.013633
3933000,0.0324,0.013523,0.002678,0.000431,0.014103
3934000,0.0324,0.013523,0.002678,0.000431,0.014103
3935000,0.0324,0.013523,0.002678,0.000431,0.013046
3936000,0.0324,0.013523,0.002678,0.000431,0.014456
3937000,0.0324,0.013523,0.002678,0.000431,0.013986
3938000,0.0324,0.013523,0.002678,0.000431,0.013751
3939000,0.0324,0.013523,0.002678,0.000431,0.014221
3940000,0.0324,0.013523,0.002678,0.000431,0.013398
3941000,0.0324,0.013523,0.002678,0.000431,0.014691
3942000,0.0324,0.013523,0.002678,0.000431,0.013398
3943000,0.0324,0.013523,0.002678,0.000431,0.013986
3944000,0.0324,0.013523,0.002678,0.000431,0.013986
3945000,0.0324,0.013523,0.002678,0.000431,0.014573
3946000,0.0324,0.013523,0.002678,0.000431,0.014103
3947000,0.0324,0.013523,0.002678,0.000431,0.013633
3948000,0.0324,0.013523,0.002678,0.000431,0.013046
3949000,0.0324,0.013523,0.002678,0.000431,0.012693
3950000,0.0324,0.013523,0.002678,0.000431,0.012928
3951000,0.0324,0.013523,0.002678,0.000431,0.013868
3952000,0.0324,0.013523,0.002678,0.000431,0.012811
3953000,0.0324,0.013523,0.002678,0.000431,0.013046
3954000,0.0324,0.013523,0.002678,0.000431,0.012576
3955000,0.0324,0.013523,0.002678,0.000431,0.012811
3956000,0.0324,0.013523,0.002678,0.000431,0.012811
3957000,0.0324,0.013523,0.002678,0.000431,0.012458
3958000,0.0324,0.013523,0.002678,0.000431,0.012928
3959000,0.0324,0.013523,0.002678,0.000431,0.011870
3960000,0.0324,0.013523,0.002678,0.000431,0.013046
3961000,0.0324,0.013523,0.002678,0.000431,0.011753
3962000,0.0324,0.013523,0.002678,0.000431,0.012340
3963000,0.0324,0.013523,0.002678,0.000431,0.012928
3964000,0.0324,0.013523,0.002678,0.000431,0.012340
3965000,0.0324,0.013523,0.002678,0.000431,0.011988
3966000,0.0324,0.013523,0.002678,0.000431,0.012458
3967000,0.0324,0.013523,0.002678,0.000431,0.012693
3968000,0.0324,0.013523,0.002678,0.000431,0.012458
3969000,0.0324,0.013523,0.002678,0.000431,0.012340
3970000,0.0324,0.013523,0.002678,0.000431,0.012576
3971000,0.0324,0.013523,0.002678,0.000431,0.013046
3972000,0.0324,0.013523,0.002678,0.000431,0.012576
3973000,0.0324,0.013523,0.002678,0.000431,0.013046
3974000,0.0324,0.013523,0.002678,0.000431,0.012576
3975000,0.0324,0.013523,0.002678,0.000431,0.012458
3976000,0.0324,0.013523,0.002678,0.000431,0.012811
3977000,0.0324,0.013523,0.002678,0.000431,0.011870
3978000,0.0324,0.013523,0.002678,0.000431,0.012693
3979000,0.0324,0.013523,0.002678,0.000431,0.013398
3980000,0.0324,0.013523,0.002678,0.000431,0.012576
3981000,0.0324,0.013523,0.002678,0.000431,0.013163
3982000,0.0324,0.013523,0.002678,0.000431,0.012458
3983000,0.0324,0.013523,0.002678,0.000431,0.012105
3984000,0.0324,0.013523,0.002678,0.000431,0.013046
3985000,0.0324,0.013523,0.002678,0.000431,0.012576
3986000,0.0324,0.013523,0.002678,0.000431,0.012223
3987000,0.0324,0.013523,0.002678,0.000431,0.012693
3988000,0.0324,0.013523,0.002678,0.000431,0.012340
3989000,0.0324,0.013523,0.002678,0.000431,0.012928
3990000,0.0324,0.013523,0.002678,0.000431,0.012928
3991000,0.0324,0.013523,0.002678,0.000431,0.012223
3992000,0.0324,0.013523,0.002678,0.000431,0.011283
3993000,0.0324,0.013523,0.002678,0.000431,0.010813
3994000,0.0324,0.013523,0.002678,0.000431,0.011518
3995000,0.0324,0.013523,0.002678,0.000431,0.010813
3996000,0.0324,0.013523,0.002678,0.000431,0.011518
3997000,0.0324,0.013523,0.002678,0.000431,0.011400
3998000,0.0324,0.013523,0.002678,0.000431,0.011518
3999000,0.0324,0.013523,0.002678,0.000431,0.011283
