Cycle,Area(mm^2),PeakDynamic(W),SubthresholdLeakage(W),GateLeakage(W),RunTimeDynamic(W)
1000000,0.0324,0.013523,0.002678,0.000431,0.605623
1001000,0.0324,0.013523,0.002678,0.000431,0.480103
1002000,0.0324,0.013523,0.002678,0.000431,0.448017
1003000,0.0324,0.013523,0.002678,0.000431,0.449663
1004000,0.0324,0.013523,0.002678,0.000431,0.387020
1005000,0.0324,0.013523,0.002678,0.000431,0.446490
1006000,0.0324,0.013523,0.002678,0.000431,0.617258
1007000,0.0324,0.013523,0.002678,0.000431,0.574243
1008000,0.0324,0.013523,0.002678,0.000431,0.459770
1009000,0.0324,0.013523,0.002678,0.000431,0.542863
1010000,0.0324,0.013523,0.002678,0.000431,0.569542
1011000,0.0324,0.013523,0.002678,0.000431,0.467292
1012000,0.0324,0.013523,0.002678,0.000431,0.534636
1013000,0.0324,0.013523,0.002678,0.000431,0.594340
1014000,0.0324,0.013523,0.002678,0.000431,0.479750
1015000,0.0324,0.013523,0.002678,0.000431,0.491973
1016000,0.0324,0.013523,0.002678,0.000431,0.687657
1017000,0.0324,0.013523,0.002678,0.000431,0.628306
1018000,0.0324,0.013523,0.002678,0.000431,0.657570
1019000,0.0324,0.013523,0.002678,0.000431,0.789084
1020000,0.0324,0.013523,0.002678,0.000431,0.810944
1021000,0.0324,0.013523,0.002678,0.000431,0.663447
1022000,0.0324,0.013523,0.002678,0.000431,0.750653
1023000,0.0324,0.013523,0.002678,0.000431,0.972663
1024000,0.0324,0.013523,0.002678,0.000431,0.927415
1025000,0.0324,0.013523,0.002678,0.000431,0.744188
1026000,0.0324,0.013523,0.002678,0.000431,0.845615
1027000,0.0324,0.013523,0.002678,0.000431,0.901324
1028000,0.0324,0.013523,0.002678,0.000431,0.912841
1029000,0.0324,0.013523,0.002678,0.000431,0.896858
1030000,0.0324,0.013523,0.002678,0.000431,0.882754
1031000,0.0324,0.013523,0.002678,0.000431,0.753943
1032000,0.0324,0.013523,0.002678,0.000431,0.802482
1033000,0.0324,0.013523,0.002678,0.000431,0.789907
1034000,0.0324,0.013523,0.002678,0.000431,0.683191
1035000,0.0324,0.013523,0.002678,0.000431,0.628658
1036000,0.0324,0.013523,0.002678,0.000431,0.714454
1037000,0.0324,0.013523,0.002678,0.000431,0.601627
1038000,0.0324,0.013523,0.002678,0.000431,0.636768
1039000,0.0324,0.013523,0.002678,0.000431,0.766284
1040000,0.0324,0.013523,0.002678,0.000431,0.732436
1041000,0.0324,0.013523,0.002678,0.000431,0.722798
1042000,0.0324,0.013523,0.002678,0.000431,0.670851
1043000,0.0324,0.013523,0.002678,0.000431,0.625015
1044000,0.0324,0.013523,0.002678,0.000431,0.587758
1045000,0.0324,0.013523,0.002678,0.000431,0.554968
1046000,0.0324,0.013523,0.002678,0.000431,0.576946
1047000,0.0324,0.013523,0.002678,0.000431,0.570834
1048000,0.0324,0.013523,0.002678,0.000431,0.609619
1049000,0.0324,0.013523,0.002678,0.000431,0.560374
1050000,0.0324,0.013523,0.002678,0.000431,0.659921
1051000,0.0324,0.013523,0.002678,0.000431,0.693299
1052000,0.0324,0.013523,0.002678,0.000431,0.647815
1053000,0.0324,0.013523,0.002678,0.000431,0.597513
1054000,0.0324,0.013523,0.002678,0.000431,0.627248
1055000,0.0324,0.013523,0.002678,0.000431,0.683896
1056000,0.0324,0.013523,0.002678,0.000431,0.652752
1057000,0.0324,0.013523,0.002678,0.000431,0.616083
1058000,0.0324,0.013523,0.002678,0.000431,0.688363
1059000,0.0324,0.013523,0.002678,0.000431,0.667325
1060000,0.0324,0.013523,0.002678,0.000431,0.753826
1061000,0.0324,0.013523,0.002678,0.000431,0.830689
1062000,0.0324,0.013523,0.002678,0.000431,0.734081
1063000,0.0324,0.013523,0.002678,0.000431,0.755001
1064000,0.0324,0.013523,0.002678,0.000431,0.780975
1065000,0.0324,0.013523,0.002678,0.000431,0.704581
1066000,0.0324,0.013523,0.002678,0.000431,0.771690
1067000,0.0324,0.013523,0.002678,0.000431,0.845028
1068000,0.0324,0.013523,0.002678,0.000431,0.766754
1069000,0.0324,0.013523,0.002678,0.000431,0.867711
1070000,0.0324,0.013523,0.002678,0.000431,0.893684
1071000,0.0324,0.013523,0.002678,0.000431,0.855018
1072000,0.0324,0.013523,0.002678,0.000431,0.879346
1073000,0.0324,0.013523,0.002678,0.000431,0.910961
1074000,0.0324,0.013523,0.002678,0.000431,0.849611
1075000,0.0324,0.013523,0.002678,0.000431,0.824108
1076000,0.0324,0.013523,0.002678,0.000431,0.845498
1077000,0.0324,0.013523,0.002678,0.000431,0.812707
1078000,0.0324,0.013523,0.002678,0.000431,0.658393
1079000,0.0324,0.013523,0.002678,0.000431,0.594928
1080000,0.0324,0.013523,0.002678,0.000431,0.673436
1081000,0.0324,0.013523,0.002678,0.000431,0.652987
1082000,0.0324,0.013523,0.002678,0.000431,0.586818
1083000,0.0324,0.013523,0.002678,0.000431,0.618316
1084000,0.0324,0.013523,0.002678,0.000431,0.604565
1085000,0.0324,0.013523,0.002678,0.000431,0.605035
1086000,0.0324,0.013523,0.002678,0.000431,0.643232
1087000,0.0324,0.013523,0.002678,0.000431,0.511835
1088000,0.0324,0.013523,0.002678,0.000431,0.524528
1089000,0.0324,0.013523,0.002678,0.000431,0.481866
1090000,0.0324,0.013523,0.002678,0.000431,0.467057
1091000,0.0324,0.013523,0.002678,0.000431,0.561080
1092000,0.0324,0.013523,0.002678,0.000431,0.479985
1093000,0.0324,0.013523,0.002678,0.000431,0.435912
1094000,0.0324,0.013523,0.002678,0.000431,0.725501
1095000,0.0324,0.013523,0.002678,0.000431,0.782503
1096000,0.0324,0.013523,0.002678,0.000431,0.642879
1097000,0.0324,0.013523,0.002678,0.000431,0.825753
1098000,0.0324,0.013523,0.002678,0.000431,0.883694
1099000,0.0324,0.013523,0.002678,0.000431,0.749360
1100000,0.0324,0.013523,0.002678,0.000431,0.733846
1101000,0.0324,0.013523,0.002678,0.000431,0.800955
1102000,0.0324,0.013523,0.002678,0.000431,0.872764
1103000,0.0324,0.013523,0.002678,0.000431,0.778272
1104000,0.0324,0.013523,0.002678,0.000431,0.778859
1105000,0.0324,0.013523,0.002678,0.000431,0.801425
1106000,0.0324,0.013523,0.002678,0.000431,0.826693
1107000,0.0324,0.013523,0.002678,0.000431,0.806596
1108000,0.0324,0.013523,0.002678,0.000431,0.849024
1109000,0.0324,0.013523,0.002678,0.000431,0.736197
1110000,0.0324,0.013523,0.002678,0.000431,0.776391
1111000,0.0324,0.013523,0.002678,0.000431,0.773100
1112000,0.0324,0.013523,0.002678,0.000431,0.841149
1113000,0.0324,0.013523,0.002678,0.000431,0.753356
1114000,0.0324,0.013523,0.002678,0.000431,0.726089
1115000,0.0324,0.013523,0.002678,0.000431,0.735021
1116000,0.0324,0.013523,0.002678,0.000431,0.829514
1117000,0.0324,0.013523,0.002678,0.000431,0.781797
1118000,0.0324,0.013523,0.002678,0.000431,0.745716
1119000,0.0324,0.013523,0.002678,0.000431,0.875938
1120000,0.0324,0.013523,0.002678,0.000431,0.834920
1121000,0.0324,0.013523,0.002678,0.000431,0.797076
1122000,0.0324,0.013523,0.002678,0.000431,0.796371
1123000,0.0324,0.013523,0.002678,0.000431,0.877936
1124000,0.0324,0.013523,0.002678,0.000431,0.856780
1125000,0.0324,0.013523,0.002678,0.000431,1.023788
1126000,0.0324,0.013523,0.002678,0.000431,1.005101
1127000,0.0324,0.013523,0.002678,0.000431,0.846791
1128000,0.0324,0.013523,0.002678,0.000431,0.977129
1129000,0.0324,0.013523,0.002678,0.000431,0.916015
1130000,0.0324,0.013523,0.002678,0.000431,0.896975
1131000,0.0324,0.013523,0.002678,0.000431,0.786381
1132000,0.0324,0.013523,0.002678,0.000431,0.849024
1133000,0.0324,0.013523,0.002678,0.000431,0.884047
1134000,0.0324,0.013523,0.002678,0.000431,0.737019
1135000,0.0324,0.013523,0.002678,0.000431,0.689185
1136000,0.0324,0.013523,0.002678,0.000431,0.775333
1137000,0.0324,0.013523,0.002678,0.000431,0.742308
1138000,0.0324,0.013523,0.002678,0.000431,0.785441
1139000,0.0324,0.013523,0.002678,0.000431,0.740428
1140000,0.0324,0.013523,0.002678,0.000431,0.756411
1141000,0.0324,0.013523,0.002678,0.000431,0.836918
1142000,0.0324,0.013523,0.002678,0.000431,0.722328
1143000,0.0324,0.013523,0.002678,0.000431,0.705639
1144000,0.0324,0.013523,0.002678,0.000431,0.794843
1145000,0.0324,0.013523,0.002678,0.000431,0.821992
1146000,0.0324,0.013523,0.002678,0.000431,0.797076
1147000,0.0324,0.013523,0.002678,0.000431,0.813765
1148000,0.0324,0.013523,0.002678,0.000431,0.838211
1149000,0.0324,0.013523,0.002678,0.000431,0.948687
1150000,0.0324,0.013523,0.002678,0.000431,0.866418
1151000,0.0324,0.013523,0.002678,0.000431,0.829866
1152000,0.0324,0.013523,0.002678,0.000431,0.887690
1153000,0.0324,0.013523,0.002678,0.000431,0.728322
1154000,0.0324,0.013523,0.002678,0.000431,0.742778
1155000,0.0324,0.013523,0.002678,0.000431,0.682956
1156000,0.0324,0.013523,0.002678,0.000431,0.668500
1157000,0.0324,0.013523,0.002678,0.000431,0.705052
1158000,0.0324,0.013523,0.002678,0.000431,0.679548
1159000,0.0324,0.013523,0.002678,0.000431,0.766519
1160000,0.0324,0.013523,0.002678,0.000431,0.716922
1161000,0.0324,0.013523,0.002678,0.000431,0.758762
1162000,0.0324,0.013523,0.002678,0.000431,0.781327
1163000,0.0324,0.013523,0.002678,0.000431,0.902029
1164000,0.0324,0.013523,0.002678,0.000431,0.845380
1165000,0.0324,0.013523,0.002678,0.000431,0.744188
1166000,0.0324,0.013523,0.002678,0.000431,0.752063
1167000,0.0324,0.013523,0.002678,0.000431,0.802130
1168000,0.0324,0.013523,0.002678,0.000431,0.674612
1169000,0.0324,0.013523,0.002678,0.000431,0.635710
1170000,0.0324,0.013523,0.002678,0.000431,0.713514
1171000,0.0324,0.013523,0.002678,0.000431,0.600099
1172000,0.0324,0.013523,0.002678,0.000431,0.554733
1173000,0.0324,0.013523,0.002678,0.000431,0.616200
1174000,0.0324,0.013523,0.002678,0.000431,0.562255
1175000,0.0324,0.013523,0.002678,0.000431,0.574595
1176000,0.0324,0.013523,0.002678,0.000431,0.729145
1177000,0.0324,0.013523,0.002678,0.000431,0.669088
1178000,0.0324,0.013523,0.002678,0.000431,0.659333
1179000,0.0324,0.013523,0.002678,0.000431,0.691301
1180000,0.0324,0.013523,0.002678,0.000431,0.782385
1181000,0.0324,0.013523,0.002678,0.000431,0.751358
1182000,0.0324,0.013523,0.002678,0.000431,0.719508
1183000,0.0324,0.013523,0.002678,0.000431,0.751945
1184000,0.0324,0.013523,0.002678,0.000431,0.700938
1185000,0.0324,0.013523,0.002678,0.000431,0.660038
1186000,0.0324,0.013523,0.002678,0.000431,0.619609
1187000,0.0324,0.013523,0.002678,0.000431,0.567426
1188000,0.0324,0.013523,0.002678,0.000431,0.604565
1189000,0.0324,0.013523,0.002678,0.000431,0.675199
1190000,0.0324,0.013523,0.002678,0.000431,0.686717
1191000,0.0324,0.013523,0.002678,0.000431,0.745011
1192000,0.0324,0.013523,0.002678,0.000431,0.644289
1193000,0.0324,0.013523,0.002678,0.000431,0.687540
1194000,0.0324,0.013523,0.002678,0.000431,0.722328
1195000,0.0324,0.013523,0.002678,0.000431,0.688833
1196000,0.0324,0.013523,0.002678,0.000431,0.677785
1197000,0.0324,0.013523,0.002678,0.000431,0.696472
1198000,0.0324,0.013523,0.002678,0.000431,0.681899
1199000,0.0324,0.013523,0.002678,0.000431,0.696707
1200000,0.0324,0.013523,0.002678,0.000431,0.730555
1201000,0.0324,0.013523,0.002678,0.000431,0.724914
1202000,0.0324,0.013523,0.002678,0.000431,0.681428
1203000,0.0324,0.013523,0.002678,0.000431,0.810827
1204000,0.0324,0.013523,0.002678,0.000431,0.972546
1205000,0.0324,0.013523,0.002678,0.000431,0.848083
1206000,0.0324,0.013523,0.002678,0.000431,0.819759
1207000,0.0324,0.013523,0.002678,0.000431,0.842912
1208000,0.0324,0.013523,0.002678,0.000431,0.821992
1209000,0.0324,0.013523,0.002678,0.000431,0.782268
1210000,0.0324,0.013523,0.002678,0.000431,0.689185
1211000,0.0324,0.013523,0.002678,0.000431,0.617140
1212000,0.0324,0.013523,0.002678,0.000431,0.602567
1213000,0.0324,0.013523,0.002678,0.000431,0.684484
1214000,0.0324,0.013523,0.002678,0.000431,0.689420
1215000,0.0324,0.013523,0.002678,0.000431,0.717157
1216000,0.0324,0.013523,0.002678,0.000431,0.763463
1217000,0.0324,0.013523,0.002678,0.000431,0.750417
1218000,0.0324,0.013523,0.002678,0.000431,0.737607
1219000,0.0324,0.013523,0.002678,0.000431,0.807301
1220000,0.0324,0.013523,0.002678,0.000431,0.741720
1221000,0.0324,0.013523,0.002678,0.000431,0.690831
1222000,0.0324,0.013523,0.002678,0.000431,0.766989
1223000,0.0324,0.013523,0.002678,0.000431,0.844322
1224000,0.0324,0.013523,0.002678,0.000431,0.770985
1225000,0.0324,0.013523,0.002678,0.000431,0.970078
1226000,0.0324,0.013523,0.002678,0.000431,0.962321
1227000,0.0324,0.013523,0.002678,0.000431,0.851374
1228000,0.0324,0.013523,0.002678,0.000431,0.885927
1229000,0.0324,0.013523,0.002678,0.000431,0.840327
1230000,0.0324,0.013523,0.002678,0.000431,0.824225
1231000,0.0324,0.013523,0.002678,0.000431,0.753591
1232000,0.0324,0.013523,0.002678,0.000431,0.720213
1233000,0.0324,0.013523,0.002678,0.000431,0.677315
1234000,0.0324,0.013523,0.002678,0.000431,0.693064
1235000,0.0324,0.013523,0.002678,0.000431,0.711751
1236000,0.0324,0.013523,0.002678,0.000431,0.660861
1237000,0.0324,0.013523,0.002678,0.000431,0.702701
1238000,0.0324,0.013523,0.002678,0.000431,0.674847
1239000,0.0324,0.013523,0.002678,0.000431,0.647933
1240000,0.0324,0.013523,0.002678,0.000431,0.598806
1241000,0.0324,0.013523,0.002678,0.000431,0.538984
1242000,0.0324,0.013523,0.002678,0.000431,0.531815
1243000,0.0324,0.013523,0.002678,0.000431,0.597161
1244000,0.0324,0.013523,0.002678,0.000431,0.497497
1245000,0.0324,0.013523,0.002678,0.000431,0.554968
1246000,0.0324,0.013523,0.002678,0.000431,0.692946
1247000,0.0324,0.013523,0.002678,0.000431,0.639001
1248000,0.0324,0.013523,0.002678,0.000431,0.629716
1249000,0.0324,0.013523,0.002678,0.000431,0.884635
1250000,0.0324,0.013523,0.002678,0.000431,0.970313
1251000,0.0324,0.013523,0.002678,0.000431,0.851257
1252000,0.0324,0.013523,0.002678,0.000431,0.771690
1253000,0.0324,0.013523,0.002678,0.000431,0.847378
1254000,0.0324,0.013523,0.002678,0.000431,0.911784
1255000,0.0324,0.013523,0.002678,0.000431,0.831747
1256000,0.0324,0.013523,0.002678,0.000431,0.766166
1257000,0.0324,0.013523,0.002678,0.000431,0.821169
1258000,0.0324,0.013523,0.002678,0.000431,0.774041
1259000,0.0324,0.013523,0.002678,0.000431,0.761583
1260000,0.0324,0.013523,0.002678,0.000431,0.801542
1261000,0.0324,0.013523,0.002678,0.000431,0.747362
1262000,0.0324,0.013523,0.002678,0.000431,0.712926
1263000,0.0324,0.013523,0.002678,0.000431,0.652046
1264000,0.0324,0.013523,0.002678,0.000431,0.577651
1265000,0.0324,0.013523,0.002678,0.000431,0.558494
1266000,0.0324,0.013523,0.002678,0.000431,0.477047
1267000,0.0324,0.013523,0.002678,0.000431,0.610794
1268000,0.0324,0.013523,0.002678,0.000431,0.585408
1269000,0.0324,0.013523,0.002678,0.000431,0.517242
1270000,0.0324,0.013523,0.002678,0.000431,0.487154
1271000,0.0324,0.013523,0.002678,0.000431,0.530757
1272000,0.0324,0.013523,0.002678,0.000431,0.602567
1273000,0.0324,0.013523,0.002678,0.000431,0.567896
1274000,0.0324,0.013523,0.002678,0.000431,0.455187
1275000,0.0324,0.013523,0.002678,0.000431,0.484099
1276000,0.0324,0.013523,0.002678,0.000431,0.576593
1277000,0.0324,0.013523,0.002678,0.000431,0.697530
1278000,0.0324,0.013523,0.002678,0.000431,0.576358
1279000,0.0324,0.013523,0.002678,0.000431,0.661214
1280000,0.0324,0.013523,0.002678,0.000431,0.684249
1281000,0.0324,0.013523,0.002678,0.000431,0.666150
1282000,0.0324,0.013523,0.002678,0.000431,0.648050
1283000,0.0324,0.013523,0.002678,0.000431,0.666150
1284000,0.0324,0.013523,0.002678,0.000431,0.662154
1285000,0.0324,0.013523,0.002678,0.000431,0.664974
1286000,0.0324,0.013523,0.002678,0.000431,0.725031
1287000,0.0324,0.013523,0.002678,0.000431,0.745834
1288000,0.0324,0.013523,0.002678,0.000431,0.625485
1289000,0.0324,0.013523,0.002678,0.000431,0.737372
1290000,0.0324,0.013523,0.002678,0.000431,0.843617
1291000,0.0324,0.013523,0.002678,0.000431,0.725619
1292000,0.0324,0.013523,0.002678,0.000431,0.727499
1293000,0.0324,0.013523,0.002678,0.000431,0.784383
1294000,0.0324,0.013523,0.002678,0.000431,0.854195
1295000,0.0324,0.013523,0.002678,0.000431,0.776861
1296000,0.0324,0.013523,0.002678,0.000431,0.707990
1297000,0.0324,0.013523,0.002678,0.000431,0.778389
1298000,0.0324,0.013523,0.002678,0.000431,0.656160
1299000,0.0324,0.013523,0.002678,0.000431,0.619138
1300000,0.0324,0.013523,0.002678,0.000431,0.714101
1301000,0.0324,0.013523,0.002678,0.000431,0.713043
1302000,0.0324,0.013523,0.002678,0.000431,0.703171
1303000,0.0324,0.013523,0.002678,0.000431,0.637473
1304000,0.0324,0.013523,0.002678,0.000431,0.740310
1305000,0.0324,0.013523,0.002678,0.000431,0.721153
1306000,0.0324,0.013523,0.002678,0.000431,0.835038
1307000,0.0324,0.013523,0.002678,0.000431,0.728792
1308000,0.0324,0.013523,0.002678,0.000431,0.737724
1309000,0.0324,0.013523,0.002678,0.000431,0.746069
1310000,0.0324,0.013523,0.002678,0.000431,0.676257
1311000,0.0324,0.013523,0.002678,0.000431,0.704817
1312000,0.0324,0.013523,0.002678,0.000431,0.710105
1313000,0.0324,0.013523,0.002678,0.000431,0.744071
1314000,0.0324,0.013523,0.002678,0.000431,0.758997
1315000,0.0324,0.013523,0.002678,0.000431,0.726207
1316000,0.0324,0.013523,0.002678,0.000431,0.707872
1317000,0.0324,0.013523,0.002678,0.000431,0.789202
1318000,0.0324,0.013523,0.002678,0.000431,0.769692
1319000,0.0324,0.013523,0.002678,0.000431,0.667795
1320000,0.0324,0.013523,0.002678,0.000431,0.607151
1321000,0.0324,0.013523,0.002678,0.000431,0.595045
1322000,0.0324,0.013523,0.002678,0.000431,0.713396
1323000,0.0324,0.013523,0.002678,0.000431,0.784971
1324000,0.0324,0.013523,0.002678,0.000431,0.670616
1325000,0.0324,0.013523,0.002678,0.000431,0.745599
1326000,0.0324,0.013523,0.002678,0.000431,0.798722
1327000,0.0324,0.013523,0.002678,0.000431,0.928825
1328000,0.0324,0.013523,0.002678,0.000431,0.813413
1329000,0.0324,0.013523,0.002678,0.000431,0.740075
1330000,0.0324,0.013523,0.002678,0.000431,0.800484
1331000,0.0324,0.013523,0.002678,0.000431,0.808946
1332000,0.0324,0.013523,0.002678,0.000431,0.637708
1333000,0.0324,0.013523,0.002678,0.000431,0.600569
1334000,0.0324,0.013523,0.002678,0.000431,0.569189
1335000,0.0324,0.013523,0.002678,0.000431,0.553675
1336000,0.0324,0.013523,0.002678,0.000431,0.495029
1337000,0.0324,0.013523,0.002678,0.000431,0.481513
1338000,0.0324,0.013523,0.002678,0.000431,0.657335
1339000,0.0324,0.013523,0.002678,0.000431,0.599746
1340000,0.0324,0.013523,0.002678,0.000431,0.608091
1341000,0.0324,0.013523,0.002678,0.000431,0.545801
1342000,0.0324,0.013523,0.002678,0.000431,0.535693
1343000,0.0324,0.013523,0.002678,0.000431,0.496439
1344000,0.0324,0.013523,0.002678,0.000431,0.453776
1345000,0.0324,0.013523,0.002678,0.000431,0.463061
1346000,0.0324,0.013523,0.002678,0.000431,0.459770
1347000,0.0324,0.013523,0.002678,0.000431,0.475637
1348000,0.0324,0.013523,0.002678,0.000431,0.465177
1349000,0.0324,0.013523,0.002678,0.000431,0.454834
1350000,0.0324,0.013523,0.002678,0.000431,0.450368
1351000,0.0324,0.013523,0.002678,0.000431,0.531462
1352000,0.0324,0.013523,0.002678,0.000431,0.542980
1353000,0.0324,0.013523,0.002678,0.000431,0.575888
1354000,0.0324,0.013523,0.002678,0.000431,0.700350
1355000,0.0324,0.013523,0.002678,0.000431,0.777096
1356000,0.0324,0.013523,0.002678,0.000431,0.691418
1357000,0.0324,0.013523,0.002678,0.000431,0.701408
1358000,0.0324,0.013523,0.002678,0.000431,0.697412
1359000,0.0324,0.013523,0.002678,0.000431,0.721976
1360000,0.0324,0.013523,0.002678,0.000431,0.683309
1361000,0.0324,0.013523,0.002678,0.000431,0.723739
1362000,0.0324,0.013523,0.002678,0.000431,0.685189
1363000,0.0324,0.013523,0.002678,0.000431,0.655337
1364000,0.0324,0.013523,0.002678,0.000431,0.690125
1365000,0.0324,0.013523,0.002678,0.000431,0.682839
1366000,0.0324,0.013523,0.002678,0.000431,0.671321
1367000,0.0324,0.013523,0.002678,0.000431,0.708695
1368000,0.0324,0.013523,0.002678,0.000431,0.715747
1369000,0.0324,0.013523,0.002678,0.000431,0.894742
1370000,0.0324,0.013523,0.002678,0.000431,0.864302
1371000,0.0324,0.013523,0.002678,0.000431,0.766519
1372000,0.0324,0.013523,0.002678,0.000431,0.765696
1373000,0.0324,0.013523,0.002678,0.000431,0.718450
1374000,0.0324,0.013523,0.002678,0.000431,0.703406
1375000,0.0324,0.013523,0.002678,0.000431,0.722446
1376000,0.0324,0.013523,0.002678,0.000431,0.713749
1377000,0.0324,0.013523,0.002678,0.000431,0.596456
1378000,0.0324,0.013523,0.002678,0.000431,0.596808
1379000,0.0324,0.013523,0.002678,0.000431,0.611969
1380000,0.0324,0.013523,0.002678,0.000431,0.623134
1381000,0.0324,0.013523,0.002678,0.000431,0.568131
1382000,0.0324,0.013523,0.002678,0.000431,0.466469
1383000,0.0324,0.013523,0.002678,0.000431,0.516889
1384000,0.0324,0.013523,0.002678,0.000431,0.612087
1385000,0.0324,0.013523,0.002678,0.000431,0.589639
1386000,0.0324,0.013523,0.002678,0.000431,0.607621
1387000,0.0324,0.013523,0.002678,0.000431,0.598924
1388000,0.0324,0.013523,0.002678,0.000431,0.632067
1389000,0.0324,0.013523,0.002678,0.000431,0.648050
1390000,0.0324,0.013523,0.002678,0.000431,0.628776
1391000,0.0324,0.013523,0.002678,0.000431,0.572950
1392000,0.0324,0.013523,0.002678,0.000431,0.658628
1393000,0.0324,0.013523,0.002678,0.000431,0.764286
1394000,0.0324,0.013523,0.002678,0.000431,0.804598
1395000,0.0324,0.013523,0.002678,0.000431,0.731495
1396000,0.0324,0.013523,0.002678,0.000431,0.680018
1397000,0.0324,0.013523,0.002678,0.000431,0.725737
1398000,0.0324,0.013523,0.002678,0.000431,0.649461
1399000,0.0324,0.013523,0.002678,0.000431,0.705052
1400000,0.0324,0.013523,0.002678,0.000431,0.654867
1401000,0.0324,0.013523,0.002678,0.000431,0.582352
1402000,0.0324,0.013523,0.002678,0.000431,0.588346
1403000,0.0324,0.013523,0.002678,0.000431,0.494676
1404000,0.0324,0.013523,0.002678,0.000431,0.488800
1405000,0.0324,0.013523,0.002678,0.000431,0.514538
1406000,0.0324,0.013523,0.002678,0.000431,0.444727
1407000,0.0324,0.013523,0.002678,0.000431,0.435912
1408000,0.0324,0.013523,0.002678,0.000431,0.430976
1409000,0.0324,0.013523,0.002678,0.000431,0.440143
1410000,0.0324,0.013523,0.002678,0.000431,0.481983
1411000,0.0324,0.013523,0.002678,0.000431,0.486449
1412000,0.0324,0.013523,0.002678,0.000431,0.650989
1413000,0.0324,0.013523,0.002678,0.000431,0.548622
1414000,0.0324,0.013523,0.002678,0.000431,0.521825
1415000,0.0324,0.013523,0.002678,0.000431,0.600922
1416000,0.0324,0.013523,0.002678,0.000431,0.620666
1417000,0.0324,0.013523,0.002678,0.000431,0.569894
1418000,0.0324,0.013523,0.002678,0.000431,0.507252
1419000,0.0324,0.013523,0.002678,0.000431,0.546036
1420000,0.0324,0.013523,0.002678,0.000431,0.498555
1421000,0.0324,0.013523,0.002678,0.000431,0.452719
1422000,0.0324,0.013523,0.002678,0.000431,0.474579
1423000,0.0324,0.013523,0.002678,0.000431,0.402887
1424000,0.0324,0.013523,0.002678,0.000431,0.382319
1425000,0.0324,0.013523,0.002678,0.000431,0.416520
1426000,0.0324,0.013523,0.002678,0.000431,0.448252
1427000,0.0324,0.013523,0.002678,0.000431,0.384552
1428000,0.0324,0.013523,0.002678,0.000431,0.442141
1429000,0.0324,0.013523,0.002678,0.000431,0.426745
1430000,0.0324,0.013523,0.002678,0.000431,0.463414
1431000,0.0324,0.013523,0.002678,0.000431,0.524881
1432000,0.0324,0.013523,0.002678,0.000431,0.498319
1433000,0.0324,0.013523,0.002678,0.000431,0.589639
1434000,0.0324,0.013523,0.002678,0.000431,0.844675
1435000,0.0324,0.013523,0.002678,0.000431,0.725384
1436000,0.0324,0.013523,0.002678,0.000431,0.723268
1437000,0.0324,0.013523,0.002678,0.000431,0.837153
1438000,0.0324,0.013523,0.002678,0.000431,0.735256
1439000,0.0324,0.013523,0.002678,0.000431,0.827281
1440000,0.0324,0.013523,0.002678,0.000431,0.792022
1441000,0.0324,0.013523,0.002678,0.000431,0.769575
1442000,0.0324,0.013523,0.002678,0.000431,0.799779
1443000,0.0324,0.013523,0.002678,0.000431,0.886398
1444000,0.0324,0.013523,0.002678,0.000431,0.829279
1445000,0.0324,0.013523,0.002678,0.000431,0.812707
1446000,0.0324,0.013523,0.002678,0.000431,0.776744
1447000,0.0324,0.013523,0.002678,0.000431,0.773570
1448000,0.0324,0.013523,0.002678,0.000431,0.804363
1449000,0.0324,0.013523,0.002678,0.000431,0.729497
1450000,0.0324,0.013523,0.002678,0.000431,0.627953
1451000,0.0324,0.013523,0.002678,0.000431,0.614672
1452000,0.0324,0.013523,0.002678,0.000431,0.561197
1453000,0.0324,0.013523,0.002678,0.000431,0.554263
1454000,0.0324,0.013523,0.002678,0.000431,0.492913
1455000,0.0324,0.013523,0.002678,0.000431,0.500317
1456000,0.0324,0.013523,0.002678,0.000431,0.523000
1457000,0.0324,0.013523,0.002678,0.000431,0.501023
1458000,0.0324,0.013523,0.002678,0.000431,0.532168
1459000,0.0324,0.013523,0.002678,0.000431,0.596808
1460000,0.0324,0.013523,0.002678,0.000431,0.656512
1461000,0.0324,0.013523,0.002678,0.000431,0.600451
1462000,0.0324,0.013523,0.002678,0.000431,0.625250
1463000,0.0324,0.013523,0.002678,0.000431,0.683896
1464000,0.0324,0.013523,0.002678,0.000431,0.703994
1465000,0.0324,0.013523,0.002678,0.000431,0.647815
1466000,0.0324,0.013523,0.002678,0.000431,0.642292
1467000,0.0324,0.013523,0.002678,0.000431,0.719743
1468000,0.0324,0.013523,0.002678,0.000431,0.659686
1469000,0.0324,0.013523,0.002678,0.000431,0.709870
1470000,0.0324,0.013523,0.002678,0.000431,0.786264
1471000,0.0324,0.013523,0.002678,0.000431,0.686012
1472000,0.0324,0.013523,0.002678,0.000431,0.760877
1473000,0.0324,0.013523,0.002678,0.000431,0.762170
1474000,0.0324,0.013523,0.002678,0.000431,0.706109
1475000,0.0324,0.013523,0.002678,0.000431,0.658393
1476000,0.0324,0.013523,0.002678,0.000431,0.677785
1477000,0.0324,0.013523,0.002678,0.000431,0.637238
1478000,0.0324,0.013523,0.002678,0.000431,0.684719
1479000,0.0324,0.013523,0.002678,0.000431,0.720330
1480000,0.0324,0.013523,0.002678,0.000431,0.588699
1481000,0.0324,0.013523,0.002678,0.000431,0.629834
1482000,0.0324,0.013523,0.002678,0.000431,0.532285
1483000,0.0324,0.013523,0.002678,0.000431,0.592107
1484000,0.0324,0.013523,0.002678,0.000431,0.743601
1485000,0.0324,0.013523,0.002678,0.000431,0.760995
1486000,0.0324,0.013523,0.002678,0.000431,0.574830
1487000,0.0324,0.013523,0.002678,0.000431,0.684249
1488000,0.0324,0.013523,0.002678,0.000431,0.789084
1489000,0.0324,0.013523,0.002678,0.000431,0.712691
1490000,0.0324,0.013523,0.002678,0.000431,0.670381
1491000,0.0324,0.013523,0.002678,0.000431,0.812472
1492000,0.0324,0.013523,0.002678,0.000431,0.910021
1493000,0.0324,0.013523,0.002678,0.000431,0.794373
1494000,0.0324,0.013523,0.002678,0.000431,0.835508
1495000,0.0324,0.013523,0.002678,0.000431,0.896270
1496000,0.0324,0.013523,0.002678,0.000431,0.749595
1497000,0.0324,0.013523,0.002678,0.000431,0.754413
1498000,0.0324,0.013523,0.002678,0.000431,0.959147
1499000,0.0324,0.013523,0.002678,0.000431,0.897093
1500000,0.0324,0.013523,0.002678,0.000431,0.803070
1501000,0.0324,0.013523,0.002678,0.000431,0.838446
1502000,0.0324,0.013523,0.002678,0.000431,0.812472
1503000,0.0324,0.013523,0.002678,0.000431,0.747244
1504000,0.0324,0.013523,0.002678,0.000431,0.706579
1505000,0.0324,0.013523,0.002678,0.000431,0.784736
1506000,0.0324,0.013523,0.002678,0.000431,0.749360
1507000,0.0324,0.013523,0.002678,0.000431,0.712338
1508000,0.0324,0.013523,0.002678,0.000431,0.682134
1509000,0.0324,0.013523,0.002678,0.000431,0.666267
1510000,0.0324,0.013523,0.002678,0.000431,0.666150
1511000,0.0324,0.013523,0.002678,0.000431,0.585173
1512000,0.0324,0.013523,0.002678,0.000431,0.612087
1513000,0.0324,0.013523,0.002678,0.000431,0.599864
1514000,0.0324,0.013523,0.002678,0.000431,0.655572
1515000,0.0324,0.013523,0.002678,0.000431,0.643114
1516000,0.0324,0.013523,0.002678,0.000431,0.720683
1517000,0.0324,0.013523,0.002678,0.000431,0.783090
1518000,0.0324,0.013523,0.002678,0.000431,0.720800
1519000,0.0324,0.013523,0.002678,0.000431,0.707637
1520000,0.0324,0.013523,0.002678,0.000431,0.683191
1521000,0.0324,0.013523,0.002678,0.000431,0.654162
1522000,0.0324,0.013523,0.002678,0.000431,0.609854
1523000,0.0324,0.013523,0.002678,0.000431,0.537456
1524000,0.0324,0.013523,0.002678,0.000431,0.487977
1525000,0.0324,0.013523,0.002678,0.000431,0.549562
1526000,0.0324,0.013523,0.002678,0.000431,0.589991
1527000,0.0324,0.013523,0.002678,0.000431,0.615260
1528000,0.0324,0.013523,0.002678,0.000431,0.540982
1529000,0.0324,0.013523,0.002678,0.000431,0.528642
1530000,0.0324,0.013523,0.002678,0.000431,0.537104
1531000,0.0324,0.013523,0.002678,0.000431,0.570012
1532000,0.0324,0.013523,0.002678,0.000431,0.660978
1533000,0.0324,0.013523,0.002678,0.000431,0.611264
1534000,0.0324,0.013523,0.002678,0.000431,0.537456
1535000,0.0324,0.013523,0.002678,0.000431,0.557671
1536000,0.0324,0.013523,0.002678,0.000431,0.597631
1537000,0.0324,0.013523,0.002678,0.000431,0.689303
1538000,0.0324,0.013523,0.002678,0.000431,0.667560
1539000,0.0324,0.013523,0.002678,0.000431,0.587758
1540000,0.0324,0.013523,0.002678,0.000431,0.670498
1541000,0.0324,0.013523,0.002678,0.000431,0.654044
1542000,0.0324,0.013523,0.002678,0.000431,0.627248
1543000,0.0324,0.013523,0.002678,0.000431,0.668030
1544000,0.0324,0.013523,0.002678,0.000431,0.571540
1545000,0.0324,0.013523,0.002678,0.000431,0.633359
1546000,0.0324,0.013523,0.002678,0.000431,0.689538
1547000,0.0324,0.013523,0.002678,0.000431,0.649108
1548000,0.0324,0.013523,0.002678,0.000431,0.696002
1549000,0.0324,0.013523,0.002678,0.000431,0.771808
1550000,0.0324,0.013523,0.002678,0.000431,0.643467
1551000,0.0324,0.013523,0.002678,0.000431,0.631949
1552000,0.0324,0.013523,0.002678,0.000431,0.726794
1553000,0.0324,0.013523,0.002678,0.000431,0.736314
1554000,0.0324,0.013523,0.002678,0.000431,0.642292
1555000,0.0324,0.013523,0.002678,0.000431,0.685072
1556000,0.0324,0.013523,0.002678,0.000431,0.764168
1557000,0.0324,0.013523,0.002678,0.000431,0.721976
1558000,0.0324,0.013523,0.002678,0.000431,0.604095
1559000,0.0324,0.013523,0.002678,0.000431,0.713161
1560000,0.0324,0.013523,0.002678,0.000431,0.771220
1561000,0.0324,0.013523,0.002678,0.000431,0.732906
1562000,0.0324,0.013523,0.002678,0.000431,0.633594
1563000,0.0324,0.013523,0.002678,0.000431,0.592812
1564000,0.0324,0.013523,0.002678,0.000431,0.646993
1565000,0.0324,0.013523,0.002678,0.000431,0.700703
1566000,0.0324,0.013523,0.002678,0.000431,0.585173
1567000,0.0324,0.013523,0.002678,0.000431,0.540160
1568000,0.0324,0.013523,0.002678,0.000431,0.653927
1569000,0.0324,0.013523,0.002678,0.000431,0.621489
1570000,0.0324,0.013523,0.002678,0.000431,0.529229
1571000,0.0324,0.013523,0.002678,0.000431,0.624192
1572000,0.0324,0.013523,0.002678,0.000431,0.638883
1573000,0.0324,0.013523,0.002678,0.000431,0.538044
1574000,0.0324,0.013523,0.002678,0.000431,0.491033
1575000,0.0324,0.013523,0.002678,0.000431,0.483864
1576000,0.0324,0.013523,0.002678,0.000431,0.429448
1577000,0.0324,0.013523,0.002678,0.000431,0.433444
1578000,0.0324,0.013523,0.002678,0.000431,0.517359
1579000,0.0324,0.013523,0.002678,0.000431,0.444962
1580000,0.0324,0.013523,0.002678,0.000431,0.423689
1581000,0.0324,0.013523,0.002678,0.000431,0.566016
1582000,0.0324,0.013523,0.002678,0.000431,0.623134
1583000,0.0324,0.013523,0.002678,0.000431,0.699410
1584000,0.0324,0.013523,0.002678,0.000431,0.622077
1585000,0.0324,0.013523,0.002678,0.000431,0.674494
1586000,0.0324,0.013523,0.002678,0.000431,0.659098
1587000,0.0324,0.013523,0.002678,0.000431,0.575065
1588000,0.0324,0.013523,0.002678,0.000431,0.605975
1589000,0.0324,0.013523,0.002678,0.000431,0.581882
1590000,0.0324,0.013523,0.002678,0.000431,0.488800
1591000,0.0324,0.013523,0.002678,0.000431,0.488917
1592000,0.0324,0.013523,0.002678,0.000431,0.657335
1593000,0.0324,0.013523,0.002678,0.000431,0.648285
1594000,0.0324,0.013523,0.002678,0.000431,0.560962
1595000,0.0324,0.013523,0.002678,0.000431,0.650871
1596000,0.0324,0.013523,0.002678,0.000431,0.891921
1597000,0.0324,0.013523,0.002678,0.000431,0.809064
1598000,0.0324,0.013523,0.002678,0.000431,0.725031
1599000,0.0324,0.013523,0.002678,0.000431,0.721506
1600000,0.0324,0.013523,0.002678,0.000431,0.778742
1601000,0.0324,0.013523,0.002678,0.000431,0.864890
1602000,0.0324,0.013523,0.002678,0.000431,0.728792
1603000,0.0324,0.013523,0.002678,0.000431,0.735374
1604000,0.0324,0.013523,0.002678,0.000431,0.790495
1605000,0.0324,0.013523,0.002678,0.000431,0.676257
1606000,0.0324,0.013523,0.002678,0.000431,0.646993
1607000,0.0324,0.013523,0.002678,0.000431,0.606680
1608000,0.0324,0.013523,0.002678,0.000431,0.611029
1609000,0.0324,0.013523,0.002678,0.000431,0.591049
1610000,0.0324,0.013523,0.002678,0.000431,0.661684
1611000,0.0324,0.013523,0.002678,0.000431,0.721153
1612000,0.0324,0.013523,0.002678,0.000431,0.731260
1613000,0.0324,0.013523,0.002678,0.000431,0.868533
1614000,0.0324,0.013523,0.002678,0.000431,0.971370
1615000,0.0324,0.013523,0.002678,0.000431,0.900618
1616000,0.0324,0.013523,0.002678,0.000431,0.914017
1617000,0.0324,0.013523,0.002678,0.000431,0.813413
1618000,0.0324,0.013523,0.002678,0.000431,0.746421
1619000,0.0324,0.013523,0.002678,0.000431,0.684132
1620000,0.0324,0.013523,0.002678,0.000431,0.619138
1621000,0.0324,0.013523,0.002678,0.000431,0.575771
1622000,0.0324,0.013523,0.002678,0.000431,0.573773
1623000,0.0324,0.013523,0.002678,0.000431,0.615495
1624000,0.0324,0.013523,0.002678,0.000431,0.628541
1625000,0.0324,0.013523,0.002678,0.000431,0.690008
1626000,0.0324,0.013523,0.002678,0.000431,0.756764
1627000,0.0324,0.013523,0.002678,0.000431,0.689420
1628000,0.0324,0.013523,0.002678,0.000431,0.734434
1629000,0.0324,0.013523,0.002678,0.000431,0.753238
1630000,0.0324,0.013523,0.002678,0.000431,0.765108
1631000,0.0324,0.013523,0.002678,0.000431,0.829279
1632000,0.0324,0.013523,0.002678,0.000431,0.816586
1633000,0.0324,0.013523,0.002678,0.000431,0.719743
1634000,0.0324,0.013523,0.002678,0.000431,0.708930
1635000,0.0324,0.013523,0.002678,0.000431,0.711281
1636000,0.0324,0.013523,0.002678,0.000431,0.787086
1637000,0.0324,0.013523,0.002678,0.000431,0.689185
1638000,0.0324,0.013523,0.002678,0.000431,0.646405
1639000,0.0324,0.013523,0.002678,0.000431,0.700585
1640000,0.0324,0.013523,0.002678,0.000431,0.770750
1641000,0.0324,0.013523,0.002678,0.000431,0.736079
1642000,0.0324,0.013523,0.002678,0.000431,0.661566
1643000,0.0324,0.013523,0.002678,0.000431,0.612439
1644000,0.0324,0.013523,0.002678,0.000431,0.592577
1645000,0.0324,0.013523,0.002678,0.000431,0.629481
1646000,0.0324,0.013523,0.002678,0.000431,0.636415
1647000,0.0324,0.013523,0.002678,0.000431,0.572127
1648000,0.0324,0.013523,0.002678,0.000431,0.572245
1649000,0.0324,0.013523,0.002678,0.000431,0.706227
1650000,0.0324,0.013523,0.002678,0.000431,0.621136
1651000,0.0324,0.013523,0.002678,0.000431,0.556026
1652000,0.0324,0.013523,0.002678,0.000431,0.544626
1653000,0.0324,0.013523,0.002678,0.000431,0.598218
1654000,0.0324,0.013523,0.002678,0.000431,0.638178
1655000,0.0324,0.013523,0.002678,0.000431,0.621254
1656000,0.0324,0.013523,0.002678,0.000431,0.707990
1657000,0.0324,0.013523,0.002678,0.000431,0.598689
1658000,0.0324,0.013523,0.002678,0.000431,0.611617
1659000,0.0324,0.013523,0.002678,0.000431,0.710223
1660000,0.0324,0.013523,0.002678,0.000431,0.725972
1661000,0.0324,0.013523,0.002678,0.000431,0.657570
1662000,0.0324,0.013523,0.002678,0.000431,0.650636
1663000,0.0324,0.013523,0.002678,0.000431,0.599511
1664000,0.0324,0.013523,0.002678,0.000431,0.548974
1665000,0.0324,0.013523,0.002678,0.000431,0.503138
1666000,0.0324,0.013523,0.002678,0.000431,0.538044
1667000,0.0324,0.013523,0.002678,0.000431,0.502080
1668000,0.0324,0.013523,0.002678,0.000431,0.428155
1669000,0.0324,0.013523,0.002678,0.000431,0.491385
1670000,0.0324,0.013523,0.002678,0.000431,0.460828
1671000,0.0324,0.013523,0.002678,0.000431,0.498084
1672000,0.0324,0.013523,0.002678,0.000431,0.490328
1673000,0.0324,0.013523,0.002678,0.000431,0.505841
1674000,0.0324,0.013523,0.002678,0.000431,0.563430
1675000,0.0324,0.013523,0.002678,0.000431,0.559199
1676000,0.0324,0.013523,0.002678,0.000431,0.668265
1677000,0.0324,0.013523,0.002678,0.000431,0.574830
1678000,0.0324,0.013523,0.002678,0.000431,0.651224
1679000,0.0324,0.013523,0.002678,0.000431,0.734199
1680000,0.0324,0.013523,0.002678,0.000431,0.672614
1681000,0.0324,0.013523,0.002678,0.000431,0.708812
1682000,0.0324,0.013523,0.002678,0.000431,0.756646
1683000,0.0324,0.013523,0.002678,0.000431,0.669088
1684000,0.0324,0.013523,0.002678,0.000431,0.602567
1685000,0.0324,0.013523,0.002678,0.000431,0.612909
1686000,0.0324,0.013523,0.002678,0.000431,0.611734
1687000,0.0324,0.013523,0.002678,0.000431,0.625603
1688000,0.0324,0.013523,0.002678,0.000431,0.711163
1689000,0.0324,0.013523,0.002678,0.000431,0.764638
1690000,0.0324,0.013523,0.002678,0.000431,0.799309
1691000,0.0324,0.013523,0.002678,0.000431,0.696002
1692000,0.0324,0.013523,0.002678,0.000431,0.726677
1693000,0.0324,0.013523,0.002678,0.000431,0.734316
1694000,0.0324,0.013523,0.002678,0.000431,0.750300
1695000,0.0324,0.013523,0.002678,0.000431,0.683074
1696000,0.0324,0.013523,0.002678,0.000431,0.682839
1697000,0.0324,0.013523,0.002678,0.000431,0.670851
1698000,0.0324,0.013523,0.002678,0.000431,0.715277
1699000,0.0324,0.013523,0.002678,0.000431,0.664269
1700000,0.0324,0.013523,0.002678,0.000431,0.646640
1701000,0.0324,0.013523,0.002678,0.000431,0.630539
1702000,0.0324,0.013523,0.002678,0.000431,0.733376
1703000,0.0324,0.013523,0.002678,0.000431,0.811062
1704000,0.0324,0.013523,0.002678,0.000431,0.671909
1705000,0.0324,0.013523,0.002678,0.000431,0.670028
1706000,0.0324,0.013523,0.002678,0.000431,0.702819
1707000,0.0324,0.013523,0.002678,0.000431,0.644172
1708000,0.0324,0.013523,0.002678,0.000431,0.655337
1709000,0.0324,0.013523,0.002678,0.000431,0.662389
1710000,0.0324,0.013523,0.002678,0.000431,0.688598
1711000,0.0324,0.013523,0.002678,0.000431,0.629363
1712000,0.0324,0.013523,0.002678,0.000431,0.593282
1713000,0.0324,0.013523,0.002678,0.000431,0.625720
1714000,0.0324,0.013523,0.002678,0.000431,0.556496
1715000,0.0324,0.013523,0.002678,0.000431,0.539807
1716000,0.0324,0.013523,0.002678,0.000431,0.569189
1717000,0.0324,0.013523,0.002678,0.000431,0.562607
1718000,0.0324,0.013523,0.002678,0.000431,0.593635
1719000,0.0324,0.013523,0.002678,0.000431,0.599746
1720000,0.0324,0.013523,0.002678,0.000431,0.633712
1721000,0.0324,0.013523,0.002678,0.000431,0.734904
1722000,0.0324,0.013523,0.002678,0.000431,0.716099
1723000,0.0324,0.013523,0.002678,0.000431,0.712103
1724000,0.0324,0.013523,0.002678,0.000431,0.675082
1725000,0.0324,0.013523,0.002678,0.000431,0.711868
1726000,0.0324,0.013523,0.002678,0.000431,0.685424
1727000,0.0324,0.013523,0.002678,0.000431,0.582705
1728000,0.0324,0.013523,0.002678,0.000431,0.581882
1729000,0.0324,0.013523,0.002678,0.000431,0.586818
1730000,0.0324,0.013523,0.002678,0.000431,0.523941
1731000,0.0324,0.013523,0.002678,0.000431,0.469760
1732000,0.0324,0.013523,0.002678,0.000431,0.486802
1733000,0.0324,0.013523,0.002678,0.000431,0.462003
1734000,0.0324,0.013523,0.002678,0.000431,0.436147
1735000,0.0324,0.013523,0.002678,0.000431,0.378676
1736000,0.0324,0.013523,0.002678,0.000431,0.475872
1737000,0.0324,0.013523,0.002678,0.000431,0.498319
1738000,0.0324,0.013523,0.002678,0.000431,0.510307
1739000,0.0324,0.013523,0.002678,0.000431,0.722328
1740000,0.0324,0.013523,0.002678,0.000431,0.684367
1741000,0.0324,0.013523,0.002678,0.000431,0.660038
1742000,0.0324,0.013523,0.002678,0.000431,0.705287
1743000,0.0324,0.013523,0.002678,0.000431,0.679078
1744000,0.0324,0.013523,0.002678,0.000431,0.789672
1745000,0.0324,0.013523,0.002678,0.000431,0.964906
1746000,0.0324,0.013523,0.002678,0.000431,0.849729
1747000,0.0324,0.013523,0.002678,0.000431,0.712926
1748000,0.0324,0.013523,0.002678,0.000431,0.717039
1749000,0.0324,0.013523,0.002678,0.000431,0.682016
1750000,0.0324,0.013523,0.002678,0.000431,0.705639
1751000,0.0324,0.013523,0.002678,0.000431,0.680606
1752000,0.0324,0.013523,0.002678,0.000431,0.638061
1753000,0.0324,0.013523,0.002678,0.000431,0.607151
1754000,0.0324,0.013523,0.002678,0.000431,0.682839
1755000,0.0324,0.013523,0.002678,0.000431,0.786851
1756000,0.0324,0.013523,0.002678,0.000431,0.761700
1757000,0.0324,0.013523,0.002678,0.000431,0.729732
1758000,0.0324,0.013523,0.002678,0.000431,0.632067
1759000,0.0324,0.013523,0.002678,0.000431,0.628423
1760000,0.0324,0.013523,0.002678,0.000431,0.598101
1761000,0.0324,0.013523,0.002678,0.000431,0.585055
1762000,0.0324,0.013523,0.002678,0.000431,0.654044
1763000,0.0324,0.013523,0.002678,0.000431,0.573067
1764000,0.0324,0.013523,0.002678,0.000431,0.527349
1765000,0.0324,0.013523,0.002678,0.000431,0.640881
1766000,0.0324,0.013523,0.002678,0.000431,0.606798
1767000,0.0324,0.013523,0.002678,0.000431,0.681663
1768000,0.0324,0.013523,0.002678,0.000431,0.701291
1769000,0.0324,0.013523,0.002678,0.000431,0.749712
1770000,0.0324,0.013523,0.002678,0.000431,0.761348
1771000,0.0324,0.013523,0.002678,0.000431,0.745834
1772000,0.0324,0.013523,0.002678,0.000431,0.831982
1773000,0.0324,0.013523,0.002678,0.000431,0.772513
1774000,0.0324,0.013523,0.002678,0.000431,0.743836
1775000,0.0324,0.013523,0.002678,0.000431,0.766519
1776000,0.0324,0.013523,0.002678,0.000431,0.708225
1777000,0.0324,0.013523,0.002678,0.000431,0.716804
1778000,0.0324,0.013523,0.002678,0.000431,0.729380
1779000,0.0324,0.013523,0.002678,0.000431,0.783560
1780000,0.0324,0.013523,0.002678,0.000431,0.667207
1781000,0.0324,0.013523,0.002678,0.000431,0.682134
1782000,0.0324,0.013523,0.002678,0.000431,0.801542
1783000,0.0324,0.013523,0.002678,0.000431,0.817409
1784000,0.0324,0.013523,0.002678,0.000431,0.727147
1785000,0.0324,0.013523,0.002678,0.000431,0.725384
1786000,0.0324,0.013523,0.002678,0.000431,0.702231
1787000,0.0324,0.013523,0.002678,0.000431,0.776509
1788000,0.0324,0.013523,0.002678,0.000431,0.719860
1789000,0.0324,0.013523,0.002678,0.000431,0.677315
1790000,0.0324,0.013523,0.002678,0.000431,0.711986
1791000,0.0324,0.013523,0.002678,0.000431,0.604447
1792000,0.0324,0.013523,0.002678,0.000431,0.644995
1793000,0.0324,0.013523,0.002678,0.000431,0.620901
1794000,0.0324,0.013523,0.002678,0.000431,0.710458
1795000,0.0324,0.013523,0.002678,0.000431,0.683074
1796000,0.0324,0.013523,0.002678,0.000431,0.554968
1797000,0.0324,0.013523,0.002678,0.000431,0.569659
1798000,0.0324,0.013523,0.002678,0.000431,0.545683
1799000,0.0324,0.013523,0.002678,0.000431,0.533108
1800000,0.0324,0.013523,0.002678,0.000431,0.479397
1801000,0.0324,0.013523,0.002678,0.000431,0.470700
1802000,0.0324,0.013523,0.002678,0.000431,0.465647
1803000,0.0324,0.013523,0.002678,0.000431,0.426392
1804000,0.0324,0.013523,0.002678,0.000431,0.446842
1805000,0.0324,0.013523,0.002678,0.000431,0.397010
1806000,0.0324,0.013523,0.002678,0.000431,0.469643
1807000,0.0324,0.013523,0.002678,0.000431,0.540865
1808000,0.0324,0.013523,0.002678,0.000431,0.499260
1809000,0.0324,0.013523,0.002678,0.000431,0.556613
1810000,0.0324,0.013523,0.002678,0.000431,0.541805
1811000,0.0324,0.013523,0.002678,0.000431,0.623722
1812000,0.0324,0.013523,0.002678,0.000431,0.669911
1813000,0.0324,0.013523,0.002678,0.000431,0.656747
1814000,0.0324,0.013523,0.002678,0.000431,0.638296
1815000,0.0324,0.013523,0.002678,0.000431,0.705169
1816000,0.0324,0.013523,0.002678,0.000431,0.606210
1817000,0.0324,0.013523,0.002678,0.000431,0.576828
1818000,0.0324,0.013523,0.002678,0.000431,0.613497
1819000,0.0324,0.013523,0.002678,0.000431,0.594458
1820000,0.0324,0.013523,0.002678,0.000431,0.594693
1821000,0.0324,0.013523,0.002678,0.000431,0.656277
1822000,0.0324,0.013523,0.002678,0.000431,0.758762
1823000,0.0324,0.013523,0.002678,0.000431,0.761465
1824000,0.0324,0.013523,0.002678,0.000431,0.798251
1825000,0.0324,0.013523,0.002678,0.000431,0.801072
1826000,0.0324,0.013523,0.002678,0.000431,0.798369
1827000,0.0324,0.013523,0.002678,0.000431,0.867593
1828000,0.0324,0.013523,0.002678,0.000431,0.822110
1829000,0.0324,0.013523,0.002678,0.000431,0.775921
1830000,0.0324,0.013523,0.002678,0.000431,0.743953
1831000,0.0324,0.013523,0.002678,0.000431,0.899443
1832000,0.0324,0.013523,0.002678,0.000431,0.861011
1833000,0.0324,0.013523,0.002678,0.000431,0.830689
1834000,0.0324,0.013523,0.002678,0.000431,0.849729
1835000,0.0324,0.013523,0.002678,0.000431,0.714336
1836000,0.0324,0.013523,0.002678,0.000431,0.782620
1837000,0.0324,0.013523,0.002678,0.000431,0.800014
1838000,0.0324,0.013523,0.002678,0.000431,0.808476
1839000,0.0324,0.013523,0.002678,0.000431,0.735609
1840000,0.0324,0.013523,0.002678,0.000431,0.833627
1841000,0.0324,0.013523,0.002678,0.000431,0.791435
1842000,0.0324,0.013523,0.002678,0.000431,0.732436
1843000,0.0324,0.013523,0.002678,0.000431,0.752886
1844000,0.0324,0.013523,0.002678,0.000431,0.720213
1845000,0.0324,0.013523,0.002678,0.000431,0.772748
1846000,0.0324,0.013523,0.002678,0.000431,0.727617
1847000,0.0324,0.013523,0.002678,0.000431,0.593752
1848000,0.0324,0.013523,0.002678,0.000431,0.617023
1849000,0.0324,0.013523,0.002678,0.000431,0.576476
1850000,0.0324,0.013523,0.002678,0.000431,0.593987
1851000,0.0324,0.013523,0.002678,0.000431,0.540747
1852000,0.0324,0.013523,0.002678,0.000431,0.521943
1853000,0.0324,0.013523,0.002678,0.000431,0.516066
1854000,0.0324,0.013523,0.002678,0.000431,0.510777
1855000,0.0324,0.013523,0.002678,0.000431,0.539219
1856000,0.0324,0.013523,0.002678,0.000431,0.529935
1857000,0.0324,0.013523,0.002678,0.000431,0.459065
1858000,0.0324,0.013523,0.002678,0.000431,0.458948
1859000,0.0324,0.013523,0.002678,0.000431,0.525821
1860000,0.0324,0.013523,0.002678,0.000431,0.588934
1861000,0.0324,0.013523,0.002678,0.000431,0.517006
1862000,0.0324,0.013523,0.002678,0.000431,0.537809
1863000,0.0324,0.013523,0.002678,0.000431,0.528289
1864000,0.0324,0.013523,0.002678,0.000431,0.664739
1865000,0.0324,0.013523,0.002678,0.000431,0.660508
1866000,0.0324,0.013523,0.002678,0.000431,0.558847
1867000,0.0324,0.013523,0.002678,0.000431,0.608796
1868000,0.0324,0.013523,0.002678,0.000431,0.625250
1869000,0.0324,0.013523,0.002678,0.000431,0.618786
1870000,0.0324,0.013523,0.002678,0.000431,0.512893
1871000,0.0324,0.013523,0.002678,0.000431,0.506546
1872000,0.0324,0.013523,0.002678,0.000431,0.484216
1873000,0.0324,0.013523,0.002678,0.000431,0.567544
1874000,0.0324,0.013523,0.002678,0.000431,0.726912
1875000,0.0324,0.013523,0.002678,0.000431,0.651106
1876000,0.0324,0.013523,0.002678,0.000431,0.574713
1877000,0.0324,0.013523,0.002678,0.000431,0.605270
1878000,0.0324,0.013523,0.002678,0.000431,0.612792
1879000,0.0324,0.013523,0.002678,0.000431,0.668148
1880000,0.0324,0.013523,0.002678,0.000431,0.584468
1881000,0.0324,0.013523,0.002678,0.000431,0.544391
1882000,0.0324,0.013523,0.002678,0.000431,0.499377
1883000,0.0324,0.013523,0.002678,0.000431,0.586231
1884000,0.0324,0.013523,0.002678,0.000431,0.702936
1885000,0.0324,0.013523,0.002678,0.000431,0.625367
1886000,0.0324,0.013523,0.002678,0.000431,0.560609
1887000,0.0324,0.013523,0.002678,0.000431,0.619256
1888000,0.0324,0.013523,0.002678,0.000431,0.800367
1889000,0.0324,0.013523,0.002678,0.000431,0.764051
1890000,0.0324,0.013523,0.002678,0.000431,0.612322
1891000,0.0324,0.013523,0.002678,0.000431,0.650166
1892000,0.0324,0.013523,0.002678,0.000431,0.623017
1893000,0.0324,0.013523,0.002678,0.000431,0.657453
1894000,0.0324,0.013523,0.002678,0.000431,0.568836
1895000,0.0324,0.013523,0.002678,0.000431,0.583292
1896000,0.0324,0.013523,0.002678,0.000431,0.654867
1897000,0.0324,0.013523,0.002678,0.000431,0.619138
1898000,0.0324,0.013523,0.002678,0.000431,0.652752
1899000,0.0324,0.013523,0.002678,0.000431,0.765461
1900000,0.0324,0.013523,0.002678,0.000431,0.776979
1901000,0.0324,0.013523,0.002678,0.000431,0.755119
1902000,0.0324,0.013523,0.002678,0.000431,0.790730
1903000,0.0324,0.013523,0.002678,0.000431,0.736079
1904000,0.0324,0.013523,0.002678,0.000431,0.706697
1905000,0.0324,0.013523,0.002678,0.000431,0.634887
1906000,0.0324,0.013523,0.002678,0.000431,0.616318
1907000,0.0324,0.013523,0.002678,0.000431,0.563430
1908000,0.0324,0.013523,0.002678,0.000431,0.604095
1909000,0.0324,0.013523,0.002678,0.000431,0.485391
1910000,0.0324,0.013523,0.002678,0.000431,0.437557
1911000,0.0324,0.013523,0.002678,0.000431,0.530757
1912000,0.0324,0.013523,0.002678,0.000431,0.542393
1913000,0.0324,0.013523,0.002678,0.000431,0.557554
1914000,0.0324,0.013523,0.002678,0.000431,0.544391
1915000,0.0324,0.013523,0.002678,0.000431,0.487154
1916000,0.0324,0.013523,0.002678,0.000431,0.519592
1917000,0.0324,0.013523,0.002678,0.000431,0.576476
1918000,0.0324,0.013523,0.002678,0.000431,0.584233
1919000,0.0324,0.013523,0.002678,0.000431,0.542863
1920000,0.0324,0.013523,0.002678,0.000431,0.495616
1921000,0.0324,0.013523,0.002678,0.000431,0.698588
1922000,0.0324,0.013523,0.002678,0.000431,0.698000
1923000,0.0324,0.013523,0.002678,0.000431,0.626543
1924000,0.0324,0.013523,0.002678,0.000431,0.617376
1925000,0.0324,0.013523,0.002678,0.000431,0.603860
1926000,0.0324,0.013523,0.002678,0.000431,0.645935
1927000,0.0324,0.013523,0.002678,0.000431,0.672144
1928000,0.0324,0.013523,0.002678,0.000431,0.728557
1929000,0.0324,0.013523,0.002678,0.000431,0.749477
1930000,0.0324,0.013523,0.002678,0.000431,0.659098
1931000,0.0324,0.013523,0.002678,0.000431,0.781445
1932000,0.0324,0.013523,0.002678,0.000431,0.737372
1933000,0.0324,0.013523,0.002678,0.000431,0.635357
1934000,0.0324,0.013523,0.002678,0.000431,0.688480
1935000,0.0324,0.013523,0.002678,0.000431,0.896858
1936000,0.0324,0.013523,0.002678,0.000431,0.786264
1937000,0.0324,0.013523,0.002678,0.000431,0.740192
1938000,0.0324,0.013523,0.002678,0.000431,0.766401
1939000,0.0324,0.013523,0.002678,0.000431,0.761348
1940000,0.0324,0.013523,0.002678,0.000431,0.773100
1941000,0.0324,0.013523,0.002678,0.000431,0.758057
1942000,0.0324,0.013523,0.002678,0.000431,0.805656
1943000,0.0324,0.013523,0.002678,0.000431,0.727264
1944000,0.0324,0.013523,0.002678,0.000431,0.637473
1945000,0.0324,0.013523,0.002678,0.000431,0.715629
1946000,0.0324,0.013523,0.002678,0.000431,0.682604
1947000,0.0324,0.013523,0.002678,0.000431,0.701291
1948000,0.0324,0.013523,0.002678,0.000431,0.620549
1949000,0.0324,0.013523,0.002678,0.000431,0.550384
1950000,0.0324,0.013523,0.002678,0.000431,0.584820
1951000,0.0324,0.013523,0.002678,0.000431,0.666267
1952000,0.0324,0.013523,0.002678,0.000431,0.705874
1953000,0.0324,0.013523,0.002678,0.000431,0.606916
1954000,0.0324,0.013523,0.002678,0.000431,0.621372
1955000,0.0324,0.013523,0.002678,0.000431,0.577416
1956000,0.0324,0.013523,0.002678,0.000431,0.538397
1957000,0.0324,0.013523,0.002678,0.000431,0.565781
1958000,0.0324,0.013523,0.002678,0.000431,0.552853
1959000,0.0324,0.013523,0.002678,0.000431,0.498319
1960000,0.0324,0.013523,0.002678,0.000431,0.413934
1961000,0.0324,0.013523,0.002678,0.000431,0.431446
1962000,0.0324,0.013523,0.002678,0.000431,0.444374
1963000,0.0324,0.013523,0.002678,0.000431,0.404885
1964000,0.0324,0.013523,0.002678,0.000431,0.359049
1965000,0.0324,0.013523,0.002678,0.000431,0.405355
1966000,0.0324,0.013523,0.002678,0.000431,0.345650
1967000,0.0324,0.013523,0.002678,0.000431,0.327786
1968000,0.0324,0.013523,0.002678,0.000431,0.417813
1969000,0.0324,0.013523,0.002678,0.000431,0.487859
1970000,0.0324,0.013523,0.002678,0.000431,0.484804
1971000,0.0324,0.013523,0.002678,0.000431,0.560609
1972000,0.0324,0.013523,0.002678,0.000431,0.617728
1973000,0.0324,0.013523,0.002678,0.000431,0.650166
1974000,0.0324,0.013523,0.002678,0.000431,0.685072
1975000,0.0324,0.013523,0.002678,0.000431,0.700703
1976000,0.0324,0.013523,0.002678,0.000431,0.652869
1977000,0.0324,0.013523,0.002678,0.000431,0.609266
1978000,0.0324,0.013523,0.002678,0.000431,0.656983
1979000,0.0324,0.013523,0.002678,0.000431,0.729145
1980000,0.0324,0.013523,0.002678,0.000431,0.659803
1981000,0.0324,0.013523,0.002678,0.000431,0.636298
1982000,0.0324,0.013523,0.002678,0.000431,0.594928
1983000,0.0324,0.013523,0.002678,0.000431,0.563430
1984000,0.0324,0.013523,0.002678,0.000431,0.582470
1985000,0.0324,0.013523,0.002678,0.000431,0.536164
1986000,0.0324,0.013523,0.002678,0.000431,0.515949
1987000,0.0324,0.013523,0.002678,0.000431,0.457185
1988000,0.0324,0.013523,0.002678,0.000431,0.414522
1989000,0.0324,0.013523,0.002678,0.000431,0.447782
1990000,0.0324,0.013523,0.002678,0.000431,0.492678
1991000,0.0324,0.013523,0.002678,0.000431,0.393837
1992000,0.0324,0.013523,0.002678,0.000431,0.411114
1993000,0.0324,0.013523,0.002678,0.000431,0.454952
1994000,0.0324,0.013523,0.002678,0.000431,0.462944
1995000,0.0324,0.013523,0.002678,0.000431,0.504901
1996000,0.0324,0.013523,0.002678,0.000431,0.469760
1997000,0.0324,0.013523,0.002678,0.000431,0.535693
1998000,0.0324,0.013523,0.002678,0.000431,0.579414
1999000,0.0324,0.013523,0.002678,0.000431,0.602920
