Cycle,Area(mm^2),PeakDynamic(W),SubthresholdLeakage(W),GateLeakage(W),RunTimeDynamic(W)
2000000,0.0324,0.013523,0.002678,0.000431,0.000235
2001000,0.0324,0.013523,0.002678,0.000431,0.000353
2002000,0.0324,0.013523,0.002678,0.000431,0.000470
2003000,0.0324,0.013523,0.002678,0.000431,0.000353
2004000,0.0324,0.013523,0.002678,0.000431,0.000118
2005000,0.0324,0.013523,0.002678,0.000431,0.000470
2006000,0.0324,0.013523,0.002678,0.000431,0.000353
2007000,0.0324,0.013523,0.002678,0.000431,0.000235
2008000,0.0324,0.013523,0.002678,0.000431,0.000353
2009000,0.0324,0.013523,0.002678,0.000431,0.000470
2010000,0.0324,0.013523,0.002678,0.000431,0.000353
2011000,0.0324,0.013523,0.002678,0.000431,0.000118
2012000,0.0324,0.013523,0.002678,0.000431,0.000470
2013000,0.0324,0.013523,0.002678,0.000431,0.000353
2014000,0.0324,0.013523,0.002678,0.000431,0.000235
2015000,0.0324,0.013523,0.002678,0.000431,0.000353
2016000,0.0324,0.013523,0.002678,0.000431,0.000470
2017000,0.0324,0.013523,0.002678,0.000431,0.000353
2018000,0.0324,0.013523,0.002678,0.000431,0.000118
2019000,0.0324,0.013523,0.002678,0.000431,0.000470
2020000,0.0324,0.013523,0.002678,0.000431,0.000353
2021000,0.0324,0.013523,0.002678,0.000431,0.000235
2022000,0.0324,0.013523,0.002678,0.000431,0.000353
2023000,0.0324,0.013523,0.002678,0.000431,0.000470
2024000,0.0324,0.013523,0.002678,0.000431,0.000235
2025000,0.0324,0.013523,0.002678,0.000431,0.000235
2026000,0.0324,0.013523,0.002678,0.000431,0.000470
2027000,0.0324,0.013523,0.002678,0.000431,0.000353
2028000,0.0324,0.013523,0.002678,0.000431,0.000235
2029000,0.0324,0.013523,0.002678,0.000431,0.000353
2030000,0.0324,0.013523,0.002678,0.000431,0.000470
2031000,0.0324,0.013523,0.002678,0.000431,0.000235
2032000,0.0324,0.013523,0.002678,0.000431,0.000235
2033000,0.0324,0.013523,0.002678,0.000431,0.000470
2034000,0.0324,0.013523,0.002678,0.000431,0.000353
2035000,0.0324,0.013523,0.002678,0.000431,0.000235
2036000,0.0324,0.013523,0.002678,0.000431,0.000353
2037000,0.0324,0.013523,0.002678,0.000431,0.000470
2038000,0.0324,0.013523,0.002678,0.000431,0.000235
2039000,0.0324,0.013523,0.002678,0.000431,0.000235
2040000,0.0324,0.013523,0.002678,0.000431,0.000470
2041000,0.0324,0.013523,0.002678,0.000431,0.000353
2042000,0.0324,0.013523,0.002678,0.000431,0.000235
2043000,0.0324,0.013523,0.002678,0.000431,0.000353
2044000,0.0324,0.013523,0.002678,0.000431,0.000470
2045000,0.0324,0.013523,0.002678,0.000431,0.000235
2046000,0.0324,0.013523,0.002678,0.000431,0.000235
2047000,0.0324,0.013523,0.002678,0.000431,0.000470
2048000,0.0324,0.013523,0.002678,0.000431,0.000353
2049000,0.0324,0.013523,0.002678,0.000431,0.000235
2050000,0.0324,0.013523,0.002678,0.000431,0.000353
2051000,0.0324,0.013523,0.002678,0.000431,0.000470
2052000,0.0324,0.013523,0.002678,0.000431,0.000235
2053000,0.0324,0.013523,0.002678,0.000431,0.000235
2054000,0.0324,0.013523,0.002678,0.000431,0.000470
2055000,0.0324,0.013523,0.002678,0.000431,0.000353
2056000,0.0324,0.013523,0.002678,0.000431,0.000235
2057000,0.0324,0.013523,0.002678,0.000431,0.000353
2058000,0.0324,0.013523,0.002678,0.000431,0.000470
2059000,0.0324,0.013523,0.002678,0.000431,0.000235
2060000,0.0324,0.013523,0.002678,0.000431,0.000235
2061000,0.0324,0.013523,0.002678,0.000431,0.000470
2062000,0.0324,0.013523,0.002678,0.000431,0.000353
2063000,0.0324,0.013523,0.002678,0.000431,0.000235
2064000,0.0324,0.013523,0.002678,0.000431,0.000353
2065000,0.0324,0.013523,0.002678,0.000431,0.000470
2066000,0.0324,0.013523,0.002678,0.000431,0.000118
2067000,0.0324,0.013523,0.002678,0.000431,0.000353
2068000,0.0324,0.013523,0.002678,0.000431,0.000470
2069000,0.0324,0.013523,0.002678,0.000431,0.000353
2070000,0.0324,0.013523,0.002678,0.000431,0.000235
2071000,0.0324,0.013523,0.002678,0.000431,0.000353
2072000,0.0324,0.013523,0.002678,0.000431,0.000470
2073000,0.0324,0.013523,0.002678,0.000431,0.000118
2074000,0.0324,0.013523,0.002678,0.000431,0.000353
2075000,0.0324,0.013523,0.002678,0.000431,0.000470
2076000,0.0324,0.013523,0.002678,0.000431,0.000353
2077000,0.0324,0.013523,0.002678,0.000431,0.000235
2078000,0.0324,0.013523,0.002678,0.000431,0.000353
2079000,0.0324,0.013523,0.002678,0.000431,0.000470
2080000,0.0324,0.013523,0.002678,0.000431,0.000118
2081000,0.0324,0.013523,0.002678,0.000431,0.000353
2082000,0.0324,0.013523,0.002678,0.000431,0.000470
2083000,0.0324,0.013523,0.002678,0.000431,0.000353
2084000,0.0324,0.013523,0.002678,0.000431,0.000235
2085000,0.0324,0.013523,0.002678,0.000431,0.000353
2086000,0.0324,0.013523,0.002678,0.000431,0.000470
2087000,0.0324,0.013523,0.002678,0.000431,0.000118
2088000,0.0324,0.013523,0.002678,0.000431,0.000353
2089000,0.0324,0.013523,0.002678,0.000431,0.000470
2090000,0.0324,0.013523,0.002678,0.000431,0.000353
2091000,0.0324,0.013523,0.002678,0.000431,0.000235
2092000,0.0324,0.013523,0.002678,0.000431,0.000353
2093000,0.0324,0.013523,0.002678,0.000431,0.000353
2094000,0.0324,0.013523,0.002678,0.000431,0.000235
2095000,0.0324,0.013523,0.002678,0.000431,0.000353
2096000,0.0324,0.013523,0.002678,0.000431,0.000470
2097000,0.0324,0.013523,0.002678,0.000431,0.000353
2098000,0.0324,0.013523,0.002678,0.000431,0.000235
2099000,0.0324,0.013523,0.002678,0.000431,0.000353
2100000,0.0324,0.013523,0.002678,0.000431,0.000353
2101000,0.0324,0.013523,0.002678,0.000431,0.000235
2102000,0.0324,0.013523,0.002678,0.000431,0.000353
2103000,0.0324,0.013523,0.002678,0.000431,0.000470
2104000,0.0324,0.013523,0.002678,0.000431,0.000353
2105000,0.0324,0.013523,0.002678,0.000431,0.000235
2106000,0.0324,0.013523,0.002678,0.000431,0.000353
2107000,0.0324,0.013523,0.002678,0.000431,0.000353
2108000,0.0324,0.013523,0.002678,0.000431,0.000235
2109000,0.0324,0.013523,0.002678,0.000431,0.000353
2110000,0.0324,0.013523,0.002678,0.000431,0.000470
2111000,0.0324,0.013523,0.002678,0.000431,0.000353
2112000,0.0324,0.013523,0.002678,0.000431,0.000235
2113000,0.0324,0.013523,0.002678,0.000431,0.000353
2114000,0.0324,0.013523,0.002678,0.000431,0.000353
2115000,0.0324,0.013523,0.002678,0.000431,0.000235
2116000,0.0324,0.013523,0.002678,0.000431,0.000353
2117000,0.0324,0.013523,0.002678,0.000431,0.000470
2118000,0.0324,0.013523,0.002678,0.000431,0.000353
2119000,0.0324,0.013523,0.002678,0.000431,0.000235
2120000,0.0324,0.013523,0.002678,0.000431,0.000353
2121000,0.0324,0.013523,0.002678,0.000431,0.000353
2122000,0.0324,0.013523,0.002678,0.000431,0.000235
2123000,0.0324,0.013523,0.002678,0.000431,0.000353
2124000,0.0324,0.013523,0.002678,0.000431,0.000470
2125000,0.0324,0.013523,0.002678,0.000431,0.000353
2126000,0.0324,0.013523,0.002678,0.000431,0.000235
2127000,0.0324,0.013523,0.002678,0.000431,0.000353
2128000,0.0324,0.013523,0.002678,0.000431,0.000353
2129000,0.0324,0.013523,0.002678,0.000431,0.000235
2130000,0.0324,0.013523,0.002678,0.000431,0.000353
2131000,0.0324,0.013523,0.002678,0.000431,0.000470
2132000,0.0324,0.013523,0.002678,0.000431,0.000353
2133000,0.0324,0.013523,0.002678,0.000431,0.000235
2134000,0.0324,0.013523,0.002678,0.000431,0.000353
2135000,0.0324,0.013523,0.002678,0.000431,0.000353
2136000,0.0324,0.013523,0.002678,0.000431,0.000235
2137000,0.0324,0.013523,0.002678,0.000431,0.000353
2138000,0.0324,0.013523,0.002678,0.000431,0.000470
2139000,0.0324,0.013523,0.002678,0.000431,0.000353
2140000,0.0324,0.013523,0.002678,0.000431,0.000235
2141000,0.0324,0.013523,0.002678,0.000431,0.000353
2142000,0.0324,0.013523,0.002678,0.000431,0.000353
2143000,0.0324,0.013523,0.002678,0.000431,0.000235
2144000,0.0324,0.013523,0.002678,0.000431,0.000353
2145000,0.0324,0.013523,0.002678,0.000431,0.000470
2146000,0.0324,0.013523,0.002678,0.000431,0.000353
2147000,0.0324,0.013523,0.002678,0.000431,0.000118
2148000,0.0324,0.013523,0.002678,0.000431,0.000470
2149000,0.0324,0.013523,0.002678,0.000431,0.000353
2150000,0.0324,0.013523,0.002678,0.000431,0.000235
2151000,0.0324,0.013523,0.002678,0.000431,0.000353
2152000,0.0324,0.013523,0.002678,0.000431,0.000470
2153000,0.0324,0.013523,0.002678,0.000431,0.000353
2154000,0.0324,0.013523,0.002678,0.000431,0.000118
2155000,0.0324,0.013523,0.002678,0.000431,0.000470
2156000,0.0324,0.013523,0.002678,0.000431,0.000353
2157000,0.0324,0.013523,0.002678,0.000431,0.000235
2158000,0.0324,0.013523,0.002678,0.000431,0.000353
2159000,0.0324,0.013523,0.002678,0.000431,0.000470
2160000,0.0324,0.013523,0.002678,0.000431,0.000353
2161000,0.0324,0.013523,0.002678,0.000431,0.000118
2162000,0.0324,0.013523,0.002678,0.000431,0.000470
