Cycle,Area(mm^2),PeakDynamic(W),SubthresholdLeakage(W),GateLeakage(W),RunTimeDynamic(W)
1000,0.0324,0.013523,0.002678,0.000431,0.000000
2000,0.0324,0.013523,0.002678,0.000431,0.000000
3000,0.0324,0.013523,0.002678,0.000431,0.000000
4000,0.0324,0.013523,0.002678,0.000431,0.000000
5000,0.0324,0.013523,0.002678,0.000431,0.000000
6000,0.0324,0.013523,0.002678,0.000431,1.731190
7000,0.0324,0.013523,0.002678,0.000431,1.312085
8000,0.0324,0.013523,0.002678,0.000431,2.235269
9000,0.0324,0.013523,0.002678,0.000431,1.262370
10000,0.0324,0.013523,0.002678,0.000431,1.048939
11000,0.0324,0.013523,0.002678,0.000431,0.992996
12000,0.0324,0.013523,0.002678,0.000431,0.703054
13000,0.0324,0.013523,0.002678,0.000431,0.683426
14000,0.0324,0.013523,0.002678,0.000431,0.582000
15000,0.0324,0.013523,0.002678,0.000431,0.571540
16000,0.0324,0.013523,0.002678,0.000431,0.588816
17000,0.0324,0.013523,0.002678,0.000431,0.534401
18000,0.0324,0.013523,0.002678,0.000431,0.455422
19000,0.0324,0.013523,0.002678,0.000431,0.434149
20000,0.0324,0.013523,0.002678,0.000431,0.423101
21000,0.0324,0.013523,0.002678,0.000431,0.518887
22000,0.0324,0.013523,0.002678,0.000431,0.446607
23000,0.0324,0.013523,0.002678,0.000431,0.399361
24000,0.0324,0.013523,0.002678,0.000431,0.434854
25000,0.0324,0.013523,0.002678,0.000431,0.358226
26000,0.0324,0.013523,0.002678,0.000431,0.288884
27000,0.0324,0.013523,0.002678,0.000431,0.340479
28000,0.0324,0.013523,0.002678,0.000431,0.359519
29000,0.0324,0.013523,0.002678,0.000431,0.395482
30000,0.0324,0.013523,0.002678,0.000431,0.360224
31000,0.0324,0.013523,0.002678,0.000431,0.352937
32000,0.0324,0.013523,0.002678,0.000431,0.378323
33000,0.0324,0.013523,0.002678,0.000431,0.316856
34000,0.0324,0.013523,0.002678,0.000431,0.451778
35000,0.0324,0.013523,0.002678,0.000431,0.431093
36000,0.0324,0.013523,0.002678,0.000431,0.379616
37000,0.0324,0.013523,0.002678,0.000431,0.410056
38000,0.0324,0.013523,0.002678,0.000431,0.382789
39000,0.0324,0.013523,0.002678,0.000431,0.426627
40000,0.0324,0.013523,0.002678,0.000431,0.340127
41000,0.0324,0.013523,0.002678,0.000431,0.356816
42000,0.0324,0.013523,0.002678,0.000431,0.439790
43000,0.0324,0.013523,0.002678,0.000431,0.382202
44000,0.0324,0.013523,0.002678,0.000431,0.322850
45000,0.0324,0.013523,0.002678,0.000431,0.310745
46000,0.0324,0.013523,0.002678,0.000431,0.327786
47000,0.0324,0.013523,0.002678,0.000431,0.344828
48000,0.0324,0.013523,0.002678,0.000431,0.347296
49000,0.0324,0.013523,0.002678,0.000431,0.386903
50000,0.0324,0.013523,0.002678,0.000431,0.428978
51000,0.0324,0.013523,0.002678,0.000431,0.414169
52000,0.0324,0.013523,0.002678,0.000431,0.300402
53000,0.0324,0.013523,0.002678,0.000431,0.320617
54000,0.0324,0.013523,0.002678,0.000431,0.370096
55000,0.0324,0.013523,0.002678,0.000431,0.421456
56000,0.0324,0.013523,0.002678,0.000431,0.370449
57000,0.0324,0.013523,0.002678,0.000431,0.410291
58000,0.0324,0.013523,0.002678,0.000431,0.319207
59000,0.0324,0.013523,0.002678,0.000431,0.294526
60000,0.0324,0.013523,0.002678,0.000431,0.285946
61000,0.0324,0.013523,0.002678,0.000431,0.294878
62000,0.0324,0.013523,0.002678,0.000431,0.538397
63000,0.0324,0.013523,0.002678,0.000431,0.574008
64000,0.0324,0.013523,0.002678,0.000431,0.551677
65000,0.0324,0.013523,0.002678,0.000431,0.523353
66000,0.0324,0.013523,0.002678,0.000431,0.504431
67000,0.0324,0.013523,0.002678,0.000431,0.541217
68000,0.0324,0.013523,0.002678,0.000431,0.503138
69000,0.0324,0.013523,0.002678,0.000431,0.442611
70000,0.0324,0.013523,0.002678,0.000431,0.446019
71000,0.0324,0.013523,0.002678,0.000431,0.512658
72000,0.0324,0.013523,0.002678,0.000431,0.591284
73000,0.0324,0.013523,0.002678,0.000431,0.561432
74000,0.0324,0.013523,0.002678,0.000431,0.581882
75000,0.0324,0.013523,0.002678,0.000431,0.604212
76000,0.0324,0.013523,0.002678,0.000431,0.606680
77000,0.0324,0.013523,0.002678,0.000431,0.713631
78000,0.0324,0.013523,0.002678,0.000431,0.704464
79000,0.0324,0.013523,0.002678,0.000431,0.727382
80000,0.0324,0.013523,0.002678,0.000431,0.929648
81000,0.0324,0.013523,0.002678,0.000431,0.710575
82000,0.0324,0.013523,0.002678,0.000431,0.855135
83000,0.0324,0.013523,0.002678,0.000431,0.835155
84000,0.0324,0.013523,0.002678,0.000431,0.920833
85000,0.0324,0.013523,0.002678,0.000431,0.983358
86000,0.0324,0.013523,0.002678,0.000431,1.000988
87000,0.0324,0.013523,0.002678,0.000431,0.998049
88000,0.0324,0.013523,0.002678,0.000431,1.024611
89000,0.0324,0.013523,0.002678,0.000431,1.008862
90000,0.0324,0.013523,0.002678,0.000431,1.087371
91000,0.0324,0.013523,0.002678,0.000431,0.966434
92000,0.0324,0.013523,0.002678,0.000431,1.164939
93000,0.0324,0.013523,0.002678,0.000431,1.099124
94000,0.0324,0.013523,0.002678,0.000431,1.169170
95000,0.0324,0.013523,0.002678,0.000431,1.185507
96000,0.0324,0.013523,0.002678,0.000431,1.097948
97000,0.0324,0.013523,0.002678,0.000431,1.229815
98000,0.0324,0.013523,0.002678,0.000431,1.068449
99000,0.0324,0.013523,0.002678,0.000431,1.298804
100000,0.0324,0.013523,0.002678,0.000431,1.114520
101000,0.0324,0.013523,0.002678,0.000431,1.139083
102000,0.0324,0.013523,0.002678,0.000431,1.279059
103000,0.0324,0.013523,0.002678,0.000431,1.211010
104000,0.0324,0.013523,0.002678,0.000431,1.418565
105000,0.0324,0.013523,0.002678,0.000431,1.179160
106000,0.0324,0.013523,0.002678,0.000431,1.433374
107000,0.0324,0.013523,0.002678,0.000431,1.141786
108000,0.0324,0.013523,0.002678,0.000431,1.439955
109000,0.0324,0.013523,0.002678,0.000431,1.203724
110000,0.0324,0.013523,0.002678,0.000431,1.509179
111000,0.0324,0.013523,0.002678,0.000431,1.202783
112000,0.0324,0.013523,0.002678,0.000431,1.569941
113000,0.0324,0.013523,0.002678,0.000431,1.078674
114000,0.0324,0.013523,0.002678,0.000431,1.524811
115000,0.0324,0.013523,0.002678,0.000431,1.277531
116000,0.0324,0.013523,0.002678,0.000431,1.682651
117000,0.0324,0.013523,0.002678,0.000431,0.583057
118000,0.0324,0.013523,0.002678,0.000431,0.040312
119000,0.0324,0.013523,0.002678,0.000431,0.018334
120000,0.0324,0.013523,0.002678,0.000431,0.016454
121000,0.0324,0.013523,0.002678,0.000431,0.018217
122000,0.0324,0.013523,0.002678,0.000431,0.018805
123000,0.0324,0.013523,0.002678,0.000431,0.015631
124000,0.0324,0.013523,0.002678,0.000431,0.015161
125000,0.0324,0.013523,0.002678,0.000431,0.016571
126000,0.0324,0.013523,0.002678,0.000431,0.014456
127000,0.0324,0.013523,0.002678,0.000431,0.012693
128000,0.0324,0.013523,0.002678,0.000431,0.015161
129000,0.0324,0.013523,0.002678,0.000431,0.012928
130000,0.0324,0.013523,0.002678,0.000431,0.011048
131000,0.0324,0.013523,0.002678,0.000431,0.011870
132000,0.0324,0.013523,0.002678,0.000431,0.012693
133000,0.0324,0.013523,0.002678,0.000431,0.010930
134000,0.0324,0.013523,0.002678,0.000431,0.012223
135000,0.0324,0.013523,0.002678,0.000431,0.012105
136000,0.0324,0.013523,0.002678,0.000431,0.011518
137000,0.0324,0.013523,0.002678,0.000431,0.009872
138000,0.0324,0.013523,0.002678,0.000431,0.012105
139000,0.0324,0.013523,0.002678,0.000431,0.011635
140000,0.0324,0.013523,0.002678,0.000431,0.011165
141000,0.0324,0.013523,0.002678,0.000431,0.010578
142000,0.0324,0.013523,0.002678,0.000431,0.011870
143000,0.0324,0.013523,0.002678,0.000431,0.009872
144000,0.0324,0.013523,0.002678,0.000431,0.010460
145000,0.0324,0.013523,0.002678,0.000431,0.011635
146000,0.0324,0.013523,0.002678,0.000431,0.010930
147000,0.0324,0.013523,0.002678,0.000431,0.008932
148000,0.0324,0.013523,0.002678,0.000431,0.010813
149000,0.0324,0.013523,0.002678,0.000431,0.010930
150000,0.0324,0.013523,0.002678,0.000431,0.009872
151000,0.0324,0.013523,0.002678,0.000431,0.009520
152000,0.0324,0.013523,0.002678,0.000431,0.011283
153000,0.0324,0.013523,0.002678,0.000431,0.009520
154000,0.0324,0.013523,0.002678,0.000431,0.012223
155000,0.0324,0.013523,0.002678,0.000431,0.010460
156000,0.0324,0.013523,0.002678,0.000431,0.009520
157000,0.0324,0.013523,0.002678,0.000431,0.007874
158000,0.0324,0.013523,0.002678,0.000431,0.008462
159000,0.0324,0.013523,0.002678,0.000431,0.008932
160000,0.0324,0.013523,0.002678,0.000431,0.008109
161000,0.0324,0.013523,0.002678,0.000431,0.007757
162000,0.0324,0.013523,0.002678,0.000431,0.009285
163000,0.0324,0.013523,0.002678,0.000431,0.009402
164000,0.0324,0.013523,0.002678,0.000431,0.006817
165000,0.0324,0.013523,0.002678,0.000431,0.007169
166000,0.0324,0.013523,0.002678,0.000431,0.008345
167000,0.0324,0.013523,0.002678,0.000431,0.005406
168000,0.0324,0.013523,0.002678,0.000431,0.007639
169000,0.0324,0.013523,0.002678,0.000431,0.006582
170000,0.0324,0.013523,0.002678,0.000431,0.005524
171000,0.0324,0.013523,0.002678,0.000431,0.004936
172000,0.0324,0.013523,0.002678,0.000431,0.006582
173000,0.0324,0.013523,0.002678,0.000431,0.005994
174000,0.0324,0.013523,0.002678,0.000431,0.005759
175000,0.0324,0.013523,0.002678,0.000431,0.005406
176000,0.0324,0.013523,0.002678,0.000431,0.005876
177000,0.0324,0.013523,0.002678,0.000431,0.005289
178000,0.0324,0.013523,0.002678,0.000431,0.004584
179000,0.0324,0.013523,0.002678,0.000431,0.006111
180000,0.0324,0.013523,0.002678,0.000431,0.005406
181000,0.0324,0.013523,0.002678,0.000431,0.005406
182000,0.0324,0.013523,0.002678,0.000431,0.004701
183000,0.0324,0.013523,0.002678,0.000431,0.005406
184000,0.0324,0.013523,0.002678,0.000431,0.003643
185000,0.0324,0.013523,0.002678,0.000431,0.004701
186000,0.0324,0.013523,0.002678,0.000431,0.004819
187000,0.0324,0.013523,0.002678,0.000431,0.004466
188000,0.0324,0.013523,0.002678,0.000431,0.004113
189000,0.0324,0.013523,0.002678,0.000431,0.005171
190000,0.0324,0.013523,0.002678,0.000431,0.004349
191000,0.0324,0.013523,0.002678,0.000431,0.004701
192000,0.0324,0.013523,0.002678,0.000431,0.003526
193000,0.0324,0.013523,0.002678,0.000431,0.004701
194000,0.0324,0.013523,0.002678,0.000431,0.003526
195000,0.0324,0.013523,0.002678,0.000431,0.002938
196000,0.0324,0.013523,0.002678,0.000431,0.004113
197000,0.0324,0.013523,0.002678,0.000431,0.004466
198000,0.0324,0.013523,0.002678,0.000431,0.003173
199000,0.0324,0.013523,0.002678,0.000431,0.004819
200000,0.0324,0.013523,0.002678,0.000431,0.003761
201000,0.0324,0.013523,0.002678,0.000431,0.003291
202000,0.0324,0.013523,0.002678,0.000431,0.002703
203000,0.0324,0.013523,0.002678,0.000431,0.004349
204000,0.0324,0.013523,0.002678,0.000431,0.003526
205000,0.0324,0.013523,0.002678,0.000431,0.002938
206000,0.0324,0.013523,0.002678,0.000431,0.003408
207000,0.0324,0.013523,0.002678,0.000431,0.003996
208000,0.0324,0.013523,0.002678,0.000431,0.002821
209000,0.0324,0.013523,0.002678,0.000431,0.003408
210000,0.0324,0.013523,0.002678,0.000431,0.003996
211000,0.0324,0.013523,0.002678,0.000431,0.003643
212000,0.0324,0.013523,0.002678,0.000431,0.002821
213000,0.0324,0.013523,0.002678,0.000431,0.003643
214000,0.0324,0.013523,0.002678,0.000431,0.003878
215000,0.0324,0.013523,0.002678,0.000431,0.002938
216000,0.0324,0.013523,0.002678,0.000431,0.003408
217000,0.0324,0.013523,0.002678,0.000431,0.004113
218000,0.0324,0.013523,0.002678,0.000431,0.003173
219000,0.0324,0.013523,0.002678,0.000431,0.003056
220000,0.0324,0.013523,0.002678,0.000431,0.003643
221000,0.0324,0.013523,0.002678,0.000431,0.003878
222000,0.0324,0.013523,0.002678,0.000431,0.002938
223000,0.0324,0.013523,0.002678,0.000431,0.003526
224000,0.0324,0.013523,0.002678,0.000431,0.003878
225000,0.0324,0.013523,0.002678,0.000431,0.003291
226000,0.0324,0.013523,0.002678,0.000431,0.003173
227000,0.0324,0.013523,0.002678,0.000431,0.003643
228000,0.0324,0.013523,0.002678,0.000431,0.003878
229000,0.0324,0.013523,0.002678,0.000431,0.002821
230000,0.0324,0.013523,0.002678,0.000431,0.003643
231000,0.0324,0.013523,0.002678,0.000431,0.003761
232000,0.0324,0.013523,0.002678,0.000431,0.003291
233000,0.0324,0.013523,0.002678,0.000431,0.003056
234000,0.0324,0.013523,0.002678,0.000431,0.003996
235000,0.0324,0.013523,0.002678,0.000431,0.003291
236000,0.0324,0.013523,0.002678,0.000431,0.003291
237000,0.0324,0.013523,0.002678,0.000431,0.003526
238000,0.0324,0.013523,0.002678,0.000431,0.003878
239000,0.0324,0.013523,0.002678,0.000431,0.003056
240000,0.0324,0.013523,0.002678,0.000431,0.003291
241000,0.0324,0.013523,0.002678,0.000431,0.003878
242000,0.0324,0.013523,0.002678,0.000431,0.003526
243000,0.0324,0.013523,0.002678,0.000431,0.002938
244000,0.0324,0.013523,0.002678,0.000431,0.003526
245000,0.0324,0.013523,0.002678,0.000431,0.004466
246000,0.0324,0.013523,0.002678,0.000431,0.002586
247000,0.0324,0.013523,0.002678,0.000431,0.002586
248000,0.0324,0.013523,0.002678,0.000431,0.003408
249000,0.0324,0.013523,0.002678,0.000431,0.003291
250000,0.0324,0.013523,0.002678,0.000431,0.002351
251000,0.0324,0.013523,0.002678,0.000431,0.003408
252000,0.0324,0.013523,0.002678,0.000431,0.003173
253000,0.0324,0.013523,0.002678,0.000431,0.002703
254000,0.0324,0.013523,0.002678,0.000431,0.002821
255000,0.0324,0.013523,0.002678,0.000431,0.003408
256000,0.0324,0.013523,0.002678,0.000431,0.002938
257000,0.0324,0.013523,0.002678,0.000431,0.002703
258000,0.0324,0.013523,0.002678,0.000431,0.003291
259000,0.0324,0.013523,0.002678,0.000431,0.003291
260000,0.0324,0.013523,0.002678,0.000431,0.002468
261000,0.0324,0.013523,0.002678,0.000431,0.003056
262000,0.0324,0.013523,0.002678,0.000431,0.003291
263000,0.0324,0.013523,0.002678,0.000431,0.002821
264000,0.0324,0.013523,0.002678,0.000431,0.002703
265000,0.0324,0.013523,0.002678,0.000431,0.003408
266000,0.0324,0.013523,0.002678,0.000431,0.003056
267000,0.0324,0.013523,0.002678,0.000431,0.002821
268000,0.0324,0.013523,0.002678,0.000431,0.002821
269000,0.0324,0.013523,0.002678,0.000431,0.003526
270000,0.0324,0.013523,0.002678,0.000431,0.002703
271000,0.0324,0.013523,0.002678,0.000431,0.002703
272000,0.0324,0.013523,0.002678,0.000431,0.003291
273000,0.0324,0.013523,0.002678,0.000431,0.003056
274000,0.0324,0.013523,0.002678,0.000431,0.002703
275000,0.0324,0.013523,0.002678,0.000431,0.003173
276000,0.0324,0.013523,0.002678,0.000431,0.003291
277000,0.0324,0.013523,0.002678,0.000431,0.002821
278000,0.0324,0.013523,0.002678,0.000431,0.002821
279000,0.0324,0.013523,0.002678,0.000431,0.003173
280000,0.0324,0.013523,0.002678,0.000431,0.002938
281000,0.0324,0.013523,0.002678,0.000431,0.002586
282000,0.0324,0.013523,0.002678,0.000431,0.003291
283000,0.0324,0.013523,0.002678,0.000431,0.003408
284000,0.0324,0.013523,0.002678,0.000431,0.002703
285000,0.0324,0.013523,0.002678,0.000431,0.002938
286000,0.0324,0.013523,0.002678,0.000431,0.003173
287000,0.0324,0.013523,0.002678,0.000431,0.002821
288000,0.0324,0.013523,0.002678,0.000431,0.002703
289000,0.0324,0.013523,0.002678,0.000431,0.003408
290000,0.0324,0.013523,0.002678,0.000431,0.003056
291000,0.0324,0.013523,0.002678,0.000431,0.002821
292000,0.0324,0.013523,0.002678,0.000431,0.003056
293000,0.0324,0.013523,0.002678,0.000431,0.003291
294000,0.0324,0.013523,0.002678,0.000431,0.002703
295000,0.0324,0.013523,0.002678,0.000431,0.003643
296000,0.0324,0.013523,0.002678,0.000431,0.002821
297000,0.0324,0.013523,0.002678,0.000431,0.003408
298000,0.0324,0.013523,0.002678,0.000431,0.003291
299000,0.0324,0.013523,0.002678,0.000431,0.001763
300000,0.0324,0.013523,0.002678,0.000431,0.002116
301000,0.0324,0.013523,0.002678,0.000431,0.002116
302000,0.0324,0.013523,0.002678,0.000431,0.001880
303000,0.0324,0.013523,0.002678,0.000431,0.001998
304000,0.0324,0.013523,0.002678,0.000431,0.002116
305000,0.0324,0.013523,0.002678,0.000431,0.001880
306000,0.0324,0.013523,0.002678,0.000431,0.001880
307000,0.0324,0.013523,0.002678,0.000431,0.002233
308000,0.0324,0.013523,0.002678,0.000431,0.001998
309000,0.0324,0.013523,0.002678,0.000431,0.001998
310000,0.0324,0.013523,0.002678,0.000431,0.001998
311000,0.0324,0.013523,0.002678,0.000431,0.001998
312000,0.0324,0.013523,0.002678,0.000431,0.001763
313000,0.0324,0.013523,0.002678,0.000431,0.002116
314000,0.0324,0.013523,0.002678,0.000431,0.002116
315000,0.0324,0.013523,0.002678,0.000431,0.002586
316000,0.0324,0.013523,0.002678,0.000431,0.001998
317000,0.0324,0.013523,0.002678,0.000431,0.001645
318000,0.0324,0.013523,0.002678,0.000431,0.001528
319000,0.0324,0.013523,0.002678,0.000431,0.001645
320000,0.0324,0.013523,0.002678,0.000431,0.001528
321000,0.0324,0.013523,0.002678,0.000431,0.001998
322000,0.0324,0.013523,0.002678,0.000431,0.001880
323000,0.0324,0.013523,0.002678,0.000431,0.001293
324000,0.0324,0.013523,0.002678,0.000431,0.001645
325000,0.0324,0.013523,0.002678,0.000431,0.001763
326000,0.0324,0.013523,0.002678,0.000431,0.001528
327000,0.0324,0.013523,0.002678,0.000431,0.001645
328000,0.0324,0.013523,0.002678,0.000431,0.001998
329000,0.0324,0.013523,0.002678,0.000431,0.001645
330000,0.0324,0.013523,0.002678,0.000431,0.001293
331000,0.0324,0.013523,0.002678,0.000431,0.001880
332000,0.0324,0.013523,0.002678,0.000431,0.002351
333000,0.0324,0.013523,0.002678,0.000431,0.001293
334000,0.0324,0.013523,0.002678,0.000431,0.001293
335000,0.0324,0.013523,0.002678,0.000431,0.001410
336000,0.0324,0.013523,0.002678,0.000431,0.001293
337000,0.0324,0.013523,0.002678,0.000431,0.001293
338000,0.0324,0.013523,0.002678,0.000431,0.001293
339000,0.0324,0.013523,0.002678,0.000431,0.001528
340000,0.0324,0.013523,0.002678,0.000431,0.001293
341000,0.0324,0.013523,0.002678,0.000431,0.001293
342000,0.0324,0.013523,0.002678,0.000431,0.001293
343000,0.0324,0.013523,0.002678,0.000431,0.001410
344000,0.0324,0.013523,0.002678,0.000431,0.001175
345000,0.0324,0.013523,0.002678,0.000431,0.001410
346000,0.0324,0.013523,0.002678,0.000431,0.001528
347000,0.0324,0.013523,0.002678,0.000431,0.001645
348000,0.0324,0.013523,0.002678,0.000431,0.001293
349000,0.0324,0.013523,0.002678,0.000431,0.001293
350000,0.0324,0.013523,0.002678,0.000431,0.001058
351000,0.0324,0.013523,0.002678,0.000431,0.000705
352000,0.0324,0.013523,0.002678,0.000431,0.001058
353000,0.0324,0.013523,0.002678,0.000431,0.001293
354000,0.0324,0.013523,0.002678,0.000431,0.000705
355000,0.0324,0.013523,0.002678,0.000431,0.000940
356000,0.0324,0.013523,0.002678,0.000431,0.001293
357000,0.0324,0.013523,0.002678,0.000431,0.001058
358000,0.0324,0.013523,0.002678,0.000431,0.000588
359000,0.0324,0.013523,0.002678,0.000431,0.001175
360000,0.0324,0.013523,0.002678,0.000431,0.001175
361000,0.0324,0.013523,0.002678,0.000431,0.000823
362000,0.0324,0.013523,0.002678,0.000431,0.000940
363000,0.0324,0.013523,0.002678,0.000431,0.001293
364000,0.0324,0.013523,0.002678,0.000431,0.000823
365000,0.0324,0.013523,0.002678,0.000431,0.000823
366000,0.0324,0.013523,0.002678,0.000431,0.001175
367000,0.0324,0.013523,0.002678,0.000431,0.001175
368000,0.0324,0.013523,0.002678,0.000431,0.000823
369000,0.0324,0.013523,0.002678,0.000431,0.000940
370000,0.0324,0.013523,0.002678,0.000431,0.001293
371000,0.0324,0.013523,0.002678,0.000431,0.000705
372000,0.0324,0.013523,0.002678,0.000431,0.000823
373000,0.0324,0.013523,0.002678,0.000431,0.001293
374000,0.0324,0.013523,0.002678,0.000431,0.001175
375000,0.0324,0.013523,0.002678,0.000431,0.000823
376000,0.0324,0.013523,0.002678,0.000431,0.000823
377000,0.0324,0.013523,0.002678,0.000431,0.001293
378000,0.0324,0.013523,0.002678,0.000431,0.000823
379000,0.0324,0.013523,0.002678,0.000431,0.000823
380000,0.0324,0.013523,0.002678,0.000431,0.001293
381000,0.0324,0.013523,0.002678,0.000431,0.001175
382000,0.0324,0.013523,0.002678,0.000431,0.000705
383000,0.0324,0.013523,0.002678,0.000431,0.000940
384000,0.0324,0.013523,0.002678,0.000431,0.001175
385000,0.0324,0.013523,0.002678,0.000431,0.000823
386000,0.0324,0.013523,0.002678,0.000431,0.000940
387000,0.0324,0.013523,0.002678,0.000431,0.001293
388000,0.0324,0.013523,0.002678,0.000431,0.001175
389000,0.0324,0.013523,0.002678,0.000431,0.000705
390000,0.0324,0.013523,0.002678,0.000431,0.000940
391000,0.0324,0.013523,0.002678,0.000431,0.001175
392000,0.0324,0.013523,0.002678,0.000431,0.000823
393000,0.0324,0.013523,0.002678,0.000431,0.000940
394000,0.0324,0.013523,0.002678,0.000431,0.001293
395000,0.0324,0.013523,0.002678,0.000431,0.001175
396000,0.0324,0.013523,0.002678,0.000431,0.000588
397000,0.0324,0.013523,0.002678,0.000431,0.001058
398000,0.0324,0.013523,0.002678,0.000431,0.001175
399000,0.0324,0.013523,0.002678,0.000431,0.000823
400000,0.0324,0.013523,0.002678,0.000431,0.000940
401000,0.0324,0.013523,0.002678,0.000431,0.001293
402000,0.0324,0.013523,0.002678,0.000431,0.001058
403000,0.0324,0.013523,0.002678,0.000431,0.000470
404000,0.0324,0.013523,0.002678,0.000431,0.001293
405000,0.0324,0.013523,0.002678,0.000431,0.001175
406000,0.0324,0.013523,0.002678,0.000431,0.000823
407000,0.0324,0.013523,0.002678,0.000431,0.000940
408000,0.0324,0.013523,0.002678,0.000431,0.001293
409000,0.0324,0.013523,0.002678,0.000431,0.000823
410000,0.0324,0.013523,0.002678,0.000431,0.000705
411000,0.0324,0.013523,0.002678,0.000431,0.001293
412000,0.0324,0.013523,0.002678,0.000431,0.001175
413000,0.0324,0.013523,0.002678,0.000431,0.000823
414000,0.0324,0.013523,0.002678,0.000431,0.000940
415000,0.0324,0.013523,0.002678,0.000431,0.001175
416000,0.0324,0.013523,0.002678,0.000431,0.000823
417000,0.0324,0.013523,0.002678,0.000431,0.000823
418000,0.0324,0.013523,0.002678,0.000431,0.001293
419000,0.0324,0.013523,0.002678,0.000431,0.001175
420000,0.0324,0.013523,0.002678,0.000431,0.000823
421000,0.0324,0.013523,0.002678,0.000431,0.000940
422000,0.0324,0.013523,0.002678,0.000431,0.001175
423000,0.0324,0.013523,0.002678,0.000431,0.000823
424000,0.0324,0.013523,0.002678,0.000431,0.000823
425000,0.0324,0.013523,0.002678,0.000431,0.001293
426000,0.0324,0.013523,0.002678,0.000431,0.001175
427000,0.0324,0.013523,0.002678,0.000431,0.000705
428000,0.0324,0.013523,0.002678,0.000431,0.001058
429000,0.0324,0.013523,0.002678,0.000431,0.001175
430000,0.0324,0.013523,0.002678,0.000431,0.000823
431000,0.0324,0.013523,0.002678,0.000431,0.000823
432000,0.0324,0.013523,0.002678,0.000431,0.001293
433000,0.0324,0.013523,0.002678,0.000431,0.001175
434000,0.0324,0.013523,0.002678,0.000431,0.000705
435000,0.0324,0.013523,0.002678,0.000431,0.000940
436000,0.0324,0.013523,0.002678,0.000431,0.001293
437000,0.0324,0.013523,0.002678,0.000431,0.000705
438000,0.0324,0.013523,0.002678,0.000431,0.000940
439000,0.0324,0.013523,0.002678,0.000431,0.001293
440000,0.0324,0.013523,0.002678,0.000431,0.001058
441000,0.0324,0.013523,0.002678,0.000431,0.000823
442000,0.0324,0.013523,0.002678,0.000431,0.000940
443000,0.0324,0.013523,0.002678,0.000431,0.001293
444000,0.0324,0.013523,0.002678,0.000431,0.000705
445000,0.0324,0.013523,0.002678,0.000431,0.000940
446000,0.0324,0.013523,0.002678,0.000431,0.001293
447000,0.0324,0.013523,0.002678,0.000431,0.001058
448000,0.0324,0.013523,0.002678,0.000431,0.000823
449000,0.0324,0.013523,0.002678,0.000431,0.000940
450000,0.0324,0.013523,0.002678,0.000431,0.001293
451000,0.0324,0.013523,0.002678,0.000431,0.000705
452000,0.0324,0.013523,0.002678,0.000431,0.000940
453000,0.0324,0.013523,0.002678,0.000431,0.001293
454000,0.0324,0.013523,0.002678,0.000431,0.001058
455000,0.0324,0.013523,0.002678,0.000431,0.000823
456000,0.0324,0.013523,0.002678,0.000431,0.000940
457000,0.0324,0.013523,0.002678,0.000431,0.001293
458000,0.0324,0.013523,0.002678,0.000431,0.000705
459000,0.0324,0.013523,0.002678,0.000431,0.000940
460000,0.0324,0.013523,0.002678,0.000431,0.001293
461000,0.0324,0.013523,0.002678,0.000431,0.001058
462000,0.0324,0.013523,0.002678,0.000431,0.000705
463000,0.0324,0.013523,0.002678,0.000431,0.001058
464000,0.0324,0.013523,0.002678,0.000431,0.001175
465000,0.0324,0.013523,0.002678,0.000431,0.000823
466000,0.0324,0.013523,0.002678,0.000431,0.000940
467000,0.0324,0.013523,0.002678,0.000431,0.001293
468000,0.0324,0.013523,0.002678,0.000431,0.001058
469000,0.0324,0.013523,0.002678,0.000431,0.000705
470000,0.0324,0.013523,0.002678,0.000431,0.001058
471000,0.0324,0.013523,0.002678,0.000431,0.001175
472000,0.0324,0.013523,0.002678,0.000431,0.000823
473000,0.0324,0.013523,0.002678,0.000431,0.000940
474000,0.0324,0.013523,0.002678,0.000431,0.001293
475000,0.0324,0.013523,0.002678,0.000431,0.001058
476000,0.0324,0.013523,0.002678,0.000431,0.000588
477000,0.0324,0.013523,0.002678,0.000431,0.001175
478000,0.0324,0.013523,0.002678,0.000431,0.001175
479000,0.0324,0.013523,0.002678,0.000431,0.000823
480000,0.0324,0.013523,0.002678,0.000431,0.000940
481000,0.0324,0.013523,0.002678,0.000431,0.001293
482000,0.0324,0.013523,0.002678,0.000431,0.000940
483000,0.0324,0.013523,0.002678,0.000431,0.000705
484000,0.0324,0.013523,0.002678,0.000431,0.001175
485000,0.0324,0.013523,0.002678,0.000431,0.001175
486000,0.0324,0.013523,0.002678,0.000431,0.000823
487000,0.0324,0.013523,0.002678,0.000431,0.000940
488000,0.0324,0.013523,0.002678,0.000431,0.001293
489000,0.0324,0.013523,0.002678,0.000431,0.000823
490000,0.0324,0.013523,0.002678,0.000431,0.000705
491000,0.0324,0.013523,0.002678,0.000431,0.001293
492000,0.0324,0.013523,0.002678,0.000431,0.001175
493000,0.0324,0.013523,0.002678,0.000431,0.001645
494000,0.0324,0.013523,0.002678,0.000431,0.000588
495000,0.0324,0.013523,0.002678,0.000431,0.000823
496000,0.0324,0.013523,0.002678,0.000431,0.000588
497000,0.0324,0.013523,0.002678,0.000431,0.000470
498000,0.0324,0.013523,0.002678,0.000431,0.000823
499000,0.0324,0.013523,0.002678,0.000431,0.000823
500000,0.0324,0.013523,0.002678,0.000431,0.000588
501000,0.0324,0.013523,0.002678,0.000431,0.000588
502000,0.0324,0.013523,0.002678,0.000431,0.000705
503000,0.0324,0.013523,0.002678,0.000431,0.000588
504000,0.0324,0.013523,0.002678,0.000431,0.000588
505000,0.0324,0.013523,0.002678,0.000431,0.000823
506000,0.0324,0.013523,0.002678,0.000431,0.000823
507000,0.0324,0.013523,0.002678,0.000431,0.000588
508000,0.0324,0.013523,0.002678,0.000431,0.000588
509000,0.0324,0.013523,0.002678,0.000431,0.000705
510000,0.0324,0.013523,0.002678,0.000431,0.000588
511000,0.0324,0.013523,0.002678,0.000431,0.000588
512000,0.0324,0.013523,0.002678,0.000431,0.000823
513000,0.0324,0.013523,0.002678,0.000431,0.000823
514000,0.0324,0.013523,0.002678,0.000431,0.000588
515000,0.0324,0.013523,0.002678,0.000431,0.000588
516000,0.0324,0.013523,0.002678,0.000431,0.000705
517000,0.0324,0.013523,0.002678,0.000431,0.000588
518000,0.0324,0.013523,0.002678,0.000431,0.000588
519000,0.0324,0.013523,0.002678,0.000431,0.000823
520000,0.0324,0.013523,0.002678,0.000431,0.000823
521000,0.0324,0.013523,0.002678,0.000431,0.000588
522000,0.0324,0.013523,0.002678,0.000431,0.000588
523000,0.0324,0.013523,0.002678,0.000431,0.000705
524000,0.0324,0.013523,0.002678,0.000431,0.000588
525000,0.0324,0.013523,0.002678,0.000431,0.000588
526000,0.0324,0.013523,0.002678,0.000431,0.000823
527000,0.0324,0.013523,0.002678,0.000431,0.000823
528000,0.0324,0.013523,0.002678,0.000431,0.000588
529000,0.0324,0.013523,0.002678,0.000431,0.000588
530000,0.0324,0.013523,0.002678,0.000431,0.000705
531000,0.0324,0.013523,0.002678,0.000431,0.000588
532000,0.0324,0.013523,0.002678,0.000431,0.000588
533000,0.0324,0.013523,0.002678,0.000431,0.000823
534000,0.0324,0.013523,0.002678,0.000431,0.000823
535000,0.0324,0.013523,0.002678,0.000431,0.000588
536000,0.0324,0.013523,0.002678,0.000431,0.000470
537000,0.0324,0.013523,0.002678,0.000431,0.000823
538000,0.0324,0.013523,0.002678,0.000431,0.000588
539000,0.0324,0.013523,0.002678,0.000431,0.000588
540000,0.0324,0.013523,0.002678,0.000431,0.000823
541000,0.0324,0.013523,0.002678,0.000431,0.000823
542000,0.0324,0.013523,0.002678,0.000431,0.000588
543000,0.0324,0.013523,0.002678,0.000431,0.000470
544000,0.0324,0.013523,0.002678,0.000431,0.000823
545000,0.0324,0.013523,0.002678,0.000431,0.000588
546000,0.0324,0.013523,0.002678,0.000431,0.000588
547000,0.0324,0.013523,0.002678,0.000431,0.000823
548000,0.0324,0.013523,0.002678,0.000431,0.000823
549000,0.0324,0.013523,0.002678,0.000431,0.000470
550000,0.0324,0.013523,0.002678,0.000431,0.000588
551000,0.0324,0.013523,0.002678,0.000431,0.000823
552000,0.0324,0.013523,0.002678,0.000431,0.000588
553000,0.0324,0.013523,0.002678,0.000431,0.000588
554000,0.0324,0.013523,0.002678,0.000431,0.000823
555000,0.0324,0.013523,0.002678,0.000431,0.000823
556000,0.0324,0.013523,0.002678,0.000431,0.000353
557000,0.0324,0.013523,0.002678,0.000431,0.000705
558000,0.0324,0.013523,0.002678,0.000431,0.000823
559000,0.0324,0.013523,0.002678,0.000431,0.000588
560000,0.0324,0.013523,0.002678,0.000431,0.000588
561000,0.0324,0.013523,0.002678,0.000431,0.000823
562000,0.0324,0.013523,0.002678,0.000431,0.000823
563000,0.0324,0.013523,0.002678,0.000431,0.000353
564000,0.0324,0.013523,0.002678,0.000431,0.000705
565000,0.0324,0.013523,0.002678,0.000431,0.000823
566000,0.0324,0.013523,0.002678,0.000431,0.000588
567000,0.0324,0.013523,0.002678,0.000431,0.000588
568000,0.0324,0.013523,0.002678,0.000431,0.000823
569000,0.0324,0.013523,0.002678,0.000431,0.000823
570000,0.0324,0.013523,0.002678,0.000431,0.000353
571000,0.0324,0.013523,0.002678,0.000431,0.000705
572000,0.0324,0.013523,0.002678,0.000431,0.000823
573000,0.0324,0.013523,0.002678,0.000431,0.000588
574000,0.0324,0.013523,0.002678,0.000431,0.000588
575000,0.0324,0.013523,0.002678,0.000431,0.000823
576000,0.0324,0.013523,0.002678,0.000431,0.000705
577000,0.0324,0.013523,0.002678,0.000431,0.000353
578000,0.0324,0.013523,0.002678,0.000431,0.000823
579000,0.0324,0.013523,0.002678,0.000431,0.000823
580000,0.0324,0.013523,0.002678,0.000431,0.000588
581000,0.0324,0.013523,0.002678,0.000431,0.000588
582000,0.0324,0.013523,0.002678,0.000431,0.000823
583000,0.0324,0.013523,0.002678,0.000431,0.000705
584000,0.0324,0.013523,0.002678,0.000431,0.000353
585000,0.0324,0.013523,0.002678,0.000431,0.000823
586000,0.0324,0.013523,0.002678,0.000431,0.000823
587000,0.0324,0.013523,0.002678,0.000431,0.000588
588000,0.0324,0.013523,0.002678,0.000431,0.000588
589000,0.0324,0.013523,0.002678,0.000431,0.000823
590000,0.0324,0.013523,0.002678,0.000431,0.000705
591000,0.0324,0.013523,0.002678,0.000431,0.000353
592000,0.0324,0.013523,0.002678,0.000431,0.000823
593000,0.0324,0.013523,0.002678,0.000431,0.000823
594000,0.0324,0.013523,0.002678,0.000431,0.000588
595000,0.0324,0.013523,0.002678,0.000431,0.000588
596000,0.0324,0.013523,0.002678,0.000431,0.000823
597000,0.0324,0.013523,0.002678,0.000431,0.000588
598000,0.0324,0.013523,0.002678,0.000431,0.000470
599000,0.0324,0.013523,0.002678,0.000431,0.000823
600000,0.0324,0.013523,0.002678,0.000431,0.000823
601000,0.0324,0.013523,0.002678,0.000431,0.000588
602000,0.0324,0.013523,0.002678,0.000431,0.000588
603000,0.0324,0.013523,0.002678,0.000431,0.000823
604000,0.0324,0.013523,0.002678,0.000431,0.000588
605000,0.0324,0.013523,0.002678,0.000431,0.000470
606000,0.0324,0.013523,0.002678,0.000431,0.000823
607000,0.0324,0.013523,0.002678,0.000431,0.000823
608000,0.0324,0.013523,0.002678,0.000431,0.000588
609000,0.0324,0.013523,0.002678,0.000431,0.000588
610000,0.0324,0.013523,0.002678,0.000431,0.000823
611000,0.0324,0.013523,0.002678,0.000431,0.000588
612000,0.0324,0.013523,0.002678,0.000431,0.000470
613000,0.0324,0.013523,0.002678,0.000431,0.000823
614000,0.0324,0.013523,0.002678,0.000431,0.000823
615000,0.0324,0.013523,0.002678,0.000431,0.000588
616000,0.0324,0.013523,0.002678,0.000431,0.000588
617000,0.0324,0.013523,0.002678,0.000431,0.000823
618000,0.0324,0.013523,0.002678,0.000431,0.000470
619000,0.0324,0.013523,0.002678,0.000431,0.000588
620000,0.0324,0.013523,0.002678,0.000431,0.000823
621000,0.0324,0.013523,0.002678,0.000431,0.000823
622000,0.0324,0.013523,0.002678,0.000431,0.000588
623000,0.0324,0.013523,0.002678,0.000431,0.000588
624000,0.0324,0.013523,0.002678,0.000431,0.000823
625000,0.0324,0.013523,0.002678,0.000431,0.000470
626000,0.0324,0.013523,0.002678,0.000431,0.000588
627000,0.0324,0.013523,0.002678,0.000431,0.000823
628000,0.0324,0.013523,0.002678,0.000431,0.000823
629000,0.0324,0.013523,0.002678,0.000431,0.000588
630000,0.0324,0.013523,0.002678,0.000431,0.000588
631000,0.0324,0.013523,0.002678,0.000431,0.000823
632000,0.0324,0.013523,0.002678,0.000431,0.000470
633000,0.0324,0.013523,0.002678,0.000431,0.000588
634000,0.0324,0.013523,0.002678,0.000431,0.000823
635000,0.0324,0.013523,0.002678,0.000431,0.000823
636000,0.0324,0.013523,0.002678,0.000431,0.000588
637000,0.0324,0.013523,0.002678,0.000431,0.000588
638000,0.0324,0.013523,0.002678,0.000431,0.000823
639000,0.0324,0.013523,0.002678,0.000431,0.000470
640000,0.0324,0.013523,0.002678,0.000431,0.000588
641000,0.0324,0.013523,0.002678,0.000431,0.000823
642000,0.0324,0.013523,0.002678,0.000431,0.000823
643000,0.0324,0.013523,0.002678,0.000431,0.000588
644000,0.0324,0.013523,0.002678,0.000431,0.000588
645000,0.0324,0.013523,0.002678,0.000431,0.000705
646000,0.0324,0.013523,0.002678,0.000431,0.000588
647000,0.0324,0.013523,0.002678,0.000431,0.000588
648000,0.0324,0.013523,0.002678,0.000431,0.000823
649000,0.0324,0.013523,0.002678,0.000431,0.000823
650000,0.0324,0.013523,0.002678,0.000431,0.000588
651000,0.0324,0.013523,0.002678,0.000431,0.000470
652000,0.0324,0.013523,0.002678,0.000431,0.000823
653000,0.0324,0.013523,0.002678,0.000431,0.000588
654000,0.0324,0.013523,0.002678,0.000431,0.000588
655000,0.0324,0.013523,0.002678,0.000431,0.000823
656000,0.0324,0.013523,0.002678,0.000431,0.000823
657000,0.0324,0.013523,0.002678,0.000431,0.000588
658000,0.0324,0.013523,0.002678,0.000431,0.000470
659000,0.0324,0.013523,0.002678,0.000431,0.000823
660000,0.0324,0.013523,0.002678,0.000431,0.000588
661000,0.0324,0.013523,0.002678,0.000431,0.000588
662000,0.0324,0.013523,0.002678,0.000431,0.000823
663000,0.0324,0.013523,0.002678,0.000431,0.000823
664000,0.0324,0.013523,0.002678,0.000431,0.000470
665000,0.0324,0.013523,0.002678,0.000431,0.000588
666000,0.0324,0.013523,0.002678,0.000431,0.000823
667000,0.0324,0.013523,0.002678,0.000431,0.000588
668000,0.0324,0.013523,0.002678,0.000431,0.000588
669000,0.0324,0.013523,0.002678,0.000431,0.000823
670000,0.0324,0.013523,0.002678,0.000431,0.000823
671000,0.0324,0.013523,0.002678,0.000431,0.000470
672000,0.0324,0.013523,0.002678,0.000431,0.000588
673000,0.0324,0.013523,0.002678,0.000431,0.000823
674000,0.0324,0.013523,0.002678,0.000431,0.000588
675000,0.0324,0.013523,0.002678,0.000431,0.000588
676000,0.0324,0.013523,0.002678,0.000431,0.000823
677000,0.0324,0.013523,0.002678,0.000431,0.000823
678000,0.0324,0.013523,0.002678,0.000431,0.000470
679000,0.0324,0.013523,0.002678,0.000431,0.000588
680000,0.0324,0.013523,0.002678,0.000431,0.000823
681000,0.0324,0.013523,0.002678,0.000431,0.000588
682000,0.0324,0.013523,0.002678,0.000431,0.000588
683000,0.0324,0.013523,0.002678,0.000431,0.000823
684000,0.0324,0.013523,0.002678,0.000431,0.000823
685000,0.0324,0.013523,0.002678,0.000431,0.000470
686000,0.0324,0.013523,0.002678,0.000431,0.000588
687000,0.0324,0.013523,0.002678,0.000431,0.000823
688000,0.0324,0.013523,0.002678,0.000431,0.000588
689000,0.0324,0.013523,0.002678,0.000431,0.000588
690000,0.0324,0.013523,0.002678,0.000431,0.000823
691000,0.0324,0.013523,0.002678,0.000431,0.000823
692000,0.0324,0.013523,0.002678,0.000431,0.000353
693000,0.0324,0.013523,0.002678,0.000431,0.000705
694000,0.0324,0.013523,0.002678,0.000431,0.000823
695000,0.0324,0.013523,0.002678,0.000431,0.000588
696000,0.0324,0.013523,0.002678,0.000431,0.000588
697000,0.0324,0.013523,0.002678,0.000431,0.000823
698000,0.0324,0.013523,0.002678,0.000431,0.000823
699000,0.0324,0.013523,0.002678,0.000431,0.000235
700000,0.0324,0.013523,0.002678,0.000431,0.000823
701000,0.0324,0.013523,0.002678,0.000431,0.000823
702000,0.0324,0.013523,0.002678,0.000431,0.000588
703000,0.0324,0.013523,0.002678,0.000431,0.000588
704000,0.0324,0.013523,0.002678,0.000431,0.000823
705000,0.0324,0.013523,0.002678,0.000431,0.000823
706000,0.0324,0.013523,0.002678,0.000431,0.000235
707000,0.0324,0.013523,0.002678,0.000431,0.000823
708000,0.0324,0.013523,0.002678,0.000431,0.000823
709000,0.0324,0.013523,0.002678,0.000431,0.000588
710000,0.0324,0.013523,0.002678,0.000431,0.000588
711000,0.0324,0.013523,0.002678,0.000431,0.000823
712000,0.0324,0.013523,0.002678,0.000431,0.000705
713000,0.0324,0.013523,0.002678,0.000431,0.000353
714000,0.0324,0.013523,0.002678,0.000431,0.000823
715000,0.0324,0.013523,0.002678,0.000431,0.000823
716000,0.0324,0.013523,0.002678,0.000431,0.000588
717000,0.0324,0.013523,0.002678,0.000431,0.000588
718000,0.0324,0.013523,0.002678,0.000431,0.000823
719000,0.0324,0.013523,0.002678,0.000431,0.000588
720000,0.0324,0.013523,0.002678,0.000431,0.000470
721000,0.0324,0.013523,0.002678,0.000431,0.000823
722000,0.0324,0.013523,0.002678,0.000431,0.000823
723000,0.0324,0.013523,0.002678,0.000431,0.000588
724000,0.0324,0.013523,0.002678,0.000431,0.000588
725000,0.0324,0.013523,0.002678,0.000431,0.000823
726000,0.0324,0.013523,0.002678,0.000431,0.000588
727000,0.0324,0.013523,0.002678,0.000431,0.000470
728000,0.0324,0.013523,0.002678,0.000431,0.000823
729000,0.0324,0.013523,0.002678,0.000431,0.000823
730000,0.0324,0.013523,0.002678,0.000431,0.000588
731000,0.0324,0.013523,0.002678,0.000431,0.000588
732000,0.0324,0.013523,0.002678,0.000431,0.001763
733000,0.0324,0.013523,0.002678,0.000431,0.000235
734000,0.0324,0.013523,0.002678,0.000431,0.000235
735000,0.0324,0.013523,0.002678,0.000431,0.000470
736000,0.0324,0.013523,0.002678,0.000431,0.000353
737000,0.0324,0.013523,0.002678,0.000431,0.000235
738000,0.0324,0.013523,0.002678,0.000431,0.000353
739000,0.0324,0.013523,0.002678,0.000431,0.000470
740000,0.0324,0.013523,0.002678,0.000431,0.000235
741000,0.0324,0.013523,0.002678,0.000431,0.000235
742000,0.0324,0.013523,0.002678,0.000431,0.000470
743000,0.0324,0.013523,0.002678,0.000431,0.000353
744000,0.0324,0.013523,0.002678,0.000431,0.000235
745000,0.0324,0.013523,0.002678,0.000431,0.000353
746000,0.0324,0.013523,0.002678,0.000431,0.000470
747000,0.0324,0.013523,0.002678,0.000431,0.000235
748000,0.0324,0.013523,0.002678,0.000431,0.000235
749000,0.0324,0.013523,0.002678,0.000431,0.000470
750000,0.0324,0.013523,0.002678,0.000431,0.000353
751000,0.0324,0.013523,0.002678,0.000431,0.000235
752000,0.0324,0.013523,0.002678,0.000431,0.000353
753000,0.0324,0.013523,0.002678,0.000431,0.000470
754000,0.0324,0.013523,0.002678,0.000431,0.000235
755000,0.0324,0.013523,0.002678,0.000431,0.000235
756000,0.0324,0.013523,0.002678,0.000431,0.000470
757000,0.0324,0.013523,0.002678,0.000431,0.000353
758000,0.0324,0.013523,0.002678,0.000431,0.000235
759000,0.0324,0.013523,0.002678,0.000431,0.000353
760000,0.0324,0.013523,0.002678,0.000431,0.000470
761000,0.0324,0.013523,0.002678,0.000431,0.000118
762000,0.0324,0.013523,0.002678,0.000431,0.000353
763000,0.0324,0.013523,0.002678,0.000431,0.000470
764000,0.0324,0.013523,0.002678,0.000431,0.000353
765000,0.0324,0.013523,0.002678,0.000431,0.000235
766000,0.0324,0.013523,0.002678,0.000431,0.000353
767000,0.0324,0.013523,0.002678,0.000431,0.000470
768000,0.0324,0.013523,0.002678,0.000431,0.000118
769000,0.0324,0.013523,0.002678,0.000431,0.000353
770000,0.0324,0.013523,0.002678,0.000431,0.000470
771000,0.0324,0.013523,0.002678,0.000431,0.000353
772000,0.0324,0.013523,0.002678,0.000431,0.000235
773000,0.0324,0.013523,0.002678,0.000431,0.000353
774000,0.0324,0.013523,0.002678,0.000431,0.000470
775000,0.0324,0.013523,0.002678,0.000431,0.000118
776000,0.0324,0.013523,0.002678,0.000431,0.000353
777000,0.0324,0.013523,0.002678,0.000431,0.000470
778000,0.0324,0.013523,0.002678,0.000431,0.000353
779000,0.0324,0.013523,0.002678,0.000431,0.000235
780000,0.0324,0.013523,0.002678,0.000431,0.000353
781000,0.0324,0.013523,0.002678,0.000431,0.000353
782000,0.0324,0.013523,0.002678,0.000431,0.000235
783000,0.0324,0.013523,0.002678,0.000431,0.000353
784000,0.0324,0.013523,0.002678,0.000431,0.000470
785000,0.0324,0.013523,0.002678,0.000431,0.000353
786000,0.0324,0.013523,0.002678,0.000431,0.000235
787000,0.0324,0.013523,0.002678,0.000431,0.000353
788000,0.0324,0.013523,0.002678,0.000431,0.000353
789000,0.0324,0.013523,0.002678,0.000431,0.000235
790000,0.0324,0.013523,0.002678,0.000431,0.000353
791000,0.0324,0.013523,0.002678,0.000431,0.000470
792000,0.0324,0.013523,0.002678,0.000431,0.000353
793000,0.0324,0.013523,0.002678,0.000431,0.000235
794000,0.0324,0.013523,0.002678,0.000431,0.000353
795000,0.0324,0.013523,0.002678,0.000431,0.000353
796000,0.0324,0.013523,0.002678,0.000431,0.000235
797000,0.0324,0.013523,0.002678,0.000431,0.000353
798000,0.0324,0.013523,0.002678,0.000431,0.000470
799000,0.0324,0.013523,0.002678,0.000431,0.000353
800000,0.0324,0.013523,0.002678,0.000431,0.000235
801000,0.0324,0.013523,0.002678,0.000431,0.000353
802000,0.0324,0.013523,0.002678,0.000431,0.000353
803000,0.0324,0.013523,0.002678,0.000431,0.000235
804000,0.0324,0.013523,0.002678,0.000431,0.000353
805000,0.0324,0.013523,0.002678,0.000431,0.000470
806000,0.0324,0.013523,0.002678,0.000431,0.000353
807000,0.0324,0.013523,0.002678,0.000431,0.000235
808000,0.0324,0.013523,0.002678,0.000431,0.000353
809000,0.0324,0.013523,0.002678,0.000431,0.000353
810000,0.0324,0.013523,0.002678,0.000431,0.000235
811000,0.0324,0.013523,0.002678,0.000431,0.000353
812000,0.0324,0.013523,0.002678,0.000431,0.000470
813000,0.0324,0.013523,0.002678,0.000431,0.000353
814000,0.0324,0.013523,0.002678,0.000431,0.000235
815000,0.0324,0.013523,0.002678,0.000431,0.000353
816000,0.0324,0.013523,0.002678,0.000431,0.000353
817000,0.0324,0.013523,0.002678,0.000431,0.000235
818000,0.0324,0.013523,0.002678,0.000431,0.000353
819000,0.0324,0.013523,0.002678,0.000431,0.000470
820000,0.0324,0.013523,0.002678,0.000431,0.000353
821000,0.0324,0.013523,0.002678,0.000431,0.000235
822000,0.0324,0.013523,0.002678,0.000431,0.000353
823000,0.0324,0.013523,0.002678,0.000431,0.000353
824000,0.0324,0.013523,0.002678,0.000431,0.000235
825000,0.0324,0.013523,0.002678,0.000431,0.000353
826000,0.0324,0.013523,0.002678,0.000431,0.000470
827000,0.0324,0.013523,0.002678,0.000431,0.000353
828000,0.0324,0.013523,0.002678,0.000431,0.000235
829000,0.0324,0.013523,0.002678,0.000431,0.000353
830000,0.0324,0.013523,0.002678,0.000431,0.000353
831000,0.0324,0.013523,0.002678,0.000431,0.000235
832000,0.0324,0.013523,0.002678,0.000431,0.000353
833000,0.0324,0.013523,0.002678,0.000431,0.000470
834000,0.0324,0.013523,0.002678,0.000431,0.000353
835000,0.0324,0.013523,0.002678,0.000431,0.000118
836000,0.0324,0.013523,0.002678,0.000431,0.000470
837000,0.0324,0.013523,0.002678,0.000431,0.000353
838000,0.0324,0.013523,0.002678,0.000431,0.000235
839000,0.0324,0.013523,0.002678,0.000431,0.000353
840000,0.0324,0.013523,0.002678,0.000431,0.000470
841000,0.0324,0.013523,0.002678,0.000431,0.000353
842000,0.0324,0.013523,0.002678,0.000431,0.000118
843000,0.0324,0.013523,0.002678,0.000431,0.000470
844000,0.0324,0.013523,0.002678,0.000431,0.000353
845000,0.0324,0.013523,0.002678,0.000431,0.000235
846000,0.0324,0.013523,0.002678,0.000431,0.000353
847000,0.0324,0.013523,0.002678,0.000431,0.000470
848000,0.0324,0.013523,0.002678,0.000431,0.000353
849000,0.0324,0.013523,0.002678,0.000431,0.000118
850000,0.0324,0.013523,0.002678,0.000431,0.000470
851000,0.0324,0.013523,0.002678,0.000431,0.000353
852000,0.0324,0.013523,0.002678,0.000431,0.000235
853000,0.0324,0.013523,0.002678,0.000431,0.000353
854000,0.0324,0.013523,0.002678,0.000431,0.000470
855000,0.0324,0.013523,0.002678,0.000431,0.000235
856000,0.0324,0.013523,0.002678,0.000431,0.000235
857000,0.0324,0.013523,0.002678,0.000431,0.000470
858000,0.0324,0.013523,0.002678,0.000431,0.000353
859000,0.0324,0.013523,0.002678,0.000431,0.000235
860000,0.0324,0.013523,0.002678,0.000431,0.000353
861000,0.0324,0.013523,0.002678,0.000431,0.000470
862000,0.0324,0.013523,0.002678,0.000431,0.000235
863000,0.0324,0.013523,0.002678,0.000431,0.000235
864000,0.0324,0.013523,0.002678,0.000431,0.000470
865000,0.0324,0.013523,0.002678,0.000431,0.000353
866000,0.0324,0.013523,0.002678,0.000431,0.000235
867000,0.0324,0.013523,0.002678,0.000431,0.000353
868000,0.0324,0.013523,0.002678,0.000431,0.000470
869000,0.0324,0.013523,0.002678,0.000431,0.000235
870000,0.0324,0.013523,0.002678,0.000431,0.000235
871000,0.0324,0.013523,0.002678,0.000431,0.000470
872000,0.0324,0.013523,0.002678,0.000431,0.000353
873000,0.0324,0.013523,0.002678,0.000431,0.000235
874000,0.0324,0.013523,0.002678,0.000431,0.000353
875000,0.0324,0.013523,0.002678,0.000431,0.000470
876000,0.0324,0.013523,0.002678,0.000431,0.000235
877000,0.0324,0.013523,0.002678,0.000431,0.000235
878000,0.0324,0.013523,0.002678,0.000431,0.000470
879000,0.0324,0.013523,0.002678,0.000431,0.000353
880000,0.0324,0.013523,0.002678,0.000431,0.000235
881000,0.0324,0.013523,0.002678,0.000431,0.000353
882000,0.0324,0.013523,0.002678,0.000431,0.000470
883000,0.0324,0.013523,0.002678,0.000431,0.000235
884000,0.0324,0.013523,0.002678,0.000431,0.000235
885000,0.0324,0.013523,0.002678,0.000431,0.000470
886000,0.0324,0.013523,0.002678,0.000431,0.000353
887000,0.0324,0.013523,0.002678,0.000431,0.000235
888000,0.0324,0.013523,0.002678,0.000431,0.000353
889000,0.0324,0.013523,0.002678,0.000431,0.000470
890000,0.0324,0.013523,0.002678,0.000431,0.000235
891000,0.0324,0.013523,0.002678,0.000431,0.000235
892000,0.0324,0.013523,0.002678,0.000431,0.000470
893000,0.0324,0.013523,0.002678,0.000431,0.000353
894000,0.0324,0.013523,0.002678,0.000431,0.000235
895000,0.0324,0.013523,0.002678,0.000431,0.000353
896000,0.0324,0.013523,0.002678,0.000431,0.000470
897000,0.0324,0.013523,0.002678,0.000431,0.000118
898000,0.0324,0.013523,0.002678,0.000431,0.000353
899000,0.0324,0.013523,0.002678,0.000431,0.000470
900000,0.0324,0.013523,0.002678,0.000431,0.000353
901000,0.0324,0.013523,0.002678,0.000431,0.000235
902000,0.0324,0.013523,0.002678,0.000431,0.000353
903000,0.0324,0.013523,0.002678,0.000431,0.000470
904000,0.0324,0.013523,0.002678,0.000431,0.000118
905000,0.0324,0.013523,0.002678,0.000431,0.000353
906000,0.0324,0.013523,0.002678,0.000431,0.000470
907000,0.0324,0.013523,0.002678,0.000431,0.000353
908000,0.0324,0.013523,0.002678,0.000431,0.000235
909000,0.0324,0.013523,0.002678,0.000431,0.000353
910000,0.0324,0.013523,0.002678,0.000431,0.000470
911000,0.0324,0.013523,0.002678,0.000431,0.000118
912000,0.0324,0.013523,0.002678,0.000431,0.000353
913000,0.0324,0.013523,0.002678,0.000431,0.000470
914000,0.0324,0.013523,0.002678,0.000431,0.000353
915000,0.0324,0.013523,0.002678,0.000431,0.000235
916000,0.0324,0.013523,0.002678,0.000431,0.000353
917000,0.0324,0.013523,0.002678,0.000431,0.000470
918000,0.0324,0.013523,0.002678,0.000431,0.000118
919000,0.0324,0.013523,0.002678,0.000431,0.000353
920000,0.0324,0.013523,0.002678,0.000431,0.000470
921000,0.0324,0.013523,0.002678,0.000431,0.000353
922000,0.0324,0.013523,0.002678,0.000431,0.000235
923000,0.0324,0.013523,0.002678,0.000431,0.000353
924000,0.0324,0.013523,0.002678,0.000431,0.000353
925000,0.0324,0.013523,0.002678,0.000431,0.000235
926000,0.0324,0.013523,0.002678,0.000431,0.000353
927000,0.0324,0.013523,0.002678,0.000431,0.000470
928000,0.0324,0.013523,0.002678,0.000431,0.000353
929000,0.0324,0.013523,0.002678,0.000431,0.000235
930000,0.0324,0.013523,0.002678,0.000431,0.000353
931000,0.0324,0.013523,0.002678,0.000431,0.000353
932000,0.0324,0.013523,0.002678,0.000431,0.000235
933000,0.0324,0.013523,0.002678,0.000431,0.000353
934000,0.0324,0.013523,0.002678,0.000431,0.000470
935000,0.0324,0.013523,0.002678,0.000431,0.000353
936000,0.0324,0.013523,0.002678,0.000431,0.000235
937000,0.0324,0.013523,0.002678,0.000431,0.000353
938000,0.0324,0.013523,0.002678,0.000431,0.000353
939000,0.0324,0.013523,0.002678,0.000431,0.000235
940000,0.0324,0.013523,0.002678,0.000431,0.000353
941000,0.0324,0.013523,0.002678,0.000431,0.000470
942000,0.0324,0.013523,0.002678,0.000431,0.000353
943000,0.0324,0.013523,0.002678,0.000431,0.000235
944000,0.0324,0.013523,0.002678,0.000431,0.000353
945000,0.0324,0.013523,0.002678,0.000431,0.000353
946000,0.0324,0.013523,0.002678,0.000431,0.000235
947000,0.0324,0.013523,0.002678,0.000431,0.000353
948000,0.0324,0.013523,0.002678,0.000431,0.000470
949000,0.0324,0.013523,0.002678,0.000431,0.000353
950000,0.0324,0.013523,0.002678,0.000431,0.000235
951000,0.0324,0.013523,0.002678,0.000431,0.000353
952000,0.0324,0.013523,0.002678,0.000431,0.000353
953000,0.0324,0.013523,0.002678,0.000431,0.000235
954000,0.0324,0.013523,0.002678,0.000431,0.000353
955000,0.0324,0.013523,0.002678,0.000431,0.000470
956000,0.0324,0.013523,0.002678,0.000431,0.000353
957000,0.0324,0.013523,0.002678,0.000431,0.000235
958000,0.0324,0.013523,0.002678,0.000431,0.000353
959000,0.0324,0.013523,0.002678,0.000431,0.000353
960000,0.0324,0.013523,0.002678,0.000431,0.000235
961000,0.0324,0.013523,0.002678,0.000431,0.000353
962000,0.0324,0.013523,0.002678,0.000431,0.000470
963000,0.0324,0.013523,0.002678,0.000431,0.000353
964000,0.0324,0.013523,0.002678,0.000431,0.000235
965000,0.0324,0.013523,0.002678,0.000431,0.000353
966000,0.0324,0.013523,0.002678,0.000431,0.000353
967000,0.0324,0.013523,0.002678,0.000431,0.000235
968000,0.0324,0.013523,0.002678,0.000431,0.000353
969000,0.0324,0.013523,0.002678,0.000431,0.000470
970000,0.0324,0.013523,0.002678,0.000431,0.000353
971000,0.0324,0.013523,0.002678,0.000431,0.000235
972000,0.0324,0.013523,0.002678,0.000431,0.000353
973000,0.0324,0.013523,0.002678,0.000431,0.000353
974000,0.0324,0.013523,0.002678,0.000431,0.000235
975000,0.0324,0.013523,0.002678,0.000431,0.000353
976000,0.0324,0.013523,0.002678,0.000431,0.000470
977000,0.0324,0.013523,0.002678,0.000431,0.000353
978000,0.0324,0.013523,0.002678,0.000431,0.000118
979000,0.0324,0.013523,0.002678,0.000431,0.000470
980000,0.0324,0.013523,0.002678,0.000431,0.000353
981000,0.0324,0.013523,0.002678,0.000431,0.000235
982000,0.0324,0.013523,0.002678,0.000431,0.000353
983000,0.0324,0.013523,0.002678,0.000431,0.000470
984000,0.0324,0.013523,0.002678,0.000431,0.000353
985000,0.0324,0.013523,0.002678,0.000431,0.000118
986000,0.0324,0.013523,0.002678,0.000431,0.000470
987000,0.0324,0.013523,0.002678,0.000431,0.000353
988000,0.0324,0.013523,0.002678,0.000431,0.000235
989000,0.0324,0.013523,0.002678,0.000431,0.000353
990000,0.0324,0.013523,0.002678,0.000431,0.000470
991000,0.0324,0.013523,0.002678,0.000431,0.000353
992000,0.0324,0.013523,0.002678,0.000431,0.000118
993000,0.0324,0.013523,0.002678,0.000431,0.000470
994000,0.0324,0.013523,0.002678,0.000431,0.000353
995000,0.0324,0.013523,0.002678,0.000431,0.000235
996000,0.0324,0.013523,0.002678,0.000431,0.000353
997000,0.0324,0.013523,0.002678,0.000431,0.000470
998000,0.0324,0.013523,0.002678,0.000431,0.000235
999000,0.0324,0.013523,0.002678,0.000431,0.000235
