Cycle,Area(mm^2),PeakDynamic(W),SubthresholdLeakage(W),GateLeakage(W),RunTimeDynamic(W)
18000000,0.0324,0.013523,0.002678,0.000431,0.074630
18001000,0.0324,0.013523,0.002678,0.000431,0.210140
18002000,0.0324,0.013523,0.002678,0.000431,0.134100
18003000,0.0324,0.013523,0.002678,0.000431,0.083915
18004000,0.0324,0.013523,0.002678,0.000431,0.128693
18005000,0.0324,0.013523,0.002678,0.000431,0.232588
18006000,0.0324,0.013523,0.002678,0.000431,0.202854
18007000,0.0324,0.013523,0.002678,0.000431,0.102602
18008000,0.0324,0.013523,0.002678,0.000431,0.155372
18009000,0.0324,0.013523,0.002678,0.000431,0.068872
18010000,0.0324,0.013523,0.002678,0.000431,0.092377
18011000,0.0324,0.013523,0.002678,0.000431,0.068401
18012000,0.0324,0.013523,0.002678,0.000431,0.115530
18013000,0.0324,0.013523,0.002678,0.000431,0.090027
18014000,0.0324,0.013523,0.002678,0.000431,0.178878
18015000,0.0324,0.013523,0.002678,0.000431,0.109419
18016000,0.0324,0.013523,0.002678,0.000431,0.087794
18017000,0.0324,0.013523,0.002678,0.000431,0.117411
18018000,0.0324,0.013523,0.002678,0.000431,0.147850
18019000,0.0324,0.013523,0.002678,0.000431,0.103307
18020000,0.0324,0.013523,0.002678,0.000431,0.057236
18021000,0.0324,0.013523,0.002678,0.000431,0.198858
18022000,0.0324,0.013523,0.002678,0.000431,0.089556
18023000,0.0324,0.013523,0.002678,0.000431,0.118939
18024000,0.0324,0.013523,0.002678,0.000431,0.057824
18025000,0.0324,0.013523,0.002678,0.000431,0.090379
18026000,0.0324,0.013523,0.002678,0.000431,0.100369
18027000,0.0324,0.013523,0.002678,0.000431,0.088264
18028000,0.0324,0.013523,0.002678,0.000431,0.108714
18029000,0.0324,0.013523,0.002678,0.000431,0.141739
18030000,0.0324,0.013523,0.002678,0.000431,0.058764
18031000,0.0324,0.013523,0.002678,0.000431,0.257152
18032000,0.0324,0.013523,0.002678,0.000431,0.256329
18033000,0.0324,0.013523,0.002678,0.000431,0.094140
18034000,0.0324,0.013523,0.002678,0.000431,0.366335
18035000,0.0324,0.013523,0.002678,0.000431,0.065346
18036000,0.0324,0.013523,0.002678,0.000431,0.035729
18037000,0.0324,0.013523,0.002678,0.000431,0.098136
18038000,0.0324,0.013523,0.002678,0.000431,0.205557
18039000,0.0324,0.013523,0.002678,0.000431,0.060174
18040000,0.0324,0.013523,0.002678,0.000431,0.196977
18041000,0.0324,0.013523,0.002678,0.000431,0.096843
18042000,0.0324,0.013523,0.002678,0.000431,0.071810
18043000,0.0324,0.013523,0.002678,0.000431,0.132454
18044000,0.0324,0.013523,0.002678,0.000431,0.077334
18045000,0.0324,0.013523,0.002678,0.000431,0.167243
18046000,0.0324,0.013523,0.002678,0.000431,0.140329
18047000,0.0324,0.013523,0.002678,0.000431,0.110594
18048000,0.0324,0.013523,0.002678,0.000431,0.034906
18049000,0.0324,0.013523,0.002678,0.000431,0.072515
18050000,0.0324,0.013523,0.002678,0.000431,0.080154
18051000,0.0324,0.013523,0.002678,0.000431,0.163834
18052000,0.0324,0.013523,0.002678,0.000431,0.117293
18053000,0.0324,0.013523,0.002678,0.000431,0.099194
18054000,0.0324,0.013523,0.002678,0.000431,0.102955
18055000,0.0324,0.013523,0.002678,0.000431,0.098136
18056000,0.0324,0.013523,0.002678,0.000431,0.110124
18057000,0.0324,0.013523,0.002678,0.000431,0.171004
18058000,0.0324,0.013523,0.002678,0.000431,0.155725
18059000,0.0324,0.013523,0.002678,0.000431,0.092025
18060000,0.0324,0.013523,0.002678,0.000431,0.121172
18061000,0.0324,0.013523,0.002678,0.000431,0.057824
18062000,0.0324,0.013523,0.002678,0.000431,0.042780
18063000,0.0324,0.013523,0.002678,0.000431,0.121877
18064000,0.0324,0.013523,0.002678,0.000431,0.071457
18065000,0.0324,0.013523,0.002678,0.000431,0.059939
18066000,0.0324,0.013523,0.002678,0.000431,0.204146
18067000,0.0324,0.013523,0.002678,0.000431,0.106010
18068000,0.0324,0.013523,0.002678,0.000431,0.065698
18069000,0.0324,0.013523,0.002678,0.000431,0.190396
18070000,0.0324,0.013523,0.002678,0.000431,0.233528
18071000,0.0324,0.013523,0.002678,0.000431,0.196507
18072000,0.0324,0.013523,0.002678,0.000431,0.152081
18073000,0.0324,0.013523,0.002678,0.000431,0.165127
18074000,0.0324,0.013523,0.002678,0.000431,0.062055
18075000,0.0324,0.013523,0.002678,0.000431,0.139859
18076000,0.0324,0.013523,0.002678,0.000431,0.131749
18077000,0.0324,0.013523,0.002678,0.000431,0.108126
18078000,0.0324,0.013523,0.002678,0.000431,0.059704
18079000,0.0324,0.013523,0.002678,0.000431,0.275486
18080000,0.0324,0.013523,0.002678,0.000431,0.119644
18081000,0.0324,0.013523,0.002678,0.000431,0.057824
18082000,0.0324,0.013523,0.002678,0.000431,0.046424
18083000,0.0324,0.013523,0.002678,0.000431,0.084033
18084000,0.0324,0.013523,0.002678,0.000431,0.124580
18085000,0.0324,0.013523,0.002678,0.000431,0.058764
18086000,0.0324,0.013523,0.002678,0.000431,0.247632
18087000,0.0324,0.013523,0.002678,0.000431,0.140446
18088000,0.0324,0.013523,0.002678,0.000431,0.059469
18089000,0.0324,0.013523,0.002678,0.000431,0.041487
18090000,0.0324,0.013523,0.002678,0.000431,0.092612
18091000,0.0324,0.013523,0.002678,0.000431,0.222716
18092000,0.0324,0.013523,0.002678,0.000431,0.289824
18093000,0.0324,0.013523,0.002678,0.000431,0.077804
18094000,0.0324,0.013523,0.002678,0.000431,0.088381
18095000,0.0324,0.013523,0.002678,0.000431,0.086971
18096000,0.0324,0.013523,0.002678,0.000431,0.117293
18097000,0.0324,0.013523,0.002678,0.000431,0.108008
18098000,0.0324,0.013523,0.002678,0.000431,0.138448
18099000,0.0324,0.013523,0.002678,0.000431,0.099664
18100000,0.0324,0.013523,0.002678,0.000431,0.095315
18101000,0.0324,0.013523,0.002678,0.000431,0.046306
18102000,0.0324,0.013523,0.002678,0.000431,0.050185
18103000,0.0324,0.013523,0.002678,0.000431,0.091554
18104000,0.0324,0.013523,0.002678,0.000431,0.226947
18105000,0.0324,0.013523,0.002678,0.000431,0.133982
18106000,0.0324,0.013523,0.002678,0.000431,0.131984
18107000,0.0324,0.013523,0.002678,0.000431,0.091672
18108000,0.0324,0.013523,0.002678,0.000431,0.099194
18109000,0.0324,0.013523,0.002678,0.000431,0.113767
18110000,0.0324,0.013523,0.002678,0.000431,0.140094
18111000,0.0324,0.013523,0.002678,0.000431,0.224831
18112000,0.0324,0.013523,0.002678,0.000431,0.221071
18113000,0.0324,0.013523,0.002678,0.000431,0.066521
18114000,0.0324,0.013523,0.002678,0.000431,0.057824
18115000,0.0324,0.013523,0.002678,0.000431,0.090967
18116000,0.0324,0.013523,0.002678,0.000431,0.099546
18117000,0.0324,0.013523,0.002678,0.000431,0.113767
18118000,0.0324,0.013523,0.002678,0.000431,0.080624
18119000,0.0324,0.013523,0.002678,0.000431,0.114002
18120000,0.0324,0.013523,0.002678,0.000431,0.057706
18121000,0.0324,0.013523,0.002678,0.000431,0.042780
18122000,0.0324,0.013523,0.002678,0.000431,0.057824
18123000,0.0324,0.013523,0.002678,0.000431,0.146793
18124000,0.0324,0.013523,0.002678,0.000431,0.089204
18125000,0.0324,0.013523,0.002678,0.000431,0.079684
18126000,0.0324,0.013523,0.002678,0.000431,0.061702
18127000,0.0324,0.013523,0.002678,0.000431,0.122112
18128000,0.0324,0.013523,0.002678,0.000431,0.072867
18129000,0.0324,0.013523,0.002678,0.000431,0.093905
18130000,0.0324,0.013523,0.002678,0.000431,0.081800
18131000,0.0324,0.013523,0.002678,0.000431,0.181346
18132000,0.0324,0.013523,0.002678,0.000431,0.129281
18133000,0.0324,0.013523,0.002678,0.000431,0.057824
18134000,0.0324,0.013523,0.002678,0.000431,0.080272
18135000,0.0324,0.013523,0.002678,0.000431,0.125050
18136000,0.0324,0.013523,0.002678,0.000431,0.104953
18137000,0.0324,0.013523,0.002678,0.000431,0.047716
18138000,0.0324,0.013523,0.002678,0.000431,0.160779
18139000,0.0324,0.013523,0.002678,0.000431,0.055943
18140000,0.0324,0.013523,0.002678,0.000431,0.061585
18141000,0.0324,0.013523,0.002678,0.000431,0.035023
18142000,0.0324,0.013523,0.002678,0.000431,0.115178
18143000,0.0324,0.013523,0.002678,0.000431,0.102132
18144000,0.0324,0.013523,0.002678,0.000431,0.095668
18145000,0.0324,0.013523,0.002678,0.000431,0.128458
18146000,0.0324,0.013523,0.002678,0.000431,0.057354
18147000,0.0324,0.013523,0.002678,0.000431,0.102367
18148000,0.0324,0.013523,0.002678,0.000431,0.139859
18149000,0.0324,0.013523,0.002678,0.000431,0.223891
18150000,0.0324,0.013523,0.002678,0.000431,0.147733
18151000,0.0324,0.013523,0.002678,0.000431,0.200150
18152000,0.0324,0.013523,0.002678,0.000431,0.174412
18153000,0.0324,0.013523,0.002678,0.000431,0.105070
18154000,0.0324,0.013523,0.002678,0.000431,0.092847
18155000,0.0324,0.013523,0.002678,0.000431,0.070752
18156000,0.0324,0.013523,0.002678,0.000431,0.236467
18157000,0.0324,0.013523,0.002678,0.000431,0.073925
18158000,0.0324,0.013523,0.002678,0.000431,0.132219
18159000,0.0324,0.013523,0.002678,0.000431,0.171239
18160000,0.0324,0.013523,0.002678,0.000431,0.135040
18161000,0.0324,0.013523,0.002678,0.000431,0.112592
18162000,0.0324,0.013523,0.002678,0.000431,0.161836
18163000,0.0324,0.013523,0.002678,0.000431,0.149848
18164000,0.0324,0.013523,0.002678,0.000431,0.231766
18165000,0.0324,0.013523,0.002678,0.000431,0.048657
18166000,0.0324,0.013523,0.002678,0.000431,0.134452
18167000,0.0324,0.013523,0.002678,0.000431,0.140916
18168000,0.0324,0.013523,0.002678,0.000431,0.143502
18169000,0.0324,0.013523,0.002678,0.000431,0.152081
18170000,0.0324,0.013523,0.002678,0.000431,0.135863
18171000,0.0324,0.013523,0.002678,0.000431,0.129869
18172000,0.0324,0.013523,0.002678,0.000431,0.128693
18173000,0.0324,0.013523,0.002678,0.000431,0.106951
18174000,0.0324,0.013523,0.002678,0.000431,0.042663
18175000,0.0324,0.013523,0.002678,0.000431,0.125755
18176000,0.0324,0.013523,0.002678,0.000431,0.124697
18177000,0.0324,0.013523,0.002678,0.000431,0.212373
18178000,0.0324,0.013523,0.002678,0.000431,0.166185
18179000,0.0324,0.013523,0.002678,0.000431,0.050067
18180000,0.0324,0.013523,0.002678,0.000431,0.065228
18181000,0.0324,0.013523,0.002678,0.000431,0.067814
18182000,0.0324,0.013523,0.002678,0.000431,0.205322
18183000,0.0324,0.013523,0.002678,0.000431,0.103777
18184000,0.0324,0.013523,0.002678,0.000431,0.185930
18185000,0.0324,0.013523,0.002678,0.000431,0.138566
18186000,0.0324,0.013523,0.002678,0.000431,0.064876
18187000,0.0324,0.013523,0.002678,0.000431,0.061820
18188000,0.0324,0.013523,0.002678,0.000431,0.154667
18189000,0.0324,0.013523,0.002678,0.000431,0.122229
18190000,0.0324,0.013523,0.002678,0.000431,0.264203
18191000,0.0324,0.013523,0.002678,0.000431,0.069342
18192000,0.0324,0.013523,0.002678,0.000431,0.050302
18193000,0.0324,0.013523,0.002678,0.000431,0.053710
18194000,0.0324,0.013523,0.002678,0.000431,0.210611
18195000,0.0324,0.013523,0.002678,0.000431,0.104012
18196000,0.0324,0.013523,0.002678,0.000431,0.087794
18197000,0.0324,0.013523,0.002678,0.000431,0.155725
18198000,0.0324,0.013523,0.002678,0.000431,0.085913
18199000,0.0324,0.013523,0.002678,0.000431,0.119409
18200000,0.0324,0.013523,0.002678,0.000431,0.042663
18201000,0.0324,0.013523,0.002678,0.000431,0.114237
18202000,0.0324,0.013523,0.002678,0.000431,0.083798
18203000,0.0324,0.013523,0.002678,0.000431,0.200856
18204000,0.0324,0.013523,0.002678,0.000431,0.065463
18205000,0.0324,0.013523,0.002678,0.000431,0.049479
18206000,0.0324,0.013523,0.002678,0.000431,0.035258
18207000,0.0324,0.013523,0.002678,0.000431,0.184284
18208000,0.0324,0.013523,0.002678,0.000431,0.247044
18209000,0.0324,0.013523,0.002678,0.000431,0.155607
18210000,0.0324,0.013523,0.002678,0.000431,0.073338
18211000,0.0324,0.013523,0.002678,0.000431,0.042428
18212000,0.0324,0.013523,0.002678,0.000431,0.042663
18213000,0.0324,0.013523,0.002678,0.000431,0.089204
18214000,0.0324,0.013523,0.002678,0.000431,0.157253
18215000,0.0324,0.013523,0.002678,0.000431,0.038667
18216000,0.0324,0.013523,0.002678,0.000431,0.227652
18217000,0.0324,0.013523,0.002678,0.000431,0.183697
18218000,0.0324,0.013523,0.002678,0.000431,0.157018
18219000,0.0324,0.013523,0.002678,0.000431,0.061232
18220000,0.0324,0.013523,0.002678,0.000431,0.126695
18221000,0.0324,0.013523,0.002678,0.000431,0.154079
18222000,0.0324,0.013523,0.002678,0.000431,0.159956
18223000,0.0324,0.013523,0.002678,0.000431,0.120701
18224000,0.0324,0.013523,0.002678,0.000431,0.046424
18225000,0.0324,0.013523,0.002678,0.000431,0.053945
18226000,0.0324,0.013523,0.002678,0.000431,0.048304
18227000,0.0324,0.013523,0.002678,0.000431,0.279952
18228000,0.0324,0.013523,0.002678,0.000431,0.054180
18229000,0.0324,0.013523,0.002678,0.000431,0.382084
18230000,0.0324,0.013523,0.002678,0.000431,0.196977
18231000,0.0324,0.013523,0.002678,0.000431,0.099311
18232000,0.0324,0.013523,0.002678,0.000431,0.094493
18233000,0.0324,0.013523,0.002678,0.000431,0.164069
18234000,0.0324,0.013523,0.002678,0.000431,0.131632
18235000,0.0324,0.013523,0.002678,0.000431,0.099311
18236000,0.0324,0.013523,0.002678,0.000431,0.226477
18237000,0.0324,0.013523,0.002678,0.000431,0.076628
18238000,0.0324,0.013523,0.002678,0.000431,0.110359
18239000,0.0324,0.013523,0.002678,0.000431,0.100252
18240000,0.0324,0.013523,0.002678,0.000431,0.124110
18241000,0.0324,0.013523,0.002678,0.000431,0.042663
18242000,0.0324,0.013523,0.002678,0.000431,0.310980
18243000,0.0324,0.013523,0.002678,0.000431,0.089674
18244000,0.0324,0.013523,0.002678,0.000431,0.080037
18245000,0.0324,0.013523,0.002678,0.000431,0.074630
18246000,0.0324,0.013523,0.002678,0.000431,0.135275
18247000,0.0324,0.013523,0.002678,0.000431,0.178878
18248000,0.0324,0.013523,0.002678,0.000431,0.125990
18249000,0.0324,0.013523,0.002678,0.000431,0.233293
18250000,0.0324,0.013523,0.002678,0.000431,0.035258
18251000,0.0324,0.013523,0.002678,0.000431,0.049949
18252000,0.0324,0.013523,0.002678,0.000431,0.102837
18253000,0.0324,0.013523,0.002678,0.000431,0.265731
18254000,0.0324,0.013523,0.002678,0.000431,0.095668
18255000,0.0324,0.013523,0.002678,0.000431,0.316621
18256000,0.0324,0.013523,0.002678,0.000431,0.209318
18257000,0.0324,0.013523,0.002678,0.000431,0.064758
18258000,0.0324,0.013523,0.002678,0.000431,0.098724
18259000,0.0324,0.013523,0.002678,0.000431,0.183344
18260000,0.0324,0.013523,0.002678,0.000431,0.151494
18261000,0.0324,0.013523,0.002678,0.000431,0.127636
18262000,0.0324,0.013523,0.002678,0.000431,0.118703
18263000,0.0324,0.013523,0.002678,0.000431,0.084268
18264000,0.0324,0.013523,0.002678,0.000431,0.091672
18265000,0.0324,0.013523,0.002678,0.000431,0.181464
18266000,0.0324,0.013523,0.002678,0.000431,0.144207
18267000,0.0324,0.013523,0.002678,0.000431,0.039725
18268000,0.0324,0.013523,0.002678,0.000431,0.169123
18269000,0.0324,0.013523,0.002678,0.000431,0.076863
18270000,0.0324,0.013523,0.002678,0.000431,0.061702
18271000,0.0324,0.013523,0.002678,0.000431,0.114120
18272000,0.0324,0.013523,0.002678,0.000431,0.191924
18273000,0.0324,0.013523,0.002678,0.000431,0.092847
18274000,0.0324,0.013523,0.002678,0.000431,0.166655
18275000,0.0324,0.013523,0.002678,0.000431,0.061350
18276000,0.0324,0.013523,0.002678,0.000431,0.147263
18277000,0.0324,0.013523,0.002678,0.000431,0.035846
18278000,0.0324,0.013523,0.002678,0.000431,0.132924
18279000,0.0324,0.013523,0.002678,0.000431,0.177938
18280000,0.0324,0.013523,0.002678,0.000431,0.077804
18281000,0.0324,0.013523,0.002678,0.000431,0.127988
18282000,0.0324,0.013523,0.002678,0.000431,0.094845
18283000,0.0324,0.013523,0.002678,0.000431,0.065346
18284000,0.0324,0.013523,0.002678,0.000431,0.061467
18285000,0.0324,0.013523,0.002678,0.000431,0.151846
18286000,0.0324,0.013523,0.002678,0.000431,0.095668
18287000,0.0324,0.013523,0.002678,0.000431,0.133865
18288000,0.0324,0.013523,0.002678,0.000431,0.191924
18289000,0.0324,0.013523,0.002678,0.000431,0.110476
18290000,0.0324,0.013523,0.002678,0.000431,0.065346
18291000,0.0324,0.013523,0.002678,0.000431,0.217310
18292000,0.0324,0.013523,0.002678,0.000431,0.191218
18293000,0.0324,0.013523,0.002678,0.000431,0.090027
18294000,0.0324,0.013523,0.002678,0.000431,0.179466
18295000,0.0324,0.013523,0.002678,0.000431,0.085090
18296000,0.0324,0.013523,0.002678,0.000431,0.085678
18297000,0.0324,0.013523,0.002678,0.000431,0.061585
18298000,0.0324,0.013523,0.002678,0.000431,0.223304
18299000,0.0324,0.013523,0.002678,0.000431,0.069107
18300000,0.0324,0.013523,0.002678,0.000431,0.177703
18301000,0.0324,0.013523,0.002678,0.000431,0.076746
18302000,0.0324,0.013523,0.002678,0.000431,0.091437
18303000,0.0324,0.013523,0.002678,0.000431,0.087323
18304000,0.0324,0.013523,0.002678,0.000431,0.098606
18305000,0.0324,0.013523,0.002678,0.000431,0.227417
18306000,0.0324,0.013523,0.002678,0.000431,0.059822
18307000,0.0324,0.013523,0.002678,0.000431,0.122934
18308000,0.0324,0.013523,0.002678,0.000431,0.053593
18309000,0.0324,0.013523,0.002678,0.000431,0.084150
18310000,0.0324,0.013523,0.002678,0.000431,0.045248
18311000,0.0324,0.013523,0.002678,0.000431,0.258209
18312000,0.0324,0.013523,0.002678,0.000431,0.072750
18313000,0.0324,0.013523,0.002678,0.000431,0.193216
18314000,0.0324,0.013523,0.002678,0.000431,0.137743
18315000,0.0324,0.013523,0.002678,0.000431,0.082975
18316000,0.0324,0.013523,0.002678,0.000431,0.045601
18317000,0.0324,0.013523,0.002678,0.000431,0.171591
18318000,0.0324,0.013523,0.002678,0.000431,0.114237
18319000,0.0324,0.013523,0.002678,0.000431,0.112122
18320000,0.0324,0.013523,0.002678,0.000431,0.256799
18321000,0.0324,0.013523,0.002678,0.000431,0.119056
18322000,0.0324,0.013523,0.002678,0.000431,0.096256
18323000,0.0324,0.013523,0.002678,0.000431,0.091084
18324000,0.0324,0.013523,0.002678,0.000431,0.262675
18325000,0.0324,0.013523,0.002678,0.000431,0.108949
18326000,0.0324,0.013523,0.002678,0.000431,0.230708
18327000,0.0324,0.013523,0.002678,0.000431,0.148086
18328000,0.0324,0.013523,0.002678,0.000431,0.062760
18329000,0.0324,0.013523,0.002678,0.000431,0.067579
18330000,0.0324,0.013523,0.002678,0.000431,0.171004
18331000,0.0324,0.013523,0.002678,0.000431,0.142562
18332000,0.0324,0.013523,0.002678,0.000431,0.192511
18333000,0.0324,0.013523,0.002678,0.000431,0.280775
18334000,0.0324,0.013523,0.002678,0.000431,0.113650
18335000,0.0324,0.013523,0.002678,0.000431,0.042310
18336000,0.0324,0.013523,0.002678,0.000431,0.219073
18337000,0.0324,0.013523,0.002678,0.000431,0.121994
18338000,0.0324,0.013523,0.002678,0.000431,0.140329
18339000,0.0324,0.013523,0.002678,0.000431,0.171826
18340000,0.0324,0.013523,0.002678,0.000431,0.179230
18341000,0.0324,0.013523,0.002678,0.000431,0.110241
18342000,0.0324,0.013523,0.002678,0.000431,0.064993
18343000,0.0324,0.013523,0.002678,0.000431,0.166537
18344000,0.0324,0.013523,0.002678,0.000431,0.168535
18345000,0.0324,0.013523,0.002678,0.000431,0.198740
18346000,0.0324,0.013523,0.002678,0.000431,0.189103
18347000,0.0324,0.013523,0.002678,0.000431,0.096726
18348000,0.0324,0.013523,0.002678,0.000431,0.035258
18349000,0.0324,0.013523,0.002678,0.000431,0.097078
18350000,0.0324,0.013523,0.002678,0.000431,0.138213
18351000,0.0324,0.013523,0.002678,0.000431,0.087911
18352000,0.0324,0.013523,0.002678,0.000431,0.271020
18353000,0.0324,0.013523,0.002678,0.000431,0.129986
18354000,0.0324,0.013523,0.002678,0.000431,0.210140
18355000,0.0324,0.013523,0.002678,0.000431,0.062055
18356000,0.0324,0.013523,0.002678,0.000431,0.328139
18357000,0.0324,0.013523,0.002678,0.000431,0.133865
18358000,0.0324,0.013523,0.002678,0.000431,0.123992
18359000,0.0324,0.013523,0.002678,0.000431,0.172531
18360000,0.0324,0.013523,0.002678,0.000431,0.076863
18361000,0.0324,0.013523,0.002678,0.000431,0.061585
18362000,0.0324,0.013523,0.002678,0.000431,0.195802
18363000,0.0324,0.013523,0.002678,0.000431,0.110006
18364000,0.0324,0.013523,0.002678,0.000431,0.053475
18365000,0.0324,0.013523,0.002678,0.000431,0.255389
18366000,0.0324,0.013523,0.002678,0.000431,0.095315
18367000,0.0324,0.013523,0.002678,0.000431,0.050067
18368000,0.0324,0.013523,0.002678,0.000431,0.073103
18369000,0.0324,0.013523,0.002678,0.000431,0.261500
18370000,0.0324,0.013523,0.002678,0.000431,0.044778
18371000,0.0324,0.013523,0.002678,0.000431,0.133865
18372000,0.0324,0.013523,0.002678,0.000431,0.135863
18373000,0.0324,0.013523,0.002678,0.000431,0.057824
18374000,0.0324,0.013523,0.002678,0.000431,0.034436
18375000,0.0324,0.013523,0.002678,0.000431,0.159133
18376000,0.0324,0.013523,0.002678,0.000431,0.156430
18377000,0.0324,0.013523,0.002678,0.000431,0.124110
18378000,0.0324,0.013523,0.002678,0.000431,0.084033
18379000,0.0324,0.013523,0.002678,0.000431,0.176762
18380000,0.0324,0.013523,0.002678,0.000431,0.096491
18381000,0.0324,0.013523,0.002678,0.000431,0.095433
18382000,0.0324,0.013523,0.002678,0.000431,0.230708
18383000,0.0324,0.013523,0.002678,0.000431,0.103542
18384000,0.0324,0.013523,0.002678,0.000431,0.326611
18385000,0.0324,0.013523,0.002678,0.000431,0.163247
18386000,0.0324,0.013523,0.002678,0.000431,0.077569
18387000,0.0324,0.013523,0.002678,0.000431,0.078274
18388000,0.0324,0.013523,0.002678,0.000431,0.171004
18389000,0.0324,0.013523,0.002678,0.000431,0.190278
18390000,0.0324,0.013523,0.002678,0.000431,0.113650
18391000,0.0324,0.013523,0.002678,0.000431,0.382554
18392000,0.0324,0.013523,0.002678,0.000431,0.118703
18393000,0.0324,0.013523,0.002678,0.000431,0.066521
18394000,0.0324,0.013523,0.002678,0.000431,0.054063
18395000,0.0324,0.013523,0.002678,0.000431,0.226829
18396000,0.0324,0.013523,0.002678,0.000431,0.072632
18397000,0.0324,0.013523,0.002678,0.000431,0.299344
18398000,0.0324,0.013523,0.002678,0.000431,0.192159
18399000,0.0324,0.013523,0.002678,0.000431,0.076981
18400000,0.0324,0.013523,0.002678,0.000431,0.053475
18401000,0.0324,0.013523,0.002678,0.000431,0.126578
18402000,0.0324,0.013523,0.002678,0.000431,0.120349
18403000,0.0324,0.013523,0.002678,0.000431,0.062760
18404000,0.0324,0.013523,0.002678,0.000431,0.119879
18405000,0.0324,0.013523,0.002678,0.000431,0.133159
18406000,0.0324,0.013523,0.002678,0.000431,0.136568
18407000,0.0324,0.013523,0.002678,0.000431,0.194627
18408000,0.0324,0.013523,0.002678,0.000431,0.348118
18409000,0.0324,0.013523,0.002678,0.000431,0.064405
18410000,0.0324,0.013523,0.002678,0.000431,0.246692
18411000,0.0324,0.013523,0.002678,0.000431,0.216487
18412000,0.0324,0.013523,0.002678,0.000431,0.057589
18413000,0.0324,0.013523,0.002678,0.000431,0.092730
18414000,0.0324,0.013523,0.002678,0.000431,0.214606
18415000,0.0324,0.013523,0.002678,0.000431,0.075923
18416000,0.0324,0.013523,0.002678,0.000431,0.127283
18417000,0.0324,0.013523,0.002678,0.000431,0.125285
18418000,0.0324,0.013523,0.002678,0.000431,0.071692
18419000,0.0324,0.013523,0.002678,0.000431,0.131749
18420000,0.0324,0.013523,0.002678,0.000431,0.073808
18421000,0.0324,0.013523,0.002678,0.000431,0.207320
18422000,0.0324,0.013523,0.002678,0.000431,0.050302
18423000,0.0324,0.013523,0.002678,0.000431,0.181111
18424000,0.0324,0.013523,0.002678,0.000431,0.073220
18425000,0.0324,0.013523,0.002678,0.000431,0.061820
18426000,0.0324,0.013523,0.002678,0.000431,0.104718
18427000,0.0324,0.013523,0.002678,0.000431,0.234821
18428000,0.0324,0.013523,0.002678,0.000431,0.164892
18429000,0.0324,0.013523,0.002678,0.000431,0.114237
18430000,0.0324,0.013523,0.002678,0.000431,0.272195
18431000,0.0324,0.013523,0.002678,0.000431,0.065346
18432000,0.0324,0.013523,0.002678,0.000431,0.065346
18433000,0.0324,0.013523,0.002678,0.000431,0.104953
18434000,0.0324,0.013523,0.002678,0.000431,0.183697
18435000,0.0324,0.013523,0.002678,0.000431,0.113532
18436000,0.0324,0.013523,0.002678,0.000431,0.261735
18437000,0.0324,0.013523,0.002678,0.000431,0.119056
18438000,0.0324,0.013523,0.002678,0.000431,0.090967
18439000,0.0324,0.013523,0.002678,0.000431,0.105540
18440000,0.0324,0.013523,0.002678,0.000431,0.271490
18441000,0.0324,0.013523,0.002678,0.000431,0.099076
18442000,0.0324,0.013523,0.002678,0.000431,0.128811
18443000,0.0324,0.013523,0.002678,0.000431,0.222481
18444000,0.0324,0.013523,0.002678,0.000431,0.060880
18445000,0.0324,0.013523,0.002678,0.000431,0.076276
18446000,0.0324,0.013523,0.002678,0.000431,0.121759
18447000,0.0324,0.013523,0.002678,0.000431,0.049714
18448000,0.0324,0.013523,0.002678,0.000431,0.095668
18449000,0.0324,0.013523,0.002678,0.000431,0.332487
18450000,0.0324,0.013523,0.002678,0.000431,0.225889
18451000,0.0324,0.013523,0.002678,0.000431,0.080389
18452000,0.0324,0.013523,0.002678,0.000431,0.094845
18453000,0.0324,0.013523,0.002678,0.000431,0.269022
18454000,0.0324,0.013523,0.002678,0.000431,0.139623
18455000,0.0324,0.013523,0.002678,0.000431,0.330137
18456000,0.0324,0.013523,0.002678,0.000431,0.230825
18457000,0.0324,0.013523,0.002678,0.000431,0.108831
18458000,0.0324,0.013523,0.002678,0.000431,0.071457
18459000,0.0324,0.013523,0.002678,0.000431,0.149026
18460000,0.0324,0.013523,0.002678,0.000431,0.177468
18461000,0.0324,0.013523,0.002678,0.000431,0.165715
18462000,0.0324,0.013523,0.002678,0.000431,0.192629
18463000,0.0324,0.013523,0.002678,0.000431,0.054180
18464000,0.0324,0.013523,0.002678,0.000431,0.104247
18465000,0.0324,0.013523,0.002678,0.000431,0.121172
18466000,0.0324,0.013523,0.002678,0.000431,0.199798
18467000,0.0324,0.013523,0.002678,0.000431,0.107186
18468000,0.0324,0.013523,0.002678,0.000431,0.226712
18469000,0.0324,0.013523,0.002678,0.000431,0.197212
18470000,0.0324,0.013523,0.002678,0.000431,0.042428
18471000,0.0324,0.013523,0.002678,0.000431,0.101192
18472000,0.0324,0.013523,0.002678,0.000431,0.327081
18473000,0.0324,0.013523,0.002678,0.000431,0.306278
18474000,0.0324,0.013523,0.002678,0.000431,0.132454
18475000,0.0324,0.013523,0.002678,0.000431,0.157723
18476000,0.0324,0.013523,0.002678,0.000431,0.184049
18477000,0.0324,0.013523,0.002678,0.000431,0.051125
18478000,0.0324,0.013523,0.002678,0.000431,0.184284
18479000,0.0324,0.013523,0.002678,0.000431,0.307571
18480000,0.0324,0.013523,0.002678,0.000431,0.124227
18481000,0.0324,0.013523,0.002678,0.000431,0.244459
18482000,0.0324,0.013523,0.002678,0.000431,0.210375
18483000,0.0324,0.013523,0.002678,0.000431,0.074983
18484000,0.0324,0.013523,0.002678,0.000431,0.123757
18485000,0.0324,0.013523,0.002678,0.000431,0.203794
18486000,0.0324,0.013523,0.002678,0.000431,0.166655
18487000,0.0324,0.013523,0.002678,0.000431,0.115413
18488000,0.0324,0.013523,0.002678,0.000431,0.172531
18489000,0.0324,0.013523,0.002678,0.000431,0.049832
18490000,0.0324,0.013523,0.002678,0.000431,0.042663
18491000,0.0324,0.013523,0.002678,0.000431,0.116000
18492000,0.0324,0.013523,0.002678,0.000431,0.419928
18493000,0.0324,0.013523,0.002678,0.000431,0.106716
18494000,0.0324,0.013523,0.002678,0.000431,0.334015
18495000,0.0324,0.013523,0.002678,0.000431,0.191453
18496000,0.0324,0.013523,0.002678,0.000431,0.127048
18497000,0.0324,0.013523,0.002678,0.000431,0.072515
18498000,0.0324,0.013523,0.002678,0.000431,0.216369
18499000,0.0324,0.013523,0.002678,0.000431,0.213901
18500000,0.0324,0.013523,0.002678,0.000431,0.264203
18501000,0.0324,0.013523,0.002678,0.000431,0.176527
18502000,0.0324,0.013523,0.002678,0.000431,0.287709
18503000,0.0324,0.013523,0.002678,0.000431,0.132572
18504000,0.0324,0.013523,0.002678,0.000431,0.133159
18505000,0.0324,0.013523,0.002678,0.000431,0.130809
18506000,0.0324,0.013523,0.002678,0.000431,0.038902
18507000,0.0324,0.013523,0.002678,0.000431,0.165127
18508000,0.0324,0.013523,0.002678,0.000431,0.093317
18509000,0.0324,0.013523,0.002678,0.000431,0.057471
18510000,0.0324,0.013523,0.002678,0.000431,0.060880
18511000,0.0324,0.013523,0.002678,0.000431,0.261148
18512000,0.0324,0.013523,0.002678,0.000431,0.107421
18513000,0.0324,0.013523,0.002678,0.000431,0.121172
18514000,0.0324,0.013523,0.002678,0.000431,0.181699
18515000,0.0324,0.013523,0.002678,0.000431,0.077098
18516000,0.0324,0.013523,0.002678,0.000431,0.100839
18517000,0.0324,0.013523,0.002678,0.000431,0.127636
18518000,0.0324,0.013523,0.002678,0.000431,0.401711
18519000,0.0324,0.013523,0.002678,0.000431,0.116588
18520000,0.0324,0.013523,0.002678,0.000431,0.286416
18521000,0.0324,0.013523,0.002678,0.000431,0.114120
18522000,0.0324,0.013523,0.002678,0.000431,0.042780
18523000,0.0324,0.013523,0.002678,0.000431,0.067931
18524000,0.0324,0.013523,0.002678,0.000431,0.177703
18525000,0.0324,0.013523,0.002678,0.000431,0.108008
18526000,0.0324,0.013523,0.002678,0.000431,0.221541
18527000,0.0324,0.013523,0.002678,0.000431,0.172296
18528000,0.0324,0.013523,0.002678,0.000431,0.055826
18529000,0.0324,0.013523,0.002678,0.000431,0.074278
18530000,0.0324,0.013523,0.002678,0.000431,0.204734
18531000,0.0324,0.013523,0.002678,0.000431,0.228710
18532000,0.0324,0.013523,0.002678,0.000431,0.125403
18533000,0.0324,0.013523,0.002678,0.000431,0.254096
18534000,0.0324,0.013523,0.002678,0.000431,0.076863
18535000,0.0324,0.013523,0.002678,0.000431,0.050185
18536000,0.0324,0.013523,0.002678,0.000431,0.057471
18537000,0.0324,0.013523,0.002678,0.000431,0.231060
18538000,0.0324,0.013523,0.002678,0.000431,0.102720
18539000,0.0324,0.013523,0.002678,0.000431,0.283831
18540000,0.0324,0.013523,0.002678,0.000431,0.200621
18541000,0.0324,0.013523,0.002678,0.000431,0.042780
18542000,0.0324,0.013523,0.002678,0.000431,0.086383
18543000,0.0324,0.013523,0.002678,0.000431,0.225302
18544000,0.0324,0.013523,0.002678,0.000431,0.199915
18545000,0.0324,0.013523,0.002678,0.000431,0.123052
18546000,0.0324,0.013523,0.002678,0.000431,0.502315
18547000,0.0324,0.013523,0.002678,0.000431,0.096373
18548000,0.0324,0.013523,0.002678,0.000431,0.102955
18549000,0.0324,0.013523,0.002678,0.000431,0.156312
18550000,0.0324,0.013523,0.002678,0.000431,0.244576
18551000,0.0324,0.013523,0.002678,0.000431,0.051595
18552000,0.0324,0.013523,0.002678,0.000431,0.260560
18553000,0.0324,0.013523,0.002678,0.000431,0.237172
18554000,0.0324,0.013523,0.002678,0.000431,0.105658
18555000,0.0324,0.013523,0.002678,0.000431,0.122699
18556000,0.0324,0.013523,0.002678,0.000431,0.209553
18557000,0.0324,0.013523,0.002678,0.000431,0.192511
18558000,0.0324,0.013523,0.002678,0.000431,0.147615
18559000,0.0324,0.013523,0.002678,0.000431,0.160661
18560000,0.0324,0.013523,0.002678,0.000431,0.060292
18561000,0.0324,0.013523,0.002678,0.000431,0.091437
18562000,0.0324,0.013523,0.002678,0.000431,0.190866
18563000,0.0324,0.013523,0.002678,0.000431,0.301460
18564000,0.0324,0.013523,0.002678,0.000431,0.111417
18565000,0.0324,0.013523,0.002678,0.000431,0.139271
18566000,0.0324,0.013523,0.002678,0.000431,0.212608
18567000,0.0324,0.013523,0.002678,0.000431,0.116000
18568000,0.0324,0.013523,0.002678,0.000431,0.068166
18569000,0.0324,0.013523,0.002678,0.000431,0.295701
18570000,0.0324,0.013523,0.002678,0.000431,0.155255
18571000,0.0324,0.013523,0.002678,0.000431,0.125520
18572000,0.0324,0.013523,0.002678,0.000431,0.211433
18573000,0.0324,0.013523,0.002678,0.000431,0.104365
18574000,0.0324,0.013523,0.002678,0.000431,0.106716
18575000,0.0324,0.013523,0.002678,0.000431,0.282890
18576000,0.0324,0.013523,0.002678,0.000431,0.249982
18577000,0.0324,0.013523,0.002678,0.000431,0.108831
18578000,0.0324,0.013523,0.002678,0.000431,0.134100
18579000,0.0324,0.013523,0.002678,0.000431,0.188515
18580000,0.0324,0.013523,0.002678,0.000431,0.145382
18581000,0.0324,0.013523,0.002678,0.000431,0.146323
18582000,0.0324,0.013523,0.002678,0.000431,0.174764
18583000,0.0324,0.013523,0.002678,0.000431,0.110829
18584000,0.0324,0.013523,0.002678,0.000431,0.366335
18585000,0.0324,0.013523,0.002678,0.000431,0.230473
18586000,0.0324,0.013523,0.002678,0.000431,0.132924
18587000,0.0324,0.013523,0.002678,0.000431,0.052770
18588000,0.0324,0.013523,0.002678,0.000431,0.194274
18589000,0.0324,0.013523,0.002678,0.000431,0.247984
18590000,0.0324,0.013523,0.002678,0.000431,0.207555
18591000,0.0324,0.013523,0.002678,0.000431,0.264203
18592000,0.0324,0.013523,0.002678,0.000431,0.172061
18593000,0.0324,0.013523,0.002678,0.000431,0.073690
18594000,0.0324,0.013523,0.002678,0.000431,0.098724
18595000,0.0324,0.013523,0.002678,0.000431,0.230238
18596000,0.0324,0.013523,0.002678,0.000431,0.140446
18597000,0.0324,0.013523,0.002678,0.000431,0.183932
18598000,0.0324,0.013523,0.002678,0.000431,0.216134
18599000,0.0324,0.013523,0.002678,0.000431,0.099194
18600000,0.0324,0.013523,0.002678,0.000431,0.077804
18601000,0.0324,0.013523,0.002678,0.000431,0.181699
18602000,0.0324,0.013523,0.002678,0.000431,0.182404
18603000,0.0324,0.013523,0.002678,0.000431,0.240580
18604000,0.0324,0.013523,0.002678,0.000431,0.138096
18605000,0.0324,0.013523,0.002678,0.000431,0.055238
18606000,0.0324,0.013523,0.002678,0.000431,0.102367
18607000,0.0324,0.013523,0.002678,0.000431,0.292880
18608000,0.0324,0.013523,0.002678,0.000431,0.168535
18609000,0.0324,0.013523,0.002678,0.000431,0.104130
18610000,0.0324,0.013523,0.002678,0.000431,0.298051
18611000,0.0324,0.013523,0.002678,0.000431,0.089204
18612000,0.0324,0.013523,0.002678,0.000431,0.035141
18613000,0.0324,0.013523,0.002678,0.000431,0.179348
18614000,0.0324,0.013523,0.002678,0.000431,0.314035
18615000,0.0324,0.013523,0.002678,0.000431,0.273253
18616000,0.0324,0.013523,0.002678,0.000431,0.085678
18617000,0.0324,0.013523,0.002678,0.000431,0.199563
18618000,0.0324,0.013523,0.002678,0.000431,0.051830
18619000,0.0324,0.013523,0.002678,0.000431,0.105070
18620000,0.0324,0.013523,0.002678,0.000431,0.131984
18621000,0.0324,0.013523,0.002678,0.000431,0.239287
18622000,0.0324,0.013523,0.002678,0.000431,0.090497
18623000,0.0324,0.013523,0.002678,0.000431,0.164775
18624000,0.0324,0.013523,0.002678,0.000431,0.153139
18625000,0.0324,0.013523,0.002678,0.000431,0.164187
18626000,0.0324,0.013523,0.002678,0.000431,0.185577
18627000,0.0324,0.013523,0.002678,0.000431,0.221188
18628000,0.0324,0.013523,0.002678,0.000431,0.078039
18629000,0.0324,0.013523,0.002678,0.000431,0.222833
18630000,0.0324,0.013523,0.002678,0.000431,0.185459
18631000,0.0324,0.013523,0.002678,0.000431,0.087911
18632000,0.0324,0.013523,0.002678,0.000431,0.095433
18633000,0.0324,0.013523,0.002678,0.000431,0.283831
18634000,0.0324,0.013523,0.002678,0.000431,0.305808
18635000,0.0324,0.013523,0.002678,0.000431,0.133865
18636000,0.0324,0.013523,0.002678,0.000431,0.110124
18637000,0.0324,0.013523,0.002678,0.000431,0.185342
18638000,0.0324,0.013523,0.002678,0.000431,0.179818
18639000,0.0324,0.013523,0.002678,0.000431,0.138213
18640000,0.0324,0.013523,0.002678,0.000431,0.222716
18641000,0.0324,0.013523,0.002678,0.000431,0.208848
18642000,0.0324,0.013523,0.002678,0.000431,0.182521
18643000,0.0324,0.013523,0.002678,0.000431,0.203911
18644000,0.0324,0.013523,0.002678,0.000431,0.042428
18645000,0.0324,0.013523,0.002678,0.000431,0.162306
18646000,0.0324,0.013523,0.002678,0.000431,0.179701
18647000,0.0324,0.013523,0.002678,0.000431,0.280892
18648000,0.0324,0.013523,0.002678,0.000431,0.124580
18649000,0.0324,0.013523,0.002678,0.000431,0.171121
18650000,0.0324,0.013523,0.002678,0.000431,0.118703
18651000,0.0324,0.013523,0.002678,0.000431,0.087676
18652000,0.0324,0.013523,0.002678,0.000431,0.161014
18653000,0.0324,0.013523,0.002678,0.000431,0.295818
18654000,0.0324,0.013523,0.002678,0.000431,0.106245
18655000,0.0324,0.013523,0.002678,0.000431,0.102720
18656000,0.0324,0.013523,0.002678,0.000431,0.204734
18657000,0.0324,0.013523,0.002678,0.000431,0.136568
18658000,0.0324,0.013523,0.002678,0.000431,0.124697
18659000,0.0324,0.013523,0.002678,0.000431,0.259502
18660000,0.0324,0.013523,0.002678,0.000431,0.285711
18661000,0.0324,0.013523,0.002678,0.000431,0.099076
18662000,0.0324,0.013523,0.002678,0.000431,0.202031
18663000,0.0324,0.013523,0.002678,0.000431,0.068166
18664000,0.0324,0.013523,0.002678,0.000431,0.117646
18665000,0.0324,0.013523,0.002678,0.000431,0.095315
18666000,0.0324,0.013523,0.002678,0.000431,0.263968
18667000,0.0324,0.013523,0.002678,0.000431,0.214724
18668000,0.0324,0.013523,0.002678,0.000431,0.142679
18669000,0.0324,0.013523,0.002678,0.000431,0.137508
18670000,0.0324,0.013523,0.002678,0.000431,0.095550
18671000,0.0324,0.013523,0.002678,0.000431,0.170181
18672000,0.0324,0.013523,0.002678,0.000431,0.158310
18673000,0.0324,0.013523,0.002678,0.000431,0.234469
18674000,0.0324,0.013523,0.002678,0.000431,0.155607
18675000,0.0324,0.013523,0.002678,0.000431,0.069224
18676000,0.0324,0.013523,0.002678,0.000431,0.042428
18677000,0.0324,0.013523,0.002678,0.000431,0.106716
18678000,0.0324,0.013523,0.002678,0.000431,0.202619
18679000,0.0324,0.013523,0.002678,0.000431,0.172414
18680000,0.0324,0.013523,0.002678,0.000431,0.159251
18681000,0.0324,0.013523,0.002678,0.000431,0.087558
18682000,0.0324,0.013523,0.002678,0.000431,0.134100
18683000,0.0324,0.013523,0.002678,0.000431,0.056414
18684000,0.0324,0.013523,0.002678,0.000431,0.072750
18685000,0.0324,0.013523,0.002678,0.000431,0.217897
18686000,0.0324,0.013523,0.002678,0.000431,0.175470
18687000,0.0324,0.013523,0.002678,0.000431,0.141857
18688000,0.0324,0.013523,0.002678,0.000431,0.101309
18689000,0.0324,0.013523,0.002678,0.000431,0.046189
18690000,0.0324,0.013523,0.002678,0.000431,0.207202
18691000,0.0324,0.013523,0.002678,0.000431,0.184284
18692000,0.0324,0.013523,0.002678,0.000431,0.309922
18693000,0.0324,0.013523,0.002678,0.000431,0.124815
18694000,0.0324,0.013523,0.002678,0.000431,0.205557
18695000,0.0324,0.013523,0.002678,0.000431,0.077569
18696000,0.0324,0.013523,0.002678,0.000431,0.071222
18697000,0.0324,0.013523,0.002678,0.000431,0.119409
18698000,0.0324,0.013523,0.002678,0.000431,0.180171
18699000,0.0324,0.013523,0.002678,0.000431,0.145970
18700000,0.0324,0.013523,0.002678,0.000431,0.041723
18701000,0.0324,0.013523,0.002678,0.000431,0.203794
18702000,0.0324,0.013523,0.002678,0.000431,0.202031
18703000,0.0324,0.013523,0.002678,0.000431,0.349881
18704000,0.0324,0.013523,0.002678,0.000431,0.206379
18705000,0.0324,0.013523,0.002678,0.000431,0.272195
18706000,0.0324,0.013523,0.002678,0.000431,0.167948
18707000,0.0324,0.013523,0.002678,0.000431,0.203089
18708000,0.0324,0.013523,0.002678,0.000431,0.039019
18709000,0.0324,0.013523,0.002678,0.000431,0.213314
18710000,0.0324,0.013523,0.002678,0.000431,0.219660
18711000,0.0324,0.013523,0.002678,0.000431,0.190983
18712000,0.0324,0.013523,0.002678,0.000431,0.110359
18713000,0.0324,0.013523,0.002678,0.000431,0.155490
18714000,0.0324,0.013523,0.002678,0.000431,0.080272
18715000,0.0324,0.013523,0.002678,0.000431,0.089792
18716000,0.0324,0.013523,0.002678,0.000431,0.313683
18717000,0.0324,0.013523,0.002678,0.000431,0.251040
18718000,0.0324,0.013523,0.002678,0.000431,0.138918
18719000,0.0324,0.013523,0.002678,0.000431,0.056061
18720000,0.0324,0.013523,0.002678,0.000431,0.107656
18721000,0.0324,0.013523,0.002678,0.000431,0.038667
18722000,0.0324,0.013523,0.002678,0.000431,0.053593
18723000,0.0324,0.013523,0.002678,0.000431,0.086148
18724000,0.0324,0.013523,0.002678,0.000431,0.202384
18725000,0.0324,0.013523,0.002678,0.000431,0.159486
18726000,0.0324,0.013523,0.002678,0.000431,0.070869
18727000,0.0324,0.013523,0.002678,0.000431,0.141269
18728000,0.0324,0.013523,0.002678,0.000431,0.280657
18729000,0.0324,0.013523,0.002678,0.000431,0.147733
18730000,0.0324,0.013523,0.002678,0.000431,0.237524
18731000,0.0324,0.013523,0.002678,0.000431,0.098959
18732000,0.0324,0.013523,0.002678,0.000431,0.130221
18733000,0.0324,0.013523,0.002678,0.000431,0.200738
18734000,0.0324,0.013523,0.002678,0.000431,0.072867
18735000,0.0324,0.013523,0.002678,0.000431,0.112592
18736000,0.0324,0.013523,0.002678,0.000431,0.168535
18737000,0.0324,0.013523,0.002678,0.000431,0.313448
18738000,0.0324,0.013523,0.002678,0.000431,0.083445
18739000,0.0324,0.013523,0.002678,0.000431,0.121407
18740000,0.0324,0.013523,0.002678,0.000431,0.175587
18741000,0.0324,0.013523,0.002678,0.000431,0.163247
18742000,0.0324,0.013523,0.002678,0.000431,0.164775
18743000,0.0324,0.013523,0.002678,0.000431,0.179701
18744000,0.0324,0.013523,0.002678,0.000431,0.101309
18745000,0.0324,0.013523,0.002678,0.000431,0.203089
18746000,0.0324,0.013523,0.002678,0.000431,0.197682
18747000,0.0324,0.013523,0.002678,0.000431,0.240463
18748000,0.0324,0.013523,0.002678,0.000431,0.328609
18749000,0.0324,0.013523,0.002678,0.000431,0.165362
18750000,0.0324,0.013523,0.002678,0.000431,0.210963
18751000,0.0324,0.013523,0.002678,0.000431,0.133042
18752000,0.0324,0.013523,0.002678,0.000431,0.195449
18753000,0.0324,0.013523,0.002678,0.000431,0.150789
18754000,0.0324,0.013523,0.002678,0.000431,0.247044
18755000,0.0324,0.013523,0.002678,0.000431,0.236937
18756000,0.0324,0.013523,0.002678,0.000431,0.294996
18757000,0.0324,0.013523,0.002678,0.000431,0.042545
18758000,0.0324,0.013523,0.002678,0.000431,0.059234
18759000,0.0324,0.013523,0.002678,0.000431,0.204499
18760000,0.0324,0.013523,0.002678,0.000431,0.212256
18761000,0.0324,0.013523,0.002678,0.000431,0.132924
18762000,0.0324,0.013523,0.002678,0.000431,0.174999
18763000,0.0324,0.013523,0.002678,0.000431,0.216487
18764000,0.0324,0.013523,0.002678,0.000431,0.097783
18765000,0.0324,0.013523,0.002678,0.000431,0.097313
18766000,0.0324,0.013523,0.002678,0.000431,0.110241
18767000,0.0324,0.013523,0.002678,0.000431,0.143619
18768000,0.0324,0.013523,0.002678,0.000431,0.104247
18769000,0.0324,0.013523,0.002678,0.000431,0.181111
18770000,0.0324,0.013523,0.002678,0.000431,0.101427
18771000,0.0324,0.013523,0.002678,0.000431,0.087441
18772000,0.0324,0.013523,0.002678,0.000431,0.096843
18773000,0.0324,0.013523,0.002678,0.000431,0.172766
18774000,0.0324,0.013523,0.002678,0.000431,0.128928
18775000,0.0324,0.013523,0.002678,0.000431,0.163717
18776000,0.0324,0.013523,0.002678,0.000431,0.135510
18777000,0.0324,0.013523,0.002678,0.000431,0.181934
18778000,0.0324,0.013523,0.002678,0.000431,0.155020
18779000,0.0324,0.013523,0.002678,0.000431,0.088029
18780000,0.0324,0.013523,0.002678,0.000431,0.203441
18781000,0.0324,0.013523,0.002678,0.000431,0.196742
18782000,0.0324,0.013523,0.002678,0.000431,0.237054
18783000,0.0324,0.013523,0.002678,0.000431,0.035023
18784000,0.0324,0.013523,0.002678,0.000431,0.059469
18785000,0.0324,0.013523,0.002678,0.000431,0.134687
18786000,0.0324,0.013523,0.002678,0.000431,0.128811
18787000,0.0324,0.013523,0.002678,0.000431,0.035258
18788000,0.0324,0.013523,0.002678,0.000431,0.068872
18789000,0.0324,0.013523,0.002678,0.000431,0.159251
18790000,0.0324,0.013523,0.002678,0.000431,0.115530
18791000,0.0324,0.013523,0.002678,0.000431,0.141034
18792000,0.0324,0.013523,0.002678,0.000431,0.095315
18793000,0.0324,0.013523,0.002678,0.000431,0.144442
18794000,0.0324,0.013523,0.002678,0.000431,0.080624
18795000,0.0324,0.013523,0.002678,0.000431,0.195214
18796000,0.0324,0.013523,0.002678,0.000431,0.131397
18797000,0.0324,0.013523,0.002678,0.000431,0.087911
18798000,0.0324,0.013523,0.002678,0.000431,0.061232
18799000,0.0324,0.013523,0.002678,0.000431,0.106951
18800000,0.0324,0.013523,0.002678,0.000431,0.095433
18801000,0.0324,0.013523,0.002678,0.000431,0.132454
18802000,0.0324,0.013523,0.002678,0.000431,0.205322
18803000,0.0324,0.013523,0.002678,0.000431,0.119526
18804000,0.0324,0.013523,0.002678,0.000431,0.145617
18805000,0.0324,0.013523,0.002678,0.000431,0.158898
18806000,0.0324,0.013523,0.002678,0.000431,0.119761
18807000,0.0324,0.013523,0.002678,0.000431,0.076511
18808000,0.0324,0.013523,0.002678,0.000431,0.174529
18809000,0.0324,0.013523,0.002678,0.000431,0.039607
18810000,0.0324,0.013523,0.002678,0.000431,0.132102
18811000,0.0324,0.013523,0.002678,0.000431,0.046424
18812000,0.0324,0.013523,0.002678,0.000431,0.155490
18813000,0.0324,0.013523,0.002678,0.000431,0.051830
18814000,0.0324,0.013523,0.002678,0.000431,0.261500
18815000,0.0324,0.013523,0.002678,0.000431,0.161484
18816000,0.0324,0.013523,0.002678,0.000431,0.147028
18817000,0.0324,0.013523,0.002678,0.000431,0.179348
18818000,0.0324,0.013523,0.002678,0.000431,0.111769
18819000,0.0324,0.013523,0.002678,0.000431,0.083915
18820000,0.0324,0.013523,0.002678,0.000431,0.109301
18821000,0.0324,0.013523,0.002678,0.000431,0.088499
18822000,0.0324,0.013523,0.002678,0.000431,0.140799
18823000,0.0324,0.013523,0.002678,0.000431,0.261735
18824000,0.0324,0.013523,0.002678,0.000431,0.146675
18825000,0.0324,0.013523,0.002678,0.000431,0.215664
18826000,0.0324,0.013523,0.002678,0.000431,0.081447
18827000,0.0324,0.013523,0.002678,0.000431,0.314035
18828000,0.0324,0.013523,0.002678,0.000431,0.175117
18829000,0.0324,0.013523,0.002678,0.000431,0.152552
18830000,0.0324,0.013523,0.002678,0.000431,0.153962
18831000,0.0324,0.013523,0.002678,0.000431,0.189808
18832000,0.0324,0.013523,0.002678,0.000431,0.069577
18833000,0.0324,0.013523,0.002678,0.000431,0.166772
18834000,0.0324,0.013523,0.002678,0.000431,0.237054
18835000,0.0324,0.013523,0.002678,0.000431,0.120819
18836000,0.0324,0.013523,0.002678,0.000431,0.241050
18837000,0.0324,0.013523,0.002678,0.000431,0.223891
18838000,0.0324,0.013523,0.002678,0.000431,0.125873
18839000,0.0324,0.013523,0.002678,0.000431,0.176057
18840000,0.0324,0.013523,0.002678,0.000431,0.144325
18841000,0.0324,0.013523,0.002678,0.000431,0.038902
18842000,0.0324,0.013523,0.002678,0.000431,0.163247
18843000,0.0324,0.013523,0.002678,0.000431,0.143619
18844000,0.0324,0.013523,0.002678,0.000431,0.167595
18845000,0.0324,0.013523,0.002678,0.000431,0.175822
18846000,0.0324,0.013523,0.002678,0.000431,0.119879
18847000,0.0324,0.013523,0.002678,0.000431,0.084150
18848000,0.0324,0.013523,0.002678,0.000431,0.106010
18849000,0.0324,0.013523,0.002678,0.000431,0.194862
18850000,0.0324,0.013523,0.002678,0.000431,0.196742
18851000,0.0324,0.013523,0.002678,0.000431,0.117293
18852000,0.0324,0.013523,0.002678,0.000431,0.114355
18853000,0.0324,0.013523,0.002678,0.000431,0.113297
18854000,0.0324,0.013523,0.002678,0.000431,0.145970
18855000,0.0324,0.013523,0.002678,0.000431,0.191688
18856000,0.0324,0.013523,0.002678,0.000431,0.164657
18857000,0.0324,0.013523,0.002678,0.000431,0.152199
18858000,0.0324,0.013523,0.002678,0.000431,0.083327
18859000,0.0324,0.013523,0.002678,0.000431,0.115765
18860000,0.0324,0.013523,0.002678,0.000431,0.140329
18861000,0.0324,0.013523,0.002678,0.000431,0.140564
18862000,0.0324,0.013523,0.002678,0.000431,0.102955
18863000,0.0324,0.013523,0.002678,0.000431,0.087911
18864000,0.0324,0.013523,0.002678,0.000431,0.102720
18865000,0.0324,0.013523,0.002678,0.000431,0.127283
18866000,0.0324,0.013523,0.002678,0.000431,0.117646
18867000,0.0324,0.013523,0.002678,0.000431,0.090262
18868000,0.0324,0.013523,0.002678,0.000431,0.143619
18869000,0.0324,0.013523,0.002678,0.000431,0.168065
18870000,0.0324,0.013523,0.002678,0.000431,0.151964
18871000,0.0324,0.013523,0.002678,0.000431,0.079214
18872000,0.0324,0.013523,0.002678,0.000431,0.230590
18873000,0.0324,0.013523,0.002678,0.000431,0.171004
18874000,0.0324,0.013523,0.002678,0.000431,0.229533
18875000,0.0324,0.013523,0.002678,0.000431,0.088381
18876000,0.0324,0.013523,0.002678,0.000431,0.142562
18877000,0.0324,0.013523,0.002678,0.000431,0.087558
18878000,0.0324,0.013523,0.002678,0.000431,0.123287
18879000,0.0324,0.013523,0.002678,0.000431,0.167008
18880000,0.0324,0.013523,0.002678,0.000431,0.158546
18881000,0.0324,0.013523,0.002678,0.000431,0.148556
18882000,0.0324,0.013523,0.002678,0.000431,0.043485
18883000,0.0324,0.013523,0.002678,0.000431,0.109419
18884000,0.0324,0.013523,0.002678,0.000431,0.087794
18885000,0.0324,0.013523,0.002678,0.000431,0.140094
18886000,0.0324,0.013523,0.002678,0.000431,0.141504
18887000,0.0324,0.013523,0.002678,0.000431,0.230943
18888000,0.0324,0.013523,0.002678,0.000431,0.188398
18889000,0.0324,0.013523,0.002678,0.000431,0.061585
18890000,0.0324,0.013523,0.002678,0.000431,0.042428
18891000,0.0324,0.013523,0.002678,0.000431,0.082975
18892000,0.0324,0.013523,0.002678,0.000431,0.239052
18893000,0.0324,0.013523,0.002678,0.000431,0.247984
18894000,0.0324,0.013523,0.002678,0.000431,0.261500
18895000,0.0324,0.013523,0.002678,0.000431,0.197212
18896000,0.0324,0.013523,0.002678,0.000431,0.174059
18897000,0.0324,0.013523,0.002678,0.000431,0.107303
18898000,0.0324,0.013523,0.002678,0.000431,0.123522
18899000,0.0324,0.013523,0.002678,0.000431,0.103307
18900000,0.0324,0.013523,0.002678,0.000431,0.166890
18901000,0.0324,0.013523,0.002678,0.000431,0.103660
18902000,0.0324,0.013523,0.002678,0.000431,0.057354
18903000,0.0324,0.013523,0.002678,0.000431,0.058059
18904000,0.0324,0.013523,0.002678,0.000431,0.092612
18905000,0.0324,0.013523,0.002678,0.000431,0.202619
18906000,0.0324,0.013523,0.002678,0.000431,0.131632
18907000,0.0324,0.013523,0.002678,0.000431,0.083563
18908000,0.0324,0.013523,0.002678,0.000431,0.066874
18909000,0.0324,0.013523,0.002678,0.000431,0.110241
18910000,0.0324,0.013523,0.002678,0.000431,0.065228
18911000,0.0324,0.013523,0.002678,0.000431,0.132689
18912000,0.0324,0.013523,0.002678,0.000431,0.136333
18913000,0.0324,0.013523,0.002678,0.000431,0.074983
18914000,0.0324,0.013523,0.002678,0.000431,0.112122
18915000,0.0324,0.013523,0.002678,0.000431,0.173001
18916000,0.0324,0.013523,0.002678,0.000431,0.155372
18917000,0.0324,0.013523,0.002678,0.000431,0.115883
18918000,0.0324,0.013523,0.002678,0.000431,0.092495
18919000,0.0324,0.013523,0.002678,0.000431,0.183579
18920000,0.0324,0.013523,0.002678,0.000431,0.079449
18921000,0.0324,0.013523,0.002678,0.000431,0.195449
18922000,0.0324,0.013523,0.002678,0.000431,0.149496
18923000,0.0324,0.013523,0.002678,0.000431,0.126108
18924000,0.0324,0.013523,0.002678,0.000431,0.237289
18925000,0.0324,0.013523,0.002678,0.000431,0.153492
18926000,0.0324,0.013523,0.002678,0.000431,0.107656
18927000,0.0324,0.013523,0.002678,0.000431,0.201678
18928000,0.0324,0.013523,0.002678,0.000431,0.133865
18929000,0.0324,0.013523,0.002678,0.000431,0.125755
18930000,0.0324,0.013523,0.002678,0.000431,0.188045
18931000,0.0324,0.013523,0.002678,0.000431,0.072045
18932000,0.0324,0.013523,0.002678,0.000431,0.178760
18933000,0.0324,0.013523,0.002678,0.000431,0.122112
18934000,0.0324,0.013523,0.002678,0.000431,0.094845
18935000,0.0324,0.013523,0.002678,0.000431,0.117411
18936000,0.0324,0.013523,0.002678,0.000431,0.165362
18937000,0.0324,0.013523,0.002678,0.000431,0.115295
18938000,0.0324,0.013523,0.002678,0.000431,0.139271
18939000,0.0324,0.013523,0.002678,0.000431,0.187693
18940000,0.0324,0.013523,0.002678,0.000431,0.081212
18941000,0.0324,0.013523,0.002678,0.000431,0.119879
18942000,0.0324,0.013523,0.002678,0.000431,0.172884
18943000,0.0324,0.013523,0.002678,0.000431,0.270315
18944000,0.0324,0.013523,0.002678,0.000431,0.123170
18945000,0.0324,0.013523,0.002678,0.000431,0.155607
18946000,0.0324,0.013523,0.002678,0.000431,0.207790
18947000,0.0324,0.013523,0.002678,0.000431,0.099429
18948000,0.0324,0.013523,0.002678,0.000431,0.197565
18949000,0.0324,0.013523,0.002678,0.000431,0.128341
18950000,0.0324,0.013523,0.002678,0.000431,0.198505
18951000,0.0324,0.013523,0.002678,0.000431,0.148673
18952000,0.0324,0.013523,0.002678,0.000431,0.157723
18953000,0.0324,0.013523,0.002678,0.000431,0.089439
18954000,0.0324,0.013523,0.002678,0.000431,0.157723
18955000,0.0324,0.013523,0.002678,0.000431,0.141857
18956000,0.0324,0.013523,0.002678,0.000431,0.344240
18957000,0.0324,0.013523,0.002678,0.000431,0.132454
18958000,0.0324,0.013523,0.002678,0.000431,0.080272
18959000,0.0324,0.013523,0.002678,0.000431,0.042780
18960000,0.0324,0.013523,0.002678,0.000431,0.141504
18961000,0.0324,0.013523,0.002678,0.000431,0.241873
18962000,0.0324,0.013523,0.002678,0.000431,0.189455
18963000,0.0324,0.013523,0.002678,0.000431,0.104130
18964000,0.0324,0.013523,0.002678,0.000431,0.211081
18965000,0.0324,0.013523,0.002678,0.000431,0.122817
18966000,0.0324,0.013523,0.002678,0.000431,0.036316
18967000,0.0324,0.013523,0.002678,0.000431,0.066521
18968000,0.0324,0.013523,0.002678,0.000431,0.178055
18969000,0.0324,0.013523,0.002678,0.000431,0.209200
18970000,0.0324,0.013523,0.002678,0.000431,0.084855
18971000,0.0324,0.013523,0.002678,0.000431,0.099076
18972000,0.0324,0.013523,0.002678,0.000431,0.035258
18973000,0.0324,0.013523,0.002678,0.000431,0.121994
18974000,0.0324,0.013523,0.002678,0.000431,0.218955
18975000,0.0324,0.013523,0.002678,0.000431,0.117528
18976000,0.0324,0.013523,0.002678,0.000431,0.090144
18977000,0.0324,0.013523,0.002678,0.000431,0.076511
18978000,0.0324,0.013523,0.002678,0.000431,0.131749
18979000,0.0324,0.013523,0.002678,0.000431,0.037609
18980000,0.0324,0.013523,0.002678,0.000431,0.098724
18981000,0.0324,0.013523,0.002678,0.000431,0.145735
18982000,0.0324,0.013523,0.002678,0.000431,0.195097
18983000,0.0324,0.013523,0.002678,0.000431,0.081565
18984000,0.0324,0.013523,0.002678,0.000431,0.121524
18985000,0.0324,0.013523,0.002678,0.000431,0.046541
18986000,0.0324,0.013523,0.002678,0.000431,0.145382
18987000,0.0324,0.013523,0.002678,0.000431,0.257974
18988000,0.0324,0.013523,0.002678,0.000431,0.199328
18989000,0.0324,0.013523,0.002678,0.000431,0.056414
18990000,0.0324,0.013523,0.002678,0.000431,0.102955
18991000,0.0324,0.013523,0.002678,0.000431,0.107421
18992000,0.0324,0.013523,0.002678,0.000431,0.087441
18993000,0.0324,0.013523,0.002678,0.000431,0.183814
18994000,0.0324,0.013523,0.002678,0.000431,0.094493
18995000,0.0324,0.013523,0.002678,0.000431,0.180053
18996000,0.0324,0.013523,0.002678,0.000431,0.129516
18997000,0.0324,0.013523,0.002678,0.000431,0.124932
18998000,0.0324,0.013523,0.002678,0.000431,0.076628
18999000,0.0324,0.013523,0.002678,0.000431,0.200621
