Cycle,Area(mm^2),PeakDynamic(W),SubthresholdLeakage(W),GateLeakage(W),RunTimeDynamic(W)
29000000,0.0324,0.013523,0.002678,0.000431,0.004701
29001000,0.0324,0.013523,0.002678,0.000431,0.004701
29002000,0.0324,0.013523,0.002678,0.000431,0.027267
29003000,0.0324,0.013523,0.002678,0.000431,0.004701
29004000,0.0324,0.013523,0.002678,0.000431,0.004701
29005000,0.0324,0.013523,0.002678,0.000431,0.004701
29006000,0.0324,0.013523,0.002678,0.000431,0.004701
29007000,0.0324,0.013523,0.002678,0.000431,0.004701
29008000,0.0324,0.013523,0.002678,0.000431,0.066638
29009000,0.0324,0.013523,0.002678,0.000431,0.025269
29010000,0.0324,0.013523,0.002678,0.000431,0.004701
29011000,0.0324,0.013523,0.002678,0.000431,0.034788
29012000,0.0324,0.013523,0.002678,0.000431,0.004466
29013000,0.0324,0.013523,0.002678,0.000431,0.004701
29014000,0.0324,0.013523,0.002678,0.000431,0.034671
29015000,0.0324,0.013523,0.002678,0.000431,0.065228
29016000,0.0324,0.013523,0.002678,0.000431,0.019745
29017000,0.0324,0.013523,0.002678,0.000431,0.027267
29018000,0.0324,0.013523,0.002678,0.000431,0.004701
29019000,0.0324,0.013523,0.002678,0.000431,0.004701
29020000,0.0324,0.013523,0.002678,0.000431,0.004701
29021000,0.0324,0.013523,0.002678,0.000431,0.098489
29022000,0.0324,0.013523,0.002678,0.000431,0.030792
29023000,0.0324,0.013523,0.002678,0.000431,0.034671
29024000,0.0324,0.013523,0.002678,0.000431,0.042193
29025000,0.0324,0.013523,0.002678,0.000431,0.004701
29026000,0.0324,0.013523,0.002678,0.000431,0.004701
29027000,0.0324,0.013523,0.002678,0.000431,0.004701
29028000,0.0324,0.013523,0.002678,0.000431,0.012223
29029000,0.0324,0.013523,0.002678,0.000431,0.004701
29030000,0.0324,0.013523,0.002678,0.000431,0.004701
29031000,0.0324,0.013523,0.002678,0.000431,0.004701
29032000,0.0324,0.013523,0.002678,0.000431,0.004701
29033000,0.0324,0.013523,0.002678,0.000431,0.004701
29034000,0.0324,0.013523,0.002678,0.000431,0.029617
29035000,0.0324,0.013523,0.002678,0.000431,0.032438
29036000,0.0324,0.013523,0.002678,0.000431,0.012223
29037000,0.0324,0.013523,0.002678,0.000431,0.012223
29038000,0.0324,0.013523,0.002678,0.000431,0.004701
29039000,0.0324,0.013523,0.002678,0.000431,0.004701
29040000,0.0324,0.013523,0.002678,0.000431,0.049832
29041000,0.0324,0.013523,0.002678,0.000431,0.019745
29042000,0.0324,0.013523,0.002678,0.000431,0.004701
29043000,0.0324,0.013523,0.002678,0.000431,0.072162
29044000,0.0324,0.013523,0.002678,0.000431,0.004701
29045000,0.0324,0.013523,0.002678,0.000431,0.004701
29046000,0.0324,0.013523,0.002678,0.000431,0.040782
29047000,0.0324,0.013523,0.002678,0.000431,0.021508
29048000,0.0324,0.013523,0.002678,0.000431,0.057589
29049000,0.0324,0.013523,0.002678,0.000431,0.008462
29050000,0.0324,0.013523,0.002678,0.000431,0.008462
29051000,0.0324,0.013523,0.002678,0.000431,0.004701
29052000,0.0324,0.013523,0.002678,0.000431,0.004584
29053000,0.0324,0.013523,0.002678,0.000431,0.015396
29054000,0.0324,0.013523,0.002678,0.000431,0.016454
29055000,0.0324,0.013523,0.002678,0.000431,0.019745
29056000,0.0324,0.013523,0.002678,0.000431,0.004701
29057000,0.0324,0.013523,0.002678,0.000431,0.004701
29058000,0.0324,0.013523,0.002678,0.000431,0.004701
29059000,0.0324,0.013523,0.002678,0.000431,0.019627
29060000,0.0324,0.013523,0.002678,0.000431,0.019627
29061000,0.0324,0.013523,0.002678,0.000431,0.057354
29062000,0.0324,0.013523,0.002678,0.000431,0.030087
29063000,0.0324,0.013523,0.002678,0.000431,0.009520
29064000,0.0324,0.013523,0.002678,0.000431,0.004584
29065000,0.0324,0.013523,0.002678,0.000431,0.004701
29066000,0.0324,0.013523,0.002678,0.000431,0.027267
29067000,0.0324,0.013523,0.002678,0.000431,0.072397
29068000,0.0324,0.013523,0.002678,0.000431,0.004701
29069000,0.0324,0.013523,0.002678,0.000431,0.004701
29070000,0.0324,0.013523,0.002678,0.000431,0.004701
29071000,0.0324,0.013523,0.002678,0.000431,0.004701
29072000,0.0324,0.013523,0.002678,0.000431,0.034788
29073000,0.0324,0.013523,0.002678,0.000431,0.019980
29074000,0.0324,0.013523,0.002678,0.000431,0.004701
29075000,0.0324,0.013523,0.002678,0.000431,0.019745
29076000,0.0324,0.013523,0.002678,0.000431,0.004701
29077000,0.0324,0.013523,0.002678,0.000431,0.004701
29078000,0.0324,0.013523,0.002678,0.000431,0.012340
29079000,0.0324,0.013523,0.002678,0.000431,0.031145
29080000,0.0324,0.013523,0.002678,0.000431,0.015984
29081000,0.0324,0.013523,0.002678,0.000431,0.008462
29082000,0.0324,0.013523,0.002678,0.000431,0.031027
29083000,0.0324,0.013523,0.002678,0.000431,0.004701
29084000,0.0324,0.013523,0.002678,0.000431,0.004701
29085000,0.0324,0.013523,0.002678,0.000431,0.027267
29086000,0.0324,0.013523,0.002678,0.000431,0.004936
29087000,0.0324,0.013523,0.002678,0.000431,0.004701
29088000,0.0324,0.013523,0.002678,0.000431,0.004701
29089000,0.0324,0.013523,0.002678,0.000431,0.004701
29090000,0.0324,0.013523,0.002678,0.000431,0.004701
29091000,0.0324,0.013523,0.002678,0.000431,0.019392
29092000,0.0324,0.013523,0.002678,0.000431,0.020450
29093000,0.0324,0.013523,0.002678,0.000431,0.011635
29094000,0.0324,0.013523,0.002678,0.000431,0.038902
29095000,0.0324,0.013523,0.002678,0.000431,0.038197
29096000,0.0324,0.013523,0.002678,0.000431,0.004701
29097000,0.0324,0.013523,0.002678,0.000431,0.004701
29098000,0.0324,0.013523,0.002678,0.000431,0.042428
29099000,0.0324,0.013523,0.002678,0.000431,0.012223
29100000,0.0324,0.013523,0.002678,0.000431,0.004584
29101000,0.0324,0.013523,0.002678,0.000431,0.004701
29102000,0.0324,0.013523,0.002678,0.000431,0.004701
29103000,0.0324,0.013523,0.002678,0.000431,0.004701
29104000,0.0324,0.013523,0.002678,0.000431,0.008227
29105000,0.0324,0.013523,0.002678,0.000431,0.008462
29106000,0.0324,0.013523,0.002678,0.000431,0.004701
29107000,0.0324,0.013523,0.002678,0.000431,0.004466
29108000,0.0324,0.013523,0.002678,0.000431,0.004701
29109000,0.0324,0.013523,0.002678,0.000431,0.004701
29110000,0.0324,0.013523,0.002678,0.000431,0.004701
29111000,0.0324,0.013523,0.002678,0.000431,0.023506
29112000,0.0324,0.013523,0.002678,0.000431,0.068872
29113000,0.0324,0.013523,0.002678,0.000431,0.004701
29114000,0.0324,0.013523,0.002678,0.000431,0.004701
29115000,0.0324,0.013523,0.002678,0.000431,0.012223
29116000,0.0324,0.013523,0.002678,0.000431,0.004701
29117000,0.0324,0.013523,0.002678,0.000431,0.004701
29118000,0.0324,0.013523,0.002678,0.000431,0.153022
29119000,0.0324,0.013523,0.002678,0.000431,0.014338
29120000,0.0324,0.013523,0.002678,0.000431,0.004701
29121000,0.0324,0.013523,0.002678,0.000431,0.004936
29122000,0.0324,0.013523,0.002678,0.000431,0.004701
29123000,0.0324,0.013523,0.002678,0.000431,0.004701
29124000,0.0324,0.013523,0.002678,0.000431,0.009285
29125000,0.0324,0.013523,0.002678,0.000431,0.075336
29126000,0.0324,0.013523,0.002678,0.000431,0.004701
29127000,0.0324,0.013523,0.002678,0.000431,0.004584
29128000,0.0324,0.013523,0.002678,0.000431,0.004584
29129000,0.0324,0.013523,0.002678,0.000431,0.004701
29130000,0.0324,0.013523,0.002678,0.000431,0.008462
29131000,0.0324,0.013523,0.002678,0.000431,0.031262
29132000,0.0324,0.013523,0.002678,0.000431,0.004701
29133000,0.0324,0.013523,0.002678,0.000431,0.012223
29134000,0.0324,0.013523,0.002678,0.000431,0.004936
29135000,0.0324,0.013523,0.002678,0.000431,0.004701
29136000,0.0324,0.013523,0.002678,0.000431,0.004701
29137000,0.0324,0.013523,0.002678,0.000431,0.018334
29138000,0.0324,0.013523,0.002678,0.000431,0.051242
29139000,0.0324,0.013523,0.002678,0.000431,0.012223
29140000,0.0324,0.013523,0.002678,0.000431,0.034788
29141000,0.0324,0.013523,0.002678,0.000431,0.019745
29142000,0.0324,0.013523,0.002678,0.000431,0.004701
29143000,0.0324,0.013523,0.002678,0.000431,0.004701
29144000,0.0324,0.013523,0.002678,0.000431,0.004701
29145000,0.0324,0.013523,0.002678,0.000431,0.009637
29146000,0.0324,0.013523,0.002678,0.000431,0.007287
29147000,0.0324,0.013523,0.002678,0.000431,0.004584
29148000,0.0324,0.013523,0.002678,0.000431,0.004584
29149000,0.0324,0.013523,0.002678,0.000431,0.004701
29150000,0.0324,0.013523,0.002678,0.000431,0.008462
29151000,0.0324,0.013523,0.002678,0.000431,0.008462
29152000,0.0324,0.013523,0.002678,0.000431,0.012223
29153000,0.0324,0.013523,0.002678,0.000431,0.027267
29154000,0.0324,0.013523,0.002678,0.000431,0.004701
29155000,0.0324,0.013523,0.002678,0.000431,0.004584
29156000,0.0324,0.013523,0.002678,0.000431,0.004584
29157000,0.0324,0.013523,0.002678,0.000431,0.019745
29158000,0.0324,0.013523,0.002678,0.000431,0.008462
29159000,0.0324,0.013523,0.002678,0.000431,0.012223
29160000,0.0324,0.013523,0.002678,0.000431,0.061115
29161000,0.0324,0.013523,0.002678,0.000431,0.004701
29162000,0.0324,0.013523,0.002678,0.000431,0.004701
29163000,0.0324,0.013523,0.002678,0.000431,0.004701
29164000,0.0324,0.013523,0.002678,0.000431,0.004701
29165000,0.0324,0.013523,0.002678,0.000431,0.027502
29166000,0.0324,0.013523,0.002678,0.000431,0.042310
29167000,0.0324,0.013523,0.002678,0.000431,0.004584
29168000,0.0324,0.013523,0.002678,0.000431,0.004584
29169000,0.0324,0.013523,0.002678,0.000431,0.004701
29170000,0.0324,0.013523,0.002678,0.000431,0.042310
29171000,0.0324,0.013523,0.002678,0.000431,0.004701
29172000,0.0324,0.013523,0.002678,0.000431,0.019745
29173000,0.0324,0.013523,0.002678,0.000431,0.027267
29174000,0.0324,0.013523,0.002678,0.000431,0.019745
29175000,0.0324,0.013523,0.002678,0.000431,0.004701
29176000,0.0324,0.013523,0.002678,0.000431,0.004701
29177000,0.0324,0.013523,0.002678,0.000431,0.004701
29178000,0.0324,0.013523,0.002678,0.000431,0.004701
29179000,0.0324,0.013523,0.002678,0.000431,0.012458
29180000,0.0324,0.013523,0.002678,0.000431,0.008462
29181000,0.0324,0.013523,0.002678,0.000431,0.008462
29182000,0.0324,0.013523,0.002678,0.000431,0.004701
29183000,0.0324,0.013523,0.002678,0.000431,0.004701
29184000,0.0324,0.013523,0.002678,0.000431,0.027267
29185000,0.0324,0.013523,0.002678,0.000431,0.019745
29186000,0.0324,0.013523,0.002678,0.000431,0.053710
29187000,0.0324,0.013523,0.002678,0.000431,0.008462
29188000,0.0324,0.013523,0.002678,0.000431,0.004584
29189000,0.0324,0.013523,0.002678,0.000431,0.004701
29190000,0.0324,0.013523,0.002678,0.000431,0.019745
29191000,0.0324,0.013523,0.002678,0.000431,0.019745
29192000,0.0324,0.013523,0.002678,0.000431,0.050067
29193000,0.0324,0.013523,0.002678,0.000431,0.033260
29194000,0.0324,0.013523,0.002678,0.000431,0.017982
29195000,0.0324,0.013523,0.002678,0.000431,0.053358
29196000,0.0324,0.013523,0.002678,0.000431,0.004466
29197000,0.0324,0.013523,0.002678,0.000431,0.004701
29198000,0.0324,0.013523,0.002678,0.000431,0.030910
29199000,0.0324,0.013523,0.002678,0.000431,0.023741
29200000,0.0324,0.013523,0.002678,0.000431,0.004819
29201000,0.0324,0.013523,0.002678,0.000431,0.020215
29202000,0.0324,0.013523,0.002678,0.000431,0.004701
29203000,0.0324,0.013523,0.002678,0.000431,0.004701
29204000,0.0324,0.013523,0.002678,0.000431,0.004701
29205000,0.0324,0.013523,0.002678,0.000431,0.034788
29206000,0.0324,0.013523,0.002678,0.000431,0.004701
29207000,0.0324,0.013523,0.002678,0.000431,0.016336
29208000,0.0324,0.013523,0.002678,0.000431,0.007874
29209000,0.0324,0.013523,0.002678,0.000431,0.004701
29210000,0.0324,0.013523,0.002678,0.000431,0.004701
29211000,0.0324,0.013523,0.002678,0.000431,0.004701
29212000,0.0324,0.013523,0.002678,0.000431,0.044896
29213000,0.0324,0.013523,0.002678,0.000431,0.017159
29214000,0.0324,0.013523,0.002678,0.000431,0.004701
29215000,0.0324,0.013523,0.002678,0.000431,0.004701
29216000,0.0324,0.013523,0.002678,0.000431,0.004701
29217000,0.0324,0.013523,0.002678,0.000431,0.042310
29218000,0.0324,0.013523,0.002678,0.000431,0.004936
29219000,0.0324,0.013523,0.002678,0.000431,0.004701
29220000,0.0324,0.013523,0.002678,0.000431,0.019745
29221000,0.0324,0.013523,0.002678,0.000431,0.004701
29222000,0.0324,0.013523,0.002678,0.000431,0.004701
29223000,0.0324,0.013523,0.002678,0.000431,0.008580
29224000,0.0324,0.013523,0.002678,0.000431,0.076276
29225000,0.0324,0.013523,0.002678,0.000431,0.019980
29226000,0.0324,0.013523,0.002678,0.000431,0.004701
29227000,0.0324,0.013523,0.002678,0.000431,0.004701
29228000,0.0324,0.013523,0.002678,0.000431,0.004466
29229000,0.0324,0.013523,0.002678,0.000431,0.004701
29230000,0.0324,0.013523,0.002678,0.000431,0.008697
29231000,0.0324,0.013523,0.002678,0.000431,0.061350
29232000,0.0324,0.013523,0.002678,0.000431,0.004701
29233000,0.0324,0.013523,0.002678,0.000431,0.004701
29234000,0.0324,0.013523,0.002678,0.000431,0.004701
29235000,0.0324,0.013523,0.002678,0.000431,0.004701
29236000,0.0324,0.013523,0.002678,0.000431,0.022565
29237000,0.0324,0.013523,0.002678,0.000431,0.039254
29238000,0.0324,0.013523,0.002678,0.000431,0.019745
29239000,0.0324,0.013523,0.002678,0.000431,0.004701
29240000,0.0324,0.013523,0.002678,0.000431,0.004701
29241000,0.0324,0.013523,0.002678,0.000431,0.004701
29242000,0.0324,0.013523,0.002678,0.000431,0.004466
29243000,0.0324,0.013523,0.002678,0.000431,0.035023
29244000,0.0324,0.013523,0.002678,0.000431,0.012223
29245000,0.0324,0.013523,0.002678,0.000431,0.004701
29246000,0.0324,0.013523,0.002678,0.000431,0.004701
29247000,0.0324,0.013523,0.002678,0.000431,0.004701
29248000,0.0324,0.013523,0.002678,0.000431,0.004466
29249000,0.0324,0.013523,0.002678,0.000431,0.004701
29250000,0.0324,0.013523,0.002678,0.000431,0.012223
29251000,0.0324,0.013523,0.002678,0.000431,0.004466
29252000,0.0324,0.013523,0.002678,0.000431,0.004701
29253000,0.0324,0.013523,0.002678,0.000431,0.004701
29254000,0.0324,0.013523,0.002678,0.000431,0.042545
29255000,0.0324,0.013523,0.002678,0.000431,0.004701
29256000,0.0324,0.013523,0.002678,0.000431,0.045601
29257000,0.0324,0.013523,0.002678,0.000431,0.092025
29258000,0.0324,0.013523,0.002678,0.000431,0.019392
29259000,0.0324,0.013523,0.002678,0.000431,0.004701
29260000,0.0324,0.013523,0.002678,0.000431,0.004701
29261000,0.0324,0.013523,0.002678,0.000431,0.004701
29262000,0.0324,0.013523,0.002678,0.000431,0.004701
29263000,0.0324,0.013523,0.002678,0.000431,0.004701
29264000,0.0324,0.013523,0.002678,0.000431,0.012223
29265000,0.0324,0.013523,0.002678,0.000431,0.004701
29266000,0.0324,0.013523,0.002678,0.000431,0.004701
29267000,0.0324,0.013523,0.002678,0.000431,0.072397
29268000,0.0324,0.013523,0.002678,0.000431,0.004701
29269000,0.0324,0.013523,0.002678,0.000431,0.012223
29270000,0.0324,0.013523,0.002678,0.000431,0.019745
29271000,0.0324,0.013523,0.002678,0.000431,0.004701
29272000,0.0324,0.013523,0.002678,0.000431,0.004701
29273000,0.0324,0.013523,0.002678,0.000431,0.035023
29274000,0.0324,0.013523,0.002678,0.000431,0.004701
29275000,0.0324,0.013523,0.002678,0.000431,0.008462
29276000,0.0324,0.013523,0.002678,0.000431,0.015984
29277000,0.0324,0.013523,0.002678,0.000431,0.034788
29278000,0.0324,0.013523,0.002678,0.000431,0.004701
29279000,0.0324,0.013523,0.002678,0.000431,0.012223
29280000,0.0324,0.013523,0.002678,0.000431,0.004701
29281000,0.0324,0.013523,0.002678,0.000431,0.004701
29282000,0.0324,0.013523,0.002678,0.000431,0.019510
29283000,0.0324,0.013523,0.002678,0.000431,0.019980
29284000,0.0324,0.013523,0.002678,0.000431,0.004701
29285000,0.0324,0.013523,0.002678,0.000431,0.049832
29286000,0.0324,0.013523,0.002678,0.000431,0.042310
29287000,0.0324,0.013523,0.002678,0.000431,0.004701
29288000,0.0324,0.013523,0.002678,0.000431,0.023036
29289000,0.0324,0.013523,0.002678,0.000431,0.027502
29290000,0.0324,0.013523,0.002678,0.000431,0.008462
29291000,0.0324,0.013523,0.002678,0.000431,0.034436
29292000,0.0324,0.013523,0.002678,0.000431,0.038432
29293000,0.0324,0.013523,0.002678,0.000431,0.015984
29294000,0.0324,0.013523,0.002678,0.000431,0.004701
29295000,0.0324,0.013523,0.002678,0.000431,0.049832
29296000,0.0324,0.013523,0.002678,0.000431,0.004701
29297000,0.0324,0.013523,0.002678,0.000431,0.004701
29298000,0.0324,0.013523,0.002678,0.000431,0.004701
29299000,0.0324,0.013523,0.002678,0.000431,0.004701
29300000,0.0324,0.013523,0.002678,0.000431,0.004701
29301000,0.0324,0.013523,0.002678,0.000431,0.004701
29302000,0.0324,0.013523,0.002678,0.000431,0.016219
29303000,0.0324,0.013523,0.002678,0.000431,0.046071
29304000,0.0324,0.013523,0.002678,0.000431,0.012223
29305000,0.0324,0.013523,0.002678,0.000431,0.004701
29306000,0.0324,0.013523,0.002678,0.000431,0.004701
29307000,0.0324,0.013523,0.002678,0.000431,0.004701
29308000,0.0324,0.013523,0.002678,0.000431,0.042545
29309000,0.0324,0.013523,0.002678,0.000431,0.042310
29310000,0.0324,0.013523,0.002678,0.000431,0.004701
29311000,0.0324,0.013523,0.002678,0.000431,0.004701
29312000,0.0324,0.013523,0.002678,0.000431,0.004701
29313000,0.0324,0.013523,0.002678,0.000431,0.004701
29314000,0.0324,0.013523,0.002678,0.000431,0.015984
29315000,0.0324,0.013523,0.002678,0.000431,0.015984
29316000,0.0324,0.013523,0.002678,0.000431,0.027267
29317000,0.0324,0.013523,0.002678,0.000431,0.048422
29318000,0.0324,0.013523,0.002678,0.000431,0.021390
29319000,0.0324,0.013523,0.002678,0.000431,0.004466
29320000,0.0324,0.013523,0.002678,0.000431,0.004701
29321000,0.0324,0.013523,0.002678,0.000431,0.012223
29322000,0.0324,0.013523,0.002678,0.000431,0.004701
29323000,0.0324,0.013523,0.002678,0.000431,0.012340
29324000,0.0324,0.013523,0.002678,0.000431,0.022330
29325000,0.0324,0.013523,0.002678,0.000431,0.009990
29326000,0.0324,0.013523,0.002678,0.000431,0.004701
29327000,0.0324,0.013523,0.002678,0.000431,0.012458
29328000,0.0324,0.013523,0.002678,0.000431,0.004701
29329000,0.0324,0.013523,0.002678,0.000431,0.004701
29330000,0.0324,0.013523,0.002678,0.000431,0.034788
29331000,0.0324,0.013523,0.002678,0.000431,0.004349
29332000,0.0324,0.013523,0.002678,0.000431,0.004584
29333000,0.0324,0.013523,0.002678,0.000431,0.004701
29334000,0.0324,0.013523,0.002678,0.000431,0.027267
29335000,0.0324,0.013523,0.002678,0.000431,0.034788
29336000,0.0324,0.013523,0.002678,0.000431,0.019745
29337000,0.0324,0.013523,0.002678,0.000431,0.027267
29338000,0.0324,0.013523,0.002678,0.000431,0.019745
29339000,0.0324,0.013523,0.002678,0.000431,0.004701
29340000,0.0324,0.013523,0.002678,0.000431,0.083680
29341000,0.0324,0.013523,0.002678,0.000431,0.008462
29342000,0.0324,0.013523,0.002678,0.000431,0.004819
29343000,0.0324,0.013523,0.002678,0.000431,0.004819
29344000,0.0324,0.013523,0.002678,0.000431,0.019510
29345000,0.0324,0.013523,0.002678,0.000431,0.004701
29346000,0.0324,0.013523,0.002678,0.000431,0.012340
29347000,0.0324,0.013523,0.002678,0.000431,0.004819
29348000,0.0324,0.013523,0.002678,0.000431,0.004701
29349000,0.0324,0.013523,0.002678,0.000431,0.012223
29350000,0.0324,0.013523,0.002678,0.000431,0.012223
29351000,0.0324,0.013523,0.002678,0.000431,0.012223
29352000,0.0324,0.013523,0.002678,0.000431,0.012223
29353000,0.0324,0.013523,0.002678,0.000431,0.019745
29354000,0.0324,0.013523,0.002678,0.000431,0.004701
29355000,0.0324,0.013523,0.002678,0.000431,0.014573
29356000,0.0324,0.013523,0.002678,0.000431,0.009872
29357000,0.0324,0.013523,0.002678,0.000431,0.042310
29358000,0.0324,0.013523,0.002678,0.000431,0.004701
29359000,0.0324,0.013523,0.002678,0.000431,0.004584
29360000,0.0324,0.013523,0.002678,0.000431,0.004584
29361000,0.0324,0.013523,0.002678,0.000431,0.004701
29362000,0.0324,0.013523,0.002678,0.000431,0.028089
29363000,0.0324,0.013523,0.002678,0.000431,0.013398
29364000,0.0324,0.013523,0.002678,0.000431,0.005876
29365000,0.0324,0.013523,0.002678,0.000431,0.005054
29366000,0.0324,0.013523,0.002678,0.000431,0.004701
29367000,0.0324,0.013523,0.002678,0.000431,0.004701
29368000,0.0324,0.013523,0.002678,0.000431,0.019157
29369000,0.0324,0.013523,0.002678,0.000431,0.004584
29370000,0.0324,0.013523,0.002678,0.000431,0.004701
29371000,0.0324,0.013523,0.002678,0.000431,0.019510
29372000,0.0324,0.013523,0.002678,0.000431,0.012223
29373000,0.0324,0.013523,0.002678,0.000431,0.004701
29374000,0.0324,0.013523,0.002678,0.000431,0.038549
29375000,0.0324,0.013523,0.002678,0.000431,0.023506
29376000,0.0324,0.013523,0.002678,0.000431,0.004819
29377000,0.0324,0.013523,0.002678,0.000431,0.015396
29378000,0.0324,0.013523,0.002678,0.000431,0.027267
29379000,0.0324,0.013523,0.002678,0.000431,0.034788
29380000,0.0324,0.013523,0.002678,0.000431,0.019745
29381000,0.0324,0.013523,0.002678,0.000431,0.027267
29382000,0.0324,0.013523,0.002678,0.000431,0.004701
29383000,0.0324,0.013523,0.002678,0.000431,0.004701
29384000,0.0324,0.013523,0.002678,0.000431,0.004701
29385000,0.0324,0.013523,0.002678,0.000431,0.029617
29386000,0.0324,0.013523,0.002678,0.000431,0.009872
29387000,0.0324,0.013523,0.002678,0.000431,0.069459
29388000,0.0324,0.013523,0.002678,0.000431,0.010695
29389000,0.0324,0.013523,0.002678,0.000431,0.005759
29390000,0.0324,0.013523,0.002678,0.000431,0.005876
29391000,0.0324,0.013523,0.002678,0.000431,0.006699
29392000,0.0324,0.013523,0.002678,0.000431,0.007404
29393000,0.0324,0.013523,0.002678,0.000431,0.005994
29394000,0.0324,0.013523,0.002678,0.000431,0.019745
29395000,0.0324,0.013523,0.002678,0.000431,0.008462
29396000,0.0324,0.013523,0.002678,0.000431,0.019745
29397000,0.0324,0.013523,0.002678,0.000431,0.012693
29398000,0.0324,0.013523,0.002678,0.000431,0.004701
29399000,0.0324,0.013523,0.002678,0.000431,0.004584
29400000,0.0324,0.013523,0.002678,0.000431,0.023271
29401000,0.0324,0.013523,0.002678,0.000431,0.015631
29402000,0.0324,0.013523,0.002678,0.000431,0.004701
29403000,0.0324,0.013523,0.002678,0.000431,0.027149
29404000,0.0324,0.013523,0.002678,0.000431,0.027267
29405000,0.0324,0.013523,0.002678,0.000431,0.007522
29406000,0.0324,0.013523,0.002678,0.000431,0.004584
29407000,0.0324,0.013523,0.002678,0.000431,0.049832
29408000,0.0324,0.013523,0.002678,0.000431,0.004701
29409000,0.0324,0.013523,0.002678,0.000431,0.031027
29410000,0.0324,0.013523,0.002678,0.000431,0.008462
29411000,0.0324,0.013523,0.002678,0.000431,0.016101
29412000,0.0324,0.013523,0.002678,0.000431,0.021860
29413000,0.0324,0.013523,0.002678,0.000431,0.022683
29414000,0.0324,0.013523,0.002678,0.000431,0.023976
29415000,0.0324,0.013523,0.002678,0.000431,0.014103
29416000,0.0324,0.013523,0.002678,0.000431,0.004701
29417000,0.0324,0.013523,0.002678,0.000431,0.005759
29418000,0.0324,0.013523,0.002678,0.000431,0.005759
29419000,0.0324,0.013523,0.002678,0.000431,0.016689
29420000,0.0324,0.013523,0.002678,0.000431,0.019040
29421000,0.0324,0.013523,0.002678,0.000431,0.016807
29422000,0.0324,0.013523,0.002678,0.000431,0.038432
29423000,0.0324,0.013523,0.002678,0.000431,0.004701
29424000,0.0324,0.013523,0.002678,0.000431,0.004701
29425000,0.0324,0.013523,0.002678,0.000431,0.004466
29426000,0.0324,0.013523,0.002678,0.000431,0.011988
29427000,0.0324,0.013523,0.002678,0.000431,0.004936
29428000,0.0324,0.013523,0.002678,0.000431,0.004701
29429000,0.0324,0.013523,0.002678,0.000431,0.019040
29430000,0.0324,0.013523,0.002678,0.000431,0.004701
29431000,0.0324,0.013523,0.002678,0.000431,0.027031
29432000,0.0324,0.013523,0.002678,0.000431,0.004466
29433000,0.0324,0.013523,0.002678,0.000431,0.004584
29434000,0.0324,0.013523,0.002678,0.000431,0.004466
29435000,0.0324,0.013523,0.002678,0.000431,0.029617
29436000,0.0324,0.013523,0.002678,0.000431,0.025386
29437000,0.0324,0.013523,0.002678,0.000431,0.006464
29438000,0.0324,0.013523,0.002678,0.000431,0.004701
29439000,0.0324,0.013523,0.002678,0.000431,0.004466
29440000,0.0324,0.013523,0.002678,0.000431,0.004701
29441000,0.0324,0.013523,0.002678,0.000431,0.004701
29442000,0.0324,0.013523,0.002678,0.000431,0.004701
29443000,0.0324,0.013523,0.002678,0.000431,0.004701
29444000,0.0324,0.013523,0.002678,0.000431,0.004584
29445000,0.0324,0.013523,0.002678,0.000431,0.004584
29446000,0.0324,0.013523,0.002678,0.000431,0.004701
29447000,0.0324,0.013523,0.002678,0.000431,0.004701
29448000,0.0324,0.013523,0.002678,0.000431,0.004701
29449000,0.0324,0.013523,0.002678,0.000431,0.004701
29450000,0.0324,0.013523,0.002678,0.000431,0.004701
29451000,0.0324,0.013523,0.002678,0.000431,0.004701
29452000,0.0324,0.013523,0.002678,0.000431,0.004701
29453000,0.0324,0.013523,0.002678,0.000431,0.004701
29454000,0.0324,0.013523,0.002678,0.000431,0.004701
29455000,0.0324,0.013523,0.002678,0.000431,0.004701
29456000,0.0324,0.013523,0.002678,0.000431,0.004701
29457000,0.0324,0.013523,0.002678,0.000431,0.004701
29458000,0.0324,0.013523,0.002678,0.000431,0.004701
29459000,0.0324,0.013523,0.002678,0.000431,0.004701
29460000,0.0324,0.013523,0.002678,0.000431,0.004701
29461000,0.0324,0.013523,0.002678,0.000431,0.004701
29462000,0.0324,0.013523,0.002678,0.000431,0.004701
29463000,0.0324,0.013523,0.002678,0.000431,0.004701
29464000,0.0324,0.013523,0.002678,0.000431,0.004701
29465000,0.0324,0.013523,0.002678,0.000431,0.004701
29466000,0.0324,0.013523,0.002678,0.000431,0.004701
29467000,0.0324,0.013523,0.002678,0.000431,0.004701
29468000,0.0324,0.013523,0.002678,0.000431,0.004701
29469000,0.0324,0.013523,0.002678,0.000431,0.004701
29470000,0.0324,0.013523,0.002678,0.000431,0.004701
29471000,0.0324,0.013523,0.002678,0.000431,0.004701
29472000,0.0324,0.013523,0.002678,0.000431,0.004701
29473000,0.0324,0.013523,0.002678,0.000431,0.004701
29474000,0.0324,0.013523,0.002678,0.000431,0.004701
29475000,0.0324,0.013523,0.002678,0.000431,0.004466
29476000,0.0324,0.013523,0.002678,0.000431,0.004701
29477000,0.0324,0.013523,0.002678,0.000431,0.004466
29478000,0.0324,0.013523,0.002678,0.000431,0.004701
29479000,0.0324,0.013523,0.002678,0.000431,0.004466
29480000,0.0324,0.013523,0.002678,0.000431,0.004701
29481000,0.0324,0.013523,0.002678,0.000431,0.004701
29482000,0.0324,0.013523,0.002678,0.000431,0.004701
29483000,0.0324,0.013523,0.002678,0.000431,0.004701
29484000,0.0324,0.013523,0.002678,0.000431,0.004701
29485000,0.0324,0.013523,0.002678,0.000431,0.004466
29486000,0.0324,0.013523,0.002678,0.000431,0.004701
29487000,0.0324,0.013523,0.002678,0.000431,0.004701
29488000,0.0324,0.013523,0.002678,0.000431,0.004701
29489000,0.0324,0.013523,0.002678,0.000431,0.004701
29490000,0.0324,0.013523,0.002678,0.000431,0.004701
29491000,0.0324,0.013523,0.002678,0.000431,0.004701
29492000,0.0324,0.013523,0.002678,0.000431,0.004701
29493000,0.0324,0.013523,0.002678,0.000431,0.004701
29494000,0.0324,0.013523,0.002678,0.000431,0.004701
29495000,0.0324,0.013523,0.002678,0.000431,0.004701
29496000,0.0324,0.013523,0.002678,0.000431,0.034788
29497000,0.0324,0.013523,0.002678,0.000431,0.004701
29498000,0.0324,0.013523,0.002678,0.000431,0.042310
29499000,0.0324,0.013523,0.002678,0.000431,0.004701
29500000,0.0324,0.013523,0.002678,0.000431,0.004701
29501000,0.0324,0.013523,0.002678,0.000431,0.004701
29502000,0.0324,0.013523,0.002678,0.000431,0.004701
29503000,0.0324,0.013523,0.002678,0.000431,0.037844
29504000,0.0324,0.013523,0.002678,0.000431,0.045366
29505000,0.0324,0.013523,0.002678,0.000431,0.004701
29506000,0.0324,0.013523,0.002678,0.000431,0.012223
29507000,0.0324,0.013523,0.002678,0.000431,0.004701
29508000,0.0324,0.013523,0.002678,0.000431,0.029265
29509000,0.0324,0.013523,0.002678,0.000431,0.058999
29510000,0.0324,0.013523,0.002678,0.000431,0.187340
29511000,0.0324,0.013523,0.002678,0.000431,0.377736
29512000,0.0324,0.013523,0.002678,0.000431,0.026444
29513000,0.0324,0.013523,0.002678,0.000431,0.004701
29514000,0.0324,0.013523,0.002678,0.000431,0.053593
29515000,0.0324,0.013523,0.002678,0.000431,0.176997
29516000,0.0324,0.013523,0.002678,0.000431,0.203441
29517000,0.0324,0.013523,0.002678,0.000431,0.056296
29518000,0.0324,0.013523,0.002678,0.000431,0.019745
29519000,0.0324,0.013523,0.002678,0.000431,0.004701
29520000,0.0324,0.013523,0.002678,0.000431,0.004701
29521000,0.0324,0.013523,0.002678,0.000431,0.004701
29522000,0.0324,0.013523,0.002678,0.000431,0.004584
29523000,0.0324,0.013523,0.002678,0.000431,0.012105
29524000,0.0324,0.013523,0.002678,0.000431,0.004701
29525000,0.0324,0.013523,0.002678,0.000431,0.012223
29526000,0.0324,0.013523,0.002678,0.000431,0.004701
29527000,0.0324,0.013523,0.002678,0.000431,0.004701
29528000,0.0324,0.013523,0.002678,0.000431,0.012223
29529000,0.0324,0.013523,0.002678,0.000431,0.004701
29530000,0.0324,0.013523,0.002678,0.000431,0.027149
29531000,0.0324,0.013523,0.002678,0.000431,0.019627
29532000,0.0324,0.013523,0.002678,0.000431,0.004701
29533000,0.0324,0.013523,0.002678,0.000431,0.004701
29534000,0.0324,0.013523,0.002678,0.000431,0.004701
29535000,0.0324,0.013523,0.002678,0.000431,0.019745
29536000,0.0324,0.013523,0.002678,0.000431,0.004701
29537000,0.0324,0.013523,0.002678,0.000431,0.004701
29538000,0.0324,0.013523,0.002678,0.000431,0.004701
29539000,0.0324,0.013523,0.002678,0.000431,0.004466
29540000,0.0324,0.013523,0.002678,0.000431,0.004701
29541000,0.0324,0.013523,0.002678,0.000431,0.004701
29542000,0.0324,0.013523,0.002678,0.000431,0.004701
29543000,0.0324,0.013523,0.002678,0.000431,0.019745
29544000,0.0324,0.013523,0.002678,0.000431,0.012223
29545000,0.0324,0.013523,0.002678,0.000431,0.004701
29546000,0.0324,0.013523,0.002678,0.000431,0.004701
29547000,0.0324,0.013523,0.002678,0.000431,0.004701
29548000,0.0324,0.013523,0.002678,0.000431,0.004701
29549000,0.0324,0.013523,0.002678,0.000431,0.004584
29550000,0.0324,0.013523,0.002678,0.000431,0.004584
29551000,0.0324,0.013523,0.002678,0.000431,0.012223
29552000,0.0324,0.013523,0.002678,0.000431,0.004701
29553000,0.0324,0.013523,0.002678,0.000431,0.004701
29554000,0.0324,0.013523,0.002678,0.000431,0.004701
29555000,0.0324,0.013523,0.002678,0.000431,0.004701
29556000,0.0324,0.013523,0.002678,0.000431,0.004701
29557000,0.0324,0.013523,0.002678,0.000431,0.026796
29558000,0.0324,0.013523,0.002678,0.000431,0.042545
29559000,0.0324,0.013523,0.002678,0.000431,0.004701
29560000,0.0324,0.013523,0.002678,0.000431,0.004701
29561000,0.0324,0.013523,0.002678,0.000431,0.004701
29562000,0.0324,0.013523,0.002678,0.000431,0.004701
29563000,0.0324,0.013523,0.002678,0.000431,0.004466
29564000,0.0324,0.013523,0.002678,0.000431,0.012223
29565000,0.0324,0.013523,0.002678,0.000431,0.004701
29566000,0.0324,0.013523,0.002678,0.000431,0.004701
29567000,0.0324,0.013523,0.002678,0.000431,0.004701
29568000,0.0324,0.013523,0.002678,0.000431,0.004701
29569000,0.0324,0.013523,0.002678,0.000431,0.012223
29570000,0.0324,0.013523,0.002678,0.000431,0.004701
29571000,0.0324,0.013523,0.002678,0.000431,0.004466
29572000,0.0324,0.013523,0.002678,0.000431,0.004701
29573000,0.0324,0.013523,0.002678,0.000431,0.004701
29574000,0.0324,0.013523,0.002678,0.000431,0.004701
29575000,0.0324,0.013523,0.002678,0.000431,0.004701
29576000,0.0324,0.013523,0.002678,0.000431,0.004701
29577000,0.0324,0.013523,0.002678,0.000431,0.004701
29578000,0.0324,0.013523,0.002678,0.000431,0.004701
29579000,0.0324,0.013523,0.002678,0.000431,0.004701
29580000,0.0324,0.013523,0.002678,0.000431,0.012223
29581000,0.0324,0.013523,0.002678,0.000431,0.004701
29582000,0.0324,0.013523,0.002678,0.000431,0.004701
29583000,0.0324,0.013523,0.002678,0.000431,0.004701
29584000,0.0324,0.013523,0.002678,0.000431,0.004701
29585000,0.0324,0.013523,0.002678,0.000431,0.004701
29586000,0.0324,0.013523,0.002678,0.000431,0.004701
29587000,0.0324,0.013523,0.002678,0.000431,0.034788
29588000,0.0324,0.013523,0.002678,0.000431,0.012223
29589000,0.0324,0.013523,0.002678,0.000431,0.004584
29590000,0.0324,0.013523,0.002678,0.000431,0.057236
29591000,0.0324,0.013523,0.002678,0.000431,0.004701
29592000,0.0324,0.013523,0.002678,0.000431,0.004584
29593000,0.0324,0.013523,0.002678,0.000431,0.008345
29594000,0.0324,0.013523,0.002678,0.000431,0.008462
29595000,0.0324,0.013523,0.002678,0.000431,0.004701
29596000,0.0324,0.013523,0.002678,0.000431,0.004701
29597000,0.0324,0.013523,0.002678,0.000431,0.012223
29598000,0.0324,0.013523,0.002678,0.000431,0.004701
29599000,0.0324,0.013523,0.002678,0.000431,0.004701
29600000,0.0324,0.013523,0.002678,0.000431,0.012223
29601000,0.0324,0.013523,0.002678,0.000431,0.004701
29602000,0.0324,0.013523,0.002678,0.000431,0.004701
29603000,0.0324,0.013523,0.002678,0.000431,0.004466
29604000,0.0324,0.013523,0.002678,0.000431,0.004701
29605000,0.0324,0.013523,0.002678,0.000431,0.004701
29606000,0.0324,0.013523,0.002678,0.000431,0.016689
29607000,0.0324,0.013523,0.002678,0.000431,0.082740
29608000,0.0324,0.013523,0.002678,0.000431,0.012223
29609000,0.0324,0.013523,0.002678,0.000431,0.005406
29610000,0.0324,0.013523,0.002678,0.000431,0.026561
29611000,0.0324,0.013523,0.002678,0.000431,0.004466
29612000,0.0324,0.013523,0.002678,0.000431,0.004701
29613000,0.0324,0.013523,0.002678,0.000431,0.028089
29614000,0.0324,0.013523,0.002678,0.000431,0.101662
29615000,0.0324,0.013523,0.002678,0.000431,0.004701
29616000,0.0324,0.013523,0.002678,0.000431,0.066991
29617000,0.0324,0.013523,0.002678,0.000431,0.381614
29618000,0.0324,0.013523,0.002678,0.000431,0.254213
29619000,0.0324,0.013523,0.002678,0.000431,0.004701
29620000,0.0324,0.013523,0.002678,0.000431,0.047834
29621000,0.0324,0.013523,0.002678,0.000431,0.296876
29622000,0.0324,0.013523,0.002678,0.000431,0.203559
29623000,0.0324,0.013523,0.002678,0.000431,0.032085
29624000,0.0324,0.013523,0.002678,0.000431,0.004701
29625000,0.0324,0.013523,0.002678,0.000431,0.004701
29626000,0.0324,0.013523,0.002678,0.000431,0.004701
29627000,0.0324,0.013523,0.002678,0.000431,0.004701
29628000,0.0324,0.013523,0.002678,0.000431,0.004701
29629000,0.0324,0.013523,0.002678,0.000431,0.054533
29630000,0.0324,0.013523,0.002678,0.000431,0.014809
29631000,0.0324,0.013523,0.002678,0.000431,0.004701
29632000,0.0324,0.013523,0.002678,0.000431,0.004701
29633000,0.0324,0.013523,0.002678,0.000431,0.004701
29634000,0.0324,0.013523,0.002678,0.000431,0.012223
29635000,0.0324,0.013523,0.002678,0.000431,0.004701
29636000,0.0324,0.013523,0.002678,0.000431,0.004701
29637000,0.0324,0.013523,0.002678,0.000431,0.011988
29638000,0.0324,0.013523,0.002678,0.000431,0.012223
29639000,0.0324,0.013523,0.002678,0.000431,0.004701
29640000,0.0324,0.013523,0.002678,0.000431,0.004701
29641000,0.0324,0.013523,0.002678,0.000431,0.004819
29642000,0.0324,0.013523,0.002678,0.000431,0.019627
29643000,0.0324,0.013523,0.002678,0.000431,0.004701
29644000,0.0324,0.013523,0.002678,0.000431,0.019745
29645000,0.0324,0.013523,0.002678,0.000431,0.004701
29646000,0.0324,0.013523,0.002678,0.000431,0.004701
29647000,0.0324,0.013523,0.002678,0.000431,0.004701
29648000,0.0324,0.013523,0.002678,0.000431,0.004701
29649000,0.0324,0.013523,0.002678,0.000431,0.019745
29650000,0.0324,0.013523,0.002678,0.000431,0.011988
29651000,0.0324,0.013523,0.002678,0.000431,0.109536
29652000,0.0324,0.013523,0.002678,0.000431,0.004701
29653000,0.0324,0.013523,0.002678,0.000431,0.004701
29654000,0.0324,0.013523,0.002678,0.000431,0.004466
29655000,0.0324,0.013523,0.002678,0.000431,0.019745
29656000,0.0324,0.013523,0.002678,0.000431,0.004701
29657000,0.0324,0.013523,0.002678,0.000431,0.004701
29658000,0.0324,0.013523,0.002678,0.000431,0.004701
29659000,0.0324,0.013523,0.002678,0.000431,0.004701
29660000,0.0324,0.013523,0.002678,0.000431,0.004701
29661000,0.0324,0.013523,0.002678,0.000431,0.004701
29662000,0.0324,0.013523,0.002678,0.000431,0.004701
29663000,0.0324,0.013523,0.002678,0.000431,0.012223
29664000,0.0324,0.013523,0.002678,0.000431,0.019510
29665000,0.0324,0.013523,0.002678,0.000431,0.004701
29666000,0.0324,0.013523,0.002678,0.000431,0.004701
29667000,0.0324,0.013523,0.002678,0.000431,0.012223
29668000,0.0324,0.013523,0.002678,0.000431,0.004701
29669000,0.0324,0.013523,0.002678,0.000431,0.004701
29670000,0.0324,0.013523,0.002678,0.000431,0.008462
29671000,0.0324,0.013523,0.002678,0.000431,0.008462
29672000,0.0324,0.013523,0.002678,0.000431,0.004701
29673000,0.0324,0.013523,0.002678,0.000431,0.004701
29674000,0.0324,0.013523,0.002678,0.000431,0.004701
29675000,0.0324,0.013523,0.002678,0.000431,0.012223
29676000,0.0324,0.013523,0.002678,0.000431,0.033260
29677000,0.0324,0.013523,0.002678,0.000431,0.006229
29678000,0.0324,0.013523,0.002678,0.000431,0.004466
29679000,0.0324,0.013523,0.002678,0.000431,0.004701
29680000,0.0324,0.013523,0.002678,0.000431,0.019745
29681000,0.0324,0.013523,0.002678,0.000431,0.004584
29682000,0.0324,0.013523,0.002678,0.000431,0.004584
29683000,0.0324,0.013523,0.002678,0.000431,0.031733
29684000,0.0324,0.013523,0.002678,0.000431,0.007757
29685000,0.0324,0.013523,0.002678,0.000431,0.004701
29686000,0.0324,0.013523,0.002678,0.000431,0.004701
29687000,0.0324,0.013523,0.002678,0.000431,0.008462
29688000,0.0324,0.013523,0.002678,0.000431,0.008462
29689000,0.0324,0.013523,0.002678,0.000431,0.012223
29690000,0.0324,0.013523,0.002678,0.000431,0.019745
29691000,0.0324,0.013523,0.002678,0.000431,0.004701
29692000,0.0324,0.013523,0.002678,0.000431,0.004701
29693000,0.0324,0.013523,0.002678,0.000431,0.004701
29694000,0.0324,0.013523,0.002678,0.000431,0.004466
29695000,0.0324,0.013523,0.002678,0.000431,0.004701
29696000,0.0324,0.013523,0.002678,0.000431,0.027267
29697000,0.0324,0.013523,0.002678,0.000431,0.004584
29698000,0.0324,0.013523,0.002678,0.000431,0.004584
29699000,0.0324,0.013523,0.002678,0.000431,0.004701
29700000,0.0324,0.013523,0.002678,0.000431,0.004701
29701000,0.0324,0.013523,0.002678,0.000431,0.004701
29702000,0.0324,0.013523,0.002678,0.000431,0.015631
29703000,0.0324,0.013523,0.002678,0.000431,0.023858
29704000,0.0324,0.013523,0.002678,0.000431,0.004701
29705000,0.0324,0.013523,0.002678,0.000431,0.004701
29706000,0.0324,0.013523,0.002678,0.000431,0.042310
29707000,0.0324,0.013523,0.002678,0.000431,0.004701
29708000,0.0324,0.013523,0.002678,0.000431,0.004701
29709000,0.0324,0.013523,0.002678,0.000431,0.064876
29710000,0.0324,0.013523,0.002678,0.000431,0.004701
29711000,0.0324,0.013523,0.002678,0.000431,0.004701
29712000,0.0324,0.013523,0.002678,0.000431,0.065698
29713000,0.0324,0.013523,0.002678,0.000431,0.011400
29714000,0.0324,0.013523,0.002678,0.000431,0.004701
29715000,0.0324,0.013523,0.002678,0.000431,0.008227
29716000,0.0324,0.013523,0.002678,0.000431,0.220483
29717000,0.0324,0.013523,0.002678,0.000431,0.011048
29718000,0.0324,0.013523,0.002678,0.000431,0.004466
29719000,0.0324,0.013523,0.002678,0.000431,0.072162
29720000,0.0324,0.013523,0.002678,0.000431,0.101427
29721000,0.0324,0.013523,0.002678,0.000431,0.020567
29722000,0.0324,0.013523,0.002678,0.000431,0.012223
29723000,0.0324,0.013523,0.002678,0.000431,0.012223
29724000,0.0324,0.013523,0.002678,0.000431,0.004701
29725000,0.0324,0.013523,0.002678,0.000431,0.004701
29726000,0.0324,0.013523,0.002678,0.000431,0.109536
29727000,0.0324,0.013523,0.002678,0.000431,0.139388
29728000,0.0324,0.013523,0.002678,0.000431,0.004701
29729000,0.0324,0.013523,0.002678,0.000431,0.034671
29730000,0.0324,0.013523,0.002678,0.000431,0.004349
29731000,0.0324,0.013523,0.002678,0.000431,0.004701
29732000,0.0324,0.013523,0.002678,0.000431,0.004701
29733000,0.0324,0.013523,0.002678,0.000431,0.049597
29734000,0.0324,0.013523,0.002678,0.000431,0.057354
29735000,0.0324,0.013523,0.002678,0.000431,0.057354
29736000,0.0324,0.013523,0.002678,0.000431,0.004701
29737000,0.0324,0.013523,0.002678,0.000431,0.004701
29738000,0.0324,0.013523,0.002678,0.000431,0.004701
29739000,0.0324,0.013523,0.002678,0.000431,0.004701
29740000,0.0324,0.013523,0.002678,0.000431,0.004584
29741000,0.0324,0.013523,0.002678,0.000431,0.004584
29742000,0.0324,0.013523,0.002678,0.000431,0.004701
29743000,0.0324,0.013523,0.002678,0.000431,0.004701
29744000,0.0324,0.013523,0.002678,0.000431,0.004701
29745000,0.0324,0.013523,0.002678,0.000431,0.004701
29746000,0.0324,0.013523,0.002678,0.000431,0.004701
29747000,0.0324,0.013523,0.002678,0.000431,0.004701
29748000,0.0324,0.013523,0.002678,0.000431,0.042310
29749000,0.0324,0.013523,0.002678,0.000431,0.004701
29750000,0.0324,0.013523,0.002678,0.000431,0.004701
29751000,0.0324,0.013523,0.002678,0.000431,0.004701
29752000,0.0324,0.013523,0.002678,0.000431,0.013986
29753000,0.0324,0.013523,0.002678,0.000431,0.010460
29754000,0.0324,0.013523,0.002678,0.000431,0.004701
29755000,0.0324,0.013523,0.002678,0.000431,0.079684
29756000,0.0324,0.013523,0.002678,0.000431,0.004466
29757000,0.0324,0.013523,0.002678,0.000431,0.004701
29758000,0.0324,0.013523,0.002678,0.000431,0.004701
29759000,0.0324,0.013523,0.002678,0.000431,0.011988
29760000,0.0324,0.013523,0.002678,0.000431,0.034788
29761000,0.0324,0.013523,0.002678,0.000431,0.023506
29762000,0.0324,0.013523,0.002678,0.000431,0.023506
29763000,0.0324,0.013523,0.002678,0.000431,0.004701
29764000,0.0324,0.013523,0.002678,0.000431,0.004701
29765000,0.0324,0.013523,0.002678,0.000431,0.004701
29766000,0.0324,0.013523,0.002678,0.000431,0.004701
29767000,0.0324,0.013523,0.002678,0.000431,0.004701
29768000,0.0324,0.013523,0.002678,0.000431,0.012223
29769000,0.0324,0.013523,0.002678,0.000431,0.004701
29770000,0.0324,0.013523,0.002678,0.000431,0.004701
29771000,0.0324,0.013523,0.002678,0.000431,0.004701
29772000,0.0324,0.013523,0.002678,0.000431,0.004701
29773000,0.0324,0.013523,0.002678,0.000431,0.004701
29774000,0.0324,0.013523,0.002678,0.000431,0.014338
29775000,0.0324,0.013523,0.002678,0.000431,0.017629
29776000,0.0324,0.013523,0.002678,0.000431,0.004701
29777000,0.0324,0.013523,0.002678,0.000431,0.004701
29778000,0.0324,0.013523,0.002678,0.000431,0.004701
29779000,0.0324,0.013523,0.002678,0.000431,0.004701
29780000,0.0324,0.013523,0.002678,0.000431,0.004584
29781000,0.0324,0.013523,0.002678,0.000431,0.027149
29782000,0.0324,0.013523,0.002678,0.000431,0.004701
29783000,0.0324,0.013523,0.002678,0.000431,0.004701
29784000,0.0324,0.013523,0.002678,0.000431,0.004701
29785000,0.0324,0.013523,0.002678,0.000431,0.004466
29786000,0.0324,0.013523,0.002678,0.000431,0.004701
29787000,0.0324,0.013523,0.002678,0.000431,0.031027
29788000,0.0324,0.013523,0.002678,0.000431,0.008462
29789000,0.0324,0.013523,0.002678,0.000431,0.004701
29790000,0.0324,0.013523,0.002678,0.000431,0.004701
29791000,0.0324,0.013523,0.002678,0.000431,0.004701
29792000,0.0324,0.013523,0.002678,0.000431,0.034788
29793000,0.0324,0.013523,0.002678,0.000431,0.004701
29794000,0.0324,0.013523,0.002678,0.000431,0.012223
29795000,0.0324,0.013523,0.002678,0.000431,0.004584
29796000,0.0324,0.013523,0.002678,0.000431,0.004349
29797000,0.0324,0.013523,0.002678,0.000431,0.004701
29798000,0.0324,0.013523,0.002678,0.000431,0.034788
29799000,0.0324,0.013523,0.002678,0.000431,0.027267
29800000,0.0324,0.013523,0.002678,0.000431,0.015984
29801000,0.0324,0.013523,0.002678,0.000431,0.023506
29802000,0.0324,0.013523,0.002678,0.000431,0.004701
29803000,0.0324,0.013523,0.002678,0.000431,0.004701
29804000,0.0324,0.013523,0.002678,0.000431,0.004701
29805000,0.0324,0.013523,0.002678,0.000431,0.057354
29806000,0.0324,0.013523,0.002678,0.000431,0.004701
29807000,0.0324,0.013523,0.002678,0.000431,0.082387
29808000,0.0324,0.013523,0.002678,0.000431,0.057941
29809000,0.0324,0.013523,0.002678,0.000431,0.016689
29810000,0.0324,0.013523,0.002678,0.000431,0.004701
29811000,0.0324,0.013523,0.002678,0.000431,0.012223
29812000,0.0324,0.013523,0.002678,0.000431,0.057354
29813000,0.0324,0.013523,0.002678,0.000431,0.004701
29814000,0.0324,0.013523,0.002678,0.000431,0.057354
29815000,0.0324,0.013523,0.002678,0.000431,0.049832
29816000,0.0324,0.013523,0.002678,0.000431,0.004701
29817000,0.0324,0.013523,0.002678,0.000431,0.004701
29818000,0.0324,0.013523,0.002678,0.000431,0.012458
29819000,0.0324,0.013523,0.002678,0.000431,0.019745
29820000,0.0324,0.013523,0.002678,0.000431,0.004701
29821000,0.0324,0.013523,0.002678,0.000431,0.078156
29822000,0.0324,0.013523,0.002678,0.000431,0.188633
29823000,0.0324,0.013523,0.002678,0.000431,0.021625
29824000,0.0324,0.013523,0.002678,0.000431,0.015984
29825000,0.0324,0.013523,0.002678,0.000431,0.122934
29826000,0.0324,0.013523,0.002678,0.000431,0.160543
29827000,0.0324,0.013523,0.002678,0.000431,0.016101
29828000,0.0324,0.013523,0.002678,0.000431,0.175822
29829000,0.0324,0.013523,0.002678,0.000431,0.028324
29830000,0.0324,0.013523,0.002678,0.000431,0.004701
29831000,0.0324,0.013523,0.002678,0.000431,0.004701
29832000,0.0324,0.013523,0.002678,0.000431,0.004819
29833000,0.0324,0.013523,0.002678,0.000431,0.237172
29834000,0.0324,0.013523,0.002678,0.000431,0.064758
29835000,0.0324,0.013523,0.002678,0.000431,0.019745
29836000,0.0324,0.013523,0.002678,0.000431,0.004701
29837000,0.0324,0.013523,0.002678,0.000431,0.004701
29838000,0.0324,0.013523,0.002678,0.000431,0.004701
29839000,0.0324,0.013523,0.002678,0.000431,0.004819
29840000,0.0324,0.013523,0.002678,0.000431,0.057236
29841000,0.0324,0.013523,0.002678,0.000431,0.012223
29842000,0.0324,0.013523,0.002678,0.000431,0.004701
29843000,0.0324,0.013523,0.002678,0.000431,0.004701
29844000,0.0324,0.013523,0.002678,0.000431,0.004701
29845000,0.0324,0.013523,0.002678,0.000431,0.004701
29846000,0.0324,0.013523,0.002678,0.000431,0.008462
29847000,0.0324,0.013523,0.002678,0.000431,0.012223
29848000,0.0324,0.013523,0.002678,0.000431,0.015984
29849000,0.0324,0.013523,0.002678,0.000431,0.004701
29850000,0.0324,0.013523,0.002678,0.000431,0.004701
29851000,0.0324,0.013523,0.002678,0.000431,0.004701
29852000,0.0324,0.013523,0.002678,0.000431,0.004701
29853000,0.0324,0.013523,0.002678,0.000431,0.004701
29854000,0.0324,0.013523,0.002678,0.000431,0.029970
29855000,0.0324,0.013523,0.002678,0.000431,0.024563
29856000,0.0324,0.013523,0.002678,0.000431,0.004701
29857000,0.0324,0.013523,0.002678,0.000431,0.004701
29858000,0.0324,0.013523,0.002678,0.000431,0.004466
29859000,0.0324,0.013523,0.002678,0.000431,0.004701
29860000,0.0324,0.013523,0.002678,0.000431,0.004701
29861000,0.0324,0.013523,0.002678,0.000431,0.012223
29862000,0.0324,0.013523,0.002678,0.000431,0.004584
29863000,0.0324,0.013523,0.002678,0.000431,0.004584
29864000,0.0324,0.013523,0.002678,0.000431,0.004701
29865000,0.0324,0.013523,0.002678,0.000431,0.004701
29866000,0.0324,0.013523,0.002678,0.000431,0.004701
29867000,0.0324,0.013523,0.002678,0.000431,0.042310
29868000,0.0324,0.013523,0.002678,0.000431,0.004584
29869000,0.0324,0.013523,0.002678,0.000431,0.004584
29870000,0.0324,0.013523,0.002678,0.000431,0.004701
29871000,0.0324,0.013523,0.002678,0.000431,0.004701
29872000,0.0324,0.013523,0.002678,0.000431,0.012223
29873000,0.0324,0.013523,0.002678,0.000431,0.004466
29874000,0.0324,0.013523,0.002678,0.000431,0.027267
29875000,0.0324,0.013523,0.002678,0.000431,0.004701
29876000,0.0324,0.013523,0.002678,0.000431,0.004701
29877000,0.0324,0.013523,0.002678,0.000431,0.004701
29878000,0.0324,0.013523,0.002678,0.000431,0.019745
29879000,0.0324,0.013523,0.002678,0.000431,0.004701
29880000,0.0324,0.013523,0.002678,0.000431,0.008697
29881000,0.0324,0.013523,0.002678,0.000431,0.008462
29882000,0.0324,0.013523,0.002678,0.000431,0.004701
29883000,0.0324,0.013523,0.002678,0.000431,0.004701
29884000,0.0324,0.013523,0.002678,0.000431,0.004466
29885000,0.0324,0.013523,0.002678,0.000431,0.049832
29886000,0.0324,0.013523,0.002678,0.000431,0.008462
29887000,0.0324,0.013523,0.002678,0.000431,0.008462
29888000,0.0324,0.013523,0.002678,0.000431,0.004701
29889000,0.0324,0.013523,0.002678,0.000431,0.004701
29890000,0.0324,0.013523,0.002678,0.000431,0.004701
29891000,0.0324,0.013523,0.002678,0.000431,0.021860
29892000,0.0324,0.013523,0.002678,0.000431,0.025151
29893000,0.0324,0.013523,0.002678,0.000431,0.042310
29894000,0.0324,0.013523,0.002678,0.000431,0.004584
29895000,0.0324,0.013523,0.002678,0.000431,0.004349
29896000,0.0324,0.013523,0.002678,0.000431,0.004701
29897000,0.0324,0.013523,0.002678,0.000431,0.004701
29898000,0.0324,0.013523,0.002678,0.000431,0.012223
29899000,0.0324,0.013523,0.002678,0.000431,0.004466
29900000,0.0324,0.013523,0.002678,0.000431,0.012223
29901000,0.0324,0.013523,0.002678,0.000431,0.004701
29902000,0.0324,0.013523,0.002678,0.000431,0.004701
29903000,0.0324,0.013523,0.002678,0.000431,0.004701
29904000,0.0324,0.013523,0.002678,0.000431,0.012223
29905000,0.0324,0.013523,0.002678,0.000431,0.004701
29906000,0.0324,0.013523,0.002678,0.000431,0.027267
29907000,0.0324,0.013523,0.002678,0.000431,0.004701
29908000,0.0324,0.013523,0.002678,0.000431,0.004701
29909000,0.0324,0.013523,0.002678,0.000431,0.004701
29910000,0.0324,0.013523,0.002678,0.000431,0.004701
29911000,0.0324,0.013523,0.002678,0.000431,0.004701
29912000,0.0324,0.013523,0.002678,0.000431,0.023271
29913000,0.0324,0.013523,0.002678,0.000431,0.127871
29914000,0.0324,0.013523,0.002678,0.000431,0.005406
29915000,0.0324,0.013523,0.002678,0.000431,0.004701
29916000,0.0324,0.013523,0.002678,0.000431,0.004701
29917000,0.0324,0.013523,0.002678,0.000431,0.004701
29918000,0.0324,0.013523,0.002678,0.000431,0.004701
29919000,0.0324,0.013523,0.002678,0.000431,0.057354
29920000,0.0324,0.013523,0.002678,0.000431,0.012223
29921000,0.0324,0.013523,0.002678,0.000431,0.004701
29922000,0.0324,0.013523,0.002678,0.000431,0.004701
29923000,0.0324,0.013523,0.002678,0.000431,0.007169
29924000,0.0324,0.013523,0.002678,0.000431,0.039842
29925000,0.0324,0.013523,0.002678,0.000431,0.012693
29926000,0.0324,0.013523,0.002678,0.000431,0.123992
29927000,0.0324,0.013523,0.002678,0.000431,0.109419
29928000,0.0324,0.013523,0.002678,0.000431,0.004701
29929000,0.0324,0.013523,0.002678,0.000431,0.004701
29930000,0.0324,0.013523,0.002678,0.000431,0.052888
29931000,0.0324,0.013523,0.002678,0.000431,0.308159
29932000,0.0324,0.013523,0.002678,0.000431,0.023271
29933000,0.0324,0.013523,0.002678,0.000431,0.027267
29934000,0.0324,0.013523,0.002678,0.000431,0.008462
29935000,0.0324,0.013523,0.002678,0.000431,0.004701
29936000,0.0324,0.013523,0.002678,0.000431,0.004466
29937000,0.0324,0.013523,0.002678,0.000431,0.004701
29938000,0.0324,0.013523,0.002678,0.000431,0.117528
29939000,0.0324,0.013523,0.002678,0.000431,0.049832
29940000,0.0324,0.013523,0.002678,0.000431,0.019745
29941000,0.0324,0.013523,0.002678,0.000431,0.004466
29942000,0.0324,0.013523,0.002678,0.000431,0.004701
29943000,0.0324,0.013523,0.002678,0.000431,0.004701
29944000,0.0324,0.013523,0.002678,0.000431,0.004701
29945000,0.0324,0.013523,0.002678,0.000431,0.087441
29946000,0.0324,0.013523,0.002678,0.000431,0.012223
29947000,0.0324,0.013523,0.002678,0.000431,0.004701
29948000,0.0324,0.013523,0.002678,0.000431,0.004701
29949000,0.0324,0.013523,0.002678,0.000431,0.004701
29950000,0.0324,0.013523,0.002678,0.000431,0.004701
29951000,0.0324,0.013523,0.002678,0.000431,0.004701
29952000,0.0324,0.013523,0.002678,0.000431,0.027267
29953000,0.0324,0.013523,0.002678,0.000431,0.004584
29954000,0.0324,0.013523,0.002678,0.000431,0.004584
29955000,0.0324,0.013523,0.002678,0.000431,0.004701
29956000,0.0324,0.013523,0.002678,0.000431,0.004701
29957000,0.0324,0.013523,0.002678,0.000431,0.027267
29958000,0.0324,0.013523,0.002678,0.000431,0.004701
29959000,0.0324,0.013523,0.002678,0.000431,0.004701
29960000,0.0324,0.013523,0.002678,0.000431,0.012223
29961000,0.0324,0.013523,0.002678,0.000431,0.004701
29962000,0.0324,0.013523,0.002678,0.000431,0.004701
29963000,0.0324,0.013523,0.002678,0.000431,0.006464
29964000,0.0324,0.013523,0.002678,0.000431,0.025504
29965000,0.0324,0.013523,0.002678,0.000431,0.019745
29966000,0.0324,0.013523,0.002678,0.000431,0.004701
29967000,0.0324,0.013523,0.002678,0.000431,0.004701
29968000,0.0324,0.013523,0.002678,0.000431,0.004701
29969000,0.0324,0.013523,0.002678,0.000431,0.004466
29970000,0.0324,0.013523,0.002678,0.000431,0.012223
29971000,0.0324,0.013523,0.002678,0.000431,0.019745
29972000,0.0324,0.013523,0.002678,0.000431,0.012105
29973000,0.0324,0.013523,0.002678,0.000431,0.004584
29974000,0.0324,0.013523,0.002678,0.000431,0.004701
29975000,0.0324,0.013523,0.002678,0.000431,0.004701
29976000,0.0324,0.013523,0.002678,0.000431,0.012223
29977000,0.0324,0.013523,0.002678,0.000431,0.012223
29978000,0.0324,0.013523,0.002678,0.000431,0.004701
29979000,0.0324,0.013523,0.002678,0.000431,0.012223
29980000,0.0324,0.013523,0.002678,0.000431,0.004701
29981000,0.0324,0.013523,0.002678,0.000431,0.004466
29982000,0.0324,0.013523,0.002678,0.000431,0.004701
29983000,0.0324,0.013523,0.002678,0.000431,0.019745
29984000,0.0324,0.013523,0.002678,0.000431,0.004701
29985000,0.0324,0.013523,0.002678,0.000431,0.004701
29986000,0.0324,0.013523,0.002678,0.000431,0.004701
29987000,0.0324,0.013523,0.002678,0.000431,0.004701
29988000,0.0324,0.013523,0.002678,0.000431,0.004701
29989000,0.0324,0.013523,0.002678,0.000431,0.004701
29990000,0.0324,0.013523,0.002678,0.000431,0.004701
29991000,0.0324,0.013523,0.002678,0.000431,0.005289
29992000,0.0324,0.013523,0.002678,0.000431,0.019157
29993000,0.0324,0.013523,0.002678,0.000431,0.004701
29994000,0.0324,0.013523,0.002678,0.000431,0.004466
29995000,0.0324,0.013523,0.002678,0.000431,0.004701
29996000,0.0324,0.013523,0.002678,0.000431,0.012223
29997000,0.0324,0.013523,0.002678,0.000431,0.004701
29998000,0.0324,0.013523,0.002678,0.000431,0.019980
29999000,0.0324,0.013523,0.002678,0.000431,0.004701
