Cycle,Area(mm^2),PeakDynamic(W),SubthresholdLeakage(W),GateLeakage(W),RunTimeDynamic(W)
31000000,0.0324,0.013523,0.002678,0.000431,0.004701
31001000,0.0324,0.013523,0.002678,0.000431,0.057354
31002000,0.0324,0.013523,0.002678,0.000431,0.004701
31003000,0.0324,0.013523,0.002678,0.000431,0.004701
31004000,0.0324,0.013523,0.002678,0.000431,0.083680
31005000,0.0324,0.013523,0.002678,0.000431,0.008462
31006000,0.0324,0.013523,0.002678,0.000431,0.004701
31007000,0.0324,0.013523,0.002678,0.000431,0.004584
31008000,0.0324,0.013523,0.002678,0.000431,0.004584
31009000,0.0324,0.013523,0.002678,0.000431,0.004701
31010000,0.0324,0.013523,0.002678,0.000431,0.004701
31011000,0.0324,0.013523,0.002678,0.000431,0.012105
31012000,0.0324,0.013523,0.002678,0.000431,0.004584
31013000,0.0324,0.013523,0.002678,0.000431,0.004701
31014000,0.0324,0.013523,0.002678,0.000431,0.012223
31015000,0.0324,0.013523,0.002678,0.000431,0.004701
31016000,0.0324,0.013523,0.002678,0.000431,0.004701
31017000,0.0324,0.013523,0.002678,0.000431,0.065111
31018000,0.0324,0.013523,0.002678,0.000431,0.008462
31019000,0.0324,0.013523,0.002678,0.000431,0.008462
31020000,0.0324,0.013523,0.002678,0.000431,0.004701
31021000,0.0324,0.013523,0.002678,0.000431,0.004701
31022000,0.0324,0.013523,0.002678,0.000431,0.004701
31023000,0.0324,0.013523,0.002678,0.000431,0.081800
31024000,0.0324,0.013523,0.002678,0.000431,0.025151
31025000,0.0324,0.013523,0.002678,0.000431,0.049832
31026000,0.0324,0.013523,0.002678,0.000431,0.008462
31027000,0.0324,0.013523,0.002678,0.000431,0.008227
31028000,0.0324,0.013523,0.002678,0.000431,0.004701
31029000,0.0324,0.013523,0.002678,0.000431,0.083798
31030000,0.0324,0.013523,0.002678,0.000431,0.053710
31031000,0.0324,0.013523,0.002678,0.000431,0.004701
31032000,0.0324,0.013523,0.002678,0.000431,0.004701
31033000,0.0324,0.013523,0.002678,0.000431,0.034788
31034000,0.0324,0.013523,0.002678,0.000431,0.004701
31035000,0.0324,0.013523,0.002678,0.000431,0.004701
31036000,0.0324,0.013523,0.002678,0.000431,0.092847
31037000,0.0324,0.013523,0.002678,0.000431,0.021860
31038000,0.0324,0.013523,0.002678,0.000431,0.004701
31039000,0.0324,0.013523,0.002678,0.000431,0.012223
31040000,0.0324,0.013523,0.002678,0.000431,0.004701
31041000,0.0324,0.013523,0.002678,0.000431,0.019980
31042000,0.0324,0.013523,0.002678,0.000431,0.004701
31043000,0.0324,0.013523,0.002678,0.000431,0.004701
31044000,0.0324,0.013523,0.002678,0.000431,0.004466
31045000,0.0324,0.013523,0.002678,0.000431,0.004701
31046000,0.0324,0.013523,0.002678,0.000431,0.019745
31047000,0.0324,0.013523,0.002678,0.000431,0.027031
31048000,0.0324,0.013523,0.002678,0.000431,0.004701
31049000,0.0324,0.013523,0.002678,0.000431,0.022565
31050000,0.0324,0.013523,0.002678,0.000431,0.024446
31051000,0.0324,0.013523,0.002678,0.000431,0.004584
31052000,0.0324,0.013523,0.002678,0.000431,0.005524
31053000,0.0324,0.013523,0.002678,0.000431,0.011283
31054000,0.0324,0.013523,0.002678,0.000431,0.004701
31055000,0.0324,0.013523,0.002678,0.000431,0.004701
31056000,0.0324,0.013523,0.002678,0.000431,0.004701
31057000,0.0324,0.013523,0.002678,0.000431,0.004701
31058000,0.0324,0.013523,0.002678,0.000431,0.004701
31059000,0.0324,0.013523,0.002678,0.000431,0.015984
31060000,0.0324,0.013523,0.002678,0.000431,0.053593
31061000,0.0324,0.013523,0.002678,0.000431,0.004701
31062000,0.0324,0.013523,0.002678,0.000431,0.004936
31063000,0.0324,0.013523,0.002678,0.000431,0.004466
31064000,0.0324,0.013523,0.002678,0.000431,0.004701
31065000,0.0324,0.013523,0.002678,0.000431,0.012223
31066000,0.0324,0.013523,0.002678,0.000431,0.015984
31067000,0.0324,0.013523,0.002678,0.000431,0.008462
31068000,0.0324,0.013523,0.002678,0.000431,0.004701
31069000,0.0324,0.013523,0.002678,0.000431,0.004701
31070000,0.0324,0.013523,0.002678,0.000431,0.004701
31071000,0.0324,0.013523,0.002678,0.000431,0.004701
31072000,0.0324,0.013523,0.002678,0.000431,0.042310
31073000,0.0324,0.013523,0.002678,0.000431,0.034788
31074000,0.0324,0.013523,0.002678,0.000431,0.004701
31075000,0.0324,0.013523,0.002678,0.000431,0.004701
31076000,0.0324,0.013523,0.002678,0.000431,0.004701
31077000,0.0324,0.013523,0.002678,0.000431,0.004701
31078000,0.0324,0.013523,0.002678,0.000431,0.004701
31079000,0.0324,0.013523,0.002678,0.000431,0.004701
31080000,0.0324,0.013523,0.002678,0.000431,0.004701
31081000,0.0324,0.013523,0.002678,0.000431,0.103542
31082000,0.0324,0.013523,0.002678,0.000431,0.048774
31083000,0.0324,0.013523,0.002678,0.000431,0.004701
31084000,0.0324,0.013523,0.002678,0.000431,0.004701
31085000,0.0324,0.013523,0.002678,0.000431,0.042310
31086000,0.0324,0.013523,0.002678,0.000431,0.004701
31087000,0.0324,0.013523,0.002678,0.000431,0.004584
31088000,0.0324,0.013523,0.002678,0.000431,0.004584
31089000,0.0324,0.013523,0.002678,0.000431,0.004701
31090000,0.0324,0.013523,0.002678,0.000431,0.004701
31091000,0.0324,0.013523,0.002678,0.000431,0.019745
31092000,0.0324,0.013523,0.002678,0.000431,0.027031
31093000,0.0324,0.013523,0.002678,0.000431,0.004701
31094000,0.0324,0.013523,0.002678,0.000431,0.022800
31095000,0.0324,0.013523,0.002678,0.000431,0.046776
31096000,0.0324,0.013523,0.002678,0.000431,0.004701
31097000,0.0324,0.013523,0.002678,0.000431,0.007757
31098000,0.0324,0.013523,0.002678,0.000431,0.009167
31099000,0.0324,0.013523,0.002678,0.000431,0.004701
31100000,0.0324,0.013523,0.002678,0.000431,0.049949
31101000,0.0324,0.013523,0.002678,0.000431,0.042193
31102000,0.0324,0.013523,0.002678,0.000431,0.004701
31103000,0.0324,0.013523,0.002678,0.000431,0.004466
31104000,0.0324,0.013523,0.002678,0.000431,0.004701
31105000,0.0324,0.013523,0.002678,0.000431,0.004701
31106000,0.0324,0.013523,0.002678,0.000431,0.004701
31107000,0.0324,0.013523,0.002678,0.000431,0.004701
31108000,0.0324,0.013523,0.002678,0.000431,0.004701
31109000,0.0324,0.013523,0.002678,0.000431,0.004584
31110000,0.0324,0.013523,0.002678,0.000431,0.012576
31111000,0.0324,0.013523,0.002678,0.000431,0.014691
31112000,0.0324,0.013523,0.002678,0.000431,0.032555
31113000,0.0324,0.013523,0.002678,0.000431,0.016219
31114000,0.0324,0.013523,0.002678,0.000431,0.076158
31115000,0.0324,0.013523,0.002678,0.000431,0.004701
31116000,0.0324,0.013523,0.002678,0.000431,0.015161
31117000,0.0324,0.013523,0.002678,0.000431,0.031850
31118000,0.0324,0.013523,0.002678,0.000431,0.004701
31119000,0.0324,0.013523,0.002678,0.000431,0.004701
31120000,0.0324,0.013523,0.002678,0.000431,0.004701
31121000,0.0324,0.013523,0.002678,0.000431,0.004701
31122000,0.0324,0.013523,0.002678,0.000431,0.004701
31123000,0.0324,0.013523,0.002678,0.000431,0.057589
31124000,0.0324,0.013523,0.002678,0.000431,0.012223
31125000,0.0324,0.013523,0.002678,0.000431,0.004701
31126000,0.0324,0.013523,0.002678,0.000431,0.004701
31127000,0.0324,0.013523,0.002678,0.000431,0.012223
31128000,0.0324,0.013523,0.002678,0.000431,0.004701
31129000,0.0324,0.013523,0.002678,0.000431,0.004701
31130000,0.0324,0.013523,0.002678,0.000431,0.004701
31131000,0.0324,0.013523,0.002678,0.000431,0.050067
31132000,0.0324,0.013523,0.002678,0.000431,0.006229
31133000,0.0324,0.013523,0.002678,0.000431,0.041017
31134000,0.0324,0.013523,0.002678,0.000431,0.004701
31135000,0.0324,0.013523,0.002678,0.000431,0.004466
31136000,0.0324,0.013523,0.002678,0.000431,0.004466
31137000,0.0324,0.013523,0.002678,0.000431,0.042310
31138000,0.0324,0.013523,0.002678,0.000431,0.004701
31139000,0.0324,0.013523,0.002678,0.000431,0.077098
31140000,0.0324,0.013523,0.002678,0.000431,0.113297
31141000,0.0324,0.013523,0.002678,0.000431,0.004701
31142000,0.0324,0.013523,0.002678,0.000431,0.004936
31143000,0.0324,0.013523,0.002678,0.000431,0.004701
31144000,0.0324,0.013523,0.002678,0.000431,0.004701
31145000,0.0324,0.013523,0.002678,0.000431,0.020097
31146000,0.0324,0.013523,0.002678,0.000431,0.042193
31147000,0.0324,0.013523,0.002678,0.000431,0.012223
31148000,0.0324,0.013523,0.002678,0.000431,0.004701
31149000,0.0324,0.013523,0.002678,0.000431,0.004701
31150000,0.0324,0.013523,0.002678,0.000431,0.026914
31151000,0.0324,0.013523,0.002678,0.000431,0.012340
31152000,0.0324,0.013523,0.002678,0.000431,0.004701
31153000,0.0324,0.013523,0.002678,0.000431,0.057824
31154000,0.0324,0.013523,0.002678,0.000431,0.004701
31155000,0.0324,0.013523,0.002678,0.000431,0.073103
31156000,0.0324,0.013523,0.002678,0.000431,0.011518
31157000,0.0324,0.013523,0.002678,0.000431,0.004701
31158000,0.0324,0.013523,0.002678,0.000431,0.012223
31159000,0.0324,0.013523,0.002678,0.000431,0.004701
31160000,0.0324,0.013523,0.002678,0.000431,0.027267
31161000,0.0324,0.013523,0.002678,0.000431,0.012105
31162000,0.0324,0.013523,0.002678,0.000431,0.027384
31163000,0.0324,0.013523,0.002678,0.000431,0.042545
31164000,0.0324,0.013523,0.002678,0.000431,0.004701
31165000,0.0324,0.013523,0.002678,0.000431,0.004701
31166000,0.0324,0.013523,0.002678,0.000431,0.027267
31167000,0.0324,0.013523,0.002678,0.000431,0.004701
31168000,0.0324,0.013523,0.002678,0.000431,0.049832
31169000,0.0324,0.013523,0.002678,0.000431,0.029147
31170000,0.0324,0.013523,0.002678,0.000431,0.062995
31171000,0.0324,0.013523,0.002678,0.000431,0.004701
31172000,0.0324,0.013523,0.002678,0.000431,0.019510
31173000,0.0324,0.013523,0.002678,0.000431,0.004584
31174000,0.0324,0.013523,0.002678,0.000431,0.004584
31175000,0.0324,0.013523,0.002678,0.000431,0.004701
31176000,0.0324,0.013523,0.002678,0.000431,0.032790
31177000,0.0324,0.013523,0.002678,0.000431,0.007404
31178000,0.0324,0.013523,0.002678,0.000431,0.012223
31179000,0.0324,0.013523,0.002678,0.000431,0.004701
31180000,0.0324,0.013523,0.002678,0.000431,0.004701
31181000,0.0324,0.013523,0.002678,0.000431,0.008462
31182000,0.0324,0.013523,0.002678,0.000431,0.008462
31183000,0.0324,0.013523,0.002678,0.000431,0.012223
31184000,0.0324,0.013523,0.002678,0.000431,0.004701
31185000,0.0324,0.013523,0.002678,0.000431,0.004701
31186000,0.0324,0.013523,0.002678,0.000431,0.006111
31187000,0.0324,0.013523,0.002678,0.000431,0.048657
31188000,0.0324,0.013523,0.002678,0.000431,0.012223
31189000,0.0324,0.013523,0.002678,0.000431,0.027267
31190000,0.0324,0.013523,0.002678,0.000431,0.013986
31191000,0.0324,0.013523,0.002678,0.000431,0.025269
31192000,0.0324,0.013523,0.002678,0.000431,0.004701
31193000,0.0324,0.013523,0.002678,0.000431,0.011870
31194000,0.0324,0.013523,0.002678,0.000431,0.072750
31195000,0.0324,0.013523,0.002678,0.000431,0.004701
31196000,0.0324,0.013523,0.002678,0.000431,0.004701
31197000,0.0324,0.013523,0.002678,0.000431,0.012223
31198000,0.0324,0.013523,0.002678,0.000431,0.004701
31199000,0.0324,0.013523,0.002678,0.000431,0.004701
31200000,0.0324,0.013523,0.002678,0.000431,0.019745
31201000,0.0324,0.013523,0.002678,0.000431,0.004701
31202000,0.0324,0.013523,0.002678,0.000431,0.012223
31203000,0.0324,0.013523,0.002678,0.000431,0.030087
31204000,0.0324,0.013523,0.002678,0.000431,0.054768
31205000,0.0324,0.013523,0.002678,0.000431,0.004701
31206000,0.0324,0.013523,0.002678,0.000431,0.108714
31207000,0.0324,0.013523,0.002678,0.000431,0.059234
31208000,0.0324,0.013523,0.002678,0.000431,0.004584
31209000,0.0324,0.013523,0.002678,0.000431,0.004701
31210000,0.0324,0.013523,0.002678,0.000431,0.019980
31211000,0.0324,0.013523,0.002678,0.000431,0.004701
31212000,0.0324,0.013523,0.002678,0.000431,0.014221
31213000,0.0324,0.013523,0.002678,0.000431,0.047716
31214000,0.0324,0.013523,0.002678,0.000431,0.004584
31215000,0.0324,0.013523,0.002678,0.000431,0.019745
31216000,0.0324,0.013523,0.002678,0.000431,0.038549
31217000,0.0324,0.013523,0.002678,0.000431,0.038549
31218000,0.0324,0.013523,0.002678,0.000431,0.004701
31219000,0.0324,0.013523,0.002678,0.000431,0.032555
31220000,0.0324,0.013523,0.002678,0.000431,0.006934
31221000,0.0324,0.013523,0.002678,0.000431,0.027267
31222000,0.0324,0.013523,0.002678,0.000431,0.004701
31223000,0.0324,0.013523,0.002678,0.000431,0.004701
31224000,0.0324,0.013523,0.002678,0.000431,0.004701
31225000,0.0324,0.013523,0.002678,0.000431,0.004701
31226000,0.0324,0.013523,0.002678,0.000431,0.079919
31227000,0.0324,0.013523,0.002678,0.000431,0.004701
31228000,0.0324,0.013523,0.002678,0.000431,0.012223
31229000,0.0324,0.013523,0.002678,0.000431,0.031262
31230000,0.0324,0.013523,0.002678,0.000431,0.008462
31231000,0.0324,0.013523,0.002678,0.000431,0.004701
31232000,0.0324,0.013523,0.002678,0.000431,0.042545
31233000,0.0324,0.013523,0.002678,0.000431,0.004701
31234000,0.0324,0.013523,0.002678,0.000431,0.012223
31235000,0.0324,0.013523,0.002678,0.000431,0.012340
31236000,0.0324,0.013523,0.002678,0.000431,0.012340
31237000,0.0324,0.013523,0.002678,0.000431,0.004701
31238000,0.0324,0.013523,0.002678,0.000431,0.027502
31239000,0.0324,0.013523,0.002678,0.000431,0.034788
31240000,0.0324,0.013523,0.002678,0.000431,0.008462
31241000,0.0324,0.013523,0.002678,0.000431,0.008462
31242000,0.0324,0.013523,0.002678,0.000431,0.004701
31243000,0.0324,0.013523,0.002678,0.000431,0.004701
31244000,0.0324,0.013523,0.002678,0.000431,0.010107
31245000,0.0324,0.013523,0.002678,0.000431,0.059704
31246000,0.0324,0.013523,0.002678,0.000431,0.038079
31247000,0.0324,0.013523,0.002678,0.000431,0.023858
31248000,0.0324,0.013523,0.002678,0.000431,0.007522
31249000,0.0324,0.013523,0.002678,0.000431,0.009285
31250000,0.0324,0.013523,0.002678,0.000431,0.004701
31251000,0.0324,0.013523,0.002678,0.000431,0.049832
31252000,0.0324,0.013523,0.002678,0.000431,0.004584
31253000,0.0324,0.013523,0.002678,0.000431,0.004584
31254000,0.0324,0.013523,0.002678,0.000431,0.004466
31255000,0.0324,0.013523,0.002678,0.000431,0.019745
31256000,0.0324,0.013523,0.002678,0.000431,0.004584
31257000,0.0324,0.013523,0.002678,0.000431,0.098254
31258000,0.0324,0.013523,0.002678,0.000431,0.044661
31259000,0.0324,0.013523,0.002678,0.000431,0.013986
31260000,0.0324,0.013523,0.002678,0.000431,0.004701
31261000,0.0324,0.013523,0.002678,0.000431,0.008462
31262000,0.0324,0.013523,0.002678,0.000431,0.008462
31263000,0.0324,0.013523,0.002678,0.000431,0.011048
31264000,0.0324,0.013523,0.002678,0.000431,0.096608
31265000,0.0324,0.013523,0.002678,0.000431,0.004701
31266000,0.0324,0.013523,0.002678,0.000431,0.004701
31267000,0.0324,0.013523,0.002678,0.000431,0.004936
31268000,0.0324,0.013523,0.002678,0.000431,0.019745
31269000,0.0324,0.013523,0.002678,0.000431,0.004701
31270000,0.0324,0.013523,0.002678,0.000431,0.008462
31271000,0.0324,0.013523,0.002678,0.000431,0.023506
31272000,0.0324,0.013523,0.002678,0.000431,0.004701
31273000,0.0324,0.013523,0.002678,0.000431,0.004701
31274000,0.0324,0.013523,0.002678,0.000431,0.042310
31275000,0.0324,0.013523,0.002678,0.000431,0.004701
31276000,0.0324,0.013523,0.002678,0.000431,0.004701
31277000,0.0324,0.013523,0.002678,0.000431,0.064641
31278000,0.0324,0.013523,0.002678,0.000431,0.019980
31279000,0.0324,0.013523,0.002678,0.000431,0.004701
31280000,0.0324,0.013523,0.002678,0.000431,0.049832
31281000,0.0324,0.013523,0.002678,0.000431,0.012223
31282000,0.0324,0.013523,0.002678,0.000431,0.087323
31283000,0.0324,0.013523,0.002678,0.000431,0.014456
31284000,0.0324,0.013523,0.002678,0.000431,0.032438
31285000,0.0324,0.013523,0.002678,0.000431,0.010578
31286000,0.0324,0.013523,0.002678,0.000431,0.021390
31287000,0.0324,0.013523,0.002678,0.000431,0.027267
31288000,0.0324,0.013523,0.002678,0.000431,0.022800
31289000,0.0324,0.013523,0.002678,0.000431,0.061820
31290000,0.0324,0.013523,0.002678,0.000431,0.004701
31291000,0.0324,0.013523,0.002678,0.000431,0.004701
31292000,0.0324,0.013523,0.002678,0.000431,0.004701
31293000,0.0324,0.013523,0.002678,0.000431,0.004701
31294000,0.0324,0.013523,0.002678,0.000431,0.027031
31295000,0.0324,0.013523,0.002678,0.000431,0.035258
31296000,0.0324,0.013523,0.002678,0.000431,0.004584
31297000,0.0324,0.013523,0.002678,0.000431,0.004701
31298000,0.0324,0.013523,0.002678,0.000431,0.012340
31299000,0.0324,0.013523,0.002678,0.000431,0.012223
31300000,0.0324,0.013523,0.002678,0.000431,0.016336
31301000,0.0324,0.013523,0.002678,0.000431,0.038197
31302000,0.0324,0.013523,0.002678,0.000431,0.004701
31303000,0.0324,0.013523,0.002678,0.000431,0.004701
31304000,0.0324,0.013523,0.002678,0.000431,0.012223
31305000,0.0324,0.013523,0.002678,0.000431,0.004701
31306000,0.0324,0.013523,0.002678,0.000431,0.072397
31307000,0.0324,0.013523,0.002678,0.000431,0.042310
31308000,0.0324,0.013523,0.002678,0.000431,0.004701
31309000,0.0324,0.013523,0.002678,0.000431,0.004701
31310000,0.0324,0.013523,0.002678,0.000431,0.012223
31311000,0.0324,0.013523,0.002678,0.000431,0.049832
31312000,0.0324,0.013523,0.002678,0.000431,0.014456
31313000,0.0324,0.013523,0.002678,0.000431,0.044778
31314000,0.0324,0.013523,0.002678,0.000431,0.022800
31315000,0.0324,0.013523,0.002678,0.000431,0.019745
31316000,0.0324,0.013523,0.002678,0.000431,0.004466
31317000,0.0324,0.013523,0.002678,0.000431,0.004701
31318000,0.0324,0.013523,0.002678,0.000431,0.138331
31319000,0.0324,0.013523,0.002678,0.000431,0.050890
31320000,0.0324,0.013523,0.002678,0.000431,0.004701
31321000,0.0324,0.013523,0.002678,0.000431,0.004701
31322000,0.0324,0.013523,0.002678,0.000431,0.004701
31323000,0.0324,0.013523,0.002678,0.000431,0.079684
31324000,0.0324,0.013523,0.002678,0.000431,0.027267
31325000,0.0324,0.013523,0.002678,0.000431,0.034788
31326000,0.0324,0.013523,0.002678,0.000431,0.059117
31327000,0.0324,0.013523,0.002678,0.000431,0.018217
31328000,0.0324,0.013523,0.002678,0.000431,0.004466
31329000,0.0324,0.013523,0.002678,0.000431,0.004701
31330000,0.0324,0.013523,0.002678,0.000431,0.065111
31331000,0.0324,0.013523,0.002678,0.000431,0.056061
31332000,0.0324,0.013523,0.002678,0.000431,0.058882
31333000,0.0324,0.013523,0.002678,0.000431,0.027149
31334000,0.0324,0.013523,0.002678,0.000431,0.004584
31335000,0.0324,0.013523,0.002678,0.000431,0.004701
31336000,0.0324,0.013523,0.002678,0.000431,0.017747
31337000,0.0324,0.013523,0.002678,0.000431,0.074630
31338000,0.0324,0.013523,0.002678,0.000431,0.004701
31339000,0.0324,0.013523,0.002678,0.000431,0.027267
31340000,0.0324,0.013523,0.002678,0.000431,0.004701
31341000,0.0324,0.013523,0.002678,0.000431,0.004701
31342000,0.0324,0.013523,0.002678,0.000431,0.004701
31343000,0.0324,0.013523,0.002678,0.000431,0.077334
31344000,0.0324,0.013523,0.002678,0.000431,0.048892
31345000,0.0324,0.013523,0.002678,0.000431,0.008462
31346000,0.0324,0.013523,0.002678,0.000431,0.004701
31347000,0.0324,0.013523,0.002678,0.000431,0.004701
31348000,0.0324,0.013523,0.002678,0.000431,0.004701
31349000,0.0324,0.013523,0.002678,0.000431,0.064288
31350000,0.0324,0.013523,0.002678,0.000431,0.012811
31351000,0.0324,0.013523,0.002678,0.000431,0.019745
31352000,0.0324,0.013523,0.002678,0.000431,0.004701
31353000,0.0324,0.013523,0.002678,0.000431,0.004701
31354000,0.0324,0.013523,0.002678,0.000431,0.004701
31355000,0.0324,0.013523,0.002678,0.000431,0.061702
31356000,0.0324,0.013523,0.002678,0.000431,0.030675
31357000,0.0324,0.013523,0.002678,0.000431,0.012223
31358000,0.0324,0.013523,0.002678,0.000431,0.019510
31359000,0.0324,0.013523,0.002678,0.000431,0.004701
31360000,0.0324,0.013523,0.002678,0.000431,0.004701
31361000,0.0324,0.013523,0.002678,0.000431,0.004701
31362000,0.0324,0.013523,0.002678,0.000431,0.071340
31363000,0.0324,0.013523,0.002678,0.000431,0.005524
31364000,0.0324,0.013523,0.002678,0.000431,0.037139
31365000,0.0324,0.013523,0.002678,0.000431,0.055003
31366000,0.0324,0.013523,0.002678,0.000431,0.004701
31367000,0.0324,0.013523,0.002678,0.000431,0.004701
31368000,0.0324,0.013523,0.002678,0.000431,0.004701
31369000,0.0324,0.013523,0.002678,0.000431,0.042310
31370000,0.0324,0.013523,0.002678,0.000431,0.023506
31371000,0.0324,0.013523,0.002678,0.000431,0.016219
31372000,0.0324,0.013523,0.002678,0.000431,0.004701
31373000,0.0324,0.013523,0.002678,0.000431,0.004584
31374000,0.0324,0.013523,0.002678,0.000431,0.004584
31375000,0.0324,0.013523,0.002678,0.000431,0.093435
31376000,0.0324,0.013523,0.002678,0.000431,0.036316
31377000,0.0324,0.013523,0.002678,0.000431,0.004701
31378000,0.0324,0.013523,0.002678,0.000431,0.004701
31379000,0.0324,0.013523,0.002678,0.000431,0.027267
31380000,0.0324,0.013523,0.002678,0.000431,0.004701
31381000,0.0324,0.013523,0.002678,0.000431,0.004584
31382000,0.0324,0.013523,0.002678,0.000431,0.004584
31383000,0.0324,0.013523,0.002678,0.000431,0.004701
31384000,0.0324,0.013523,0.002678,0.000431,0.004701
31385000,0.0324,0.013523,0.002678,0.000431,0.004701
31386000,0.0324,0.013523,0.002678,0.000431,0.072632
31387000,0.0324,0.013523,0.002678,0.000431,0.004701
31388000,0.0324,0.013523,0.002678,0.000431,0.004701
31389000,0.0324,0.013523,0.002678,0.000431,0.012223
31390000,0.0324,0.013523,0.002678,0.000431,0.004701
31391000,0.0324,0.013523,0.002678,0.000431,0.004701
31392000,0.0324,0.013523,0.002678,0.000431,0.042310
31393000,0.0324,0.013523,0.002678,0.000431,0.004466
31394000,0.0324,0.013523,0.002678,0.000431,0.004701
31395000,0.0324,0.013523,0.002678,0.000431,0.031262
31396000,0.0324,0.013523,0.002678,0.000431,0.046071
31397000,0.0324,0.013523,0.002678,0.000431,0.004701
31398000,0.0324,0.013523,0.002678,0.000431,0.004584
31399000,0.0324,0.013523,0.002678,0.000431,0.004584
31400000,0.0324,0.013523,0.002678,0.000431,0.004701
31401000,0.0324,0.013523,0.002678,0.000431,0.049832
31402000,0.0324,0.013523,0.002678,0.000431,0.027267
31403000,0.0324,0.013523,0.002678,0.000431,0.004701
31404000,0.0324,0.013523,0.002678,0.000431,0.004701
31405000,0.0324,0.013523,0.002678,0.000431,0.034788
31406000,0.0324,0.013523,0.002678,0.000431,0.004701
31407000,0.0324,0.013523,0.002678,0.000431,0.060527
31408000,0.0324,0.013523,0.002678,0.000431,0.039137
31409000,0.0324,0.013523,0.002678,0.000431,0.027502
31410000,0.0324,0.013523,0.002678,0.000431,0.004701
31411000,0.0324,0.013523,0.002678,0.000431,0.004584
31412000,0.0324,0.013523,0.002678,0.000431,0.046894
31413000,0.0324,0.013523,0.002678,0.000431,0.019510
31414000,0.0324,0.013523,0.002678,0.000431,0.053123
31415000,0.0324,0.013523,0.002678,0.000431,0.028324
31416000,0.0324,0.013523,0.002678,0.000431,0.101662
31417000,0.0324,0.013523,0.002678,0.000431,0.004701
31418000,0.0324,0.013523,0.002678,0.000431,0.004466
31419000,0.0324,0.013523,0.002678,0.000431,0.004701
31420000,0.0324,0.013523,0.002678,0.000431,0.064641
31421000,0.0324,0.013523,0.002678,0.000431,0.013868
31422000,0.0324,0.013523,0.002678,0.000431,0.166185
31423000,0.0324,0.013523,0.002678,0.000431,0.037139
31424000,0.0324,0.013523,0.002678,0.000431,0.004701
31425000,0.0324,0.013523,0.002678,0.000431,0.004701
31426000,0.0324,0.013523,0.002678,0.000431,0.015984
31427000,0.0324,0.013523,0.002678,0.000431,0.015984
31428000,0.0324,0.013523,0.002678,0.000431,0.008462
31429000,0.0324,0.013523,0.002678,0.000431,0.135863
31430000,0.0324,0.013523,0.002678,0.000431,0.004701
31431000,0.0324,0.013523,0.002678,0.000431,0.012223
31432000,0.0324,0.013523,0.002678,0.000431,0.012223
31433000,0.0324,0.013523,0.002678,0.000431,0.054063
31434000,0.0324,0.013523,0.002678,0.000431,0.008462
31435000,0.0324,0.013523,0.002678,0.000431,0.020450
31436000,0.0324,0.013523,0.002678,0.000431,0.041605
31437000,0.0324,0.013523,0.002678,0.000431,0.014926
31438000,0.0324,0.013523,0.002678,0.000431,0.032085
31439000,0.0324,0.013523,0.002678,0.000431,0.004701
31440000,0.0324,0.013523,0.002678,0.000431,0.012223
31441000,0.0324,0.013523,0.002678,0.000431,0.004701
31442000,0.0324,0.013523,0.002678,0.000431,0.019745
31443000,0.0324,0.013523,0.002678,0.000431,0.004701
31444000,0.0324,0.013523,0.002678,0.000431,0.004701
31445000,0.0324,0.013523,0.002678,0.000431,0.004701
31446000,0.0324,0.013523,0.002678,0.000431,0.144090
31447000,0.0324,0.013523,0.002678,0.000431,0.016219
31448000,0.0324,0.013523,0.002678,0.000431,0.017629
31449000,0.0324,0.013523,0.002678,0.000431,0.014573
31450000,0.0324,0.013523,0.002678,0.000431,0.004466
31451000,0.0324,0.013523,0.002678,0.000431,0.004466
31452000,0.0324,0.013523,0.002678,0.000431,0.004701
31453000,0.0324,0.013523,0.002678,0.000431,0.004701
31454000,0.0324,0.013523,0.002678,0.000431,0.004701
31455000,0.0324,0.013523,0.002678,0.000431,0.031027
31456000,0.0324,0.013523,0.002678,0.000431,0.015866
31457000,0.0324,0.013523,0.002678,0.000431,0.072750
31458000,0.0324,0.013523,0.002678,0.000431,0.004466
31459000,0.0324,0.013523,0.002678,0.000431,0.012223
31460000,0.0324,0.013523,0.002678,0.000431,0.012223
31461000,0.0324,0.013523,0.002678,0.000431,0.027267
31462000,0.0324,0.013523,0.002678,0.000431,0.019745
31463000,0.0324,0.013523,0.002678,0.000431,0.027384
31464000,0.0324,0.013523,0.002678,0.000431,0.027149
31465000,0.0324,0.013523,0.002678,0.000431,0.004701
31466000,0.0324,0.013523,0.002678,0.000431,0.004701
31467000,0.0324,0.013523,0.002678,0.000431,0.004701
31468000,0.0324,0.013523,0.002678,0.000431,0.057354
31469000,0.0324,0.013523,0.002678,0.000431,0.004701
31470000,0.0324,0.013523,0.002678,0.000431,0.004701
31471000,0.0324,0.013523,0.002678,0.000431,0.004701
31472000,0.0324,0.013523,0.002678,0.000431,0.004701
31473000,0.0324,0.013523,0.002678,0.000431,0.004701
31474000,0.0324,0.013523,0.002678,0.000431,0.019745
31475000,0.0324,0.013523,0.002678,0.000431,0.004701
31476000,0.0324,0.013523,0.002678,0.000431,0.004701
31477000,0.0324,0.013523,0.002678,0.000431,0.004701
31478000,0.0324,0.013523,0.002678,0.000431,0.004701
31479000,0.0324,0.013523,0.002678,0.000431,0.027267
31480000,0.0324,0.013523,0.002678,0.000431,0.012223
31481000,0.0324,0.013523,0.002678,0.000431,0.027267
31482000,0.0324,0.013523,0.002678,0.000431,0.004701
31483000,0.0324,0.013523,0.002678,0.000431,0.012223
31484000,0.0324,0.013523,0.002678,0.000431,0.004701
31485000,0.0324,0.013523,0.002678,0.000431,0.085443
31486000,0.0324,0.013523,0.002678,0.000431,0.051595
31487000,0.0324,0.013523,0.002678,0.000431,0.092965
31488000,0.0324,0.013523,0.002678,0.000431,0.014221
31489000,0.0324,0.013523,0.002678,0.000431,0.004701
31490000,0.0324,0.013523,0.002678,0.000431,0.004466
31491000,0.0324,0.013523,0.002678,0.000431,0.004466
31492000,0.0324,0.013523,0.002678,0.000431,0.004701
31493000,0.0324,0.013523,0.002678,0.000431,0.015984
31494000,0.0324,0.013523,0.002678,0.000431,0.023506
31495000,0.0324,0.013523,0.002678,0.000431,0.004701
31496000,0.0324,0.013523,0.002678,0.000431,0.004701
31497000,0.0324,0.013523,0.002678,0.000431,0.004466
31498000,0.0324,0.013523,0.002678,0.000431,0.023506
31499000,0.0324,0.013523,0.002678,0.000431,0.025621
31500000,0.0324,0.013523,0.002678,0.000431,0.032673
31501000,0.0324,0.013523,0.002678,0.000431,0.004701
31502000,0.0324,0.013523,0.002678,0.000431,0.004701
31503000,0.0324,0.013523,0.002678,0.000431,0.004701
31504000,0.0324,0.013523,0.002678,0.000431,0.004701
31505000,0.0324,0.013523,0.002678,0.000431,0.004701
31506000,0.0324,0.013523,0.002678,0.000431,0.047011
31507000,0.0324,0.013523,0.002678,0.000431,0.022565
31508000,0.0324,0.013523,0.002678,0.000431,0.004701
31509000,0.0324,0.013523,0.002678,0.000431,0.004701
31510000,0.0324,0.013523,0.002678,0.000431,0.004701
31511000,0.0324,0.013523,0.002678,0.000431,0.081212
31512000,0.0324,0.013523,0.002678,0.000431,0.025974
31513000,0.0324,0.013523,0.002678,0.000431,0.064876
31514000,0.0324,0.013523,0.002678,0.000431,0.004701
31515000,0.0324,0.013523,0.002678,0.000431,0.004701
31516000,0.0324,0.013523,0.002678,0.000431,0.049832
31517000,0.0324,0.013523,0.002678,0.000431,0.004701
31518000,0.0324,0.013523,0.002678,0.000431,0.027502
31519000,0.0324,0.013523,0.002678,0.000431,0.062995
31520000,0.0324,0.013523,0.002678,0.000431,0.006582
31521000,0.0324,0.013523,0.002678,0.000431,0.004701
31522000,0.0324,0.013523,0.002678,0.000431,0.091907
31523000,0.0324,0.013523,0.002678,0.000431,0.015044
31524000,0.0324,0.013523,0.002678,0.000431,0.004701
31525000,0.0324,0.013523,0.002678,0.000431,0.011048
31526000,0.0324,0.013523,0.002678,0.000431,0.058529
31527000,0.0324,0.013523,0.002678,0.000431,0.004701
31528000,0.0324,0.013523,0.002678,0.000431,0.005289
31529000,0.0324,0.013523,0.002678,0.000431,0.026679
31530000,0.0324,0.013523,0.002678,0.000431,0.004466
31531000,0.0324,0.013523,0.002678,0.000431,0.004466
31532000,0.0324,0.013523,0.002678,0.000431,0.102367
31533000,0.0324,0.013523,0.002678,0.000431,0.072515
31534000,0.0324,0.013523,0.002678,0.000431,0.004701
31535000,0.0324,0.013523,0.002678,0.000431,0.019745
31536000,0.0324,0.013523,0.002678,0.000431,0.004584
31537000,0.0324,0.013523,0.002678,0.000431,0.004349
31538000,0.0324,0.013523,0.002678,0.000431,0.032438
31539000,0.0324,0.013523,0.002678,0.000431,0.074748
31540000,0.0324,0.013523,0.002678,0.000431,0.012223
31541000,0.0324,0.013523,0.002678,0.000431,0.020920
31542000,0.0324,0.013523,0.002678,0.000431,0.108831
31543000,0.0324,0.013523,0.002678,0.000431,0.004701
31544000,0.0324,0.013523,0.002678,0.000431,0.004701
31545000,0.0324,0.013523,0.002678,0.000431,0.019745
31546000,0.0324,0.013523,0.002678,0.000431,0.004701
31547000,0.0324,0.013523,0.002678,0.000431,0.004701
31548000,0.0324,0.013523,0.002678,0.000431,0.034671
31549000,0.0324,0.013523,0.002678,0.000431,0.004584
31550000,0.0324,0.013523,0.002678,0.000431,0.004701
31551000,0.0324,0.013523,0.002678,0.000431,0.061232
31552000,0.0324,0.013523,0.002678,0.000431,0.091554
31553000,0.0324,0.013523,0.002678,0.000431,0.004701
31554000,0.0324,0.013523,0.002678,0.000431,0.020920
31555000,0.0324,0.013523,0.002678,0.000431,0.018569
31556000,0.0324,0.013523,0.002678,0.000431,0.004701
31557000,0.0324,0.013523,0.002678,0.000431,0.004701
31558000,0.0324,0.013523,0.002678,0.000431,0.004701
31559000,0.0324,0.013523,0.002678,0.000431,0.009520
31560000,0.0324,0.013523,0.002678,0.000431,0.007404
31561000,0.0324,0.013523,0.002678,0.000431,0.012223
31562000,0.0324,0.013523,0.002678,0.000431,0.004701
31563000,0.0324,0.013523,0.002678,0.000431,0.004701
31564000,0.0324,0.013523,0.002678,0.000431,0.035023
31565000,0.0324,0.013523,0.002678,0.000431,0.004701
31566000,0.0324,0.013523,0.002678,0.000431,0.004701
31567000,0.0324,0.013523,0.002678,0.000431,0.009520
31568000,0.0324,0.013523,0.002678,0.000431,0.051125
31569000,0.0324,0.013523,0.002678,0.000431,0.005759
31570000,0.0324,0.013523,0.002678,0.000431,0.004819
31571000,0.0324,0.013523,0.002678,0.000431,0.034788
31572000,0.0324,0.013523,0.002678,0.000431,0.004701
31573000,0.0324,0.013523,0.002678,0.000431,0.004701
31574000,0.0324,0.013523,0.002678,0.000431,0.092142
31575000,0.0324,0.013523,0.002678,0.000431,0.044896
31576000,0.0324,0.013523,0.002678,0.000431,0.004701
31577000,0.0324,0.013523,0.002678,0.000431,0.035023
31578000,0.0324,0.013523,0.002678,0.000431,0.004701
31579000,0.0324,0.013523,0.002678,0.000431,0.004701
31580000,0.0324,0.013523,0.002678,0.000431,0.008462
31581000,0.0324,0.013523,0.002678,0.000431,0.015984
31582000,0.0324,0.013523,0.002678,0.000431,0.004701
31583000,0.0324,0.013523,0.002678,0.000431,0.004701
31584000,0.0324,0.013523,0.002678,0.000431,0.004701
31585000,0.0324,0.013523,0.002678,0.000431,0.019745
31586000,0.0324,0.013523,0.002678,0.000431,0.015749
31587000,0.0324,0.013523,0.002678,0.000431,0.023506
31588000,0.0324,0.013523,0.002678,0.000431,0.004701
31589000,0.0324,0.013523,0.002678,0.000431,0.004701
31590000,0.0324,0.013523,0.002678,0.000431,0.027502
31591000,0.0324,0.013523,0.002678,0.000431,0.004701
31592000,0.0324,0.013523,0.002678,0.000431,0.004701
31593000,0.0324,0.013523,0.002678,0.000431,0.024563
31594000,0.0324,0.013523,0.002678,0.000431,0.014691
31595000,0.0324,0.013523,0.002678,0.000431,0.004701
31596000,0.0324,0.013523,0.002678,0.000431,0.008462
31597000,0.0324,0.013523,0.002678,0.000431,0.015984
31598000,0.0324,0.013523,0.002678,0.000431,0.004701
31599000,0.0324,0.013523,0.002678,0.000431,0.018099
31600000,0.0324,0.013523,0.002678,0.000431,0.062525
31601000,0.0324,0.013523,0.002678,0.000431,0.084150
31602000,0.0324,0.013523,0.002678,0.000431,0.011988
31603000,0.0324,0.013523,0.002678,0.000431,0.004701
31604000,0.0324,0.013523,0.002678,0.000431,0.004701
31605000,0.0324,0.013523,0.002678,0.000431,0.004701
31606000,0.0324,0.013523,0.002678,0.000431,0.034788
31607000,0.0324,0.013523,0.002678,0.000431,0.019745
31608000,0.0324,0.013523,0.002678,0.000431,0.012223
31609000,0.0324,0.013523,0.002678,0.000431,0.004584
31610000,0.0324,0.013523,0.002678,0.000431,0.004584
31611000,0.0324,0.013523,0.002678,0.000431,0.004701
31612000,0.0324,0.013523,0.002678,0.000431,0.004701
31613000,0.0324,0.013523,0.002678,0.000431,0.019745
31614000,0.0324,0.013523,0.002678,0.000431,0.004936
31615000,0.0324,0.013523,0.002678,0.000431,0.057354
31616000,0.0324,0.013523,0.002678,0.000431,0.004701
31617000,0.0324,0.013523,0.002678,0.000431,0.004701
31618000,0.0324,0.013523,0.002678,0.000431,0.004701
31619000,0.0324,0.013523,0.002678,0.000431,0.011988
31620000,0.0324,0.013523,0.002678,0.000431,0.012223
31621000,0.0324,0.013523,0.002678,0.000431,0.004701
31622000,0.0324,0.013523,0.002678,0.000431,0.004701
31623000,0.0324,0.013523,0.002678,0.000431,0.004701
31624000,0.0324,0.013523,0.002678,0.000431,0.004701
31625000,0.0324,0.013523,0.002678,0.000431,0.004701
31626000,0.0324,0.013523,0.002678,0.000431,0.019745
31627000,0.0324,0.013523,0.002678,0.000431,0.019745
31628000,0.0324,0.013523,0.002678,0.000431,0.004701
31629000,0.0324,0.013523,0.002678,0.000431,0.012223
31630000,0.0324,0.013523,0.002678,0.000431,0.004701
31631000,0.0324,0.013523,0.002678,0.000431,0.004701
31632000,0.0324,0.013523,0.002678,0.000431,0.010460
31633000,0.0324,0.013523,0.002678,0.000431,0.013986
31634000,0.0324,0.013523,0.002678,0.000431,0.057589
31635000,0.0324,0.013523,0.002678,0.000431,0.004701
31636000,0.0324,0.013523,0.002678,0.000431,0.030205
31637000,0.0324,0.013523,0.002678,0.000431,0.009285
31638000,0.0324,0.013523,0.002678,0.000431,0.029852
31639000,0.0324,0.013523,0.002678,0.000431,0.069577
31640000,0.0324,0.013523,0.002678,0.000431,0.069342
31641000,0.0324,0.013523,0.002678,0.000431,0.052535
31642000,0.0324,0.013523,0.002678,0.000431,0.043368
31643000,0.0324,0.013523,0.002678,0.000431,0.004701
31644000,0.0324,0.013523,0.002678,0.000431,0.004701
31645000,0.0324,0.013523,0.002678,0.000431,0.050302
31646000,0.0324,0.013523,0.002678,0.000431,0.019745
31647000,0.0324,0.013523,0.002678,0.000431,0.049597
31648000,0.0324,0.013523,0.002678,0.000431,0.004701
31649000,0.0324,0.013523,0.002678,0.000431,0.004701
31650000,0.0324,0.013523,0.002678,0.000431,0.004701
31651000,0.0324,0.013523,0.002678,0.000431,0.015984
31652000,0.0324,0.013523,0.002678,0.000431,0.034906
31653000,0.0324,0.013523,0.002678,0.000431,0.058412
31654000,0.0324,0.013523,0.002678,0.000431,0.007757
31655000,0.0324,0.013523,0.002678,0.000431,0.004701
31656000,0.0324,0.013523,0.002678,0.000431,0.004701
31657000,0.0324,0.013523,0.002678,0.000431,0.004701
31658000,0.0324,0.013523,0.002678,0.000431,0.004701
31659000,0.0324,0.013523,0.002678,0.000431,0.027384
31660000,0.0324,0.013523,0.002678,0.000431,0.026914
31661000,0.0324,0.013523,0.002678,0.000431,0.012223
31662000,0.0324,0.013523,0.002678,0.000431,0.004701
31663000,0.0324,0.013523,0.002678,0.000431,0.004701
31664000,0.0324,0.013523,0.002678,0.000431,0.004701
31665000,0.0324,0.013523,0.002678,0.000431,0.004701
31666000,0.0324,0.013523,0.002678,0.000431,0.004701
31667000,0.0324,0.013523,0.002678,0.000431,0.019980
31668000,0.0324,0.013523,0.002678,0.000431,0.004701
31669000,0.0324,0.013523,0.002678,0.000431,0.004701
31670000,0.0324,0.013523,0.002678,0.000431,0.019745
31671000,0.0324,0.013523,0.002678,0.000431,0.019745
31672000,0.0324,0.013523,0.002678,0.000431,0.009285
31673000,0.0324,0.013523,0.002678,0.000431,0.026796
31674000,0.0324,0.013523,0.002678,0.000431,0.037962
31675000,0.0324,0.013523,0.002678,0.000431,0.004701
31676000,0.0324,0.013523,0.002678,0.000431,0.004701
31677000,0.0324,0.013523,0.002678,0.000431,0.004701
31678000,0.0324,0.013523,0.002678,0.000431,0.004701
31679000,0.0324,0.013523,0.002678,0.000431,0.012223
31680000,0.0324,0.013523,0.002678,0.000431,0.050537
31681000,0.0324,0.013523,0.002678,0.000431,0.019510
31682000,0.0324,0.013523,0.002678,0.000431,0.004701
31683000,0.0324,0.013523,0.002678,0.000431,0.004701
31684000,0.0324,0.013523,0.002678,0.000431,0.004701
31685000,0.0324,0.013523,0.002678,0.000431,0.004701
31686000,0.0324,0.013523,0.002678,0.000431,0.004701
31687000,0.0324,0.013523,0.002678,0.000431,0.038784
31688000,0.0324,0.013523,0.002678,0.000431,0.008462
31689000,0.0324,0.013523,0.002678,0.000431,0.063818
31690000,0.0324,0.013523,0.002678,0.000431,0.020802
31691000,0.0324,0.013523,0.002678,0.000431,0.004701
31692000,0.0324,0.013523,0.002678,0.000431,0.019745
31693000,0.0324,0.013523,0.002678,0.000431,0.004701
31694000,0.0324,0.013523,0.002678,0.000431,0.019745
31695000,0.0324,0.013523,0.002678,0.000431,0.004701
31696000,0.0324,0.013523,0.002678,0.000431,0.034788
31697000,0.0324,0.013523,0.002678,0.000431,0.004701
31698000,0.0324,0.013523,0.002678,0.000431,0.039489
31699000,0.0324,0.013523,0.002678,0.000431,0.033613
31700000,0.0324,0.013523,0.002678,0.000431,0.015749
31701000,0.0324,0.013523,0.002678,0.000431,0.004701
31702000,0.0324,0.013523,0.002678,0.000431,0.005171
31703000,0.0324,0.013523,0.002678,0.000431,0.025974
31704000,0.0324,0.013523,0.002678,0.000431,0.021038
31705000,0.0324,0.013523,0.002678,0.000431,0.004701
31706000,0.0324,0.013523,0.002678,0.000431,0.012223
31707000,0.0324,0.013523,0.002678,0.000431,0.004701
31708000,0.0324,0.013523,0.002678,0.000431,0.004701
31709000,0.0324,0.013523,0.002678,0.000431,0.004701
31710000,0.0324,0.013523,0.002678,0.000431,0.004701
31711000,0.0324,0.013523,0.002678,0.000431,0.027502
31712000,0.0324,0.013523,0.002678,0.000431,0.012223
31713000,0.0324,0.013523,0.002678,0.000431,0.004701
31714000,0.0324,0.013523,0.002678,0.000431,0.004466
31715000,0.0324,0.013523,0.002678,0.000431,0.027267
31716000,0.0324,0.013523,0.002678,0.000431,0.004701
31717000,0.0324,0.013523,0.002678,0.000431,0.019745
31718000,0.0324,0.013523,0.002678,0.000431,0.006111
31719000,0.0324,0.013523,0.002678,0.000431,0.033378
31720000,0.0324,0.013523,0.002678,0.000431,0.004701
31721000,0.0324,0.013523,0.002678,0.000431,0.004584
31722000,0.0324,0.013523,0.002678,0.000431,0.005876
31723000,0.0324,0.013523,0.002678,0.000431,0.005876
31724000,0.0324,0.013523,0.002678,0.000431,0.005876
31725000,0.0324,0.013523,0.002678,0.000431,0.013751
31726000,0.0324,0.013523,0.002678,0.000431,0.007052
31727000,0.0324,0.013523,0.002678,0.000431,0.007404
31728000,0.0324,0.013523,0.002678,0.000431,0.005876
31729000,0.0324,0.013523,0.002678,0.000431,0.005876
31730000,0.0324,0.013523,0.002678,0.000431,0.022213
31731000,0.0324,0.013523,0.002678,0.000431,0.099194
31732000,0.0324,0.013523,0.002678,0.000431,0.031262
31733000,0.0324,0.013523,0.002678,0.000431,0.004584
31734000,0.0324,0.013523,0.002678,0.000431,0.034671
31735000,0.0324,0.013523,0.002678,0.000431,0.004701
31736000,0.0324,0.013523,0.002678,0.000431,0.004701
31737000,0.0324,0.013523,0.002678,0.000431,0.004936
31738000,0.0324,0.013523,0.002678,0.000431,0.012223
31739000,0.0324,0.013523,0.002678,0.000431,0.004701
31740000,0.0324,0.013523,0.002678,0.000431,0.004701
31741000,0.0324,0.013523,0.002678,0.000431,0.004701
31742000,0.0324,0.013523,0.002678,0.000431,0.004701
31743000,0.0324,0.013523,0.002678,0.000431,0.036081
31744000,0.0324,0.013523,0.002678,0.000431,0.018452
31745000,0.0324,0.013523,0.002678,0.000431,0.004701
31746000,0.0324,0.013523,0.002678,0.000431,0.004701
31747000,0.0324,0.013523,0.002678,0.000431,0.004701
31748000,0.0324,0.013523,0.002678,0.000431,0.004701
31749000,0.0324,0.013523,0.002678,0.000431,0.004701
31750000,0.0324,0.013523,0.002678,0.000431,0.057354
31751000,0.0324,0.013523,0.002678,0.000431,0.004701
31752000,0.0324,0.013523,0.002678,0.000431,0.004701
31753000,0.0324,0.013523,0.002678,0.000431,0.004701
31754000,0.0324,0.013523,0.002678,0.000431,0.004466
31755000,0.0324,0.013523,0.002678,0.000431,0.004466
31756000,0.0324,0.013523,0.002678,0.000431,0.004701
31757000,0.0324,0.013523,0.002678,0.000431,0.004701
31758000,0.0324,0.013523,0.002678,0.000431,0.012458
31759000,0.0324,0.013523,0.002678,0.000431,0.004701
31760000,0.0324,0.013523,0.002678,0.000431,0.004701
31761000,0.0324,0.013523,0.002678,0.000431,0.004701
31762000,0.0324,0.013523,0.002678,0.000431,0.004701
31763000,0.0324,0.013523,0.002678,0.000431,0.004701
31764000,0.0324,0.013523,0.002678,0.000431,0.004701
31765000,0.0324,0.013523,0.002678,0.000431,0.004701
31766000,0.0324,0.013523,0.002678,0.000431,0.012223
31767000,0.0324,0.013523,0.002678,0.000431,0.004466
31768000,0.0324,0.013523,0.002678,0.000431,0.004701
31769000,0.0324,0.013523,0.002678,0.000431,0.004701
31770000,0.0324,0.013523,0.002678,0.000431,0.005054
31771000,0.0324,0.013523,0.002678,0.000431,0.013398
31772000,0.0324,0.013523,0.002678,0.000431,0.005876
31773000,0.0324,0.013523,0.002678,0.000431,0.005759
31774000,0.0324,0.013523,0.002678,0.000431,0.005759
31775000,0.0324,0.013523,0.002678,0.000431,0.005876
31776000,0.0324,0.013523,0.002678,0.000431,0.005876
31777000,0.0324,0.013523,0.002678,0.000431,0.004819
31778000,0.0324,0.013523,0.002678,0.000431,0.004701
31779000,0.0324,0.013523,0.002678,0.000431,0.004701
31780000,0.0324,0.013523,0.002678,0.000431,0.004701
31781000,0.0324,0.013523,0.002678,0.000431,0.004701
31782000,0.0324,0.013523,0.002678,0.000431,0.004701
31783000,0.0324,0.013523,0.002678,0.000431,0.012223
31784000,0.0324,0.013523,0.002678,0.000431,0.020332
31785000,0.0324,0.013523,0.002678,0.000431,0.013398
31786000,0.0324,0.013523,0.002678,0.000431,0.005876
31787000,0.0324,0.013523,0.002678,0.000431,0.005876
31788000,0.0324,0.013523,0.002678,0.000431,0.005876
31789000,0.0324,0.013523,0.002678,0.000431,0.066638
31790000,0.0324,0.013523,0.002678,0.000431,0.004701
31791000,0.0324,0.013523,0.002678,0.000431,0.004701
31792000,0.0324,0.013523,0.002678,0.000431,0.005759
31793000,0.0324,0.013523,0.002678,0.000431,0.005876
31794000,0.0324,0.013523,0.002678,0.000431,0.005641
31795000,0.0324,0.013523,0.002678,0.000431,0.005876
31796000,0.0324,0.013523,0.002678,0.000431,0.005876
31797000,0.0324,0.013523,0.002678,0.000431,0.005876
31798000,0.0324,0.013523,0.002678,0.000431,0.005289
31799000,0.0324,0.013523,0.002678,0.000431,0.004701
31800000,0.0324,0.013523,0.002678,0.000431,0.004701
31801000,0.0324,0.013523,0.002678,0.000431,0.012340
31802000,0.0324,0.013523,0.002678,0.000431,0.016924
31803000,0.0324,0.013523,0.002678,0.000431,0.009637
31804000,0.0324,0.013523,0.002678,0.000431,0.005876
31805000,0.0324,0.013523,0.002678,0.000431,0.005876
31806000,0.0324,0.013523,0.002678,0.000431,0.008109
31807000,0.0324,0.013523,0.002678,0.000431,0.004584
31808000,0.0324,0.013523,0.002678,0.000431,0.013163
31809000,0.0324,0.013523,0.002678,0.000431,0.005876
31810000,0.0324,0.013523,0.002678,0.000431,0.005876
31811000,0.0324,0.013523,0.002678,0.000431,0.005289
31812000,0.0324,0.013523,0.002678,0.000431,0.004701
31813000,0.0324,0.013523,0.002678,0.000431,0.004701
31814000,0.0324,0.013523,0.002678,0.000431,0.012340
31815000,0.0324,0.013523,0.002678,0.000431,0.019627
31816000,0.0324,0.013523,0.002678,0.000431,0.004701
31817000,0.0324,0.013523,0.002678,0.000431,0.004701
31818000,0.0324,0.013523,0.002678,0.000431,0.004701
31819000,0.0324,0.013523,0.002678,0.000431,0.004701
31820000,0.0324,0.013523,0.002678,0.000431,0.004701
31821000,0.0324,0.013523,0.002678,0.000431,0.049714
31822000,0.0324,0.013523,0.002678,0.000431,0.019627
31823000,0.0324,0.013523,0.002678,0.000431,0.004701
31824000,0.0324,0.013523,0.002678,0.000431,0.004701
31825000,0.0324,0.013523,0.002678,0.000431,0.004701
31826000,0.0324,0.013523,0.002678,0.000431,0.004701
31827000,0.0324,0.013523,0.002678,0.000431,0.012223
31828000,0.0324,0.013523,0.002678,0.000431,0.011988
31829000,0.0324,0.013523,0.002678,0.000431,0.011988
31830000,0.0324,0.013523,0.002678,0.000431,0.004701
31831000,0.0324,0.013523,0.002678,0.000431,0.004701
31832000,0.0324,0.013523,0.002678,0.000431,0.005524
31833000,0.0324,0.013523,0.002678,0.000431,0.005876
31834000,0.0324,0.013523,0.002678,0.000431,0.005876
31835000,0.0324,0.013523,0.002678,0.000431,0.005876
31836000,0.0324,0.013523,0.002678,0.000431,0.005876
31837000,0.0324,0.013523,0.002678,0.000431,0.005876
31838000,0.0324,0.013523,0.002678,0.000431,0.020567
31839000,0.0324,0.013523,0.002678,0.000431,0.007169
31840000,0.0324,0.013523,0.002678,0.000431,0.039842
31841000,0.0324,0.013523,0.002678,0.000431,0.004701
31842000,0.0324,0.013523,0.002678,0.000431,0.004701
31843000,0.0324,0.013523,0.002678,0.000431,0.004701
31844000,0.0324,0.013523,0.002678,0.000431,0.010578
31845000,0.0324,0.013523,0.002678,0.000431,0.013633
31846000,0.0324,0.013523,0.002678,0.000431,0.004701
31847000,0.0324,0.013523,0.002678,0.000431,0.019745
31848000,0.0324,0.013523,0.002678,0.000431,0.020802
31849000,0.0324,0.013523,0.002678,0.000431,0.005876
31850000,0.0324,0.013523,0.002678,0.000431,0.005876
31851000,0.0324,0.013523,0.002678,0.000431,0.013398
31852000,0.0324,0.013523,0.002678,0.000431,0.005876
31853000,0.0324,0.013523,0.002678,0.000431,0.020920
31854000,0.0324,0.013523,0.002678,0.000431,0.050655
31855000,0.0324,0.013523,0.002678,0.000431,0.004466
31856000,0.0324,0.013523,0.002678,0.000431,0.004701
31857000,0.0324,0.013523,0.002678,0.000431,0.004701
31858000,0.0324,0.013523,0.002678,0.000431,0.004701
31859000,0.0324,0.013523,0.002678,0.000431,0.012223
31860000,0.0324,0.013523,0.002678,0.000431,0.034788
31861000,0.0324,0.013523,0.002678,0.000431,0.019627
31862000,0.0324,0.013523,0.002678,0.000431,0.004584
31863000,0.0324,0.013523,0.002678,0.000431,0.004701
31864000,0.0324,0.013523,0.002678,0.000431,0.038549
31865000,0.0324,0.013523,0.002678,0.000431,0.008462
31866000,0.0324,0.013523,0.002678,0.000431,0.013633
31867000,0.0324,0.013523,0.002678,0.000431,0.048657
31868000,0.0324,0.013523,0.002678,0.000431,0.124462
31869000,0.0324,0.013523,0.002678,0.000431,0.027149
31870000,0.0324,0.013523,0.002678,0.000431,0.004936
31871000,0.0324,0.013523,0.002678,0.000431,0.004701
31872000,0.0324,0.013523,0.002678,0.000431,0.027267
31873000,0.0324,0.013523,0.002678,0.000431,0.019745
31874000,0.0324,0.013523,0.002678,0.000431,0.004701
31875000,0.0324,0.013523,0.002678,0.000431,0.004701
31876000,0.0324,0.013523,0.002678,0.000431,0.004701
31877000,0.0324,0.013523,0.002678,0.000431,0.005524
31878000,0.0324,0.013523,0.002678,0.000431,0.005876
31879000,0.0324,0.013523,0.002678,0.000431,0.012928
31880000,0.0324,0.013523,0.002678,0.000431,0.035964
31881000,0.0324,0.013523,0.002678,0.000431,0.005876
31882000,0.0324,0.013523,0.002678,0.000431,0.005876
31883000,0.0324,0.013523,0.002678,0.000431,0.005759
31884000,0.0324,0.013523,0.002678,0.000431,0.004701
31885000,0.0324,0.013523,0.002678,0.000431,0.012223
31886000,0.0324,0.013523,0.002678,0.000431,0.012105
31887000,0.0324,0.013523,0.002678,0.000431,0.004584
31888000,0.0324,0.013523,0.002678,0.000431,0.004701
31889000,0.0324,0.013523,0.002678,0.000431,0.004701
31890000,0.0324,0.013523,0.002678,0.000431,0.013046
31891000,0.0324,0.013523,0.002678,0.000431,0.005876
31892000,0.0324,0.013523,0.002678,0.000431,0.005876
31893000,0.0324,0.013523,0.002678,0.000431,0.035964
31894000,0.0324,0.013523,0.002678,0.000431,0.045366
31895000,0.0324,0.013523,0.002678,0.000431,0.011988
31896000,0.0324,0.013523,0.002678,0.000431,0.004584
31897000,0.0324,0.013523,0.002678,0.000431,0.004701
31898000,0.0324,0.013523,0.002678,0.000431,0.004701
31899000,0.0324,0.013523,0.002678,0.000431,0.004701
31900000,0.0324,0.013523,0.002678,0.000431,0.004701
31901000,0.0324,0.013523,0.002678,0.000431,0.004701
31902000,0.0324,0.013523,0.002678,0.000431,0.026561
31903000,0.0324,0.013523,0.002678,0.000431,0.013163
31904000,0.0324,0.013523,0.002678,0.000431,0.004701
31905000,0.0324,0.013523,0.002678,0.000431,0.004701
31906000,0.0324,0.013523,0.002678,0.000431,0.004701
31907000,0.0324,0.013523,0.002678,0.000431,0.004701
31908000,0.0324,0.013523,0.002678,0.000431,0.004701
31909000,0.0324,0.013523,0.002678,0.000431,0.005171
31910000,0.0324,0.013523,0.002678,0.000431,0.013281
31911000,0.0324,0.013523,0.002678,0.000431,0.013398
31912000,0.0324,0.013523,0.002678,0.000431,0.005406
31913000,0.0324,0.013523,0.002678,0.000431,0.005876
31914000,0.0324,0.013523,0.002678,0.000431,0.005876
31915000,0.0324,0.013523,0.002678,0.000431,0.009637
31916000,0.0324,0.013523,0.002678,0.000431,0.008580
31917000,0.0324,0.013523,0.002678,0.000431,0.019745
31918000,0.0324,0.013523,0.002678,0.000431,0.004701
31919000,0.0324,0.013523,0.002678,0.000431,0.004701
31920000,0.0324,0.013523,0.002678,0.000431,0.004701
31921000,0.0324,0.013523,0.002678,0.000431,0.004701
31922000,0.0324,0.013523,0.002678,0.000431,0.019745
31923000,0.0324,0.013523,0.002678,0.000431,0.005759
31924000,0.0324,0.013523,0.002678,0.000431,0.005876
31925000,0.0324,0.013523,0.002678,0.000431,0.005876
31926000,0.0324,0.013523,0.002678,0.000431,0.007757
31927000,0.0324,0.013523,0.002678,0.000431,0.029852
31928000,0.0324,0.013523,0.002678,0.000431,0.013398
31929000,0.0324,0.013523,0.002678,0.000431,0.075101
31930000,0.0324,0.013523,0.002678,0.000431,0.053710
31931000,0.0324,0.013523,0.002678,0.000431,0.029265
31932000,0.0324,0.013523,0.002678,0.000431,0.004701
31933000,0.0324,0.013523,0.002678,0.000431,0.004701
31934000,0.0324,0.013523,0.002678,0.000431,0.004701
31935000,0.0324,0.013523,0.002678,0.000431,0.004701
31936000,0.0324,0.013523,0.002678,0.000431,0.005524
31937000,0.0324,0.013523,0.002678,0.000431,0.005876
31938000,0.0324,0.013523,0.002678,0.000431,0.008227
31939000,0.0324,0.013523,0.002678,0.000431,0.006934
31940000,0.0324,0.013523,0.002678,0.000431,0.004466
31941000,0.0324,0.013523,0.002678,0.000431,0.004701
31942000,0.0324,0.013523,0.002678,0.000431,0.004701
31943000,0.0324,0.013523,0.002678,0.000431,0.012223
31944000,0.0324,0.013523,0.002678,0.000431,0.004701
31945000,0.0324,0.013523,0.002678,0.000431,0.004701
31946000,0.0324,0.013523,0.002678,0.000431,0.004701
31947000,0.0324,0.013523,0.002678,0.000431,0.019745
31948000,0.0324,0.013523,0.002678,0.000431,0.012105
31949000,0.0324,0.013523,0.002678,0.000431,0.004584
31950000,0.0324,0.013523,0.002678,0.000431,0.019980
31951000,0.0324,0.013523,0.002678,0.000431,0.004701
31952000,0.0324,0.013523,0.002678,0.000431,0.004701
31953000,0.0324,0.013523,0.002678,0.000431,0.004701
31954000,0.0324,0.013523,0.002678,0.000431,0.004701
31955000,0.0324,0.013523,0.002678,0.000431,0.008462
31956000,0.0324,0.013523,0.002678,0.000431,0.023741
31957000,0.0324,0.013523,0.002678,0.000431,0.005759
31958000,0.0324,0.013523,0.002678,0.000431,0.020920
31959000,0.0324,0.013523,0.002678,0.000431,0.005876
31960000,0.0324,0.013523,0.002678,0.000431,0.005876
31961000,0.0324,0.013523,0.002678,0.000431,0.005876
31962000,0.0324,0.013523,0.002678,0.000431,0.005406
31963000,0.0324,0.013523,0.002678,0.000431,0.012576
31964000,0.0324,0.013523,0.002678,0.000431,0.004701
31965000,0.0324,0.013523,0.002678,0.000431,0.004701
31966000,0.0324,0.013523,0.002678,0.000431,0.004701
31967000,0.0324,0.013523,0.002678,0.000431,0.004701
31968000,0.0324,0.013523,0.002678,0.000431,0.005524
31969000,0.0324,0.013523,0.002678,0.000431,0.005876
31970000,0.0324,0.013523,0.002678,0.000431,0.005876
31971000,0.0324,0.013523,0.002678,0.000431,0.005876
31972000,0.0324,0.013523,0.002678,0.000431,0.005876
31973000,0.0324,0.013523,0.002678,0.000431,0.005876
31974000,0.0324,0.013523,0.002678,0.000431,0.005524
31975000,0.0324,0.013523,0.002678,0.000431,0.004701
31976000,0.0324,0.013523,0.002678,0.000431,0.027267
31977000,0.0324,0.013523,0.002678,0.000431,0.004701
31978000,0.0324,0.013523,0.002678,0.000431,0.004701
31979000,0.0324,0.013523,0.002678,0.000431,0.004701
31980000,0.0324,0.013523,0.002678,0.000431,0.004466
31981000,0.0324,0.013523,0.002678,0.000431,0.004701
31982000,0.0324,0.013523,0.002678,0.000431,0.019745
31983000,0.0324,0.013523,0.002678,0.000431,0.004701
31984000,0.0324,0.013523,0.002678,0.000431,0.015984
31985000,0.0324,0.013523,0.002678,0.000431,0.083680
31986000,0.0324,0.013523,0.002678,0.000431,0.004701
31987000,0.0324,0.013523,0.002678,0.000431,0.004701
31988000,0.0324,0.013523,0.002678,0.000431,0.004819
31989000,0.0324,0.013523,0.002678,0.000431,0.004584
31990000,0.0324,0.013523,0.002678,0.000431,0.005289
31991000,0.0324,0.013523,0.002678,0.000431,0.005876
31992000,0.0324,0.013523,0.002678,0.000431,0.005876
31993000,0.0324,0.013523,0.002678,0.000431,0.005876
31994000,0.0324,0.013523,0.002678,0.000431,0.008109
31995000,0.0324,0.013523,0.002678,0.000431,0.004701
31996000,0.0324,0.013523,0.002678,0.000431,0.004701
31997000,0.0324,0.013523,0.002678,0.000431,0.004701
31998000,0.0324,0.013523,0.002678,0.000431,0.004701
31999000,0.0324,0.013523,0.002678,0.000431,0.004701
