Cycle,Area(mm^2),PeakDynamic(W),SubthresholdLeakage(W),GateLeakage(W),RunTimeDynamic(W)
1000,0.0324,0.013523,0.002678,0.000431,0.000000
2000,0.0324,0.013523,0.002678,0.000431,0.000000
3000,0.0324,0.013523,0.002678,0.000431,0.000000
4000,0.0324,0.013523,0.002678,0.000431,0.000000
5000,0.0324,0.013523,0.002678,0.000431,0.000000
6000,0.0324,0.013523,0.002678,0.000431,0.616435
7000,0.0324,0.013523,0.002678,0.000431,0.939873
8000,0.0324,0.013523,0.002678,0.000431,0.347648
9000,0.0324,0.013523,0.002678,0.000431,1.021790
10000,0.0324,0.013523,0.002678,0.000431,1.302212
11000,0.0324,0.013523,0.002678,0.000431,1.023200
12000,0.0324,0.013523,0.002678,0.000431,0.913899
13000,0.0324,0.013523,0.002678,0.000431,0.846908
14000,0.0324,0.013523,0.002678,0.000431,1.101592
15000,0.0324,0.013523,0.002678,0.000431,1.306326
16000,0.0324,0.013523,0.002678,0.000431,1.425969
17000,0.0324,0.013523,0.002678,0.000431,1.405284
18000,0.0324,0.013523,0.002678,0.000431,1.268952
19000,0.0324,0.013523,0.002678,0.000431,1.342289
20000,0.0324,0.013523,0.002678,0.000431,1.374257
21000,0.0324,0.013523,0.002678,0.000431,1.342759
22000,0.0324,0.013523,0.002678,0.000431,1.290459
23000,0.0324,0.013523,0.002678,0.000431,1.203841
24000,0.0324,0.013523,0.002678,0.000431,1.260372
25000,0.0324,0.013523,0.002678,0.000431,1.161061
26000,0.0324,0.013523,0.002678,0.000431,1.147663
27000,0.0324,0.013523,0.002678,0.000431,1.099829
28000,0.0324,0.013523,0.002678,0.000431,0.956797
29000,0.0324,0.013523,0.002678,0.000431,0.896270
30000,0.0324,0.013523,0.002678,0.000431,0.923184
31000,0.0324,0.013523,0.002678,0.000431,0.782620
32000,0.0324,0.013523,0.002678,0.000431,0.789319
33000,0.0324,0.013523,0.002678,0.000431,0.789437
34000,0.0324,0.013523,0.002678,0.000431,0.722798
35000,0.0324,0.013523,0.002678,0.000431,0.681781
36000,0.0324,0.013523,0.002678,0.000431,0.614907
37000,0.0324,0.013523,0.002678,0.000431,0.540042
38000,0.0324,0.013523,0.002678,0.000431,0.464589
39000,0.0324,0.013523,0.002678,0.000431,0.407470
40000,0.0324,0.013523,0.002678,0.000431,0.436617
41000,0.0324,0.013523,0.002678,0.000431,0.414874
42000,0.0324,0.013523,0.002678,0.000431,0.406765
43000,0.0324,0.013523,0.002678,0.000431,0.396423
44000,0.0324,0.013523,0.002678,0.000431,0.358931
45000,0.0324,0.013523,0.002678,0.000431,0.330959
46000,0.0324,0.013523,0.002678,0.000431,0.320147
47000,0.0324,0.013523,0.002678,0.000431,0.318736
48000,0.0324,0.013523,0.002678,0.000431,0.290647
49000,0.0324,0.013523,0.002678,0.000431,0.293938
50000,0.0324,0.013523,0.002678,0.000431,0.275956
51000,0.0324,0.013523,0.002678,0.000431,0.230355
52000,0.0324,0.013523,0.002678,0.000431,0.241755
53000,0.0324,0.013523,0.002678,0.000431,0.238817
54000,0.0324,0.013523,0.002678,0.000431,0.190866
55000,0.0324,0.013523,0.002678,0.000431,0.190513
56000,0.0324,0.013523,0.002678,0.000431,0.195097
57000,0.0324,0.013523,0.002678,0.000431,0.206262
58000,0.0324,0.013523,0.002678,0.000431,0.192746
59000,0.0324,0.013523,0.002678,0.000431,0.178995
60000,0.0324,0.013523,0.002678,0.000431,0.184637
61000,0.0324,0.013523,0.002678,0.000431,0.177703
62000,0.0324,0.013523,0.002678,0.000431,0.174294
63000,0.0324,0.013523,0.002678,0.000431,0.167948
64000,0.0324,0.013523,0.002678,0.000431,0.154902
65000,0.0324,0.013523,0.002678,0.000431,0.167243
66000,0.0324,0.013523,0.002678,0.000431,0.161601
67000,0.0324,0.013523,0.002678,0.000431,0.161131
68000,0.0324,0.013523,0.002678,0.000431,0.151494
69000,0.0324,0.013523,0.002678,0.000431,0.150906
70000,0.0324,0.013523,0.002678,0.000431,0.142797
71000,0.0324,0.013523,0.002678,0.000431,0.145617
72000,0.0324,0.013523,0.002678,0.000431,0.145147
73000,0.0324,0.013523,0.002678,0.000431,0.144442
74000,0.0324,0.013523,0.002678,0.000431,0.139271
75000,0.0324,0.013523,0.002678,0.000431,0.139741
76000,0.0324,0.013523,0.002678,0.000431,0.140094
77000,0.0324,0.013523,0.002678,0.000431,0.132454
78000,0.0324,0.013523,0.002678,0.000431,0.140799
79000,0.0324,0.013523,0.002678,0.000431,0.145852
80000,0.0324,0.013523,0.002678,0.000431,0.126930
81000,0.0324,0.013523,0.002678,0.000431,0.126460
82000,0.0324,0.013523,0.002678,0.000431,0.130574
83000,0.0324,0.013523,0.002678,0.000431,0.139623
84000,0.0324,0.013523,0.002678,0.000431,0.129281
85000,0.0324,0.013523,0.002678,0.000431,0.117293
86000,0.0324,0.013523,0.002678,0.000431,0.119174
87000,0.0324,0.013523,0.002678,0.000431,0.123992
88000,0.0324,0.013523,0.002678,0.000431,0.129634
89000,0.0324,0.013523,0.002678,0.000431,0.120114
90000,0.0324,0.013523,0.002678,0.000431,0.109419
91000,0.0324,0.013523,0.002678,0.000431,0.119174
92000,0.0324,0.013523,0.002678,0.000431,0.117998
93000,0.0324,0.013523,0.002678,0.000431,0.115413
94000,0.0324,0.013523,0.002678,0.000431,0.114708
95000,0.0324,0.013523,0.002678,0.000431,0.112710
96000,0.0324,0.013523,0.002678,0.000431,0.107068
97000,0.0324,0.013523,0.002678,0.000431,0.110006
98000,0.0324,0.013523,0.002678,0.000431,0.110359
99000,0.0324,0.013523,0.002678,0.000431,0.112239
100000,0.0324,0.013523,0.002678,0.000431,0.107421
101000,0.0324,0.013523,0.002678,0.000431,0.107068
102000,0.0324,0.013523,0.002678,0.000431,0.104012
103000,0.0324,0.013523,0.002678,0.000431,0.102602
104000,0.0324,0.013523,0.002678,0.000431,0.108361
105000,0.0324,0.013523,0.002678,0.000431,0.105188
106000,0.0324,0.013523,0.002678,0.000431,0.098019
107000,0.0324,0.013523,0.002678,0.000431,0.096726
108000,0.0324,0.013523,0.002678,0.000431,0.097078
109000,0.0324,0.013523,0.002678,0.000431,0.106363
110000,0.0324,0.013523,0.002678,0.000431,0.093200
111000,0.0324,0.013523,0.002678,0.000431,0.096961
112000,0.0324,0.013523,0.002678,0.000431,0.088734
113000,0.0324,0.013523,0.002678,0.000431,0.096491
114000,0.0324,0.013523,0.002678,0.000431,0.097196
115000,0.0324,0.013523,0.002678,0.000431,0.089556
116000,0.0324,0.013523,0.002678,0.000431,0.092495
117000,0.0324,0.013523,0.002678,0.000431,0.083798
118000,0.0324,0.013523,0.002678,0.000431,0.091319
119000,0.0324,0.013523,0.002678,0.000431,0.098019
120000,0.0324,0.013523,0.002678,0.000431,0.087676
121000,0.0324,0.013523,0.002678,0.000431,0.078391
122000,0.0324,0.013523,0.002678,0.000431,0.093670
123000,0.0324,0.013523,0.002678,0.000431,0.086736
124000,0.0324,0.013523,0.002678,0.000431,0.085443
125000,0.0324,0.013523,0.002678,0.000431,0.084385
126000,0.0324,0.013523,0.002678,0.000431,0.082270
127000,0.0324,0.013523,0.002678,0.000431,0.081094
128000,0.0324,0.013523,0.002678,0.000431,0.086853
129000,0.0324,0.013523,0.002678,0.000431,0.086618
130000,0.0324,0.013523,0.002678,0.000431,0.078156
131000,0.0324,0.013523,0.002678,0.000431,0.077334
132000,0.0324,0.013523,0.002678,0.000431,0.080624
133000,0.0324,0.013523,0.002678,0.000431,0.079567
134000,0.0324,0.013523,0.002678,0.000431,0.078979
135000,0.0324,0.013523,0.002678,0.000431,0.077098
136000,0.0324,0.013523,0.002678,0.000431,0.075688
137000,0.0324,0.013523,0.002678,0.000431,0.075923
138000,0.0324,0.013523,0.002678,0.000431,0.074395
139000,0.0324,0.013523,0.002678,0.000431,0.075218
140000,0.0324,0.013523,0.002678,0.000431,0.076863
141000,0.0324,0.013523,0.002678,0.000431,0.076158
142000,0.0324,0.013523,0.002678,0.000431,0.071810
143000,0.0324,0.013523,0.002678,0.000431,0.074630
144000,0.0324,0.013523,0.002678,0.000431,0.069812
145000,0.0324,0.013523,0.002678,0.000431,0.075101
146000,0.0324,0.013523,0.002678,0.000431,0.072162
147000,0.0324,0.013523,0.002678,0.000431,0.071340
148000,0.0324,0.013523,0.002678,0.000431,0.072045
149000,0.0324,0.013523,0.002678,0.000431,0.067226
150000,0.0324,0.013523,0.002678,0.000431,0.069929
151000,0.0324,0.013523,0.002678,0.000431,0.072750
152000,0.0324,0.013523,0.002678,0.000431,0.069342
153000,0.0324,0.013523,0.002678,0.000431,0.068636
154000,0.0324,0.013523,0.002678,0.000431,0.066638
155000,0.0324,0.013523,0.002678,0.000431,0.067461
156000,0.0324,0.013523,0.002678,0.000431,0.071810
157000,0.0324,0.013523,0.002678,0.000431,0.068989
158000,0.0324,0.013523,0.002678,0.000431,0.067579
159000,0.0324,0.013523,0.002678,0.000431,0.064641
160000,0.0324,0.013523,0.002678,0.000431,0.063348
161000,0.0324,0.013523,0.002678,0.000431,0.067696
162000,0.0324,0.013523,0.002678,0.000431,0.070869
163000,0.0324,0.013523,0.002678,0.000431,0.060762
164000,0.0324,0.013523,0.002678,0.000431,0.064405
165000,0.0324,0.013523,0.002678,0.000431,0.068166
166000,0.0324,0.013523,0.002678,0.000431,0.061232
167000,0.0324,0.013523,0.002678,0.000431,0.067814
168000,0.0324,0.013523,0.002678,0.000431,0.061937
169000,0.0324,0.013523,0.002678,0.000431,0.061937
170000,0.0324,0.013523,0.002678,0.000431,0.062407
171000,0.0324,0.013523,0.002678,0.000431,0.065463
172000,0.0324,0.013523,0.002678,0.000431,0.059822
173000,0.0324,0.013523,0.002678,0.000431,0.059704
174000,0.0324,0.013523,0.002678,0.000431,0.061937
175000,0.0324,0.013523,0.002678,0.000431,0.062407
176000,0.0324,0.013523,0.002678,0.000431,0.062407
177000,0.0324,0.013523,0.002678,0.000431,0.056884
178000,0.0324,0.013523,0.002678,0.000431,0.061585
179000,0.0324,0.013523,0.002678,0.000431,0.059822
180000,0.0324,0.013523,0.002678,0.000431,0.062995
181000,0.0324,0.013523,0.002678,0.000431,0.060997
182000,0.0324,0.013523,0.002678,0.000431,0.052770
183000,0.0324,0.013523,0.002678,0.000431,0.053710
184000,0.0324,0.013523,0.002678,0.000431,0.063348
185000,0.0324,0.013523,0.002678,0.000431,0.057471
186000,0.0324,0.013523,0.002678,0.000431,0.054063
187000,0.0324,0.013523,0.002678,0.000431,0.058176
188000,0.0324,0.013523,0.002678,0.000431,0.055003
189000,0.0324,0.013523,0.002678,0.000431,0.056531
190000,0.0324,0.013523,0.002678,0.000431,0.055826
191000,0.0324,0.013523,0.002678,0.000431,0.056178
192000,0.0324,0.013523,0.002678,0.000431,0.053828
193000,0.0324,0.013523,0.002678,0.000431,0.055591
194000,0.0324,0.013523,0.002678,0.000431,0.053123
195000,0.0324,0.013523,0.002678,0.000431,0.053358
196000,0.0324,0.013523,0.002678,0.000431,0.055826
197000,0.0324,0.013523,0.002678,0.000431,0.051947
198000,0.0324,0.013523,0.002678,0.000431,0.052770
199000,0.0324,0.013523,0.002678,0.000431,0.053123
200000,0.0324,0.013523,0.002678,0.000431,0.054416
201000,0.0324,0.013523,0.002678,0.000431,0.050420
202000,0.0324,0.013523,0.002678,0.000431,0.052300
203000,0.0324,0.013523,0.002678,0.000431,0.051360
204000,0.0324,0.013523,0.002678,0.000431,0.052535
205000,0.0324,0.013523,0.002678,0.000431,0.048892
206000,0.0324,0.013523,0.002678,0.000431,0.049949
207000,0.0324,0.013523,0.002678,0.000431,0.046776
208000,0.0324,0.013523,0.002678,0.000431,0.054768
209000,0.0324,0.013523,0.002678,0.000431,0.046894
210000,0.0324,0.013523,0.002678,0.000431,0.049009
211000,0.0324,0.013523,0.002678,0.000431,0.048187
212000,0.0324,0.013523,0.002678,0.000431,0.048539
213000,0.0324,0.013523,0.002678,0.000431,0.046424
214000,0.0324,0.013523,0.002678,0.000431,0.049009
215000,0.0324,0.013523,0.002678,0.000431,0.046071
216000,0.0324,0.013523,0.002678,0.000431,0.045131
217000,0.0324,0.013523,0.002678,0.000431,0.042780
218000,0.0324,0.013523,0.002678,0.000431,0.046659
219000,0.0324,0.013523,0.002678,0.000431,0.045601
220000,0.0324,0.013523,0.002678,0.000431,0.040900
221000,0.0324,0.013523,0.002678,0.000431,0.046424
222000,0.0324,0.013523,0.002678,0.000431,0.040077
223000,0.0324,0.013523,0.002678,0.000431,0.042075
224000,0.0324,0.013523,0.002678,0.000431,0.047129
225000,0.0324,0.013523,0.002678,0.000431,0.043133
226000,0.0324,0.013523,0.002678,0.000431,0.039960
227000,0.0324,0.013523,0.002678,0.000431,0.041135
228000,0.0324,0.013523,0.002678,0.000431,0.042310
229000,0.0324,0.013523,0.002678,0.000431,0.041958
230000,0.0324,0.013523,0.002678,0.000431,0.040547
231000,0.0324,0.013523,0.002678,0.000431,0.039607
232000,0.0324,0.013523,0.002678,0.000431,0.039254
233000,0.0324,0.013523,0.002678,0.000431,0.040430
234000,0.0324,0.013523,0.002678,0.000431,0.037962
235000,0.0324,0.013523,0.002678,0.000431,0.041370
236000,0.0324,0.013523,0.002678,0.000431,0.039019
237000,0.0324,0.013523,0.002678,0.000431,0.039489
238000,0.0324,0.013523,0.002678,0.000431,0.040665
239000,0.0324,0.013523,0.002678,0.000431,0.035846
240000,0.0324,0.013523,0.002678,0.000431,0.038314
241000,0.0324,0.013523,0.002678,0.000431,0.040665
242000,0.0324,0.013523,0.002678,0.000431,0.038549
243000,0.0324,0.013523,0.002678,0.000431,0.036199
244000,0.0324,0.013523,0.002678,0.000431,0.037021
245000,0.0324,0.013523,0.002678,0.000431,0.034201
246000,0.0324,0.013523,0.002678,0.000431,0.041840
247000,0.0324,0.013523,0.002678,0.000431,0.034906
248000,0.0324,0.013523,0.002678,0.000431,0.038549
249000,0.0324,0.013523,0.002678,0.000431,0.033731
250000,0.0324,0.013523,0.002678,0.000431,0.039607
251000,0.0324,0.013523,0.002678,0.000431,0.034671
252000,0.0324,0.013523,0.002678,0.000431,0.039489
253000,0.0324,0.013523,0.002678,0.000431,0.033966
254000,0.0324,0.013523,0.002678,0.000431,0.039489
255000,0.0324,0.013523,0.002678,0.000431,0.033613
256000,0.0324,0.013523,0.002678,0.000431,0.035023
257000,0.0324,0.013523,0.002678,0.000431,0.037374
258000,0.0324,0.013523,0.002678,0.000431,0.037021
259000,0.0324,0.013523,0.002678,0.000431,0.035494
260000,0.0324,0.013523,0.002678,0.000431,0.034318
261000,0.0324,0.013523,0.002678,0.000431,0.035023
262000,0.0324,0.013523,0.002678,0.000431,0.032085
263000,0.0324,0.013523,0.002678,0.000431,0.039372
264000,0.0324,0.013523,0.002678,0.000431,0.032555
265000,0.0324,0.013523,0.002678,0.000431,0.034083
266000,0.0324,0.013523,0.002678,0.000431,0.033025
267000,0.0324,0.013523,0.002678,0.000431,0.035611
268000,0.0324,0.013523,0.002678,0.000431,0.033731
269000,0.0324,0.013523,0.002678,0.000431,0.034318
270000,0.0324,0.013523,0.002678,0.000431,0.030557
271000,0.0324,0.013523,0.002678,0.000431,0.037962
272000,0.0324,0.013523,0.002678,0.000431,0.031733
273000,0.0324,0.013523,0.002678,0.000431,0.031027
274000,0.0324,0.013523,0.002678,0.000431,0.035141
275000,0.0324,0.013523,0.002678,0.000431,0.034083
276000,0.0324,0.013523,0.002678,0.000431,0.034083
277000,0.0324,0.013523,0.002678,0.000431,0.029970
278000,0.0324,0.013523,0.002678,0.000431,0.032085
279000,0.0324,0.013523,0.002678,0.000431,0.033496
280000,0.0324,0.013523,0.002678,0.000431,0.033260
281000,0.0324,0.013523,0.002678,0.000431,0.031262
282000,0.0324,0.013523,0.002678,0.000431,0.031498
283000,0.0324,0.013523,0.002678,0.000431,0.029852
284000,0.0324,0.013523,0.002678,0.000431,0.032908
285000,0.0324,0.013523,0.002678,0.000431,0.033496
286000,0.0324,0.013523,0.002678,0.000431,0.030675
287000,0.0324,0.013523,0.002678,0.000431,0.027031
288000,0.0324,0.013523,0.002678,0.000431,0.031262
289000,0.0324,0.013523,0.002678,0.000431,0.028442
290000,0.0324,0.013523,0.002678,0.000431,0.028794
291000,0.0324,0.013523,0.002678,0.000431,0.031498
292000,0.0324,0.013523,0.002678,0.000431,0.030675
293000,0.0324,0.013523,0.002678,0.000431,0.029382
294000,0.0324,0.013523,0.002678,0.000431,0.026796
295000,0.0324,0.013523,0.002678,0.000431,0.030675
296000,0.0324,0.013523,0.002678,0.000431,0.030205
297000,0.0324,0.013523,0.002678,0.000431,0.028089
298000,0.0324,0.013523,0.002678,0.000431,0.029265
299000,0.0324,0.013523,0.002678,0.000431,0.025856
300000,0.0324,0.013523,0.002678,0.000431,0.028794
301000,0.0324,0.013523,0.002678,0.000431,0.029617
302000,0.0324,0.013523,0.002678,0.000431,0.027972
303000,0.0324,0.013523,0.002678,0.000431,0.027031
304000,0.0324,0.013523,0.002678,0.000431,0.027267
305000,0.0324,0.013523,0.002678,0.000431,0.029617
306000,0.0324,0.013523,0.002678,0.000431,0.025034
307000,0.0324,0.013523,0.002678,0.000431,0.027149
308000,0.0324,0.013523,0.002678,0.000431,0.025151
309000,0.0324,0.013523,0.002678,0.000431,0.028442
310000,0.0324,0.013523,0.002678,0.000431,0.024916
311000,0.0324,0.013523,0.002678,0.000431,0.024798
312000,0.0324,0.013523,0.002678,0.000431,0.024798
313000,0.0324,0.013523,0.002678,0.000431,0.029735
314000,0.0324,0.013523,0.002678,0.000431,0.025856
315000,0.0324,0.013523,0.002678,0.000431,0.024798
316000,0.0324,0.013523,0.002678,0.000431,0.023506
317000,0.0324,0.013523,0.002678,0.000431,0.025739
318000,0.0324,0.013523,0.002678,0.000431,0.025621
319000,0.0324,0.013523,0.002678,0.000431,0.026326
320000,0.0324,0.013523,0.002678,0.000431,0.025269
321000,0.0324,0.013523,0.002678,0.000431,0.025151
322000,0.0324,0.013523,0.002678,0.000431,0.025386
323000,0.0324,0.013523,0.002678,0.000431,0.024211
324000,0.0324,0.013523,0.002678,0.000431,0.024563
325000,0.0324,0.013523,0.002678,0.000431,0.024798
326000,0.0324,0.013523,0.002678,0.000431,0.024446
327000,0.0324,0.013523,0.002678,0.000431,0.023153
328000,0.0324,0.013523,0.002678,0.000431,0.022800
329000,0.0324,0.013523,0.002678,0.000431,0.023858
330000,0.0324,0.013523,0.002678,0.000431,0.024563
331000,0.0324,0.013523,0.002678,0.000431,0.022213
332000,0.0324,0.013523,0.002678,0.000431,0.023153
333000,0.0324,0.013523,0.002678,0.000431,0.022213
334000,0.0324,0.013523,0.002678,0.000431,0.023506
335000,0.0324,0.013523,0.002678,0.000431,0.021978
336000,0.0324,0.013523,0.002678,0.000431,0.023858
337000,0.0324,0.013523,0.002678,0.000431,0.022330
338000,0.0324,0.013523,0.002678,0.000431,0.022095
339000,0.0324,0.013523,0.002678,0.000431,0.022330
340000,0.0324,0.013523,0.002678,0.000431,0.024211
341000,0.0324,0.013523,0.002678,0.000431,0.021978
342000,0.0324,0.013523,0.002678,0.000431,0.021860
343000,0.0324,0.013523,0.002678,0.000431,0.021155
344000,0.0324,0.013523,0.002678,0.000431,0.022213
345000,0.0324,0.013523,0.002678,0.000431,0.020450
346000,0.0324,0.013523,0.002678,0.000431,0.021860
347000,0.0324,0.013523,0.002678,0.000431,0.020097
348000,0.0324,0.013523,0.002678,0.000431,0.021390
349000,0.0324,0.013523,0.002678,0.000431,0.019275
350000,0.0324,0.013523,0.002678,0.000431,0.022095
351000,0.0324,0.013523,0.002678,0.000431,0.020685
352000,0.0324,0.013523,0.002678,0.000431,0.020332
353000,0.0324,0.013523,0.002678,0.000431,0.020685
354000,0.0324,0.013523,0.002678,0.000431,0.021508
355000,0.0324,0.013523,0.002678,0.000431,0.017394
356000,0.0324,0.013523,0.002678,0.000431,0.018805
357000,0.0324,0.013523,0.002678,0.000431,0.020920
358000,0.0324,0.013523,0.002678,0.000431,0.017512
359000,0.0324,0.013523,0.002678,0.000431,0.019275
360000,0.0324,0.013523,0.002678,0.000431,0.018099
361000,0.0324,0.013523,0.002678,0.000431,0.019510
362000,0.0324,0.013523,0.002678,0.000431,0.018334
363000,0.0324,0.013523,0.002678,0.000431,0.019745
364000,0.0324,0.013523,0.002678,0.000431,0.018217
365000,0.0324,0.013523,0.002678,0.000431,0.018099
366000,0.0324,0.013523,0.002678,0.000431,0.017747
367000,0.0324,0.013523,0.002678,0.000431,0.018452
368000,0.0324,0.013523,0.002678,0.000431,0.017864
369000,0.0324,0.013523,0.002678,0.000431,0.019157
370000,0.0324,0.013523,0.002678,0.000431,0.016454
371000,0.0324,0.013523,0.002678,0.000431,0.018217
372000,0.0324,0.013523,0.002678,0.000431,0.017629
373000,0.0324,0.013523,0.002678,0.000431,0.018452
374000,0.0324,0.013523,0.002678,0.000431,0.018217
375000,0.0324,0.013523,0.002678,0.000431,0.016689
376000,0.0324,0.013523,0.002678,0.000431,0.016689
377000,0.0324,0.013523,0.002678,0.000431,0.016571
378000,0.0324,0.013523,0.002678,0.000431,0.017277
379000,0.0324,0.013523,0.002678,0.000431,0.015984
380000,0.0324,0.013523,0.002678,0.000431,0.017512
381000,0.0324,0.013523,0.002678,0.000431,0.016571
382000,0.0324,0.013523,0.002678,0.000431,0.015749
383000,0.0324,0.013523,0.002678,0.000431,0.014926
384000,0.0324,0.013523,0.002678,0.000431,0.015749
385000,0.0324,0.013523,0.002678,0.000431,0.014456
386000,0.0324,0.013523,0.002678,0.000431,0.015631
387000,0.0324,0.013523,0.002678,0.000431,0.013516
388000,0.0324,0.013523,0.002678,0.000431,0.014456
389000,0.0324,0.013523,0.002678,0.000431,0.014926
390000,0.0324,0.013523,0.002678,0.000431,0.016101
391000,0.0324,0.013523,0.002678,0.000431,0.012576
392000,0.0324,0.013523,0.002678,0.000431,0.015866
393000,0.0324,0.013523,0.002678,0.000431,0.013751
394000,0.0324,0.013523,0.002678,0.000431,0.015279
395000,0.0324,0.013523,0.002678,0.000431,0.013516
396000,0.0324,0.013523,0.002678,0.000431,0.015749
397000,0.0324,0.013523,0.002678,0.000431,0.014103
398000,0.0324,0.013523,0.002678,0.000431,0.015044
399000,0.0324,0.013523,0.002678,0.000431,0.013986
400000,0.0324,0.013523,0.002678,0.000431,0.014573
401000,0.0324,0.013523,0.002678,0.000431,0.013516
402000,0.0324,0.013523,0.002678,0.000431,0.014103
403000,0.0324,0.013523,0.002678,0.000431,0.013046
404000,0.0324,0.013523,0.002678,0.000431,0.013633
405000,0.0324,0.013523,0.002678,0.000431,0.013163
406000,0.0324,0.013523,0.002678,0.000431,0.015749
407000,0.0324,0.013523,0.002678,0.000431,0.011400
408000,0.0324,0.013523,0.002678,0.000431,0.011988
409000,0.0324,0.013523,0.002678,0.000431,0.014221
410000,0.0324,0.013523,0.002678,0.000431,0.013633
411000,0.0324,0.013523,0.002678,0.000431,0.011518
412000,0.0324,0.013523,0.002678,0.000431,0.011400
413000,0.0324,0.013523,0.002678,0.000431,0.013986
414000,0.0324,0.013523,0.002678,0.000431,0.012576
415000,0.0324,0.013523,0.002678,0.000431,0.011753
416000,0.0324,0.013523,0.002678,0.000431,0.011753
417000,0.0324,0.013523,0.002678,0.000431,0.011283
418000,0.0324,0.013523,0.002678,0.000431,0.009872
419000,0.0324,0.013523,0.002678,0.000431,0.011283
420000,0.0324,0.013523,0.002678,0.000431,0.011635
421000,0.0324,0.013523,0.002678,0.000431,0.011753
422000,0.0324,0.013523,0.002678,0.000431,0.011048
423000,0.0324,0.013523,0.002678,0.000431,0.010695
424000,0.0324,0.013523,0.002678,0.000431,0.009285
425000,0.0324,0.013523,0.002678,0.000431,0.011988
426000,0.0324,0.013523,0.002678,0.000431,0.009637
427000,0.0324,0.013523,0.002678,0.000431,0.008580
428000,0.0324,0.013523,0.002678,0.000431,0.009050
429000,0.0324,0.013523,0.002678,0.000431,0.009402
430000,0.0324,0.013523,0.002678,0.000431,0.010342
431000,0.0324,0.013523,0.002678,0.000431,0.008815
432000,0.0324,0.013523,0.002678,0.000431,0.008580
433000,0.0324,0.013523,0.002678,0.000431,0.011165
434000,0.0324,0.013523,0.002678,0.000431,0.009520
435000,0.0324,0.013523,0.002678,0.000431,0.009285
436000,0.0324,0.013523,0.002678,0.000431,0.007522
437000,0.0324,0.013523,0.002678,0.000431,0.010107
438000,0.0324,0.013523,0.002678,0.000431,0.009167
439000,0.0324,0.013523,0.002678,0.000431,0.008462
440000,0.0324,0.013523,0.002678,0.000431,0.008697
441000,0.0324,0.013523,0.002678,0.000431,0.007874
442000,0.0324,0.013523,0.002678,0.000431,0.009755
443000,0.0324,0.013523,0.002678,0.000431,0.008932
444000,0.0324,0.013523,0.002678,0.000431,0.007287
445000,0.0324,0.013523,0.002678,0.000431,0.008815
446000,0.0324,0.013523,0.002678,0.000431,0.009520
447000,0.0324,0.013523,0.002678,0.000431,0.008345
448000,0.0324,0.013523,0.002678,0.000431,0.007404
449000,0.0324,0.013523,0.002678,0.000431,0.008697
450000,0.0324,0.013523,0.002678,0.000431,0.010107
451000,0.0324,0.013523,0.002678,0.000431,0.007287
452000,0.0324,0.013523,0.002678,0.000431,0.008227
453000,0.0324,0.013523,0.002678,0.000431,0.007992
454000,0.0324,0.013523,0.002678,0.000431,0.010695
455000,0.0324,0.013523,0.002678,0.000431,0.007169
456000,0.0324,0.013523,0.002678,0.000431,0.007874
457000,0.0324,0.013523,0.002678,0.000431,0.008697
458000,0.0324,0.013523,0.002678,0.000431,0.007522
459000,0.0324,0.013523,0.002678,0.000431,0.008227
460000,0.0324,0.013523,0.002678,0.000431,0.008932
461000,0.0324,0.013523,0.002678,0.000431,0.006582
462000,0.0324,0.013523,0.002678,0.000431,0.008227
463000,0.0324,0.013523,0.002678,0.000431,0.007757
464000,0.0324,0.013523,0.002678,0.000431,0.007639
465000,0.0324,0.013523,0.002678,0.000431,0.007287
466000,0.0324,0.013523,0.002678,0.000431,0.008109
467000,0.0324,0.013523,0.002678,0.000431,0.007874
468000,0.0324,0.013523,0.002678,0.000431,0.006347
469000,0.0324,0.013523,0.002678,0.000431,0.006347
470000,0.0324,0.013523,0.002678,0.000431,0.007404
471000,0.0324,0.013523,0.002678,0.000431,0.007522
472000,0.0324,0.013523,0.002678,0.000431,0.006111
473000,0.0324,0.013523,0.002678,0.000431,0.006699
474000,0.0324,0.013523,0.002678,0.000431,0.008345
475000,0.0324,0.013523,0.002678,0.000431,0.007052
476000,0.0324,0.013523,0.002678,0.000431,0.005994
477000,0.0324,0.013523,0.002678,0.000431,0.007052
478000,0.0324,0.013523,0.002678,0.000431,0.007874
479000,0.0324,0.013523,0.002678,0.000431,0.006229
480000,0.0324,0.013523,0.002678,0.000431,0.007522
481000,0.0324,0.013523,0.002678,0.000431,0.007404
482000,0.0324,0.013523,0.002678,0.000431,0.006347
483000,0.0324,0.013523,0.002678,0.000431,0.006582
484000,0.0324,0.013523,0.002678,0.000431,0.007169
485000,0.0324,0.013523,0.002678,0.000431,0.006699
486000,0.0324,0.013523,0.002678,0.000431,0.006347
487000,0.0324,0.013523,0.002678,0.000431,0.006229
488000,0.0324,0.013523,0.002678,0.000431,0.006229
489000,0.0324,0.013523,0.002678,0.000431,0.006464
490000,0.0324,0.013523,0.002678,0.000431,0.006347
491000,0.0324,0.013523,0.002678,0.000431,0.006817
492000,0.0324,0.013523,0.002678,0.000431,0.005641
493000,0.0324,0.013523,0.002678,0.000431,0.005524
494000,0.0324,0.013523,0.002678,0.000431,0.007052
495000,0.0324,0.013523,0.002678,0.000431,0.005876
496000,0.0324,0.013523,0.002678,0.000431,0.005406
497000,0.0324,0.013523,0.002678,0.000431,0.006464
498000,0.0324,0.013523,0.002678,0.000431,0.008345
499000,0.0324,0.013523,0.002678,0.000431,0.004349
500000,0.0324,0.013523,0.002678,0.000431,0.005524
501000,0.0324,0.013523,0.002678,0.000431,0.005641
502000,0.0324,0.013523,0.002678,0.000431,0.006111
503000,0.0324,0.013523,0.002678,0.000431,0.004936
504000,0.0324,0.013523,0.002678,0.000431,0.004701
505000,0.0324,0.013523,0.002678,0.000431,0.006464
506000,0.0324,0.013523,0.002678,0.000431,0.005289
507000,0.0324,0.013523,0.002678,0.000431,0.004466
508000,0.0324,0.013523,0.002678,0.000431,0.006934
509000,0.0324,0.013523,0.002678,0.000431,0.004936
510000,0.0324,0.013523,0.002678,0.000431,0.005171
511000,0.0324,0.013523,0.002678,0.000431,0.006111
512000,0.0324,0.013523,0.002678,0.000431,0.005641
513000,0.0324,0.013523,0.002678,0.000431,0.004231
514000,0.0324,0.013523,0.002678,0.000431,0.006111
515000,0.0324,0.013523,0.002678,0.000431,0.005406
516000,0.0324,0.013523,0.002678,0.000431,0.005171
517000,0.0324,0.013523,0.002678,0.000431,0.005759
518000,0.0324,0.013523,0.002678,0.000431,0.005289
519000,0.0324,0.013523,0.002678,0.000431,0.004113
520000,0.0324,0.013523,0.002678,0.000431,0.004701
521000,0.0324,0.013523,0.002678,0.000431,0.003761
522000,0.0324,0.013523,0.002678,0.000431,0.005641
523000,0.0324,0.013523,0.002678,0.000431,0.003761
524000,0.0324,0.013523,0.002678,0.000431,0.003761
525000,0.0324,0.013523,0.002678,0.000431,0.005641
526000,0.0324,0.013523,0.002678,0.000431,0.004584
527000,0.0324,0.013523,0.002678,0.000431,0.003643
528000,0.0324,0.013523,0.002678,0.000431,0.005054
529000,0.0324,0.013523,0.002678,0.000431,0.004584
530000,0.0324,0.013523,0.002678,0.000431,0.003878
531000,0.0324,0.013523,0.002678,0.000431,0.004113
532000,0.0324,0.013523,0.002678,0.000431,0.004936
533000,0.0324,0.013523,0.002678,0.000431,0.004701
534000,0.0324,0.013523,0.002678,0.000431,0.003408
535000,0.0324,0.013523,0.002678,0.000431,0.004819
536000,0.0324,0.013523,0.002678,0.000431,0.003643
537000,0.0324,0.013523,0.002678,0.000431,0.003408
538000,0.0324,0.013523,0.002678,0.000431,0.004584
539000,0.0324,0.013523,0.002678,0.000431,0.003878
540000,0.0324,0.013523,0.002678,0.000431,0.003408
541000,0.0324,0.013523,0.002678,0.000431,0.003761
542000,0.0324,0.013523,0.002678,0.000431,0.004584
543000,0.0324,0.013523,0.002678,0.000431,0.003408
544000,0.0324,0.013523,0.002678,0.000431,0.003173
545000,0.0324,0.013523,0.002678,0.000431,0.004466
546000,0.0324,0.013523,0.002678,0.000431,0.003761
547000,0.0324,0.013523,0.002678,0.000431,0.003526
548000,0.0324,0.013523,0.002678,0.000431,0.003408
549000,0.0324,0.013523,0.002678,0.000431,0.004466
550000,0.0324,0.013523,0.002678,0.000431,0.003408
551000,0.0324,0.013523,0.002678,0.000431,0.003291
552000,0.0324,0.013523,0.002678,0.000431,0.004584
553000,0.0324,0.013523,0.002678,0.000431,0.003408
554000,0.0324,0.013523,0.002678,0.000431,0.003173
555000,0.0324,0.013523,0.002678,0.000431,0.003761
556000,0.0324,0.013523,0.002678,0.000431,0.003643
557000,0.0324,0.013523,0.002678,0.000431,0.004466
558000,0.0324,0.013523,0.002678,0.000431,0.002938
559000,0.0324,0.013523,0.002678,0.000431,0.003408
560000,0.0324,0.013523,0.002678,0.000431,0.003408
561000,0.0324,0.013523,0.002678,0.000431,0.002468
562000,0.0324,0.013523,0.002678,0.000431,0.003526
563000,0.0324,0.013523,0.002678,0.000431,0.004819
564000,0.0324,0.013523,0.002678,0.000431,0.002468
565000,0.0324,0.013523,0.002678,0.000431,0.002468
566000,0.0324,0.013523,0.002678,0.000431,0.001880
567000,0.0324,0.013523,0.002678,0.000431,0.002468
568000,0.0324,0.013523,0.002678,0.000431,0.001645
569000,0.0324,0.013523,0.002678,0.000431,0.002938
570000,0.0324,0.013523,0.002678,0.000431,0.001763
571000,0.0324,0.013523,0.002678,0.000431,0.002233
572000,0.0324,0.013523,0.002678,0.000431,0.002586
573000,0.0324,0.013523,0.002678,0.000431,0.001998
574000,0.0324,0.013523,0.002678,0.000431,0.001998
575000,0.0324,0.013523,0.002678,0.000431,0.002703
576000,0.0324,0.013523,0.002678,0.000431,0.001763
577000,0.0324,0.013523,0.002678,0.000431,0.003056
578000,0.0324,0.013523,0.002678,0.000431,0.001763
579000,0.0324,0.013523,0.002678,0.000431,0.002233
580000,0.0324,0.013523,0.002678,0.000431,0.001528
581000,0.0324,0.013523,0.002678,0.000431,0.002468
582000,0.0324,0.013523,0.002678,0.000431,0.001528
583000,0.0324,0.013523,0.002678,0.000431,0.001645
584000,0.0324,0.013523,0.002678,0.000431,0.002468
585000,0.0324,0.013523,0.002678,0.000431,0.001880
586000,0.0324,0.013523,0.002678,0.000431,0.001410
587000,0.0324,0.013523,0.002678,0.000431,0.002351
588000,0.0324,0.013523,0.002678,0.000431,0.001763
589000,0.0324,0.013523,0.002678,0.000431,0.001880
590000,0.0324,0.013523,0.002678,0.000431,0.001880
591000,0.0324,0.013523,0.002678,0.000431,0.001763
592000,0.0324,0.013523,0.002678,0.000431,0.002116
593000,0.0324,0.013523,0.002678,0.000431,0.001763
594000,0.0324,0.013523,0.002678,0.000431,0.001528
595000,0.0324,0.013523,0.002678,0.000431,0.002468
596000,0.0324,0.013523,0.002678,0.000431,0.001528
597000,0.0324,0.013523,0.002678,0.000431,0.001645
598000,0.0324,0.013523,0.002678,0.000431,0.002468
599000,0.0324,0.013523,0.002678,0.000431,0.001528
600000,0.0324,0.013523,0.002678,0.000431,0.002233
601000,0.0324,0.013523,0.002678,0.000431,0.001763
602000,0.0324,0.013523,0.002678,0.000431,0.002351
603000,0.0324,0.013523,0.002678,0.000431,0.001528
604000,0.0324,0.013523,0.002678,0.000431,0.002233
605000,0.0324,0.013523,0.002678,0.000431,0.001293
606000,0.0324,0.013523,0.002678,0.000431,0.002468
607000,0.0324,0.013523,0.002678,0.000431,0.001528
608000,0.0324,0.013523,0.002678,0.000431,0.002468
609000,0.0324,0.013523,0.002678,0.000431,0.001293
610000,0.0324,0.013523,0.002678,0.000431,0.002468
611000,0.0324,0.013523,0.002678,0.000431,0.001293
612000,0.0324,0.013523,0.002678,0.000431,0.002468
613000,0.0324,0.013523,0.002678,0.000431,0.001293
614000,0.0324,0.013523,0.002678,0.000431,0.001998
615000,0.0324,0.013523,0.002678,0.000431,0.001410
616000,0.0324,0.013523,0.002678,0.000431,0.002351
617000,0.0324,0.013523,0.002678,0.000431,0.001410
618000,0.0324,0.013523,0.002678,0.000431,0.002351
619000,0.0324,0.013523,0.002678,0.000431,0.001410
620000,0.0324,0.013523,0.002678,0.000431,0.001998
621000,0.0324,0.013523,0.002678,0.000431,0.002116
622000,0.0324,0.013523,0.002678,0.000431,0.001293
623000,0.0324,0.013523,0.002678,0.000431,0.001293
624000,0.0324,0.013523,0.002678,0.000431,0.001175
625000,0.0324,0.013523,0.002678,0.000431,0.001645
626000,0.0324,0.013523,0.002678,0.000431,0.001175
627000,0.0324,0.013523,0.002678,0.000431,0.001645
628000,0.0324,0.013523,0.002678,0.000431,0.001175
629000,0.0324,0.013523,0.002678,0.000431,0.001645
630000,0.0324,0.013523,0.002678,0.000431,0.000940
631000,0.0324,0.013523,0.002678,0.000431,0.001293
632000,0.0324,0.013523,0.002678,0.000431,0.001058
633000,0.0324,0.013523,0.002678,0.000431,0.001175
634000,0.0324,0.013523,0.002678,0.000431,0.000823
635000,0.0324,0.013523,0.002678,0.000431,0.001410
636000,0.0324,0.013523,0.002678,0.000431,0.000940
637000,0.0324,0.013523,0.002678,0.000431,0.001410
638000,0.0324,0.013523,0.002678,0.000431,0.000940
639000,0.0324,0.013523,0.002678,0.000431,0.001410
640000,0.0324,0.013523,0.002678,0.000431,0.000940
641000,0.0324,0.013523,0.002678,0.000431,0.001410
642000,0.0324,0.013523,0.002678,0.000431,0.000940
643000,0.0324,0.013523,0.002678,0.000431,0.001410
644000,0.0324,0.013523,0.002678,0.000431,0.000940
645000,0.0324,0.013523,0.002678,0.000431,0.001410
646000,0.0324,0.013523,0.002678,0.000431,0.000940
647000,0.0324,0.013523,0.002678,0.000431,0.001175
648000,0.0324,0.013523,0.002678,0.000431,0.001058
649000,0.0324,0.013523,0.002678,0.000431,0.001175
650000,0.0324,0.013523,0.002678,0.000431,0.001058
651000,0.0324,0.013523,0.002678,0.000431,0.001293
652000,0.0324,0.013523,0.002678,0.000431,0.001058
653000,0.0324,0.013523,0.002678,0.000431,0.001293
654000,0.0324,0.013523,0.002678,0.000431,0.001058
655000,0.0324,0.013523,0.002678,0.000431,0.001293
656000,0.0324,0.013523,0.002678,0.000431,0.001058
657000,0.0324,0.013523,0.002678,0.000431,0.001293
658000,0.0324,0.013523,0.002678,0.000431,0.001058
659000,0.0324,0.013523,0.002678,0.000431,0.001058
660000,0.0324,0.013523,0.002678,0.000431,0.001645
661000,0.0324,0.013523,0.002678,0.000431,0.000588
662000,0.0324,0.013523,0.002678,0.000431,0.000705
663000,0.0324,0.013523,0.002678,0.000431,0.000588
664000,0.0324,0.013523,0.002678,0.000431,0.000823
665000,0.0324,0.013523,0.002678,0.000431,0.000588
666000,0.0324,0.013523,0.002678,0.000431,0.000823
667000,0.0324,0.013523,0.002678,0.000431,0.000588
668000,0.0324,0.013523,0.002678,0.000431,0.000823
669000,0.0324,0.013523,0.002678,0.000431,0.000588
670000,0.0324,0.013523,0.002678,0.000431,0.000823
671000,0.0324,0.013523,0.002678,0.000431,0.000588
672000,0.0324,0.013523,0.002678,0.000431,0.000823
673000,0.0324,0.013523,0.002678,0.000431,0.000588
674000,0.0324,0.013523,0.002678,0.000431,0.000823
675000,0.0324,0.013523,0.002678,0.000431,0.000353
676000,0.0324,0.013523,0.002678,0.000431,0.000940
677000,0.0324,0.013523,0.002678,0.000431,0.000470
678000,0.0324,0.013523,0.002678,0.000431,0.000940
679000,0.0324,0.013523,0.002678,0.000431,0.000470
680000,0.0324,0.013523,0.002678,0.000431,0.000940
681000,0.0324,0.013523,0.002678,0.000431,0.000470
682000,0.0324,0.013523,0.002678,0.000431,0.000940
683000,0.0324,0.013523,0.002678,0.000431,0.000470
684000,0.0324,0.013523,0.002678,0.000431,0.000940
685000,0.0324,0.013523,0.002678,0.000431,0.000470
686000,0.0324,0.013523,0.002678,0.000431,0.000940
687000,0.0324,0.013523,0.002678,0.000431,0.000470
688000,0.0324,0.013523,0.002678,0.000431,0.000940
689000,0.0324,0.013523,0.002678,0.000431,0.000470
690000,0.0324,0.013523,0.002678,0.000431,0.000940
691000,0.0324,0.013523,0.002678,0.000431,0.000470
692000,0.0324,0.013523,0.002678,0.000431,0.000705
693000,0.0324,0.013523,0.002678,0.000431,0.000588
694000,0.0324,0.013523,0.002678,0.000431,0.000823
695000,0.0324,0.013523,0.002678,0.000431,0.000588
696000,0.0324,0.013523,0.002678,0.000431,0.000823
697000,0.0324,0.013523,0.002678,0.000431,0.000588
698000,0.0324,0.013523,0.002678,0.000431,0.000823
699000,0.0324,0.013523,0.002678,0.000431,0.000588
700000,0.0324,0.013523,0.002678,0.000431,0.000823
701000,0.0324,0.013523,0.002678,0.000431,0.000588
702000,0.0324,0.013523,0.002678,0.000431,0.000823
703000,0.0324,0.013523,0.002678,0.000431,0.000588
704000,0.0324,0.013523,0.002678,0.000431,0.000470
705000,0.0324,0.013523,0.002678,0.000431,0.000470
706000,0.0324,0.013523,0.002678,0.000431,0.000470
707000,0.0324,0.013523,0.002678,0.000431,0.000470
708000,0.0324,0.013523,0.002678,0.000431,0.000470
709000,0.0324,0.013523,0.002678,0.000431,0.000470
710000,0.0324,0.013523,0.002678,0.000431,0.000470
711000,0.0324,0.013523,0.002678,0.000431,0.000470
712000,0.0324,0.013523,0.002678,0.000431,0.000353
713000,0.0324,0.013523,0.002678,0.000431,0.000470
714000,0.0324,0.013523,0.002678,0.000431,0.000470
715000,0.0324,0.013523,0.002678,0.000431,0.000470
716000,0.0324,0.013523,0.002678,0.000431,0.000353
717000,0.0324,0.013523,0.002678,0.000431,0.000470
718000,0.0324,0.013523,0.002678,0.000431,0.000470
719000,0.0324,0.013523,0.002678,0.000431,0.000470
720000,0.0324,0.013523,0.002678,0.000431,0.000470
721000,0.0324,0.013523,0.002678,0.000431,0.000470
722000,0.0324,0.013523,0.002678,0.000431,0.000470
723000,0.0324,0.013523,0.002678,0.000431,0.000470
724000,0.0324,0.013523,0.002678,0.000431,0.000470
725000,0.0324,0.013523,0.002678,0.000431,0.000470
726000,0.0324,0.013523,0.002678,0.000431,0.000470
727000,0.0324,0.013523,0.002678,0.000431,0.000470
728000,0.0324,0.013523,0.002678,0.000431,0.000470
729000,0.0324,0.013523,0.002678,0.000431,0.000470
730000,0.0324,0.013523,0.002678,0.000431,0.000470
731000,0.0324,0.013523,0.002678,0.000431,0.000470
732000,0.0324,0.013523,0.002678,0.000431,0.000470
733000,0.0324,0.013523,0.002678,0.000431,0.000470
734000,0.0324,0.013523,0.002678,0.000431,0.000470
735000,0.0324,0.013523,0.002678,0.000431,0.000353
736000,0.0324,0.013523,0.002678,0.000431,0.000470
737000,0.0324,0.013523,0.002678,0.000431,0.000470
738000,0.0324,0.013523,0.002678,0.000431,0.000470
739000,0.0324,0.013523,0.002678,0.000431,0.000470
740000,0.0324,0.013523,0.002678,0.000431,0.000470
741000,0.0324,0.013523,0.002678,0.000431,0.000470
742000,0.0324,0.013523,0.002678,0.000431,0.000470
743000,0.0324,0.013523,0.002678,0.000431,0.000470
744000,0.0324,0.013523,0.002678,0.000431,0.000470
745000,0.0324,0.013523,0.002678,0.000431,0.000470
746000,0.0324,0.013523,0.002678,0.000431,0.000470
747000,0.0324,0.013523,0.002678,0.000431,0.000470
748000,0.0324,0.013523,0.002678,0.000431,0.000470
749000,0.0324,0.013523,0.002678,0.000431,0.000470
750000,0.0324,0.013523,0.002678,0.000431,0.000470
751000,0.0324,0.013523,0.002678,0.000431,0.000470
752000,0.0324,0.013523,0.002678,0.000431,0.000470
753000,0.0324,0.013523,0.002678,0.000431,0.000470
754000,0.0324,0.013523,0.002678,0.000431,0.000470
755000,0.0324,0.013523,0.002678,0.000431,0.000470
756000,0.0324,0.013523,0.002678,0.000431,0.000353
757000,0.0324,0.013523,0.002678,0.000431,0.000470
758000,0.0324,0.013523,0.002678,0.000431,0.000470
759000,0.0324,0.013523,0.002678,0.000431,0.000470
760000,0.0324,0.013523,0.002678,0.000431,0.000470
761000,0.0324,0.013523,0.002678,0.000431,0.000470
762000,0.0324,0.013523,0.002678,0.000431,0.000470
763000,0.0324,0.013523,0.002678,0.000431,0.000470
764000,0.0324,0.013523,0.002678,0.000431,0.000470
765000,0.0324,0.013523,0.002678,0.000431,0.000470
766000,0.0324,0.013523,0.002678,0.000431,0.000470
767000,0.0324,0.013523,0.002678,0.000431,0.000470
768000,0.0324,0.013523,0.002678,0.000431,0.000470
769000,0.0324,0.013523,0.002678,0.000431,0.000470
770000,0.0324,0.013523,0.002678,0.000431,0.000470
771000,0.0324,0.013523,0.002678,0.000431,0.000470
772000,0.0324,0.013523,0.002678,0.000431,0.000470
773000,0.0324,0.013523,0.002678,0.000431,0.000470
774000,0.0324,0.013523,0.002678,0.000431,0.000353
775000,0.0324,0.013523,0.002678,0.000431,0.000470
776000,0.0324,0.013523,0.002678,0.000431,0.000470
777000,0.0324,0.013523,0.002678,0.000431,0.000353
778000,0.0324,0.013523,0.002678,0.000431,0.000470
779000,0.0324,0.013523,0.002678,0.000431,0.000470
780000,0.0324,0.013523,0.002678,0.000431,0.000470
781000,0.0324,0.013523,0.002678,0.000431,0.000470
782000,0.0324,0.013523,0.002678,0.000431,0.000470
783000,0.0324,0.013523,0.002678,0.000431,0.000470
784000,0.0324,0.013523,0.002678,0.000431,0.000470
785000,0.0324,0.013523,0.002678,0.000431,0.000470
786000,0.0324,0.013523,0.002678,0.000431,0.000470
787000,0.0324,0.013523,0.002678,0.000431,0.000470
788000,0.0324,0.013523,0.002678,0.000431,0.000470
789000,0.0324,0.013523,0.002678,0.000431,0.000470
790000,0.0324,0.013523,0.002678,0.000431,0.000470
791000,0.0324,0.013523,0.002678,0.000431,0.000470
792000,0.0324,0.013523,0.002678,0.000431,0.000470
793000,0.0324,0.013523,0.002678,0.000431,0.000470
794000,0.0324,0.013523,0.002678,0.000431,0.000470
795000,0.0324,0.013523,0.002678,0.000431,0.000470
796000,0.0324,0.013523,0.002678,0.000431,0.000470
797000,0.0324,0.013523,0.002678,0.000431,0.000353
798000,0.0324,0.013523,0.002678,0.000431,0.000470
799000,0.0324,0.013523,0.002678,0.000431,0.000470
800000,0.0324,0.013523,0.002678,0.000431,0.000470
801000,0.0324,0.013523,0.002678,0.000431,0.000470
802000,0.0324,0.013523,0.002678,0.000431,0.000470
803000,0.0324,0.013523,0.002678,0.000431,0.000470
804000,0.0324,0.013523,0.002678,0.000431,0.000470
805000,0.0324,0.013523,0.002678,0.000431,0.000470
806000,0.0324,0.013523,0.002678,0.000431,0.000470
807000,0.0324,0.013523,0.002678,0.000431,0.000470
808000,0.0324,0.013523,0.002678,0.000431,0.000470
809000,0.0324,0.013523,0.002678,0.000431,0.000470
810000,0.0324,0.013523,0.002678,0.000431,0.000470
811000,0.0324,0.013523,0.002678,0.000431,0.000470
812000,0.0324,0.013523,0.002678,0.000431,0.000470
813000,0.0324,0.013523,0.002678,0.000431,0.000470
814000,0.0324,0.013523,0.002678,0.000431,0.000470
815000,0.0324,0.013523,0.002678,0.000431,0.000470
816000,0.0324,0.013523,0.002678,0.000431,0.000470
817000,0.0324,0.013523,0.002678,0.000431,0.000470
818000,0.0324,0.013523,0.002678,0.000431,0.000470
819000,0.0324,0.013523,0.002678,0.000431,0.000470
820000,0.0324,0.013523,0.002678,0.000431,0.000353
821000,0.0324,0.013523,0.002678,0.000431,0.000470
822000,0.0324,0.013523,0.002678,0.000431,0.000470
823000,0.0324,0.013523,0.002678,0.000431,0.000470
824000,0.0324,0.013523,0.002678,0.000431,0.000470
825000,0.0324,0.013523,0.002678,0.000431,0.000470
826000,0.0324,0.013523,0.002678,0.000431,0.000470
827000,0.0324,0.013523,0.002678,0.000431,0.000470
828000,0.0324,0.013523,0.002678,0.000431,0.000470
829000,0.0324,0.013523,0.002678,0.000431,0.000470
830000,0.0324,0.013523,0.002678,0.000431,0.000470
831000,0.0324,0.013523,0.002678,0.000431,0.000470
832000,0.0324,0.013523,0.002678,0.000431,0.000470
833000,0.0324,0.013523,0.002678,0.000431,0.000470
834000,0.0324,0.013523,0.002678,0.000431,0.000470
835000,0.0324,0.013523,0.002678,0.000431,0.000470
836000,0.0324,0.013523,0.002678,0.000431,0.000470
837000,0.0324,0.013523,0.002678,0.000431,0.000470
838000,0.0324,0.013523,0.002678,0.000431,0.000470
839000,0.0324,0.013523,0.002678,0.000431,0.000470
840000,0.0324,0.013523,0.002678,0.000431,0.000470
841000,0.0324,0.013523,0.002678,0.000431,0.000353
842000,0.0324,0.013523,0.002678,0.000431,0.000470
843000,0.0324,0.013523,0.002678,0.000431,0.000470
844000,0.0324,0.013523,0.002678,0.000431,0.000470
845000,0.0324,0.013523,0.002678,0.000431,0.000353
846000,0.0324,0.013523,0.002678,0.000431,0.000470
847000,0.0324,0.013523,0.002678,0.000431,0.000470
848000,0.0324,0.013523,0.002678,0.000431,0.000470
849000,0.0324,0.013523,0.002678,0.000431,0.000470
850000,0.0324,0.013523,0.002678,0.000431,0.000470
851000,0.0324,0.013523,0.002678,0.000431,0.000470
852000,0.0324,0.013523,0.002678,0.000431,0.000470
853000,0.0324,0.013523,0.002678,0.000431,0.000470
854000,0.0324,0.013523,0.002678,0.000431,0.000470
855000,0.0324,0.013523,0.002678,0.000431,0.000470
856000,0.0324,0.013523,0.002678,0.000431,0.000470
857000,0.0324,0.013523,0.002678,0.000431,0.000470
858000,0.0324,0.013523,0.002678,0.000431,0.000470
859000,0.0324,0.013523,0.002678,0.000431,0.000470
860000,0.0324,0.013523,0.002678,0.000431,0.000470
861000,0.0324,0.013523,0.002678,0.000431,0.000470
862000,0.0324,0.013523,0.002678,0.000431,0.000470
863000,0.0324,0.013523,0.002678,0.000431,0.000470
864000,0.0324,0.013523,0.002678,0.000431,0.000353
865000,0.0324,0.013523,0.002678,0.000431,0.000470
866000,0.0324,0.013523,0.002678,0.000431,0.000470
867000,0.0324,0.013523,0.002678,0.000431,0.000470
868000,0.0324,0.013523,0.002678,0.000431,0.000470
869000,0.0324,0.013523,0.002678,0.000431,0.000470
870000,0.0324,0.013523,0.002678,0.000431,0.000470
871000,0.0324,0.013523,0.002678,0.000431,0.000353
872000,0.0324,0.013523,0.002678,0.000431,0.000235
873000,0.0324,0.013523,0.002678,0.000431,0.000353
874000,0.0324,0.013523,0.002678,0.000431,0.000470
875000,0.0324,0.013523,0.002678,0.000431,0.000118
876000,0.0324,0.013523,0.002678,0.000431,0.000353
877000,0.0324,0.013523,0.002678,0.000431,0.000470
878000,0.0324,0.013523,0.002678,0.000431,0.000353
879000,0.0324,0.013523,0.002678,0.000431,0.000235
880000,0.0324,0.013523,0.002678,0.000431,0.000353
881000,0.0324,0.013523,0.002678,0.000431,0.000470
882000,0.0324,0.013523,0.002678,0.000431,0.000118
883000,0.0324,0.013523,0.002678,0.000431,0.000353
884000,0.0324,0.013523,0.002678,0.000431,0.000470
885000,0.0324,0.013523,0.002678,0.000431,0.000353
886000,0.0324,0.013523,0.002678,0.000431,0.000235
887000,0.0324,0.013523,0.002678,0.000431,0.000353
888000,0.0324,0.013523,0.002678,0.000431,0.000470
889000,0.0324,0.013523,0.002678,0.000431,0.000118
890000,0.0324,0.013523,0.002678,0.000431,0.000353
891000,0.0324,0.013523,0.002678,0.000431,0.000470
892000,0.0324,0.013523,0.002678,0.000431,0.000353
893000,0.0324,0.013523,0.002678,0.000431,0.000235
894000,0.0324,0.013523,0.002678,0.000431,0.000353
895000,0.0324,0.013523,0.002678,0.000431,0.000353
896000,0.0324,0.013523,0.002678,0.000431,0.000235
897000,0.0324,0.013523,0.002678,0.000431,0.000353
898000,0.0324,0.013523,0.002678,0.000431,0.000470
899000,0.0324,0.013523,0.002678,0.000431,0.000353
900000,0.0324,0.013523,0.002678,0.000431,0.000235
901000,0.0324,0.013523,0.002678,0.000431,0.000353
902000,0.0324,0.013523,0.002678,0.000431,0.000353
903000,0.0324,0.013523,0.002678,0.000431,0.000235
904000,0.0324,0.013523,0.002678,0.000431,0.000353
905000,0.0324,0.013523,0.002678,0.000431,0.000470
906000,0.0324,0.013523,0.002678,0.000431,0.000353
907000,0.0324,0.013523,0.002678,0.000431,0.000235
908000,0.0324,0.013523,0.002678,0.000431,0.000353
909000,0.0324,0.013523,0.002678,0.000431,0.000353
910000,0.0324,0.013523,0.002678,0.000431,0.000235
