Cycle,Area(mm^2),PeakDynamic(W),SubthresholdLeakage(W),GateLeakage(W),RunTimeDynamic(W)
2000000,0.0324,0.013523,0.002678,0.000431,0.847026
2001000,0.0324,0.013523,0.002678,0.000431,0.777214
2002000,0.0324,0.013523,0.002678,0.000431,0.828104
2003000,0.0324,0.013523,0.002678,0.000431,0.814940
2004000,0.0324,0.013523,0.002678,0.000431,0.782855
2005000,0.0324,0.013523,0.002678,0.000431,0.792963
2006000,0.0324,0.013523,0.002678,0.000431,0.771102
2007000,0.0324,0.013523,0.002678,0.000431,0.778037
2008000,0.0324,0.013523,0.002678,0.000431,0.799309
2009000,0.0324,0.013523,0.002678,0.000431,0.782503
2010000,0.0324,0.013523,0.002678,0.000431,0.797076
2011000,0.0324,0.013523,0.002678,0.000431,0.797194
2012000,0.0324,0.013523,0.002678,0.000431,0.774158
2013000,0.0324,0.013523,0.002678,0.000431,0.697882
2014000,0.0324,0.013523,0.002678,0.000431,0.739017
2015000,0.0324,0.013523,0.002678,0.000431,0.676375
2016000,0.0324,0.013523,0.002678,0.000431,0.695767
2017000,0.0324,0.013523,0.002678,0.000431,0.665797
2018000,0.0324,0.013523,0.002678,0.000431,0.672966
2019000,0.0324,0.013523,0.002678,0.000431,0.681428
2020000,0.0324,0.013523,0.002678,0.000431,0.670733
2021000,0.0324,0.013523,0.002678,0.000431,0.726912
2022000,0.0324,0.013523,0.002678,0.000431,0.660626
2023000,0.0324,0.013523,0.002678,0.000431,0.625367
2024000,0.0324,0.013523,0.002678,0.000431,0.588581
2025000,0.0324,0.013523,0.002678,0.000431,0.575300
2026000,0.0324,0.013523,0.002678,0.000431,0.562725
2027000,0.0324,0.013523,0.002678,0.000431,0.563900
2028000,0.0324,0.013523,0.002678,0.000431,0.599394
2029000,0.0324,0.013523,0.002678,0.000431,0.560727
2030000,0.0324,0.013523,0.002678,0.000431,0.544978
2031000,0.0324,0.013523,0.002678,0.000431,0.547094
2032000,0.0324,0.013523,0.002678,0.000431,0.571422
2033000,0.0324,0.013523,0.002678,0.000431,0.539807
2034000,0.0324,0.013523,0.002678,0.000431,0.502198
2035000,0.0324,0.013523,0.002678,0.000431,0.492090
2036000,0.0324,0.013523,0.002678,0.000431,0.551442
2037000,0.0324,0.013523,0.002678,0.000431,0.475637
2038000,0.0324,0.013523,0.002678,0.000431,0.524528
2039000,0.0324,0.013523,0.002678,0.000431,0.500435
2040000,0.0324,0.013523,0.002678,0.000431,0.486802
2041000,0.0324,0.013523,0.002678,0.000431,0.486919
2042000,0.0324,0.013523,0.002678,0.000431,0.521355
2043000,0.0324,0.013523,0.002678,0.000431,0.517242
2044000,0.0324,0.013523,0.002678,0.000431,0.502903
2045000,0.0324,0.013523,0.002678,0.000431,0.476459
2046000,0.0324,0.013523,0.002678,0.000431,0.497379
2047000,0.0324,0.013523,0.002678,0.000431,0.504078
2048000,0.0324,0.013523,0.002678,0.000431,0.512775
2049000,0.0324,0.013523,0.002678,0.000431,0.491973
2050000,0.0324,0.013523,0.002678,0.000431,0.455657
2051000,0.0324,0.013523,0.002678,0.000431,0.458948
2052000,0.0324,0.013523,0.002678,0.000431,0.404414
2053000,0.0324,0.013523,0.002678,0.000431,0.399478
2054000,0.0324,0.013523,0.002678,0.000431,0.400183
2055000,0.0324,0.013523,0.002678,0.000431,0.445197
2056000,0.0324,0.013523,0.002678,0.000431,0.477047
2057000,0.0324,0.013523,0.002678,0.000431,0.415345
2058000,0.0324,0.013523,0.002678,0.000431,0.414169
2059000,0.0324,0.013523,0.002678,0.000431,0.381261
2060000,0.0324,0.013523,0.002678,0.000431,0.384435
2061000,0.0324,0.013523,0.002678,0.000431,0.394425
2062000,0.0324,0.013523,0.002678,0.000431,0.427215
2063000,0.0324,0.013523,0.002678,0.000431,0.365865
2064000,0.0324,0.013523,0.002678,0.000431,0.364337
2065000,0.0324,0.013523,0.002678,0.000431,0.386198
2066000,0.0324,0.013523,0.002678,0.000431,0.381144
2067000,0.0324,0.013523,0.002678,0.000431,0.366335
2068000,0.0324,0.013523,0.002678,0.000431,0.383377
2069000,0.0324,0.013523,0.002678,0.000431,0.345180
2070000,0.0324,0.013523,0.002678,0.000431,0.380556
2071000,0.0324,0.013523,0.002678,0.000431,0.365983
2072000,0.0324,0.013523,0.002678,0.000431,0.344005
2073000,0.0324,0.013523,0.002678,0.000431,0.324613
2074000,0.0324,0.013523,0.002678,0.000431,0.297699
2075000,0.0324,0.013523,0.002678,0.000431,0.326846
2076000,0.0324,0.013523,0.002678,0.000431,0.334250
2077000,0.0324,0.013523,0.002678,0.000431,0.316033
2078000,0.0324,0.013523,0.002678,0.000431,0.313095
2079000,0.0324,0.013523,0.002678,0.000431,0.267964
2080000,0.0324,0.013523,0.002678,0.000431,0.308982
2081000,0.0324,0.013523,0.002678,0.000431,0.293233
2082000,0.0324,0.013523,0.002678,0.000431,0.288062
2083000,0.0324,0.013523,0.002678,0.000431,0.281480
2084000,0.0324,0.013523,0.002678,0.000431,0.262323
2085000,0.0324,0.013523,0.002678,0.000431,0.241520
2086000,0.0324,0.013523,0.002678,0.000431,0.249982
2087000,0.0324,0.013523,0.002678,0.000431,0.229885
2088000,0.0324,0.013523,0.002678,0.000431,0.242931
2089000,0.0324,0.013523,0.002678,0.000431,0.265966
2090000,0.0324,0.013523,0.002678,0.000431,0.220365
2091000,0.0324,0.013523,0.002678,0.000431,0.204382
2092000,0.0324,0.013523,0.002678,0.000431,0.227535
2093000,0.0324,0.013523,0.002678,0.000431,0.251275
2094000,0.0324,0.013523,0.002678,0.000431,0.209083
2095000,0.0324,0.013523,0.002678,0.000431,0.235174
2096000,0.0324,0.013523,0.002678,0.000431,0.221306
2097000,0.0324,0.013523,0.002678,0.000431,0.213784
2098000,0.0324,0.013523,0.002678,0.000431,0.177232
2099000,0.0324,0.013523,0.002678,0.000431,0.165832
2100000,0.0324,0.013523,0.002678,0.000431,0.152317
2101000,0.0324,0.013523,0.002678,0.000431,0.166302
2102000,0.0324,0.013523,0.002678,0.000431,0.157605
2103000,0.0324,0.013523,0.002678,0.000431,0.168888
2104000,0.0324,0.013523,0.002678,0.000431,0.187457
2105000,0.0324,0.013523,0.002678,0.000431,0.180171
2106000,0.0324,0.013523,0.002678,0.000431,0.180993
2107000,0.0324,0.013523,0.002678,0.000431,0.170651
2108000,0.0324,0.013523,0.002678,0.000431,0.174882
2109000,0.0324,0.013523,0.002678,0.000431,0.186282
2110000,0.0324,0.013523,0.002678,0.000431,0.158546
2111000,0.0324,0.013523,0.002678,0.000431,0.182991
2112000,0.0324,0.013523,0.002678,0.000431,0.165950
2113000,0.0324,0.013523,0.002678,0.000431,0.152081
2114000,0.0324,0.013523,0.002678,0.000431,0.148791
2115000,0.0324,0.013523,0.002678,0.000431,0.143972
2116000,0.0324,0.013523,0.002678,0.000431,0.151376
2117000,0.0324,0.013523,0.002678,0.000431,0.137038
2118000,0.0324,0.013523,0.002678,0.000431,0.159721
2119000,0.0324,0.013523,0.002678,0.000431,0.151729
2120000,0.0324,0.013523,0.002678,0.000431,0.145147
2121000,0.0324,0.013523,0.002678,0.000431,0.145030
2122000,0.0324,0.013523,0.002678,0.000431,0.139741
2123000,0.0324,0.013523,0.002678,0.000431,0.110594
2124000,0.0324,0.013523,0.002678,0.000431,0.123875
2125000,0.0324,0.013523,0.002678,0.000431,0.127753
2126000,0.0324,0.013523,0.002678,0.000431,0.124227
2127000,0.0324,0.013523,0.002678,0.000431,0.109184
2128000,0.0324,0.013523,0.002678,0.000431,0.100252
2129000,0.0324,0.013523,0.002678,0.000431,0.090379
2130000,0.0324,0.013523,0.002678,0.000431,0.101074
2131000,0.0324,0.013523,0.002678,0.000431,0.115060
2132000,0.0324,0.013523,0.002678,0.000431,0.109654
2133000,0.0324,0.013523,0.002678,0.000431,0.118703
2134000,0.0324,0.013523,0.002678,0.000431,0.120936
2135000,0.0324,0.013523,0.002678,0.000431,0.123757
2136000,0.0324,0.013523,0.002678,0.000431,0.108361
2137000,0.0324,0.013523,0.002678,0.000431,0.100604
2138000,0.0324,0.013523,0.002678,0.000431,0.079332
2139000,0.0324,0.013523,0.002678,0.000431,0.082740
2140000,0.0324,0.013523,0.002678,0.000431,0.106833
2141000,0.0324,0.013523,0.002678,0.000431,0.108126
2142000,0.0324,0.013523,0.002678,0.000431,0.137273
2143000,0.0324,0.013523,0.002678,0.000431,0.106128
2144000,0.0324,0.013523,0.002678,0.000431,0.084150
2145000,0.0324,0.013523,0.002678,0.000431,0.080859
2146000,0.0324,0.013523,0.002678,0.000431,0.102837
2147000,0.0324,0.013523,0.002678,0.000431,0.085796
2148000,0.0324,0.013523,0.002678,0.000431,0.060527
2149000,0.0324,0.013523,0.002678,0.000431,0.091084
2150000,0.0324,0.013523,0.002678,0.000431,0.090614
2151000,0.0324,0.013523,0.002678,0.000431,0.084385
2152000,0.0324,0.013523,0.002678,0.000431,0.080742
2153000,0.0324,0.013523,0.002678,0.000431,0.061115
2154000,0.0324,0.013523,0.002678,0.000431,0.077216
2155000,0.0324,0.013523,0.002678,0.000431,0.076746
2156000,0.0324,0.013523,0.002678,0.000431,0.071457
2157000,0.0324,0.013523,0.002678,0.000431,0.080507
2158000,0.0324,0.013523,0.002678,0.000431,0.084268
2159000,0.0324,0.013523,0.002678,0.000431,0.084150
2160000,0.0324,0.013523,0.002678,0.000431,0.056531
2161000,0.0324,0.013523,0.002678,0.000431,0.060292
2162000,0.0324,0.013523,0.002678,0.000431,0.072397
2163000,0.0324,0.013523,0.002678,0.000431,0.070517
2164000,0.0324,0.013523,0.002678,0.000431,0.061467
2165000,0.0324,0.013523,0.002678,0.000431,0.043015
2166000,0.0324,0.013523,0.002678,0.000431,0.055708
2167000,0.0324,0.013523,0.002678,0.000431,0.041605
2168000,0.0324,0.013523,0.002678,0.000431,0.044778
2169000,0.0324,0.013523,0.002678,0.000431,0.035611
2170000,0.0324,0.013523,0.002678,0.000431,0.037256
2171000,0.0324,0.013523,0.002678,0.000431,0.043015
2172000,0.0324,0.013523,0.002678,0.000431,0.048069
2173000,0.0324,0.013523,0.002678,0.000431,0.051360
2174000,0.0324,0.013523,0.002678,0.000431,0.050772
2175000,0.0324,0.013523,0.002678,0.000431,0.059939
2176000,0.0324,0.013523,0.002678,0.000431,0.057354
2177000,0.0324,0.013523,0.002678,0.000431,0.055121
2178000,0.0324,0.013523,0.002678,0.000431,0.051712
2179000,0.0324,0.013523,0.002678,0.000431,0.053593
2180000,0.0324,0.013523,0.002678,0.000431,0.050067
2181000,0.0324,0.013523,0.002678,0.000431,0.046894
2182000,0.0324,0.013523,0.002678,0.000431,0.044191
2183000,0.0324,0.013523,0.002678,0.000431,0.039725
2184000,0.0324,0.013523,0.002678,0.000431,0.052065
2185000,0.0324,0.013523,0.002678,0.000431,0.043368
2186000,0.0324,0.013523,0.002678,0.000431,0.053123
2187000,0.0324,0.013523,0.002678,0.000431,0.052535
2188000,0.0324,0.013523,0.002678,0.000431,0.043956
2189000,0.0324,0.013523,0.002678,0.000431,0.046776
2190000,0.0324,0.013523,0.002678,0.000431,0.036081
2191000,0.0324,0.013523,0.002678,0.000431,0.043368
2192000,0.0324,0.013523,0.002678,0.000431,0.035964
2193000,0.0324,0.013523,0.002678,0.000431,0.038784
2194000,0.0324,0.013523,0.002678,0.000431,0.037256
2195000,0.0324,0.013523,0.002678,0.000431,0.044543
2196000,0.0324,0.013523,0.002678,0.000431,0.041723
2197000,0.0324,0.013523,0.002678,0.000431,0.041252
2198000,0.0324,0.013523,0.002678,0.000431,0.036434
2199000,0.0324,0.013523,0.002678,0.000431,0.035611
2200000,0.0324,0.013523,0.002678,0.000431,0.043720
2201000,0.0324,0.013523,0.002678,0.000431,0.037844
2202000,0.0324,0.013523,0.002678,0.000431,0.039254
2203000,0.0324,0.013523,0.002678,0.000431,0.048304
2204000,0.0324,0.013523,0.002678,0.000431,0.045248
2205000,0.0324,0.013523,0.002678,0.000431,0.058176
2206000,0.0324,0.013523,0.002678,0.000431,0.042545
2207000,0.0324,0.013523,0.002678,0.000431,0.044073
2208000,0.0324,0.013523,0.002678,0.000431,0.044073
2209000,0.0324,0.013523,0.002678,0.000431,0.055473
2210000,0.0324,0.013523,0.002678,0.000431,0.034788
2211000,0.0324,0.013523,0.002678,0.000431,0.045954
2212000,0.0324,0.013523,0.002678,0.000431,0.057706
2213000,0.0324,0.013523,0.002678,0.000431,0.044308
2214000,0.0324,0.013523,0.002678,0.000431,0.044191
2215000,0.0324,0.013523,0.002678,0.000431,0.044308
2216000,0.0324,0.013523,0.002678,0.000431,0.053005
2217000,0.0324,0.013523,0.002678,0.000431,0.045483
2218000,0.0324,0.013523,0.002678,0.000431,0.052770
2219000,0.0324,0.013523,0.002678,0.000431,0.043838
2220000,0.0324,0.013523,0.002678,0.000431,0.048892
2221000,0.0324,0.013523,0.002678,0.000431,0.038079
2222000,0.0324,0.013523,0.002678,0.000431,0.032085
2223000,0.0324,0.013523,0.002678,0.000431,0.033143
2224000,0.0324,0.013523,0.002678,0.000431,0.026679
2225000,0.0324,0.013523,0.002678,0.000431,0.029500
2226000,0.0324,0.013523,0.002678,0.000431,0.034201
2227000,0.0324,0.013523,0.002678,0.000431,0.041370
2228000,0.0324,0.013523,0.002678,0.000431,0.035964
2229000,0.0324,0.013523,0.002678,0.000431,0.039960
2230000,0.0324,0.013523,0.002678,0.000431,0.040195
2231000,0.0324,0.013523,0.002678,0.000431,0.040077
2232000,0.0324,0.013523,0.002678,0.000431,0.027149
2233000,0.0324,0.013523,0.002678,0.000431,0.030440
2234000,0.0324,0.013523,0.002678,0.000431,0.033260
2235000,0.0324,0.013523,0.002678,0.000431,0.028559
2236000,0.0324,0.013523,0.002678,0.000431,0.027384
2237000,0.0324,0.013523,0.002678,0.000431,0.024563
2238000,0.0324,0.013523,0.002678,0.000431,0.021390
2239000,0.0324,0.013523,0.002678,0.000431,0.026914
2240000,0.0324,0.013523,0.002678,0.000431,0.034318
2241000,0.0324,0.013523,0.002678,0.000431,0.024328
2242000,0.0324,0.013523,0.002678,0.000431,0.024211
2243000,0.0324,0.013523,0.002678,0.000431,0.026091
2244000,0.0324,0.013523,0.002678,0.000431,0.024446
2245000,0.0324,0.013523,0.002678,0.000431,0.033025
2246000,0.0324,0.013523,0.002678,0.000431,0.029617
2247000,0.0324,0.013523,0.002678,0.000431,0.034083
2248000,0.0324,0.013523,0.002678,0.000431,0.035611
2249000,0.0324,0.013523,0.002678,0.000431,0.026796
2250000,0.0324,0.013523,0.002678,0.000431,0.019510
2251000,0.0324,0.013523,0.002678,0.000431,0.021038
2252000,0.0324,0.013523,0.002678,0.000431,0.021273
2253000,0.0324,0.013523,0.002678,0.000431,0.026091
2254000,0.0324,0.013523,0.002678,0.000431,0.024563
2255000,0.0324,0.013523,0.002678,0.000431,0.023506
2256000,0.0324,0.013523,0.002678,0.000431,0.025974
2257000,0.0324,0.013523,0.002678,0.000431,0.021860
2258000,0.0324,0.013523,0.002678,0.000431,0.019040
2259000,0.0324,0.013523,0.002678,0.000431,0.026444
2260000,0.0324,0.013523,0.002678,0.000431,0.020567
2261000,0.0324,0.013523,0.002678,0.000431,0.025151
2262000,0.0324,0.013523,0.002678,0.000431,0.022565
2263000,0.0324,0.013523,0.002678,0.000431,0.024211
2264000,0.0324,0.013523,0.002678,0.000431,0.020450
2265000,0.0324,0.013523,0.002678,0.000431,0.021743
2266000,0.0324,0.013523,0.002678,0.000431,0.021390
2267000,0.0324,0.013523,0.002678,0.000431,0.015749
2268000,0.0324,0.013523,0.002678,0.000431,0.021625
2269000,0.0324,0.013523,0.002678,0.000431,0.018452
2270000,0.0324,0.013523,0.002678,0.000431,0.018922
2271000,0.0324,0.013523,0.002678,0.000431,0.011048
2272000,0.0324,0.013523,0.002678,0.000431,0.009872
2273000,0.0324,0.013523,0.002678,0.000431,0.011518
2274000,0.0324,0.013523,0.002678,0.000431,0.014103
2275000,0.0324,0.013523,0.002678,0.000431,0.011518
2276000,0.0324,0.013523,0.002678,0.000431,0.011753
2277000,0.0324,0.013523,0.002678,0.000431,0.010460
2278000,0.0324,0.013523,0.002678,0.000431,0.008815
2279000,0.0324,0.013523,0.002678,0.000431,0.010107
2280000,0.0324,0.013523,0.002678,0.000431,0.009637
2281000,0.0324,0.013523,0.002678,0.000431,0.005876
2282000,0.0324,0.013523,0.002678,0.000431,0.011048
2283000,0.0324,0.013523,0.002678,0.000431,0.009167
2284000,0.0324,0.013523,0.002678,0.000431,0.002116
2285000,0.0324,0.013523,0.002678,0.000431,0.003291
2286000,0.0324,0.013523,0.002678,0.000431,0.006229
2287000,0.0324,0.013523,0.002678,0.000431,0.002233
2288000,0.0324,0.013523,0.002678,0.000431,0.003878
2289000,0.0324,0.013523,0.002678,0.000431,0.010460
2290000,0.0324,0.013523,0.002678,0.000431,0.006817
2291000,0.0324,0.013523,0.002678,0.000431,0.002938
2292000,0.0324,0.013523,0.002678,0.000431,0.008932
2293000,0.0324,0.013523,0.002678,0.000431,0.000823
2294000,0.0324,0.013523,0.002678,0.000431,0.003173
2295000,0.0324,0.013523,0.002678,0.000431,0.001410
2296000,0.0324,0.013523,0.002678,0.000431,0.004936
2297000,0.0324,0.013523,0.002678,0.000431,0.003996
2298000,0.0324,0.013523,0.002678,0.000431,0.000940
2299000,0.0324,0.013523,0.002678,0.000431,0.001175
2300000,0.0324,0.013523,0.002678,0.000431,0.000823
2301000,0.0324,0.013523,0.002678,0.000431,0.002586
2302000,0.0324,0.013523,0.002678,0.000431,0.002586
2303000,0.0324,0.013523,0.002678,0.000431,0.002586
2304000,0.0324,0.013523,0.002678,0.000431,0.008462
2305000,0.0324,0.013523,0.002678,0.000431,0.003878
2306000,0.0324,0.013523,0.002678,0.000431,0.002116
2307000,0.0324,0.013523,0.002678,0.000431,0.001528
2308000,0.0324,0.013523,0.002678,0.000431,0.001175
2309000,0.0324,0.013523,0.002678,0.000431,0.000940
2310000,0.0324,0.013523,0.002678,0.000431,0.001880
2311000,0.0324,0.013523,0.002678,0.000431,0.001645
2312000,0.0324,0.013523,0.002678,0.000431,0.000940
2313000,0.0324,0.013523,0.002678,0.000431,0.002351
2314000,0.0324,0.013523,0.002678,0.000431,0.005406
2315000,0.0324,0.013523,0.002678,0.000431,0.004231
2316000,0.0324,0.013523,0.002678,0.000431,0.000940
2317000,0.0324,0.013523,0.002678,0.000431,0.001058
2318000,0.0324,0.013523,0.002678,0.000431,0.001410
2319000,0.0324,0.013523,0.002678,0.000431,0.004466
2320000,0.0324,0.013523,0.002678,0.000431,0.000823
2321000,0.0324,0.013523,0.002678,0.000431,0.000940
2322000,0.0324,0.013523,0.002678,0.000431,0.001410
2323000,0.0324,0.013523,0.002678,0.000431,0.001175
2324000,0.0324,0.013523,0.002678,0.000431,0.003291
2325000,0.0324,0.013523,0.002678,0.000431,0.001763
2326000,0.0324,0.013523,0.002678,0.000431,0.000940
2327000,0.0324,0.013523,0.002678,0.000431,0.000823
2328000,0.0324,0.013523,0.002678,0.000431,0.001410
2329000,0.0324,0.013523,0.002678,0.000431,0.001175
2330000,0.0324,0.013523,0.002678,0.000431,0.001293
2331000,0.0324,0.013523,0.002678,0.000431,0.004113
2332000,0.0324,0.013523,0.002678,0.000431,0.000705
2333000,0.0324,0.013523,0.002678,0.000431,0.003056
2334000,0.0324,0.013523,0.002678,0.000431,0.002468
2335000,0.0324,0.013523,0.002678,0.000431,0.001175
2336000,0.0324,0.013523,0.002678,0.000431,0.002468
2337000,0.0324,0.013523,0.002678,0.000431,0.001410
2338000,0.0324,0.013523,0.002678,0.000431,0.000940
2339000,0.0324,0.013523,0.002678,0.000431,0.001410
2340000,0.0324,0.013523,0.002678,0.000431,0.001645
2341000,0.0324,0.013523,0.002678,0.000431,0.002703
2342000,0.0324,0.013523,0.002678,0.000431,0.001763
2343000,0.0324,0.013523,0.002678,0.000431,0.002586
2344000,0.0324,0.013523,0.002678,0.000431,0.003056
2345000,0.0324,0.013523,0.002678,0.000431,0.002703
2346000,0.0324,0.013523,0.002678,0.000431,0.009755
2347000,0.0324,0.013523,0.002678,0.000431,0.003173
2348000,0.0324,0.013523,0.002678,0.000431,0.001293
2349000,0.0324,0.013523,0.002678,0.000431,0.000940
2350000,0.0324,0.013523,0.002678,0.000431,0.000823
2351000,0.0324,0.013523,0.002678,0.000431,0.001293
2352000,0.0324,0.013523,0.002678,0.000431,0.004584
2353000,0.0324,0.013523,0.002678,0.000431,0.002938
2354000,0.0324,0.013523,0.002678,0.000431,0.002821
2355000,0.0324,0.013523,0.002678,0.000431,0.004231
2356000,0.0324,0.013523,0.002678,0.000431,0.000940
2357000,0.0324,0.013523,0.002678,0.000431,0.001645
2358000,0.0324,0.013523,0.002678,0.000431,0.001763
2359000,0.0324,0.013523,0.002678,0.000431,0.001175
2360000,0.0324,0.013523,0.002678,0.000431,0.001998
2361000,0.0324,0.013523,0.002678,0.000431,0.006111
2362000,0.0324,0.013523,0.002678,0.000431,0.001410
2363000,0.0324,0.013523,0.002678,0.000431,0.001175
2364000,0.0324,0.013523,0.002678,0.000431,0.001528
2365000,0.0324,0.013523,0.002678,0.000431,0.008345
2366000,0.0324,0.013523,0.002678,0.000431,0.007287
2367000,0.0324,0.013523,0.002678,0.000431,0.011753
2368000,0.0324,0.013523,0.002678,0.000431,0.008932
2369000,0.0324,0.013523,0.002678,0.000431,0.008697
2370000,0.0324,0.013523,0.002678,0.000431,0.012458
2371000,0.0324,0.013523,0.002678,0.000431,0.011988
2372000,0.0324,0.013523,0.002678,0.000431,0.008109
2373000,0.0324,0.013523,0.002678,0.000431,0.009050
2374000,0.0324,0.013523,0.002678,0.000431,0.008815
2375000,0.0324,0.013523,0.002678,0.000431,0.012340
2376000,0.0324,0.013523,0.002678,0.000431,0.008697
2377000,0.0324,0.013523,0.002678,0.000431,0.011635
2378000,0.0324,0.013523,0.002678,0.000431,0.009520
2379000,0.0324,0.013523,0.002678,0.000431,0.008462
2380000,0.0324,0.013523,0.002678,0.000431,0.008932
2381000,0.0324,0.013523,0.002678,0.000431,0.012223
2382000,0.0324,0.013523,0.002678,0.000431,0.011048
2383000,0.0324,0.013523,0.002678,0.000431,0.009402
2384000,0.0324,0.013523,0.002678,0.000431,0.008932
2385000,0.0324,0.013523,0.002678,0.000431,0.008462
2386000,0.0324,0.013523,0.002678,0.000431,0.012576
2387000,0.0324,0.013523,0.002678,0.000431,0.009637
2388000,0.0324,0.013523,0.002678,0.000431,0.011165
2389000,0.0324,0.013523,0.002678,0.000431,0.008462
2390000,0.0324,0.013523,0.002678,0.000431,0.012693
2391000,0.0324,0.013523,0.002678,0.000431,0.010460
2392000,0.0324,0.013523,0.002678,0.000431,0.009990
2393000,0.0324,0.013523,0.002678,0.000431,0.008697
2394000,0.0324,0.013523,0.002678,0.000431,0.008697
2395000,0.0324,0.013523,0.002678,0.000431,0.008462
2396000,0.0324,0.013523,0.002678,0.000431,0.012458
2397000,0.0324,0.013523,0.002678,0.000431,0.010930
2398000,0.0324,0.013523,0.002678,0.000431,0.009755
2399000,0.0324,0.013523,0.002678,0.000431,0.008697
2400000,0.0324,0.013523,0.002678,0.000431,0.003996
2401000,0.0324,0.013523,0.002678,0.000431,0.001058
2402000,0.0324,0.013523,0.002678,0.000431,0.001058
2403000,0.0324,0.013523,0.002678,0.000431,0.001763
2404000,0.0324,0.013523,0.002678,0.000431,0.001410
2405000,0.0324,0.013523,0.002678,0.000431,0.003291
2406000,0.0324,0.013523,0.002678,0.000431,0.002351
2407000,0.0324,0.013523,0.002678,0.000431,0.002938
2408000,0.0324,0.013523,0.002678,0.000431,0.001763
2409000,0.0324,0.013523,0.002678,0.000431,0.002821
2410000,0.0324,0.013523,0.002678,0.000431,0.002468
2411000,0.0324,0.013523,0.002678,0.000431,0.000940
2412000,0.0324,0.013523,0.002678,0.000431,0.001410
2413000,0.0324,0.013523,0.002678,0.000431,0.001528
2414000,0.0324,0.013523,0.002678,0.000431,0.001175
2415000,0.0324,0.013523,0.002678,0.000431,0.003291
2416000,0.0324,0.013523,0.002678,0.000431,0.002233
2417000,0.0324,0.013523,0.002678,0.000431,0.001175
2418000,0.0324,0.013523,0.002678,0.000431,0.001645
2419000,0.0324,0.013523,0.002678,0.000431,0.001645
2420000,0.0324,0.013523,0.002678,0.000431,0.007287
2421000,0.0324,0.013523,0.002678,0.000431,0.012223
2422000,0.0324,0.013523,0.002678,0.000431,0.009755
2423000,0.0324,0.013523,0.002678,0.000431,0.010930
2424000,0.0324,0.013523,0.002678,0.000431,0.001998
2425000,0.0324,0.013523,0.002678,0.000431,0.001645
2426000,0.0324,0.013523,0.002678,0.000431,0.001058
