Cycle,Area(mm^2),PeakDynamic(W),SubthresholdLeakage(W),GateLeakage(W),RunTimeDynamic(W)
2000000,0.0324,0.013523,0.002678,0.000431,0.693769
2001000,0.0324,0.013523,0.002678,0.000431,0.684132
2002000,0.0324,0.013523,0.002678,0.000431,0.706462
2003000,0.0324,0.013523,0.002678,0.000431,0.694357
2004000,0.0324,0.013523,0.002678,0.000431,0.686130
2005000,0.0324,0.013523,0.002678,0.000431,0.677197
2006000,0.0324,0.013523,0.002678,0.000431,0.693416
2007000,0.0324,0.013523,0.002678,0.000431,0.679665
2008000,0.0324,0.013523,0.002678,0.000431,0.679783
2009000,0.0324,0.013523,0.002678,0.000431,0.696237
2010000,0.0324,0.013523,0.002678,0.000431,0.668970
2011000,0.0324,0.013523,0.002678,0.000431,0.680253
2012000,0.0324,0.013523,0.002678,0.000431,0.668970
2013000,0.0324,0.013523,0.002678,0.000431,0.668148
2014000,0.0324,0.013523,0.002678,0.000431,0.656395
2015000,0.0324,0.013523,0.002678,0.000431,0.690596
2016000,0.0324,0.013523,0.002678,0.000431,0.680488
2017000,0.0324,0.013523,0.002678,0.000431,0.698117
2018000,0.0324,0.013523,0.002678,0.000431,0.725972
2019000,0.0324,0.013523,0.002678,0.000431,0.675434
2020000,0.0324,0.013523,0.002678,0.000431,0.646640
2021000,0.0324,0.013523,0.002678,0.000431,0.653339
2022000,0.0324,0.013523,0.002678,0.000431,0.656395
2023000,0.0324,0.013523,0.002678,0.000431,0.668500
2024000,0.0324,0.013523,0.002678,0.000431,0.662389
2025000,0.0324,0.013523,0.002678,0.000431,0.677432
2026000,0.0324,0.013523,0.002678,0.000431,0.676022
2027000,0.0324,0.013523,0.002678,0.000431,0.682956
2028000,0.0324,0.013523,0.002678,0.000431,0.672144
2029000,0.0324,0.013523,0.002678,0.000431,0.671674
2030000,0.0324,0.013523,0.002678,0.000431,0.674259
2031000,0.0324,0.013523,0.002678,0.000431,0.694827
2032000,0.0324,0.013523,0.002678,0.000431,0.692711
2033000,0.0324,0.013523,0.002678,0.000431,0.686600
2034000,0.0324,0.013523,0.002678,0.000431,0.677667
2035000,0.0324,0.013523,0.002678,0.000431,0.676962
2036000,0.0324,0.013523,0.002678,0.000431,0.673319
2037000,0.0324,0.013523,0.002678,0.000431,0.720683
2038000,0.0324,0.013523,0.002678,0.000431,0.701291
2039000,0.0324,0.013523,0.002678,0.000431,0.669441
2040000,0.0324,0.013523,0.002678,0.000431,0.640411
2041000,0.0324,0.013523,0.002678,0.000431,0.648168
2042000,0.0324,0.013523,0.002678,0.000431,0.642409
2043000,0.0324,0.013523,0.002678,0.000431,0.658863
2044000,0.0324,0.013523,0.002678,0.000431,0.663212
2045000,0.0324,0.013523,0.002678,0.000431,0.686247
2046000,0.0324,0.013523,0.002678,0.000431,0.679313
2047000,0.0324,0.013523,0.002678,0.000431,0.713396
2048000,0.0324,0.013523,0.002678,0.000431,0.701291
2049000,0.0324,0.013523,0.002678,0.000431,0.690478
2050000,0.0324,0.013523,0.002678,0.000431,0.702466
2051000,0.0324,0.013523,0.002678,0.000431,0.647580
2052000,0.0324,0.013523,0.002678,0.000431,0.667560
2053000,0.0324,0.013523,0.002678,0.000431,0.660273
2054000,0.0324,0.013523,0.002678,0.000431,0.666032
2055000,0.0324,0.013523,0.002678,0.000431,0.662271
2056000,0.0324,0.013523,0.002678,0.000431,0.687422
2057000,0.0324,0.013523,0.002678,0.000431,0.670028
2058000,0.0324,0.013523,0.002678,0.000431,0.685777
2059000,0.0324,0.013523,0.002678,0.000431,0.659803
2060000,0.0324,0.013523,0.002678,0.000431,0.603860
2061000,0.0324,0.013523,0.002678,0.000431,0.654632
2062000,0.0324,0.013523,0.002678,0.000431,0.658510
2063000,0.0324,0.013523,0.002678,0.000431,0.649813
2064000,0.0324,0.013523,0.002678,0.000431,0.655102
2065000,0.0324,0.013523,0.002678,0.000431,0.642409
2066000,0.0324,0.013523,0.002678,0.000431,0.677080
2067000,0.0324,0.013523,0.002678,0.000431,0.666620
2068000,0.0324,0.013523,0.002678,0.000431,0.636650
2069000,0.0324,0.013523,0.002678,0.000431,0.645582
2070000,0.0324,0.013523,0.002678,0.000431,0.643467
2071000,0.0324,0.013523,0.002678,0.000431,0.641821
2072000,0.0324,0.013523,0.002678,0.000431,0.647463
2073000,0.0324,0.013523,0.002678,0.000431,0.663094
2074000,0.0324,0.013523,0.002678,0.000431,0.671086
2075000,0.0324,0.013523,0.002678,0.000431,0.658158
2076000,0.0324,0.013523,0.002678,0.000431,0.640176
2077000,0.0324,0.013523,0.002678,0.000431,0.688363
2078000,0.0324,0.013523,0.002678,0.000431,0.711046
2079000,0.0324,0.013523,0.002678,0.000431,0.658275
2080000,0.0324,0.013523,0.002678,0.000431,0.630774
2081000,0.0324,0.013523,0.002678,0.000431,0.624310
2082000,0.0324,0.013523,0.002678,0.000431,0.646405
2083000,0.0324,0.013523,0.002678,0.000431,0.643937
2084000,0.0324,0.013523,0.002678,0.000431,0.640999
2085000,0.0324,0.013523,0.002678,0.000431,0.650401
2086000,0.0324,0.013523,0.002678,0.000431,0.651224
2087000,0.0324,0.013523,0.002678,0.000431,0.658393
2088000,0.0324,0.013523,0.002678,0.000431,0.651341
2089000,0.0324,0.013523,0.002678,0.000431,0.665797
2090000,0.0324,0.013523,0.002678,0.000431,0.639118
2091000,0.0324,0.013523,0.002678,0.000431,0.664857
2092000,0.0324,0.013523,0.002678,0.000431,0.660156
2093000,0.0324,0.013523,0.002678,0.000431,0.655807
2094000,0.0324,0.013523,0.002678,0.000431,0.657570
2095000,0.0324,0.013523,0.002678,0.000431,0.633359
2096000,0.0324,0.013523,0.002678,0.000431,0.695884
2097000,0.0324,0.013523,0.002678,0.000431,0.674259
2098000,0.0324,0.013523,0.002678,0.000431,0.657805
2099000,0.0324,0.013523,0.002678,0.000431,0.660861
2100000,0.0324,0.013523,0.002678,0.000431,0.676492
2101000,0.0324,0.013523,0.002678,0.000431,0.661919
2102000,0.0324,0.013523,0.002678,0.000431,0.670968
2103000,0.0324,0.013523,0.002678,0.000431,0.668030
2104000,0.0324,0.013523,0.002678,0.000431,0.655807
2105000,0.0324,0.013523,0.002678,0.000431,0.661214
2106000,0.0324,0.013523,0.002678,0.000431,0.651224
2107000,0.0324,0.013523,0.002678,0.000431,0.631949
2108000,0.0324,0.013523,0.002678,0.000431,0.662271
2109000,0.0324,0.013523,0.002678,0.000431,0.659098
2110000,0.0324,0.013523,0.002678,0.000431,0.668148
2111000,0.0324,0.013523,0.002678,0.000431,0.651694
2112000,0.0324,0.013523,0.002678,0.000431,0.669441
2113000,0.0324,0.013523,0.002678,0.000431,0.654867
2114000,0.0324,0.013523,0.002678,0.000431,0.634887
2115000,0.0324,0.013523,0.002678,0.000431,0.641821
2116000,0.0324,0.013523,0.002678,0.000431,0.645465
2117000,0.0324,0.013523,0.002678,0.000431,0.654867
2118000,0.0324,0.013523,0.002678,0.000431,0.659216
2119000,0.0324,0.013523,0.002678,0.000431,0.639353
2120000,0.0324,0.013523,0.002678,0.000431,0.637473
2121000,0.0324,0.013523,0.002678,0.000431,0.654279
2122000,0.0324,0.013523,0.002678,0.000431,0.643819
2123000,0.0324,0.013523,0.002678,0.000431,0.650754
2124000,0.0324,0.013523,0.002678,0.000431,0.664504
2125000,0.0324,0.013523,0.002678,0.000431,0.674142
2126000,0.0324,0.013523,0.002678,0.000431,0.666150
2127000,0.0324,0.013523,0.002678,0.000431,0.644995
2128000,0.0324,0.013523,0.002678,0.000431,0.641939
2129000,0.0324,0.013523,0.002678,0.000431,0.642762
2130000,0.0324,0.013523,0.002678,0.000431,0.654632
2131000,0.0324,0.013523,0.002678,0.000431,0.662389
2132000,0.0324,0.013523,0.002678,0.000431,0.691301
2133000,0.0324,0.013523,0.002678,0.000431,0.654279
2134000,0.0324,0.013523,0.002678,0.000431,0.641586
2135000,0.0324,0.013523,0.002678,0.000431,0.648991
2136000,0.0324,0.013523,0.002678,0.000431,0.657805
2137000,0.0324,0.013523,0.002678,0.000431,0.652752
2138000,0.0324,0.013523,0.002678,0.000431,0.650048
2139000,0.0324,0.013523,0.002678,0.000431,0.652752
2140000,0.0324,0.013523,0.002678,0.000431,0.613027
2141000,0.0324,0.013523,0.002678,0.000431,0.649226
2142000,0.0324,0.013523,0.002678,0.000431,0.670498
2143000,0.0324,0.013523,0.002678,0.000431,0.662271
2144000,0.0324,0.013523,0.002678,0.000431,0.645230
2145000,0.0324,0.013523,0.002678,0.000431,0.643819
2146000,0.0324,0.013523,0.002678,0.000431,0.654750
2147000,0.0324,0.013523,0.002678,0.000431,0.664857
2148000,0.0324,0.013523,0.002678,0.000431,0.668853
2149000,0.0324,0.013523,0.002678,0.000431,0.671556
2150000,0.0324,0.013523,0.002678,0.000431,0.665797
2151000,0.0324,0.013523,0.002678,0.000431,0.646640
2152000,0.0324,0.013523,0.002678,0.000431,0.627248
2153000,0.0324,0.013523,0.002678,0.000431,0.643232
2154000,0.0324,0.013523,0.002678,0.000431,0.662389
2155000,0.0324,0.013523,0.002678,0.000431,0.658981
2156000,0.0324,0.013523,0.002678,0.000431,0.647110
2157000,0.0324,0.013523,0.002678,0.000431,0.663564
2158000,0.0324,0.013523,0.002678,0.000431,0.658393
2159000,0.0324,0.013523,0.002678,0.000431,0.650871
2160000,0.0324,0.013523,0.002678,0.000431,0.678020
2161000,0.0324,0.013523,0.002678,0.000431,0.699880
2162000,0.0324,0.013523,0.002678,0.000431,0.675434
2163000,0.0324,0.013523,0.002678,0.000431,0.657218
2164000,0.0324,0.013523,0.002678,0.000431,0.673789
2165000,0.0324,0.013523,0.002678,0.000431,0.647580
2166000,0.0324,0.013523,0.002678,0.000431,0.651106
2167000,0.0324,0.013523,0.002678,0.000431,0.669088
2168000,0.0324,0.013523,0.002678,0.000431,0.679548
2169000,0.0324,0.013523,0.002678,0.000431,0.682604
2170000,0.0324,0.013523,0.002678,0.000431,0.627013
2171000,0.0324,0.013523,0.002678,0.000431,0.643819
2172000,0.0324,0.013523,0.002678,0.000431,0.658745
2173000,0.0324,0.013523,0.002678,0.000431,0.657335
2174000,0.0324,0.013523,0.002678,0.000431,0.671203
2175000,0.0324,0.013523,0.002678,0.000431,0.682486
2176000,0.0324,0.013523,0.002678,0.000431,0.642056
2177000,0.0324,0.013523,0.002678,0.000431,0.673554
2178000,0.0324,0.013523,0.002678,0.000431,0.686012
2179000,0.0324,0.013523,0.002678,0.000431,0.669676
2180000,0.0324,0.013523,0.002678,0.000431,0.693534
2181000,0.0324,0.013523,0.002678,0.000431,0.678138
2182000,0.0324,0.013523,0.002678,0.000431,0.696942
2183000,0.0324,0.013523,0.002678,0.000431,0.696472
2184000,0.0324,0.013523,0.002678,0.000431,0.649108
2185000,0.0324,0.013523,0.002678,0.000431,0.659451
2186000,0.0324,0.013523,0.002678,0.000431,0.658393
2187000,0.0324,0.013523,0.002678,0.000431,0.699528
2188000,0.0324,0.013523,0.002678,0.000431,0.640999
2189000,0.0324,0.013523,0.002678,0.000431,0.653692
2190000,0.0324,0.013523,0.002678,0.000431,0.667678
2191000,0.0324,0.013523,0.002678,0.000431,0.656865
2192000,0.0324,0.013523,0.002678,0.000431,0.669676
2193000,0.0324,0.013523,0.002678,0.000431,0.641821
2194000,0.0324,0.013523,0.002678,0.000431,0.660508
2195000,0.0324,0.013523,0.002678,0.000431,0.671321
2196000,0.0324,0.013523,0.002678,0.000431,0.712926
2197000,0.0324,0.013523,0.002678,0.000431,0.680606
2198000,0.0324,0.013523,0.002678,0.000431,0.669558
2199000,0.0324,0.013523,0.002678,0.000431,0.663212
2200000,0.0324,0.013523,0.002678,0.000431,0.646052
2201000,0.0324,0.013523,0.002678,0.000431,0.669205
2202000,0.0324,0.013523,0.002678,0.000431,0.614320
2203000,0.0324,0.013523,0.002678,0.000431,0.687775
2204000,0.0324,0.013523,0.002678,0.000431,0.668500
2205000,0.0324,0.013523,0.002678,0.000431,0.654162
2206000,0.0324,0.013523,0.002678,0.000431,0.631009
2207000,0.0324,0.013523,0.002678,0.000431,0.634652
2208000,0.0324,0.013523,0.002678,0.000431,0.651576
2209000,0.0324,0.013523,0.002678,0.000431,0.673436
2210000,0.0324,0.013523,0.002678,0.000431,0.685189
2211000,0.0324,0.013523,0.002678,0.000431,0.658628
2212000,0.0324,0.013523,0.002678,0.000431,0.661331
2213000,0.0324,0.013523,0.002678,0.000431,0.663917
2214000,0.0324,0.013523,0.002678,0.000431,0.652634
2215000,0.0324,0.013523,0.002678,0.000431,0.650754
2216000,0.0324,0.013523,0.002678,0.000431,0.658275
2217000,0.0324,0.013523,0.002678,0.000431,0.668618
2218000,0.0324,0.013523,0.002678,0.000431,0.663682
2219000,0.0324,0.013523,0.002678,0.000431,0.656160
2220000,0.0324,0.013523,0.002678,0.000431,0.663094
2221000,0.0324,0.013523,0.002678,0.000431,0.644995
2222000,0.0324,0.013523,0.002678,0.000431,0.638766
2223000,0.0324,0.013523,0.002678,0.000431,0.647580
2224000,0.0324,0.013523,0.002678,0.000431,0.627483
2225000,0.0324,0.013523,0.002678,0.000431,0.640646
2226000,0.0324,0.013523,0.002678,0.000431,0.632184
2227000,0.0324,0.013523,0.002678,0.000431,0.657218
2228000,0.0324,0.013523,0.002678,0.000431,0.656747
2229000,0.0324,0.013523,0.002678,0.000431,0.668148
2230000,0.0324,0.013523,0.002678,0.000431,0.681781
2231000,0.0324,0.013523,0.002678,0.000431,0.667560
2232000,0.0324,0.013523,0.002678,0.000431,0.656747
2233000,0.0324,0.013523,0.002678,0.000431,0.657218
2234000,0.0324,0.013523,0.002678,0.000431,0.668383
2235000,0.0324,0.013523,0.002678,0.000431,0.656160
2236000,0.0324,0.013523,0.002678,0.000431,0.678255
2237000,0.0324,0.013523,0.002678,0.000431,0.674377
2238000,0.0324,0.013523,0.002678,0.000431,0.660391
2239000,0.0324,0.013523,0.002678,0.000431,0.689420
2240000,0.0324,0.013523,0.002678,0.000431,0.682839
2241000,0.0324,0.013523,0.002678,0.000431,0.634417
2242000,0.0324,0.013523,0.002678,0.000431,0.666267
2243000,0.0324,0.013523,0.002678,0.000431,0.659451
2244000,0.0324,0.013523,0.002678,0.000431,0.658275
2245000,0.0324,0.013523,0.002678,0.000431,0.664974
2246000,0.0324,0.013523,0.002678,0.000431,0.676610
2247000,0.0324,0.013523,0.002678,0.000431,0.685542
2248000,0.0324,0.013523,0.002678,0.000431,0.666385
2249000,0.0324,0.013523,0.002678,0.000431,0.663682
2250000,0.0324,0.013523,0.002678,0.000431,0.643937
2251000,0.0324,0.013523,0.002678,0.000431,0.666385
2252000,0.0324,0.013523,0.002678,0.000431,0.676140
2253000,0.0324,0.013523,0.002678,0.000431,0.653574
2254000,0.0324,0.013523,0.002678,0.000431,0.671203
2255000,0.0324,0.013523,0.002678,0.000431,0.688363
2256000,0.0324,0.013523,0.002678,0.000431,0.686835
2257000,0.0324,0.013523,0.002678,0.000431,0.672614
2258000,0.0324,0.013523,0.002678,0.000431,0.651341
2259000,0.0324,0.013523,0.002678,0.000431,0.670498
2260000,0.0324,0.013523,0.002678,0.000431,0.651929
2261000,0.0324,0.013523,0.002678,0.000431,0.696237
2262000,0.0324,0.013523,0.002678,0.000431,0.655455
2263000,0.0324,0.013523,0.002678,0.000431,0.654867
2264000,0.0324,0.013523,0.002678,0.000431,0.687540
2265000,0.0324,0.013523,0.002678,0.000431,0.674494
2266000,0.0324,0.013523,0.002678,0.000431,0.660743
2267000,0.0324,0.013523,0.002678,0.000431,0.650989
2268000,0.0324,0.013523,0.002678,0.000431,0.644407
2269000,0.0324,0.013523,0.002678,0.000431,0.648521
2270000,0.0324,0.013523,0.002678,0.000431,0.687657
2271000,0.0324,0.013523,0.002678,0.000431,0.657805
2272000,0.0324,0.013523,0.002678,0.000431,0.646052
2273000,0.0324,0.013523,0.002678,0.000431,0.671086
2274000,0.0324,0.013523,0.002678,0.000431,0.679783
2275000,0.0324,0.013523,0.002678,0.000431,0.671909
2276000,0.0324,0.013523,0.002678,0.000431,0.658040
2277000,0.0324,0.013523,0.002678,0.000431,0.655690
2278000,0.0324,0.013523,0.002678,0.000431,0.661801
2279000,0.0324,0.013523,0.002678,0.000431,0.670381
2280000,0.0324,0.013523,0.002678,0.000431,0.644172
2281000,0.0324,0.013523,0.002678,0.000431,0.679078
2282000,0.0324,0.013523,0.002678,0.000431,0.670616
2283000,0.0324,0.013523,0.002678,0.000431,0.650636
2284000,0.0324,0.013523,0.002678,0.000431,0.664034
2285000,0.0324,0.013523,0.002678,0.000431,0.659216
2286000,0.0324,0.013523,0.002678,0.000431,0.647698
2287000,0.0324,0.013523,0.002678,0.000431,0.668383
2288000,0.0324,0.013523,0.002678,0.000431,0.657570
2289000,0.0324,0.013523,0.002678,0.000431,0.600451
2290000,0.0324,0.013523,0.002678,0.000431,0.668618
2291000,0.0324,0.013523,0.002678,0.000431,0.676962
2292000,0.0324,0.013523,0.002678,0.000431,0.669088
2293000,0.0324,0.013523,0.002678,0.000431,0.668500
2294000,0.0324,0.013523,0.002678,0.000431,0.668265
2295000,0.0324,0.013523,0.002678,0.000431,0.693886
2296000,0.0324,0.013523,0.002678,0.000431,0.667795
2297000,0.0324,0.013523,0.002678,0.000431,0.652399
2298000,0.0324,0.013523,0.002678,0.000431,0.690831
2299000,0.0324,0.013523,0.002678,0.000431,0.660861
2300000,0.0324,0.013523,0.002678,0.000431,0.648756
2301000,0.0324,0.013523,0.002678,0.000431,0.679548
2302000,0.0324,0.013523,0.002678,0.000431,0.643467
2303000,0.0324,0.013523,0.002678,0.000431,0.681311
2304000,0.0324,0.013523,0.002678,0.000431,0.660273
2305000,0.0324,0.013523,0.002678,0.000431,0.647463
2306000,0.0324,0.013523,0.002678,0.000431,0.661801
2307000,0.0324,0.013523,0.002678,0.000431,0.658158
2308000,0.0324,0.013523,0.002678,0.000431,0.651106
2309000,0.0324,0.013523,0.002678,0.000431,0.664622
2310000,0.0324,0.013523,0.002678,0.000431,0.669558
2311000,0.0324,0.013523,0.002678,0.000431,0.689303
2312000,0.0324,0.013523,0.002678,0.000431,0.655925
2313000,0.0324,0.013523,0.002678,0.000431,0.657688
2314000,0.0324,0.013523,0.002678,0.000431,0.683896
2315000,0.0324,0.013523,0.002678,0.000431,0.665327
2316000,0.0324,0.013523,0.002678,0.000431,0.686835
2317000,0.0324,0.013523,0.002678,0.000431,0.668970
2318000,0.0324,0.013523,0.002678,0.000431,0.676610
2319000,0.0324,0.013523,0.002678,0.000431,0.644407
2320000,0.0324,0.013523,0.002678,0.000431,0.676257
2321000,0.0324,0.013523,0.002678,0.000431,0.673554
2322000,0.0324,0.013523,0.002678,0.000431,0.653692
2323000,0.0324,0.013523,0.002678,0.000431,0.663564
2324000,0.0324,0.013523,0.002678,0.000431,0.654750
2325000,0.0324,0.013523,0.002678,0.000431,0.671086
2326000,0.0324,0.013523,0.002678,0.000431,0.643349
2327000,0.0324,0.013523,0.002678,0.000431,0.638296
2328000,0.0324,0.013523,0.002678,0.000431,0.652634
2329000,0.0324,0.013523,0.002678,0.000431,0.653457
2330000,0.0324,0.013523,0.002678,0.000431,0.640999
2331000,0.0324,0.013523,0.002678,0.000431,0.656983
2332000,0.0324,0.013523,0.002678,0.000431,0.641234
2333000,0.0324,0.013523,0.002678,0.000431,0.658158
2334000,0.0324,0.013523,0.002678,0.000431,0.662859
2335000,0.0324,0.013523,0.002678,0.000431,0.672496
2336000,0.0324,0.013523,0.002678,0.000431,0.639001
2337000,0.0324,0.013523,0.002678,0.000431,0.652164
2338000,0.0324,0.013523,0.002678,0.000431,0.656865
2339000,0.0324,0.013523,0.002678,0.000431,0.660978
2340000,0.0324,0.013523,0.002678,0.000431,0.650989
2341000,0.0324,0.013523,0.002678,0.000431,0.669205
2342000,0.0324,0.013523,0.002678,0.000431,0.653692
2343000,0.0324,0.013523,0.002678,0.000431,0.669793
2344000,0.0324,0.013523,0.002678,0.000431,0.672731
2345000,0.0324,0.013523,0.002678,0.000431,0.644172
2346000,0.0324,0.013523,0.002678,0.000431,0.679195
2347000,0.0324,0.013523,0.002678,0.000431,0.660156
2348000,0.0324,0.013523,0.002678,0.000431,0.679313
2349000,0.0324,0.013523,0.002678,0.000431,0.674729
2350000,0.0324,0.013523,0.002678,0.000431,0.681311
2351000,0.0324,0.013523,0.002678,0.000431,0.668383
2352000,0.0324,0.013523,0.002678,0.000431,0.647463
2353000,0.0324,0.013523,0.002678,0.000431,0.679195
2354000,0.0324,0.013523,0.002678,0.000431,0.669205
2355000,0.0324,0.013523,0.002678,0.000431,0.666267
2356000,0.0324,0.013523,0.002678,0.000431,0.665797
2357000,0.0324,0.013523,0.002678,0.000431,0.660743
2358000,0.0324,0.013523,0.002678,0.000431,0.673789
2359000,0.0324,0.013523,0.002678,0.000431,0.664974
2360000,0.0324,0.013523,0.002678,0.000431,0.643232
2361000,0.0324,0.013523,0.002678,0.000431,0.667795
2362000,0.0324,0.013523,0.002678,0.000431,0.656042
2363000,0.0324,0.013523,0.002678,0.000431,0.660508
2364000,0.0324,0.013523,0.002678,0.000431,0.645230
2365000,0.0324,0.013523,0.002678,0.000431,0.655220
2366000,0.0324,0.013523,0.002678,0.000431,0.646875
2367000,0.0324,0.013523,0.002678,0.000431,0.659098
2368000,0.0324,0.013523,0.002678,0.000431,0.677080
2369000,0.0324,0.013523,0.002678,0.000431,0.664622
2370000,0.0324,0.013523,0.002678,0.000431,0.653574
2371000,0.0324,0.013523,0.002678,0.000431,0.672496
2372000,0.0324,0.013523,0.002678,0.000431,0.669205
2373000,0.0324,0.013523,0.002678,0.000431,0.667913
2374000,0.0324,0.013523,0.002678,0.000431,0.663094
2375000,0.0324,0.013523,0.002678,0.000431,0.684484
2376000,0.0324,0.013523,0.002678,0.000431,0.702231
2377000,0.0324,0.013523,0.002678,0.000431,0.674612
2378000,0.0324,0.013523,0.002678,0.000431,0.656747
2379000,0.0324,0.013523,0.002678,0.000431,0.655572
2380000,0.0324,0.013523,0.002678,0.000431,0.666972
2381000,0.0324,0.013523,0.002678,0.000431,0.650754
2382000,0.0324,0.013523,0.002678,0.000431,0.641821
2383000,0.0324,0.013523,0.002678,0.000431,0.670498
2384000,0.0324,0.013523,0.002678,0.000431,0.650401
2385000,0.0324,0.013523,0.002678,0.000431,0.682721
2386000,0.0324,0.013523,0.002678,0.000431,0.653692
2387000,0.0324,0.013523,0.002678,0.000431,0.649931
2388000,0.0324,0.013523,0.002678,0.000431,0.649578
2389000,0.0324,0.013523,0.002678,0.000431,0.670733
2390000,0.0324,0.013523,0.002678,0.000431,0.666855
2391000,0.0324,0.013523,0.002678,0.000431,0.653809
2392000,0.0324,0.013523,0.002678,0.000431,0.661919
2393000,0.0324,0.013523,0.002678,0.000431,0.676140
2394000,0.0324,0.013523,0.002678,0.000431,0.659098
2395000,0.0324,0.013523,0.002678,0.000431,0.664739
2396000,0.0324,0.013523,0.002678,0.000431,0.635122
2397000,0.0324,0.013523,0.002678,0.000431,0.651576
2398000,0.0324,0.013523,0.002678,0.000431,0.675434
2399000,0.0324,0.013523,0.002678,0.000431,0.661331
2400000,0.0324,0.013523,0.002678,0.000431,0.685542
2401000,0.0324,0.013523,0.002678,0.000431,0.667560
2402000,0.0324,0.013523,0.002678,0.000431,0.661566
2403000,0.0324,0.013523,0.002678,0.000431,0.693651
2404000,0.0324,0.013523,0.002678,0.000431,0.659216
2405000,0.0324,0.013523,0.002678,0.000431,0.676727
2406000,0.0324,0.013523,0.002678,0.000431,0.654514
2407000,0.0324,0.013523,0.002678,0.000431,0.643232
2408000,0.0324,0.013523,0.002678,0.000431,0.642644
2409000,0.0324,0.013523,0.002678,0.000431,0.640058
2410000,0.0324,0.013523,0.002678,0.000431,0.663917
2411000,0.0324,0.013523,0.002678,0.000431,0.662271
2412000,0.0324,0.013523,0.002678,0.000431,0.656512
2413000,0.0324,0.013523,0.002678,0.000431,0.643467
2414000,0.0324,0.013523,0.002678,0.000431,0.655455
2415000,0.0324,0.013523,0.002678,0.000431,0.647228
2416000,0.0324,0.013523,0.002678,0.000431,0.651341
2417000,0.0324,0.013523,0.002678,0.000431,0.653222
2418000,0.0324,0.013523,0.002678,0.000431,0.642409
2419000,0.0324,0.013523,0.002678,0.000431,0.650518
2420000,0.0324,0.013523,0.002678,0.000431,0.656630
2421000,0.0324,0.013523,0.002678,0.000431,0.651576
2422000,0.0324,0.013523,0.002678,0.000431,0.642997
2423000,0.0324,0.013523,0.002678,0.000431,0.658745
2424000,0.0324,0.013523,0.002678,0.000431,0.648873
2425000,0.0324,0.013523,0.002678,0.000431,0.670028
2426000,0.0324,0.013523,0.002678,0.000431,0.687657
2427000,0.0324,0.013523,0.002678,0.000431,0.661684
2428000,0.0324,0.013523,0.002678,0.000431,0.682486
2429000,0.0324,0.013523,0.002678,0.000431,0.662506
2430000,0.0324,0.013523,0.002678,0.000431,0.659686
2431000,0.0324,0.013523,0.002678,0.000431,0.640176
2432000,0.0324,0.013523,0.002678,0.000431,0.637473
2433000,0.0324,0.013523,0.002678,0.000431,0.649813
2434000,0.0324,0.013523,0.002678,0.000431,0.658158
2435000,0.0324,0.013523,0.002678,0.000431,0.649578
2436000,0.0324,0.013523,0.002678,0.000431,0.664034
2437000,0.0324,0.013523,0.002678,0.000431,0.653222
2438000,0.0324,0.013523,0.002678,0.000431,0.659686
2439000,0.0324,0.013523,0.002678,0.000431,0.666267
2440000,0.0324,0.013523,0.002678,0.000431,0.659921
2441000,0.0324,0.013523,0.002678,0.000431,0.669441
2442000,0.0324,0.013523,0.002678,0.000431,0.656865
2443000,0.0324,0.013523,0.002678,0.000431,0.668970
2444000,0.0324,0.013523,0.002678,0.000431,0.646875
2445000,0.0324,0.013523,0.002678,0.000431,0.655220
2446000,0.0324,0.013523,0.002678,0.000431,0.639001
2447000,0.0324,0.013523,0.002678,0.000431,0.656630
2448000,0.0324,0.013523,0.002678,0.000431,0.639823
2449000,0.0324,0.013523,0.002678,0.000431,0.645935
2450000,0.0324,0.013523,0.002678,0.000431,0.621019
2451000,0.0324,0.013523,0.002678,0.000431,0.679078
2452000,0.0324,0.013523,0.002678,0.000431,0.657923
2453000,0.0324,0.013523,0.002678,0.000431,0.671909
2454000,0.0324,0.013523,0.002678,0.000431,0.658510
2455000,0.0324,0.013523,0.002678,0.000431,0.662506
2456000,0.0324,0.013523,0.002678,0.000431,0.664269
2457000,0.0324,0.013523,0.002678,0.000431,0.669558
2458000,0.0324,0.013523,0.002678,0.000431,0.667913
2459000,0.0324,0.013523,0.002678,0.000431,0.665327
2460000,0.0324,0.013523,0.002678,0.000431,0.666620
2461000,0.0324,0.013523,0.002678,0.000431,0.663094
2462000,0.0324,0.013523,0.002678,0.000431,0.656747
2463000,0.0324,0.013523,0.002678,0.000431,0.661566
2464000,0.0324,0.013523,0.002678,0.000431,0.639353
2465000,0.0324,0.013523,0.002678,0.000431,0.662976
2466000,0.0324,0.013523,0.002678,0.000431,0.638766
2467000,0.0324,0.013523,0.002678,0.000431,0.650401
2468000,0.0324,0.013523,0.002678,0.000431,0.647815
2469000,0.0324,0.013523,0.002678,0.000431,0.683779
2470000,0.0324,0.013523,0.002678,0.000431,0.687305
2471000,0.0324,0.013523,0.002678,0.000431,0.696472
2472000,0.0324,0.013523,0.002678,0.000431,0.669558
2473000,0.0324,0.013523,0.002678,0.000431,0.664034
2474000,0.0324,0.013523,0.002678,0.000431,0.668853
2475000,0.0324,0.013523,0.002678,0.000431,0.657100
2476000,0.0324,0.013523,0.002678,0.000431,0.660626
2477000,0.0324,0.013523,0.002678,0.000431,0.651576
2478000,0.0324,0.013523,0.002678,0.000431,0.671674
2479000,0.0324,0.013523,0.002678,0.000431,0.662859
2480000,0.0324,0.013523,0.002678,0.000431,0.673201
2481000,0.0324,0.013523,0.002678,0.000431,0.649813
2482000,0.0324,0.013523,0.002678,0.000431,0.674494
2483000,0.0324,0.013523,0.002678,0.000431,0.674964
2484000,0.0324,0.013523,0.002678,0.000431,0.668265
2485000,0.0324,0.013523,0.002678,0.000431,0.650871
2486000,0.0324,0.013523,0.002678,0.000431,0.661801
2487000,0.0324,0.013523,0.002678,0.000431,0.644289
2488000,0.0324,0.013523,0.002678,0.000431,0.631361
2489000,0.0324,0.013523,0.002678,0.000431,0.660038
2490000,0.0324,0.013523,0.002678,0.000431,0.637590
2491000,0.0324,0.013523,0.002678,0.000431,0.660156
2492000,0.0324,0.013523,0.002678,0.000431,0.655102
2493000,0.0324,0.013523,0.002678,0.000431,0.697530
2494000,0.0324,0.013523,0.002678,0.000431,0.654397
2495000,0.0324,0.013523,0.002678,0.000431,0.666972
2496000,0.0324,0.013523,0.002678,0.000431,0.678255
2497000,0.0324,0.013523,0.002678,0.000431,0.678255
2498000,0.0324,0.013523,0.002678,0.000431,0.644172
2499000,0.0324,0.013523,0.002678,0.000431,0.624897
2500000,0.0324,0.013523,0.002678,0.000431,0.638296
2501000,0.0324,0.013523,0.002678,0.000431,0.648756
2502000,0.0324,0.013523,0.002678,0.000431,0.631009
2503000,0.0324,0.013523,0.002678,0.000431,0.658275
2504000,0.0324,0.013523,0.002678,0.000431,0.657923
2505000,0.0324,0.013523,0.002678,0.000431,0.626425
2506000,0.0324,0.013523,0.002678,0.000431,0.640058
2507000,0.0324,0.013523,0.002678,0.000431,0.641704
2508000,0.0324,0.013523,0.002678,0.000431,0.635827
2509000,0.0324,0.013523,0.002678,0.000431,0.661214
2510000,0.0324,0.013523,0.002678,0.000431,0.664269
2511000,0.0324,0.013523,0.002678,0.000431,0.643819
2512000,0.0324,0.013523,0.002678,0.000431,0.639706
2513000,0.0324,0.013523,0.002678,0.000431,0.647815
2514000,0.0324,0.013523,0.002678,0.000431,0.648638
2515000,0.0324,0.013523,0.002678,0.000431,0.657218
2516000,0.0324,0.013523,0.002678,0.000431,0.679195
2517000,0.0324,0.013523,0.002678,0.000431,0.677667
2518000,0.0324,0.013523,0.002678,0.000431,0.649813
2519000,0.0324,0.013523,0.002678,0.000431,0.642409
2520000,0.0324,0.013523,0.002678,0.000431,0.638883
2521000,0.0324,0.013523,0.002678,0.000431,0.636063
2522000,0.0324,0.013523,0.002678,0.000431,0.621842
2523000,0.0324,0.013523,0.002678,0.000431,0.626778
2524000,0.0324,0.013523,0.002678,0.000431,0.669088
2525000,0.0324,0.013523,0.002678,0.000431,0.663682
2526000,0.0324,0.013523,0.002678,0.000431,0.641704
2527000,0.0324,0.013523,0.002678,0.000431,0.650518
2528000,0.0324,0.013523,0.002678,0.000431,0.654867
2529000,0.0324,0.013523,0.002678,0.000431,0.630069
2530000,0.0324,0.013523,0.002678,0.000431,0.632302
2531000,0.0324,0.013523,0.002678,0.000431,0.621842
2532000,0.0324,0.013523,0.002678,0.000431,0.637825
2533000,0.0324,0.013523,0.002678,0.000431,0.636298
2534000,0.0324,0.013523,0.002678,0.000431,0.640411
2535000,0.0324,0.013523,0.002678,0.000431,0.651929
2536000,0.0324,0.013523,0.002678,0.000431,0.673436
2537000,0.0324,0.013523,0.002678,0.000431,0.644642
2538000,0.0324,0.013523,0.002678,0.000431,0.632184
2539000,0.0324,0.013523,0.002678,0.000431,0.654985
2540000,0.0324,0.013523,0.002678,0.000431,0.660038
2541000,0.0324,0.013523,0.002678,0.000431,0.653692
2542000,0.0324,0.013523,0.002678,0.000431,0.657100
2543000,0.0324,0.013523,0.002678,0.000431,0.624075
2544000,0.0324,0.013523,0.002678,0.000431,0.646170
2545000,0.0324,0.013523,0.002678,0.000431,0.656630
2546000,0.0324,0.013523,0.002678,0.000431,0.651694
2547000,0.0324,0.013523,0.002678,0.000431,0.639118
2548000,0.0324,0.013523,0.002678,0.000431,0.642174
2549000,0.0324,0.013523,0.002678,0.000431,0.660978
2550000,0.0324,0.013523,0.002678,0.000431,0.628188
2551000,0.0324,0.013523,0.002678,0.000431,0.658628
2552000,0.0324,0.013523,0.002678,0.000431,0.621607
2553000,0.0324,0.013523,0.002678,0.000431,0.625838
2554000,0.0324,0.013523,0.002678,0.000431,0.642292
2555000,0.0324,0.013523,0.002678,0.000431,0.633594
2556000,0.0324,0.013523,0.002678,0.000431,0.635827
2557000,0.0324,0.013523,0.002678,0.000431,0.658745
2558000,0.0324,0.013523,0.002678,0.000431,0.651811
2559000,0.0324,0.013523,0.002678,0.000431,0.655807
2560000,0.0324,0.013523,0.002678,0.000431,0.648285
2561000,0.0324,0.013523,0.002678,0.000431,0.646993
2562000,0.0324,0.013523,0.002678,0.000431,0.638296
2563000,0.0324,0.013523,0.002678,0.000431,0.646052
2564000,0.0324,0.013523,0.002678,0.000431,0.661331
2565000,0.0324,0.013523,0.002678,0.000431,0.635827
2566000,0.0324,0.013523,0.002678,0.000431,0.631949
2567000,0.0324,0.013523,0.002678,0.000431,0.654750
2568000,0.0324,0.013523,0.002678,0.000431,0.663917
2569000,0.0324,0.013523,0.002678,0.000431,0.663564
2570000,0.0324,0.013523,0.002678,0.000431,0.656160
2571000,0.0324,0.013523,0.002678,0.000431,0.657923
2572000,0.0324,0.013523,0.002678,0.000431,0.672731
2573000,0.0324,0.013523,0.002678,0.000431,0.639001
2574000,0.0324,0.013523,0.002678,0.000431,0.647580
2575000,0.0324,0.013523,0.002678,0.000431,0.634182
2576000,0.0324,0.013523,0.002678,0.000431,0.639471
2577000,0.0324,0.013523,0.002678,0.000431,0.611734
2578000,0.0324,0.013523,0.002678,0.000431,0.674377
2579000,0.0324,0.013523,0.002678,0.000431,0.671203
2580000,0.0324,0.013523,0.002678,0.000431,0.665797
2581000,0.0324,0.013523,0.002678,0.000431,0.660391
2582000,0.0324,0.013523,0.002678,0.000431,0.656512
2583000,0.0324,0.013523,0.002678,0.000431,0.654632
2584000,0.0324,0.013523,0.002678,0.000431,0.652281
2585000,0.0324,0.013523,0.002678,0.000431,0.612909
2586000,0.0324,0.013523,0.002678,0.000431,0.619491
2587000,0.0324,0.013523,0.002678,0.000431,0.616670
2588000,0.0324,0.013523,0.002678,0.000431,0.646640
2589000,0.0324,0.013523,0.002678,0.000431,0.644642
2590000,0.0324,0.013523,0.002678,0.000431,0.674259
2591000,0.0324,0.013523,0.002678,0.000431,0.641704
2592000,0.0324,0.013523,0.002678,0.000431,0.642527
2593000,0.0324,0.013523,0.002678,0.000431,0.655807
2594000,0.0324,0.013523,0.002678,0.000431,0.664504
2595000,0.0324,0.013523,0.002678,0.000431,0.656042
2596000,0.0324,0.013523,0.002678,0.000431,0.634770
2597000,0.0324,0.013523,0.002678,0.000431,0.629598
2598000,0.0324,0.013523,0.002678,0.000431,0.671791
2599000,0.0324,0.013523,0.002678,0.000431,0.646523
2600000,0.0324,0.013523,0.002678,0.000431,0.652281
2601000,0.0324,0.013523,0.002678,0.000431,0.652634
2602000,0.0324,0.013523,0.002678,0.000431,0.647580
2603000,0.0324,0.013523,0.002678,0.000431,0.647698
2604000,0.0324,0.013523,0.002678,0.000431,0.622312
2605000,0.0324,0.013523,0.002678,0.000431,0.639471
2606000,0.0324,0.013523,0.002678,0.000431,0.661096
2607000,0.0324,0.013523,0.002678,0.000431,0.656042
2608000,0.0324,0.013523,0.002678,0.000431,0.664857
2609000,0.0324,0.013523,0.002678,0.000431,0.650166
2610000,0.0324,0.013523,0.002678,0.000431,0.659333
2611000,0.0324,0.013523,0.002678,0.000431,0.649226
2612000,0.0324,0.013523,0.002678,0.000431,0.653574
2613000,0.0324,0.013523,0.002678,0.000431,0.667560
2614000,0.0324,0.013523,0.002678,0.000431,0.645112
2615000,0.0324,0.013523,0.002678,0.000431,0.638766
2616000,0.0324,0.013523,0.002678,0.000431,0.654985
2617000,0.0324,0.013523,0.002678,0.000431,0.650048
2618000,0.0324,0.013523,0.002678,0.000431,0.644877
2619000,0.0324,0.013523,0.002678,0.000431,0.662154
2620000,0.0324,0.013523,0.002678,0.000431,0.656865
2621000,0.0324,0.013523,0.002678,0.000431,0.659921
2622000,0.0324,0.013523,0.002678,0.000431,0.653457
2623000,0.0324,0.013523,0.002678,0.000431,0.653339
2624000,0.0324,0.013523,0.002678,0.000431,0.652869
2625000,0.0324,0.013523,0.002678,0.000431,0.635945
2626000,0.0324,0.013523,0.002678,0.000431,0.671909
2627000,0.0324,0.013523,0.002678,0.000431,0.677903
2628000,0.0324,0.013523,0.002678,0.000431,0.642762
2629000,0.0324,0.013523,0.002678,0.000431,0.665327
2630000,0.0324,0.013523,0.002678,0.000431,0.662741
2631000,0.0324,0.013523,0.002678,0.000431,0.637590
2632000,0.0324,0.013523,0.002678,0.000431,0.645347
2633000,0.0324,0.013523,0.002678,0.000431,0.639236
2634000,0.0324,0.013523,0.002678,0.000431,0.646170
2635000,0.0324,0.013523,0.002678,0.000431,0.645465
2636000,0.0324,0.013523,0.002678,0.000431,0.672144
2637000,0.0324,0.013523,0.002678,0.000431,0.644054
2638000,0.0324,0.013523,0.002678,0.000431,0.651929
2639000,0.0324,0.013523,0.002678,0.000431,0.659451
2640000,0.0324,0.013523,0.002678,0.000431,0.654514
2641000,0.0324,0.013523,0.002678,0.000431,0.657218
2642000,0.0324,0.013523,0.002678,0.000431,0.638061
2643000,0.0324,0.013523,0.002678,0.000431,0.637590
2644000,0.0324,0.013523,0.002678,0.000431,0.618316
2645000,0.0324,0.013523,0.002678,0.000431,0.645817
2646000,0.0324,0.013523,0.002678,0.000431,0.627248
2647000,0.0324,0.013523,0.002678,0.000431,0.628893
2648000,0.0324,0.013523,0.002678,0.000431,0.644054
2649000,0.0324,0.013523,0.002678,0.000431,0.633007
2650000,0.0324,0.013523,0.002678,0.000431,0.652634
2651000,0.0324,0.013523,0.002678,0.000431,0.668265
2652000,0.0324,0.013523,0.002678,0.000431,0.643349
2653000,0.0324,0.013523,0.002678,0.000431,0.648756
2654000,0.0324,0.013523,0.002678,0.000431,0.656277
2655000,0.0324,0.013523,0.002678,0.000431,0.674142
2656000,0.0324,0.013523,0.002678,0.000431,0.631361
2657000,0.0324,0.013523,0.002678,0.000431,0.655455
2658000,0.0324,0.013523,0.002678,0.000431,0.656747
2659000,0.0324,0.013523,0.002678,0.000431,0.647228
2660000,0.0324,0.013523,0.002678,0.000431,0.633359
2661000,0.0324,0.013523,0.002678,0.000431,0.670146
2662000,0.0324,0.013523,0.002678,0.000431,0.647110
2663000,0.0324,0.013523,0.002678,0.000431,0.614202
2664000,0.0324,0.013523,0.002678,0.000431,0.629951
2665000,0.0324,0.013523,0.002678,0.000431,0.642879
2666000,0.0324,0.013523,0.002678,0.000431,0.654279
2667000,0.0324,0.013523,0.002678,0.000431,0.644525
2668000,0.0324,0.013523,0.002678,0.000431,0.644407
2669000,0.0324,0.013523,0.002678,0.000431,0.640999
2670000,0.0324,0.013523,0.002678,0.000431,0.678373
2671000,0.0324,0.013523,0.002678,0.000431,0.653104
2672000,0.0324,0.013523,0.002678,0.000431,0.675787
2673000,0.0324,0.013523,0.002678,0.000431,0.646052
2674000,0.0324,0.013523,0.002678,0.000431,0.649343
2675000,0.0324,0.013523,0.002678,0.000431,0.676962
2676000,0.0324,0.013523,0.002678,0.000431,0.659803
2677000,0.0324,0.013523,0.002678,0.000431,0.653692
2678000,0.0324,0.013523,0.002678,0.000431,0.653574
2679000,0.0324,0.013523,0.002678,0.000431,0.644407
2680000,0.0324,0.013523,0.002678,0.000431,0.658275
2681000,0.0324,0.013523,0.002678,0.000431,0.655807
2682000,0.0324,0.013523,0.002678,0.000431,0.651224
2683000,0.0324,0.013523,0.002678,0.000431,0.655925
2684000,0.0324,0.013523,0.002678,0.000431,0.660508
2685000,0.0324,0.013523,0.002678,0.000431,0.661919
2686000,0.0324,0.013523,0.002678,0.000431,0.633829
2687000,0.0324,0.013523,0.002678,0.000431,0.643349
2688000,0.0324,0.013523,0.002678,0.000431,0.664622
2689000,0.0324,0.013523,0.002678,0.000431,0.660743
2690000,0.0324,0.013523,0.002678,0.000431,0.681311
2691000,0.0324,0.013523,0.002678,0.000431,0.648285
2692000,0.0324,0.013523,0.002678,0.000431,0.652399
2693000,0.0324,0.013523,0.002678,0.000431,0.641234
2694000,0.0324,0.013523,0.002678,0.000431,0.638531
2695000,0.0324,0.013523,0.002678,0.000431,0.642762
2696000,0.0324,0.013523,0.002678,0.000431,0.652869
2697000,0.0324,0.013523,0.002678,0.000431,0.661096
2698000,0.0324,0.013523,0.002678,0.000431,0.640764
2699000,0.0324,0.013523,0.002678,0.000431,0.680488
2700000,0.0324,0.013523,0.002678,0.000431,0.655102
2701000,0.0324,0.013523,0.002678,0.000431,0.656277
2702000,0.0324,0.013523,0.002678,0.000431,0.643232
2703000,0.0324,0.013523,0.002678,0.000431,0.642527
2704000,0.0324,0.013523,0.002678,0.000431,0.652987
2705000,0.0324,0.013523,0.002678,0.000431,0.660038
2706000,0.0324,0.013523,0.002678,0.000431,0.669676
2707000,0.0324,0.013523,0.002678,0.000431,0.640646
2708000,0.0324,0.013523,0.002678,0.000431,0.656042
2709000,0.0324,0.013523,0.002678,0.000431,0.648050
2710000,0.0324,0.013523,0.002678,0.000431,0.651106
2711000,0.0324,0.013523,0.002678,0.000431,0.650754
2712000,0.0324,0.013523,0.002678,0.000431,0.649931
2713000,0.0324,0.013523,0.002678,0.000431,0.637355
2714000,0.0324,0.013523,0.002678,0.000431,0.642997
2715000,0.0324,0.013523,0.002678,0.000431,0.646758
2716000,0.0324,0.013523,0.002678,0.000431,0.653104
2717000,0.0324,0.013523,0.002678,0.000431,0.654750
2718000,0.0324,0.013523,0.002678,0.000431,0.648285
2719000,0.0324,0.013523,0.002678,0.000431,0.656512
2720000,0.0324,0.013523,0.002678,0.000431,0.701408
2721000,0.0324,0.013523,0.002678,0.000431,0.664739
2722000,0.0324,0.013523,0.002678,0.000431,0.653104
2723000,0.0324,0.013523,0.002678,0.000431,0.645700
2724000,0.0324,0.013523,0.002678,0.000431,0.677903
2725000,0.0324,0.013523,0.002678,0.000431,0.658863
2726000,0.0324,0.013523,0.002678,0.000431,0.642174
2727000,0.0324,0.013523,0.002678,0.000431,0.648403
2728000,0.0324,0.013523,0.002678,0.000431,0.664269
2729000,0.0324,0.013523,0.002678,0.000431,0.650048
2730000,0.0324,0.013523,0.002678,0.000431,0.657688
2731000,0.0324,0.013523,0.002678,0.000431,0.658158
2732000,0.0324,0.013523,0.002678,0.000431,0.654514
2733000,0.0324,0.013523,0.002678,0.000431,0.653692
2734000,0.0324,0.013523,0.002678,0.000431,0.662389
2735000,0.0324,0.013523,0.002678,0.000431,0.648285
2736000,0.0324,0.013523,0.002678,0.000431,0.651224
2737000,0.0324,0.013523,0.002678,0.000431,0.635592
2738000,0.0324,0.013523,0.002678,0.000431,0.631479
2739000,0.0324,0.013523,0.002678,0.000431,0.640646
2740000,0.0324,0.013523,0.002678,0.000431,0.660273
2741000,0.0324,0.013523,0.002678,0.000431,0.648756
2742000,0.0324,0.013523,0.002678,0.000431,0.656395
2743000,0.0324,0.013523,0.002678,0.000431,0.663094
2744000,0.0324,0.013523,0.002678,0.000431,0.645582
2745000,0.0324,0.013523,0.002678,0.000431,0.651224
2746000,0.0324,0.013523,0.002678,0.000431,0.629128
2747000,0.0324,0.013523,0.002678,0.000431,0.646170
2748000,0.0324,0.013523,0.002678,0.000431,0.667443
2749000,0.0324,0.013523,0.002678,0.000431,0.648756
2750000,0.0324,0.013523,0.002678,0.000431,0.662271
2751000,0.0324,0.013523,0.002678,0.000431,0.657335
2752000,0.0324,0.013523,0.002678,0.000431,0.654044
2753000,0.0324,0.013523,0.002678,0.000431,0.649226
2754000,0.0324,0.013523,0.002678,0.000431,0.632772
2755000,0.0324,0.013523,0.002678,0.000431,0.657100
2756000,0.0324,0.013523,0.002678,0.000431,0.620666
2757000,0.0324,0.013523,0.002678,0.000431,0.631126
2758000,0.0324,0.013523,0.002678,0.000431,0.633712
2759000,0.0324,0.013523,0.002678,0.000431,0.643819
2760000,0.0324,0.013523,0.002678,0.000431,0.648521
2761000,0.0324,0.013523,0.002678,0.000431,0.640058
2762000,0.0324,0.013523,0.002678,0.000431,0.664387
2763000,0.0324,0.013523,0.002678,0.000431,0.641939
2764000,0.0324,0.013523,0.002678,0.000431,0.667443
2765000,0.0324,0.013523,0.002678,0.000431,0.641469
2766000,0.0324,0.013523,0.002678,0.000431,0.625720
2767000,0.0324,0.013523,0.002678,0.000431,0.653104
2768000,0.0324,0.013523,0.002678,0.000431,0.646170
2769000,0.0324,0.013523,0.002678,0.000431,0.656512
2770000,0.0324,0.013523,0.002678,0.000431,0.674612
2771000,0.0324,0.013523,0.002678,0.000431,0.679783
2772000,0.0324,0.013523,0.002678,0.000431,0.643819
2773000,0.0324,0.013523,0.002678,0.000431,0.653339
2774000,0.0324,0.013523,0.002678,0.000431,0.639001
2775000,0.0324,0.013523,0.002678,0.000431,0.645700
2776000,0.0324,0.013523,0.002678,0.000431,0.650636
2777000,0.0324,0.013523,0.002678,0.000431,0.667443
2778000,0.0324,0.013523,0.002678,0.000431,0.657805
2779000,0.0324,0.013523,0.002678,0.000431,0.676845
2780000,0.0324,0.013523,0.002678,0.000431,0.645230
2781000,0.0324,0.013523,0.002678,0.000431,0.658863
2782000,0.0324,0.013523,0.002678,0.000431,0.649108
2783000,0.0324,0.013523,0.002678,0.000431,0.637473
2784000,0.0324,0.013523,0.002678,0.000431,0.666972
2785000,0.0324,0.013523,0.002678,0.000431,0.654750
2786000,0.0324,0.013523,0.002678,0.000431,0.650871
2787000,0.0324,0.013523,0.002678,0.000431,0.662506
2788000,0.0324,0.013523,0.002678,0.000431,0.650401
2789000,0.0324,0.013523,0.002678,0.000431,0.644172
2790000,0.0324,0.013523,0.002678,0.000431,0.678020
2791000,0.0324,0.013523,0.002678,0.000431,0.650754
2792000,0.0324,0.013523,0.002678,0.000431,0.637590
2793000,0.0324,0.013523,0.002678,0.000431,0.651224
2794000,0.0324,0.013523,0.002678,0.000431,0.660743
2795000,0.0324,0.013523,0.002678,0.000431,0.663212
2796000,0.0324,0.013523,0.002678,0.000431,0.635945
2797000,0.0324,0.013523,0.002678,0.000431,0.648050
2798000,0.0324,0.013523,0.002678,0.000431,0.654750
2799000,0.0324,0.013523,0.002678,0.000431,0.650636
2800000,0.0324,0.013523,0.002678,0.000431,0.649461
2801000,0.0324,0.013523,0.002678,0.000431,0.644407
2802000,0.0324,0.013523,0.002678,0.000431,0.662271
2803000,0.0324,0.013523,0.002678,0.000431,0.649108
2804000,0.0324,0.013523,0.002678,0.000431,0.656512
2805000,0.0324,0.013523,0.002678,0.000431,0.651459
2806000,0.0324,0.013523,0.002678,0.000431,0.652987
2807000,0.0324,0.013523,0.002678,0.000431,0.664504
2808000,0.0324,0.013523,0.002678,0.000431,0.650871
2809000,0.0324,0.013523,0.002678,0.000431,0.656865
2810000,0.0324,0.013523,0.002678,0.000431,0.654985
2811000,0.0324,0.013523,0.002678,0.000431,0.646875
2812000,0.0324,0.013523,0.002678,0.000431,0.651694
2813000,0.0324,0.013523,0.002678,0.000431,0.666620
2814000,0.0324,0.013523,0.002678,0.000431,0.660508
2815000,0.0324,0.013523,0.002678,0.000431,0.663447
2816000,0.0324,0.013523,0.002678,0.000431,0.660978
2817000,0.0324,0.013523,0.002678,0.000431,0.665092
2818000,0.0324,0.013523,0.002678,0.000431,0.659333
2819000,0.0324,0.013523,0.002678,0.000431,0.643937
2820000,0.0324,0.013523,0.002678,0.000431,0.648521
2821000,0.0324,0.013523,0.002678,0.000431,0.673554
2822000,0.0324,0.013523,0.002678,0.000431,0.631244
2823000,0.0324,0.013523,0.002678,0.000431,0.661919
2824000,0.0324,0.013523,0.002678,0.000431,0.675082
2825000,0.0324,0.013523,0.002678,0.000431,0.646758
2826000,0.0324,0.013523,0.002678,0.000431,0.655925
2827000,0.0324,0.013523,0.002678,0.000431,0.669911
2828000,0.0324,0.013523,0.002678,0.000431,0.649578
2829000,0.0324,0.013523,0.002678,0.000431,0.643937
2830000,0.0324,0.013523,0.002678,0.000431,0.646640
2831000,0.0324,0.013523,0.002678,0.000431,0.629834
2832000,0.0324,0.013523,0.002678,0.000431,0.632184
2833000,0.0324,0.013523,0.002678,0.000431,0.642527
2834000,0.0324,0.013523,0.002678,0.000431,0.646052
2835000,0.0324,0.013523,0.002678,0.000431,0.635005
2836000,0.0324,0.013523,0.002678,0.000431,0.679313
2837000,0.0324,0.013523,0.002678,0.000431,0.678490
2838000,0.0324,0.013523,0.002678,0.000431,0.646993
2839000,0.0324,0.013523,0.002678,0.000431,0.652399
2840000,0.0324,0.013523,0.002678,0.000431,0.620666
2841000,0.0324,0.013523,0.002678,0.000431,0.637708
2842000,0.0324,0.013523,0.002678,0.000431,0.650048
2843000,0.0324,0.013523,0.002678,0.000431,0.646287
2844000,0.0324,0.013523,0.002678,0.000431,0.644407
2845000,0.0324,0.013523,0.002678,0.000431,0.648050
2846000,0.0324,0.013523,0.002678,0.000431,0.666737
2847000,0.0324,0.013523,0.002678,0.000431,0.647228
2848000,0.0324,0.013523,0.002678,0.000431,0.673201
2849000,0.0324,0.013523,0.002678,0.000431,0.654279
2850000,0.0324,0.013523,0.002678,0.000431,0.651811
2851000,0.0324,0.013523,0.002678,0.000431,0.635475
2852000,0.0324,0.013523,0.002678,0.000431,0.643114
2853000,0.0324,0.013523,0.002678,0.000431,0.639236
2854000,0.0324,0.013523,0.002678,0.000431,0.661566
2855000,0.0324,0.013523,0.002678,0.000431,0.667325
2856000,0.0324,0.013523,0.002678,0.000431,0.663917
2857000,0.0324,0.013523,0.002678,0.000431,0.644289
2858000,0.0324,0.013523,0.002678,0.000431,0.647580
2859000,0.0324,0.013523,0.002678,0.000431,0.657100
2860000,0.0324,0.013523,0.002678,0.000431,0.673789
2861000,0.0324,0.013523,0.002678,0.000431,0.636298
2862000,0.0324,0.013523,0.002678,0.000431,0.642997
2863000,0.0324,0.013523,0.002678,0.000431,0.665327
2864000,0.0324,0.013523,0.002678,0.000431,0.652869
2865000,0.0324,0.013523,0.002678,0.000431,0.673084
2866000,0.0324,0.013523,0.002678,0.000431,0.677550
2867000,0.0324,0.013523,0.002678,0.000431,0.684014
2868000,0.0324,0.013523,0.002678,0.000431,0.670851
2869000,0.0324,0.013523,0.002678,0.000431,0.677197
2870000,0.0324,0.013523,0.002678,0.000431,0.661684
2871000,0.0324,0.013523,0.002678,0.000431,0.673084
2872000,0.0324,0.013523,0.002678,0.000431,0.673201
2873000,0.0324,0.013523,0.002678,0.000431,0.654867
2874000,0.0324,0.013523,0.002678,0.000431,0.653809
2875000,0.0324,0.013523,0.002678,0.000431,0.642056
2876000,0.0324,0.013523,0.002678,0.000431,0.651929
2877000,0.0324,0.013523,0.002678,0.000431,0.656747
2878000,0.0324,0.013523,0.002678,0.000431,0.642527
2879000,0.0324,0.013523,0.002678,0.000431,0.648285
2880000,0.0324,0.013523,0.002678,0.000431,0.665092
2881000,0.0324,0.013523,0.002678,0.000431,0.646640
2882000,0.0324,0.013523,0.002678,0.000431,0.669323
2883000,0.0324,0.013523,0.002678,0.000431,0.653927
2884000,0.0324,0.013523,0.002678,0.000431,0.643937
2885000,0.0324,0.013523,0.002678,0.000431,0.664034
2886000,0.0324,0.013523,0.002678,0.000431,0.649931
2887000,0.0324,0.013523,0.002678,0.000431,0.683426
2888000,0.0324,0.013523,0.002678,0.000431,0.647345
2889000,0.0324,0.013523,0.002678,0.000431,0.639001
2890000,0.0324,0.013523,0.002678,0.000431,0.643819
2891000,0.0324,0.013523,0.002678,0.000431,0.644877
2892000,0.0324,0.013523,0.002678,0.000431,0.657688
2893000,0.0324,0.013523,0.002678,0.000431,0.651459
2894000,0.0324,0.013523,0.002678,0.000431,0.650871
2895000,0.0324,0.013523,0.002678,0.000431,0.669676
2896000,0.0324,0.013523,0.002678,0.000431,0.688245
2897000,0.0324,0.013523,0.002678,0.000431,0.673789
2898000,0.0324,0.013523,0.002678,0.000431,0.657923
2899000,0.0324,0.013523,0.002678,0.000431,0.655690
2900000,0.0324,0.013523,0.002678,0.000431,0.658275
2901000,0.0324,0.013523,0.002678,0.000431,0.651694
2902000,0.0324,0.013523,0.002678,0.000431,0.669441
2903000,0.0324,0.013523,0.002678,0.000431,0.649343
2904000,0.0324,0.013523,0.002678,0.000431,0.655102
2905000,0.0324,0.013523,0.002678,0.000431,0.655572
2906000,0.0324,0.013523,0.002678,0.000431,0.649578
2907000,0.0324,0.013523,0.002678,0.000431,0.608561
2908000,0.0324,0.013523,0.002678,0.000431,0.622782
2909000,0.0324,0.013523,0.002678,0.000431,0.635240
2910000,0.0324,0.013523,0.002678,0.000431,0.650871
2911000,0.0324,0.013523,0.002678,0.000431,0.640294
2912000,0.0324,0.013523,0.002678,0.000431,0.639236
2913000,0.0324,0.013523,0.002678,0.000431,0.648403
2914000,0.0324,0.013523,0.002678,0.000431,0.644877
2915000,0.0324,0.013523,0.002678,0.000431,0.650754
2916000,0.0324,0.013523,0.002678,0.000431,0.644877
2917000,0.0324,0.013523,0.002678,0.000431,0.643937
2918000,0.0324,0.013523,0.002678,0.000431,0.679430
2919000,0.0324,0.013523,0.002678,0.000431,0.678725
2920000,0.0324,0.013523,0.002678,0.000431,0.654867
2921000,0.0324,0.013523,0.002678,0.000431,0.663682
2922000,0.0324,0.013523,0.002678,0.000431,0.645112
2923000,0.0324,0.013523,0.002678,0.000431,0.661684
2924000,0.0324,0.013523,0.002678,0.000431,0.645112
2925000,0.0324,0.013523,0.002678,0.000431,0.663447
2926000,0.0324,0.013523,0.002678,0.000431,0.633007
2927000,0.0324,0.013523,0.002678,0.000431,0.642527
2928000,0.0324,0.013523,0.002678,0.000431,0.638531
2929000,0.0324,0.013523,0.002678,0.000431,0.643937
2930000,0.0324,0.013523,0.002678,0.000431,0.651811
2931000,0.0324,0.013523,0.002678,0.000431,0.641704
2932000,0.0324,0.013523,0.002678,0.000431,0.658393
2933000,0.0324,0.013523,0.002678,0.000431,0.656042
2934000,0.0324,0.013523,0.002678,0.000431,0.647815
2935000,0.0324,0.013523,0.002678,0.000431,0.658393
2936000,0.0324,0.013523,0.002678,0.000431,0.644642
2937000,0.0324,0.013523,0.002678,0.000431,0.641939
2938000,0.0324,0.013523,0.002678,0.000431,0.651341
2939000,0.0324,0.013523,0.002678,0.000431,0.646640
2940000,0.0324,0.013523,0.002678,0.000431,0.653222
2941000,0.0324,0.013523,0.002678,0.000431,0.670381
2942000,0.0324,0.013523,0.002678,0.000431,0.653339
2943000,0.0324,0.013523,0.002678,0.000431,0.651224
2944000,0.0324,0.013523,0.002678,0.000431,0.635122
2945000,0.0324,0.013523,0.002678,0.000431,0.654632
2946000,0.0324,0.013523,0.002678,0.000431,0.642292
2947000,0.0324,0.013523,0.002678,0.000431,0.642527
2948000,0.0324,0.013523,0.002678,0.000431,0.653222
2949000,0.0324,0.013523,0.002678,0.000431,0.670733
2950000,0.0324,0.013523,0.002678,0.000431,0.657218
2951000,0.0324,0.013523,0.002678,0.000431,0.664387
2952000,0.0324,0.013523,0.002678,0.000431,0.654044
2953000,0.0324,0.013523,0.002678,0.000431,0.654867
2954000,0.0324,0.013523,0.002678,0.000431,0.641704
2955000,0.0324,0.013523,0.002678,0.000431,0.645465
2956000,0.0324,0.013523,0.002678,0.000431,0.663447
2957000,0.0324,0.013523,0.002678,0.000431,0.658510
2958000,0.0324,0.013523,0.002678,0.000431,0.642997
2959000,0.0324,0.013523,0.002678,0.000431,0.636885
2960000,0.0324,0.013523,0.002678,0.000431,0.658393
2961000,0.0324,0.013523,0.002678,0.000431,0.638061
2962000,0.0324,0.013523,0.002678,0.000431,0.636298
2963000,0.0324,0.013523,0.002678,0.000431,0.634065
2964000,0.0324,0.013523,0.002678,0.000431,0.635945
2965000,0.0324,0.013523,0.002678,0.000431,0.650989
2966000,0.0324,0.013523,0.002678,0.000431,0.654044
2967000,0.0324,0.013523,0.002678,0.000431,0.653692
2968000,0.0324,0.013523,0.002678,0.000431,0.624427
2969000,0.0324,0.013523,0.002678,0.000431,0.649461
2970000,0.0324,0.013523,0.002678,0.000431,0.667207
2971000,0.0324,0.013523,0.002678,0.000431,0.646405
2972000,0.0324,0.013523,0.002678,0.000431,0.651341
2973000,0.0324,0.013523,0.002678,0.000431,0.646052
2974000,0.0324,0.013523,0.002678,0.000431,0.616435
2975000,0.0324,0.013523,0.002678,0.000431,0.635005
2976000,0.0324,0.013523,0.002678,0.000431,0.649696
2977000,0.0324,0.013523,0.002678,0.000431,0.650871
2978000,0.0324,0.013523,0.002678,0.000431,0.637708
2979000,0.0324,0.013523,0.002678,0.000431,0.632654
2980000,0.0324,0.013523,0.002678,0.000431,0.626190
2981000,0.0324,0.013523,0.002678,0.000431,0.644054
2982000,0.0324,0.013523,0.002678,0.000431,0.644877
2983000,0.0324,0.013523,0.002678,0.000431,0.650754
2984000,0.0324,0.013523,0.002678,0.000431,0.652046
2985000,0.0324,0.013523,0.002678,0.000431,0.654632
2986000,0.0324,0.013523,0.002678,0.000431,0.652987
2987000,0.0324,0.013523,0.002678,0.000431,0.638061
2988000,0.0324,0.013523,0.002678,0.000431,0.645700
2989000,0.0324,0.013523,0.002678,0.000431,0.652164
2990000,0.0324,0.013523,0.002678,0.000431,0.632184
2991000,0.0324,0.013523,0.002678,0.000431,0.638296
2992000,0.0324,0.013523,0.002678,0.000431,0.647698
2993000,0.0324,0.013523,0.002678,0.000431,0.652399
2994000,0.0324,0.013523,0.002678,0.000431,0.645935
2995000,0.0324,0.013523,0.002678,0.000431,0.647110
2996000,0.0324,0.013523,0.002678,0.000431,0.663917
2997000,0.0324,0.013523,0.002678,0.000431,0.639001
2998000,0.0324,0.013523,0.002678,0.000431,0.648638
2999000,0.0324,0.013523,0.002678,0.000431,0.644172
