Cycle,Area(mm^2),PeakDynamic(W),SubthresholdLeakage(W),GateLeakage(W),RunTimeDynamic(W)
6000000,0.0324,0.013523,0.002678,0.000431,0.643702
6001000,0.0324,0.013523,0.002678,0.000431,0.633007
6002000,0.0324,0.013523,0.002678,0.000431,0.644877
6003000,0.0324,0.013523,0.002678,0.000431,0.632302
6004000,0.0324,0.013523,0.002678,0.000431,0.638766
6005000,0.0324,0.013523,0.002678,0.000431,0.628541
6006000,0.0324,0.013523,0.002678,0.000431,0.632654
6007000,0.0324,0.013523,0.002678,0.000431,0.646523
6008000,0.0324,0.013523,0.002678,0.000431,0.624662
6009000,0.0324,0.013523,0.002678,0.000431,0.649578
6010000,0.0324,0.013523,0.002678,0.000431,0.644760
6011000,0.0324,0.013523,0.002678,0.000431,0.643584
6012000,0.0324,0.013523,0.002678,0.000431,0.640999
6013000,0.0324,0.013523,0.002678,0.000431,0.646993
6014000,0.0324,0.013523,0.002678,0.000431,0.617376
6015000,0.0324,0.013523,0.002678,0.000431,0.623487
6016000,0.0324,0.013523,0.002678,0.000431,0.605270
6017000,0.0324,0.013523,0.002678,0.000431,0.628893
6018000,0.0324,0.013523,0.002678,0.000431,0.619374
6019000,0.0324,0.013523,0.002678,0.000431,0.618081
6020000,0.0324,0.013523,0.002678,0.000431,0.622312
6021000,0.0324,0.013523,0.002678,0.000431,0.627248
6022000,0.0324,0.013523,0.002678,0.000431,0.622312
6023000,0.0324,0.013523,0.002678,0.000431,0.626425
6024000,0.0324,0.013523,0.002678,0.000431,0.638648
6025000,0.0324,0.013523,0.002678,0.000431,0.627483
6026000,0.0324,0.013523,0.002678,0.000431,0.631714
6027000,0.0324,0.013523,0.002678,0.000431,0.629951
6028000,0.0324,0.013523,0.002678,0.000431,0.625015
6029000,0.0324,0.013523,0.002678,0.000431,0.639001
6030000,0.0324,0.013523,0.002678,0.000431,0.633712
6031000,0.0324,0.013523,0.002678,0.000431,0.630186
6032000,0.0324,0.013523,0.002678,0.000431,0.624192
6033000,0.0324,0.013523,0.002678,0.000431,0.627836
6034000,0.0324,0.013523,0.002678,0.000431,0.627248
6035000,0.0324,0.013523,0.002678,0.000431,0.630774
6036000,0.0324,0.013523,0.002678,0.000431,0.610089
6037000,0.0324,0.013523,0.002678,0.000431,0.637943
6038000,0.0324,0.013523,0.002678,0.000431,0.651576
6039000,0.0324,0.013523,0.002678,0.000431,0.624545
6040000,0.0324,0.013523,0.002678,0.000431,0.624545
6041000,0.0324,0.013523,0.002678,0.000431,0.638648
6042000,0.0324,0.013523,0.002678,0.000431,0.618433
6043000,0.0324,0.013523,0.002678,0.000431,0.640058
6044000,0.0324,0.013523,0.002678,0.000431,0.634182
6045000,0.0324,0.013523,0.002678,0.000431,0.644995
6046000,0.0324,0.013523,0.002678,0.000431,0.645582
6047000,0.0324,0.013523,0.002678,0.000431,0.649696
6048000,0.0324,0.013523,0.002678,0.000431,0.629598
6049000,0.0324,0.013523,0.002678,0.000431,0.637355
6050000,0.0324,0.013523,0.002678,0.000431,0.626073
6051000,0.0324,0.013523,0.002678,0.000431,0.631244
6052000,0.0324,0.013523,0.002678,0.000431,0.637473
6053000,0.0324,0.013523,0.002678,0.000431,0.640529
6054000,0.0324,0.013523,0.002678,0.000431,0.632419
6055000,0.0324,0.013523,0.002678,0.000431,0.634535
6056000,0.0324,0.013523,0.002678,0.000431,0.642174
6057000,0.0324,0.013523,0.002678,0.000431,0.638766
6058000,0.0324,0.013523,0.002678,0.000431,0.631596
6059000,0.0324,0.013523,0.002678,0.000431,0.610794
6060000,0.0324,0.013523,0.002678,0.000431,0.637825
6061000,0.0324,0.013523,0.002678,0.000431,0.633242
6062000,0.0324,0.013523,0.002678,0.000431,0.623017
6063000,0.0324,0.013523,0.002678,0.000431,0.622429
6064000,0.0324,0.013523,0.002678,0.000431,0.620314
6065000,0.0324,0.013523,0.002678,0.000431,0.620549
6066000,0.0324,0.013523,0.002678,0.000431,0.645465
6067000,0.0324,0.013523,0.002678,0.000431,0.627365
6068000,0.0324,0.013523,0.002678,0.000431,0.633477
6069000,0.0324,0.013523,0.002678,0.000431,0.661214
6070000,0.0324,0.013523,0.002678,0.000431,0.646170
6071000,0.0324,0.013523,0.002678,0.000431,0.631832
6072000,0.0324,0.013523,0.002678,0.000431,0.627600
6073000,0.0324,0.013523,0.002678,0.000431,0.634417
6074000,0.0324,0.013523,0.002678,0.000431,0.638413
6075000,0.0324,0.013523,0.002678,0.000431,0.638531
6076000,0.0324,0.013523,0.002678,0.000431,0.620196
6077000,0.0324,0.013523,0.002678,0.000431,0.627013
6078000,0.0324,0.013523,0.002678,0.000431,0.624545
6079000,0.0324,0.013523,0.002678,0.000431,0.634300
6080000,0.0324,0.013523,0.002678,0.000431,0.640764
6081000,0.0324,0.013523,0.002678,0.000431,0.636180
6082000,0.0324,0.013523,0.002678,0.000431,0.650283
6083000,0.0324,0.013523,0.002678,0.000431,0.658275
6084000,0.0324,0.013523,0.002678,0.000431,0.639353
6085000,0.0324,0.013523,0.002678,0.000431,0.644525
6086000,0.0324,0.013523,0.002678,0.000431,0.639823
6087000,0.0324,0.013523,0.002678,0.000431,0.661331
6088000,0.0324,0.013523,0.002678,0.000431,0.623957
6089000,0.0324,0.013523,0.002678,0.000431,0.614437
6090000,0.0324,0.013523,0.002678,0.000431,0.630186
6091000,0.0324,0.013523,0.002678,0.000431,0.619138
6092000,0.0324,0.013523,0.002678,0.000431,0.649226
6093000,0.0324,0.013523,0.002678,0.000431,0.640764
6094000,0.0324,0.013523,0.002678,0.000431,0.632654
6095000,0.0324,0.013523,0.002678,0.000431,0.622547
6096000,0.0324,0.013523,0.002678,0.000431,0.637120
6097000,0.0324,0.013523,0.002678,0.000431,0.649108
6098000,0.0324,0.013523,0.002678,0.000431,0.644525
6099000,0.0324,0.013523,0.002678,0.000431,0.643467
6100000,0.0324,0.013523,0.002678,0.000431,0.642879
6101000,0.0324,0.013523,0.002678,0.000431,0.623369
6102000,0.0324,0.013523,0.002678,0.000431,0.637003
6103000,0.0324,0.013523,0.002678,0.000431,0.651341
6104000,0.0324,0.013523,0.002678,0.000431,0.628071
6105000,0.0324,0.013523,0.002678,0.000431,0.629011
6106000,0.0324,0.013523,0.002678,0.000431,0.627365
6107000,0.0324,0.013523,0.002678,0.000431,0.633947
6108000,0.0324,0.013523,0.002678,0.000431,0.642997
6109000,0.0324,0.013523,0.002678,0.000431,0.624780
6110000,0.0324,0.013523,0.002678,0.000431,0.621489
6111000,0.0324,0.013523,0.002678,0.000431,0.638531
6112000,0.0324,0.013523,0.002678,0.000431,0.620079
6113000,0.0324,0.013523,0.002678,0.000431,0.634417
6114000,0.0324,0.013523,0.002678,0.000431,0.634182
6115000,0.0324,0.013523,0.002678,0.000431,0.619609
6116000,0.0324,0.013523,0.002678,0.000431,0.633124
6117000,0.0324,0.013523,0.002678,0.000431,0.623605
6118000,0.0324,0.013523,0.002678,0.000431,0.621842
6119000,0.0324,0.013523,0.002678,0.000431,0.592930
6120000,0.0324,0.013523,0.002678,0.000431,0.612674
6121000,0.0324,0.013523,0.002678,0.000431,0.619256
6122000,0.0324,0.013523,0.002678,0.000431,0.651224
6123000,0.0324,0.013523,0.002678,0.000431,0.636298
6124000,0.0324,0.013523,0.002678,0.000431,0.638648
6125000,0.0324,0.013523,0.002678,0.000431,0.635710
6126000,0.0324,0.013523,0.002678,0.000431,0.645347
6127000,0.0324,0.013523,0.002678,0.000431,0.625603
6128000,0.0324,0.013523,0.002678,0.000431,0.649696
6129000,0.0324,0.013523,0.002678,0.000431,0.626190
6130000,0.0324,0.013523,0.002678,0.000431,0.640999
6131000,0.0324,0.013523,0.002678,0.000431,0.646758
6132000,0.0324,0.013523,0.002678,0.000431,0.644407
6133000,0.0324,0.013523,0.002678,0.000431,0.658158
6134000,0.0324,0.013523,0.002678,0.000431,0.641234
6135000,0.0324,0.013523,0.002678,0.000431,0.617376
6136000,0.0324,0.013523,0.002678,0.000431,0.644407
6137000,0.0324,0.013523,0.002678,0.000431,0.635005
6138000,0.0324,0.013523,0.002678,0.000431,0.633947
6139000,0.0324,0.013523,0.002678,0.000431,0.646170
6140000,0.0324,0.013523,0.002678,0.000431,0.637238
6141000,0.0324,0.013523,0.002678,0.000431,0.637943
6142000,0.0324,0.013523,0.002678,0.000431,0.643232
6143000,0.0324,0.013523,0.002678,0.000431,0.635357
6144000,0.0324,0.013523,0.002678,0.000431,0.642056
6145000,0.0324,0.013523,0.002678,0.000431,0.646993
6146000,0.0324,0.013523,0.002678,0.000431,0.643584
6147000,0.0324,0.013523,0.002678,0.000431,0.637120
6148000,0.0324,0.013523,0.002678,0.000431,0.643819
6149000,0.0324,0.013523,0.002678,0.000431,0.631244
6150000,0.0324,0.013523,0.002678,0.000431,0.645582
6151000,0.0324,0.013523,0.002678,0.000431,0.623134
6152000,0.0324,0.013523,0.002678,0.000431,0.645465
6153000,0.0324,0.013523,0.002678,0.000431,0.639236
6154000,0.0324,0.013523,0.002678,0.000431,0.648050
6155000,0.0324,0.013523,0.002678,0.000431,0.639118
6156000,0.0324,0.013523,0.002678,0.000431,0.637943
6157000,0.0324,0.013523,0.002678,0.000431,0.627718
6158000,0.0324,0.013523,0.002678,0.000431,0.624310
6159000,0.0324,0.013523,0.002678,0.000431,0.614555
6160000,0.0324,0.013523,0.002678,0.000431,0.656042
6161000,0.0324,0.013523,0.002678,0.000431,0.626308
6162000,0.0324,0.013523,0.002678,0.000431,0.642997
6163000,0.0324,0.013523,0.002678,0.000431,0.634887
6164000,0.0324,0.013523,0.002678,0.000431,0.619609
6165000,0.0324,0.013523,0.002678,0.000431,0.633712
6166000,0.0324,0.013523,0.002678,0.000431,0.646640
6167000,0.0324,0.013523,0.002678,0.000431,0.641469
6168000,0.0324,0.013523,0.002678,0.000431,0.631126
6169000,0.0324,0.013523,0.002678,0.000431,0.634652
6170000,0.0324,0.013523,0.002678,0.000431,0.632067
6171000,0.0324,0.013523,0.002678,0.000431,0.629363
6172000,0.0324,0.013523,0.002678,0.000431,0.632537
6173000,0.0324,0.013523,0.002678,0.000431,0.619256
6174000,0.0324,0.013523,0.002678,0.000431,0.629363
6175000,0.0324,0.013523,0.002678,0.000431,0.655220
6176000,0.0324,0.013523,0.002678,0.000431,0.630774
6177000,0.0324,0.013523,0.002678,0.000431,0.615378
6178000,0.0324,0.013523,0.002678,0.000431,0.631596
6179000,0.0324,0.013523,0.002678,0.000431,0.631244
6180000,0.0324,0.013523,0.002678,0.000431,0.645817
6181000,0.0324,0.013523,0.002678,0.000431,0.665915
6182000,0.0324,0.013523,0.002678,0.000431,0.657923
6183000,0.0324,0.013523,0.002678,0.000431,0.623722
6184000,0.0324,0.013523,0.002678,0.000431,0.668500
6185000,0.0324,0.013523,0.002678,0.000431,0.662036
6186000,0.0324,0.013523,0.002678,0.000431,0.649343
6187000,0.0324,0.013523,0.002678,0.000431,0.656983
6188000,0.0324,0.013523,0.002678,0.000431,0.629598
6189000,0.0324,0.013523,0.002678,0.000431,0.643232
6190000,0.0324,0.013523,0.002678,0.000431,0.639471
6191000,0.0324,0.013523,0.002678,0.000431,0.645935
6192000,0.0324,0.013523,0.002678,0.000431,0.643349
6193000,0.0324,0.013523,0.002678,0.000431,0.633477
6194000,0.0324,0.013523,0.002678,0.000431,0.635592
6195000,0.0324,0.013523,0.002678,0.000431,0.631596
6196000,0.0324,0.013523,0.002678,0.000431,0.620784
6197000,0.0324,0.013523,0.002678,0.000431,0.683779
6198000,0.0324,0.013523,0.002678,0.000431,0.657805
6199000,0.0324,0.013523,0.002678,0.000431,0.648991
6200000,0.0324,0.013523,0.002678,0.000431,0.638413
6201000,0.0324,0.013523,0.002678,0.000431,0.660861
6202000,0.0324,0.013523,0.002678,0.000431,0.631126
6203000,0.0324,0.013523,0.002678,0.000431,0.656865
6204000,0.0324,0.013523,0.002678,0.000431,0.663329
6205000,0.0324,0.013523,0.002678,0.000431,0.636298
6206000,0.0324,0.013523,0.002678,0.000431,0.649226
6207000,0.0324,0.013523,0.002678,0.000431,0.629481
6208000,0.0324,0.013523,0.002678,0.000431,0.653692
6209000,0.0324,0.013523,0.002678,0.000431,0.659098
6210000,0.0324,0.013523,0.002678,0.000431,0.655102
6211000,0.0324,0.013523,0.002678,0.000431,0.644642
6212000,0.0324,0.013523,0.002678,0.000431,0.641351
6213000,0.0324,0.013523,0.002678,0.000431,0.641704
6214000,0.0324,0.013523,0.002678,0.000431,0.635827
6215000,0.0324,0.013523,0.002678,0.000431,0.660626
6216000,0.0324,0.013523,0.002678,0.000431,0.643584
6217000,0.0324,0.013523,0.002678,0.000431,0.635592
6218000,0.0324,0.013523,0.002678,0.000431,0.644877
6219000,0.0324,0.013523,0.002678,0.000431,0.640999
6220000,0.0324,0.013523,0.002678,0.000431,0.637120
6221000,0.0324,0.013523,0.002678,0.000431,0.621724
6222000,0.0324,0.013523,0.002678,0.000431,0.622547
6223000,0.0324,0.013523,0.002678,0.000431,0.629128
6224000,0.0324,0.013523,0.002678,0.000431,0.635005
6225000,0.0324,0.013523,0.002678,0.000431,0.647815
6226000,0.0324,0.013523,0.002678,0.000431,0.620079
6227000,0.0324,0.013523,0.002678,0.000431,0.643114
6228000,0.0324,0.013523,0.002678,0.000431,0.638413
6229000,0.0324,0.013523,0.002678,0.000431,0.634065
6230000,0.0324,0.013523,0.002678,0.000431,0.647580
6231000,0.0324,0.013523,0.002678,0.000431,0.650048
6232000,0.0324,0.013523,0.002678,0.000431,0.632772
6233000,0.0324,0.013523,0.002678,0.000431,0.648638
6234000,0.0324,0.013523,0.002678,0.000431,0.626660
6235000,0.0324,0.013523,0.002678,0.000431,0.639941
6236000,0.0324,0.013523,0.002678,0.000431,0.630069
6237000,0.0324,0.013523,0.002678,0.000431,0.650048
6238000,0.0324,0.013523,0.002678,0.000431,0.635592
6239000,0.0324,0.013523,0.002678,0.000431,0.598101
6240000,0.0324,0.013523,0.002678,0.000431,0.614790
6241000,0.0324,0.013523,0.002678,0.000431,0.627953
6242000,0.0324,0.013523,0.002678,0.000431,0.611382
6243000,0.0324,0.013523,0.002678,0.000431,0.630069
6244000,0.0324,0.013523,0.002678,0.000431,0.651576
6245000,0.0324,0.013523,0.002678,0.000431,0.648991
6246000,0.0324,0.013523,0.002678,0.000431,0.651576
6247000,0.0324,0.013523,0.002678,0.000431,0.648285
6248000,0.0324,0.013523,0.002678,0.000431,0.642174
6249000,0.0324,0.013523,0.002678,0.000431,0.625720
6250000,0.0324,0.013523,0.002678,0.000431,0.638413
6251000,0.0324,0.013523,0.002678,0.000431,0.649343
6252000,0.0324,0.013523,0.002678,0.000431,0.646640
6253000,0.0324,0.013523,0.002678,0.000431,0.639118
6254000,0.0324,0.013523,0.002678,0.000431,0.646993
6255000,0.0324,0.013523,0.002678,0.000431,0.649696
6256000,0.0324,0.013523,0.002678,0.000431,0.658393
6257000,0.0324,0.013523,0.002678,0.000431,0.653574
6258000,0.0324,0.013523,0.002678,0.000431,0.640294
6259000,0.0324,0.013523,0.002678,0.000431,0.628893
6260000,0.0324,0.013523,0.002678,0.000431,0.641351
6261000,0.0324,0.013523,0.002678,0.000431,0.646993
6262000,0.0324,0.013523,0.002678,0.000431,0.642527
6263000,0.0324,0.013523,0.002678,0.000431,0.653927
6264000,0.0324,0.013523,0.002678,0.000431,0.646405
6265000,0.0324,0.013523,0.002678,0.000431,0.636063
6266000,0.0324,0.013523,0.002678,0.000431,0.614320
6267000,0.0324,0.013523,0.002678,0.000431,0.654162
6268000,0.0324,0.013523,0.002678,0.000431,0.629246
6269000,0.0324,0.013523,0.002678,0.000431,0.624780
6270000,0.0324,0.013523,0.002678,0.000431,0.646170
6271000,0.0324,0.013523,0.002678,0.000431,0.649578
6272000,0.0324,0.013523,0.002678,0.000431,0.642879
6273000,0.0324,0.013523,0.002678,0.000431,0.652516
6274000,0.0324,0.013523,0.002678,0.000431,0.650989
6275000,0.0324,0.013523,0.002678,0.000431,0.635945
6276000,0.0324,0.013523,0.002678,0.000431,0.631244
6277000,0.0324,0.013523,0.002678,0.000431,0.637708
6278000,0.0324,0.013523,0.002678,0.000431,0.648873
6279000,0.0324,0.013523,0.002678,0.000431,0.626190
6280000,0.0324,0.013523,0.002678,0.000431,0.634652
6281000,0.0324,0.013523,0.002678,0.000431,0.610794
6282000,0.0324,0.013523,0.002678,0.000431,0.638883
6283000,0.0324,0.013523,0.002678,0.000431,0.642409
6284000,0.0324,0.013523,0.002678,0.000431,0.637003
6285000,0.0324,0.013523,0.002678,0.000431,0.637708
6286000,0.0324,0.013523,0.002678,0.000431,0.619961
6287000,0.0324,0.013523,0.002678,0.000431,0.631244
6288000,0.0324,0.013523,0.002678,0.000431,0.622547
6289000,0.0324,0.013523,0.002678,0.000431,0.644877
6290000,0.0324,0.013523,0.002678,0.000431,0.636180
6291000,0.0324,0.013523,0.002678,0.000431,0.652399
6292000,0.0324,0.013523,0.002678,0.000431,0.656395
6293000,0.0324,0.013523,0.002678,0.000431,0.654750
6294000,0.0324,0.013523,0.002678,0.000431,0.633359
6295000,0.0324,0.013523,0.002678,0.000431,0.640176
6296000,0.0324,0.013523,0.002678,0.000431,0.639941
6297000,0.0324,0.013523,0.002678,0.000431,0.640294
6298000,0.0324,0.013523,0.002678,0.000431,0.624897
6299000,0.0324,0.013523,0.002678,0.000431,0.629128
6300000,0.0324,0.013523,0.002678,0.000431,0.631596
6301000,0.0324,0.013523,0.002678,0.000431,0.634652
6302000,0.0324,0.013523,0.002678,0.000431,0.648991
6303000,0.0324,0.013523,0.002678,0.000431,0.653809
6304000,0.0324,0.013523,0.002678,0.000431,0.636650
6305000,0.0324,0.013523,0.002678,0.000431,0.652516
6306000,0.0324,0.013523,0.002678,0.000431,0.647110
6307000,0.0324,0.013523,0.002678,0.000431,0.658510
6308000,0.0324,0.013523,0.002678,0.000431,0.636533
6309000,0.0324,0.013523,0.002678,0.000431,0.643467
6310000,0.0324,0.013523,0.002678,0.000431,0.634417
6311000,0.0324,0.013523,0.002678,0.000431,0.620666
6312000,0.0324,0.013523,0.002678,0.000431,0.623840
6313000,0.0324,0.013523,0.002678,0.000431,0.633712
6314000,0.0324,0.013523,0.002678,0.000431,0.649108
6315000,0.0324,0.013523,0.002678,0.000431,0.635357
6316000,0.0324,0.013523,0.002678,0.000431,0.631596
6317000,0.0324,0.013523,0.002678,0.000431,0.631126
6318000,0.0324,0.013523,0.002678,0.000431,0.619491
6319000,0.0324,0.013523,0.002678,0.000431,0.632889
6320000,0.0324,0.013523,0.002678,0.000431,0.631479
6321000,0.0324,0.013523,0.002678,0.000431,0.643349
6322000,0.0324,0.013523,0.002678,0.000431,0.657100
6323000,0.0324,0.013523,0.002678,0.000431,0.653104
6324000,0.0324,0.013523,0.002678,0.000431,0.633007
6325000,0.0324,0.013523,0.002678,0.000431,0.638531
6326000,0.0324,0.013523,0.002678,0.000431,0.636885
6327000,0.0324,0.013523,0.002678,0.000431,0.643937
6328000,0.0324,0.013523,0.002678,0.000431,0.647815
6329000,0.0324,0.013523,0.002678,0.000431,0.634182
6330000,0.0324,0.013523,0.002678,0.000431,0.635005
6331000,0.0324,0.013523,0.002678,0.000431,0.653692
6332000,0.0324,0.013523,0.002678,0.000431,0.631949
6333000,0.0324,0.013523,0.002678,0.000431,0.654514
6334000,0.0324,0.013523,0.002678,0.000431,0.646287
6335000,0.0324,0.013523,0.002678,0.000431,0.642997
6336000,0.0324,0.013523,0.002678,0.000431,0.613967
6337000,0.0324,0.013523,0.002678,0.000431,0.639706
6338000,0.0324,0.013523,0.002678,0.000431,0.640999
6339000,0.0324,0.013523,0.002678,0.000431,0.626190
6340000,0.0324,0.013523,0.002678,0.000431,0.633007
6341000,0.0324,0.013523,0.002678,0.000431,0.621372
6342000,0.0324,0.013523,0.002678,0.000431,0.647228
6343000,0.0324,0.013523,0.002678,0.000431,0.646640
6344000,0.0324,0.013523,0.002678,0.000431,0.641234
6345000,0.0324,0.013523,0.002678,0.000431,0.636298
6346000,0.0324,0.013523,0.002678,0.000431,0.641821
6347000,0.0324,0.013523,0.002678,0.000431,0.651224
6348000,0.0324,0.013523,0.002678,0.000431,0.629363
6349000,0.0324,0.013523,0.002678,0.000431,0.650518
6350000,0.0324,0.013523,0.002678,0.000431,0.624897
6351000,0.0324,0.013523,0.002678,0.000431,0.642762
6352000,0.0324,0.013523,0.002678,0.000431,0.657688
6353000,0.0324,0.013523,0.002678,0.000431,0.642762
6354000,0.0324,0.013523,0.002678,0.000431,0.623605
6355000,0.0324,0.013523,0.002678,0.000431,0.625132
6356000,0.0324,0.013523,0.002678,0.000431,0.639353
6357000,0.0324,0.013523,0.002678,0.000431,0.623487
6358000,0.0324,0.013523,0.002678,0.000431,0.615965
6359000,0.0324,0.013523,0.002678,0.000431,0.641351
6360000,0.0324,0.013523,0.002678,0.000431,0.641821
6361000,0.0324,0.013523,0.002678,0.000431,0.643937
6362000,0.0324,0.013523,0.002678,0.000431,0.652516
6363000,0.0324,0.013523,0.002678,0.000431,0.624075
6364000,0.0324,0.013523,0.002678,0.000431,0.647345
6365000,0.0324,0.013523,0.002678,0.000431,0.638531
6366000,0.0324,0.013523,0.002678,0.000431,0.624545
6367000,0.0324,0.013523,0.002678,0.000431,0.651224
6368000,0.0324,0.013523,0.002678,0.000431,0.650754
6369000,0.0324,0.013523,0.002678,0.000431,0.641939
6370000,0.0324,0.013523,0.002678,0.000431,0.640294
6371000,0.0324,0.013523,0.002678,0.000431,0.643349
6372000,0.0324,0.013523,0.002678,0.000431,0.632654
6373000,0.0324,0.013523,0.002678,0.000431,0.613027
6374000,0.0324,0.013523,0.002678,0.000431,0.643937
6375000,0.0324,0.013523,0.002678,0.000431,0.639706
6376000,0.0324,0.013523,0.002678,0.000431,0.640646
6377000,0.0324,0.013523,0.002678,0.000431,0.637003
6378000,0.0324,0.013523,0.002678,0.000431,0.641939
6379000,0.0324,0.013523,0.002678,0.000431,0.637825
6380000,0.0324,0.013523,0.002678,0.000431,0.632772
6381000,0.0324,0.013523,0.002678,0.000431,0.636415
6382000,0.0324,0.013523,0.002678,0.000431,0.625838
6383000,0.0324,0.013523,0.002678,0.000431,0.635122
6384000,0.0324,0.013523,0.002678,0.000431,0.637943
6385000,0.0324,0.013523,0.002678,0.000431,0.635475
6386000,0.0324,0.013523,0.002678,0.000431,0.631949
6387000,0.0324,0.013523,0.002678,0.000431,0.629128
6388000,0.0324,0.013523,0.002678,0.000431,0.620549
6389000,0.0324,0.013523,0.002678,0.000431,0.643114
6390000,0.0324,0.013523,0.002678,0.000431,0.613380
6391000,0.0324,0.013523,0.002678,0.000431,0.618316
6392000,0.0324,0.013523,0.002678,0.000431,0.624075
6393000,0.0324,0.013523,0.002678,0.000431,0.620196
6394000,0.0324,0.013523,0.002678,0.000431,0.637238
6395000,0.0324,0.013523,0.002678,0.000431,0.616553
6396000,0.0324,0.013523,0.002678,0.000431,0.622782
6397000,0.0324,0.013523,0.002678,0.000431,0.635475
6398000,0.0324,0.013523,0.002678,0.000431,0.629481
6399000,0.0324,0.013523,0.002678,0.000431,0.626543
6400000,0.0324,0.013523,0.002678,0.000431,0.635945
6401000,0.0324,0.013523,0.002678,0.000431,0.629716
6402000,0.0324,0.013523,0.002678,0.000431,0.640764
6403000,0.0324,0.013523,0.002678,0.000431,0.635122
6404000,0.0324,0.013523,0.002678,0.000431,0.641821
6405000,0.0324,0.013523,0.002678,0.000431,0.619844
6406000,0.0324,0.013523,0.002678,0.000431,0.642527
6407000,0.0324,0.013523,0.002678,0.000431,0.633829
6408000,0.0324,0.013523,0.002678,0.000431,0.648638
6409000,0.0324,0.013523,0.002678,0.000431,0.640999
6410000,0.0324,0.013523,0.002678,0.000431,0.611499
6411000,0.0324,0.013523,0.002678,0.000431,0.637708
6412000,0.0324,0.013523,0.002678,0.000431,0.623722
6413000,0.0324,0.013523,0.002678,0.000431,0.629363
6414000,0.0324,0.013523,0.002678,0.000431,0.625838
6415000,0.0324,0.013523,0.002678,0.000431,0.650401
6416000,0.0324,0.013523,0.002678,0.000431,0.626308
6417000,0.0324,0.013523,0.002678,0.000431,0.663564
6418000,0.0324,0.013523,0.002678,0.000431,0.639941
6419000,0.0324,0.013523,0.002678,0.000431,0.635005
6420000,0.0324,0.013523,0.002678,0.000431,0.640294
6421000,0.0324,0.013523,0.002678,0.000431,0.628306
6422000,0.0324,0.013523,0.002678,0.000431,0.639001
6423000,0.0324,0.013523,0.002678,0.000431,0.640646
6424000,0.0324,0.013523,0.002678,0.000431,0.634652
6425000,0.0324,0.013523,0.002678,0.000431,0.647698
6426000,0.0324,0.013523,0.002678,0.000431,0.644054
6427000,0.0324,0.013523,0.002678,0.000431,0.642997
6428000,0.0324,0.013523,0.002678,0.000431,0.638061
6429000,0.0324,0.013523,0.002678,0.000431,0.619021
6430000,0.0324,0.013523,0.002678,0.000431,0.620666
6431000,0.0324,0.013523,0.002678,0.000431,0.620901
6432000,0.0324,0.013523,0.002678,0.000431,0.617846
6433000,0.0324,0.013523,0.002678,0.000431,0.628071
6434000,0.0324,0.013523,0.002678,0.000431,0.629716
6435000,0.0324,0.013523,0.002678,0.000431,0.613145
6436000,0.0324,0.013523,0.002678,0.000431,0.636298
6437000,0.0324,0.013523,0.002678,0.000431,0.649931
6438000,0.0324,0.013523,0.002678,0.000431,0.630656
6439000,0.0324,0.013523,0.002678,0.000431,0.644995
6440000,0.0324,0.013523,0.002678,0.000431,0.609266
6441000,0.0324,0.013523,0.002678,0.000431,0.638413
6442000,0.0324,0.013523,0.002678,0.000431,0.649813
6443000,0.0324,0.013523,0.002678,0.000431,0.636298
6444000,0.0324,0.013523,0.002678,0.000431,0.634300
6445000,0.0324,0.013523,0.002678,0.000431,0.639001
6446000,0.0324,0.013523,0.002678,0.000431,0.638766
6447000,0.0324,0.013523,0.002678,0.000431,0.640058
6448000,0.0324,0.013523,0.002678,0.000431,0.631361
6449000,0.0324,0.013523,0.002678,0.000431,0.613145
6450000,0.0324,0.013523,0.002678,0.000431,0.622312
6451000,0.0324,0.013523,0.002678,0.000431,0.628776
6452000,0.0324,0.013523,0.002678,0.000431,0.628423
6453000,0.0324,0.013523,0.002678,0.000431,0.632654
6454000,0.0324,0.013523,0.002678,0.000431,0.642762
6455000,0.0324,0.013523,0.002678,0.000431,0.636415
6456000,0.0324,0.013523,0.002678,0.000431,0.632067
6457000,0.0324,0.013523,0.002678,0.000431,0.629951
6458000,0.0324,0.013523,0.002678,0.000431,0.629481
6459000,0.0324,0.013523,0.002678,0.000431,0.626073
6460000,0.0324,0.013523,0.002678,0.000431,0.626778
6461000,0.0324,0.013523,0.002678,0.000431,0.631949
6462000,0.0324,0.013523,0.002678,0.000431,0.647345
6463000,0.0324,0.013523,0.002678,0.000431,0.656865
6464000,0.0324,0.013523,0.002678,0.000431,0.633242
6465000,0.0324,0.013523,0.002678,0.000431,0.636533
6466000,0.0324,0.013523,0.002678,0.000431,0.618316
6467000,0.0324,0.013523,0.002678,0.000431,0.620431
6468000,0.0324,0.013523,0.002678,0.000431,0.631949
6469000,0.0324,0.013523,0.002678,0.000431,0.637825
6470000,0.0324,0.013523,0.002678,0.000431,0.630186
6471000,0.0324,0.013523,0.002678,0.000431,0.630186
6472000,0.0324,0.013523,0.002678,0.000431,0.636298
6473000,0.0324,0.013523,0.002678,0.000431,0.639941
6474000,0.0324,0.013523,0.002678,0.000431,0.633594
6475000,0.0324,0.013523,0.002678,0.000431,0.623017
6476000,0.0324,0.013523,0.002678,0.000431,0.627600
6477000,0.0324,0.013523,0.002678,0.000431,0.627483
6478000,0.0324,0.013523,0.002678,0.000431,0.632184
6479000,0.0324,0.013523,0.002678,0.000431,0.624662
6480000,0.0324,0.013523,0.002678,0.000431,0.636768
6481000,0.0324,0.013523,0.002678,0.000431,0.621372
6482000,0.0324,0.013523,0.002678,0.000431,0.639941
6483000,0.0324,0.013523,0.002678,0.000431,0.660038
6484000,0.0324,0.013523,0.002678,0.000431,0.618081
6485000,0.0324,0.013523,0.002678,0.000431,0.644054
6486000,0.0324,0.013523,0.002678,0.000431,0.629951
6487000,0.0324,0.013523,0.002678,0.000431,0.625838
6488000,0.0324,0.013523,0.002678,0.000431,0.620666
6489000,0.0324,0.013523,0.002678,0.000431,0.635945
6490000,0.0324,0.013523,0.002678,0.000431,0.644172
6491000,0.0324,0.013523,0.002678,0.000431,0.623252
6492000,0.0324,0.013523,0.002678,0.000431,0.633359
6493000,0.0324,0.013523,0.002678,0.000431,0.642527
6494000,0.0324,0.013523,0.002678,0.000431,0.616083
6495000,0.0324,0.013523,0.002678,0.000431,0.611969
6496000,0.0324,0.013523,0.002678,0.000431,0.647110
6497000,0.0324,0.013523,0.002678,0.000431,0.615260
6498000,0.0324,0.013523,0.002678,0.000431,0.643702
6499000,0.0324,0.013523,0.002678,0.000431,0.629598
6500000,0.0324,0.013523,0.002678,0.000431,0.626778
6501000,0.0324,0.013523,0.002678,0.000431,0.627836
6502000,0.0324,0.013523,0.002678,0.000431,0.627365
6503000,0.0324,0.013523,0.002678,0.000431,0.627953
6504000,0.0324,0.013523,0.002678,0.000431,0.630186
6505000,0.0324,0.013523,0.002678,0.000431,0.625955
6506000,0.0324,0.013523,0.002678,0.000431,0.631361
6507000,0.0324,0.013523,0.002678,0.000431,0.633242
6508000,0.0324,0.013523,0.002678,0.000431,0.625603
6509000,0.0324,0.013523,0.002678,0.000431,0.628776
6510000,0.0324,0.013523,0.002678,0.000431,0.651811
6511000,0.0324,0.013523,0.002678,0.000431,0.642997
6512000,0.0324,0.013523,0.002678,0.000431,0.629363
6513000,0.0324,0.013523,0.002678,0.000431,0.599864
6514000,0.0324,0.013523,0.002678,0.000431,0.636180
6515000,0.0324,0.013523,0.002678,0.000431,0.638061
6516000,0.0324,0.013523,0.002678,0.000431,0.630186
6517000,0.0324,0.013523,0.002678,0.000431,0.620666
6518000,0.0324,0.013523,0.002678,0.000431,0.613145
6519000,0.0324,0.013523,0.002678,0.000431,0.623369
6520000,0.0324,0.013523,0.002678,0.000431,0.633712
6521000,0.0324,0.013523,0.002678,0.000431,0.604095
6522000,0.0324,0.013523,0.002678,0.000431,0.624075
6523000,0.0324,0.013523,0.002678,0.000431,0.629481
6524000,0.0324,0.013523,0.002678,0.000431,0.629246
6525000,0.0324,0.013523,0.002678,0.000431,0.645935
6526000,0.0324,0.013523,0.002678,0.000431,0.644172
6527000,0.0324,0.013523,0.002678,0.000431,0.623957
6528000,0.0324,0.013523,0.002678,0.000431,0.616905
6529000,0.0324,0.013523,0.002678,0.000431,0.612792
6530000,0.0324,0.013523,0.002678,0.000431,0.632302
6531000,0.0324,0.013523,0.002678,0.000431,0.633124
6532000,0.0324,0.013523,0.002678,0.000431,0.616905
6533000,0.0324,0.013523,0.002678,0.000431,0.645935
6534000,0.0324,0.013523,0.002678,0.000431,0.640176
6535000,0.0324,0.013523,0.002678,0.000431,0.646523
6536000,0.0324,0.013523,0.002678,0.000431,0.646758
6537000,0.0324,0.013523,0.002678,0.000431,0.624427
6538000,0.0324,0.013523,0.002678,0.000431,0.650754
6539000,0.0324,0.013523,0.002678,0.000431,0.615965
6540000,0.0324,0.013523,0.002678,0.000431,0.642644
6541000,0.0324,0.013523,0.002678,0.000431,0.637473
6542000,0.0324,0.013523,0.002678,0.000431,0.628423
6543000,0.0324,0.013523,0.002678,0.000431,0.627130
6544000,0.0324,0.013523,0.002678,0.000431,0.631714
6545000,0.0324,0.013523,0.002678,0.000431,0.645817
6546000,0.0324,0.013523,0.002678,0.000431,0.650636
6547000,0.0324,0.013523,0.002678,0.000431,0.626190
6548000,0.0324,0.013523,0.002678,0.000431,0.647815
6549000,0.0324,0.013523,0.002678,0.000431,0.635710
6550000,0.0324,0.013523,0.002678,0.000431,0.635005
6551000,0.0324,0.013523,0.002678,0.000431,0.634065
6552000,0.0324,0.013523,0.002678,0.000431,0.630421
6553000,0.0324,0.013523,0.002678,0.000431,0.627953
6554000,0.0324,0.013523,0.002678,0.000431,0.635122
6555000,0.0324,0.013523,0.002678,0.000431,0.624897
6556000,0.0324,0.013523,0.002678,0.000431,0.648403
6557000,0.0324,0.013523,0.002678,0.000431,0.680018
6558000,0.0324,0.013523,0.002678,0.000431,0.650636
6559000,0.0324,0.013523,0.002678,0.000431,0.609149
6560000,0.0324,0.013523,0.002678,0.000431,0.635475
6561000,0.0324,0.013523,0.002678,0.000431,0.636298
6562000,0.0324,0.013523,0.002678,0.000431,0.635240
6563000,0.0324,0.013523,0.002678,0.000431,0.626778
6564000,0.0324,0.013523,0.002678,0.000431,0.634770
6565000,0.0324,0.013523,0.002678,0.000431,0.635710
6566000,0.0324,0.013523,0.002678,0.000431,0.625132
6567000,0.0324,0.013523,0.002678,0.000431,0.626660
6568000,0.0324,0.013523,0.002678,0.000431,0.632889
6569000,0.0324,0.013523,0.002678,0.000431,0.628423
6570000,0.0324,0.013523,0.002678,0.000431,0.633242
6571000,0.0324,0.013523,0.002678,0.000431,0.629598
6572000,0.0324,0.013523,0.002678,0.000431,0.639588
6573000,0.0324,0.013523,0.002678,0.000431,0.608208
6574000,0.0324,0.013523,0.002678,0.000431,0.625250
6575000,0.0324,0.013523,0.002678,0.000431,0.637825
6576000,0.0324,0.013523,0.002678,0.000431,0.614085
6577000,0.0324,0.013523,0.002678,0.000431,0.615025
6578000,0.0324,0.013523,0.002678,0.000431,0.632889
6579000,0.0324,0.013523,0.002678,0.000431,0.631949
6580000,0.0324,0.013523,0.002678,0.000431,0.651576
6581000,0.0324,0.013523,0.002678,0.000431,0.638178
6582000,0.0324,0.013523,0.002678,0.000431,0.627130
6583000,0.0324,0.013523,0.002678,0.000431,0.632067
6584000,0.0324,0.013523,0.002678,0.000431,0.627483
6585000,0.0324,0.013523,0.002678,0.000431,0.635710
6586000,0.0324,0.013523,0.002678,0.000431,0.634065
6587000,0.0324,0.013523,0.002678,0.000431,0.635475
6588000,0.0324,0.013523,0.002678,0.000431,0.640646
6589000,0.0324,0.013523,0.002678,0.000431,0.614672
6590000,0.0324,0.013523,0.002678,0.000431,0.640294
6591000,0.0324,0.013523,0.002678,0.000431,0.643937
6592000,0.0324,0.013523,0.002678,0.000431,0.622899
6593000,0.0324,0.013523,0.002678,0.000431,0.626073
6594000,0.0324,0.013523,0.002678,0.000431,0.641116
6595000,0.0324,0.013523,0.002678,0.000431,0.628423
6596000,0.0324,0.013523,0.002678,0.000431,0.644877
6597000,0.0324,0.013523,0.002678,0.000431,0.633477
6598000,0.0324,0.013523,0.002678,0.000431,0.625367
6599000,0.0324,0.013523,0.002678,0.000431,0.618786
6600000,0.0324,0.013523,0.002678,0.000431,0.645700
6601000,0.0324,0.013523,0.002678,0.000431,0.639823
6602000,0.0324,0.013523,0.002678,0.000431,0.638296
6603000,0.0324,0.013523,0.002678,0.000431,0.624310
6604000,0.0324,0.013523,0.002678,0.000431,0.628776
6605000,0.0324,0.013523,0.002678,0.000431,0.630539
6606000,0.0324,0.013523,0.002678,0.000431,0.630774
6607000,0.0324,0.013523,0.002678,0.000431,0.620784
6608000,0.0324,0.013523,0.002678,0.000431,0.651929
6609000,0.0324,0.013523,0.002678,0.000431,0.639941
6610000,0.0324,0.013523,0.002678,0.000431,0.636768
6611000,0.0324,0.013523,0.002678,0.000431,0.618786
6612000,0.0324,0.013523,0.002678,0.000431,0.645347
6613000,0.0324,0.013523,0.002678,0.000431,0.652281
6614000,0.0324,0.013523,0.002678,0.000431,0.634770
6615000,0.0324,0.013523,0.002678,0.000431,0.651106
6616000,0.0324,0.013523,0.002678,0.000431,0.640999
6617000,0.0324,0.013523,0.002678,0.000431,0.632419
6618000,0.0324,0.013523,0.002678,0.000431,0.626895
6619000,0.0324,0.013523,0.002678,0.000431,0.621136
6620000,0.0324,0.013523,0.002678,0.000431,0.608091
6621000,0.0324,0.013523,0.002678,0.000431,0.630539
6622000,0.0324,0.013523,0.002678,0.000431,0.622312
6623000,0.0324,0.013523,0.002678,0.000431,0.650518
6624000,0.0324,0.013523,0.002678,0.000431,0.610911
6625000,0.0324,0.013523,0.002678,0.000431,0.637355
6626000,0.0324,0.013523,0.002678,0.000431,0.640176
6627000,0.0324,0.013523,0.002678,0.000431,0.632184
6628000,0.0324,0.013523,0.002678,0.000431,0.626190
6629000,0.0324,0.013523,0.002678,0.000431,0.640999
6630000,0.0324,0.013523,0.002678,0.000431,0.626543
6631000,0.0324,0.013523,0.002678,0.000431,0.652281
6632000,0.0324,0.013523,0.002678,0.000431,0.624310
6633000,0.0324,0.013523,0.002678,0.000431,0.619609
6634000,0.0324,0.013523,0.002678,0.000431,0.619491
6635000,0.0324,0.013523,0.002678,0.000431,0.641586
6636000,0.0324,0.013523,0.002678,0.000431,0.644289
6637000,0.0324,0.013523,0.002678,0.000431,0.630069
6638000,0.0324,0.013523,0.002678,0.000431,0.653457
6639000,0.0324,0.013523,0.002678,0.000431,0.623134
6640000,0.0324,0.013523,0.002678,0.000431,0.637943
6641000,0.0324,0.013523,0.002678,0.000431,0.629246
6642000,0.0324,0.013523,0.002678,0.000431,0.642527
6643000,0.0324,0.013523,0.002678,0.000431,0.632772
6644000,0.0324,0.013523,0.002678,0.000431,0.637708
6645000,0.0324,0.013523,0.002678,0.000431,0.613497
6646000,0.0324,0.013523,0.002678,0.000431,0.629481
6647000,0.0324,0.013523,0.002678,0.000431,0.642174
6648000,0.0324,0.013523,0.002678,0.000431,0.639588
6649000,0.0324,0.013523,0.002678,0.000431,0.617728
6650000,0.0324,0.013523,0.002678,0.000431,0.628188
6651000,0.0324,0.013523,0.002678,0.000431,0.633124
6652000,0.0324,0.013523,0.002678,0.000431,0.629716
6653000,0.0324,0.013523,0.002678,0.000431,0.632302
6654000,0.0324,0.013523,0.002678,0.000431,0.626308
6655000,0.0324,0.013523,0.002678,0.000431,0.655807
6656000,0.0324,0.013523,0.002678,0.000431,0.667678
6657000,0.0324,0.013523,0.002678,0.000431,0.625603
6658000,0.0324,0.013523,0.002678,0.000431,0.648521
6659000,0.0324,0.013523,0.002678,0.000431,0.638531
6660000,0.0324,0.013523,0.002678,0.000431,0.629481
6661000,0.0324,0.013523,0.002678,0.000431,0.643467
6662000,0.0324,0.013523,0.002678,0.000431,0.641234
6663000,0.0324,0.013523,0.002678,0.000431,0.619491
6664000,0.0324,0.013523,0.002678,0.000431,0.637708
6665000,0.0324,0.013523,0.002678,0.000431,0.626543
6666000,0.0324,0.013523,0.002678,0.000431,0.621489
6667000,0.0324,0.013523,0.002678,0.000431,0.648403
6668000,0.0324,0.013523,0.002678,0.000431,0.631126
6669000,0.0324,0.013523,0.002678,0.000431,0.645230
6670000,0.0324,0.013523,0.002678,0.000431,0.647815
6671000,0.0324,0.013523,0.002678,0.000431,0.621019
6672000,0.0324,0.013523,0.002678,0.000431,0.632889
6673000,0.0324,0.013523,0.002678,0.000431,0.642879
6674000,0.0324,0.013523,0.002678,0.000431,0.650871
6675000,0.0324,0.013523,0.002678,0.000431,0.642292
6676000,0.0324,0.013523,0.002678,0.000431,0.645582
6677000,0.0324,0.013523,0.002678,0.000431,0.657100
6678000,0.0324,0.013523,0.002678,0.000431,0.635710
6679000,0.0324,0.013523,0.002678,0.000431,0.629716
6680000,0.0324,0.013523,0.002678,0.000431,0.627718
6681000,0.0324,0.013523,0.002678,0.000431,0.642409
6682000,0.0324,0.013523,0.002678,0.000431,0.658510
6683000,0.0324,0.013523,0.002678,0.000431,0.635240
6684000,0.0324,0.013523,0.002678,0.000431,0.654397
6685000,0.0324,0.013523,0.002678,0.000431,0.641821
6686000,0.0324,0.013523,0.002678,0.000431,0.642292
6687000,0.0324,0.013523,0.002678,0.000431,0.638296
6688000,0.0324,0.013523,0.002678,0.000431,0.630304
6689000,0.0324,0.013523,0.002678,0.000431,0.648050
6690000,0.0324,0.013523,0.002678,0.000431,0.639118
6691000,0.0324,0.013523,0.002678,0.000431,0.640999
6692000,0.0324,0.013523,0.002678,0.000431,0.632184
6693000,0.0324,0.013523,0.002678,0.000431,0.628541
6694000,0.0324,0.013523,0.002678,0.000431,0.626660
6695000,0.0324,0.013523,0.002678,0.000431,0.625485
6696000,0.0324,0.013523,0.002678,0.000431,0.638178
6697000,0.0324,0.013523,0.002678,0.000431,0.639823
6698000,0.0324,0.013523,0.002678,0.000431,0.645112
6699000,0.0324,0.013523,0.002678,0.000431,0.636415
6700000,0.0324,0.013523,0.002678,0.000431,0.625250
6701000,0.0324,0.013523,0.002678,0.000431,0.638178
6702000,0.0324,0.013523,0.002678,0.000431,0.639353
6703000,0.0324,0.013523,0.002678,0.000431,0.626308
6704000,0.0324,0.013523,0.002678,0.000431,0.622782
6705000,0.0324,0.013523,0.002678,0.000431,0.609736
6706000,0.0324,0.013523,0.002678,0.000431,0.634182
6707000,0.0324,0.013523,0.002678,0.000431,0.637590
6708000,0.0324,0.013523,0.002678,0.000431,0.631009
6709000,0.0324,0.013523,0.002678,0.000431,0.636298
6710000,0.0324,0.013523,0.002678,0.000431,0.626778
6711000,0.0324,0.013523,0.002678,0.000431,0.635122
6712000,0.0324,0.013523,0.002678,0.000431,0.620431
6713000,0.0324,0.013523,0.002678,0.000431,0.627365
6714000,0.0324,0.013523,0.002678,0.000431,0.623722
6715000,0.0324,0.013523,0.002678,0.000431,0.639588
6716000,0.0324,0.013523,0.002678,0.000431,0.616435
6717000,0.0324,0.013523,0.002678,0.000431,0.634065
6718000,0.0324,0.013523,0.002678,0.000431,0.642879
6719000,0.0324,0.013523,0.002678,0.000431,0.648756
6720000,0.0324,0.013523,0.002678,0.000431,0.635005
6721000,0.0324,0.013523,0.002678,0.000431,0.627130
6722000,0.0324,0.013523,0.002678,0.000431,0.634770
6723000,0.0324,0.013523,0.002678,0.000431,0.645582
6724000,0.0324,0.013523,0.002678,0.000431,0.640294
6725000,0.0324,0.013523,0.002678,0.000431,0.638296
6726000,0.0324,0.013523,0.002678,0.000431,0.637943
6727000,0.0324,0.013523,0.002678,0.000431,0.651576
6728000,0.0324,0.013523,0.002678,0.000431,0.643819
6729000,0.0324,0.013523,0.002678,0.000431,0.654985
6730000,0.0324,0.013523,0.002678,0.000431,0.644877
6731000,0.0324,0.013523,0.002678,0.000431,0.648168
6732000,0.0324,0.013523,0.002678,0.000431,0.643819
6733000,0.0324,0.013523,0.002678,0.000431,0.657218
6734000,0.0324,0.013523,0.002678,0.000431,0.652634
6735000,0.0324,0.013523,0.002678,0.000431,0.636298
6736000,0.0324,0.013523,0.002678,0.000431,0.643232
6737000,0.0324,0.013523,0.002678,0.000431,0.639706
6738000,0.0324,0.013523,0.002678,0.000431,0.637473
6739000,0.0324,0.013523,0.002678,0.000431,0.644172
6740000,0.0324,0.013523,0.002678,0.000431,0.639001
6741000,0.0324,0.013523,0.002678,0.000431,0.622782
6742000,0.0324,0.013523,0.002678,0.000431,0.642997
6743000,0.0324,0.013523,0.002678,0.000431,0.633007
6744000,0.0324,0.013523,0.002678,0.000431,0.654279
6745000,0.0324,0.013523,0.002678,0.000431,0.645582
6746000,0.0324,0.013523,0.002678,0.000431,0.640999
6747000,0.0324,0.013523,0.002678,0.000431,0.639001
6748000,0.0324,0.013523,0.002678,0.000431,0.622077
6749000,0.0324,0.013523,0.002678,0.000431,0.637825
6750000,0.0324,0.013523,0.002678,0.000431,0.634535
6751000,0.0324,0.013523,0.002678,0.000431,0.648638
6752000,0.0324,0.013523,0.002678,0.000431,0.637708
6753000,0.0324,0.013523,0.002678,0.000431,0.643114
6754000,0.0324,0.013523,0.002678,0.000431,0.647110
6755000,0.0324,0.013523,0.002678,0.000431,0.642056
6756000,0.0324,0.013523,0.002678,0.000431,0.639001
6757000,0.0324,0.013523,0.002678,0.000431,0.656983
6758000,0.0324,0.013523,0.002678,0.000431,0.643467
6759000,0.0324,0.013523,0.002678,0.000431,0.643584
6760000,0.0324,0.013523,0.002678,0.000431,0.646875
6761000,0.0324,0.013523,0.002678,0.000431,0.630656
6762000,0.0324,0.013523,0.002678,0.000431,0.629598
6763000,0.0324,0.013523,0.002678,0.000431,0.636180
6764000,0.0324,0.013523,0.002678,0.000431,0.637003
6765000,0.0324,0.013523,0.002678,0.000431,0.631361
6766000,0.0324,0.013523,0.002678,0.000431,0.620314
6767000,0.0324,0.013523,0.002678,0.000431,0.625015
6768000,0.0324,0.013523,0.002678,0.000431,0.644289
6769000,0.0324,0.013523,0.002678,0.000431,0.636768
6770000,0.0324,0.013523,0.002678,0.000431,0.637473
6771000,0.0324,0.013523,0.002678,0.000431,0.640881
6772000,0.0324,0.013523,0.002678,0.000431,0.658510
6773000,0.0324,0.013523,0.002678,0.000431,0.640176
6774000,0.0324,0.013523,0.002678,0.000431,0.650636
6775000,0.0324,0.013523,0.002678,0.000431,0.655572
6776000,0.0324,0.013523,0.002678,0.000431,0.633829
6777000,0.0324,0.013523,0.002678,0.000431,0.655337
6778000,0.0324,0.013523,0.002678,0.000431,0.638766
6779000,0.0324,0.013523,0.002678,0.000431,0.648050
6780000,0.0324,0.013523,0.002678,0.000431,0.625955
6781000,0.0324,0.013523,0.002678,0.000431,0.625250
6782000,0.0324,0.013523,0.002678,0.000431,0.622664
6783000,0.0324,0.013523,0.002678,0.000431,0.631244
6784000,0.0324,0.013523,0.002678,0.000431,0.633242
6785000,0.0324,0.013523,0.002678,0.000431,0.634887
6786000,0.0324,0.013523,0.002678,0.000431,0.646405
6787000,0.0324,0.013523,0.002678,0.000431,0.630421
6788000,0.0324,0.013523,0.002678,0.000431,0.636180
6789000,0.0324,0.013523,0.002678,0.000431,0.638531
6790000,0.0324,0.013523,0.002678,0.000431,0.645465
6791000,0.0324,0.013523,0.002678,0.000431,0.646052
6792000,0.0324,0.013523,0.002678,0.000431,0.617611
6793000,0.0324,0.013523,0.002678,0.000431,0.612557
6794000,0.0324,0.013523,0.002678,0.000431,0.629598
6795000,0.0324,0.013523,0.002678,0.000431,0.625367
6796000,0.0324,0.013523,0.002678,0.000431,0.633242
6797000,0.0324,0.013523,0.002678,0.000431,0.631126
6798000,0.0324,0.013523,0.002678,0.000431,0.623369
6799000,0.0324,0.013523,0.002678,0.000431,0.618316
6800000,0.0324,0.013523,0.002678,0.000431,0.596103
6801000,0.0324,0.013523,0.002678,0.000431,0.619021
6802000,0.0324,0.013523,0.002678,0.000431,0.633007
6803000,0.0324,0.013523,0.002678,0.000431,0.614437
6804000,0.0324,0.013523,0.002678,0.000431,0.613850
6805000,0.0324,0.013523,0.002678,0.000431,0.604682
6806000,0.0324,0.013523,0.002678,0.000431,0.619374
6807000,0.0324,0.013523,0.002678,0.000431,0.622899
6808000,0.0324,0.013523,0.002678,0.000431,0.637943
6809000,0.0324,0.013523,0.002678,0.000431,0.628071
6810000,0.0324,0.013523,0.002678,0.000431,0.624192
6811000,0.0324,0.013523,0.002678,0.000431,0.638178
6812000,0.0324,0.013523,0.002678,0.000431,0.655337
6813000,0.0324,0.013523,0.002678,0.000431,0.638648
6814000,0.0324,0.013523,0.002678,0.000431,0.651106
6815000,0.0324,0.013523,0.002678,0.000431,0.641234
6816000,0.0324,0.013523,0.002678,0.000431,0.620549
6817000,0.0324,0.013523,0.002678,0.000431,0.643114
6818000,0.0324,0.013523,0.002678,0.000431,0.621254
6819000,0.0324,0.013523,0.002678,0.000431,0.607973
6820000,0.0324,0.013523,0.002678,0.000431,0.622664
6821000,0.0324,0.013523,0.002678,0.000431,0.637825
6822000,0.0324,0.013523,0.002678,0.000431,0.612674
6823000,0.0324,0.013523,0.002678,0.000431,0.615730
6824000,0.0324,0.013523,0.002678,0.000431,0.634065
6825000,0.0324,0.013523,0.002678,0.000431,0.618081
6826000,0.0324,0.013523,0.002678,0.000431,0.609971
6827000,0.0324,0.013523,0.002678,0.000431,0.634300
6828000,0.0324,0.013523,0.002678,0.000431,0.644642
6829000,0.0324,0.013523,0.002678,0.000431,0.623487
6830000,0.0324,0.013523,0.002678,0.000431,0.624427
6831000,0.0324,0.013523,0.002678,0.000431,0.619256
6832000,0.0324,0.013523,0.002678,0.000431,0.624897
6833000,0.0324,0.013523,0.002678,0.000431,0.620196
6834000,0.0324,0.013523,0.002678,0.000431,0.623369
6835000,0.0324,0.013523,0.002678,0.000431,0.639823
6836000,0.0324,0.013523,0.002678,0.000431,0.614085
6837000,0.0324,0.013523,0.002678,0.000431,0.629716
6838000,0.0324,0.013523,0.002678,0.000431,0.613262
6839000,0.0324,0.013523,0.002678,0.000431,0.632067
6840000,0.0324,0.013523,0.002678,0.000431,0.635592
6841000,0.0324,0.013523,0.002678,0.000431,0.640999
6842000,0.0324,0.013523,0.002678,0.000431,0.633124
6843000,0.0324,0.013523,0.002678,0.000431,0.621724
6844000,0.0324,0.013523,0.002678,0.000431,0.620431
6845000,0.0324,0.013523,0.002678,0.000431,0.626660
6846000,0.0324,0.013523,0.002678,0.000431,0.631361
6847000,0.0324,0.013523,0.002678,0.000431,0.615848
6848000,0.0324,0.013523,0.002678,0.000431,0.617376
6849000,0.0324,0.013523,0.002678,0.000431,0.616200
6850000,0.0324,0.013523,0.002678,0.000431,0.619021
6851000,0.0324,0.013523,0.002678,0.000431,0.614672
6852000,0.0324,0.013523,0.002678,0.000431,0.622547
6853000,0.0324,0.013523,0.002678,0.000431,0.644172
6854000,0.0324,0.013523,0.002678,0.000431,0.628658
6855000,0.0324,0.013523,0.002678,0.000431,0.630891
6856000,0.0324,0.013523,0.002678,0.000431,0.649696
6857000,0.0324,0.013523,0.002678,0.000431,0.652516
6858000,0.0324,0.013523,0.002678,0.000431,0.637003
6859000,0.0324,0.013523,0.002678,0.000431,0.631596
6860000,0.0324,0.013523,0.002678,0.000431,0.612087
6861000,0.0324,0.013523,0.002678,0.000431,0.621136
6862000,0.0324,0.013523,0.002678,0.000431,0.646640
6863000,0.0324,0.013523,0.002678,0.000431,0.632184
6864000,0.0324,0.013523,0.002678,0.000431,0.617023
6865000,0.0324,0.013523,0.002678,0.000431,0.631126
6866000,0.0324,0.013523,0.002678,0.000431,0.627130
6867000,0.0324,0.013523,0.002678,0.000431,0.626190
6868000,0.0324,0.013523,0.002678,0.000431,0.638061
6869000,0.0324,0.013523,0.002678,0.000431,0.646640
6870000,0.0324,0.013523,0.002678,0.000431,0.633124
6871000,0.0324,0.013523,0.002678,0.000431,0.627718
6872000,0.0324,0.013523,0.002678,0.000431,0.603742
6873000,0.0324,0.013523,0.002678,0.000431,0.632184
6874000,0.0324,0.013523,0.002678,0.000431,0.635827
6875000,0.0324,0.013523,0.002678,0.000431,0.643349
6876000,0.0324,0.013523,0.002678,0.000431,0.617611
6877000,0.0324,0.013523,0.002678,0.000431,0.639353
6878000,0.0324,0.013523,0.002678,0.000431,0.625720
6879000,0.0324,0.013523,0.002678,0.000431,0.619844
6880000,0.0324,0.013523,0.002678,0.000431,0.627130
6881000,0.0324,0.013523,0.002678,0.000431,0.618786
6882000,0.0324,0.013523,0.002678,0.000431,0.636063
6883000,0.0324,0.013523,0.002678,0.000431,0.627953
6884000,0.0324,0.013523,0.002678,0.000431,0.635475
6885000,0.0324,0.013523,0.002678,0.000431,0.632654
6886000,0.0324,0.013523,0.002678,0.000431,0.642292
6887000,0.0324,0.013523,0.002678,0.000431,0.613850
6888000,0.0324,0.013523,0.002678,0.000431,0.653104
6889000,0.0324,0.013523,0.002678,0.000431,0.634417
6890000,0.0324,0.013523,0.002678,0.000431,0.641704
6891000,0.0324,0.013523,0.002678,0.000431,0.640646
6892000,0.0324,0.013523,0.002678,0.000431,0.627013
6893000,0.0324,0.013523,0.002678,0.000431,0.642997
6894000,0.0324,0.013523,0.002678,0.000431,0.648638
6895000,0.0324,0.013523,0.002678,0.000431,0.624545
6896000,0.0324,0.013523,0.002678,0.000431,0.635710
6897000,0.0324,0.013523,0.002678,0.000431,0.637943
6898000,0.0324,0.013523,0.002678,0.000431,0.637473
6899000,0.0324,0.013523,0.002678,0.000431,0.660508
6900000,0.0324,0.013523,0.002678,0.000431,0.624662
6901000,0.0324,0.013523,0.002678,0.000431,0.646287
6902000,0.0324,0.013523,0.002678,0.000431,0.639706
6903000,0.0324,0.013523,0.002678,0.000431,0.630539
6904000,0.0324,0.013523,0.002678,0.000431,0.637355
6905000,0.0324,0.013523,0.002678,0.000431,0.647698
6906000,0.0324,0.013523,0.002678,0.000431,0.634300
6907000,0.0324,0.013523,0.002678,0.000431,0.646758
6908000,0.0324,0.013523,0.002678,0.000431,0.639118
6909000,0.0324,0.013523,0.002678,0.000431,0.621607
6910000,0.0324,0.013523,0.002678,0.000431,0.640176
6911000,0.0324,0.013523,0.002678,0.000431,0.633124
6912000,0.0324,0.013523,0.002678,0.000431,0.629481
6913000,0.0324,0.013523,0.002678,0.000431,0.654867
6914000,0.0324,0.013523,0.002678,0.000431,0.635357
6915000,0.0324,0.013523,0.002678,0.000431,0.642997
6916000,0.0324,0.013523,0.002678,0.000431,0.641351
6917000,0.0324,0.013523,0.002678,0.000431,0.651106
6918000,0.0324,0.013523,0.002678,0.000431,0.632419
6919000,0.0324,0.013523,0.002678,0.000431,0.653927
6920000,0.0324,0.013523,0.002678,0.000431,0.631479
6921000,0.0324,0.013523,0.002678,0.000431,0.634182
6922000,0.0324,0.013523,0.002678,0.000431,0.637590
6923000,0.0324,0.013523,0.002678,0.000431,0.643467
6924000,0.0324,0.013523,0.002678,0.000431,0.620549
6925000,0.0324,0.013523,0.002678,0.000431,0.629011
6926000,0.0324,0.013523,0.002678,0.000431,0.639706
6927000,0.0324,0.013523,0.002678,0.000431,0.625250
6928000,0.0324,0.013523,0.002678,0.000431,0.617493
6929000,0.0324,0.013523,0.002678,0.000431,0.642644
6930000,0.0324,0.013523,0.002678,0.000431,0.641116
6931000,0.0324,0.013523,0.002678,0.000431,0.629951
6932000,0.0324,0.013523,0.002678,0.000431,0.637708
6933000,0.0324,0.013523,0.002678,0.000431,0.623134
6934000,0.0324,0.013523,0.002678,0.000431,0.631009
6935000,0.0324,0.013523,0.002678,0.000431,0.637238
6936000,0.0324,0.013523,0.002678,0.000431,0.646640
6937000,0.0324,0.013523,0.002678,0.000431,0.638648
6938000,0.0324,0.013523,0.002678,0.000431,0.632772
6939000,0.0324,0.013523,0.002678,0.000431,0.646993
6940000,0.0324,0.013523,0.002678,0.000431,0.620549
6941000,0.0324,0.013523,0.002678,0.000431,0.634652
6942000,0.0324,0.013523,0.002678,0.000431,0.631596
6943000,0.0324,0.013523,0.002678,0.000431,0.622899
6944000,0.0324,0.013523,0.002678,0.000431,0.650401
6945000,0.0324,0.013523,0.002678,0.000431,0.620314
6946000,0.0324,0.013523,0.002678,0.000431,0.633477
6947000,0.0324,0.013523,0.002678,0.000431,0.653104
6948000,0.0324,0.013523,0.002678,0.000431,0.644172
6949000,0.0324,0.013523,0.002678,0.000431,0.674024
6950000,0.0324,0.013523,0.002678,0.000431,0.627248
6951000,0.0324,0.013523,0.002678,0.000431,0.634770
6952000,0.0324,0.013523,0.002678,0.000431,0.652634
6953000,0.0324,0.013523,0.002678,0.000431,0.645465
6954000,0.0324,0.013523,0.002678,0.000431,0.641351
6955000,0.0324,0.013523,0.002678,0.000431,0.636885
6956000,0.0324,0.013523,0.002678,0.000431,0.648521
6957000,0.0324,0.013523,0.002678,0.000431,0.650283
6958000,0.0324,0.013523,0.002678,0.000431,0.645582
6959000,0.0324,0.013523,0.002678,0.000431,0.640411
6960000,0.0324,0.013523,0.002678,0.000431,0.620079
6961000,0.0324,0.013523,0.002678,0.000431,0.623840
6962000,0.0324,0.013523,0.002678,0.000431,0.642879
6963000,0.0324,0.013523,0.002678,0.000431,0.652634
6964000,0.0324,0.013523,0.002678,0.000431,0.642056
6965000,0.0324,0.013523,0.002678,0.000431,0.643114
6966000,0.0324,0.013523,0.002678,0.000431,0.653104
6967000,0.0324,0.013523,0.002678,0.000431,0.641939
6968000,0.0324,0.013523,0.002678,0.000431,0.631009
6969000,0.0324,0.013523,0.002678,0.000431,0.646875
6970000,0.0324,0.013523,0.002678,0.000431,0.648756
6971000,0.0324,0.013523,0.002678,0.000431,0.628541
6972000,0.0324,0.013523,0.002678,0.000431,0.632654
6973000,0.0324,0.013523,0.002678,0.000431,0.641586
6974000,0.0324,0.013523,0.002678,0.000431,0.637590
6975000,0.0324,0.013523,0.002678,0.000431,0.633242
6976000,0.0324,0.013523,0.002678,0.000431,0.632537
6977000,0.0324,0.013523,0.002678,0.000431,0.632537
6978000,0.0324,0.013523,0.002678,0.000431,0.637473
6979000,0.0324,0.013523,0.002678,0.000431,0.635005
6980000,0.0324,0.013523,0.002678,0.000431,0.628188
6981000,0.0324,0.013523,0.002678,0.000431,0.646758
6982000,0.0324,0.013523,0.002678,0.000431,0.648403
6983000,0.0324,0.013523,0.002678,0.000431,0.617611
6984000,0.0324,0.013523,0.002678,0.000431,0.628893
6985000,0.0324,0.013523,0.002678,0.000431,0.641704
6986000,0.0324,0.013523,0.002678,0.000431,0.627600
6987000,0.0324,0.013523,0.002678,0.000431,0.618433
6988000,0.0324,0.013523,0.002678,0.000431,0.631009
6989000,0.0324,0.013523,0.002678,0.000431,0.646875
6990000,0.0324,0.013523,0.002678,0.000431,0.634300
6991000,0.0324,0.013523,0.002678,0.000431,0.629716
6992000,0.0324,0.013523,0.002678,0.000431,0.641469
6993000,0.0324,0.013523,0.002678,0.000431,0.635122
6994000,0.0324,0.013523,0.002678,0.000431,0.635005
6995000,0.0324,0.013523,0.002678,0.000431,0.631244
6996000,0.0324,0.013523,0.002678,0.000431,0.635122
6997000,0.0324,0.013523,0.002678,0.000431,0.637590
6998000,0.0324,0.013523,0.002678,0.000431,0.619256
6999000,0.0324,0.013523,0.002678,0.000431,0.637003
