Cycle,Area(mm^2),PeakDynamic(W),SubthresholdLeakage(W),GateLeakage(W),RunTimeDynamic(W)
3000000,0.0324,0.013523,0.002678,0.000431,0.646758
3001000,0.0324,0.013523,0.002678,0.000431,0.642292
3002000,0.0324,0.013523,0.002678,0.000431,0.642174
3003000,0.0324,0.013523,0.002678,0.000431,0.642056
3004000,0.0324,0.013523,0.002678,0.000431,0.643937
3005000,0.0324,0.013523,0.002678,0.000431,0.639236
3006000,0.0324,0.013523,0.002678,0.000431,0.637355
3007000,0.0324,0.013523,0.002678,0.000431,0.650989
3008000,0.0324,0.013523,0.002678,0.000431,0.643467
3009000,0.0324,0.013523,0.002678,0.000431,0.636768
3010000,0.0324,0.013523,0.002678,0.000431,0.644877
3011000,0.0324,0.013523,0.002678,0.000431,0.635710
3012000,0.0324,0.013523,0.002678,0.000431,0.649813
3013000,0.0324,0.013523,0.002678,0.000431,0.626190
3014000,0.0324,0.013523,0.002678,0.000431,0.642527
3015000,0.0324,0.013523,0.002678,0.000431,0.666620
3016000,0.0324,0.013523,0.002678,0.000431,0.658745
3017000,0.0324,0.013523,0.002678,0.000431,0.639118
3018000,0.0324,0.013523,0.002678,0.000431,0.672261
3019000,0.0324,0.013523,0.002678,0.000431,0.645465
3020000,0.0324,0.013523,0.002678,0.000431,0.665915
3021000,0.0324,0.013523,0.002678,0.000431,0.642174
3022000,0.0324,0.013523,0.002678,0.000431,0.646052
3023000,0.0324,0.013523,0.002678,0.000431,0.651106
3024000,0.0324,0.013523,0.002678,0.000431,0.658158
3025000,0.0324,0.013523,0.002678,0.000431,0.646875
3026000,0.0324,0.013523,0.002678,0.000431,0.654044
3027000,0.0324,0.013523,0.002678,0.000431,0.647580
3028000,0.0324,0.013523,0.002678,0.000431,0.654044
3029000,0.0324,0.013523,0.002678,0.000431,0.657805
3030000,0.0324,0.013523,0.002678,0.000431,0.620666
3031000,0.0324,0.013523,0.002678,0.000431,0.666267
3032000,0.0324,0.013523,0.002678,0.000431,0.648521
3033000,0.0324,0.013523,0.002678,0.000431,0.644407
3034000,0.0324,0.013523,0.002678,0.000431,0.645700
3035000,0.0324,0.013523,0.002678,0.000431,0.649931
3036000,0.0324,0.013523,0.002678,0.000431,0.652399
3037000,0.0324,0.013523,0.002678,0.000431,0.640058
3038000,0.0324,0.013523,0.002678,0.000431,0.643819
3039000,0.0324,0.013523,0.002678,0.000431,0.629716
3040000,0.0324,0.013523,0.002678,0.000431,0.634182
3041000,0.0324,0.013523,0.002678,0.000431,0.646052
3042000,0.0324,0.013523,0.002678,0.000431,0.660391
3043000,0.0324,0.013523,0.002678,0.000431,0.652516
3044000,0.0324,0.013523,0.002678,0.000431,0.640646
3045000,0.0324,0.013523,0.002678,0.000431,0.636415
3046000,0.0324,0.013523,0.002678,0.000431,0.648168
3047000,0.0324,0.013523,0.002678,0.000431,0.660391
3048000,0.0324,0.013523,0.002678,0.000431,0.670381
3049000,0.0324,0.013523,0.002678,0.000431,0.632772
3050000,0.0324,0.013523,0.002678,0.000431,0.656395
3051000,0.0324,0.013523,0.002678,0.000431,0.655102
3052000,0.0324,0.013523,0.002678,0.000431,0.644760
3053000,0.0324,0.013523,0.002678,0.000431,0.652752
3054000,0.0324,0.013523,0.002678,0.000431,0.657923
3055000,0.0324,0.013523,0.002678,0.000431,0.643937
3056000,0.0324,0.013523,0.002678,0.000431,0.658275
3057000,0.0324,0.013523,0.002678,0.000431,0.651106
3058000,0.0324,0.013523,0.002678,0.000431,0.652164
3059000,0.0324,0.013523,0.002678,0.000431,0.642174
3060000,0.0324,0.013523,0.002678,0.000431,0.635475
3061000,0.0324,0.013523,0.002678,0.000431,0.648991
3062000,0.0324,0.013523,0.002678,0.000431,0.656865
3063000,0.0324,0.013523,0.002678,0.000431,0.647228
3064000,0.0324,0.013523,0.002678,0.000431,0.649343
3065000,0.0324,0.013523,0.002678,0.000431,0.645230
3066000,0.0324,0.013523,0.002678,0.000431,0.648168
3067000,0.0324,0.013523,0.002678,0.000431,0.630421
3068000,0.0324,0.013523,0.002678,0.000431,0.649226
3069000,0.0324,0.013523,0.002678,0.000431,0.669793
3070000,0.0324,0.013523,0.002678,0.000431,0.658275
3071000,0.0324,0.013523,0.002678,0.000431,0.658981
3072000,0.0324,0.013523,0.002678,0.000431,0.660156
3073000,0.0324,0.013523,0.002678,0.000431,0.649813
3074000,0.0324,0.013523,0.002678,0.000431,0.660508
3075000,0.0324,0.013523,0.002678,0.000431,0.657805
3076000,0.0324,0.013523,0.002678,0.000431,0.673789
3077000,0.0324,0.013523,0.002678,0.000431,0.646523
3078000,0.0324,0.013523,0.002678,0.000431,0.675317
3079000,0.0324,0.013523,0.002678,0.000431,0.625015
3080000,0.0324,0.013523,0.002678,0.000431,0.653809
3081000,0.0324,0.013523,0.002678,0.000431,0.649578
3082000,0.0324,0.013523,0.002678,0.000431,0.659333
3083000,0.0324,0.013523,0.002678,0.000431,0.653692
3084000,0.0324,0.013523,0.002678,0.000431,0.657100
3085000,0.0324,0.013523,0.002678,0.000431,0.672496
3086000,0.0324,0.013523,0.002678,0.000431,0.649578
3087000,0.0324,0.013523,0.002678,0.000431,0.653692
3088000,0.0324,0.013523,0.002678,0.000431,0.668735
3089000,0.0324,0.013523,0.002678,0.000431,0.685072
3090000,0.0324,0.013523,0.002678,0.000431,0.620549
3091000,0.0324,0.013523,0.002678,0.000431,0.659568
3092000,0.0324,0.013523,0.002678,0.000431,0.661801
3093000,0.0324,0.013523,0.002678,0.000431,0.655690
3094000,0.0324,0.013523,0.002678,0.000431,0.642409
3095000,0.0324,0.013523,0.002678,0.000431,0.662624
3096000,0.0324,0.013523,0.002678,0.000431,0.648991
3097000,0.0324,0.013523,0.002678,0.000431,0.661331
3098000,0.0324,0.013523,0.002678,0.000431,0.666267
3099000,0.0324,0.013523,0.002678,0.000431,0.678020
3100000,0.0324,0.013523,0.002678,0.000431,0.655690
3101000,0.0324,0.013523,0.002678,0.000431,0.650636
3102000,0.0324,0.013523,0.002678,0.000431,0.638178
3103000,0.0324,0.013523,0.002678,0.000431,0.636415
3104000,0.0324,0.013523,0.002678,0.000431,0.654985
3105000,0.0324,0.013523,0.002678,0.000431,0.656042
3106000,0.0324,0.013523,0.002678,0.000431,0.673789
3107000,0.0324,0.013523,0.002678,0.000431,0.655690
3108000,0.0324,0.013523,0.002678,0.000431,0.644760
3109000,0.0324,0.013523,0.002678,0.000431,0.619256
3110000,0.0324,0.013523,0.002678,0.000431,0.648521
3111000,0.0324,0.013523,0.002678,0.000431,0.633477
3112000,0.0324,0.013523,0.002678,0.000431,0.638883
3113000,0.0324,0.013523,0.002678,0.000431,0.654632
3114000,0.0324,0.013523,0.002678,0.000431,0.658158
3115000,0.0324,0.013523,0.002678,0.000431,0.650636
3116000,0.0324,0.013523,0.002678,0.000431,0.664269
3117000,0.0324,0.013523,0.002678,0.000431,0.676022
3118000,0.0324,0.013523,0.002678,0.000431,0.648756
3119000,0.0324,0.013523,0.002678,0.000431,0.651106
3120000,0.0324,0.013523,0.002678,0.000431,0.652046
3121000,0.0324,0.013523,0.002678,0.000431,0.655337
3122000,0.0324,0.013523,0.002678,0.000431,0.633829
3123000,0.0324,0.013523,0.002678,0.000431,0.657923
3124000,0.0324,0.013523,0.002678,0.000431,0.647110
3125000,0.0324,0.013523,0.002678,0.000431,0.656277
3126000,0.0324,0.013523,0.002678,0.000431,0.648756
3127000,0.0324,0.013523,0.002678,0.000431,0.657570
3128000,0.0324,0.013523,0.002678,0.000431,0.659686
3129000,0.0324,0.013523,0.002678,0.000431,0.668970
3130000,0.0324,0.013523,0.002678,0.000431,0.649461
3131000,0.0324,0.013523,0.002678,0.000431,0.652987
3132000,0.0324,0.013523,0.002678,0.000431,0.650989
3133000,0.0324,0.013523,0.002678,0.000431,0.638413
3134000,0.0324,0.013523,0.002678,0.000431,0.646405
3135000,0.0324,0.013523,0.002678,0.000431,0.637943
3136000,0.0324,0.013523,0.002678,0.000431,0.656042
3137000,0.0324,0.013523,0.002678,0.000431,0.650871
3138000,0.0324,0.013523,0.002678,0.000431,0.660978
3139000,0.0324,0.013523,0.002678,0.000431,0.661801
3140000,0.0324,0.013523,0.002678,0.000431,0.642292
3141000,0.0324,0.013523,0.002678,0.000431,0.636180
3142000,0.0324,0.013523,0.002678,0.000431,0.638766
3143000,0.0324,0.013523,0.002678,0.000431,0.649226
3144000,0.0324,0.013523,0.002678,0.000431,0.646640
3145000,0.0324,0.013523,0.002678,0.000431,0.659216
3146000,0.0324,0.013523,0.002678,0.000431,0.645465
3147000,0.0324,0.013523,0.002678,0.000431,0.645817
3148000,0.0324,0.013523,0.002678,0.000431,0.640411
3149000,0.0324,0.013523,0.002678,0.000431,0.642762
3150000,0.0324,0.013523,0.002678,0.000431,0.638296
3151000,0.0324,0.013523,0.002678,0.000431,0.617140
3152000,0.0324,0.013523,0.002678,0.000431,0.631244
3153000,0.0324,0.013523,0.002678,0.000431,0.640411
3154000,0.0324,0.013523,0.002678,0.000431,0.634887
3155000,0.0324,0.013523,0.002678,0.000431,0.642409
3156000,0.0324,0.013523,0.002678,0.000431,0.688950
3157000,0.0324,0.013523,0.002678,0.000431,0.761465
3158000,0.0324,0.013523,0.002678,0.000431,0.745834
3159000,0.0324,0.013523,0.002678,0.000431,0.703524
3160000,0.0324,0.013523,0.002678,0.000431,0.740192
3161000,0.0324,0.013523,0.002678,0.000431,0.759467
3162000,0.0324,0.013523,0.002678,0.000431,0.727852
3163000,0.0324,0.013523,0.002678,0.000431,0.760877
3164000,0.0324,0.013523,0.002678,0.000431,0.787204
3165000,0.0324,0.013523,0.002678,0.000431,0.721623
3166000,0.0324,0.013523,0.002678,0.000431,0.768517
3167000,0.0324,0.013523,0.002678,0.000431,0.698823
3168000,0.0324,0.013523,0.002678,0.000431,0.665210
3169000,0.0324,0.013523,0.002678,0.000431,0.647698
3170000,0.0324,0.013523,0.002678,0.000431,0.677550
3171000,0.0324,0.013523,0.002678,0.000431,0.709988
3172000,0.0324,0.013523,0.002678,0.000431,0.700233
3173000,0.0324,0.013523,0.002678,0.000431,0.661801
3174000,0.0324,0.013523,0.002678,0.000431,0.686717
3175000,0.0324,0.013523,0.002678,0.000431,0.687892
3176000,0.0324,0.013523,0.002678,0.000431,0.682486
3177000,0.0324,0.013523,0.002678,0.000431,0.695532
3178000,0.0324,0.013523,0.002678,0.000431,0.698000
3179000,0.0324,0.013523,0.002678,0.000431,0.761113
3180000,0.0324,0.013523,0.002678,0.000431,0.710693
3181000,0.0324,0.013523,0.002678,0.000431,0.682016
3182000,0.0324,0.013523,0.002678,0.000431,0.647345
3183000,0.0324,0.013523,0.002678,0.000431,0.689655
3184000,0.0324,0.013523,0.002678,0.000431,0.665327
3185000,0.0324,0.013523,0.002678,0.000431,0.659451
3186000,0.0324,0.013523,0.002678,0.000431,0.670851
3187000,0.0324,0.013523,0.002678,0.000431,0.698000
3188000,0.0324,0.013523,0.002678,0.000431,0.703054
3189000,0.0324,0.013523,0.002678,0.000431,0.709048
3190000,0.0324,0.013523,0.002678,0.000431,0.757352
3191000,0.0324,0.013523,0.002678,0.000431,0.699763
3192000,0.0324,0.013523,0.002678,0.000431,0.725972
3193000,0.0324,0.013523,0.002678,0.000431,0.692594
3194000,0.0324,0.013523,0.002678,0.000431,0.694474
3195000,0.0324,0.013523,0.002678,0.000431,0.699293
3196000,0.0324,0.013523,0.002678,0.000431,0.703171
3197000,0.0324,0.013523,0.002678,0.000431,0.705874
3198000,0.0324,0.013523,0.002678,0.000431,0.690125
3199000,0.0324,0.013523,0.002678,0.000431,0.740310
3200000,0.0324,0.013523,0.002678,0.000431,0.686952
3201000,0.0324,0.013523,0.002678,0.000431,0.713514
3202000,0.0324,0.013523,0.002678,0.000431,0.691888
3203000,0.0324,0.013523,0.002678,0.000431,0.711398
3204000,0.0324,0.013523,0.002678,0.000431,0.737372
3205000,0.0324,0.013523,0.002678,0.000431,0.743483
3206000,0.0324,0.013523,0.002678,0.000431,0.694239
3207000,0.0324,0.013523,0.002678,0.000431,0.726794
3208000,0.0324,0.013523,0.002678,0.000431,0.708460
3209000,0.0324,0.013523,0.002678,0.000431,0.684249
3210000,0.0324,0.013523,0.002678,0.000431,0.673201
3211000,0.0324,0.013523,0.002678,0.000431,0.656630
3212000,0.0324,0.013523,0.002678,0.000431,0.684367
3213000,0.0324,0.013523,0.002678,0.000431,0.687305
3214000,0.0324,0.013523,0.002678,0.000431,0.694592
3215000,0.0324,0.013523,0.002678,0.000431,0.718332
3216000,0.0324,0.013523,0.002678,0.000431,0.719860
3217000,0.0324,0.013523,0.002678,0.000431,0.714219
3218000,0.0324,0.013523,0.002678,0.000431,0.710693
3219000,0.0324,0.013523,0.002678,0.000431,0.711516
3220000,0.0324,0.013523,0.002678,0.000431,0.720213
3221000,0.0324,0.013523,0.002678,0.000431,0.694239
3222000,0.0324,0.013523,0.002678,0.000431,0.680253
3223000,0.0324,0.013523,0.002678,0.000431,0.710928
3224000,0.0324,0.013523,0.002678,0.000431,0.709753
3225000,0.0324,0.013523,0.002678,0.000431,0.710105
3226000,0.0324,0.013523,0.002678,0.000431,0.705522
3227000,0.0324,0.013523,0.002678,0.000431,0.679901
3228000,0.0324,0.013523,0.002678,0.000431,0.687540
3229000,0.0324,0.013523,0.002678,0.000431,0.711516
3230000,0.0324,0.013523,0.002678,0.000431,0.691418
3231000,0.0324,0.013523,0.002678,0.000431,0.743836
3232000,0.0324,0.013523,0.002678,0.000431,0.714806
3233000,0.0324,0.013523,0.002678,0.000431,0.709400
3234000,0.0324,0.013523,0.002678,0.000431,0.684837
3235000,0.0324,0.013523,0.002678,0.000431,0.678020
3236000,0.0324,0.013523,0.002678,0.000431,0.716217
3237000,0.0324,0.013523,0.002678,0.000431,0.681899
3238000,0.0324,0.013523,0.002678,0.000431,0.686952
3239000,0.0324,0.013523,0.002678,0.000431,0.704817
3240000,0.0324,0.013523,0.002678,0.000431,0.714924
3241000,0.0324,0.013523,0.002678,0.000431,0.719037
3242000,0.0324,0.013523,0.002678,0.000431,0.758292
3243000,0.0324,0.013523,0.002678,0.000431,0.716099
3244000,0.0324,0.013523,0.002678,0.000431,0.744424
3245000,0.0324,0.013523,0.002678,0.000431,0.754648
3246000,0.0324,0.013523,0.002678,0.000431,0.736079
3247000,0.0324,0.013523,0.002678,0.000431,0.717862
3248000,0.0324,0.013523,0.002678,0.000431,0.704817
3249000,0.0324,0.013523,0.002678,0.000431,0.691888
3250000,0.0324,0.013523,0.002678,0.000431,0.709870
3251000,0.0324,0.013523,0.002678,0.000431,0.712456
3252000,0.0324,0.013523,0.002678,0.000431,0.694709
3253000,0.0324,0.013523,0.002678,0.000431,0.733728
3254000,0.0324,0.013523,0.002678,0.000431,0.716804
3255000,0.0324,0.013523,0.002678,0.000431,0.688010
3256000,0.0324,0.013523,0.002678,0.000431,0.678843
3257000,0.0324,0.013523,0.002678,0.000431,0.669911
3258000,0.0324,0.013523,0.002678,0.000431,0.689773
3259000,0.0324,0.013523,0.002678,0.000431,0.688010
3260000,0.0324,0.013523,0.002678,0.000431,0.692594
3261000,0.0324,0.013523,0.002678,0.000431,0.680018
3262000,0.0324,0.013523,0.002678,0.000431,0.695179
3263000,0.0324,0.013523,0.002678,0.000431,0.679665
3264000,0.0324,0.013523,0.002678,0.000431,0.679548
3265000,0.0324,0.013523,0.002678,0.000431,0.676140
3266000,0.0324,0.013523,0.002678,0.000431,0.700115
3267000,0.0324,0.013523,0.002678,0.000431,0.713279
3268000,0.0324,0.013523,0.002678,0.000431,0.721153
3269000,0.0324,0.013523,0.002678,0.000431,0.703289
3270000,0.0324,0.013523,0.002678,0.000431,0.695179
3271000,0.0324,0.013523,0.002678,0.000431,0.660273
3272000,0.0324,0.013523,0.002678,0.000431,0.668030
3273000,0.0324,0.013523,0.002678,0.000431,0.698235
3274000,0.0324,0.013523,0.002678,0.000431,0.689773
3275000,0.0324,0.013523,0.002678,0.000431,0.709518
3276000,0.0324,0.013523,0.002678,0.000431,0.694239
3277000,0.0324,0.013523,0.002678,0.000431,0.720800
3278000,0.0324,0.013523,0.002678,0.000431,0.689538
3279000,0.0324,0.013523,0.002678,0.000431,0.683896
3280000,0.0324,0.013523,0.002678,0.000431,0.674259
3281000,0.0324,0.013523,0.002678,0.000431,0.692946
3282000,0.0324,0.013523,0.002678,0.000431,0.677197
3283000,0.0324,0.013523,0.002678,0.000431,0.683779
3284000,0.0324,0.013523,0.002678,0.000431,0.704346
3285000,0.0324,0.013523,0.002678,0.000431,0.702113
3286000,0.0324,0.013523,0.002678,0.000431,0.689420
3287000,0.0324,0.013523,0.002678,0.000431,0.686012
3288000,0.0324,0.013523,0.002678,0.000431,0.655455
3289000,0.0324,0.013523,0.002678,0.000431,0.671674
3290000,0.0324,0.013523,0.002678,0.000431,0.679783
3291000,0.0324,0.013523,0.002678,0.000431,0.661096
3292000,0.0324,0.013523,0.002678,0.000431,0.676140
3293000,0.0324,0.013523,0.002678,0.000431,0.684484
3294000,0.0324,0.013523,0.002678,0.000431,0.721858
3295000,0.0324,0.013523,0.002678,0.000431,0.676492
3296000,0.0324,0.013523,0.002678,0.000431,0.717510
3297000,0.0324,0.013523,0.002678,0.000431,0.679783
3298000,0.0324,0.013523,0.002678,0.000431,0.678608
3299000,0.0324,0.013523,0.002678,0.000431,0.682486
3300000,0.0324,0.013523,0.002678,0.000431,0.662624
3301000,0.0324,0.013523,0.002678,0.000431,0.680136
3302000,0.0324,0.013523,0.002678,0.000431,0.658745
3303000,0.0324,0.013523,0.002678,0.000431,0.652752
3304000,0.0324,0.013523,0.002678,0.000431,0.667560
3305000,0.0324,0.013523,0.002678,0.000431,0.669323
3306000,0.0324,0.013523,0.002678,0.000431,0.669793
3307000,0.0324,0.013523,0.002678,0.000431,0.685659
3308000,0.0324,0.013523,0.002678,0.000431,0.682016
3309000,0.0324,0.013523,0.002678,0.000431,0.715041
3310000,0.0324,0.013523,0.002678,0.000431,0.650283
3311000,0.0324,0.013523,0.002678,0.000431,0.690596
3312000,0.0324,0.013523,0.002678,0.000431,0.693416
3313000,0.0324,0.013523,0.002678,0.000431,0.694004
3314000,0.0324,0.013523,0.002678,0.000431,0.657453
3315000,0.0324,0.013523,0.002678,0.000431,0.704699
3316000,0.0324,0.013523,0.002678,0.000431,0.685189
3317000,0.0324,0.013523,0.002678,0.000431,0.688245
3318000,0.0324,0.013523,0.002678,0.000431,0.698000
3319000,0.0324,0.013523,0.002678,0.000431,0.678960
3320000,0.0324,0.013523,0.002678,0.000431,0.682486
3321000,0.0324,0.013523,0.002678,0.000431,0.641351
3322000,0.0324,0.013523,0.002678,0.000431,0.667207
3323000,0.0324,0.013523,0.002678,0.000431,0.666385
3324000,0.0324,0.013523,0.002678,0.000431,0.698117
3325000,0.0324,0.013523,0.002678,0.000431,0.726912
3326000,0.0324,0.013523,0.002678,0.000431,0.698117
3327000,0.0324,0.013523,0.002678,0.000431,0.689068
3328000,0.0324,0.013523,0.002678,0.000431,0.660391
3329000,0.0324,0.013523,0.002678,0.000431,0.672026
3330000,0.0324,0.013523,0.002678,0.000431,0.722916
3331000,0.0324,0.013523,0.002678,0.000431,0.706697
3332000,0.0324,0.013523,0.002678,0.000431,0.685659
3333000,0.0324,0.013523,0.002678,0.000431,0.680136
3334000,0.0324,0.013523,0.002678,0.000431,0.675552
3335000,0.0324,0.013523,0.002678,0.000431,0.672496
3336000,0.0324,0.013523,0.002678,0.000431,0.681311
3337000,0.0324,0.013523,0.002678,0.000431,0.659098
3338000,0.0324,0.013523,0.002678,0.000431,0.687540
3339000,0.0324,0.013523,0.002678,0.000431,0.685777
3340000,0.0324,0.013523,0.002678,0.000431,0.682016
3341000,0.0324,0.013523,0.002678,0.000431,0.671086
3342000,0.0324,0.013523,0.002678,0.000431,0.655807
3343000,0.0324,0.013523,0.002678,0.000431,0.653457
3344000,0.0324,0.013523,0.002678,0.000431,0.681781
3345000,0.0324,0.013523,0.002678,0.000431,0.665797
3346000,0.0324,0.013523,0.002678,0.000431,0.693534
3347000,0.0324,0.013523,0.002678,0.000431,0.691771
3348000,0.0324,0.013523,0.002678,0.000431,0.687775
3349000,0.0324,0.013523,0.002678,0.000431,0.687187
3350000,0.0324,0.013523,0.002678,0.000431,0.676962
3351000,0.0324,0.013523,0.002678,0.000431,0.680488
3352000,0.0324,0.013523,0.002678,0.000431,0.661449
3353000,0.0324,0.013523,0.002678,0.000431,0.664857
3354000,0.0324,0.013523,0.002678,0.000431,0.658275
3355000,0.0324,0.013523,0.002678,0.000431,0.666032
3356000,0.0324,0.013523,0.002678,0.000431,0.670146
3357000,0.0324,0.013523,0.002678,0.000431,0.687657
3358000,0.0324,0.013523,0.002678,0.000431,0.669676
3359000,0.0324,0.013523,0.002678,0.000431,0.666737
3360000,0.0324,0.013523,0.002678,0.000431,0.691536
3361000,0.0324,0.013523,0.002678,0.000431,0.675552
3362000,0.0324,0.013523,0.002678,0.000431,0.670851
3363000,0.0324,0.013523,0.002678,0.000431,0.672614
3364000,0.0324,0.013523,0.002678,0.000431,0.673084
3365000,0.0324,0.013523,0.002678,0.000431,0.664269
3366000,0.0324,0.013523,0.002678,0.000431,0.638883
3367000,0.0324,0.013523,0.002678,0.000431,0.669676
3368000,0.0324,0.013523,0.002678,0.000431,0.682016
3369000,0.0324,0.013523,0.002678,0.000431,0.682956
3370000,0.0324,0.013523,0.002678,0.000431,0.658393
3371000,0.0324,0.013523,0.002678,0.000431,0.675317
3372000,0.0324,0.013523,0.002678,0.000431,0.698235
3373000,0.0324,0.013523,0.002678,0.000431,0.666267
3374000,0.0324,0.013523,0.002678,0.000431,0.666620
3375000,0.0324,0.013523,0.002678,0.000431,0.675670
3376000,0.0324,0.013523,0.002678,0.000431,0.655220
3377000,0.0324,0.013523,0.002678,0.000431,0.660273
3378000,0.0324,0.013523,0.002678,0.000431,0.654985
3379000,0.0324,0.013523,0.002678,0.000431,0.677315
3380000,0.0324,0.013523,0.002678,0.000431,0.679901
3381000,0.0324,0.013523,0.002678,0.000431,0.656395
3382000,0.0324,0.013523,0.002678,0.000431,0.688950
3383000,0.0324,0.013523,0.002678,0.000431,0.658628
3384000,0.0324,0.013523,0.002678,0.000431,0.678608
3385000,0.0324,0.013523,0.002678,0.000431,0.664504
3386000,0.0324,0.013523,0.002678,0.000431,0.666972
3387000,0.0324,0.013523,0.002678,0.000431,0.697412
3388000,0.0324,0.013523,0.002678,0.000431,0.650518
3389000,0.0324,0.013523,0.002678,0.000431,0.642879
3390000,0.0324,0.013523,0.002678,0.000431,0.656395
3391000,0.0324,0.013523,0.002678,0.000431,0.660273
3392000,0.0324,0.013523,0.002678,0.000431,0.656395
3393000,0.0324,0.013523,0.002678,0.000431,0.678020
3394000,0.0324,0.013523,0.002678,0.000431,0.663799
3395000,0.0324,0.013523,0.002678,0.000431,0.678490
3396000,0.0324,0.013523,0.002678,0.000431,0.689185
3397000,0.0324,0.013523,0.002678,0.000431,0.664504
3398000,0.0324,0.013523,0.002678,0.000431,0.669793
3399000,0.0324,0.013523,0.002678,0.000431,0.672614
3400000,0.0324,0.013523,0.002678,0.000431,0.670146
3401000,0.0324,0.013523,0.002678,0.000431,0.638766
3402000,0.0324,0.013523,0.002678,0.000431,0.677080
3403000,0.0324,0.013523,0.002678,0.000431,0.691301
3404000,0.0324,0.013523,0.002678,0.000431,0.678020
3405000,0.0324,0.013523,0.002678,0.000431,0.699058
3406000,0.0324,0.013523,0.002678,0.000431,0.682604
3407000,0.0324,0.013523,0.002678,0.000431,0.681899
3408000,0.0324,0.013523,0.002678,0.000431,0.657100
3409000,0.0324,0.013523,0.002678,0.000431,0.645700
3410000,0.0324,0.013523,0.002678,0.000431,0.652399
3411000,0.0324,0.013523,0.002678,0.000431,0.676845
3412000,0.0324,0.013523,0.002678,0.000431,0.657570
3413000,0.0324,0.013523,0.002678,0.000431,0.661566
3414000,0.0324,0.013523,0.002678,0.000431,0.670498
3415000,0.0324,0.013523,0.002678,0.000431,0.629481
3416000,0.0324,0.013523,0.002678,0.000431,0.658393
3417000,0.0324,0.013523,0.002678,0.000431,0.635357
3418000,0.0324,0.013523,0.002678,0.000431,0.664622
3419000,0.0324,0.013523,0.002678,0.000431,0.644877
3420000,0.0324,0.013523,0.002678,0.000431,0.650401
3421000,0.0324,0.013523,0.002678,0.000431,0.684954
3422000,0.0324,0.013523,0.002678,0.000431,0.662389
3423000,0.0324,0.013523,0.002678,0.000431,0.660391
3424000,0.0324,0.013523,0.002678,0.000431,0.650871
3425000,0.0324,0.013523,0.002678,0.000431,0.662271
3426000,0.0324,0.013523,0.002678,0.000431,0.693064
3427000,0.0324,0.013523,0.002678,0.000431,0.678020
3428000,0.0324,0.013523,0.002678,0.000431,0.661566
3429000,0.0324,0.013523,0.002678,0.000431,0.653457
3430000,0.0324,0.013523,0.002678,0.000431,0.701173
3431000,0.0324,0.013523,0.002678,0.000431,0.687657
3432000,0.0324,0.013523,0.002678,0.000431,0.672144
3433000,0.0324,0.013523,0.002678,0.000431,0.647345
3434000,0.0324,0.013523,0.002678,0.000431,0.668618
3435000,0.0324,0.013523,0.002678,0.000431,0.680723
3436000,0.0324,0.013523,0.002678,0.000431,0.657453
3437000,0.0324,0.013523,0.002678,0.000431,0.629011
3438000,0.0324,0.013523,0.002678,0.000431,0.674847
3439000,0.0324,0.013523,0.002678,0.000431,0.648521
3440000,0.0324,0.013523,0.002678,0.000431,0.667560
3441000,0.0324,0.013523,0.002678,0.000431,0.658745
3442000,0.0324,0.013523,0.002678,0.000431,0.637590
3443000,0.0324,0.013523,0.002678,0.000431,0.645700
3444000,0.0324,0.013523,0.002678,0.000431,0.672496
3445000,0.0324,0.013523,0.002678,0.000431,0.672731
3446000,0.0324,0.013523,0.002678,0.000431,0.646993
3447000,0.0324,0.013523,0.002678,0.000431,0.677667
3448000,0.0324,0.013523,0.002678,0.000431,0.636415
3449000,0.0324,0.013523,0.002678,0.000431,0.626895
3450000,0.0324,0.013523,0.002678,0.000431,0.667090
3451000,0.0324,0.013523,0.002678,0.000431,0.679195
3452000,0.0324,0.013523,0.002678,0.000431,0.696590
3453000,0.0324,0.013523,0.002678,0.000431,0.682604
3454000,0.0324,0.013523,0.002678,0.000431,0.656630
3455000,0.0324,0.013523,0.002678,0.000431,0.678490
3456000,0.0324,0.013523,0.002678,0.000431,0.669205
3457000,0.0324,0.013523,0.002678,0.000431,0.655220
3458000,0.0324,0.013523,0.002678,0.000431,0.649696
3459000,0.0324,0.013523,0.002678,0.000431,0.666150
3460000,0.0324,0.013523,0.002678,0.000431,0.666150
3461000,0.0324,0.013523,0.002678,0.000431,0.650754
3462000,0.0324,0.013523,0.002678,0.000431,0.645112
3463000,0.0324,0.013523,0.002678,0.000431,0.624310
3464000,0.0324,0.013523,0.002678,0.000431,0.671203
3465000,0.0324,0.013523,0.002678,0.000431,0.705992
3466000,0.0324,0.013523,0.002678,0.000431,0.665092
3467000,0.0324,0.013523,0.002678,0.000431,0.654397
3468000,0.0324,0.013523,0.002678,0.000431,0.682134
3469000,0.0324,0.013523,0.002678,0.000431,0.660508
3470000,0.0324,0.013523,0.002678,0.000431,0.645465
3471000,0.0324,0.013523,0.002678,0.000431,0.668735
3472000,0.0324,0.013523,0.002678,0.000431,0.680371
3473000,0.0324,0.013523,0.002678,0.000431,0.684484
3474000,0.0324,0.013523,0.002678,0.000431,0.694239
3475000,0.0324,0.013523,0.002678,0.000431,0.671321
3476000,0.0324,0.013523,0.002678,0.000431,0.687305
3477000,0.0324,0.013523,0.002678,0.000431,0.711633
3478000,0.0324,0.013523,0.002678,0.000431,0.707755
3479000,0.0324,0.013523,0.002678,0.000431,0.727970
3480000,0.0324,0.013523,0.002678,0.000431,0.698823
3481000,0.0324,0.013523,0.002678,0.000431,0.680606
3482000,0.0324,0.013523,0.002678,0.000431,0.670733
3483000,0.0324,0.013523,0.002678,0.000431,0.663682
3484000,0.0324,0.013523,0.002678,0.000431,0.644289
3485000,0.0324,0.013523,0.002678,0.000431,0.637943
3486000,0.0324,0.013523,0.002678,0.000431,0.654044
3487000,0.0324,0.013523,0.002678,0.000431,0.661566
3488000,0.0324,0.013523,0.002678,0.000431,0.665210
3489000,0.0324,0.013523,0.002678,0.000431,0.677550
3490000,0.0324,0.013523,0.002678,0.000431,0.692241
3491000,0.0324,0.013523,0.002678,0.000431,0.685424
3492000,0.0324,0.013523,0.002678,0.000431,0.683191
3493000,0.0324,0.013523,0.002678,0.000431,0.649813
3494000,0.0324,0.013523,0.002678,0.000431,0.674024
3495000,0.0324,0.013523,0.002678,0.000431,0.682839
3496000,0.0324,0.013523,0.002678,0.000431,0.666032
3497000,0.0324,0.013523,0.002678,0.000431,0.678608
3498000,0.0324,0.013523,0.002678,0.000431,0.678843
3499000,0.0324,0.013523,0.002678,0.000431,0.687187
3500000,0.0324,0.013523,0.002678,0.000431,0.675199
3501000,0.0324,0.013523,0.002678,0.000431,0.685777
3502000,0.0324,0.013523,0.002678,0.000431,0.671674
3503000,0.0324,0.013523,0.002678,0.000431,0.659098
3504000,0.0324,0.013523,0.002678,0.000431,0.664857
3505000,0.0324,0.013523,0.002678,0.000431,0.649108
3506000,0.0324,0.013523,0.002678,0.000431,0.665680
3507000,0.0324,0.013523,0.002678,0.000431,0.650636
3508000,0.0324,0.013523,0.002678,0.000431,0.640881
3509000,0.0324,0.013523,0.002678,0.000431,0.670498
3510000,0.0324,0.013523,0.002678,0.000431,0.652752
3511000,0.0324,0.013523,0.002678,0.000431,0.674377
3512000,0.0324,0.013523,0.002678,0.000431,0.698117
3513000,0.0324,0.013523,0.002678,0.000431,0.684602
3514000,0.0324,0.013523,0.002678,0.000431,0.724679
3515000,0.0324,0.013523,0.002678,0.000431,0.718685
3516000,0.0324,0.013523,0.002678,0.000431,0.685424
3517000,0.0324,0.013523,0.002678,0.000431,0.683309
3518000,0.0324,0.013523,0.002678,0.000431,0.697060
3519000,0.0324,0.013523,0.002678,0.000431,0.673201
3520000,0.0324,0.013523,0.002678,0.000431,0.672849
3521000,0.0324,0.013523,0.002678,0.000431,0.689185
3522000,0.0324,0.013523,0.002678,0.000431,0.670263
3523000,0.0324,0.013523,0.002678,0.000431,0.678255
3524000,0.0324,0.013523,0.002678,0.000431,0.716099
3525000,0.0324,0.013523,0.002678,0.000431,0.684132
3526000,0.0324,0.013523,0.002678,0.000431,0.694239
3527000,0.0324,0.013523,0.002678,0.000431,0.676845
3528000,0.0324,0.013523,0.002678,0.000431,0.666620
3529000,0.0324,0.013523,0.002678,0.000431,0.678020
3530000,0.0324,0.013523,0.002678,0.000431,0.666855
3531000,0.0324,0.013523,0.002678,0.000431,0.678725
3532000,0.0324,0.013523,0.002678,0.000431,0.634887
3533000,0.0324,0.013523,0.002678,0.000431,0.644760
3534000,0.0324,0.013523,0.002678,0.000431,0.644995
3535000,0.0324,0.013523,0.002678,0.000431,0.648403
3536000,0.0324,0.013523,0.002678,0.000431,0.652399
3537000,0.0324,0.013523,0.002678,0.000431,0.689538
3538000,0.0324,0.013523,0.002678,0.000431,0.668853
3539000,0.0324,0.013523,0.002678,0.000431,0.650989
3540000,0.0324,0.013523,0.002678,0.000431,0.705287
3541000,0.0324,0.013523,0.002678,0.000431,0.690243
3542000,0.0324,0.013523,0.002678,0.000431,0.686835
3543000,0.0324,0.013523,0.002678,0.000431,0.670263
3544000,0.0324,0.013523,0.002678,0.000431,0.651929
3545000,0.0324,0.013523,0.002678,0.000431,0.672144
3546000,0.0324,0.013523,0.002678,0.000431,0.690361
3547000,0.0324,0.013523,0.002678,0.000431,0.673554
3548000,0.0324,0.013523,0.002678,0.000431,0.672261
3549000,0.0324,0.013523,0.002678,0.000431,0.654397
3550000,0.0324,0.013523,0.002678,0.000431,0.669323
3551000,0.0324,0.013523,0.002678,0.000431,0.666972
3552000,0.0324,0.013523,0.002678,0.000431,0.666150
3553000,0.0324,0.013523,0.002678,0.000431,0.703171
3554000,0.0324,0.013523,0.002678,0.000431,0.678725
3555000,0.0324,0.013523,0.002678,0.000431,0.664387
3556000,0.0324,0.013523,0.002678,0.000431,0.656042
3557000,0.0324,0.013523,0.002678,0.000431,0.643937
3558000,0.0324,0.013523,0.002678,0.000431,0.637238
3559000,0.0324,0.013523,0.002678,0.000431,0.659803
3560000,0.0324,0.013523,0.002678,0.000431,0.668970
3561000,0.0324,0.013523,0.002678,0.000431,0.655690
3562000,0.0324,0.013523,0.002678,0.000431,0.651576
3563000,0.0324,0.013523,0.002678,0.000431,0.655102
3564000,0.0324,0.013523,0.002678,0.000431,0.662741
3565000,0.0324,0.013523,0.002678,0.000431,0.669558
3566000,0.0324,0.013523,0.002678,0.000431,0.670028
3567000,0.0324,0.013523,0.002678,0.000431,0.690831
3568000,0.0324,0.013523,0.002678,0.000431,0.668265
3569000,0.0324,0.013523,0.002678,0.000431,0.668030
3570000,0.0324,0.013523,0.002678,0.000431,0.670381
3571000,0.0324,0.013523,0.002678,0.000431,0.666032
3572000,0.0324,0.013523,0.002678,0.000431,0.657218
3573000,0.0324,0.013523,0.002678,0.000431,0.670498
3574000,0.0324,0.013523,0.002678,0.000431,0.668148
3575000,0.0324,0.013523,0.002678,0.000431,0.674142
3576000,0.0324,0.013523,0.002678,0.000431,0.687187
3577000,0.0324,0.013523,0.002678,0.000431,0.676845
3578000,0.0324,0.013523,0.002678,0.000431,0.698940
3579000,0.0324,0.013523,0.002678,0.000431,0.695297
3580000,0.0324,0.013523,0.002678,0.000431,0.669558
3581000,0.0324,0.013523,0.002678,0.000431,0.687187
3582000,0.0324,0.013523,0.002678,0.000431,0.698117
3583000,0.0324,0.013523,0.002678,0.000431,0.661919
3584000,0.0324,0.013523,0.002678,0.000431,0.688245
3585000,0.0324,0.013523,0.002678,0.000431,0.682134
3586000,0.0324,0.013523,0.002678,0.000431,0.673319
3587000,0.0324,0.013523,0.002678,0.000431,0.661096
3588000,0.0324,0.013523,0.002678,0.000431,0.651576
3589000,0.0324,0.013523,0.002678,0.000431,0.688010
3590000,0.0324,0.013523,0.002678,0.000431,0.658745
3591000,0.0324,0.013523,0.002678,0.000431,0.677197
3592000,0.0324,0.013523,0.002678,0.000431,0.640176
3593000,0.0324,0.013523,0.002678,0.000431,0.660978
3594000,0.0324,0.013523,0.002678,0.000431,0.643702
3595000,0.0324,0.013523,0.002678,0.000431,0.664152
3596000,0.0324,0.013523,0.002678,0.000431,0.684014
3597000,0.0324,0.013523,0.002678,0.000431,0.686130
3598000,0.0324,0.013523,0.002678,0.000431,0.629363
3599000,0.0324,0.013523,0.002678,0.000431,0.660978
3600000,0.0324,0.013523,0.002678,0.000431,0.655572
3601000,0.0324,0.013523,0.002678,0.000431,0.671674
3602000,0.0324,0.013523,0.002678,0.000431,0.697412
3603000,0.0324,0.013523,0.002678,0.000431,0.703994
3604000,0.0324,0.013523,0.002678,0.000431,0.679195
3605000,0.0324,0.013523,0.002678,0.000431,0.657335
3606000,0.0324,0.013523,0.002678,0.000431,0.656277
3607000,0.0324,0.013523,0.002678,0.000431,0.679078
3608000,0.0324,0.013523,0.002678,0.000431,0.680136
3609000,0.0324,0.013523,0.002678,0.000431,0.671086
3610000,0.0324,0.013523,0.002678,0.000431,0.696707
3611000,0.0324,0.013523,0.002678,0.000431,0.676140
3612000,0.0324,0.013523,0.002678,0.000431,0.668265
3613000,0.0324,0.013523,0.002678,0.000431,0.671086
3614000,0.0324,0.013523,0.002678,0.000431,0.663799
3615000,0.0324,0.013523,0.002678,0.000431,0.664504
3616000,0.0324,0.013523,0.002678,0.000431,0.646405
3617000,0.0324,0.013523,0.002678,0.000431,0.660391
3618000,0.0324,0.013523,0.002678,0.000431,0.682839
3619000,0.0324,0.013523,0.002678,0.000431,0.673554
3620000,0.0324,0.013523,0.002678,0.000431,0.659686
3621000,0.0324,0.013523,0.002678,0.000431,0.663564
3622000,0.0324,0.013523,0.002678,0.000431,0.669911
3623000,0.0324,0.013523,0.002678,0.000431,0.670028
3624000,0.0324,0.013523,0.002678,0.000431,0.672966
3625000,0.0324,0.013523,0.002678,0.000431,0.667207
3626000,0.0324,0.013523,0.002678,0.000431,0.655690
3627000,0.0324,0.013523,0.002678,0.000431,0.664974
3628000,0.0324,0.013523,0.002678,0.000431,0.665797
3629000,0.0324,0.013523,0.002678,0.000431,0.675199
3630000,0.0324,0.013523,0.002678,0.000431,0.670028
3631000,0.0324,0.013523,0.002678,0.000431,0.676727
3632000,0.0324,0.013523,0.002678,0.000431,0.659098
3633000,0.0324,0.013523,0.002678,0.000431,0.658040
3634000,0.0324,0.013523,0.002678,0.000431,0.640764
3635000,0.0324,0.013523,0.002678,0.000431,0.686952
3636000,0.0324,0.013523,0.002678,0.000431,0.664739
3637000,0.0324,0.013523,0.002678,0.000431,0.658510
3638000,0.0324,0.013523,0.002678,0.000431,0.652516
3639000,0.0324,0.013523,0.002678,0.000431,0.638766
3640000,0.0324,0.013523,0.002678,0.000431,0.671909
3641000,0.0324,0.013523,0.002678,0.000431,0.662271
3642000,0.0324,0.013523,0.002678,0.000431,0.696119
3643000,0.0324,0.013523,0.002678,0.000431,0.688950
3644000,0.0324,0.013523,0.002678,0.000431,0.703994
3645000,0.0324,0.013523,0.002678,0.000431,0.673554
3646000,0.0324,0.013523,0.002678,0.000431,0.640411
3647000,0.0324,0.013523,0.002678,0.000431,0.648756
3648000,0.0324,0.013523,0.002678,0.000431,0.659333
3649000,0.0324,0.013523,0.002678,0.000431,0.680253
3650000,0.0324,0.013523,0.002678,0.000431,0.668735
3651000,0.0324,0.013523,0.002678,0.000431,0.661331
3652000,0.0324,0.013523,0.002678,0.000431,0.662036
3653000,0.0324,0.013523,0.002678,0.000431,0.683544
3654000,0.0324,0.013523,0.002678,0.000431,0.684484
3655000,0.0324,0.013523,0.002678,0.000431,0.690008
3656000,0.0324,0.013523,0.002678,0.000431,0.681781
3657000,0.0324,0.013523,0.002678,0.000431,0.674847
3658000,0.0324,0.013523,0.002678,0.000431,0.661801
3659000,0.0324,0.013523,0.002678,0.000431,0.660273
3660000,0.0324,0.013523,0.002678,0.000431,0.653457
3661000,0.0324,0.013523,0.002678,0.000431,0.662741
3662000,0.0324,0.013523,0.002678,0.000431,0.663799
3663000,0.0324,0.013523,0.002678,0.000431,0.659686
3664000,0.0324,0.013523,0.002678,0.000431,0.679078
3665000,0.0324,0.013523,0.002678,0.000431,0.642527
3666000,0.0324,0.013523,0.002678,0.000431,0.648050
3667000,0.0324,0.013523,0.002678,0.000431,0.654750
3668000,0.0324,0.013523,0.002678,0.000431,0.668383
3669000,0.0324,0.013523,0.002678,0.000431,0.642174
3670000,0.0324,0.013523,0.002678,0.000431,0.671321
3671000,0.0324,0.013523,0.002678,0.000431,0.674142
3672000,0.0324,0.013523,0.002678,0.000431,0.648521
3673000,0.0324,0.013523,0.002678,0.000431,0.682721
3674000,0.0324,0.013523,0.002678,0.000431,0.649108
3675000,0.0324,0.013523,0.002678,0.000431,0.660978
3676000,0.0324,0.013523,0.002678,0.000431,0.631479
3677000,0.0324,0.013523,0.002678,0.000431,0.648638
3678000,0.0324,0.013523,0.002678,0.000431,0.655807
3679000,0.0324,0.013523,0.002678,0.000431,0.662976
3680000,0.0324,0.013523,0.002678,0.000431,0.653222
3681000,0.0324,0.013523,0.002678,0.000431,0.653222
3682000,0.0324,0.013523,0.002678,0.000431,0.655102
3683000,0.0324,0.013523,0.002678,0.000431,0.671791
3684000,0.0324,0.013523,0.002678,0.000431,0.671086
3685000,0.0324,0.013523,0.002678,0.000431,0.657218
3686000,0.0324,0.013523,0.002678,0.000431,0.648521
3687000,0.0324,0.013523,0.002678,0.000431,0.660156
3688000,0.0324,0.013523,0.002678,0.000431,0.646875
3689000,0.0324,0.013523,0.002678,0.000431,0.659568
3690000,0.0324,0.013523,0.002678,0.000431,0.658040
3691000,0.0324,0.013523,0.002678,0.000431,0.642056
3692000,0.0324,0.013523,0.002678,0.000431,0.644760
3693000,0.0324,0.013523,0.002678,0.000431,0.638531
3694000,0.0324,0.013523,0.002678,0.000431,0.655337
3695000,0.0324,0.013523,0.002678,0.000431,0.682251
3696000,0.0324,0.013523,0.002678,0.000431,0.664739
3697000,0.0324,0.013523,0.002678,0.000431,0.665092
3698000,0.0324,0.013523,0.002678,0.000431,0.689420
3699000,0.0324,0.013523,0.002678,0.000431,0.661214
3700000,0.0324,0.013523,0.002678,0.000431,0.653222
3701000,0.0324,0.013523,0.002678,0.000431,0.657335
3702000,0.0324,0.013523,0.002678,0.000431,0.662976
3703000,0.0324,0.013523,0.002678,0.000431,0.657453
3704000,0.0324,0.013523,0.002678,0.000431,0.660978
3705000,0.0324,0.013523,0.002678,0.000431,0.673554
3706000,0.0324,0.013523,0.002678,0.000431,0.689538
3707000,0.0324,0.013523,0.002678,0.000431,0.664739
3708000,0.0324,0.013523,0.002678,0.000431,0.668500
3709000,0.0324,0.013523,0.002678,0.000431,0.655337
3710000,0.0324,0.013523,0.002678,0.000431,0.657453
3711000,0.0324,0.013523,0.002678,0.000431,0.676375
3712000,0.0324,0.013523,0.002678,0.000431,0.660743
3713000,0.0324,0.013523,0.002678,0.000431,0.651106
3714000,0.0324,0.013523,0.002678,0.000431,0.666267
3715000,0.0324,0.013523,0.002678,0.000431,0.649813
3716000,0.0324,0.013523,0.002678,0.000431,0.681193
3717000,0.0324,0.013523,0.002678,0.000431,0.687540
3718000,0.0324,0.013523,0.002678,0.000431,0.675199
3719000,0.0324,0.013523,0.002678,0.000431,0.657688
3720000,0.0324,0.013523,0.002678,0.000431,0.671439
3721000,0.0324,0.013523,0.002678,0.000431,0.710340
3722000,0.0324,0.013523,0.002678,0.000431,0.715512
3723000,0.0324,0.013523,0.002678,0.000431,0.692476
3724000,0.0324,0.013523,0.002678,0.000431,0.673672
3725000,0.0324,0.013523,0.002678,0.000431,0.681311
3726000,0.0324,0.013523,0.002678,0.000431,0.675199
3727000,0.0324,0.013523,0.002678,0.000431,0.657570
3728000,0.0324,0.013523,0.002678,0.000431,0.655102
3729000,0.0324,0.013523,0.002678,0.000431,0.661566
3730000,0.0324,0.013523,0.002678,0.000431,0.673907
3731000,0.0324,0.013523,0.002678,0.000431,0.667795
3732000,0.0324,0.013523,0.002678,0.000431,0.677315
3733000,0.0324,0.013523,0.002678,0.000431,0.661331
3734000,0.0324,0.013523,0.002678,0.000431,0.676610
3735000,0.0324,0.013523,0.002678,0.000431,0.694827
3736000,0.0324,0.013523,0.002678,0.000431,0.691653
3737000,0.0324,0.013523,0.002678,0.000431,0.698705
3738000,0.0324,0.013523,0.002678,0.000431,0.677080
3739000,0.0324,0.013523,0.002678,0.000431,0.645112
3740000,0.0324,0.013523,0.002678,0.000431,0.651459
3741000,0.0324,0.013523,0.002678,0.000431,0.662389
3742000,0.0324,0.013523,0.002678,0.000431,0.646875
3743000,0.0324,0.013523,0.002678,0.000431,0.648285
3744000,0.0324,0.013523,0.002678,0.000431,0.651341
3745000,0.0324,0.013523,0.002678,0.000431,0.668500
3746000,0.0324,0.013523,0.002678,0.000431,0.668618
3747000,0.0324,0.013523,0.002678,0.000431,0.646170
3748000,0.0324,0.013523,0.002678,0.000431,0.670851
3749000,0.0324,0.013523,0.002678,0.000431,0.644054
3750000,0.0324,0.013523,0.002678,0.000431,0.665327
3751000,0.0324,0.013523,0.002678,0.000431,0.666620
3752000,0.0324,0.013523,0.002678,0.000431,0.683074
3753000,0.0324,0.013523,0.002678,0.000431,0.663682
3754000,0.0324,0.013523,0.002678,0.000431,0.691771
3755000,0.0324,0.013523,0.002678,0.000431,0.647110
3756000,0.0324,0.013523,0.002678,0.000431,0.647110
3757000,0.0324,0.013523,0.002678,0.000431,0.674729
3758000,0.0324,0.013523,0.002678,0.000431,0.654632
3759000,0.0324,0.013523,0.002678,0.000431,0.665092
3760000,0.0324,0.013523,0.002678,0.000431,0.652516
3761000,0.0324,0.013523,0.002678,0.000431,0.650754
3762000,0.0324,0.013523,0.002678,0.000431,0.650283
3763000,0.0324,0.013523,0.002678,0.000431,0.651576
3764000,0.0324,0.013523,0.002678,0.000431,0.665092
3765000,0.0324,0.013523,0.002678,0.000431,0.670028
3766000,0.0324,0.013523,0.002678,0.000431,0.658275
3767000,0.0324,0.013523,0.002678,0.000431,0.657218
3768000,0.0324,0.013523,0.002678,0.000431,0.660508
3769000,0.0324,0.013523,0.002678,0.000431,0.659333
3770000,0.0324,0.013523,0.002678,0.000431,0.639353
3771000,0.0324,0.013523,0.002678,0.000431,0.664269
3772000,0.0324,0.013523,0.002678,0.000431,0.654162
3773000,0.0324,0.013523,0.002678,0.000431,0.675199
3774000,0.0324,0.013523,0.002678,0.000431,0.662036
3775000,0.0324,0.013523,0.002678,0.000431,0.668030
3776000,0.0324,0.013523,0.002678,0.000431,0.657570
3777000,0.0324,0.013523,0.002678,0.000431,0.649343
3778000,0.0324,0.013523,0.002678,0.000431,0.663564
3779000,0.0324,0.013523,0.002678,0.000431,0.652516
3780000,0.0324,0.013523,0.002678,0.000431,0.665210
3781000,0.0324,0.013523,0.002678,0.000431,0.648991
3782000,0.0324,0.013523,0.002678,0.000431,0.669558
3783000,0.0324,0.013523,0.002678,0.000431,0.662506
3784000,0.0324,0.013523,0.002678,0.000431,0.641704
3785000,0.0324,0.013523,0.002678,0.000431,0.648521
3786000,0.0324,0.013523,0.002678,0.000431,0.642997
3787000,0.0324,0.013523,0.002678,0.000431,0.676845
3788000,0.0324,0.013523,0.002678,0.000431,0.655102
3789000,0.0324,0.013523,0.002678,0.000431,0.678255
3790000,0.0324,0.013523,0.002678,0.000431,0.660861
3791000,0.0324,0.013523,0.002678,0.000431,0.663094
3792000,0.0324,0.013523,0.002678,0.000431,0.645935
3793000,0.0324,0.013523,0.002678,0.000431,0.642644
3794000,0.0324,0.013523,0.002678,0.000431,0.624075
3795000,0.0324,0.013523,0.002678,0.000431,0.653339
3796000,0.0324,0.013523,0.002678,0.000431,0.679195
3797000,0.0324,0.013523,0.002678,0.000431,0.654750
3798000,0.0324,0.013523,0.002678,0.000431,0.651811
3799000,0.0324,0.013523,0.002678,0.000431,0.637473
3800000,0.0324,0.013523,0.002678,0.000431,0.651576
3801000,0.0324,0.013523,0.002678,0.000431,0.651576
3802000,0.0324,0.013523,0.002678,0.000431,0.642409
3803000,0.0324,0.013523,0.002678,0.000431,0.663329
3804000,0.0324,0.013523,0.002678,0.000431,0.657218
3805000,0.0324,0.013523,0.002678,0.000431,0.634182
3806000,0.0324,0.013523,0.002678,0.000431,0.636063
3807000,0.0324,0.013523,0.002678,0.000431,0.648756
3808000,0.0324,0.013523,0.002678,0.000431,0.662036
3809000,0.0324,0.013523,0.002678,0.000431,0.661214
3810000,0.0324,0.013523,0.002678,0.000431,0.676375
3811000,0.0324,0.013523,0.002678,0.000431,0.668618
3812000,0.0324,0.013523,0.002678,0.000431,0.673554
3813000,0.0324,0.013523,0.002678,0.000431,0.649226
3814000,0.0324,0.013523,0.002678,0.000431,0.660743
3815000,0.0324,0.013523,0.002678,0.000431,0.653927
3816000,0.0324,0.013523,0.002678,0.000431,0.636298
3817000,0.0324,0.013523,0.002678,0.000431,0.658510
3818000,0.0324,0.013523,0.002678,0.000431,0.657923
3819000,0.0324,0.013523,0.002678,0.000431,0.666737
3820000,0.0324,0.013523,0.002678,0.000431,0.645700
3821000,0.0324,0.013523,0.002678,0.000431,0.660156
3822000,0.0324,0.013523,0.002678,0.000431,0.644525
3823000,0.0324,0.013523,0.002678,0.000431,0.654162
3824000,0.0324,0.013523,0.002678,0.000431,0.655572
3825000,0.0324,0.013523,0.002678,0.000431,0.668735
3826000,0.0324,0.013523,0.002678,0.000431,0.675434
3827000,0.0324,0.013523,0.002678,0.000431,0.659098
3828000,0.0324,0.013523,0.002678,0.000431,0.659333
3829000,0.0324,0.013523,0.002678,0.000431,0.645465
3830000,0.0324,0.013523,0.002678,0.000431,0.685424
3831000,0.0324,0.013523,0.002678,0.000431,0.673201
3832000,0.0324,0.013523,0.002678,0.000431,0.665562
3833000,0.0324,0.013523,0.002678,0.000431,0.673084
3834000,0.0324,0.013523,0.002678,0.000431,0.658393
3835000,0.0324,0.013523,0.002678,0.000431,0.679313
3836000,0.0324,0.013523,0.002678,0.000431,0.690948
3837000,0.0324,0.013523,0.002678,0.000431,0.650048
3838000,0.0324,0.013523,0.002678,0.000431,0.640646
3839000,0.0324,0.013523,0.002678,0.000431,0.662036
3840000,0.0324,0.013523,0.002678,0.000431,0.680018
3841000,0.0324,0.013523,0.002678,0.000431,0.643819
3842000,0.0324,0.013523,0.002678,0.000431,0.657453
3843000,0.0324,0.013523,0.002678,0.000431,0.653809
3844000,0.0324,0.013523,0.002678,0.000431,0.675787
3845000,0.0324,0.013523,0.002678,0.000431,0.661684
3846000,0.0324,0.013523,0.002678,0.000431,0.667207
3847000,0.0324,0.013523,0.002678,0.000431,0.665915
3848000,0.0324,0.013523,0.002678,0.000431,0.654750
3849000,0.0324,0.013523,0.002678,0.000431,0.683191
3850000,0.0324,0.013523,0.002678,0.000431,0.646523
3851000,0.0324,0.013523,0.002678,0.000431,0.643584
3852000,0.0324,0.013523,0.002678,0.000431,0.650989
3853000,0.0324,0.013523,0.002678,0.000431,0.642762
3854000,0.0324,0.013523,0.002678,0.000431,0.648168
3855000,0.0324,0.013523,0.002678,0.000431,0.663329
3856000,0.0324,0.013523,0.002678,0.000431,0.676022
3857000,0.0324,0.013523,0.002678,0.000431,0.675787
3858000,0.0324,0.013523,0.002678,0.000431,0.658628
3859000,0.0324,0.013523,0.002678,0.000431,0.636180
3860000,0.0324,0.013523,0.002678,0.000431,0.648991
3861000,0.0324,0.013523,0.002678,0.000431,0.668735
3862000,0.0324,0.013523,0.002678,0.000431,0.673554
3863000,0.0324,0.013523,0.002678,0.000431,0.672849
3864000,0.0324,0.013523,0.002678,0.000431,0.699528
3865000,0.0324,0.013523,0.002678,0.000431,0.659333
3866000,0.0324,0.013523,0.002678,0.000431,0.641821
3867000,0.0324,0.013523,0.002678,0.000431,0.663682
3868000,0.0324,0.013523,0.002678,0.000431,0.656747
3869000,0.0324,0.013523,0.002678,0.000431,0.666972
3870000,0.0324,0.013523,0.002678,0.000431,0.629011
3871000,0.0324,0.013523,0.002678,0.000431,0.671086
3872000,0.0324,0.013523,0.002678,0.000431,0.678020
3873000,0.0324,0.013523,0.002678,0.000431,0.658040
3874000,0.0324,0.013523,0.002678,0.000431,0.665680
3875000,0.0324,0.013523,0.002678,0.000431,0.665562
3876000,0.0324,0.013523,0.002678,0.000431,0.664739
3877000,0.0324,0.013523,0.002678,0.000431,0.660978
3878000,0.0324,0.013523,0.002678,0.000431,0.627953
3879000,0.0324,0.013523,0.002678,0.000431,0.636533
3880000,0.0324,0.013523,0.002678,0.000431,0.648285
3881000,0.0324,0.013523,0.002678,0.000431,0.650989
3882000,0.0324,0.013523,0.002678,0.000431,0.678373
3883000,0.0324,0.013523,0.002678,0.000431,0.667207
3884000,0.0324,0.013523,0.002678,0.000431,0.665210
3885000,0.0324,0.013523,0.002678,0.000431,0.671439
3886000,0.0324,0.013523,0.002678,0.000431,0.644642
3887000,0.0324,0.013523,0.002678,0.000431,0.684484
3888000,0.0324,0.013523,0.002678,0.000431,0.659451
3889000,0.0324,0.013523,0.002678,0.000431,0.633359
3890000,0.0324,0.013523,0.002678,0.000431,0.667913
3891000,0.0324,0.013523,0.002678,0.000431,0.682604
3892000,0.0324,0.013523,0.002678,0.000431,0.660391
3893000,0.0324,0.013523,0.002678,0.000431,0.648521
3894000,0.0324,0.013523,0.002678,0.000431,0.674494
3895000,0.0324,0.013523,0.002678,0.000431,0.663447
3896000,0.0324,0.013523,0.002678,0.000431,0.671556
3897000,0.0324,0.013523,0.002678,0.000431,0.692476
3898000,0.0324,0.013523,0.002678,0.000431,0.666385
3899000,0.0324,0.013523,0.002678,0.000431,0.657218
3900000,0.0324,0.013523,0.002678,0.000431,0.676727
3901000,0.0324,0.013523,0.002678,0.000431,0.682839
3902000,0.0324,0.013523,0.002678,0.000431,0.670381
3903000,0.0324,0.013523,0.002678,0.000431,0.672966
3904000,0.0324,0.013523,0.002678,0.000431,0.672026
3905000,0.0324,0.013523,0.002678,0.000431,0.677667
3906000,0.0324,0.013523,0.002678,0.000431,0.657453
3907000,0.0324,0.013523,0.002678,0.000431,0.669676
3908000,0.0324,0.013523,0.002678,0.000431,0.659686
3909000,0.0324,0.013523,0.002678,0.000431,0.662976
3910000,0.0324,0.013523,0.002678,0.000431,0.668853
3911000,0.0324,0.013523,0.002678,0.000431,0.657570
3912000,0.0324,0.013523,0.002678,0.000431,0.657335
3913000,0.0324,0.013523,0.002678,0.000431,0.673319
3914000,0.0324,0.013523,0.002678,0.000431,0.656630
3915000,0.0324,0.013523,0.002678,0.000431,0.631361
3916000,0.0324,0.013523,0.002678,0.000431,0.653574
3917000,0.0324,0.013523,0.002678,0.000431,0.667560
3918000,0.0324,0.013523,0.002678,0.000431,0.704464
3919000,0.0324,0.013523,0.002678,0.000431,0.680136
3920000,0.0324,0.013523,0.002678,0.000431,0.663329
3921000,0.0324,0.013523,0.002678,0.000431,0.673201
3922000,0.0324,0.013523,0.002678,0.000431,0.655572
3923000,0.0324,0.013523,0.002678,0.000431,0.660508
3924000,0.0324,0.013523,0.002678,0.000431,0.647933
3925000,0.0324,0.013523,0.002678,0.000431,0.682486
3926000,0.0324,0.013523,0.002678,0.000431,0.641821
3927000,0.0324,0.013523,0.002678,0.000431,0.659451
3928000,0.0324,0.013523,0.002678,0.000431,0.652399
3929000,0.0324,0.013523,0.002678,0.000431,0.677785
3930000,0.0324,0.013523,0.002678,0.000431,0.662976
3931000,0.0324,0.013523,0.002678,0.000431,0.658981
3932000,0.0324,0.013523,0.002678,0.000431,0.679078
3933000,0.0324,0.013523,0.002678,0.000431,0.670381
3934000,0.0324,0.013523,0.002678,0.000431,0.659568
3935000,0.0324,0.013523,0.002678,0.000431,0.670028
3936000,0.0324,0.013523,0.002678,0.000431,0.654985
3937000,0.0324,0.013523,0.002678,0.000431,0.664622
3938000,0.0324,0.013523,0.002678,0.000431,0.675434
3939000,0.0324,0.013523,0.002678,0.000431,0.678843
3940000,0.0324,0.013523,0.002678,0.000431,0.662741
3941000,0.0324,0.013523,0.002678,0.000431,0.660861
3942000,0.0324,0.013523,0.002678,0.000431,0.674024
3943000,0.0324,0.013523,0.002678,0.000431,0.716687
3944000,0.0324,0.013523,0.002678,0.000431,0.710105
3945000,0.0324,0.013523,0.002678,0.000431,0.674142
3946000,0.0324,0.013523,0.002678,0.000431,0.676610
3947000,0.0324,0.013523,0.002678,0.000431,0.661684
3948000,0.0324,0.013523,0.002678,0.000431,0.612792
3949000,0.0324,0.013523,0.002678,0.000431,0.674847
3950000,0.0324,0.013523,0.002678,0.000431,0.656983
3951000,0.0324,0.013523,0.002678,0.000431,0.644172
3952000,0.0324,0.013523,0.002678,0.000431,0.637473
3953000,0.0324,0.013523,0.002678,0.000431,0.665210
3954000,0.0324,0.013523,0.002678,0.000431,0.701408
3955000,0.0324,0.013523,0.002678,0.000431,0.649578
3956000,0.0324,0.013523,0.002678,0.000431,0.650636
3957000,0.0324,0.013523,0.002678,0.000431,0.667795
3958000,0.0324,0.013523,0.002678,0.000431,0.640881
3959000,0.0324,0.013523,0.002678,0.000431,0.657805
3960000,0.0324,0.013523,0.002678,0.000431,0.664622
3961000,0.0324,0.013523,0.002678,0.000431,0.651224
3962000,0.0324,0.013523,0.002678,0.000431,0.654867
3963000,0.0324,0.013523,0.002678,0.000431,0.659921
3964000,0.0324,0.013523,0.002678,0.000431,0.665445
3965000,0.0324,0.013523,0.002678,0.000431,0.658863
3966000,0.0324,0.013523,0.002678,0.000431,0.650283
3967000,0.0324,0.013523,0.002678,0.000431,0.654632
3968000,0.0324,0.013523,0.002678,0.000431,0.687657
3969000,0.0324,0.013523,0.002678,0.000431,0.678373
3970000,0.0324,0.013523,0.002678,0.000431,0.675905
3971000,0.0324,0.013523,0.002678,0.000431,0.657805
3972000,0.0324,0.013523,0.002678,0.000431,0.688245
3973000,0.0324,0.013523,0.002678,0.000431,0.663682
3974000,0.0324,0.013523,0.002678,0.000431,0.665797
3975000,0.0324,0.013523,0.002678,0.000431,0.660391
3976000,0.0324,0.013523,0.002678,0.000431,0.662506
3977000,0.0324,0.013523,0.002678,0.000431,0.663564
3978000,0.0324,0.013523,0.002678,0.000431,0.666150
3979000,0.0324,0.013523,0.002678,0.000431,0.694357
3980000,0.0324,0.013523,0.002678,0.000431,0.649813
3981000,0.0324,0.013523,0.002678,0.000431,0.659803
3982000,0.0324,0.013523,0.002678,0.000431,0.644172
3983000,0.0324,0.013523,0.002678,0.000431,0.639236
3984000,0.0324,0.013523,0.002678,0.000431,0.640999
3985000,0.0324,0.013523,0.002678,0.000431,0.655572
3986000,0.0324,0.013523,0.002678,0.000431,0.633007
3987000,0.0324,0.013523,0.002678,0.000431,0.654397
3988000,0.0324,0.013523,0.002678,0.000431,0.663094
3989000,0.0324,0.013523,0.002678,0.000431,0.651341
3990000,0.0324,0.013523,0.002678,0.000431,0.666972
3991000,0.0324,0.013523,0.002678,0.000431,0.672261
3992000,0.0324,0.013523,0.002678,0.000431,0.663799
3993000,0.0324,0.013523,0.002678,0.000431,0.637238
3994000,0.0324,0.013523,0.002678,0.000431,0.648403
3995000,0.0324,0.013523,0.002678,0.000431,0.640176
3996000,0.0324,0.013523,0.002678,0.000431,0.678725
3997000,0.0324,0.013523,0.002678,0.000431,0.653104
3998000,0.0324,0.013523,0.002678,0.000431,0.653927
3999000,0.0324,0.013523,0.002678,0.000431,0.642292
