Cycle,Area(mm^2),PeakDynamic(W),SubthresholdLeakage(W),GateLeakage(W),RunTimeDynamic(W)
1000000,0.0324,0.013523,0.002678,0.000431,0.693181
1001000,0.0324,0.013523,0.002678,0.000431,0.666032
1002000,0.0324,0.013523,0.002678,0.000431,0.666620
1003000,0.0324,0.013523,0.002678,0.000431,0.696354
1004000,0.0324,0.013523,0.002678,0.000431,0.670733
1005000,0.0324,0.013523,0.002678,0.000431,0.681311
1006000,0.0324,0.013523,0.002678,0.000431,0.696472
1007000,0.0324,0.013523,0.002678,0.000431,0.704111
1008000,0.0324,0.013523,0.002678,0.000431,0.650401
1009000,0.0324,0.013523,0.002678,0.000431,0.645112
1010000,0.0324,0.013523,0.002678,0.000431,0.682839
1011000,0.0324,0.013523,0.002678,0.000431,0.718097
1012000,0.0324,0.013523,0.002678,0.000431,0.709283
1013000,0.0324,0.013523,0.002678,0.000431,0.653692
1014000,0.0324,0.013523,0.002678,0.000431,0.696942
1015000,0.0324,0.013523,0.002678,0.000431,0.711751
1016000,0.0324,0.013523,0.002678,0.000431,0.685189
1017000,0.0324,0.013523,0.002678,0.000431,0.682604
1018000,0.0324,0.013523,0.002678,0.000431,0.695767
1019000,0.0324,0.013523,0.002678,0.000431,0.692476
1020000,0.0324,0.013523,0.002678,0.000431,0.692241
1021000,0.0324,0.013523,0.002678,0.000431,0.684602
1022000,0.0324,0.013523,0.002678,0.000431,0.654397
1023000,0.0324,0.013523,0.002678,0.000431,0.672731
1024000,0.0324,0.013523,0.002678,0.000431,0.689890
1025000,0.0324,0.013523,0.002678,0.000431,0.690243
1026000,0.0324,0.013523,0.002678,0.000431,0.677315
1027000,0.0324,0.013523,0.002678,0.000431,0.696707
1028000,0.0324,0.013523,0.002678,0.000431,0.694474
1029000,0.0324,0.013523,0.002678,0.000431,0.713279
1030000,0.0324,0.013523,0.002678,0.000431,0.712338
1031000,0.0324,0.013523,0.002678,0.000431,0.687775
1032000,0.0324,0.013523,0.002678,0.000431,0.682251
1033000,0.0324,0.013523,0.002678,0.000431,0.705874
1034000,0.0324,0.013523,0.002678,0.000431,0.662859
1035000,0.0324,0.013523,0.002678,0.000431,0.659686
1036000,0.0324,0.013523,0.002678,0.000431,0.672966
1037000,0.0324,0.013523,0.002678,0.000431,0.654867
1038000,0.0324,0.013523,0.002678,0.000431,0.686482
1039000,0.0324,0.013523,0.002678,0.000431,0.645230
1040000,0.0324,0.013523,0.002678,0.000431,0.660273
1041000,0.0324,0.013523,0.002678,0.000431,0.636415
1042000,0.0324,0.013523,0.002678,0.000431,0.669088
1043000,0.0324,0.013523,0.002678,0.000431,0.676962
1044000,0.0324,0.013523,0.002678,0.000431,0.666620
1045000,0.0324,0.013523,0.002678,0.000431,0.693416
1046000,0.0324,0.013523,0.002678,0.000431,0.659921
1047000,0.0324,0.013523,0.002678,0.000431,0.651576
1048000,0.0324,0.013523,0.002678,0.000431,0.672261
1049000,0.0324,0.013523,0.002678,0.000431,0.671791
1050000,0.0324,0.013523,0.002678,0.000431,0.662624
1051000,0.0324,0.013523,0.002678,0.000431,0.672966
1052000,0.0324,0.013523,0.002678,0.000431,0.671791
1053000,0.0324,0.013523,0.002678,0.000431,0.689890
1054000,0.0324,0.013523,0.002678,0.000431,0.634182
1055000,0.0324,0.013523,0.002678,0.000431,0.662154
1056000,0.0324,0.013523,0.002678,0.000431,0.658393
1057000,0.0324,0.013523,0.002678,0.000431,0.653927
1058000,0.0324,0.013523,0.002678,0.000431,0.670146
1059000,0.0324,0.013523,0.002678,0.000431,0.658981
1060000,0.0324,0.013523,0.002678,0.000431,0.644760
1061000,0.0324,0.013523,0.002678,0.000431,0.673084
1062000,0.0324,0.013523,0.002678,0.000431,0.662271
1063000,0.0324,0.013523,0.002678,0.000431,0.657218
1064000,0.0324,0.013523,0.002678,0.000431,0.681546
1065000,0.0324,0.013523,0.002678,0.000431,0.694357
1066000,0.0324,0.013523,0.002678,0.000431,0.670733
1067000,0.0324,0.013523,0.002678,0.000431,0.655572
1068000,0.0324,0.013523,0.002678,0.000431,0.670381
1069000,0.0324,0.013523,0.002678,0.000431,0.684249
1070000,0.0324,0.013523,0.002678,0.000431,0.696825
1071000,0.0324,0.013523,0.002678,0.000431,0.672731
1072000,0.0324,0.013523,0.002678,0.000431,0.687305
1073000,0.0324,0.013523,0.002678,0.000431,0.672731
1074000,0.0324,0.013523,0.002678,0.000431,0.652987
1075000,0.0324,0.013523,0.002678,0.000431,0.665210
1076000,0.0324,0.013523,0.002678,0.000431,0.680723
1077000,0.0324,0.013523,0.002678,0.000431,0.662741
1078000,0.0324,0.013523,0.002678,0.000431,0.648285
1079000,0.0324,0.013523,0.002678,0.000431,0.650166
1080000,0.0324,0.013523,0.002678,0.000431,0.659216
1081000,0.0324,0.013523,0.002678,0.000431,0.656277
1082000,0.0324,0.013523,0.002678,0.000431,0.664387
1083000,0.0324,0.013523,0.002678,0.000431,0.685072
1084000,0.0324,0.013523,0.002678,0.000431,0.688245
1085000,0.0324,0.013523,0.002678,0.000431,0.675317
1086000,0.0324,0.013523,0.002678,0.000431,0.694592
1087000,0.0324,0.013523,0.002678,0.000431,0.691771
1088000,0.0324,0.013523,0.002678,0.000431,0.693534
1089000,0.0324,0.013523,0.002678,0.000431,0.674964
1090000,0.0324,0.013523,0.002678,0.000431,0.679195
1091000,0.0324,0.013523,0.002678,0.000431,0.669088
1092000,0.0324,0.013523,0.002678,0.000431,0.705404
1093000,0.0324,0.013523,0.002678,0.000431,0.703876
1094000,0.0324,0.013523,0.002678,0.000431,0.686835
1095000,0.0324,0.013523,0.002678,0.000431,0.659568
1096000,0.0324,0.013523,0.002678,0.000431,0.699410
1097000,0.0324,0.013523,0.002678,0.000431,0.711986
1098000,0.0324,0.013523,0.002678,0.000431,0.644054
1099000,0.0324,0.013523,0.002678,0.000431,0.666032
1100000,0.0324,0.013523,0.002678,0.000431,0.688833
1101000,0.0324,0.013523,0.002678,0.000431,0.678490
1102000,0.0324,0.013523,0.002678,0.000431,0.659098
1103000,0.0324,0.013523,0.002678,0.000431,0.668500
1104000,0.0324,0.013523,0.002678,0.000431,0.680136
1105000,0.0324,0.013523,0.002678,0.000431,0.665327
1106000,0.0324,0.013523,0.002678,0.000431,0.650989
1107000,0.0324,0.013523,0.002678,0.000431,0.679313
1108000,0.0324,0.013523,0.002678,0.000431,0.685542
1109000,0.0324,0.013523,0.002678,0.000431,0.672614
1110000,0.0324,0.013523,0.002678,0.000431,0.688128
1111000,0.0324,0.013523,0.002678,0.000431,0.685072
1112000,0.0324,0.013523,0.002678,0.000431,0.675434
1113000,0.0324,0.013523,0.002678,0.000431,0.656160
1114000,0.0324,0.013523,0.002678,0.000431,0.650871
1115000,0.0324,0.013523,0.002678,0.000431,0.654044
1116000,0.0324,0.013523,0.002678,0.000431,0.641351
1117000,0.0324,0.013523,0.002678,0.000431,0.645230
1118000,0.0324,0.013523,0.002678,0.000431,0.661919
1119000,0.0324,0.013523,0.002678,0.000431,0.684014
1120000,0.0324,0.013523,0.002678,0.000431,0.673672
1121000,0.0324,0.013523,0.002678,0.000431,0.671674
1122000,0.0324,0.013523,0.002678,0.000431,0.655455
1123000,0.0324,0.013523,0.002678,0.000431,0.691888
1124000,0.0324,0.013523,0.002678,0.000431,0.670733
1125000,0.0324,0.013523,0.002678,0.000431,0.663917
1126000,0.0324,0.013523,0.002678,0.000431,0.699175
1127000,0.0324,0.013523,0.002678,0.000431,0.673672
1128000,0.0324,0.013523,0.002678,0.000431,0.665327
1129000,0.0324,0.013523,0.002678,0.000431,0.676845
1130000,0.0324,0.013523,0.002678,0.000431,0.667678
1131000,0.0324,0.013523,0.002678,0.000431,0.680253
1132000,0.0324,0.013523,0.002678,0.000431,0.676610
1133000,0.0324,0.013523,0.002678,0.000431,0.659333
1134000,0.0324,0.013523,0.002678,0.000431,0.681311
1135000,0.0324,0.013523,0.002678,0.000431,0.660273
1136000,0.0324,0.013523,0.002678,0.000431,0.674612
1137000,0.0324,0.013523,0.002678,0.000431,0.682956
1138000,0.0324,0.013523,0.002678,0.000431,0.699058
1139000,0.0324,0.013523,0.002678,0.000431,0.678373
1140000,0.0324,0.013523,0.002678,0.000431,0.662389
1141000,0.0324,0.013523,0.002678,0.000431,0.680606
1142000,0.0324,0.013523,0.002678,0.000431,0.677550
1143000,0.0324,0.013523,0.002678,0.000431,0.673319
1144000,0.0324,0.013523,0.002678,0.000431,0.676257
1145000,0.0324,0.013523,0.002678,0.000431,0.669088
1146000,0.0324,0.013523,0.002678,0.000431,0.658981
1147000,0.0324,0.013523,0.002678,0.000431,0.644172
1148000,0.0324,0.013523,0.002678,0.000431,0.684014
1149000,0.0324,0.013523,0.002678,0.000431,0.668148
1150000,0.0324,0.013523,0.002678,0.000431,0.678490
1151000,0.0324,0.013523,0.002678,0.000431,0.709518
1152000,0.0324,0.013523,0.002678,0.000431,0.685542
1153000,0.0324,0.013523,0.002678,0.000431,0.672849
1154000,0.0324,0.013523,0.002678,0.000431,0.660273
1155000,0.0324,0.013523,0.002678,0.000431,0.675670
1156000,0.0324,0.013523,0.002678,0.000431,0.640529
1157000,0.0324,0.013523,0.002678,0.000431,0.658863
1158000,0.0324,0.013523,0.002678,0.000431,0.637943
1159000,0.0324,0.013523,0.002678,0.000431,0.731730
1160000,0.0324,0.013523,0.002678,0.000431,0.690125
1161000,0.0324,0.013523,0.002678,0.000431,0.709165
1162000,0.0324,0.013523,0.002678,0.000431,0.676727
1163000,0.0324,0.013523,0.002678,0.000431,0.647933
1164000,0.0324,0.013523,0.002678,0.000431,0.658040
1165000,0.0324,0.013523,0.002678,0.000431,0.678960
1166000,0.0324,0.013523,0.002678,0.000431,0.701996
1167000,0.0324,0.013523,0.002678,0.000431,0.697765
1168000,0.0324,0.013523,0.002678,0.000431,0.672261
1169000,0.0324,0.013523,0.002678,0.000431,0.657218
1170000,0.0324,0.013523,0.002678,0.000431,0.673907
1171000,0.0324,0.013523,0.002678,0.000431,0.693886
1172000,0.0324,0.013523,0.002678,0.000431,0.659451
1173000,0.0324,0.013523,0.002678,0.000431,0.670733
1174000,0.0324,0.013523,0.002678,0.000431,0.689890
1175000,0.0324,0.013523,0.002678,0.000431,0.707402
1176000,0.0324,0.013523,0.002678,0.000431,0.678843
1177000,0.0324,0.013523,0.002678,0.000431,0.669323
1178000,0.0324,0.013523,0.002678,0.000431,0.685307
1179000,0.0324,0.013523,0.002678,0.000431,0.671791
1180000,0.0324,0.013523,0.002678,0.000431,0.693886
1181000,0.0324,0.013523,0.002678,0.000431,0.645465
1182000,0.0324,0.013523,0.002678,0.000431,0.672026
1183000,0.0324,0.013523,0.002678,0.000431,0.690361
1184000,0.0324,0.013523,0.002678,0.000431,0.669793
1185000,0.0324,0.013523,0.002678,0.000431,0.674024
1186000,0.0324,0.013523,0.002678,0.000431,0.655220
1187000,0.0324,0.013523,0.002678,0.000431,0.699293
1188000,0.0324,0.013523,0.002678,0.000431,0.685072
1189000,0.0324,0.013523,0.002678,0.000431,0.694474
1190000,0.0324,0.013523,0.002678,0.000431,0.683074
1191000,0.0324,0.013523,0.002678,0.000431,0.671791
1192000,0.0324,0.013523,0.002678,0.000431,0.633124
1193000,0.0324,0.013523,0.002678,0.000431,0.642527
1194000,0.0324,0.013523,0.002678,0.000431,0.671556
1195000,0.0324,0.013523,0.002678,0.000431,0.681428
1196000,0.0324,0.013523,0.002678,0.000431,0.679901
1197000,0.0324,0.013523,0.002678,0.000431,0.670851
1198000,0.0324,0.013523,0.002678,0.000431,0.666502
1199000,0.0324,0.013523,0.002678,0.000431,0.687540
1200000,0.0324,0.013523,0.002678,0.000431,0.689303
1201000,0.0324,0.013523,0.002678,0.000431,0.670968
1202000,0.0324,0.013523,0.002678,0.000431,0.663564
1203000,0.0324,0.013523,0.002678,0.000431,0.627718
1204000,0.0324,0.013523,0.002678,0.000431,0.654632
1205000,0.0324,0.013523,0.002678,0.000431,0.670851
1206000,0.0324,0.013523,0.002678,0.000431,0.675434
1207000,0.0324,0.013523,0.002678,0.000431,0.670851
1208000,0.0324,0.013523,0.002678,0.000431,0.705874
1209000,0.0324,0.013523,0.002678,0.000431,0.673672
1210000,0.0324,0.013523,0.002678,0.000431,0.670968
1211000,0.0324,0.013523,0.002678,0.000431,0.679313
1212000,0.0324,0.013523,0.002678,0.000431,0.673436
1213000,0.0324,0.013523,0.002678,0.000431,0.702936
1214000,0.0324,0.013523,0.002678,0.000431,0.688010
1215000,0.0324,0.013523,0.002678,0.000431,0.672496
1216000,0.0324,0.013523,0.002678,0.000431,0.656160
1217000,0.0324,0.013523,0.002678,0.000431,0.688950
1218000,0.0324,0.013523,0.002678,0.000431,0.679783
1219000,0.0324,0.013523,0.002678,0.000431,0.663447
1220000,0.0324,0.013523,0.002678,0.000431,0.685777
1221000,0.0324,0.013523,0.002678,0.000431,0.667678
1222000,0.0324,0.013523,0.002678,0.000431,0.678960
1223000,0.0324,0.013523,0.002678,0.000431,0.678725
1224000,0.0324,0.013523,0.002678,0.000431,0.677432
1225000,0.0324,0.013523,0.002678,0.000431,0.647933
1226000,0.0324,0.013523,0.002678,0.000431,0.678020
1227000,0.0324,0.013523,0.002678,0.000431,0.646640
1228000,0.0324,0.013523,0.002678,0.000431,0.646052
1229000,0.0324,0.013523,0.002678,0.000431,0.650166
1230000,0.0324,0.013523,0.002678,0.000431,0.651576
1231000,0.0324,0.013523,0.002678,0.000431,0.694239
1232000,0.0324,0.013523,0.002678,0.000431,0.676845
1233000,0.0324,0.013523,0.002678,0.000431,0.666385
1234000,0.0324,0.013523,0.002678,0.000431,0.670851
1235000,0.0324,0.013523,0.002678,0.000431,0.677667
1236000,0.0324,0.013523,0.002678,0.000431,0.719860
1237000,0.0324,0.013523,0.002678,0.000431,0.668853
1238000,0.0324,0.013523,0.002678,0.000431,0.626660
1239000,0.0324,0.013523,0.002678,0.000431,0.677315
1240000,0.0324,0.013523,0.002678,0.000431,0.696472
1241000,0.0324,0.013523,0.002678,0.000431,0.722211
1242000,0.0324,0.013523,0.002678,0.000431,0.660861
1243000,0.0324,0.013523,0.002678,0.000431,0.660273
1244000,0.0324,0.013523,0.002678,0.000431,0.686952
1245000,0.0324,0.013523,0.002678,0.000431,0.695767
1246000,0.0324,0.013523,0.002678,0.000431,0.709165
1247000,0.0324,0.013523,0.002678,0.000431,0.698705
1248000,0.0324,0.013523,0.002678,0.000431,0.671909
1249000,0.0324,0.013523,0.002678,0.000431,0.677080
1250000,0.0324,0.013523,0.002678,0.000431,0.664387
1251000,0.0324,0.013523,0.002678,0.000431,0.686130
1252000,0.0324,0.013523,0.002678,0.000431,0.687305
1253000,0.0324,0.013523,0.002678,0.000431,0.676727
1254000,0.0324,0.013523,0.002678,0.000431,0.695767
1255000,0.0324,0.013523,0.002678,0.000431,0.668265
1256000,0.0324,0.013523,0.002678,0.000431,0.664857
1257000,0.0324,0.013523,0.002678,0.000431,0.658863
1258000,0.0324,0.013523,0.002678,0.000431,0.691418
1259000,0.0324,0.013523,0.002678,0.000431,0.716687
1260000,0.0324,0.013523,0.002678,0.000431,0.700468
1261000,0.0324,0.013523,0.002678,0.000431,0.673554
1262000,0.0324,0.013523,0.002678,0.000431,0.685424
1263000,0.0324,0.013523,0.002678,0.000431,0.689890
1264000,0.0324,0.013523,0.002678,0.000431,0.687892
1265000,0.0324,0.013523,0.002678,0.000431,0.666737
1266000,0.0324,0.013523,0.002678,0.000431,0.671086
1267000,0.0324,0.013523,0.002678,0.000431,0.688833
1268000,0.0324,0.013523,0.002678,0.000431,0.662506
1269000,0.0324,0.013523,0.002678,0.000431,0.644172
1270000,0.0324,0.013523,0.002678,0.000431,0.658981
1271000,0.0324,0.013523,0.002678,0.000431,0.659803
1272000,0.0324,0.013523,0.002678,0.000431,0.664269
1273000,0.0324,0.013523,0.002678,0.000431,0.659216
1274000,0.0324,0.013523,0.002678,0.000431,0.678490
1275000,0.0324,0.013523,0.002678,0.000431,0.670616
1276000,0.0324,0.013523,0.002678,0.000431,0.669676
1277000,0.0324,0.013523,0.002678,0.000431,0.668383
1278000,0.0324,0.013523,0.002678,0.000431,0.652634
1279000,0.0324,0.013523,0.002678,0.000431,0.644995
1280000,0.0324,0.013523,0.002678,0.000431,0.668970
1281000,0.0324,0.013523,0.002678,0.000431,0.666737
1282000,0.0324,0.013523,0.002678,0.000431,0.674847
1283000,0.0324,0.013523,0.002678,0.000431,0.666502
1284000,0.0324,0.013523,0.002678,0.000431,0.663682
1285000,0.0324,0.013523,0.002678,0.000431,0.686952
1286000,0.0324,0.013523,0.002678,0.000431,0.681311
1287000,0.0324,0.013523,0.002678,0.000431,0.699058
1288000,0.0324,0.013523,0.002678,0.000431,0.688950
1289000,0.0324,0.013523,0.002678,0.000431,0.689068
1290000,0.0324,0.013523,0.002678,0.000431,0.678255
1291000,0.0324,0.013523,0.002678,0.000431,0.690361
1292000,0.0324,0.013523,0.002678,0.000431,0.669793
1293000,0.0324,0.013523,0.002678,0.000431,0.672379
1294000,0.0324,0.013523,0.002678,0.000431,0.671321
1295000,0.0324,0.013523,0.002678,0.000431,0.672966
1296000,0.0324,0.013523,0.002678,0.000431,0.660391
1297000,0.0324,0.013523,0.002678,0.000431,0.681428
1298000,0.0324,0.013523,0.002678,0.000431,0.665327
1299000,0.0324,0.013523,0.002678,0.000431,0.672614
1300000,0.0324,0.013523,0.002678,0.000431,0.659568
1301000,0.0324,0.013523,0.002678,0.000431,0.637473
1302000,0.0324,0.013523,0.002678,0.000431,0.671321
1303000,0.0324,0.013523,0.002678,0.000431,0.708342
1304000,0.0324,0.013523,0.002678,0.000431,0.691888
1305000,0.0324,0.013523,0.002678,0.000431,0.654044
1306000,0.0324,0.013523,0.002678,0.000431,0.658628
1307000,0.0324,0.013523,0.002678,0.000431,0.653927
1308000,0.0324,0.013523,0.002678,0.000431,0.660626
1309000,0.0324,0.013523,0.002678,0.000431,0.685542
1310000,0.0324,0.013523,0.002678,0.000431,0.678373
1311000,0.0324,0.013523,0.002678,0.000431,0.640529
1312000,0.0324,0.013523,0.002678,0.000431,0.634535
1313000,0.0324,0.013523,0.002678,0.000431,0.658040
1314000,0.0324,0.013523,0.002678,0.000431,0.653809
1315000,0.0324,0.013523,0.002678,0.000431,0.648403
1316000,0.0324,0.013523,0.002678,0.000431,0.647933
1317000,0.0324,0.013523,0.002678,0.000431,0.679901
1318000,0.0324,0.013523,0.002678,0.000431,0.666855
1319000,0.0324,0.013523,0.002678,0.000431,0.690243
1320000,0.0324,0.013523,0.002678,0.000431,0.666737
1321000,0.0324,0.013523,0.002678,0.000431,0.675434
1322000,0.0324,0.013523,0.002678,0.000431,0.664504
1323000,0.0324,0.013523,0.002678,0.000431,0.658863
1324000,0.0324,0.013523,0.002678,0.000431,0.639706
1325000,0.0324,0.013523,0.002678,0.000431,0.624545
1326000,0.0324,0.013523,0.002678,0.000431,0.629363
1327000,0.0324,0.013523,0.002678,0.000431,0.653457
1328000,0.0324,0.013523,0.002678,0.000431,0.645582
1329000,0.0324,0.013523,0.002678,0.000431,0.693416
1330000,0.0324,0.013523,0.002678,0.000431,0.655455
1331000,0.0324,0.013523,0.002678,0.000431,0.654044
1332000,0.0324,0.013523,0.002678,0.000431,0.640529
1333000,0.0324,0.013523,0.002678,0.000431,0.653104
1334000,0.0324,0.013523,0.002678,0.000431,0.662036
1335000,0.0324,0.013523,0.002678,0.000431,0.650871
1336000,0.0324,0.013523,0.002678,0.000431,0.664622
1337000,0.0324,0.013523,0.002678,0.000431,0.637355
1338000,0.0324,0.013523,0.002678,0.000431,0.660978
1339000,0.0324,0.013523,0.002678,0.000431,0.651929
1340000,0.0324,0.013523,0.002678,0.000431,0.653927
1341000,0.0324,0.013523,0.002678,0.000431,0.653339
1342000,0.0324,0.013523,0.002678,0.000431,0.653222
1343000,0.0324,0.013523,0.002678,0.000431,0.633124
1344000,0.0324,0.013523,0.002678,0.000431,0.647463
1345000,0.0324,0.013523,0.002678,0.000431,0.654397
1346000,0.0324,0.013523,0.002678,0.000431,0.633007
1347000,0.0324,0.013523,0.002678,0.000431,0.653457
1348000,0.0324,0.013523,0.002678,0.000431,0.679430
1349000,0.0324,0.013523,0.002678,0.000431,0.658745
1350000,0.0324,0.013523,0.002678,0.000431,0.670616
1351000,0.0324,0.013523,0.002678,0.000431,0.668970
1352000,0.0324,0.013523,0.002678,0.000431,0.664034
1353000,0.0324,0.013523,0.002678,0.000431,0.665327
1354000,0.0324,0.013523,0.002678,0.000431,0.668030
1355000,0.0324,0.013523,0.002678,0.000431,0.668618
1356000,0.0324,0.013523,0.002678,0.000431,0.674729
1357000,0.0324,0.013523,0.002678,0.000431,0.652752
1358000,0.0324,0.013523,0.002678,0.000431,0.638648
1359000,0.0324,0.013523,0.002678,0.000431,0.653927
1360000,0.0324,0.013523,0.002678,0.000431,0.660626
1361000,0.0324,0.013523,0.002678,0.000431,0.634300
1362000,0.0324,0.013523,0.002678,0.000431,0.648521
1363000,0.0324,0.013523,0.002678,0.000431,0.629246
1364000,0.0324,0.013523,0.002678,0.000431,0.665445
1365000,0.0324,0.013523,0.002678,0.000431,0.653104
1366000,0.0324,0.013523,0.002678,0.000431,0.632889
1367000,0.0324,0.013523,0.002678,0.000431,0.650166
1368000,0.0324,0.013523,0.002678,0.000431,0.655925
1369000,0.0324,0.013523,0.002678,0.000431,0.645230
1370000,0.0324,0.013523,0.002678,0.000431,0.671909
1371000,0.0324,0.013523,0.002678,0.000431,0.641821
1372000,0.0324,0.013523,0.002678,0.000431,0.651929
1373000,0.0324,0.013523,0.002678,0.000431,0.664857
1374000,0.0324,0.013523,0.002678,0.000431,0.629246
1375000,0.0324,0.013523,0.002678,0.000431,0.669088
1376000,0.0324,0.013523,0.002678,0.000431,0.675905
1377000,0.0324,0.013523,0.002678,0.000431,0.642409
1378000,0.0324,0.013523,0.002678,0.000431,0.649696
1379000,0.0324,0.013523,0.002678,0.000431,0.665915
1380000,0.0324,0.013523,0.002678,0.000431,0.675552
1381000,0.0324,0.013523,0.002678,0.000431,0.685542
1382000,0.0324,0.013523,0.002678,0.000431,0.669793
1383000,0.0324,0.013523,0.002678,0.000431,0.680371
1384000,0.0324,0.013523,0.002678,0.000431,0.674142
1385000,0.0324,0.013523,0.002678,0.000431,0.695532
1386000,0.0324,0.013523,0.002678,0.000431,0.665915
1387000,0.0324,0.013523,0.002678,0.000431,0.659333
1388000,0.0324,0.013523,0.002678,0.000431,0.664387
1389000,0.0324,0.013523,0.002678,0.000431,0.629951
1390000,0.0324,0.013523,0.002678,0.000431,0.646758
1391000,0.0324,0.013523,0.002678,0.000431,0.674964
1392000,0.0324,0.013523,0.002678,0.000431,0.642409
1393000,0.0324,0.013523,0.002678,0.000431,0.675552
1394000,0.0324,0.013523,0.002678,0.000431,0.687070
1395000,0.0324,0.013523,0.002678,0.000431,0.647580
1396000,0.0324,0.013523,0.002678,0.000431,0.658863
1397000,0.0324,0.013523,0.002678,0.000431,0.664974
1398000,0.0324,0.013523,0.002678,0.000431,0.670381
1399000,0.0324,0.013523,0.002678,0.000431,0.654750
1400000,0.0324,0.013523,0.002678,0.000431,0.694944
1401000,0.0324,0.013523,0.002678,0.000431,0.653339
1402000,0.0324,0.013523,0.002678,0.000431,0.660743
1403000,0.0324,0.013523,0.002678,0.000431,0.660273
1404000,0.0324,0.013523,0.002678,0.000431,0.666737
1405000,0.0324,0.013523,0.002678,0.000431,0.662741
1406000,0.0324,0.013523,0.002678,0.000431,0.654632
1407000,0.0324,0.013523,0.002678,0.000431,0.635710
1408000,0.0324,0.013523,0.002678,0.000431,0.640881
1409000,0.0324,0.013523,0.002678,0.000431,0.660038
1410000,0.0324,0.013523,0.002678,0.000431,0.664269
1411000,0.0324,0.013523,0.002678,0.000431,0.667325
1412000,0.0324,0.013523,0.002678,0.000431,0.668265
1413000,0.0324,0.013523,0.002678,0.000431,0.619609
1414000,0.0324,0.013523,0.002678,0.000431,0.650871
1415000,0.0324,0.013523,0.002678,0.000431,0.660743
1416000,0.0324,0.013523,0.002678,0.000431,0.654985
1417000,0.0324,0.013523,0.002678,0.000431,0.640058
1418000,0.0324,0.013523,0.002678,0.000431,0.668383
1419000,0.0324,0.013523,0.002678,0.000431,0.657688
1420000,0.0324,0.013523,0.002678,0.000431,0.668148
1421000,0.0324,0.013523,0.002678,0.000431,0.640764
1422000,0.0324,0.013523,0.002678,0.000431,0.658275
1423000,0.0324,0.013523,0.002678,0.000431,0.656630
1424000,0.0324,0.013523,0.002678,0.000431,0.663447
1425000,0.0324,0.013523,0.002678,0.000431,0.649578
1426000,0.0324,0.013523,0.002678,0.000431,0.648403
1427000,0.0324,0.013523,0.002678,0.000431,0.686482
1428000,0.0324,0.013523,0.002678,0.000431,0.658863
1429000,0.0324,0.013523,0.002678,0.000431,0.672966
1430000,0.0324,0.013523,0.002678,0.000431,0.662859
1431000,0.0324,0.013523,0.002678,0.000431,0.643232
1432000,0.0324,0.013523,0.002678,0.000431,0.674729
1433000,0.0324,0.013523,0.002678,0.000431,0.664857
1434000,0.0324,0.013523,0.002678,0.000431,0.672849
1435000,0.0324,0.013523,0.002678,0.000431,0.683309
1436000,0.0324,0.013523,0.002678,0.000431,0.654750
1437000,0.0324,0.013523,0.002678,0.000431,0.659803
1438000,0.0324,0.013523,0.002678,0.000431,0.630891
1439000,0.0324,0.013523,0.002678,0.000431,0.638413
1440000,0.0324,0.013523,0.002678,0.000431,0.654044
1441000,0.0324,0.013523,0.002678,0.000431,0.671674
1442000,0.0324,0.013523,0.002678,0.000431,0.642174
1443000,0.0324,0.013523,0.002678,0.000431,0.684367
1444000,0.0324,0.013523,0.002678,0.000431,0.681076
1445000,0.0324,0.013523,0.002678,0.000431,0.687775
1446000,0.0324,0.013523,0.002678,0.000431,0.669793
1447000,0.0324,0.013523,0.002678,0.000431,0.649108
1448000,0.0324,0.013523,0.002678,0.000431,0.671086
1449000,0.0324,0.013523,0.002678,0.000431,0.664504
1450000,0.0324,0.013523,0.002678,0.000431,0.664269
1451000,0.0324,0.013523,0.002678,0.000431,0.653574
1452000,0.0324,0.013523,0.002678,0.000431,0.684249
1453000,0.0324,0.013523,0.002678,0.000431,0.644172
1454000,0.0324,0.013523,0.002678,0.000431,0.670733
1455000,0.0324,0.013523,0.002678,0.000431,0.650989
1456000,0.0324,0.013523,0.002678,0.000431,0.650636
1457000,0.0324,0.013523,0.002678,0.000431,0.674142
1458000,0.0324,0.013523,0.002678,0.000431,0.653222
1459000,0.0324,0.013523,0.002678,0.000431,0.660508
1460000,0.0324,0.013523,0.002678,0.000431,0.678490
1461000,0.0324,0.013523,0.002678,0.000431,0.674729
1462000,0.0324,0.013523,0.002678,0.000431,0.673201
1463000,0.0324,0.013523,0.002678,0.000431,0.653692
1464000,0.0324,0.013523,0.002678,0.000431,0.678960
1465000,0.0324,0.013523,0.002678,0.000431,0.677315
1466000,0.0324,0.013523,0.002678,0.000431,0.675434
1467000,0.0324,0.013523,0.002678,0.000431,0.660038
1468000,0.0324,0.013523,0.002678,0.000431,0.678020
1469000,0.0324,0.013523,0.002678,0.000431,0.664622
1470000,0.0324,0.013523,0.002678,0.000431,0.665680
1471000,0.0324,0.013523,0.002678,0.000431,0.653222
1472000,0.0324,0.013523,0.002678,0.000431,0.643114
1473000,0.0324,0.013523,0.002678,0.000431,0.658745
1474000,0.0324,0.013523,0.002678,0.000431,0.660743
1475000,0.0324,0.013523,0.002678,0.000431,0.636768
1476000,0.0324,0.013523,0.002678,0.000431,0.670263
1477000,0.0324,0.013523,0.002678,0.000431,0.685424
1478000,0.0324,0.013523,0.002678,0.000431,0.680136
1479000,0.0324,0.013523,0.002678,0.000431,0.654162
1480000,0.0324,0.013523,0.002678,0.000431,0.688598
1481000,0.0324,0.013523,0.002678,0.000431,0.691183
1482000,0.0324,0.013523,0.002678,0.000431,0.678490
1483000,0.0324,0.013523,0.002678,0.000431,0.646875
1484000,0.0324,0.013523,0.002678,0.000431,0.664387
1485000,0.0324,0.013523,0.002678,0.000431,0.679430
1486000,0.0324,0.013523,0.002678,0.000431,0.629834
1487000,0.0324,0.013523,0.002678,0.000431,0.662154
1488000,0.0324,0.013523,0.002678,0.000431,0.653222
1489000,0.0324,0.013523,0.002678,0.000431,0.657570
1490000,0.0324,0.013523,0.002678,0.000431,0.665915
1491000,0.0324,0.013523,0.002678,0.000431,0.658863
1492000,0.0324,0.013523,0.002678,0.000431,0.675317
1493000,0.0324,0.013523,0.002678,0.000431,0.653574
1494000,0.0324,0.013523,0.002678,0.000431,0.674142
1495000,0.0324,0.013523,0.002678,0.000431,0.667913
1496000,0.0324,0.013523,0.002678,0.000431,0.644525
1497000,0.0324,0.013523,0.002678,0.000431,0.667325
1498000,0.0324,0.013523,0.002678,0.000431,0.660743
1499000,0.0324,0.013523,0.002678,0.000431,0.652752
1500000,0.0324,0.013523,0.002678,0.000431,0.660391
1501000,0.0324,0.013523,0.002678,0.000431,0.648168
1502000,0.0324,0.013523,0.002678,0.000431,0.667560
1503000,0.0324,0.013523,0.002678,0.000431,0.666855
1504000,0.0324,0.013523,0.002678,0.000431,0.677903
1505000,0.0324,0.013523,0.002678,0.000431,0.632302
1506000,0.0324,0.013523,0.002678,0.000431,0.676962
1507000,0.0324,0.013523,0.002678,0.000431,0.661096
1508000,0.0324,0.013523,0.002678,0.000431,0.652046
1509000,0.0324,0.013523,0.002678,0.000431,0.652752
1510000,0.0324,0.013523,0.002678,0.000431,0.654162
1511000,0.0324,0.013523,0.002678,0.000431,0.661801
1512000,0.0324,0.013523,0.002678,0.000431,0.680018
1513000,0.0324,0.013523,0.002678,0.000431,0.650518
1514000,0.0324,0.013523,0.002678,0.000431,0.654750
1515000,0.0324,0.013523,0.002678,0.000431,0.650636
1516000,0.0324,0.013523,0.002678,0.000431,0.644289
1517000,0.0324,0.013523,0.002678,0.000431,0.651576
1518000,0.0324,0.013523,0.002678,0.000431,0.663682
1519000,0.0324,0.013523,0.002678,0.000431,0.652399
1520000,0.0324,0.013523,0.002678,0.000431,0.665915
1521000,0.0324,0.013523,0.002678,0.000431,0.666032
1522000,0.0324,0.013523,0.002678,0.000431,0.634535
1523000,0.0324,0.013523,0.002678,0.000431,0.652281
1524000,0.0324,0.013523,0.002678,0.000431,0.643702
1525000,0.0324,0.013523,0.002678,0.000431,0.672261
1526000,0.0324,0.013523,0.002678,0.000431,0.628658
1527000,0.0324,0.013523,0.002678,0.000431,0.624662
1528000,0.0324,0.013523,0.002678,0.000431,0.635475
1529000,0.0324,0.013523,0.002678,0.000431,0.648050
1530000,0.0324,0.013523,0.002678,0.000431,0.650048
1531000,0.0324,0.013523,0.002678,0.000431,0.656865
1532000,0.0324,0.013523,0.002678,0.000431,0.660391
1533000,0.0324,0.013523,0.002678,0.000431,0.634770
1534000,0.0324,0.013523,0.002678,0.000431,0.650283
1535000,0.0324,0.013523,0.002678,0.000431,0.651341
1536000,0.0324,0.013523,0.002678,0.000431,0.660391
1537000,0.0324,0.013523,0.002678,0.000431,0.650636
1538000,0.0324,0.013523,0.002678,0.000431,0.647698
1539000,0.0324,0.013523,0.002678,0.000431,0.644172
1540000,0.0324,0.013523,0.002678,0.000431,0.639588
1541000,0.0324,0.013523,0.002678,0.000431,0.659568
1542000,0.0324,0.013523,0.002678,0.000431,0.660156
1543000,0.0324,0.013523,0.002678,0.000431,0.649343
1544000,0.0324,0.013523,0.002678,0.000431,0.658510
1545000,0.0324,0.013523,0.002678,0.000431,0.658393
1546000,0.0324,0.013523,0.002678,0.000431,0.654632
1547000,0.0324,0.013523,0.002678,0.000431,0.652869
1548000,0.0324,0.013523,0.002678,0.000431,0.672379
1549000,0.0324,0.013523,0.002678,0.000431,0.653574
1550000,0.0324,0.013523,0.002678,0.000431,0.673201
1551000,0.0324,0.013523,0.002678,0.000431,0.657453
1552000,0.0324,0.013523,0.002678,0.000431,0.664739
1553000,0.0324,0.013523,0.002678,0.000431,0.679078
1554000,0.0324,0.013523,0.002678,0.000431,0.684249
1555000,0.0324,0.013523,0.002678,0.000431,0.648521
1556000,0.0324,0.013523,0.002678,0.000431,0.656395
1557000,0.0324,0.013523,0.002678,0.000431,0.645817
1558000,0.0324,0.013523,0.002678,0.000431,0.644877
1559000,0.0324,0.013523,0.002678,0.000431,0.658275
1560000,0.0324,0.013523,0.002678,0.000431,0.677080
1561000,0.0324,0.013523,0.002678,0.000431,0.662389
1562000,0.0324,0.013523,0.002678,0.000431,0.647345
1563000,0.0324,0.013523,0.002678,0.000431,0.650283
1564000,0.0324,0.013523,0.002678,0.000431,0.667090
1565000,0.0324,0.013523,0.002678,0.000431,0.676375
1566000,0.0324,0.013523,0.002678,0.000431,0.674142
1567000,0.0324,0.013523,0.002678,0.000431,0.656630
1568000,0.0324,0.013523,0.002678,0.000431,0.678725
1569000,0.0324,0.013523,0.002678,0.000431,0.692829
1570000,0.0324,0.013523,0.002678,0.000431,0.636180
1571000,0.0324,0.013523,0.002678,0.000431,0.675199
1572000,0.0324,0.013523,0.002678,0.000431,0.666972
1573000,0.0324,0.013523,0.002678,0.000431,0.673907
1574000,0.0324,0.013523,0.002678,0.000431,0.636533
1575000,0.0324,0.013523,0.002678,0.000431,0.642879
1576000,0.0324,0.013523,0.002678,0.000431,0.628541
1577000,0.0324,0.013523,0.002678,0.000431,0.620901
1578000,0.0324,0.013523,0.002678,0.000431,0.649578
1579000,0.0324,0.013523,0.002678,0.000431,0.660038
1580000,0.0324,0.013523,0.002678,0.000431,0.664739
1581000,0.0324,0.013523,0.002678,0.000431,0.688128
1582000,0.0324,0.013523,0.002678,0.000431,0.669793
1583000,0.0324,0.013523,0.002678,0.000431,0.664857
1584000,0.0324,0.013523,0.002678,0.000431,0.664974
1585000,0.0324,0.013523,0.002678,0.000431,0.660743
1586000,0.0324,0.013523,0.002678,0.000431,0.670263
1587000,0.0324,0.013523,0.002678,0.000431,0.643937
1588000,0.0324,0.013523,0.002678,0.000431,0.676022
1589000,0.0324,0.013523,0.002678,0.000431,0.671909
1590000,0.0324,0.013523,0.002678,0.000431,0.696119
1591000,0.0324,0.013523,0.002678,0.000431,0.641821
1592000,0.0324,0.013523,0.002678,0.000431,0.649813
1593000,0.0324,0.013523,0.002678,0.000431,0.652634
1594000,0.0324,0.013523,0.002678,0.000431,0.660861
1595000,0.0324,0.013523,0.002678,0.000431,0.647463
1596000,0.0324,0.013523,0.002678,0.000431,0.611264
1597000,0.0324,0.013523,0.002678,0.000431,0.630069
1598000,0.0324,0.013523,0.002678,0.000431,0.587523
1599000,0.0324,0.013523,0.002678,0.000431,0.661566
1600000,0.0324,0.013523,0.002678,0.000431,0.739017
1601000,0.0324,0.013523,0.002678,0.000431,0.812002
1602000,0.0324,0.013523,0.002678,0.000431,0.762993
1603000,0.0324,0.013523,0.002678,0.000431,0.728205
1604000,0.0324,0.013523,0.002678,0.000431,0.717510
1605000,0.0324,0.013523,0.002678,0.000431,0.663447
1606000,0.0324,0.013523,0.002678,0.000431,0.730673
1607000,0.0324,0.013523,0.002678,0.000431,0.687540
1608000,0.0324,0.013523,0.002678,0.000431,0.656630
1609000,0.0324,0.013523,0.002678,0.000431,0.723739
1610000,0.0324,0.013523,0.002678,0.000431,0.733141
1611000,0.0324,0.013523,0.002678,0.000431,0.686835
1612000,0.0324,0.013523,0.002678,0.000431,0.646758
1613000,0.0324,0.013523,0.002678,0.000431,0.693064
1614000,0.0324,0.013523,0.002678,0.000431,0.743131
1615000,0.0324,0.013523,0.002678,0.000431,0.707285
1616000,0.0324,0.013523,0.002678,0.000431,0.619256
1617000,0.0324,0.013523,0.002678,0.000431,0.651341
1618000,0.0324,0.013523,0.002678,0.000431,0.647933
1619000,0.0324,0.013523,0.002678,0.000431,0.640176
1620000,0.0324,0.013523,0.002678,0.000431,0.657453
1621000,0.0324,0.013523,0.002678,0.000431,0.639941
1622000,0.0324,0.013523,0.002678,0.000431,0.659333
1623000,0.0324,0.013523,0.002678,0.000431,0.706227
1624000,0.0324,0.013523,0.002678,0.000431,0.669793
1625000,0.0324,0.013523,0.002678,0.000431,0.669088
1626000,0.0324,0.013523,0.002678,0.000431,0.681076
1627000,0.0324,0.013523,0.002678,0.000431,0.741720
1628000,0.0324,0.013523,0.002678,0.000431,0.703171
1629000,0.0324,0.013523,0.002678,0.000431,0.680958
1630000,0.0324,0.013523,0.002678,0.000431,0.711516
1631000,0.0324,0.013523,0.002678,0.000431,0.672731
1632000,0.0324,0.013523,0.002678,0.000431,0.670616
1633000,0.0324,0.013523,0.002678,0.000431,0.684249
1634000,0.0324,0.013523,0.002678,0.000431,0.652516
1635000,0.0324,0.013523,0.002678,0.000431,0.673084
1636000,0.0324,0.013523,0.002678,0.000431,0.682251
1637000,0.0324,0.013523,0.002678,0.000431,0.696119
1638000,0.0324,0.013523,0.002678,0.000431,0.742896
1639000,0.0324,0.013523,0.002678,0.000431,0.708342
1640000,0.0324,0.013523,0.002678,0.000431,0.709988
1641000,0.0324,0.013523,0.002678,0.000431,0.666385
1642000,0.0324,0.013523,0.002678,0.000431,0.724209
1643000,0.0324,0.013523,0.002678,0.000431,0.694121
1644000,0.0324,0.013523,0.002678,0.000431,0.612792
1645000,0.0324,0.013523,0.002678,0.000431,0.645112
1646000,0.0324,0.013523,0.002678,0.000431,0.681781
1647000,0.0324,0.013523,0.002678,0.000431,0.706814
1648000,0.0324,0.013523,0.002678,0.000431,0.728440
1649000,0.0324,0.013523,0.002678,0.000431,0.698000
1650000,0.0324,0.013523,0.002678,0.000431,0.747714
1651000,0.0324,0.013523,0.002678,0.000431,0.700115
1652000,0.0324,0.013523,0.002678,0.000431,0.666150
1653000,0.0324,0.013523,0.002678,0.000431,0.690713
1654000,0.0324,0.013523,0.002678,0.000431,0.760407
1655000,0.0324,0.013523,0.002678,0.000431,0.754531
1656000,0.0324,0.013523,0.002678,0.000431,0.730320
1657000,0.0324,0.013523,0.002678,0.000431,0.752650
1658000,0.0324,0.013523,0.002678,0.000431,0.697765
1659000,0.0324,0.013523,0.002678,0.000431,0.709870
1660000,0.0324,0.013523,0.002678,0.000431,0.703641
1661000,0.0324,0.013523,0.002678,0.000431,0.746186
1662000,0.0324,0.013523,0.002678,0.000431,0.635710
1663000,0.0324,0.013523,0.002678,0.000431,0.669793
1664000,0.0324,0.013523,0.002678,0.000431,0.695062
1665000,0.0324,0.013523,0.002678,0.000431,0.687775
1666000,0.0324,0.013523,0.002678,0.000431,0.678960
1667000,0.0324,0.013523,0.002678,0.000431,0.687540
1668000,0.0324,0.013523,0.002678,0.000431,0.724914
1669000,0.0324,0.013523,0.002678,0.000431,0.756411
1670000,0.0324,0.013523,0.002678,0.000431,0.742190
1671000,0.0324,0.013523,0.002678,0.000431,0.725384
1672000,0.0324,0.013523,0.002678,0.000431,0.739017
1673000,0.0324,0.013523,0.002678,0.000431,0.689303
1674000,0.0324,0.013523,0.002678,0.000431,0.681546
1675000,0.0324,0.013523,0.002678,0.000431,0.604212
1676000,0.0324,0.013523,0.002678,0.000431,0.701291
1677000,0.0324,0.013523,0.002678,0.000431,0.723503
1678000,0.0324,0.013523,0.002678,0.000431,0.729497
1679000,0.0324,0.013523,0.002678,0.000431,0.712221
1680000,0.0324,0.013523,0.002678,0.000431,0.698588
1681000,0.0324,0.013523,0.002678,0.000431,0.669676
1682000,0.0324,0.013523,0.002678,0.000431,0.670381
1683000,0.0324,0.013523,0.002678,0.000431,0.698117
1684000,0.0324,0.013523,0.002678,0.000431,0.721858
1685000,0.0324,0.013523,0.002678,0.000431,0.702348
1686000,0.0324,0.013523,0.002678,0.000431,0.716334
1687000,0.0324,0.013523,0.002678,0.000431,0.725619
1688000,0.0324,0.013523,0.002678,0.000431,0.708107
1689000,0.0324,0.013523,0.002678,0.000431,0.660861
1690000,0.0324,0.013523,0.002678,0.000431,0.641469
1691000,0.0324,0.013523,0.002678,0.000431,0.659686
1692000,0.0324,0.013523,0.002678,0.000431,0.628306
1693000,0.0324,0.013523,0.002678,0.000431,0.649696
1694000,0.0324,0.013523,0.002678,0.000431,0.638648
1695000,0.0324,0.013523,0.002678,0.000431,0.666150
1696000,0.0324,0.013523,0.002678,0.000431,0.641116
1697000,0.0324,0.013523,0.002678,0.000431,0.633947
1698000,0.0324,0.013523,0.002678,0.000431,0.659333
1699000,0.0324,0.013523,0.002678,0.000431,0.635592
1700000,0.0324,0.013523,0.002678,0.000431,0.652046
1701000,0.0324,0.013523,0.002678,0.000431,0.620314
1702000,0.0324,0.013523,0.002678,0.000431,0.642879
1703000,0.0324,0.013523,0.002678,0.000431,0.638766
1704000,0.0324,0.013523,0.002678,0.000431,0.671203
1705000,0.0324,0.013523,0.002678,0.000431,0.620666
1706000,0.0324,0.013523,0.002678,0.000431,0.673201
1707000,0.0324,0.013523,0.002678,0.000431,0.697412
1708000,0.0324,0.013523,0.002678,0.000431,0.690125
1709000,0.0324,0.013523,0.002678,0.000431,0.690478
1710000,0.0324,0.013523,0.002678,0.000431,0.677903
1711000,0.0324,0.013523,0.002678,0.000431,0.709518
1712000,0.0324,0.013523,0.002678,0.000431,0.700585
1713000,0.0324,0.013523,0.002678,0.000431,0.716099
1714000,0.0324,0.013523,0.002678,0.000431,0.709400
1715000,0.0324,0.013523,0.002678,0.000431,0.709753
1716000,0.0324,0.013523,0.002678,0.000431,0.719508
1717000,0.0324,0.013523,0.002678,0.000431,0.756764
1718000,0.0324,0.013523,0.002678,0.000431,0.682721
1719000,0.0324,0.013523,0.002678,0.000431,0.678843
1720000,0.0324,0.013523,0.002678,0.000431,0.666737
1721000,0.0324,0.013523,0.002678,0.000431,0.713396
1722000,0.0324,0.013523,0.002678,0.000431,0.688363
1723000,0.0324,0.013523,0.002678,0.000431,0.639706
1724000,0.0324,0.013523,0.002678,0.000431,0.672496
1725000,0.0324,0.013523,0.002678,0.000431,0.722916
1726000,0.0324,0.013523,0.002678,0.000431,0.695649
1727000,0.0324,0.013523,0.002678,0.000431,0.648285
1728000,0.0324,0.013523,0.002678,0.000431,0.677197
1729000,0.0324,0.013523,0.002678,0.000431,0.660861
1730000,0.0324,0.013523,0.002678,0.000431,0.656747
1731000,0.0324,0.013523,0.002678,0.000431,0.692594
1732000,0.0324,0.013523,0.002678,0.000431,0.719508
1733000,0.0324,0.013523,0.002678,0.000431,0.682369
1734000,0.0324,0.013523,0.002678,0.000431,0.708225
1735000,0.0324,0.013523,0.002678,0.000431,0.669558
1736000,0.0324,0.013523,0.002678,0.000431,0.650518
1737000,0.0324,0.013523,0.002678,0.000431,0.679783
1738000,0.0324,0.013523,0.002678,0.000431,0.699528
1739000,0.0324,0.013523,0.002678,0.000431,0.725031
1740000,0.0324,0.013523,0.002678,0.000431,0.669676
1741000,0.0324,0.013523,0.002678,0.000431,0.699058
1742000,0.0324,0.013523,0.002678,0.000431,0.732201
1743000,0.0324,0.013523,0.002678,0.000431,0.681428
1744000,0.0324,0.013523,0.002678,0.000431,0.653457
1745000,0.0324,0.013523,0.002678,0.000431,0.644760
1746000,0.0324,0.013523,0.002678,0.000431,0.690478
1747000,0.0324,0.013523,0.002678,0.000431,0.735021
1748000,0.0324,0.013523,0.002678,0.000431,0.691418
1749000,0.0324,0.013523,0.002678,0.000431,0.678960
1750000,0.0324,0.013523,0.002678,0.000431,0.653222
1751000,0.0324,0.013523,0.002678,0.000431,0.644877
1752000,0.0324,0.013523,0.002678,0.000431,0.674142
1753000,0.0324,0.013523,0.002678,0.000431,0.690596
1754000,0.0324,0.013523,0.002678,0.000431,0.671203
1755000,0.0324,0.013523,0.002678,0.000431,0.657100
1756000,0.0324,0.013523,0.002678,0.000431,0.688128
1757000,0.0324,0.013523,0.002678,0.000431,0.685659
1758000,0.0324,0.013523,0.002678,0.000431,0.671203
1759000,0.0324,0.013523,0.002678,0.000431,0.693181
1760000,0.0324,0.013523,0.002678,0.000431,0.696942
1761000,0.0324,0.013523,0.002678,0.000431,0.682721
1762000,0.0324,0.013523,0.002678,0.000431,0.678020
1763000,0.0324,0.013523,0.002678,0.000431,0.703759
1764000,0.0324,0.013523,0.002678,0.000431,0.664974
1765000,0.0324,0.013523,0.002678,0.000431,0.681781
1766000,0.0324,0.013523,0.002678,0.000431,0.651811
1767000,0.0324,0.013523,0.002678,0.000431,0.660038
1768000,0.0324,0.013523,0.002678,0.000431,0.669676
1769000,0.0324,0.013523,0.002678,0.000431,0.657218
1770000,0.0324,0.013523,0.002678,0.000431,0.684954
1771000,0.0324,0.013523,0.002678,0.000431,0.671556
1772000,0.0324,0.013523,0.002678,0.000431,0.677785
1773000,0.0324,0.013523,0.002678,0.000431,0.654162
1774000,0.0324,0.013523,0.002678,0.000431,0.668735
1775000,0.0324,0.013523,0.002678,0.000431,0.679078
1776000,0.0324,0.013523,0.002678,0.000431,0.702113
1777000,0.0324,0.013523,0.002678,0.000431,0.646287
1778000,0.0324,0.013523,0.002678,0.000431,0.681899
1779000,0.0324,0.013523,0.002678,0.000431,0.633712
1780000,0.0324,0.013523,0.002678,0.000431,0.663212
1781000,0.0324,0.013523,0.002678,0.000431,0.650636
1782000,0.0324,0.013523,0.002678,0.000431,0.637943
1783000,0.0324,0.013523,0.002678,0.000431,0.665092
1784000,0.0324,0.013523,0.002678,0.000431,0.728792
1785000,0.0324,0.013523,0.002678,0.000431,0.714571
1786000,0.0324,0.013523,0.002678,0.000431,0.689773
1787000,0.0324,0.013523,0.002678,0.000431,0.662271
1788000,0.0324,0.013523,0.002678,0.000431,0.665327
1789000,0.0324,0.013523,0.002678,0.000431,0.681781
1790000,0.0324,0.013523,0.002678,0.000431,0.690948
1791000,0.0324,0.013523,0.002678,0.000431,0.688715
1792000,0.0324,0.013523,0.002678,0.000431,0.670381
1793000,0.0324,0.013523,0.002678,0.000431,0.714454
1794000,0.0324,0.013523,0.002678,0.000431,0.688715
1795000,0.0324,0.013523,0.002678,0.000431,0.664034
1796000,0.0324,0.013523,0.002678,0.000431,0.668148
1797000,0.0324,0.013523,0.002678,0.000431,0.701056
1798000,0.0324,0.013523,0.002678,0.000431,0.701408
1799000,0.0324,0.013523,0.002678,0.000431,0.661566
1800000,0.0324,0.013523,0.002678,0.000431,0.672026
1801000,0.0324,0.013523,0.002678,0.000431,0.688128
1802000,0.0324,0.013523,0.002678,0.000431,0.726442
1803000,0.0324,0.013523,0.002678,0.000431,0.707285
1804000,0.0324,0.013523,0.002678,0.000431,0.679548
1805000,0.0324,0.013523,0.002678,0.000431,0.677550
1806000,0.0324,0.013523,0.002678,0.000431,0.692829
1807000,0.0324,0.013523,0.002678,0.000431,0.660273
1808000,0.0324,0.013523,0.002678,0.000431,0.695767
1809000,0.0324,0.013523,0.002678,0.000431,0.706579
1810000,0.0324,0.013523,0.002678,0.000431,0.703641
1811000,0.0324,0.013523,0.002678,0.000431,0.728087
1812000,0.0324,0.013523,0.002678,0.000431,0.675552
1813000,0.0324,0.013523,0.002678,0.000431,0.660273
1814000,0.0324,0.013523,0.002678,0.000431,0.645582
1815000,0.0324,0.013523,0.002678,0.000431,0.626778
1816000,0.0324,0.013523,0.002678,0.000431,0.666972
1817000,0.0324,0.013523,0.002678,0.000431,0.666150
1818000,0.0324,0.013523,0.002678,0.000431,0.701173
1819000,0.0324,0.013523,0.002678,0.000431,0.693651
1820000,0.0324,0.013523,0.002678,0.000431,0.678960
1821000,0.0324,0.013523,0.002678,0.000431,0.687775
1822000,0.0324,0.013523,0.002678,0.000431,0.682839
1823000,0.0324,0.013523,0.002678,0.000431,0.706462
1824000,0.0324,0.013523,0.002678,0.000431,0.656512
1825000,0.0324,0.013523,0.002678,0.000431,0.690008
1826000,0.0324,0.013523,0.002678,0.000431,0.657570
1827000,0.0324,0.013523,0.002678,0.000431,0.685894
1828000,0.0324,0.013523,0.002678,0.000431,0.684954
1829000,0.0324,0.013523,0.002678,0.000431,0.661801
1830000,0.0324,0.013523,0.002678,0.000431,0.675905
1831000,0.0324,0.013523,0.002678,0.000431,0.663917
1832000,0.0324,0.013523,0.002678,0.000431,0.664387
1833000,0.0324,0.013523,0.002678,0.000431,0.646405
1834000,0.0324,0.013523,0.002678,0.000431,0.681546
1835000,0.0324,0.013523,0.002678,0.000431,0.698352
1836000,0.0324,0.013523,0.002678,0.000431,0.696590
1837000,0.0324,0.013523,0.002678,0.000431,0.647345
1838000,0.0324,0.013523,0.002678,0.000431,0.706932
1839000,0.0324,0.013523,0.002678,0.000431,0.696002
1840000,0.0324,0.013523,0.002678,0.000431,0.674612
1841000,0.0324,0.013523,0.002678,0.000431,0.685777
1842000,0.0324,0.013523,0.002678,0.000431,0.635475
1843000,0.0324,0.013523,0.002678,0.000431,0.673319
1844000,0.0324,0.013523,0.002678,0.000431,0.671439
1845000,0.0324,0.013523,0.002678,0.000431,0.690596
1846000,0.0324,0.013523,0.002678,0.000431,0.667913
1847000,0.0324,0.013523,0.002678,0.000431,0.672614
1848000,0.0324,0.013523,0.002678,0.000431,0.695179
1849000,0.0324,0.013523,0.002678,0.000431,0.687422
1850000,0.0324,0.013523,0.002678,0.000431,0.699998
1851000,0.0324,0.013523,0.002678,0.000431,0.692711
1852000,0.0324,0.013523,0.002678,0.000431,0.688598
1853000,0.0324,0.013523,0.002678,0.000431,0.674024
1854000,0.0324,0.013523,0.002678,0.000431,0.711046
1855000,0.0324,0.013523,0.002678,0.000431,0.703406
1856000,0.0324,0.013523,0.002678,0.000431,0.692711
1857000,0.0324,0.013523,0.002678,0.000431,0.671556
1858000,0.0324,0.013523,0.002678,0.000431,0.684954
1859000,0.0324,0.013523,0.002678,0.000431,0.672379
1860000,0.0324,0.013523,0.002678,0.000431,0.673672
1861000,0.0324,0.013523,0.002678,0.000431,0.662976
1862000,0.0324,0.013523,0.002678,0.000431,0.703641
1863000,0.0324,0.013523,0.002678,0.000431,0.706814
1864000,0.0324,0.013523,0.002678,0.000431,0.710810
1865000,0.0324,0.013523,0.002678,0.000431,0.693416
1866000,0.0324,0.013523,0.002678,0.000431,0.693181
1867000,0.0324,0.013523,0.002678,0.000431,0.709518
1868000,0.0324,0.013523,0.002678,0.000431,0.696590
1869000,0.0324,0.013523,0.002678,0.000431,0.712221
1870000,0.0324,0.013523,0.002678,0.000431,0.717274
1871000,0.0324,0.013523,0.002678,0.000431,0.735021
1872000,0.0324,0.013523,0.002678,0.000431,0.695884
1873000,0.0324,0.013523,0.002678,0.000431,0.688245
1874000,0.0324,0.013523,0.002678,0.000431,0.675434
1875000,0.0324,0.013523,0.002678,0.000431,0.675787
1876000,0.0324,0.013523,0.002678,0.000431,0.676845
1877000,0.0324,0.013523,0.002678,0.000431,0.697295
1878000,0.0324,0.013523,0.002678,0.000431,0.670263
1879000,0.0324,0.013523,0.002678,0.000431,0.681899
1880000,0.0324,0.013523,0.002678,0.000431,0.703994
1881000,0.0324,0.013523,0.002678,0.000431,0.687540
1882000,0.0324,0.013523,0.002678,0.000431,0.701643
1883000,0.0324,0.013523,0.002678,0.000431,0.684484
1884000,0.0324,0.013523,0.002678,0.000431,0.677903
1885000,0.0324,0.013523,0.002678,0.000431,0.706462
1886000,0.0324,0.013523,0.002678,0.000431,0.705639
1887000,0.0324,0.013523,0.002678,0.000431,0.701526
1888000,0.0324,0.013523,0.002678,0.000431,0.690008
1889000,0.0324,0.013523,0.002678,0.000431,0.665562
1890000,0.0324,0.013523,0.002678,0.000431,0.659921
1891000,0.0324,0.013523,0.002678,0.000431,0.672966
1892000,0.0324,0.013523,0.002678,0.000431,0.686482
1893000,0.0324,0.013523,0.002678,0.000431,0.701056
1894000,0.0324,0.013523,0.002678,0.000431,0.687305
1895000,0.0324,0.013523,0.002678,0.000431,0.693886
1896000,0.0324,0.013523,0.002678,0.000431,0.662389
1897000,0.0324,0.013523,0.002678,0.000431,0.669088
1898000,0.0324,0.013523,0.002678,0.000431,0.676610
1899000,0.0324,0.013523,0.002678,0.000431,0.680488
1900000,0.0324,0.013523,0.002678,0.000431,0.644407
1901000,0.0324,0.013523,0.002678,0.000431,0.670498
1902000,0.0324,0.013523,0.002678,0.000431,0.673201
1903000,0.0324,0.013523,0.002678,0.000431,0.676375
1904000,0.0324,0.013523,0.002678,0.000431,0.686717
1905000,0.0324,0.013523,0.002678,0.000431,0.718685
1906000,0.0324,0.013523,0.002678,0.000431,0.680723
1907000,0.0324,0.013523,0.002678,0.000431,0.665092
1908000,0.0324,0.013523,0.002678,0.000431,0.657100
1909000,0.0324,0.013523,0.002678,0.000431,0.692123
1910000,0.0324,0.013523,0.002678,0.000431,0.686717
1911000,0.0324,0.013523,0.002678,0.000431,0.701996
1912000,0.0324,0.013523,0.002678,0.000431,0.689538
1913000,0.0324,0.013523,0.002678,0.000431,0.724209
1914000,0.0324,0.013523,0.002678,0.000431,0.694004
1915000,0.0324,0.013523,0.002678,0.000431,0.683661
1916000,0.0324,0.013523,0.002678,0.000431,0.713514
1917000,0.0324,0.013523,0.002678,0.000431,0.700115
1918000,0.0324,0.013523,0.002678,0.000431,0.679901
1919000,0.0324,0.013523,0.002678,0.000431,0.693181
1920000,0.0324,0.013523,0.002678,0.000431,0.675199
1921000,0.0324,0.013523,0.002678,0.000431,0.658863
1922000,0.0324,0.013523,0.002678,0.000431,0.666737
1923000,0.0324,0.013523,0.002678,0.000431,0.669205
1924000,0.0324,0.013523,0.002678,0.000431,0.673436
1925000,0.0324,0.013523,0.002678,0.000431,0.666855
1926000,0.0324,0.013523,0.002678,0.000431,0.659333
1927000,0.0324,0.013523,0.002678,0.000431,0.660626
1928000,0.0324,0.013523,0.002678,0.000431,0.665797
1929000,0.0324,0.013523,0.002678,0.000431,0.673789
1930000,0.0324,0.013523,0.002678,0.000431,0.684484
1931000,0.0324,0.013523,0.002678,0.000431,0.682956
1932000,0.0324,0.013523,0.002678,0.000431,0.651576
1933000,0.0324,0.013523,0.002678,0.000431,0.698823
1934000,0.0324,0.013523,0.002678,0.000431,0.679195
1935000,0.0324,0.013523,0.002678,0.000431,0.691771
1936000,0.0324,0.013523,0.002678,0.000431,0.672496
1937000,0.0324,0.013523,0.002678,0.000431,0.682839
1938000,0.0324,0.013523,0.002678,0.000431,0.704111
1939000,0.0324,0.013523,0.002678,0.000431,0.711046
1940000,0.0324,0.013523,0.002678,0.000431,0.685542
1941000,0.0324,0.013523,0.002678,0.000431,0.693181
1942000,0.0324,0.013523,0.002678,0.000431,0.670381
1943000,0.0324,0.013523,0.002678,0.000431,0.660156
1944000,0.0324,0.013523,0.002678,0.000431,0.650166
1945000,0.0324,0.013523,0.002678,0.000431,0.648638
1946000,0.0324,0.013523,0.002678,0.000431,0.665092
1947000,0.0324,0.013523,0.002678,0.000431,0.662859
1948000,0.0324,0.013523,0.002678,0.000431,0.657688
1949000,0.0324,0.013523,0.002678,0.000431,0.679548
1950000,0.0324,0.013523,0.002678,0.000431,0.683661
1951000,0.0324,0.013523,0.002678,0.000431,0.689890
1952000,0.0324,0.013523,0.002678,0.000431,0.692946
1953000,0.0324,0.013523,0.002678,0.000431,0.698000
1954000,0.0324,0.013523,0.002678,0.000431,0.718097
1955000,0.0324,0.013523,0.002678,0.000431,0.665327
1956000,0.0324,0.013523,0.002678,0.000431,0.666620
1957000,0.0324,0.013523,0.002678,0.000431,0.671321
1958000,0.0324,0.013523,0.002678,0.000431,0.670498
1959000,0.0324,0.013523,0.002678,0.000431,0.687657
1960000,0.0324,0.013523,0.002678,0.000431,0.734551
1961000,0.0324,0.013523,0.002678,0.000431,0.707167
1962000,0.0324,0.013523,0.002678,0.000431,0.675787
1963000,0.0324,0.013523,0.002678,0.000431,0.681193
1964000,0.0324,0.013523,0.002678,0.000431,0.656277
1965000,0.0324,0.013523,0.002678,0.000431,0.709988
1966000,0.0324,0.013523,0.002678,0.000431,0.658393
1967000,0.0324,0.013523,0.002678,0.000431,0.640058
1968000,0.0324,0.013523,0.002678,0.000431,0.680606
1969000,0.0324,0.013523,0.002678,0.000431,0.646993
1970000,0.0324,0.013523,0.002678,0.000431,0.669088
1971000,0.0324,0.013523,0.002678,0.000431,0.670851
1972000,0.0324,0.013523,0.002678,0.000431,0.678373
1973000,0.0324,0.013523,0.002678,0.000431,0.670498
1974000,0.0324,0.013523,0.002678,0.000431,0.673907
1975000,0.0324,0.013523,0.002678,0.000431,0.685777
1976000,0.0324,0.013523,0.002678,0.000431,0.679783
1977000,0.0324,0.013523,0.002678,0.000431,0.641821
1978000,0.0324,0.013523,0.002678,0.000431,0.649461
1979000,0.0324,0.013523,0.002678,0.000431,0.672379
1980000,0.0324,0.013523,0.002678,0.000431,0.683661
1981000,0.0324,0.013523,0.002678,0.000431,0.653104
1982000,0.0324,0.013523,0.002678,0.000431,0.624075
1983000,0.0324,0.013523,0.002678,0.000431,0.648991
1984000,0.0324,0.013523,0.002678,0.000431,0.647815
1985000,0.0324,0.013523,0.002678,0.000431,0.638178
1986000,0.0324,0.013523,0.002678,0.000431,0.635240
1987000,0.0324,0.013523,0.002678,0.000431,0.641351
1988000,0.0324,0.013523,0.002678,0.000431,0.652281
1989000,0.0324,0.013523,0.002678,0.000431,0.652516
1990000,0.0324,0.013523,0.002678,0.000431,0.661096
1991000,0.0324,0.013523,0.002678,0.000431,0.703876
1992000,0.0324,0.013523,0.002678,0.000431,0.695884
1993000,0.0324,0.013523,0.002678,0.000431,0.669088
1994000,0.0324,0.013523,0.002678,0.000431,0.678255
1995000,0.0324,0.013523,0.002678,0.000431,0.668383
1996000,0.0324,0.013523,0.002678,0.000431,0.693769
1997000,0.0324,0.013523,0.002678,0.000431,0.707167
1998000,0.0324,0.013523,0.002678,0.000431,0.665210
1999000,0.0324,0.013523,0.002678,0.000431,0.671321
