Cycle,Area(mm^2),PeakDynamic(W),SubthresholdLeakage(W),GateLeakage(W),RunTimeDynamic(W)
5000000,0.0324,0.013523,0.002678,0.000431,0.658393
5001000,0.0324,0.013523,0.002678,0.000431,0.627013
5002000,0.0324,0.013523,0.002678,0.000431,0.616435
5003000,0.0324,0.013523,0.002678,0.000431,0.636885
5004000,0.0324,0.013523,0.002678,0.000431,0.626190
5005000,0.0324,0.013523,0.002678,0.000431,0.657453
5006000,0.0324,0.013523,0.002678,0.000431,0.635240
5007000,0.0324,0.013523,0.002678,0.000431,0.623840
5008000,0.0324,0.013523,0.002678,0.000431,0.615260
5009000,0.0324,0.013523,0.002678,0.000431,0.625603
5010000,0.0324,0.013523,0.002678,0.000431,0.626425
5011000,0.0324,0.013523,0.002678,0.000431,0.648403
5012000,0.0324,0.013523,0.002678,0.000431,0.656277
5013000,0.0324,0.013523,0.002678,0.000431,0.635710
5014000,0.0324,0.013523,0.002678,0.000431,0.647345
5015000,0.0324,0.013523,0.002678,0.000431,0.623369
5016000,0.0324,0.013523,0.002678,0.000431,0.631596
5017000,0.0324,0.013523,0.002678,0.000431,0.640764
5018000,0.0324,0.013523,0.002678,0.000431,0.661566
5019000,0.0324,0.013523,0.002678,0.000431,0.627365
5020000,0.0324,0.013523,0.002678,0.000431,0.629834
5021000,0.0324,0.013523,0.002678,0.000431,0.632067
5022000,0.0324,0.013523,0.002678,0.000431,0.631596
5023000,0.0324,0.013523,0.002678,0.000431,0.641939
5024000,0.0324,0.013523,0.002678,0.000431,0.645112
5025000,0.0324,0.013523,0.002678,0.000431,0.661566
5026000,0.0324,0.013523,0.002678,0.000431,0.635357
5027000,0.0324,0.013523,0.002678,0.000431,0.626778
5028000,0.0324,0.013523,0.002678,0.000431,0.635005
5029000,0.0324,0.013523,0.002678,0.000431,0.648403
5030000,0.0324,0.013523,0.002678,0.000431,0.630891
5031000,0.0324,0.013523,0.002678,0.000431,0.641586
5032000,0.0324,0.013523,0.002678,0.000431,0.640058
5033000,0.0324,0.013523,0.002678,0.000431,0.609501
5034000,0.0324,0.013523,0.002678,0.000431,0.614672
5035000,0.0324,0.013523,0.002678,0.000431,0.629011
5036000,0.0324,0.013523,0.002678,0.000431,0.633594
5037000,0.0324,0.013523,0.002678,0.000431,0.644289
5038000,0.0324,0.013523,0.002678,0.000431,0.638648
5039000,0.0324,0.013523,0.002678,0.000431,0.635475
5040000,0.0324,0.013523,0.002678,0.000431,0.627013
5041000,0.0324,0.013523,0.002678,0.000431,0.588581
5042000,0.0324,0.013523,0.002678,0.000431,0.602214
5043000,0.0324,0.013523,0.002678,0.000431,0.618786
5044000,0.0324,0.013523,0.002678,0.000431,0.655572
5045000,0.0324,0.013523,0.002678,0.000431,0.657923
5046000,0.0324,0.013523,0.002678,0.000431,0.636415
5047000,0.0324,0.013523,0.002678,0.000431,0.629598
5048000,0.0324,0.013523,0.002678,0.000431,0.633007
5049000,0.0324,0.013523,0.002678,0.000431,0.617258
5050000,0.0324,0.013523,0.002678,0.000431,0.623369
5051000,0.0324,0.013523,0.002678,0.000431,0.639823
5052000,0.0324,0.013523,0.002678,0.000431,0.618668
5053000,0.0324,0.013523,0.002678,0.000431,0.632772
5054000,0.0324,0.013523,0.002678,0.000431,0.618551
5055000,0.0324,0.013523,0.002678,0.000431,0.637825
5056000,0.0324,0.013523,0.002678,0.000431,0.644289
5057000,0.0324,0.013523,0.002678,0.000431,0.634535
5058000,0.0324,0.013523,0.002678,0.000431,0.638296
5059000,0.0324,0.013523,0.002678,0.000431,0.636415
5060000,0.0324,0.013523,0.002678,0.000431,0.635945
5061000,0.0324,0.013523,0.002678,0.000431,0.611147
5062000,0.0324,0.013523,0.002678,0.000431,0.619491
5063000,0.0324,0.013523,0.002678,0.000431,0.621489
5064000,0.0324,0.013523,0.002678,0.000431,0.623605
5065000,0.0324,0.013523,0.002678,0.000431,0.637590
5066000,0.0324,0.013523,0.002678,0.000431,0.641351
5067000,0.0324,0.013523,0.002678,0.000431,0.625720
5068000,0.0324,0.013523,0.002678,0.000431,0.629011
5069000,0.0324,0.013523,0.002678,0.000431,0.629246
5070000,0.0324,0.013523,0.002678,0.000431,0.643349
5071000,0.0324,0.013523,0.002678,0.000431,0.630891
5072000,0.0324,0.013523,0.002678,0.000431,0.639236
5073000,0.0324,0.013523,0.002678,0.000431,0.631009
5074000,0.0324,0.013523,0.002678,0.000431,0.626308
5075000,0.0324,0.013523,0.002678,0.000431,0.634652
5076000,0.0324,0.013523,0.002678,0.000431,0.651224
5077000,0.0324,0.013523,0.002678,0.000431,0.633359
5078000,0.0324,0.013523,0.002678,0.000431,0.648403
5079000,0.0324,0.013523,0.002678,0.000431,0.641116
5080000,0.0324,0.013523,0.002678,0.000431,0.622429
5081000,0.0324,0.013523,0.002678,0.000431,0.617846
5082000,0.0324,0.013523,0.002678,0.000431,0.613262
5083000,0.0324,0.013523,0.002678,0.000431,0.621842
5084000,0.0324,0.013523,0.002678,0.000431,0.652164
5085000,0.0324,0.013523,0.002678,0.000431,0.649696
5086000,0.0324,0.013523,0.002678,0.000431,0.647933
5087000,0.0324,0.013523,0.002678,0.000431,0.635122
5088000,0.0324,0.013523,0.002678,0.000431,0.635827
5089000,0.0324,0.013523,0.002678,0.000431,0.633712
5090000,0.0324,0.013523,0.002678,0.000431,0.617611
5091000,0.0324,0.013523,0.002678,0.000431,0.621842
5092000,0.0324,0.013523,0.002678,0.000431,0.622899
5093000,0.0324,0.013523,0.002678,0.000431,0.636650
5094000,0.0324,0.013523,0.002678,0.000431,0.647815
5095000,0.0324,0.013523,0.002678,0.000431,0.638061
5096000,0.0324,0.013523,0.002678,0.000431,0.625367
5097000,0.0324,0.013523,0.002678,0.000431,0.636533
5098000,0.0324,0.013523,0.002678,0.000431,0.641821
5099000,0.0324,0.013523,0.002678,0.000431,0.635475
5100000,0.0324,0.013523,0.002678,0.000431,0.657688
5101000,0.0324,0.013523,0.002678,0.000431,0.642762
5102000,0.0324,0.013523,0.002678,0.000431,0.651694
5103000,0.0324,0.013523,0.002678,0.000431,0.619256
5104000,0.0324,0.013523,0.002678,0.000431,0.615613
5105000,0.0324,0.013523,0.002678,0.000431,0.637825
5106000,0.0324,0.013523,0.002678,0.000431,0.636885
5107000,0.0324,0.013523,0.002678,0.000431,0.626895
5108000,0.0324,0.013523,0.002678,0.000431,0.648873
5109000,0.0324,0.013523,0.002678,0.000431,0.643232
5110000,0.0324,0.013523,0.002678,0.000431,0.629951
5111000,0.0324,0.013523,0.002678,0.000431,0.644877
5112000,0.0324,0.013523,0.002678,0.000431,0.656042
5113000,0.0324,0.013523,0.002678,0.000431,0.657218
5114000,0.0324,0.013523,0.002678,0.000431,0.644525
5115000,0.0324,0.013523,0.002678,0.000431,0.638766
5116000,0.0324,0.013523,0.002678,0.000431,0.631009
5117000,0.0324,0.013523,0.002678,0.000431,0.620431
5118000,0.0324,0.013523,0.002678,0.000431,0.636063
5119000,0.0324,0.013523,0.002678,0.000431,0.616788
5120000,0.0324,0.013523,0.002678,0.000431,0.641469
5121000,0.0324,0.013523,0.002678,0.000431,0.639001
5122000,0.0324,0.013523,0.002678,0.000431,0.639941
5123000,0.0324,0.013523,0.002678,0.000431,0.641469
5124000,0.0324,0.013523,0.002678,0.000431,0.612909
5125000,0.0324,0.013523,0.002678,0.000431,0.625132
5126000,0.0324,0.013523,0.002678,0.000431,0.619491
5127000,0.0324,0.013523,0.002678,0.000431,0.625132
5128000,0.0324,0.013523,0.002678,0.000431,0.625720
5129000,0.0324,0.013523,0.002678,0.000431,0.632067
5130000,0.0324,0.013523,0.002678,0.000431,0.631714
5131000,0.0324,0.013523,0.002678,0.000431,0.640529
5132000,0.0324,0.013523,0.002678,0.000431,0.626660
5133000,0.0324,0.013523,0.002678,0.000431,0.637238
5134000,0.0324,0.013523,0.002678,0.000431,0.627365
5135000,0.0324,0.013523,0.002678,0.000431,0.638061
5136000,0.0324,0.013523,0.002678,0.000431,0.650283
5137000,0.0324,0.013523,0.002678,0.000431,0.638061
5138000,0.0324,0.013523,0.002678,0.000431,0.655455
5139000,0.0324,0.013523,0.002678,0.000431,0.646875
5140000,0.0324,0.013523,0.002678,0.000431,0.639118
5141000,0.0324,0.013523,0.002678,0.000431,0.632889
5142000,0.0324,0.013523,0.002678,0.000431,0.647815
5143000,0.0324,0.013523,0.002678,0.000431,0.604447
5144000,0.0324,0.013523,0.002678,0.000431,0.643937
5145000,0.0324,0.013523,0.002678,0.000431,0.652516
5146000,0.0324,0.013523,0.002678,0.000431,0.633007
5147000,0.0324,0.013523,0.002678,0.000431,0.633947
5148000,0.0324,0.013523,0.002678,0.000431,0.608443
5149000,0.0324,0.013523,0.002678,0.000431,0.630539
5150000,0.0324,0.013523,0.002678,0.000431,0.627483
5151000,0.0324,0.013523,0.002678,0.000431,0.635827
5152000,0.0324,0.013523,0.002678,0.000431,0.648403
5153000,0.0324,0.013523,0.002678,0.000431,0.626778
5154000,0.0324,0.013523,0.002678,0.000431,0.626308
5155000,0.0324,0.013523,0.002678,0.000431,0.640058
5156000,0.0324,0.013523,0.002678,0.000431,0.610206
5157000,0.0324,0.013523,0.002678,0.000431,0.632772
5158000,0.0324,0.013523,0.002678,0.000431,0.607033
5159000,0.0324,0.013523,0.002678,0.000431,0.633124
5160000,0.0324,0.013523,0.002678,0.000431,0.647698
5161000,0.0324,0.013523,0.002678,0.000431,0.636298
5162000,0.0324,0.013523,0.002678,0.000431,0.623017
5163000,0.0324,0.013523,0.002678,0.000431,0.625015
5164000,0.0324,0.013523,0.002678,0.000431,0.635475
5165000,0.0324,0.013523,0.002678,0.000431,0.653104
5166000,0.0324,0.013523,0.002678,0.000431,0.614202
5167000,0.0324,0.013523,0.002678,0.000431,0.631949
5168000,0.0324,0.013523,0.002678,0.000431,0.621959
5169000,0.0324,0.013523,0.002678,0.000431,0.623722
5170000,0.0324,0.013523,0.002678,0.000431,0.625955
5171000,0.0324,0.013523,0.002678,0.000431,0.606916
5172000,0.0324,0.013523,0.002678,0.000431,0.625485
5173000,0.0324,0.013523,0.002678,0.000431,0.630656
5174000,0.0324,0.013523,0.002678,0.000431,0.639588
5175000,0.0324,0.013523,0.002678,0.000431,0.630774
5176000,0.0324,0.013523,0.002678,0.000431,0.626895
5177000,0.0324,0.013523,0.002678,0.000431,0.601392
5178000,0.0324,0.013523,0.002678,0.000431,0.614437
5179000,0.0324,0.013523,0.002678,0.000431,0.641351
5180000,0.0324,0.013523,0.002678,0.000431,0.615143
5181000,0.0324,0.013523,0.002678,0.000431,0.619609
5182000,0.0324,0.013523,0.002678,0.000431,0.622664
5183000,0.0324,0.013523,0.002678,0.000431,0.619491
5184000,0.0324,0.013523,0.002678,0.000431,0.634417
5185000,0.0324,0.013523,0.002678,0.000431,0.643467
5186000,0.0324,0.013523,0.002678,0.000431,0.619961
5187000,0.0324,0.013523,0.002678,0.000431,0.641704
5188000,0.0324,0.013523,0.002678,0.000431,0.609501
5189000,0.0324,0.013523,0.002678,0.000431,0.637590
5190000,0.0324,0.013523,0.002678,0.000431,0.616788
5191000,0.0324,0.013523,0.002678,0.000431,0.630304
5192000,0.0324,0.013523,0.002678,0.000431,0.643584
5193000,0.0324,0.013523,0.002678,0.000431,0.640646
5194000,0.0324,0.013523,0.002678,0.000431,0.647228
5195000,0.0324,0.013523,0.002678,0.000431,0.632654
5196000,0.0324,0.013523,0.002678,0.000431,0.634182
5197000,0.0324,0.013523,0.002678,0.000431,0.608914
5198000,0.0324,0.013523,0.002678,0.000431,0.641939
5199000,0.0324,0.013523,0.002678,0.000431,0.619138
5200000,0.0324,0.013523,0.002678,0.000431,0.617258
5201000,0.0324,0.013523,0.002678,0.000431,0.624427
5202000,0.0324,0.013523,0.002678,0.000431,0.638531
5203000,0.0324,0.013523,0.002678,0.000431,0.634417
5204000,0.0324,0.013523,0.002678,0.000431,0.620196
5205000,0.0324,0.013523,0.002678,0.000431,0.636885
5206000,0.0324,0.013523,0.002678,0.000431,0.634887
5207000,0.0324,0.013523,0.002678,0.000431,0.626308
5208000,0.0324,0.013523,0.002678,0.000431,0.647345
5209000,0.0324,0.013523,0.002678,0.000431,0.633712
5210000,0.0324,0.013523,0.002678,0.000431,0.628541
5211000,0.0324,0.013523,0.002678,0.000431,0.647580
5212000,0.0324,0.013523,0.002678,0.000431,0.618198
5213000,0.0324,0.013523,0.002678,0.000431,0.655690
5214000,0.0324,0.013523,0.002678,0.000431,0.634300
5215000,0.0324,0.013523,0.002678,0.000431,0.642409
5216000,0.0324,0.013523,0.002678,0.000431,0.646875
5217000,0.0324,0.013523,0.002678,0.000431,0.628306
5218000,0.0324,0.013523,0.002678,0.000431,0.645582
5219000,0.0324,0.013523,0.002678,0.000431,0.629246
5220000,0.0324,0.013523,0.002678,0.000431,0.628541
5221000,0.0324,0.013523,0.002678,0.000431,0.620431
5222000,0.0324,0.013523,0.002678,0.000431,0.642762
5223000,0.0324,0.013523,0.002678,0.000431,0.652516
5224000,0.0324,0.013523,0.002678,0.000431,0.643584
5225000,0.0324,0.013523,0.002678,0.000431,0.647345
5226000,0.0324,0.013523,0.002678,0.000431,0.635122
5227000,0.0324,0.013523,0.002678,0.000431,0.641821
5228000,0.0324,0.013523,0.002678,0.000431,0.627248
5229000,0.0324,0.013523,0.002678,0.000431,0.646287
5230000,0.0324,0.013523,0.002678,0.000431,0.661801
5231000,0.0324,0.013523,0.002678,0.000431,0.637238
5232000,0.0324,0.013523,0.002678,0.000431,0.638296
5233000,0.0324,0.013523,0.002678,0.000431,0.654279
5234000,0.0324,0.013523,0.002678,0.000431,0.636885
5235000,0.0324,0.013523,0.002678,0.000431,0.639236
5236000,0.0324,0.013523,0.002678,0.000431,0.632654
5237000,0.0324,0.013523,0.002678,0.000431,0.642644
5238000,0.0324,0.013523,0.002678,0.000431,0.617140
5239000,0.0324,0.013523,0.002678,0.000431,0.623369
5240000,0.0324,0.013523,0.002678,0.000431,0.644642
5241000,0.0324,0.013523,0.002678,0.000431,0.624310
5242000,0.0324,0.013523,0.002678,0.000431,0.642997
5243000,0.0324,0.013523,0.002678,0.000431,0.634887
5244000,0.0324,0.013523,0.002678,0.000431,0.626073
5245000,0.0324,0.013523,0.002678,0.000431,0.627483
5246000,0.0324,0.013523,0.002678,0.000431,0.625015
5247000,0.0324,0.013523,0.002678,0.000431,0.598806
5248000,0.0324,0.013523,0.002678,0.000431,0.630304
5249000,0.0324,0.013523,0.002678,0.000431,0.631596
5250000,0.0324,0.013523,0.002678,0.000431,0.624780
5251000,0.0324,0.013523,0.002678,0.000431,0.636533
5252000,0.0324,0.013523,0.002678,0.000431,0.640411
5253000,0.0324,0.013523,0.002678,0.000431,0.641821
5254000,0.0324,0.013523,0.002678,0.000431,0.633947
5255000,0.0324,0.013523,0.002678,0.000431,0.611382
5256000,0.0324,0.013523,0.002678,0.000431,0.604565
5257000,0.0324,0.013523,0.002678,0.000431,0.632654
5258000,0.0324,0.013523,0.002678,0.000431,0.626425
5259000,0.0324,0.013523,0.002678,0.000431,0.611734
5260000,0.0324,0.013523,0.002678,0.000431,0.641704
5261000,0.0324,0.013523,0.002678,0.000431,0.632537
5262000,0.0324,0.013523,0.002678,0.000431,0.609619
5263000,0.0324,0.013523,0.002678,0.000431,0.634652
5264000,0.0324,0.013523,0.002678,0.000431,0.640294
5265000,0.0324,0.013523,0.002678,0.000431,0.642292
5266000,0.0324,0.013523,0.002678,0.000431,0.633477
5267000,0.0324,0.013523,0.002678,0.000431,0.631832
5268000,0.0324,0.013523,0.002678,0.000431,0.625132
5269000,0.0324,0.013523,0.002678,0.000431,0.627718
5270000,0.0324,0.013523,0.002678,0.000431,0.634182
5271000,0.0324,0.013523,0.002678,0.000431,0.641939
5272000,0.0324,0.013523,0.002678,0.000431,0.614085
5273000,0.0324,0.013523,0.002678,0.000431,0.633124
5274000,0.0324,0.013523,0.002678,0.000431,0.628541
5275000,0.0324,0.013523,0.002678,0.000431,0.614202
5276000,0.0324,0.013523,0.002678,0.000431,0.662741
5277000,0.0324,0.013523,0.002678,0.000431,0.636298
5278000,0.0324,0.013523,0.002678,0.000431,0.638883
5279000,0.0324,0.013523,0.002678,0.000431,0.627600
5280000,0.0324,0.013523,0.002678,0.000431,0.631009
5281000,0.0324,0.013523,0.002678,0.000431,0.615613
5282000,0.0324,0.013523,0.002678,0.000431,0.636650
5283000,0.0324,0.013523,0.002678,0.000431,0.640529
5284000,0.0324,0.013523,0.002678,0.000431,0.618433
5285000,0.0324,0.013523,0.002678,0.000431,0.634300
5286000,0.0324,0.013523,0.002678,0.000431,0.646170
5287000,0.0324,0.013523,0.002678,0.000431,0.624310
5288000,0.0324,0.013523,0.002678,0.000431,0.627130
5289000,0.0324,0.013523,0.002678,0.000431,0.629246
5290000,0.0324,0.013523,0.002678,0.000431,0.638296
5291000,0.0324,0.013523,0.002678,0.000431,0.637120
5292000,0.0324,0.013523,0.002678,0.000431,0.641704
5293000,0.0324,0.013523,0.002678,0.000431,0.643584
5294000,0.0324,0.013523,0.002678,0.000431,0.634887
5295000,0.0324,0.013523,0.002678,0.000431,0.622664
5296000,0.0324,0.013523,0.002678,0.000431,0.634887
5297000,0.0324,0.013523,0.002678,0.000431,0.641116
5298000,0.0324,0.013523,0.002678,0.000431,0.627248
5299000,0.0324,0.013523,0.002678,0.000431,0.639823
5300000,0.0324,0.013523,0.002678,0.000431,0.632772
5301000,0.0324,0.013523,0.002678,0.000431,0.627013
5302000,0.0324,0.013523,0.002678,0.000431,0.619844
5303000,0.0324,0.013523,0.002678,0.000431,0.630186
5304000,0.0324,0.013523,0.002678,0.000431,0.632889
5305000,0.0324,0.013523,0.002678,0.000431,0.639353
5306000,0.0324,0.013523,0.002678,0.000431,0.650871
5307000,0.0324,0.013523,0.002678,0.000431,0.622547
5308000,0.0324,0.013523,0.002678,0.000431,0.643232
5309000,0.0324,0.013523,0.002678,0.000431,0.634065
5310000,0.0324,0.013523,0.002678,0.000431,0.614907
5311000,0.0324,0.013523,0.002678,0.000431,0.625838
5312000,0.0324,0.013523,0.002678,0.000431,0.639236
5313000,0.0324,0.013523,0.002678,0.000431,0.619609
5314000,0.0324,0.013523,0.002678,0.000431,0.623605
5315000,0.0324,0.013523,0.002678,0.000431,0.634182
5316000,0.0324,0.013523,0.002678,0.000431,0.618551
5317000,0.0324,0.013523,0.002678,0.000431,0.642056
5318000,0.0324,0.013523,0.002678,0.000431,0.658510
5319000,0.0324,0.013523,0.002678,0.000431,0.715629
5320000,0.0324,0.013523,0.002678,0.000431,0.646287
5321000,0.0324,0.013523,0.002678,0.000431,0.626778
5322000,0.0324,0.013523,0.002678,0.000431,0.636533
5323000,0.0324,0.013523,0.002678,0.000431,0.642879
5324000,0.0324,0.013523,0.002678,0.000431,0.649108
5325000,0.0324,0.013523,0.002678,0.000431,0.643467
5326000,0.0324,0.013523,0.002678,0.000431,0.636063
5327000,0.0324,0.013523,0.002678,0.000431,0.629246
5328000,0.0324,0.013523,0.002678,0.000431,0.642997
5329000,0.0324,0.013523,0.002678,0.000431,0.628423
5330000,0.0324,0.013523,0.002678,0.000431,0.647815
5331000,0.0324,0.013523,0.002678,0.000431,0.630539
5332000,0.0324,0.013523,0.002678,0.000431,0.635005
5333000,0.0324,0.013523,0.002678,0.000431,0.626073
5334000,0.0324,0.013523,0.002678,0.000431,0.624427
5335000,0.0324,0.013523,0.002678,0.000431,0.626073
5336000,0.0324,0.013523,0.002678,0.000431,0.637355
5337000,0.0324,0.013523,0.002678,0.000431,0.642879
5338000,0.0324,0.013523,0.002678,0.000431,0.624427
5339000,0.0324,0.013523,0.002678,0.000431,0.640176
5340000,0.0324,0.013523,0.002678,0.000431,0.647698
5341000,0.0324,0.013523,0.002678,0.000431,0.650636
5342000,0.0324,0.013523,0.002678,0.000431,0.621724
5343000,0.0324,0.013523,0.002678,0.000431,0.612439
5344000,0.0324,0.013523,0.002678,0.000431,0.634417
5345000,0.0324,0.013523,0.002678,0.000431,0.624897
5346000,0.0324,0.013523,0.002678,0.000431,0.643349
5347000,0.0324,0.013523,0.002678,0.000431,0.646405
5348000,0.0324,0.013523,0.002678,0.000431,0.635945
5349000,0.0324,0.013523,0.002678,0.000431,0.620079
5350000,0.0324,0.013523,0.002678,0.000431,0.636885
5351000,0.0324,0.013523,0.002678,0.000431,0.632302
5352000,0.0324,0.013523,0.002678,0.000431,0.637355
5353000,0.0324,0.013523,0.002678,0.000431,0.636063
5354000,0.0324,0.013523,0.002678,0.000431,0.642644
5355000,0.0324,0.013523,0.002678,0.000431,0.636533
5356000,0.0324,0.013523,0.002678,0.000431,0.639823
5357000,0.0324,0.013523,0.002678,0.000431,0.629716
5358000,0.0324,0.013523,0.002678,0.000431,0.662036
5359000,0.0324,0.013523,0.002678,0.000431,0.646287
5360000,0.0324,0.013523,0.002678,0.000431,0.632654
5361000,0.0324,0.013523,0.002678,0.000431,0.648638
5362000,0.0324,0.013523,0.002678,0.000431,0.617963
5363000,0.0324,0.013523,0.002678,0.000431,0.631361
5364000,0.0324,0.013523,0.002678,0.000431,0.635240
5365000,0.0324,0.013523,0.002678,0.000431,0.625015
5366000,0.0324,0.013523,0.002678,0.000431,0.643702
5367000,0.0324,0.013523,0.002678,0.000431,0.644877
5368000,0.0324,0.013523,0.002678,0.000431,0.644407
5369000,0.0324,0.013523,0.002678,0.000431,0.638531
5370000,0.0324,0.013523,0.002678,0.000431,0.630774
5371000,0.0324,0.013523,0.002678,0.000431,0.621724
5372000,0.0324,0.013523,0.002678,0.000431,0.627600
5373000,0.0324,0.013523,0.002678,0.000431,0.641234
5374000,0.0324,0.013523,0.002678,0.000431,0.635945
5375000,0.0324,0.013523,0.002678,0.000431,0.635240
5376000,0.0324,0.013523,0.002678,0.000431,0.649108
5377000,0.0324,0.013523,0.002678,0.000431,0.640764
5378000,0.0324,0.013523,0.002678,0.000431,0.638413
5379000,0.0324,0.013523,0.002678,0.000431,0.625367
5380000,0.0324,0.013523,0.002678,0.000431,0.628071
5381000,0.0324,0.013523,0.002678,0.000431,0.635592
5382000,0.0324,0.013523,0.002678,0.000431,0.629834
5383000,0.0324,0.013523,0.002678,0.000431,0.609736
5384000,0.0324,0.013523,0.002678,0.000431,0.635827
5385000,0.0324,0.013523,0.002678,0.000431,0.644995
5386000,0.0324,0.013523,0.002678,0.000431,0.656747
5387000,0.0324,0.013523,0.002678,0.000431,0.619491
5388000,0.0324,0.013523,0.002678,0.000431,0.650048
5389000,0.0324,0.013523,0.002678,0.000431,0.635357
5390000,0.0324,0.013523,0.002678,0.000431,0.628423
5391000,0.0324,0.013523,0.002678,0.000431,0.635945
5392000,0.0324,0.013523,0.002678,0.000431,0.619844
5393000,0.0324,0.013523,0.002678,0.000431,0.638883
5394000,0.0324,0.013523,0.002678,0.000431,0.636768
5395000,0.0324,0.013523,0.002678,0.000431,0.639706
5396000,0.0324,0.013523,0.002678,0.000431,0.617140
5397000,0.0324,0.013523,0.002678,0.000431,0.658040
5398000,0.0324,0.013523,0.002678,0.000431,0.616435
5399000,0.0324,0.013523,0.002678,0.000431,0.633594
5400000,0.0324,0.013523,0.002678,0.000431,0.659451
5401000,0.0324,0.013523,0.002678,0.000431,0.641821
5402000,0.0324,0.013523,0.002678,0.000431,0.645347
5403000,0.0324,0.013523,0.002678,0.000431,0.622312
5404000,0.0324,0.013523,0.002678,0.000431,0.632302
5405000,0.0324,0.013523,0.002678,0.000431,0.645817
5406000,0.0324,0.013523,0.002678,0.000431,0.643584
5407000,0.0324,0.013523,0.002678,0.000431,0.653339
5408000,0.0324,0.013523,0.002678,0.000431,0.643584
5409000,0.0324,0.013523,0.002678,0.000431,0.635357
5410000,0.0324,0.013523,0.002678,0.000431,0.637708
5411000,0.0324,0.013523,0.002678,0.000431,0.642409
5412000,0.0324,0.013523,0.002678,0.000431,0.637708
5413000,0.0324,0.013523,0.002678,0.000431,0.628541
5414000,0.0324,0.013523,0.002678,0.000431,0.654514
5415000,0.0324,0.013523,0.002678,0.000431,0.628306
5416000,0.0324,0.013523,0.002678,0.000431,0.651811
5417000,0.0324,0.013523,0.002678,0.000431,0.628423
5418000,0.0324,0.013523,0.002678,0.000431,0.637943
5419000,0.0324,0.013523,0.002678,0.000431,0.626543
5420000,0.0324,0.013523,0.002678,0.000431,0.652164
5421000,0.0324,0.013523,0.002678,0.000431,0.661096
5422000,0.0324,0.013523,0.002678,0.000431,0.631244
5423000,0.0324,0.013523,0.002678,0.000431,0.643114
5424000,0.0324,0.013523,0.002678,0.000431,0.637825
5425000,0.0324,0.013523,0.002678,0.000431,0.643937
5426000,0.0324,0.013523,0.002678,0.000431,0.635357
5427000,0.0324,0.013523,0.002678,0.000431,0.653692
5428000,0.0324,0.013523,0.002678,0.000431,0.637355
5429000,0.0324,0.013523,0.002678,0.000431,0.641586
5430000,0.0324,0.013523,0.002678,0.000431,0.654985
5431000,0.0324,0.013523,0.002678,0.000431,0.611147
5432000,0.0324,0.013523,0.002678,0.000431,0.640999
5433000,0.0324,0.013523,0.002678,0.000431,0.647815
5434000,0.0324,0.013523,0.002678,0.000431,0.644760
5435000,0.0324,0.013523,0.002678,0.000431,0.641234
5436000,0.0324,0.013523,0.002678,0.000431,0.656042
5437000,0.0324,0.013523,0.002678,0.000431,0.644760
5438000,0.0324,0.013523,0.002678,0.000431,0.638413
5439000,0.0324,0.013523,0.002678,0.000431,0.636885
5440000,0.0324,0.013523,0.002678,0.000431,0.626190
5441000,0.0324,0.013523,0.002678,0.000431,0.611734
5442000,0.0324,0.013523,0.002678,0.000431,0.649931
5443000,0.0324,0.013523,0.002678,0.000431,0.632772
5444000,0.0324,0.013523,0.002678,0.000431,0.639236
5445000,0.0324,0.013523,0.002678,0.000431,0.647815
5446000,0.0324,0.013523,0.002678,0.000431,0.646405
5447000,0.0324,0.013523,0.002678,0.000431,0.642527
5448000,0.0324,0.013523,0.002678,0.000431,0.637943
5449000,0.0324,0.013523,0.002678,0.000431,0.633594
5450000,0.0324,0.013523,0.002678,0.000431,0.647110
5451000,0.0324,0.013523,0.002678,0.000431,0.641116
5452000,0.0324,0.013523,0.002678,0.000431,0.602685
5453000,0.0324,0.013523,0.002678,0.000431,0.632184
5454000,0.0324,0.013523,0.002678,0.000431,0.629716
5455000,0.0324,0.013523,0.002678,0.000431,0.645465
5456000,0.0324,0.013523,0.002678,0.000431,0.652281
5457000,0.0324,0.013523,0.002678,0.000431,0.660978
5458000,0.0324,0.013523,0.002678,0.000431,0.653339
5459000,0.0324,0.013523,0.002678,0.000431,0.645582
5460000,0.0324,0.013523,0.002678,0.000431,0.620666
5461000,0.0324,0.013523,0.002678,0.000431,0.642879
5462000,0.0324,0.013523,0.002678,0.000431,0.648638
5463000,0.0324,0.013523,0.002678,0.000431,0.616553
5464000,0.0324,0.013523,0.002678,0.000431,0.639823
5465000,0.0324,0.013523,0.002678,0.000431,0.619609
5466000,0.0324,0.013523,0.002678,0.000431,0.644995
5467000,0.0324,0.013523,0.002678,0.000431,0.654867
5468000,0.0324,0.013523,0.002678,0.000431,0.638648
5469000,0.0324,0.013523,0.002678,0.000431,0.635357
5470000,0.0324,0.013523,0.002678,0.000431,0.643349
5471000,0.0324,0.013523,0.002678,0.000431,0.636415
5472000,0.0324,0.013523,0.002678,0.000431,0.640176
5473000,0.0324,0.013523,0.002678,0.000431,0.637120
5474000,0.0324,0.013523,0.002678,0.000431,0.635475
5475000,0.0324,0.013523,0.002678,0.000431,0.630069
5476000,0.0324,0.013523,0.002678,0.000431,0.640411
5477000,0.0324,0.013523,0.002678,0.000431,0.636885
5478000,0.0324,0.013523,0.002678,0.000431,0.630186
5479000,0.0324,0.013523,0.002678,0.000431,0.613850
5480000,0.0324,0.013523,0.002678,0.000431,0.637708
5481000,0.0324,0.013523,0.002678,0.000431,0.647463
5482000,0.0324,0.013523,0.002678,0.000431,0.643819
5483000,0.0324,0.013523,0.002678,0.000431,0.651224
5484000,0.0324,0.013523,0.002678,0.000431,0.647580
5485000,0.0324,0.013523,0.002678,0.000431,0.655807
5486000,0.0324,0.013523,0.002678,0.000431,0.626543
5487000,0.0324,0.013523,0.002678,0.000431,0.638413
5488000,0.0324,0.013523,0.002678,0.000431,0.638883
5489000,0.0324,0.013523,0.002678,0.000431,0.648168
5490000,0.0324,0.013523,0.002678,0.000431,0.647815
5491000,0.0324,0.013523,0.002678,0.000431,0.618903
5492000,0.0324,0.013523,0.002678,0.000431,0.631714
5493000,0.0324,0.013523,0.002678,0.000431,0.645112
5494000,0.0324,0.013523,0.002678,0.000431,0.623722
5495000,0.0324,0.013523,0.002678,0.000431,0.642879
5496000,0.0324,0.013523,0.002678,0.000431,0.652399
5497000,0.0324,0.013523,0.002678,0.000431,0.657335
5498000,0.0324,0.013523,0.002678,0.000431,0.655102
5499000,0.0324,0.013523,0.002678,0.000431,0.625015
5500000,0.0324,0.013523,0.002678,0.000431,0.629716
5501000,0.0324,0.013523,0.002678,0.000431,0.640176
5502000,0.0324,0.013523,0.002678,0.000431,0.653104
5503000,0.0324,0.013523,0.002678,0.000431,0.633359
5504000,0.0324,0.013523,0.002678,0.000431,0.624662
5505000,0.0324,0.013523,0.002678,0.000431,0.650989
5506000,0.0324,0.013523,0.002678,0.000431,0.641469
5507000,0.0324,0.013523,0.002678,0.000431,0.618786
5508000,0.0324,0.013523,0.002678,0.000431,0.619256
5509000,0.0324,0.013523,0.002678,0.000431,0.609854
5510000,0.0324,0.013523,0.002678,0.000431,0.636885
5511000,0.0324,0.013523,0.002678,0.000431,0.626308
5512000,0.0324,0.013523,0.002678,0.000431,0.621842
5513000,0.0324,0.013523,0.002678,0.000431,0.638178
5514000,0.0324,0.013523,0.002678,0.000431,0.617258
5515000,0.0324,0.013523,0.002678,0.000431,0.626778
5516000,0.0324,0.013523,0.002678,0.000431,0.623605
5517000,0.0324,0.013523,0.002678,0.000431,0.629834
5518000,0.0324,0.013523,0.002678,0.000431,0.640881
5519000,0.0324,0.013523,0.002678,0.000431,0.627718
5520000,0.0324,0.013523,0.002678,0.000431,0.631244
5521000,0.0324,0.013523,0.002678,0.000431,0.622429
5522000,0.0324,0.013523,0.002678,0.000431,0.627953
5523000,0.0324,0.013523,0.002678,0.000431,0.641234
5524000,0.0324,0.013523,0.002678,0.000431,0.624662
5525000,0.0324,0.013523,0.002678,0.000431,0.624897
5526000,0.0324,0.013523,0.002678,0.000431,0.608678
5527000,0.0324,0.013523,0.002678,0.000431,0.632889
5528000,0.0324,0.013523,0.002678,0.000431,0.629481
5529000,0.0324,0.013523,0.002678,0.000431,0.623017
5530000,0.0324,0.013523,0.002678,0.000431,0.631949
5531000,0.0324,0.013523,0.002678,0.000431,0.632654
5532000,0.0324,0.013523,0.002678,0.000431,0.629598
5533000,0.0324,0.013523,0.002678,0.000431,0.635240
5534000,0.0324,0.013523,0.002678,0.000431,0.642292
5535000,0.0324,0.013523,0.002678,0.000431,0.626543
5536000,0.0324,0.013523,0.002678,0.000431,0.637708
5537000,0.0324,0.013523,0.002678,0.000431,0.644407
5538000,0.0324,0.013523,0.002678,0.000431,0.634300
5539000,0.0324,0.013523,0.002678,0.000431,0.637943
5540000,0.0324,0.013523,0.002678,0.000431,0.611499
5541000,0.0324,0.013523,0.002678,0.000431,0.634770
5542000,0.0324,0.013523,0.002678,0.000431,0.629951
5543000,0.0324,0.013523,0.002678,0.000431,0.629834
5544000,0.0324,0.013523,0.002678,0.000431,0.632184
5545000,0.0324,0.013523,0.002678,0.000431,0.630539
5546000,0.0324,0.013523,0.002678,0.000431,0.635710
5547000,0.0324,0.013523,0.002678,0.000431,0.636415
5548000,0.0324,0.013523,0.002678,0.000431,0.634065
5549000,0.0324,0.013523,0.002678,0.000431,0.628071
5550000,0.0324,0.013523,0.002678,0.000431,0.639471
5551000,0.0324,0.013523,0.002678,0.000431,0.646170
5552000,0.0324,0.013523,0.002678,0.000431,0.622429
5553000,0.0324,0.013523,0.002678,0.000431,0.641351
5554000,0.0324,0.013523,0.002678,0.000431,0.641116
5555000,0.0324,0.013523,0.002678,0.000431,0.611382
5556000,0.0324,0.013523,0.002678,0.000431,0.628071
5557000,0.0324,0.013523,0.002678,0.000431,0.634300
5558000,0.0324,0.013523,0.002678,0.000431,0.635827
5559000,0.0324,0.013523,0.002678,0.000431,0.625485
5560000,0.0324,0.013523,0.002678,0.000431,0.648756
5561000,0.0324,0.013523,0.002678,0.000431,0.638648
5562000,0.0324,0.013523,0.002678,0.000431,0.639471
5563000,0.0324,0.013523,0.002678,0.000431,0.618903
5564000,0.0324,0.013523,0.002678,0.000431,0.644172
5565000,0.0324,0.013523,0.002678,0.000431,0.635005
5566000,0.0324,0.013523,0.002678,0.000431,0.633124
5567000,0.0324,0.013523,0.002678,0.000431,0.631596
5568000,0.0324,0.013523,0.002678,0.000431,0.610324
5569000,0.0324,0.013523,0.002678,0.000431,0.635240
5570000,0.0324,0.013523,0.002678,0.000431,0.612909
5571000,0.0324,0.013523,0.002678,0.000431,0.653809
5572000,0.0324,0.013523,0.002678,0.000431,0.621019
5573000,0.0324,0.013523,0.002678,0.000431,0.640881
5574000,0.0324,0.013523,0.002678,0.000431,0.638883
5575000,0.0324,0.013523,0.002678,0.000431,0.641116
5576000,0.0324,0.013523,0.002678,0.000431,0.624075
5577000,0.0324,0.013523,0.002678,0.000431,0.633007
5578000,0.0324,0.013523,0.002678,0.000431,0.633477
5579000,0.0324,0.013523,0.002678,0.000431,0.656277
5580000,0.0324,0.013523,0.002678,0.000431,0.634535
5581000,0.0324,0.013523,0.002678,0.000431,0.649108
5582000,0.0324,0.013523,0.002678,0.000431,0.632302
5583000,0.0324,0.013523,0.002678,0.000431,0.638413
5584000,0.0324,0.013523,0.002678,0.000431,0.629598
5585000,0.0324,0.013523,0.002678,0.000431,0.625720
5586000,0.0324,0.013523,0.002678,0.000431,0.645935
5587000,0.0324,0.013523,0.002678,0.000431,0.645935
5588000,0.0324,0.013523,0.002678,0.000431,0.631126
5589000,0.0324,0.013523,0.002678,0.000431,0.628893
5590000,0.0324,0.013523,0.002678,0.000431,0.616670
5591000,0.0324,0.013523,0.002678,0.000431,0.620196
5592000,0.0324,0.013523,0.002678,0.000431,0.621607
5593000,0.0324,0.013523,0.002678,0.000431,0.603625
5594000,0.0324,0.013523,0.002678,0.000431,0.605035
5595000,0.0324,0.013523,0.002678,0.000431,0.647110
5596000,0.0324,0.013523,0.002678,0.000431,0.641116
5597000,0.0324,0.013523,0.002678,0.000431,0.615260
5598000,0.0324,0.013523,0.002678,0.000431,0.635592
5599000,0.0324,0.013523,0.002678,0.000431,0.622782
5600000,0.0324,0.013523,0.002678,0.000431,0.629363
5601000,0.0324,0.013523,0.002678,0.000431,0.642644
5602000,0.0324,0.013523,0.002678,0.000431,0.643349
5603000,0.0324,0.013523,0.002678,0.000431,0.625132
5604000,0.0324,0.013523,0.002678,0.000431,0.614320
5605000,0.0324,0.013523,0.002678,0.000431,0.643467
5606000,0.0324,0.013523,0.002678,0.000431,0.613615
5607000,0.0324,0.013523,0.002678,0.000431,0.619961
5608000,0.0324,0.013523,0.002678,0.000431,0.622429
5609000,0.0324,0.013523,0.002678,0.000431,0.625838
5610000,0.0324,0.013523,0.002678,0.000431,0.615730
5611000,0.0324,0.013523,0.002678,0.000431,0.612439
5612000,0.0324,0.013523,0.002678,0.000431,0.645230
5613000,0.0324,0.013523,0.002678,0.000431,0.638648
5614000,0.0324,0.013523,0.002678,0.000431,0.633242
5615000,0.0324,0.013523,0.002678,0.000431,0.636415
5616000,0.0324,0.013523,0.002678,0.000431,0.636533
5617000,0.0324,0.013523,0.002678,0.000431,0.666855
5618000,0.0324,0.013523,0.002678,0.000431,0.630304
5619000,0.0324,0.013523,0.002678,0.000431,0.605035
5620000,0.0324,0.013523,0.002678,0.000431,0.608208
5621000,0.0324,0.013523,0.002678,0.000431,0.625838
5622000,0.0324,0.013523,0.002678,0.000431,0.636650
5623000,0.0324,0.013523,0.002678,0.000431,0.654985
5624000,0.0324,0.013523,0.002678,0.000431,0.654397
5625000,0.0324,0.013523,0.002678,0.000431,0.618316
5626000,0.0324,0.013523,0.002678,0.000431,0.651576
5627000,0.0324,0.013523,0.002678,0.000431,0.621842
5628000,0.0324,0.013523,0.002678,0.000431,0.633359
5629000,0.0324,0.013523,0.002678,0.000431,0.629951
5630000,0.0324,0.013523,0.002678,0.000431,0.620549
5631000,0.0324,0.013523,0.002678,0.000431,0.630304
5632000,0.0324,0.013523,0.002678,0.000431,0.622547
5633000,0.0324,0.013523,0.002678,0.000431,0.617611
5634000,0.0324,0.013523,0.002678,0.000431,0.627600
5635000,0.0324,0.013523,0.002678,0.000431,0.628306
5636000,0.0324,0.013523,0.002678,0.000431,0.642644
5637000,0.0324,0.013523,0.002678,0.000431,0.629598
5638000,0.0324,0.013523,0.002678,0.000431,0.632772
5639000,0.0324,0.013523,0.002678,0.000431,0.628893
5640000,0.0324,0.013523,0.002678,0.000431,0.646405
5641000,0.0324,0.013523,0.002678,0.000431,0.637943
5642000,0.0324,0.013523,0.002678,0.000431,0.627953
5643000,0.0324,0.013523,0.002678,0.000431,0.649696
5644000,0.0324,0.013523,0.002678,0.000431,0.650989
5645000,0.0324,0.013523,0.002678,0.000431,0.634417
5646000,0.0324,0.013523,0.002678,0.000431,0.651106
5647000,0.0324,0.013523,0.002678,0.000431,0.628423
5648000,0.0324,0.013523,0.002678,0.000431,0.639236
5649000,0.0324,0.013523,0.002678,0.000431,0.621842
5650000,0.0324,0.013523,0.002678,0.000431,0.617023
5651000,0.0324,0.013523,0.002678,0.000431,0.623722
5652000,0.0324,0.013523,0.002678,0.000431,0.626190
5653000,0.0324,0.013523,0.002678,0.000431,0.639823
5654000,0.0324,0.013523,0.002678,0.000431,0.622664
5655000,0.0324,0.013523,0.002678,0.000431,0.642997
5656000,0.0324,0.013523,0.002678,0.000431,0.637120
5657000,0.0324,0.013523,0.002678,0.000431,0.641469
5658000,0.0324,0.013523,0.002678,0.000431,0.642879
5659000,0.0324,0.013523,0.002678,0.000431,0.623487
5660000,0.0324,0.013523,0.002678,0.000431,0.633947
5661000,0.0324,0.013523,0.002678,0.000431,0.632184
5662000,0.0324,0.013523,0.002678,0.000431,0.626543
5663000,0.0324,0.013523,0.002678,0.000431,0.637943
5664000,0.0324,0.013523,0.002678,0.000431,0.625250
5665000,0.0324,0.013523,0.002678,0.000431,0.623605
5666000,0.0324,0.013523,0.002678,0.000431,0.644289
5667000,0.0324,0.013523,0.002678,0.000431,0.611264
5668000,0.0324,0.013523,0.002678,0.000431,0.634535
5669000,0.0324,0.013523,0.002678,0.000431,0.619374
5670000,0.0324,0.013523,0.002678,0.000431,0.644525
5671000,0.0324,0.013523,0.002678,0.000431,0.623957
5672000,0.0324,0.013523,0.002678,0.000431,0.626425
5673000,0.0324,0.013523,0.002678,0.000431,0.640881
5674000,0.0324,0.013523,0.002678,0.000431,0.620784
5675000,0.0324,0.013523,0.002678,0.000431,0.626425
5676000,0.0324,0.013523,0.002678,0.000431,0.611734
5677000,0.0324,0.013523,0.002678,0.000431,0.632772
5678000,0.0324,0.013523,0.002678,0.000431,0.654044
5679000,0.0324,0.013523,0.002678,0.000431,0.638178
5680000,0.0324,0.013523,0.002678,0.000431,0.637238
5681000,0.0324,0.013523,0.002678,0.000431,0.636533
5682000,0.0324,0.013523,0.002678,0.000431,0.626190
5683000,0.0324,0.013523,0.002678,0.000431,0.634065
5684000,0.0324,0.013523,0.002678,0.000431,0.635710
5685000,0.0324,0.013523,0.002678,0.000431,0.637590
5686000,0.0324,0.013523,0.002678,0.000431,0.634417
5687000,0.0324,0.013523,0.002678,0.000431,0.635357
5688000,0.0324,0.013523,0.002678,0.000431,0.630186
5689000,0.0324,0.013523,0.002678,0.000431,0.645935
5690000,0.0324,0.013523,0.002678,0.000431,0.632067
5691000,0.0324,0.013523,0.002678,0.000431,0.649813
5692000,0.0324,0.013523,0.002678,0.000431,0.657453
5693000,0.0324,0.013523,0.002678,0.000431,0.628541
5694000,0.0324,0.013523,0.002678,0.000431,0.644407
5695000,0.0324,0.013523,0.002678,0.000431,0.621607
5696000,0.0324,0.013523,0.002678,0.000431,0.627600
5697000,0.0324,0.013523,0.002678,0.000431,0.624310
5698000,0.0324,0.013523,0.002678,0.000431,0.630069
5699000,0.0324,0.013523,0.002678,0.000431,0.630186
5700000,0.0324,0.013523,0.002678,0.000431,0.622899
5701000,0.0324,0.013523,0.002678,0.000431,0.636650
5702000,0.0324,0.013523,0.002678,0.000431,0.620666
5703000,0.0324,0.013523,0.002678,0.000431,0.612322
5704000,0.0324,0.013523,0.002678,0.000431,0.633242
5705000,0.0324,0.013523,0.002678,0.000431,0.616318
5706000,0.0324,0.013523,0.002678,0.000431,0.626190
5707000,0.0324,0.013523,0.002678,0.000431,0.643232
5708000,0.0324,0.013523,0.002678,0.000431,0.615495
5709000,0.0324,0.013523,0.002678,0.000431,0.635710
5710000,0.0324,0.013523,0.002678,0.000431,0.638296
5711000,0.0324,0.013523,0.002678,0.000431,0.641116
5712000,0.0324,0.013523,0.002678,0.000431,0.643937
5713000,0.0324,0.013523,0.002678,0.000431,0.637825
5714000,0.0324,0.013523,0.002678,0.000431,0.622312
5715000,0.0324,0.013523,0.002678,0.000431,0.637473
5716000,0.0324,0.013523,0.002678,0.000431,0.638413
5717000,0.0324,0.013523,0.002678,0.000431,0.633007
5718000,0.0324,0.013523,0.002678,0.000431,0.617023
5719000,0.0324,0.013523,0.002678,0.000431,0.627600
5720000,0.0324,0.013523,0.002678,0.000431,0.627365
5721000,0.0324,0.013523,0.002678,0.000431,0.637590
5722000,0.0324,0.013523,0.002678,0.000431,0.627718
5723000,0.0324,0.013523,0.002678,0.000431,0.617728
5724000,0.0324,0.013523,0.002678,0.000431,0.642879
5725000,0.0324,0.013523,0.002678,0.000431,0.645935
5726000,0.0324,0.013523,0.002678,0.000431,0.641234
5727000,0.0324,0.013523,0.002678,0.000431,0.638178
5728000,0.0324,0.013523,0.002678,0.000431,0.634770
5729000,0.0324,0.013523,0.002678,0.000431,0.623722
5730000,0.0324,0.013523,0.002678,0.000431,0.643114
5731000,0.0324,0.013523,0.002678,0.000431,0.626660
5732000,0.0324,0.013523,0.002678,0.000431,0.632184
5733000,0.0324,0.013523,0.002678,0.000431,0.606680
5734000,0.0324,0.013523,0.002678,0.000431,0.625250
5735000,0.0324,0.013523,0.002678,0.000431,0.629716
5736000,0.0324,0.013523,0.002678,0.000431,0.629011
5737000,0.0324,0.013523,0.002678,0.000431,0.646640
5738000,0.0324,0.013523,0.002678,0.000431,0.618551
5739000,0.0324,0.013523,0.002678,0.000431,0.629598
5740000,0.0324,0.013523,0.002678,0.000431,0.619609
5741000,0.0324,0.013523,0.002678,0.000431,0.648285
5742000,0.0324,0.013523,0.002678,0.000431,0.634417
5743000,0.0324,0.013523,0.002678,0.000431,0.635475
5744000,0.0324,0.013523,0.002678,0.000431,0.626073
5745000,0.0324,0.013523,0.002678,0.000431,0.656160
5746000,0.0324,0.013523,0.002678,0.000431,0.633947
5747000,0.0324,0.013523,0.002678,0.000431,0.617963
5748000,0.0324,0.013523,0.002678,0.000431,0.632889
5749000,0.0324,0.013523,0.002678,0.000431,0.626425
5750000,0.0324,0.013523,0.002678,0.000431,0.641939
5751000,0.0324,0.013523,0.002678,0.000431,0.637355
5752000,0.0324,0.013523,0.002678,0.000431,0.629598
5753000,0.0324,0.013523,0.002678,0.000431,0.631244
5754000,0.0324,0.013523,0.002678,0.000431,0.635357
5755000,0.0324,0.013523,0.002678,0.000431,0.634182
5756000,0.0324,0.013523,0.002678,0.000431,0.647110
5757000,0.0324,0.013523,0.002678,0.000431,0.633242
5758000,0.0324,0.013523,0.002678,0.000431,0.629951
5759000,0.0324,0.013523,0.002678,0.000431,0.658158
5760000,0.0324,0.013523,0.002678,0.000431,0.645582
5761000,0.0324,0.013523,0.002678,0.000431,0.629951
5762000,0.0324,0.013523,0.002678,0.000431,0.631596
5763000,0.0324,0.013523,0.002678,0.000431,0.626425
5764000,0.0324,0.013523,0.002678,0.000431,0.643584
5765000,0.0324,0.013523,0.002678,0.000431,0.618198
5766000,0.0324,0.013523,0.002678,0.000431,0.648756
5767000,0.0324,0.013523,0.002678,0.000431,0.639118
5768000,0.0324,0.013523,0.002678,0.000431,0.621607
5769000,0.0324,0.013523,0.002678,0.000431,0.640999
5770000,0.0324,0.013523,0.002678,0.000431,0.640646
5771000,0.0324,0.013523,0.002678,0.000431,0.640411
5772000,0.0324,0.013523,0.002678,0.000431,0.646405
5773000,0.0324,0.013523,0.002678,0.000431,0.677197
5774000,0.0324,0.013523,0.002678,0.000431,0.634065
5775000,0.0324,0.013523,0.002678,0.000431,0.638061
5776000,0.0324,0.013523,0.002678,0.000431,0.628776
5777000,0.0324,0.013523,0.002678,0.000431,0.625015
5778000,0.0324,0.013523,0.002678,0.000431,0.645347
5779000,0.0324,0.013523,0.002678,0.000431,0.636650
5780000,0.0324,0.013523,0.002678,0.000431,0.635945
5781000,0.0324,0.013523,0.002678,0.000431,0.648168
5782000,0.0324,0.013523,0.002678,0.000431,0.615965
5783000,0.0324,0.013523,0.002678,0.000431,0.625603
5784000,0.0324,0.013523,0.002678,0.000431,0.646052
5785000,0.0324,0.013523,0.002678,0.000431,0.621019
5786000,0.0324,0.013523,0.002678,0.000431,0.625132
5787000,0.0324,0.013523,0.002678,0.000431,0.628541
5788000,0.0324,0.013523,0.002678,0.000431,0.646405
5789000,0.0324,0.013523,0.002678,0.000431,0.655455
5790000,0.0324,0.013523,0.002678,0.000431,0.649343
5791000,0.0324,0.013523,0.002678,0.000431,0.640176
5792000,0.0324,0.013523,0.002678,0.000431,0.636063
5793000,0.0324,0.013523,0.002678,0.000431,0.639706
5794000,0.0324,0.013523,0.002678,0.000431,0.628071
5795000,0.0324,0.013523,0.002678,0.000431,0.633947
5796000,0.0324,0.013523,0.002678,0.000431,0.615143
5797000,0.0324,0.013523,0.002678,0.000431,0.628306
5798000,0.0324,0.013523,0.002678,0.000431,0.619844
5799000,0.0324,0.013523,0.002678,0.000431,0.625132
5800000,0.0324,0.013523,0.002678,0.000431,0.625955
5801000,0.0324,0.013523,0.002678,0.000431,0.638883
5802000,0.0324,0.013523,0.002678,0.000431,0.629716
5803000,0.0324,0.013523,0.002678,0.000431,0.626308
5804000,0.0324,0.013523,0.002678,0.000431,0.620079
5805000,0.0324,0.013523,0.002678,0.000431,0.627365
5806000,0.0324,0.013523,0.002678,0.000431,0.630891
5807000,0.0324,0.013523,0.002678,0.000431,0.617023
5808000,0.0324,0.013523,0.002678,0.000431,0.623369
5809000,0.0324,0.013523,0.002678,0.000431,0.624192
5810000,0.0324,0.013523,0.002678,0.000431,0.622194
5811000,0.0324,0.013523,0.002678,0.000431,0.641939
5812000,0.0324,0.013523,0.002678,0.000431,0.646640
5813000,0.0324,0.013523,0.002678,0.000431,0.631479
5814000,0.0324,0.013523,0.002678,0.000431,0.646170
5815000,0.0324,0.013523,0.002678,0.000431,0.641469
5816000,0.0324,0.013523,0.002678,0.000431,0.630421
5817000,0.0324,0.013523,0.002678,0.000431,0.607973
5818000,0.0324,0.013523,0.002678,0.000431,0.634182
5819000,0.0324,0.013523,0.002678,0.000431,0.639941
5820000,0.0324,0.013523,0.002678,0.000431,0.639001
5821000,0.0324,0.013523,0.002678,0.000431,0.623957
5822000,0.0324,0.013523,0.002678,0.000431,0.624897
5823000,0.0324,0.013523,0.002678,0.000431,0.645230
5824000,0.0324,0.013523,0.002678,0.000431,0.629128
5825000,0.0324,0.013523,0.002678,0.000431,0.616670
5826000,0.0324,0.013523,0.002678,0.000431,0.614437
5827000,0.0324,0.013523,0.002678,0.000431,0.631009
5828000,0.0324,0.013523,0.002678,0.000431,0.632537
5829000,0.0324,0.013523,0.002678,0.000431,0.654397
5830000,0.0324,0.013523,0.002678,0.000431,0.621489
5831000,0.0324,0.013523,0.002678,0.000431,0.630891
5832000,0.0324,0.013523,0.002678,0.000431,0.622077
5833000,0.0324,0.013523,0.002678,0.000431,0.630891
5834000,0.0324,0.013523,0.002678,0.000431,0.621019
5835000,0.0324,0.013523,0.002678,0.000431,0.657453
5836000,0.0324,0.013523,0.002678,0.000431,0.629128
5837000,0.0324,0.013523,0.002678,0.000431,0.634417
5838000,0.0324,0.013523,0.002678,0.000431,0.630069
5839000,0.0324,0.013523,0.002678,0.000431,0.626073
5840000,0.0324,0.013523,0.002678,0.000431,0.630774
5841000,0.0324,0.013523,0.002678,0.000431,0.628423
5842000,0.0324,0.013523,0.002678,0.000431,0.633007
5843000,0.0324,0.013523,0.002678,0.000431,0.628658
5844000,0.0324,0.013523,0.002678,0.000431,0.624780
5845000,0.0324,0.013523,0.002678,0.000431,0.635357
5846000,0.0324,0.013523,0.002678,0.000431,0.649813
5847000,0.0324,0.013523,0.002678,0.000431,0.614202
5848000,0.0324,0.013523,0.002678,0.000431,0.643467
5849000,0.0324,0.013523,0.002678,0.000431,0.640058
5850000,0.0324,0.013523,0.002678,0.000431,0.646993
5851000,0.0324,0.013523,0.002678,0.000431,0.642997
5852000,0.0324,0.013523,0.002678,0.000431,0.604330
5853000,0.0324,0.013523,0.002678,0.000431,0.641116
5854000,0.0324,0.013523,0.002678,0.000431,0.633712
5855000,0.0324,0.013523,0.002678,0.000431,0.656512
5856000,0.0324,0.013523,0.002678,0.000431,0.639001
5857000,0.0324,0.013523,0.002678,0.000431,0.637590
5858000,0.0324,0.013523,0.002678,0.000431,0.624545
5859000,0.0324,0.013523,0.002678,0.000431,0.623840
5860000,0.0324,0.013523,0.002678,0.000431,0.632537
5861000,0.0324,0.013523,0.002678,0.000431,0.625132
5862000,0.0324,0.013523,0.002678,0.000431,0.620784
5863000,0.0324,0.013523,0.002678,0.000431,0.636063
5864000,0.0324,0.013523,0.002678,0.000431,0.634300
5865000,0.0324,0.013523,0.002678,0.000431,0.604800
5866000,0.0324,0.013523,0.002678,0.000431,0.636415
5867000,0.0324,0.013523,0.002678,0.000431,0.648521
5868000,0.0324,0.013523,0.002678,0.000431,0.642644
5869000,0.0324,0.013523,0.002678,0.000431,0.634652
5870000,0.0324,0.013523,0.002678,0.000431,0.638531
5871000,0.0324,0.013523,0.002678,0.000431,0.638883
5872000,0.0324,0.013523,0.002678,0.000431,0.635240
5873000,0.0324,0.013523,0.002678,0.000431,0.622547
5874000,0.0324,0.013523,0.002678,0.000431,0.637590
5875000,0.0324,0.013523,0.002678,0.000431,0.641116
5876000,0.0324,0.013523,0.002678,0.000431,0.631714
5877000,0.0324,0.013523,0.002678,0.000431,0.643349
5878000,0.0324,0.013523,0.002678,0.000431,0.614790
5879000,0.0324,0.013523,0.002678,0.000431,0.631596
5880000,0.0324,0.013523,0.002678,0.000431,0.631949
5881000,0.0324,0.013523,0.002678,0.000431,0.631714
5882000,0.0324,0.013523,0.002678,0.000431,0.624075
5883000,0.0324,0.013523,0.002678,0.000431,0.646640
5884000,0.0324,0.013523,0.002678,0.000431,0.631714
5885000,0.0324,0.013523,0.002678,0.000431,0.645817
5886000,0.0324,0.013523,0.002678,0.000431,0.645582
5887000,0.0324,0.013523,0.002678,0.000431,0.637943
5888000,0.0324,0.013523,0.002678,0.000431,0.647580
5889000,0.0324,0.013523,0.002678,0.000431,0.631244
5890000,0.0324,0.013523,0.002678,0.000431,0.616318
5891000,0.0324,0.013523,0.002678,0.000431,0.616200
5892000,0.0324,0.013523,0.002678,0.000431,0.645700
5893000,0.0324,0.013523,0.002678,0.000431,0.639706
5894000,0.0324,0.013523,0.002678,0.000431,0.644525
5895000,0.0324,0.013523,0.002678,0.000431,0.629481
5896000,0.0324,0.013523,0.002678,0.000431,0.638296
5897000,0.0324,0.013523,0.002678,0.000431,0.645700
5898000,0.0324,0.013523,0.002678,0.000431,0.631479
5899000,0.0324,0.013523,0.002678,0.000431,0.636885
5900000,0.0324,0.013523,0.002678,0.000431,0.644054
5901000,0.0324,0.013523,0.002678,0.000431,0.639588
5902000,0.0324,0.013523,0.002678,0.000431,0.651224
5903000,0.0324,0.013523,0.002678,0.000431,0.635005
5904000,0.0324,0.013523,0.002678,0.000431,0.616435
5905000,0.0324,0.013523,0.002678,0.000431,0.641234
5906000,0.0324,0.013523,0.002678,0.000431,0.657688
5907000,0.0324,0.013523,0.002678,0.000431,0.630656
5908000,0.0324,0.013523,0.002678,0.000431,0.637825
5909000,0.0324,0.013523,0.002678,0.000431,0.639001
5910000,0.0324,0.013523,0.002678,0.000431,0.638883
5911000,0.0324,0.013523,0.002678,0.000431,0.627953
5912000,0.0324,0.013523,0.002678,0.000431,0.617963
5913000,0.0324,0.013523,0.002678,0.000431,0.629246
5914000,0.0324,0.013523,0.002678,0.000431,0.649108
5915000,0.0324,0.013523,0.002678,0.000431,0.630186
5916000,0.0324,0.013523,0.002678,0.000431,0.638648
5917000,0.0324,0.013523,0.002678,0.000431,0.624780
5918000,0.0324,0.013523,0.002678,0.000431,0.612087
5919000,0.0324,0.013523,0.002678,0.000431,0.650283
5920000,0.0324,0.013523,0.002678,0.000431,0.645817
5921000,0.0324,0.013523,0.002678,0.000431,0.644642
5922000,0.0324,0.013523,0.002678,0.000431,0.634300
5923000,0.0324,0.013523,0.002678,0.000431,0.646405
5924000,0.0324,0.013523,0.002678,0.000431,0.654044
5925000,0.0324,0.013523,0.002678,0.000431,0.646758
5926000,0.0324,0.013523,0.002678,0.000431,0.630539
5927000,0.0324,0.013523,0.002678,0.000431,0.638766
5928000,0.0324,0.013523,0.002678,0.000431,0.625603
5929000,0.0324,0.013523,0.002678,0.000431,0.626895
5930000,0.0324,0.013523,0.002678,0.000431,0.640999
5931000,0.0324,0.013523,0.002678,0.000431,0.619609
5932000,0.0324,0.013523,0.002678,0.000431,0.648756
5933000,0.0324,0.013523,0.002678,0.000431,0.634652
5934000,0.0324,0.013523,0.002678,0.000431,0.639001
5935000,0.0324,0.013523,0.002678,0.000431,0.640646
5936000,0.0324,0.013523,0.002678,0.000431,0.652046
5937000,0.0324,0.013523,0.002678,0.000431,0.616788
5938000,0.0324,0.013523,0.002678,0.000431,0.648521
5939000,0.0324,0.013523,0.002678,0.000431,0.631949
5940000,0.0324,0.013523,0.002678,0.000431,0.641116
5941000,0.0324,0.013523,0.002678,0.000431,0.636885
5942000,0.0324,0.013523,0.002678,0.000431,0.633477
5943000,0.0324,0.013523,0.002678,0.000431,0.642292
5944000,0.0324,0.013523,0.002678,0.000431,0.631832
5945000,0.0324,0.013523,0.002678,0.000431,0.624075
5946000,0.0324,0.013523,0.002678,0.000431,0.646170
5947000,0.0324,0.013523,0.002678,0.000431,0.647463
5948000,0.0324,0.013523,0.002678,0.000431,0.625015
5949000,0.0324,0.013523,0.002678,0.000431,0.632184
5950000,0.0324,0.013523,0.002678,0.000431,0.632419
5951000,0.0324,0.013523,0.002678,0.000431,0.627130
5952000,0.0324,0.013523,0.002678,0.000431,0.635592
5953000,0.0324,0.013523,0.002678,0.000431,0.619961
5954000,0.0324,0.013523,0.002678,0.000431,0.642997
5955000,0.0324,0.013523,0.002678,0.000431,0.617376
5956000,0.0324,0.013523,0.002678,0.000431,0.605270
5957000,0.0324,0.013523,0.002678,0.000431,0.633007
5958000,0.0324,0.013523,0.002678,0.000431,0.627600
5959000,0.0324,0.013523,0.002678,0.000431,0.645700
5960000,0.0324,0.013523,0.002678,0.000431,0.642879
5961000,0.0324,0.013523,0.002678,0.000431,0.646875
5962000,0.0324,0.013523,0.002678,0.000431,0.628893
5963000,0.0324,0.013523,0.002678,0.000431,0.616788
5964000,0.0324,0.013523,0.002678,0.000431,0.626778
5965000,0.0324,0.013523,0.002678,0.000431,0.637708
5966000,0.0324,0.013523,0.002678,0.000431,0.649343
5967000,0.0324,0.013523,0.002678,0.000431,0.629363
5968000,0.0324,0.013523,0.002678,0.000431,0.636180
5969000,0.0324,0.013523,0.002678,0.000431,0.651224
5970000,0.0324,0.013523,0.002678,0.000431,0.635945
5971000,0.0324,0.013523,0.002678,0.000431,0.634417
5972000,0.0324,0.013523,0.002678,0.000431,0.629011
5973000,0.0324,0.013523,0.002678,0.000431,0.628188
5974000,0.0324,0.013523,0.002678,0.000431,0.634182
5975000,0.0324,0.013523,0.002678,0.000431,0.627483
5976000,0.0324,0.013523,0.002678,0.000431,0.615260
5977000,0.0324,0.013523,0.002678,0.000431,0.644642
5978000,0.0324,0.013523,0.002678,0.000431,0.634300
5979000,0.0324,0.013523,0.002678,0.000431,0.639471
5980000,0.0324,0.013523,0.002678,0.000431,0.641586
5981000,0.0324,0.013523,0.002678,0.000431,0.626073
5982000,0.0324,0.013523,0.002678,0.000431,0.631596
5983000,0.0324,0.013523,0.002678,0.000431,0.646287
5984000,0.0324,0.013523,0.002678,0.000431,0.637708
5985000,0.0324,0.013523,0.002678,0.000431,0.637943
5986000,0.0324,0.013523,0.002678,0.000431,0.640411
5987000,0.0324,0.013523,0.002678,0.000431,0.644642
5988000,0.0324,0.013523,0.002678,0.000431,0.639118
5989000,0.0324,0.013523,0.002678,0.000431,0.637003
5990000,0.0324,0.013523,0.002678,0.000431,0.643819
5991000,0.0324,0.013523,0.002678,0.000431,0.646640
5992000,0.0324,0.013523,0.002678,0.000431,0.644642
5993000,0.0324,0.013523,0.002678,0.000431,0.636650
5994000,0.0324,0.013523,0.002678,0.000431,0.612792
5995000,0.0324,0.013523,0.002678,0.000431,0.645465
5996000,0.0324,0.013523,0.002678,0.000431,0.637825
5997000,0.0324,0.013523,0.002678,0.000431,0.638648
5998000,0.0324,0.013523,0.002678,0.000431,0.651694
5999000,0.0324,0.013523,0.002678,0.000431,0.625015
