Cycle,Area(mm^2),PeakDynamic(W),SubthresholdLeakage(W),GateLeakage(W),RunTimeDynamic(W)
4000000,0.0324,0.013523,0.002678,0.000431,0.641821
4001000,0.0324,0.013523,0.002678,0.000431,0.648521
4002000,0.0324,0.013523,0.002678,0.000431,0.663329
4003000,0.0324,0.013523,0.002678,0.000431,0.659803
4004000,0.0324,0.013523,0.002678,0.000431,0.668265
4005000,0.0324,0.013523,0.002678,0.000431,0.652281
4006000,0.0324,0.013523,0.002678,0.000431,0.640646
4007000,0.0324,0.013523,0.002678,0.000431,0.643232
4008000,0.0324,0.013523,0.002678,0.000431,0.651811
4009000,0.0324,0.013523,0.002678,0.000431,0.648168
4010000,0.0324,0.013523,0.002678,0.000431,0.682721
4011000,0.0324,0.013523,0.002678,0.000431,0.648638
4012000,0.0324,0.013523,0.002678,0.000431,0.672379
4013000,0.0324,0.013523,0.002678,0.000431,0.661331
4014000,0.0324,0.013523,0.002678,0.000431,0.663329
4015000,0.0324,0.013523,0.002678,0.000431,0.670733
4016000,0.0324,0.013523,0.002678,0.000431,0.653692
4017000,0.0324,0.013523,0.002678,0.000431,0.675434
4018000,0.0324,0.013523,0.002678,0.000431,0.663447
4019000,0.0324,0.013523,0.002678,0.000431,0.643114
4020000,0.0324,0.013523,0.002678,0.000431,0.634065
4021000,0.0324,0.013523,0.002678,0.000431,0.650166
4022000,0.0324,0.013523,0.002678,0.000431,0.643584
4023000,0.0324,0.013523,0.002678,0.000431,0.649343
4024000,0.0324,0.013523,0.002678,0.000431,0.663682
4025000,0.0324,0.013523,0.002678,0.000431,0.666267
4026000,0.0324,0.013523,0.002678,0.000431,0.655572
4027000,0.0324,0.013523,0.002678,0.000431,0.658510
4028000,0.0324,0.013523,0.002678,0.000431,0.680371
4029000,0.0324,0.013523,0.002678,0.000431,0.692594
4030000,0.0324,0.013523,0.002678,0.000431,0.681546
4031000,0.0324,0.013523,0.002678,0.000431,0.645347
4032000,0.0324,0.013523,0.002678,0.000431,0.649343
4033000,0.0324,0.013523,0.002678,0.000431,0.646875
4034000,0.0324,0.013523,0.002678,0.000431,0.670498
4035000,0.0324,0.013523,0.002678,0.000431,0.687540
4036000,0.0324,0.013523,0.002678,0.000431,0.667325
4037000,0.0324,0.013523,0.002678,0.000431,0.652869
4038000,0.0324,0.013523,0.002678,0.000431,0.653222
4039000,0.0324,0.013523,0.002678,0.000431,0.681076
4040000,0.0324,0.013523,0.002678,0.000431,0.658863
4041000,0.0324,0.013523,0.002678,0.000431,0.648168
4042000,0.0324,0.013523,0.002678,0.000431,0.643114
4043000,0.0324,0.013523,0.002678,0.000431,0.663564
4044000,0.0324,0.013523,0.002678,0.000431,0.649578
4045000,0.0324,0.013523,0.002678,0.000431,0.657453
4046000,0.0324,0.013523,0.002678,0.000431,0.630656
4047000,0.0324,0.013523,0.002678,0.000431,0.658981
4048000,0.0324,0.013523,0.002678,0.000431,0.644407
4049000,0.0324,0.013523,0.002678,0.000431,0.644877
4050000,0.0324,0.013523,0.002678,0.000431,0.651929
4051000,0.0324,0.013523,0.002678,0.000431,0.633007
4052000,0.0324,0.013523,0.002678,0.000431,0.674259
4053000,0.0324,0.013523,0.002678,0.000431,0.642056
4054000,0.0324,0.013523,0.002678,0.000431,0.678373
4055000,0.0324,0.013523,0.002678,0.000431,0.665092
4056000,0.0324,0.013523,0.002678,0.000431,0.645700
4057000,0.0324,0.013523,0.002678,0.000431,0.659686
4058000,0.0324,0.013523,0.002678,0.000431,0.634887
4059000,0.0324,0.013523,0.002678,0.000431,0.643702
4060000,0.0324,0.013523,0.002678,0.000431,0.618668
4061000,0.0324,0.013523,0.002678,0.000431,0.632537
4062000,0.0324,0.013523,0.002678,0.000431,0.647463
4063000,0.0324,0.013523,0.002678,0.000431,0.640529
4064000,0.0324,0.013523,0.002678,0.000431,0.647228
4065000,0.0324,0.013523,0.002678,0.000431,0.652281
4066000,0.0324,0.013523,0.002678,0.000431,0.655337
4067000,0.0324,0.013523,0.002678,0.000431,0.647463
4068000,0.0324,0.013523,0.002678,0.000431,0.644407
4069000,0.0324,0.013523,0.002678,0.000431,0.603625
4070000,0.0324,0.013523,0.002678,0.000431,0.645465
4071000,0.0324,0.013523,0.002678,0.000431,0.630656
4072000,0.0324,0.013523,0.002678,0.000431,0.634300
4073000,0.0324,0.013523,0.002678,0.000431,0.628658
4074000,0.0324,0.013523,0.002678,0.000431,0.657923
4075000,0.0324,0.013523,0.002678,0.000431,0.636533
4076000,0.0324,0.013523,0.002678,0.000431,0.656630
4077000,0.0324,0.013523,0.002678,0.000431,0.654514
4078000,0.0324,0.013523,0.002678,0.000431,0.634182
4079000,0.0324,0.013523,0.002678,0.000431,0.643232
4080000,0.0324,0.013523,0.002678,0.000431,0.643819
4081000,0.0324,0.013523,0.002678,0.000431,0.637355
4082000,0.0324,0.013523,0.002678,0.000431,0.643819
4083000,0.0324,0.013523,0.002678,0.000431,0.648991
4084000,0.0324,0.013523,0.002678,0.000431,0.615025
4085000,0.0324,0.013523,0.002678,0.000431,0.682839
4086000,0.0324,0.013523,0.002678,0.000431,0.658275
4087000,0.0324,0.013523,0.002678,0.000431,0.686835
4088000,0.0324,0.013523,0.002678,0.000431,0.662036
4089000,0.0324,0.013523,0.002678,0.000431,0.656747
4090000,0.0324,0.013523,0.002678,0.000431,0.670263
4091000,0.0324,0.013523,0.002678,0.000431,0.627718
4092000,0.0324,0.013523,0.002678,0.000431,0.657570
4093000,0.0324,0.013523,0.002678,0.000431,0.652281
4094000,0.0324,0.013523,0.002678,0.000431,0.639588
4095000,0.0324,0.013523,0.002678,0.000431,0.655572
4096000,0.0324,0.013523,0.002678,0.000431,0.670968
4097000,0.0324,0.013523,0.002678,0.000431,0.657570
4098000,0.0324,0.013523,0.002678,0.000431,0.718685
4099000,0.0324,0.013523,0.002678,0.000431,0.638061
4100000,0.0324,0.013523,0.002678,0.000431,0.662741
4101000,0.0324,0.013523,0.002678,0.000431,0.640881
4102000,0.0324,0.013523,0.002678,0.000431,0.663212
4103000,0.0324,0.013523,0.002678,0.000431,0.637355
4104000,0.0324,0.013523,0.002678,0.000431,0.633007
4105000,0.0324,0.013523,0.002678,0.000431,0.637238
4106000,0.0324,0.013523,0.002678,0.000431,0.689655
4107000,0.0324,0.013523,0.002678,0.000431,0.656160
4108000,0.0324,0.013523,0.002678,0.000431,0.645935
4109000,0.0324,0.013523,0.002678,0.000431,0.651459
4110000,0.0324,0.013523,0.002678,0.000431,0.652869
4111000,0.0324,0.013523,0.002678,0.000431,0.626308
4112000,0.0324,0.013523,0.002678,0.000431,0.636650
4113000,0.0324,0.013523,0.002678,0.000431,0.646993
4114000,0.0324,0.013523,0.002678,0.000431,0.634417
4115000,0.0324,0.013523,0.002678,0.000431,0.646523
4116000,0.0324,0.013523,0.002678,0.000431,0.657453
4117000,0.0324,0.013523,0.002678,0.000431,0.642762
4118000,0.0324,0.013523,0.002678,0.000431,0.648050
4119000,0.0324,0.013523,0.002678,0.000431,0.673319
4120000,0.0324,0.013523,0.002678,0.000431,0.653574
4121000,0.0324,0.013523,0.002678,0.000431,0.671556
4122000,0.0324,0.013523,0.002678,0.000431,0.671556
4123000,0.0324,0.013523,0.002678,0.000431,0.652046
4124000,0.0324,0.013523,0.002678,0.000431,0.678490
4125000,0.0324,0.013523,0.002678,0.000431,0.660861
4126000,0.0324,0.013523,0.002678,0.000431,0.656277
4127000,0.0324,0.013523,0.002678,0.000431,0.646758
4128000,0.0324,0.013523,0.002678,0.000431,0.680018
4129000,0.0324,0.013523,0.002678,0.000431,0.648285
4130000,0.0324,0.013523,0.002678,0.000431,0.666385
4131000,0.0324,0.013523,0.002678,0.000431,0.661801
4132000,0.0324,0.013523,0.002678,0.000431,0.651224
4133000,0.0324,0.013523,0.002678,0.000431,0.630539
4134000,0.0324,0.013523,0.002678,0.000431,0.634300
4135000,0.0324,0.013523,0.002678,0.000431,0.635710
4136000,0.0324,0.013523,0.002678,0.000431,0.641586
4137000,0.0324,0.013523,0.002678,0.000431,0.637120
4138000,0.0324,0.013523,0.002678,0.000431,0.664622
4139000,0.0324,0.013523,0.002678,0.000431,0.642997
4140000,0.0324,0.013523,0.002678,0.000431,0.646170
4141000,0.0324,0.013523,0.002678,0.000431,0.641351
4142000,0.0324,0.013523,0.002678,0.000431,0.623957
4143000,0.0324,0.013523,0.002678,0.000431,0.644525
4144000,0.0324,0.013523,0.002678,0.000431,0.649108
4145000,0.0324,0.013523,0.002678,0.000431,0.673084
4146000,0.0324,0.013523,0.002678,0.000431,0.630891
4147000,0.0324,0.013523,0.002678,0.000431,0.641116
4148000,0.0324,0.013523,0.002678,0.000431,0.645817
4149000,0.0324,0.013523,0.002678,0.000431,0.646640
4150000,0.0324,0.013523,0.002678,0.000431,0.649931
4151000,0.0324,0.013523,0.002678,0.000431,0.663329
4152000,0.0324,0.013523,0.002678,0.000431,0.668383
4153000,0.0324,0.013523,0.002678,0.000431,0.648285
4154000,0.0324,0.013523,0.002678,0.000431,0.647698
4155000,0.0324,0.013523,0.002678,0.000431,0.651811
4156000,0.0324,0.013523,0.002678,0.000431,0.653809
4157000,0.0324,0.013523,0.002678,0.000431,0.651576
4158000,0.0324,0.013523,0.002678,0.000431,0.634182
4159000,0.0324,0.013523,0.002678,0.000431,0.658863
4160000,0.0324,0.013523,0.002678,0.000431,0.628071
4161000,0.0324,0.013523,0.002678,0.000431,0.673554
4162000,0.0324,0.013523,0.002678,0.000431,0.640176
4163000,0.0324,0.013523,0.002678,0.000431,0.637708
4164000,0.0324,0.013523,0.002678,0.000431,0.661566
4165000,0.0324,0.013523,0.002678,0.000431,0.634770
4166000,0.0324,0.013523,0.002678,0.000431,0.650401
4167000,0.0324,0.013523,0.002678,0.000431,0.656277
4168000,0.0324,0.013523,0.002678,0.000431,0.666267
4169000,0.0324,0.013523,0.002678,0.000431,0.648638
4170000,0.0324,0.013523,0.002678,0.000431,0.646287
4171000,0.0324,0.013523,0.002678,0.000431,0.641821
4172000,0.0324,0.013523,0.002678,0.000431,0.668618
4173000,0.0324,0.013523,0.002678,0.000431,0.654632
4174000,0.0324,0.013523,0.002678,0.000431,0.649578
4175000,0.0324,0.013523,0.002678,0.000431,0.640058
4176000,0.0324,0.013523,0.002678,0.000431,0.641586
4177000,0.0324,0.013523,0.002678,0.000431,0.637238
4178000,0.0324,0.013523,0.002678,0.000431,0.658275
4179000,0.0324,0.013523,0.002678,0.000431,0.656865
4180000,0.0324,0.013523,0.002678,0.000431,0.632419
4181000,0.0324,0.013523,0.002678,0.000431,0.619726
4182000,0.0324,0.013523,0.002678,0.000431,0.625838
4183000,0.0324,0.013523,0.002678,0.000431,0.617023
4184000,0.0324,0.013523,0.002678,0.000431,0.637238
4185000,0.0324,0.013523,0.002678,0.000431,0.634417
4186000,0.0324,0.013523,0.002678,0.000431,0.629951
4187000,0.0324,0.013523,0.002678,0.000431,0.680136
4188000,0.0324,0.013523,0.002678,0.000431,0.650283
4189000,0.0324,0.013523,0.002678,0.000431,0.658393
4190000,0.0324,0.013523,0.002678,0.000431,0.657923
4191000,0.0324,0.013523,0.002678,0.000431,0.686482
4192000,0.0324,0.013523,0.002678,0.000431,0.621724
4193000,0.0324,0.013523,0.002678,0.000431,0.642174
4194000,0.0324,0.013523,0.002678,0.000431,0.634065
4195000,0.0324,0.013523,0.002678,0.000431,0.632654
4196000,0.0324,0.013523,0.002678,0.000431,0.654162
4197000,0.0324,0.013523,0.002678,0.000431,0.654985
4198000,0.0324,0.013523,0.002678,0.000431,0.649931
4199000,0.0324,0.013523,0.002678,0.000431,0.678138
4200000,0.0324,0.013523,0.002678,0.000431,0.678020
4201000,0.0324,0.013523,0.002678,0.000431,0.650283
4202000,0.0324,0.013523,0.002678,0.000431,0.639823
4203000,0.0324,0.013523,0.002678,0.000431,0.650048
4204000,0.0324,0.013523,0.002678,0.000431,0.630774
4205000,0.0324,0.013523,0.002678,0.000431,0.646287
4206000,0.0324,0.013523,0.002678,0.000431,0.675082
4207000,0.0324,0.013523,0.002678,0.000431,0.682369
4208000,0.0324,0.013523,0.002678,0.000431,0.652046
4209000,0.0324,0.013523,0.002678,0.000431,0.667207
4210000,0.0324,0.013523,0.002678,0.000431,0.671674
4211000,0.0324,0.013523,0.002678,0.000431,0.637355
4212000,0.0324,0.013523,0.002678,0.000431,0.658393
4213000,0.0324,0.013523,0.002678,0.000431,0.684837
4214000,0.0324,0.013523,0.002678,0.000431,0.667090
4215000,0.0324,0.013523,0.002678,0.000431,0.687775
4216000,0.0324,0.013523,0.002678,0.000431,0.711516
4217000,0.0324,0.013523,0.002678,0.000431,0.643467
4218000,0.0324,0.013523,0.002678,0.000431,0.651459
4219000,0.0324,0.013523,0.002678,0.000431,0.639118
4220000,0.0324,0.013523,0.002678,0.000431,0.656277
4221000,0.0324,0.013523,0.002678,0.000431,0.621489
4222000,0.0324,0.013523,0.002678,0.000431,0.634652
4223000,0.0324,0.013523,0.002678,0.000431,0.698823
4224000,0.0324,0.013523,0.002678,0.000431,0.623840
4225000,0.0324,0.013523,0.002678,0.000431,0.654044
4226000,0.0324,0.013523,0.002678,0.000431,0.650871
4227000,0.0324,0.013523,0.002678,0.000431,0.653222
4228000,0.0324,0.013523,0.002678,0.000431,0.667090
4229000,0.0324,0.013523,0.002678,0.000431,0.663682
4230000,0.0324,0.013523,0.002678,0.000431,0.660508
4231000,0.0324,0.013523,0.002678,0.000431,0.655102
4232000,0.0324,0.013523,0.002678,0.000431,0.669558
4233000,0.0324,0.013523,0.002678,0.000431,0.636533
4234000,0.0324,0.013523,0.002678,0.000431,0.653927
4235000,0.0324,0.013523,0.002678,0.000431,0.666972
4236000,0.0324,0.013523,0.002678,0.000431,0.636533
4237000,0.0324,0.013523,0.002678,0.000431,0.683191
4238000,0.0324,0.013523,0.002678,0.000431,0.645935
4239000,0.0324,0.013523,0.002678,0.000431,0.666267
4240000,0.0324,0.013523,0.002678,0.000431,0.712926
4241000,0.0324,0.013523,0.002678,0.000431,0.726677
4242000,0.0324,0.013523,0.002678,0.000431,0.718802
4243000,0.0324,0.013523,0.002678,0.000431,0.666385
4244000,0.0324,0.013523,0.002678,0.000431,0.650283
4245000,0.0324,0.013523,0.002678,0.000431,0.686717
4246000,0.0324,0.013523,0.002678,0.000431,0.664622
4247000,0.0324,0.013523,0.002678,0.000431,0.634652
4248000,0.0324,0.013523,0.002678,0.000431,0.647580
4249000,0.0324,0.013523,0.002678,0.000431,0.640881
4250000,0.0324,0.013523,0.002678,0.000431,0.630774
4251000,0.0324,0.013523,0.002678,0.000431,0.659803
4252000,0.0324,0.013523,0.002678,0.000431,0.659451
4253000,0.0324,0.013523,0.002678,0.000431,0.639471
4254000,0.0324,0.013523,0.002678,0.000431,0.649696
4255000,0.0324,0.013523,0.002678,0.000431,0.655572
4256000,0.0324,0.013523,0.002678,0.000431,0.650989
4257000,0.0324,0.013523,0.002678,0.000431,0.642409
4258000,0.0324,0.013523,0.002678,0.000431,0.658158
4259000,0.0324,0.013523,0.002678,0.000431,0.636533
4260000,0.0324,0.013523,0.002678,0.000431,0.644760
4261000,0.0324,0.013523,0.002678,0.000431,0.623840
4262000,0.0324,0.013523,0.002678,0.000431,0.626308
4263000,0.0324,0.013523,0.002678,0.000431,0.652399
4264000,0.0324,0.013523,0.002678,0.000431,0.634887
4265000,0.0324,0.013523,0.002678,0.000431,0.656277
4266000,0.0324,0.013523,0.002678,0.000431,0.664622
4267000,0.0324,0.013523,0.002678,0.000431,0.658981
4268000,0.0324,0.013523,0.002678,0.000431,0.642056
4269000,0.0324,0.013523,0.002678,0.000431,0.661919
4270000,0.0324,0.013523,0.002678,0.000431,0.639588
4271000,0.0324,0.013523,0.002678,0.000431,0.651811
4272000,0.0324,0.013523,0.002678,0.000431,0.641469
4273000,0.0324,0.013523,0.002678,0.000431,0.659921
4274000,0.0324,0.013523,0.002678,0.000431,0.655220
4275000,0.0324,0.013523,0.002678,0.000431,0.641821
4276000,0.0324,0.013523,0.002678,0.000431,0.647463
4277000,0.0324,0.013523,0.002678,0.000431,0.655220
4278000,0.0324,0.013523,0.002678,0.000431,0.638413
4279000,0.0324,0.013523,0.002678,0.000431,0.637003
4280000,0.0324,0.013523,0.002678,0.000431,0.677785
4281000,0.0324,0.013523,0.002678,0.000431,0.652164
4282000,0.0324,0.013523,0.002678,0.000431,0.659333
4283000,0.0324,0.013523,0.002678,0.000431,0.646640
4284000,0.0324,0.013523,0.002678,0.000431,0.659216
4285000,0.0324,0.013523,0.002678,0.000431,0.645347
4286000,0.0324,0.013523,0.002678,0.000431,0.644877
4287000,0.0324,0.013523,0.002678,0.000431,0.649226
4288000,0.0324,0.013523,0.002678,0.000431,0.667795
4289000,0.0324,0.013523,0.002678,0.000431,0.658510
4290000,0.0324,0.013523,0.002678,0.000431,0.679901
4291000,0.0324,0.013523,0.002678,0.000431,0.649108
4292000,0.0324,0.013523,0.002678,0.000431,0.700350
4293000,0.0324,0.013523,0.002678,0.000431,0.642644
4294000,0.0324,0.013523,0.002678,0.000431,0.639706
4295000,0.0324,0.013523,0.002678,0.000431,0.651106
4296000,0.0324,0.013523,0.002678,0.000431,0.683779
4297000,0.0324,0.013523,0.002678,0.000431,0.662624
4298000,0.0324,0.013523,0.002678,0.000431,0.659333
4299000,0.0324,0.013523,0.002678,0.000431,0.642997
4300000,0.0324,0.013523,0.002678,0.000431,0.658510
4301000,0.0324,0.013523,0.002678,0.000431,0.634182
4302000,0.0324,0.013523,0.002678,0.000431,0.633242
4303000,0.0324,0.013523,0.002678,0.000431,0.668618
4304000,0.0324,0.013523,0.002678,0.000431,0.660038
4305000,0.0324,0.013523,0.002678,0.000431,0.651576
4306000,0.0324,0.013523,0.002678,0.000431,0.654279
4307000,0.0324,0.013523,0.002678,0.000431,0.655690
4308000,0.0324,0.013523,0.002678,0.000431,0.692829
4309000,0.0324,0.013523,0.002678,0.000431,0.684954
4310000,0.0324,0.013523,0.002678,0.000431,0.655220
4311000,0.0324,0.013523,0.002678,0.000431,0.702348
4312000,0.0324,0.013523,0.002678,0.000431,0.683779
4313000,0.0324,0.013523,0.002678,0.000431,0.695532
4314000,0.0324,0.013523,0.002678,0.000431,0.644054
4315000,0.0324,0.013523,0.002678,0.000431,0.629128
4316000,0.0324,0.013523,0.002678,0.000431,0.643349
4317000,0.0324,0.013523,0.002678,0.000431,0.638648
4318000,0.0324,0.013523,0.002678,0.000431,0.642056
4319000,0.0324,0.013523,0.002678,0.000431,0.680723
4320000,0.0324,0.013523,0.002678,0.000431,0.647580
4321000,0.0324,0.013523,0.002678,0.000431,0.642879
4322000,0.0324,0.013523,0.002678,0.000431,0.652869
4323000,0.0324,0.013523,0.002678,0.000431,0.659803
4324000,0.0324,0.013523,0.002678,0.000431,0.654162
4325000,0.0324,0.013523,0.002678,0.000431,0.655102
4326000,0.0324,0.013523,0.002678,0.000431,0.650871
4327000,0.0324,0.013523,0.002678,0.000431,0.675552
4328000,0.0324,0.013523,0.002678,0.000431,0.651811
4329000,0.0324,0.013523,0.002678,0.000431,0.645112
4330000,0.0324,0.013523,0.002678,0.000431,0.646523
4331000,0.0324,0.013523,0.002678,0.000431,0.656277
4332000,0.0324,0.013523,0.002678,0.000431,0.652281
4333000,0.0324,0.013523,0.002678,0.000431,0.644407
4334000,0.0324,0.013523,0.002678,0.000431,0.639471
4335000,0.0324,0.013523,0.002678,0.000431,0.650636
4336000,0.0324,0.013523,0.002678,0.000431,0.648403
4337000,0.0324,0.013523,0.002678,0.000431,0.654867
4338000,0.0324,0.013523,0.002678,0.000431,0.668735
4339000,0.0324,0.013523,0.002678,0.000431,0.642056
4340000,0.0324,0.013523,0.002678,0.000431,0.647580
4341000,0.0324,0.013523,0.002678,0.000431,0.652752
4342000,0.0324,0.013523,0.002678,0.000431,0.689773
4343000,0.0324,0.013523,0.002678,0.000431,0.676962
4344000,0.0324,0.013523,0.002678,0.000431,0.741015
4345000,0.0324,0.013523,0.002678,0.000431,0.683074
4346000,0.0324,0.013523,0.002678,0.000431,0.673436
4347000,0.0324,0.013523,0.002678,0.000431,0.637120
4348000,0.0324,0.013523,0.002678,0.000431,0.654985
4349000,0.0324,0.013523,0.002678,0.000431,0.636298
4350000,0.0324,0.013523,0.002678,0.000431,0.667443
4351000,0.0324,0.013523,0.002678,0.000431,0.635357
4352000,0.0324,0.013523,0.002678,0.000431,0.645465
4353000,0.0324,0.013523,0.002678,0.000431,0.674024
4354000,0.0324,0.013523,0.002678,0.000431,0.642644
4355000,0.0324,0.013523,0.002678,0.000431,0.659098
4356000,0.0324,0.013523,0.002678,0.000431,0.632419
4357000,0.0324,0.013523,0.002678,0.000431,0.678255
4358000,0.0324,0.013523,0.002678,0.000431,0.669793
4359000,0.0324,0.013523,0.002678,0.000431,0.695414
4360000,0.0324,0.013523,0.002678,0.000431,0.651106
4361000,0.0324,0.013523,0.002678,0.000431,0.632889
4362000,0.0324,0.013523,0.002678,0.000431,0.636063
4363000,0.0324,0.013523,0.002678,0.000431,0.680253
4364000,0.0324,0.013523,0.002678,0.000431,0.655572
4365000,0.0324,0.013523,0.002678,0.000431,0.635710
4366000,0.0324,0.013523,0.002678,0.000431,0.627013
4367000,0.0324,0.013523,0.002678,0.000431,0.615260
4368000,0.0324,0.013523,0.002678,0.000431,0.642879
4369000,0.0324,0.013523,0.002678,0.000431,0.644995
4370000,0.0324,0.013523,0.002678,0.000431,0.645112
4371000,0.0324,0.013523,0.002678,0.000431,0.671909
4372000,0.0324,0.013523,0.002678,0.000431,0.662271
4373000,0.0324,0.013523,0.002678,0.000431,0.686365
4374000,0.0324,0.013523,0.002678,0.000431,0.645112
4375000,0.0324,0.013523,0.002678,0.000431,0.661801
4376000,0.0324,0.013523,0.002678,0.000431,0.639001
4377000,0.0324,0.013523,0.002678,0.000431,0.649226
4378000,0.0324,0.013523,0.002678,0.000431,0.654750
4379000,0.0324,0.013523,0.002678,0.000431,0.676845
4380000,0.0324,0.013523,0.002678,0.000431,0.647933
4381000,0.0324,0.013523,0.002678,0.000431,0.690713
4382000,0.0324,0.013523,0.002678,0.000431,0.679195
4383000,0.0324,0.013523,0.002678,0.000431,0.628188
4384000,0.0324,0.013523,0.002678,0.000431,0.639823
4385000,0.0324,0.013523,0.002678,0.000431,0.652752
4386000,0.0324,0.013523,0.002678,0.000431,0.660273
4387000,0.0324,0.013523,0.002678,0.000431,0.621842
4388000,0.0324,0.013523,0.002678,0.000431,0.651811
4389000,0.0324,0.013523,0.002678,0.000431,0.625485
4390000,0.0324,0.013523,0.002678,0.000431,0.638531
4391000,0.0324,0.013523,0.002678,0.000431,0.615965
4392000,0.0324,0.013523,0.002678,0.000431,0.623017
4393000,0.0324,0.013523,0.002678,0.000431,0.626308
4394000,0.0324,0.013523,0.002678,0.000431,0.654397
4395000,0.0324,0.013523,0.002678,0.000431,0.668148
4396000,0.0324,0.013523,0.002678,0.000431,0.631009
4397000,0.0324,0.013523,0.002678,0.000431,0.658040
4398000,0.0324,0.013523,0.002678,0.000431,0.659921
4399000,0.0324,0.013523,0.002678,0.000431,0.649813
4400000,0.0324,0.013523,0.002678,0.000431,0.639588
4401000,0.0324,0.013523,0.002678,0.000431,0.656160
4402000,0.0324,0.013523,0.002678,0.000431,0.670263
4403000,0.0324,0.013523,0.002678,0.000431,0.661214
4404000,0.0324,0.013523,0.002678,0.000431,0.632889
4405000,0.0324,0.013523,0.002678,0.000431,0.647815
4406000,0.0324,0.013523,0.002678,0.000431,0.640058
4407000,0.0324,0.013523,0.002678,0.000431,0.667207
4408000,0.0324,0.013523,0.002678,0.000431,0.635005
4409000,0.0324,0.013523,0.002678,0.000431,0.637708
4410000,0.0324,0.013523,0.002678,0.000431,0.634887
4411000,0.0324,0.013523,0.002678,0.000431,0.651576
4412000,0.0324,0.013523,0.002678,0.000431,0.631479
4413000,0.0324,0.013523,0.002678,0.000431,0.623722
4414000,0.0324,0.013523,0.002678,0.000431,0.700233
4415000,0.0324,0.013523,0.002678,0.000431,0.638766
4416000,0.0324,0.013523,0.002678,0.000431,0.631361
4417000,0.0324,0.013523,0.002678,0.000431,0.637355
4418000,0.0324,0.013523,0.002678,0.000431,0.670968
4419000,0.0324,0.013523,0.002678,0.000431,0.653457
4420000,0.0324,0.013523,0.002678,0.000431,0.643349
4421000,0.0324,0.013523,0.002678,0.000431,0.658393
4422000,0.0324,0.013523,0.002678,0.000431,0.667913
4423000,0.0324,0.013523,0.002678,0.000431,0.684484
4424000,0.0324,0.013523,0.002678,0.000431,0.640411
4425000,0.0324,0.013523,0.002678,0.000431,0.653104
4426000,0.0324,0.013523,0.002678,0.000431,0.656630
4427000,0.0324,0.013523,0.002678,0.000431,0.638883
4428000,0.0324,0.013523,0.002678,0.000431,0.653927
4429000,0.0324,0.013523,0.002678,0.000431,0.636180
4430000,0.0324,0.013523,0.002678,0.000431,0.645230
4431000,0.0324,0.013523,0.002678,0.000431,0.632889
4432000,0.0324,0.013523,0.002678,0.000431,0.638766
4433000,0.0324,0.013523,0.002678,0.000431,0.660508
4434000,0.0324,0.013523,0.002678,0.000431,0.666267
4435000,0.0324,0.013523,0.002678,0.000431,0.649461
4436000,0.0324,0.013523,0.002678,0.000431,0.635122
4437000,0.0324,0.013523,0.002678,0.000431,0.667325
4438000,0.0324,0.013523,0.002678,0.000431,0.672731
4439000,0.0324,0.013523,0.002678,0.000431,0.657453
4440000,0.0324,0.013523,0.002678,0.000431,0.633359
4441000,0.0324,0.013523,0.002678,0.000431,0.648638
4442000,0.0324,0.013523,0.002678,0.000431,0.657923
4443000,0.0324,0.013523,0.002678,0.000431,0.640646
4444000,0.0324,0.013523,0.002678,0.000431,0.647580
4445000,0.0324,0.013523,0.002678,0.000431,0.623134
4446000,0.0324,0.013523,0.002678,0.000431,0.647345
4447000,0.0324,0.013523,0.002678,0.000431,0.690478
4448000,0.0324,0.013523,0.002678,0.000431,0.690713
4449000,0.0324,0.013523,0.002678,0.000431,0.691653
4450000,0.0324,0.013523,0.002678,0.000431,0.671086
4451000,0.0324,0.013523,0.002678,0.000431,0.698470
4452000,0.0324,0.013523,0.002678,0.000431,0.734669
4453000,0.0324,0.013523,0.002678,0.000431,0.654397
4454000,0.0324,0.013523,0.002678,0.000431,0.651459
4455000,0.0324,0.013523,0.002678,0.000431,0.656042
4456000,0.0324,0.013523,0.002678,0.000431,0.639118
4457000,0.0324,0.013523,0.002678,0.000431,0.628423
4458000,0.0324,0.013523,0.002678,0.000431,0.649343
4459000,0.0324,0.013523,0.002678,0.000431,0.641821
4460000,0.0324,0.013523,0.002678,0.000431,0.609384
4461000,0.0324,0.013523,0.002678,0.000431,0.634417
4462000,0.0324,0.013523,0.002678,0.000431,0.631596
4463000,0.0324,0.013523,0.002678,0.000431,0.629011
4464000,0.0324,0.013523,0.002678,0.000431,0.686835
4465000,0.0324,0.013523,0.002678,0.000431,0.709753
4466000,0.0324,0.013523,0.002678,0.000431,0.668500
4467000,0.0324,0.013523,0.002678,0.000431,0.672026
4468000,0.0324,0.013523,0.002678,0.000431,0.654044
4469000,0.0324,0.013523,0.002678,0.000431,0.686835
4470000,0.0324,0.013523,0.002678,0.000431,0.655572
4471000,0.0324,0.013523,0.002678,0.000431,0.665445
4472000,0.0324,0.013523,0.002678,0.000431,0.679313
4473000,0.0324,0.013523,0.002678,0.000431,0.655925
4474000,0.0324,0.013523,0.002678,0.000431,0.681193
4475000,0.0324,0.013523,0.002678,0.000431,0.665210
4476000,0.0324,0.013523,0.002678,0.000431,0.661331
4477000,0.0324,0.013523,0.002678,0.000431,0.652987
4478000,0.0324,0.013523,0.002678,0.000431,0.692711
4479000,0.0324,0.013523,0.002678,0.000431,0.672966
4480000,0.0324,0.013523,0.002678,0.000431,0.654632
4481000,0.0324,0.013523,0.002678,0.000431,0.637355
4482000,0.0324,0.013523,0.002678,0.000431,0.671086
4483000,0.0324,0.013523,0.002678,0.000431,0.667913
4484000,0.0324,0.013523,0.002678,0.000431,0.667090
4485000,0.0324,0.013523,0.002678,0.000431,0.650754
4486000,0.0324,0.013523,0.002678,0.000431,0.675317
4487000,0.0324,0.013523,0.002678,0.000431,0.682486
4488000,0.0324,0.013523,0.002678,0.000431,0.695767
4489000,0.0324,0.013523,0.002678,0.000431,0.661566
4490000,0.0324,0.013523,0.002678,0.000431,0.663799
4491000,0.0324,0.013523,0.002678,0.000431,0.680958
4492000,0.0324,0.013523,0.002678,0.000431,0.678843
4493000,0.0324,0.013523,0.002678,0.000431,0.650048
4494000,0.0324,0.013523,0.002678,0.000431,0.647110
4495000,0.0324,0.013523,0.002678,0.000431,0.661919
4496000,0.0324,0.013523,0.002678,0.000431,0.660156
4497000,0.0324,0.013523,0.002678,0.000431,0.694592
4498000,0.0324,0.013523,0.002678,0.000431,0.653339
4499000,0.0324,0.013523,0.002678,0.000431,0.632772
4500000,0.0324,0.013523,0.002678,0.000431,0.635357
4501000,0.0324,0.013523,0.002678,0.000431,0.662271
4502000,0.0324,0.013523,0.002678,0.000431,0.686600
4503000,0.0324,0.013523,0.002678,0.000431,0.650754
4504000,0.0324,0.013523,0.002678,0.000431,0.648285
4505000,0.0324,0.013523,0.002678,0.000431,0.671909
4506000,0.0324,0.013523,0.002678,0.000431,0.645465
4507000,0.0324,0.013523,0.002678,0.000431,0.634652
4508000,0.0324,0.013523,0.002678,0.000431,0.656865
4509000,0.0324,0.013523,0.002678,0.000431,0.633829
4510000,0.0324,0.013523,0.002678,0.000431,0.637825
4511000,0.0324,0.013523,0.002678,0.000431,0.649813
4512000,0.0324,0.013523,0.002678,0.000431,0.685659
4513000,0.0324,0.013523,0.002678,0.000431,0.682251
4514000,0.0324,0.013523,0.002678,0.000431,0.689655
4515000,0.0324,0.013523,0.002678,0.000431,0.665445
4516000,0.0324,0.013523,0.002678,0.000431,0.668735
4517000,0.0324,0.013523,0.002678,0.000431,0.684249
4518000,0.0324,0.013523,0.002678,0.000431,0.648168
4519000,0.0324,0.013523,0.002678,0.000431,0.659921
4520000,0.0324,0.013523,0.002678,0.000431,0.656160
4521000,0.0324,0.013523,0.002678,0.000431,0.669911
4522000,0.0324,0.013523,0.002678,0.000431,0.641116
4523000,0.0324,0.013523,0.002678,0.000431,0.654279
4524000,0.0324,0.013523,0.002678,0.000431,0.664504
4525000,0.0324,0.013523,0.002678,0.000431,0.674142
4526000,0.0324,0.013523,0.002678,0.000431,0.649931
4527000,0.0324,0.013523,0.002678,0.000431,0.654397
4528000,0.0324,0.013523,0.002678,0.000431,0.666150
4529000,0.0324,0.013523,0.002678,0.000431,0.659686
4530000,0.0324,0.013523,0.002678,0.000431,0.637943
4531000,0.0324,0.013523,0.002678,0.000431,0.637355
4532000,0.0324,0.013523,0.002678,0.000431,0.613850
4533000,0.0324,0.013523,0.002678,0.000431,0.634887
4534000,0.0324,0.013523,0.002678,0.000431,0.639706
4535000,0.0324,0.013523,0.002678,0.000431,0.639118
4536000,0.0324,0.013523,0.002678,0.000431,0.645700
4537000,0.0324,0.013523,0.002678,0.000431,0.666620
4538000,0.0324,0.013523,0.002678,0.000431,0.669323
4539000,0.0324,0.013523,0.002678,0.000431,0.655807
4540000,0.0324,0.013523,0.002678,0.000431,0.644995
4541000,0.0324,0.013523,0.002678,0.000431,0.655455
4542000,0.0324,0.013523,0.002678,0.000431,0.674024
4543000,0.0324,0.013523,0.002678,0.000431,0.648873
4544000,0.0324,0.013523,0.002678,0.000431,0.647345
4545000,0.0324,0.013523,0.002678,0.000431,0.626308
4546000,0.0324,0.013523,0.002678,0.000431,0.689890
4547000,0.0324,0.013523,0.002678,0.000431,0.627600
4548000,0.0324,0.013523,0.002678,0.000431,0.630304
4549000,0.0324,0.013523,0.002678,0.000431,0.618786
4550000,0.0324,0.013523,0.002678,0.000431,0.641821
4551000,0.0324,0.013523,0.002678,0.000431,0.635005
4552000,0.0324,0.013523,0.002678,0.000431,0.644407
4553000,0.0324,0.013523,0.002678,0.000431,0.678960
4554000,0.0324,0.013523,0.002678,0.000431,0.670616
4555000,0.0324,0.013523,0.002678,0.000431,0.648756
4556000,0.0324,0.013523,0.002678,0.000431,0.619374
4557000,0.0324,0.013523,0.002678,0.000431,0.666150
4558000,0.0324,0.013523,0.002678,0.000431,0.620079
4559000,0.0324,0.013523,0.002678,0.000431,0.633124
4560000,0.0324,0.013523,0.002678,0.000431,0.637003
4561000,0.0324,0.013523,0.002678,0.000431,0.646875
4562000,0.0324,0.013523,0.002678,0.000431,0.625367
4563000,0.0324,0.013523,0.002678,0.000431,0.646523
4564000,0.0324,0.013523,0.002678,0.000431,0.638296
4565000,0.0324,0.013523,0.002678,0.000431,0.658275
4566000,0.0324,0.013523,0.002678,0.000431,0.645230
4567000,0.0324,0.013523,0.002678,0.000431,0.658628
4568000,0.0324,0.013523,0.002678,0.000431,0.642174
4569000,0.0324,0.013523,0.002678,0.000431,0.670498
4570000,0.0324,0.013523,0.002678,0.000431,0.664034
4571000,0.0324,0.013523,0.002678,0.000431,0.665445
4572000,0.0324,0.013523,0.002678,0.000431,0.658040
4573000,0.0324,0.013523,0.002678,0.000431,0.622782
4574000,0.0324,0.013523,0.002678,0.000431,0.643819
4575000,0.0324,0.013523,0.002678,0.000431,0.689068
4576000,0.0324,0.013523,0.002678,0.000431,0.654867
4577000,0.0324,0.013523,0.002678,0.000431,0.649226
4578000,0.0324,0.013523,0.002678,0.000431,0.661449
4579000,0.0324,0.013523,0.002678,0.000431,0.648991
4580000,0.0324,0.013523,0.002678,0.000431,0.650636
4581000,0.0324,0.013523,0.002678,0.000431,0.643819
4582000,0.0324,0.013523,0.002678,0.000431,0.665680
4583000,0.0324,0.013523,0.002678,0.000431,0.639588
4584000,0.0324,0.013523,0.002678,0.000431,0.651811
4585000,0.0324,0.013523,0.002678,0.000431,0.667560
4586000,0.0324,0.013523,0.002678,0.000431,0.664152
4587000,0.0324,0.013523,0.002678,0.000431,0.667090
4588000,0.0324,0.013523,0.002678,0.000431,0.650166
4589000,0.0324,0.013523,0.002678,0.000431,0.657218
4590000,0.0324,0.013523,0.002678,0.000431,0.651694
4591000,0.0324,0.013523,0.002678,0.000431,0.672026
4592000,0.0324,0.013523,0.002678,0.000431,0.636180
4593000,0.0324,0.013523,0.002678,0.000431,0.651459
4594000,0.0324,0.013523,0.002678,0.000431,0.666150
4595000,0.0324,0.013523,0.002678,0.000431,0.678373
4596000,0.0324,0.013523,0.002678,0.000431,0.644995
4597000,0.0324,0.013523,0.002678,0.000431,0.642762
4598000,0.0324,0.013523,0.002678,0.000431,0.638413
4599000,0.0324,0.013523,0.002678,0.000431,0.670968
4600000,0.0324,0.013523,0.002678,0.000431,0.627836
4601000,0.0324,0.013523,0.002678,0.000431,0.639706
4602000,0.0324,0.013523,0.002678,0.000431,0.659921
4603000,0.0324,0.013523,0.002678,0.000431,0.633712
4604000,0.0324,0.013523,0.002678,0.000431,0.645230
4605000,0.0324,0.013523,0.002678,0.000431,0.650401
4606000,0.0324,0.013523,0.002678,0.000431,0.656512
4607000,0.0324,0.013523,0.002678,0.000431,0.683779
4608000,0.0324,0.013523,0.002678,0.000431,0.638883
4609000,0.0324,0.013523,0.002678,0.000431,0.645582
4610000,0.0324,0.013523,0.002678,0.000431,0.668853
4611000,0.0324,0.013523,0.002678,0.000431,0.654985
4612000,0.0324,0.013523,0.002678,0.000431,0.650989
4613000,0.0324,0.013523,0.002678,0.000431,0.655455
4614000,0.0324,0.013523,0.002678,0.000431,0.617023
4615000,0.0324,0.013523,0.002678,0.000431,0.635592
4616000,0.0324,0.013523,0.002678,0.000431,0.637473
4617000,0.0324,0.013523,0.002678,0.000431,0.664034
4618000,0.0324,0.013523,0.002678,0.000431,0.687657
4619000,0.0324,0.013523,0.002678,0.000431,0.646640
4620000,0.0324,0.013523,0.002678,0.000431,0.647580
4621000,0.0324,0.013523,0.002678,0.000431,0.671909
4622000,0.0324,0.013523,0.002678,0.000431,0.669676
4623000,0.0324,0.013523,0.002678,0.000431,0.638296
4624000,0.0324,0.013523,0.002678,0.000431,0.646523
4625000,0.0324,0.013523,0.002678,0.000431,0.629363
4626000,0.0324,0.013523,0.002678,0.000431,0.657688
4627000,0.0324,0.013523,0.002678,0.000431,0.630539
4628000,0.0324,0.013523,0.002678,0.000431,0.646523
4629000,0.0324,0.013523,0.002678,0.000431,0.647463
4630000,0.0324,0.013523,0.002678,0.000431,0.666502
4631000,0.0324,0.013523,0.002678,0.000431,0.659451
4632000,0.0324,0.013523,0.002678,0.000431,0.638296
4633000,0.0324,0.013523,0.002678,0.000431,0.651576
4634000,0.0324,0.013523,0.002678,0.000431,0.656160
4635000,0.0324,0.013523,0.002678,0.000431,0.646640
4636000,0.0324,0.013523,0.002678,0.000431,0.633242
4637000,0.0324,0.013523,0.002678,0.000431,0.647463
4638000,0.0324,0.013523,0.002678,0.000431,0.639118
4639000,0.0324,0.013523,0.002678,0.000431,0.679078
4640000,0.0324,0.013523,0.002678,0.000431,0.635475
4641000,0.0324,0.013523,0.002678,0.000431,0.654044
4642000,0.0324,0.013523,0.002678,0.000431,0.646993
4643000,0.0324,0.013523,0.002678,0.000431,0.674142
4644000,0.0324,0.013523,0.002678,0.000431,0.659568
4645000,0.0324,0.013523,0.002678,0.000431,0.655455
4646000,0.0324,0.013523,0.002678,0.000431,0.679195
4647000,0.0324,0.013523,0.002678,0.000431,0.668500
4648000,0.0324,0.013523,0.002678,0.000431,0.658863
4649000,0.0324,0.013523,0.002678,0.000431,0.655102
4650000,0.0324,0.013523,0.002678,0.000431,0.646405
4651000,0.0324,0.013523,0.002678,0.000431,0.644642
4652000,0.0324,0.013523,0.002678,0.000431,0.668500
4653000,0.0324,0.013523,0.002678,0.000431,0.643349
4654000,0.0324,0.013523,0.002678,0.000431,0.656160
4655000,0.0324,0.013523,0.002678,0.000431,0.660273
4656000,0.0324,0.013523,0.002678,0.000431,0.644877
4657000,0.0324,0.013523,0.002678,0.000431,0.637003
4658000,0.0324,0.013523,0.002678,0.000431,0.647580
4659000,0.0324,0.013523,0.002678,0.000431,0.644525
4660000,0.0324,0.013523,0.002678,0.000431,0.650166
4661000,0.0324,0.013523,0.002678,0.000431,0.650636
4662000,0.0324,0.013523,0.002678,0.000431,0.636063
4663000,0.0324,0.013523,0.002678,0.000431,0.635827
4664000,0.0324,0.013523,0.002678,0.000431,0.646640
4665000,0.0324,0.013523,0.002678,0.000431,0.642879
4666000,0.0324,0.013523,0.002678,0.000431,0.648638
4667000,0.0324,0.013523,0.002678,0.000431,0.648050
4668000,0.0324,0.013523,0.002678,0.000431,0.642762
4669000,0.0324,0.013523,0.002678,0.000431,0.646758
4670000,0.0324,0.013523,0.002678,0.000431,0.623722
4671000,0.0324,0.013523,0.002678,0.000431,0.645465
4672000,0.0324,0.013523,0.002678,0.000431,0.644642
4673000,0.0324,0.013523,0.002678,0.000431,0.648403
4674000,0.0324,0.013523,0.002678,0.000431,0.635122
4675000,0.0324,0.013523,0.002678,0.000431,0.646170
4676000,0.0324,0.013523,0.002678,0.000431,0.651576
4677000,0.0324,0.013523,0.002678,0.000431,0.665797
4678000,0.0324,0.013523,0.002678,0.000431,0.656630
4679000,0.0324,0.013523,0.002678,0.000431,0.636768
4680000,0.0324,0.013523,0.002678,0.000431,0.643584
4681000,0.0324,0.013523,0.002678,0.000431,0.617728
4682000,0.0324,0.013523,0.002678,0.000431,0.647698
4683000,0.0324,0.013523,0.002678,0.000431,0.635827
4684000,0.0324,0.013523,0.002678,0.000431,0.634887
4685000,0.0324,0.013523,0.002678,0.000431,0.627600
4686000,0.0324,0.013523,0.002678,0.000431,0.636415
4687000,0.0324,0.013523,0.002678,0.000431,0.656277
4688000,0.0324,0.013523,0.002678,0.000431,0.641234
4689000,0.0324,0.013523,0.002678,0.000431,0.635945
4690000,0.0324,0.013523,0.002678,0.000431,0.662976
4691000,0.0324,0.013523,0.002678,0.000431,0.648521
4692000,0.0324,0.013523,0.002678,0.000431,0.653457
4693000,0.0324,0.013523,0.002678,0.000431,0.661919
4694000,0.0324,0.013523,0.002678,0.000431,0.654044
4695000,0.0324,0.013523,0.002678,0.000431,0.640764
4696000,0.0324,0.013523,0.002678,0.000431,0.650166
4697000,0.0324,0.013523,0.002678,0.000431,0.633947
4698000,0.0324,0.013523,0.002678,0.000431,0.663917
4699000,0.0324,0.013523,0.002678,0.000431,0.656395
4700000,0.0324,0.013523,0.002678,0.000431,0.638648
4701000,0.0324,0.013523,0.002678,0.000431,0.639706
4702000,0.0324,0.013523,0.002678,0.000431,0.640999
4703000,0.0324,0.013523,0.002678,0.000431,0.649696
4704000,0.0324,0.013523,0.002678,0.000431,0.638648
4705000,0.0324,0.013523,0.002678,0.000431,0.638413
4706000,0.0324,0.013523,0.002678,0.000431,0.647228
4707000,0.0324,0.013523,0.002678,0.000431,0.634300
4708000,0.0324,0.013523,0.002678,0.000431,0.636180
4709000,0.0324,0.013523,0.002678,0.000431,0.649226
4710000,0.0324,0.013523,0.002678,0.000431,0.661449
4711000,0.0324,0.013523,0.002678,0.000431,0.646523
4712000,0.0324,0.013523,0.002678,0.000431,0.629128
4713000,0.0324,0.013523,0.002678,0.000431,0.635945
4714000,0.0324,0.013523,0.002678,0.000431,0.628071
4715000,0.0324,0.013523,0.002678,0.000431,0.632419
4716000,0.0324,0.013523,0.002678,0.000431,0.659216
4717000,0.0324,0.013523,0.002678,0.000431,0.645347
4718000,0.0324,0.013523,0.002678,0.000431,0.645112
4719000,0.0324,0.013523,0.002678,0.000431,0.644407
4720000,0.0324,0.013523,0.002678,0.000431,0.646875
4721000,0.0324,0.013523,0.002678,0.000431,0.661449
4722000,0.0324,0.013523,0.002678,0.000431,0.646758
4723000,0.0324,0.013523,0.002678,0.000431,0.642174
4724000,0.0324,0.013523,0.002678,0.000431,0.643584
4725000,0.0324,0.013523,0.002678,0.000431,0.623017
4726000,0.0324,0.013523,0.002678,0.000431,0.637120
4727000,0.0324,0.013523,0.002678,0.000431,0.645465
4728000,0.0324,0.013523,0.002678,0.000431,0.653692
4729000,0.0324,0.013523,0.002678,0.000431,0.660273
4730000,0.0324,0.013523,0.002678,0.000431,0.626895
4731000,0.0324,0.013523,0.002678,0.000431,0.654985
4732000,0.0324,0.013523,0.002678,0.000431,0.649461
4733000,0.0324,0.013523,0.002678,0.000431,0.653692
4734000,0.0324,0.013523,0.002678,0.000431,0.658863
4735000,0.0324,0.013523,0.002678,0.000431,0.639236
4736000,0.0324,0.013523,0.002678,0.000431,0.645700
4737000,0.0324,0.013523,0.002678,0.000431,0.644525
4738000,0.0324,0.013523,0.002678,0.000431,0.640176
4739000,0.0324,0.013523,0.002678,0.000431,0.635827
4740000,0.0324,0.013523,0.002678,0.000431,0.614907
4741000,0.0324,0.013523,0.002678,0.000431,0.644760
4742000,0.0324,0.013523,0.002678,0.000431,0.627718
4743000,0.0324,0.013523,0.002678,0.000431,0.651576
4744000,0.0324,0.013523,0.002678,0.000431,0.637003
4745000,0.0324,0.013523,0.002678,0.000431,0.670146
4746000,0.0324,0.013523,0.002678,0.000431,0.631714
4747000,0.0324,0.013523,0.002678,0.000431,0.639471
4748000,0.0324,0.013523,0.002678,0.000431,0.656277
4749000,0.0324,0.013523,0.002678,0.000431,0.629246
4750000,0.0324,0.013523,0.002678,0.000431,0.645935
4751000,0.0324,0.013523,0.002678,0.000431,0.634065
4752000,0.0324,0.013523,0.002678,0.000431,0.659216
4753000,0.0324,0.013523,0.002678,0.000431,0.637590
4754000,0.0324,0.013523,0.002678,0.000431,0.652869
4755000,0.0324,0.013523,0.002678,0.000431,0.635945
4756000,0.0324,0.013523,0.002678,0.000431,0.650048
4757000,0.0324,0.013523,0.002678,0.000431,0.624545
4758000,0.0324,0.013523,0.002678,0.000431,0.657100
4759000,0.0324,0.013523,0.002678,0.000431,0.642997
4760000,0.0324,0.013523,0.002678,0.000431,0.629951
4761000,0.0324,0.013523,0.002678,0.000431,0.648050
4762000,0.0324,0.013523,0.002678,0.000431,0.649696
4763000,0.0324,0.013523,0.002678,0.000431,0.644054
4764000,0.0324,0.013523,0.002678,0.000431,0.650636
4765000,0.0324,0.013523,0.002678,0.000431,0.655102
4766000,0.0324,0.013523,0.002678,0.000431,0.651459
4767000,0.0324,0.013523,0.002678,0.000431,0.645582
4768000,0.0324,0.013523,0.002678,0.000431,0.640764
4769000,0.0324,0.013523,0.002678,0.000431,0.613967
4770000,0.0324,0.013523,0.002678,0.000431,0.635592
4771000,0.0324,0.013523,0.002678,0.000431,0.615730
4772000,0.0324,0.013523,0.002678,0.000431,0.647933
4773000,0.0324,0.013523,0.002678,0.000431,0.650754
4774000,0.0324,0.013523,0.002678,0.000431,0.657453
4775000,0.0324,0.013523,0.002678,0.000431,0.629598
4776000,0.0324,0.013523,0.002678,0.000431,0.638413
4777000,0.0324,0.013523,0.002678,0.000431,0.657100
4778000,0.0324,0.013523,0.002678,0.000431,0.643937
4779000,0.0324,0.013523,0.002678,0.000431,0.648050
4780000,0.0324,0.013523,0.002678,0.000431,0.642997
4781000,0.0324,0.013523,0.002678,0.000431,0.628658
4782000,0.0324,0.013523,0.002678,0.000431,0.629246
4783000,0.0324,0.013523,0.002678,0.000431,0.628776
4784000,0.0324,0.013523,0.002678,0.000431,0.625367
4785000,0.0324,0.013523,0.002678,0.000431,0.638061
4786000,0.0324,0.013523,0.002678,0.000431,0.640646
4787000,0.0324,0.013523,0.002678,0.000431,0.652281
4788000,0.0324,0.013523,0.002678,0.000431,0.652634
4789000,0.0324,0.013523,0.002678,0.000431,0.631714
4790000,0.0324,0.013523,0.002678,0.000431,0.640764
4791000,0.0324,0.013523,0.002678,0.000431,0.631832
4792000,0.0324,0.013523,0.002678,0.000431,0.642292
4793000,0.0324,0.013523,0.002678,0.000431,0.638413
4794000,0.0324,0.013523,0.002678,0.000431,0.627248
4795000,0.0324,0.013523,0.002678,0.000431,0.629598
4796000,0.0324,0.013523,0.002678,0.000431,0.628188
4797000,0.0324,0.013523,0.002678,0.000431,0.619609
4798000,0.0324,0.013523,0.002678,0.000431,0.639001
4799000,0.0324,0.013523,0.002678,0.000431,0.625720
4800000,0.0324,0.013523,0.002678,0.000431,0.635475
4801000,0.0324,0.013523,0.002678,0.000431,0.626895
4802000,0.0324,0.013523,0.002678,0.000431,0.637825
4803000,0.0324,0.013523,0.002678,0.000431,0.624897
4804000,0.0324,0.013523,0.002678,0.000431,0.633594
4805000,0.0324,0.013523,0.002678,0.000431,0.630891
4806000,0.0324,0.013523,0.002678,0.000431,0.650166
4807000,0.0324,0.013523,0.002678,0.000431,0.639236
4808000,0.0324,0.013523,0.002678,0.000431,0.656865
4809000,0.0324,0.013523,0.002678,0.000431,0.645700
4810000,0.0324,0.013523,0.002678,0.000431,0.650401
4811000,0.0324,0.013523,0.002678,0.000431,0.630891
4812000,0.0324,0.013523,0.002678,0.000431,0.644995
4813000,0.0324,0.013523,0.002678,0.000431,0.623252
4814000,0.0324,0.013523,0.002678,0.000431,0.652869
4815000,0.0324,0.013523,0.002678,0.000431,0.644407
4816000,0.0324,0.013523,0.002678,0.000431,0.625367
4817000,0.0324,0.013523,0.002678,0.000431,0.636415
4818000,0.0324,0.013523,0.002678,0.000431,0.619491
4819000,0.0324,0.013523,0.002678,0.000431,0.623134
4820000,0.0324,0.013523,0.002678,0.000431,0.631949
4821000,0.0324,0.013523,0.002678,0.000431,0.641116
4822000,0.0324,0.013523,0.002678,0.000431,0.650754
4823000,0.0324,0.013523,0.002678,0.000431,0.652281
4824000,0.0324,0.013523,0.002678,0.000431,0.630539
4825000,0.0324,0.013523,0.002678,0.000431,0.635592
4826000,0.0324,0.013523,0.002678,0.000431,0.649813
4827000,0.0324,0.013523,0.002678,0.000431,0.626425
4828000,0.0324,0.013523,0.002678,0.000431,0.663917
4829000,0.0324,0.013523,0.002678,0.000431,0.633477
4830000,0.0324,0.013523,0.002678,0.000431,0.654044
4831000,0.0324,0.013523,0.002678,0.000431,0.650048
4832000,0.0324,0.013523,0.002678,0.000431,0.655690
4833000,0.0324,0.013523,0.002678,0.000431,0.620901
4834000,0.0324,0.013523,0.002678,0.000431,0.651106
4835000,0.0324,0.013523,0.002678,0.000431,0.640999
4836000,0.0324,0.013523,0.002678,0.000431,0.648403
4837000,0.0324,0.013523,0.002678,0.000431,0.633712
4838000,0.0324,0.013523,0.002678,0.000431,0.637120
4839000,0.0324,0.013523,0.002678,0.000431,0.640999
4840000,0.0324,0.013523,0.002678,0.000431,0.649578
4841000,0.0324,0.013523,0.002678,0.000431,0.634417
4842000,0.0324,0.013523,0.002678,0.000431,0.631596
4843000,0.0324,0.013523,0.002678,0.000431,0.645347
4844000,0.0324,0.013523,0.002678,0.000431,0.638648
4845000,0.0324,0.013523,0.002678,0.000431,0.639471
4846000,0.0324,0.013523,0.002678,0.000431,0.638178
4847000,0.0324,0.013523,0.002678,0.000431,0.657218
4848000,0.0324,0.013523,0.002678,0.000431,0.674494
4849000,0.0324,0.013523,0.002678,0.000431,0.638531
4850000,0.0324,0.013523,0.002678,0.000431,0.654279
4851000,0.0324,0.013523,0.002678,0.000431,0.647933
4852000,0.0324,0.013523,0.002678,0.000431,0.629834
4853000,0.0324,0.013523,0.002678,0.000431,0.634887
4854000,0.0324,0.013523,0.002678,0.000431,0.629011
4855000,0.0324,0.013523,0.002678,0.000431,0.625485
4856000,0.0324,0.013523,0.002678,0.000431,0.633124
4857000,0.0324,0.013523,0.002678,0.000431,0.645347
4858000,0.0324,0.013523,0.002678,0.000431,0.623957
4859000,0.0324,0.013523,0.002678,0.000431,0.638648
4860000,0.0324,0.013523,0.002678,0.000431,0.637708
4861000,0.0324,0.013523,0.002678,0.000431,0.641116
4862000,0.0324,0.013523,0.002678,0.000431,0.640646
4863000,0.0324,0.013523,0.002678,0.000431,0.623252
4864000,0.0324,0.013523,0.002678,0.000431,0.645465
4865000,0.0324,0.013523,0.002678,0.000431,0.629363
4866000,0.0324,0.013523,0.002678,0.000431,0.633007
4867000,0.0324,0.013523,0.002678,0.000431,0.640294
4868000,0.0324,0.013523,0.002678,0.000431,0.628188
4869000,0.0324,0.013523,0.002678,0.000431,0.626308
4870000,0.0324,0.013523,0.002678,0.000431,0.614907
4871000,0.0324,0.013523,0.002678,0.000431,0.638531
4872000,0.0324,0.013523,0.002678,0.000431,0.646405
4873000,0.0324,0.013523,0.002678,0.000431,0.627836
4874000,0.0324,0.013523,0.002678,0.000431,0.642879
4875000,0.0324,0.013523,0.002678,0.000431,0.645935
4876000,0.0324,0.013523,0.002678,0.000431,0.630069
4877000,0.0324,0.013523,0.002678,0.000431,0.639823
4878000,0.0324,0.013523,0.002678,0.000431,0.633829
4879000,0.0324,0.013523,0.002678,0.000431,0.633594
4880000,0.0324,0.013523,0.002678,0.000431,0.642056
4881000,0.0324,0.013523,0.002678,0.000431,0.627600
4882000,0.0324,0.013523,0.002678,0.000431,0.656395
4883000,0.0324,0.013523,0.002678,0.000431,0.632654
4884000,0.0324,0.013523,0.002678,0.000431,0.658628
4885000,0.0324,0.013523,0.002678,0.000431,0.633359
4886000,0.0324,0.013523,0.002678,0.000431,0.647698
4887000,0.0324,0.013523,0.002678,0.000431,0.644172
4888000,0.0324,0.013523,0.002678,0.000431,0.619844
4889000,0.0324,0.013523,0.002678,0.000431,0.635945
4890000,0.0324,0.013523,0.002678,0.000431,0.651224
4891000,0.0324,0.013523,0.002678,0.000431,0.637355
4892000,0.0324,0.013523,0.002678,0.000431,0.632889
4893000,0.0324,0.013523,0.002678,0.000431,0.626778
4894000,0.0324,0.013523,0.002678,0.000431,0.658040
4895000,0.0324,0.013523,0.002678,0.000431,0.655925
4896000,0.0324,0.013523,0.002678,0.000431,0.647345
4897000,0.0324,0.013523,0.002678,0.000431,0.641704
4898000,0.0324,0.013523,0.002678,0.000431,0.635240
4899000,0.0324,0.013523,0.002678,0.000431,0.632654
4900000,0.0324,0.013523,0.002678,0.000431,0.645230
4901000,0.0324,0.013523,0.002678,0.000431,0.659568
4902000,0.0324,0.013523,0.002678,0.000431,0.659216
4903000,0.0324,0.013523,0.002678,0.000431,0.643702
4904000,0.0324,0.013523,0.002678,0.000431,0.646287
4905000,0.0324,0.013523,0.002678,0.000431,0.647580
4906000,0.0324,0.013523,0.002678,0.000431,0.628776
4907000,0.0324,0.013523,0.002678,0.000431,0.629363
4908000,0.0324,0.013523,0.002678,0.000431,0.634535
4909000,0.0324,0.013523,0.002678,0.000431,0.651929
4910000,0.0324,0.013523,0.002678,0.000431,0.641586
4911000,0.0324,0.013523,0.002678,0.000431,0.651341
4912000,0.0324,0.013523,0.002678,0.000431,0.634535
4913000,0.0324,0.013523,0.002678,0.000431,0.635945
4914000,0.0324,0.013523,0.002678,0.000431,0.649108
4915000,0.0324,0.013523,0.002678,0.000431,0.639588
4916000,0.0324,0.013523,0.002678,0.000431,0.647463
4917000,0.0324,0.013523,0.002678,0.000431,0.640646
4918000,0.0324,0.013523,0.002678,0.000431,0.651224
4919000,0.0324,0.013523,0.002678,0.000431,0.656747
4920000,0.0324,0.013523,0.002678,0.000431,0.642879
4921000,0.0324,0.013523,0.002678,0.000431,0.643819
4922000,0.0324,0.013523,0.002678,0.000431,0.638061
4923000,0.0324,0.013523,0.002678,0.000431,0.649931
4924000,0.0324,0.013523,0.002678,0.000431,0.631949
4925000,0.0324,0.013523,0.002678,0.000431,0.641586
4926000,0.0324,0.013523,0.002678,0.000431,0.643584
4927000,0.0324,0.013523,0.002678,0.000431,0.632184
4928000,0.0324,0.013523,0.002678,0.000431,0.632302
4929000,0.0324,0.013523,0.002678,0.000431,0.627365
4930000,0.0324,0.013523,0.002678,0.000431,0.644642
4931000,0.0324,0.013523,0.002678,0.000431,0.642879
4932000,0.0324,0.013523,0.002678,0.000431,0.647110
4933000,0.0324,0.013523,0.002678,0.000431,0.650283
4934000,0.0324,0.013523,0.002678,0.000431,0.653339
4935000,0.0324,0.013523,0.002678,0.000431,0.637120
4936000,0.0324,0.013523,0.002678,0.000431,0.651224
4937000,0.0324,0.013523,0.002678,0.000431,0.650048
4938000,0.0324,0.013523,0.002678,0.000431,0.628423
4939000,0.0324,0.013523,0.002678,0.000431,0.618903
4940000,0.0324,0.013523,0.002678,0.000431,0.646287
4941000,0.0324,0.013523,0.002678,0.000431,0.630186
4942000,0.0324,0.013523,0.002678,0.000431,0.646640
4943000,0.0324,0.013523,0.002678,0.000431,0.654985
4944000,0.0324,0.013523,0.002678,0.000431,0.649931
4945000,0.0324,0.013523,0.002678,0.000431,0.632537
4946000,0.0324,0.013523,0.002678,0.000431,0.623134
4947000,0.0324,0.013523,0.002678,0.000431,0.623605
4948000,0.0324,0.013523,0.002678,0.000431,0.633712
4949000,0.0324,0.013523,0.002678,0.000431,0.633124
4950000,0.0324,0.013523,0.002678,0.000431,0.632772
4951000,0.0324,0.013523,0.002678,0.000431,0.639471
4952000,0.0324,0.013523,0.002678,0.000431,0.624545
4953000,0.0324,0.013523,0.002678,0.000431,0.631244
4954000,0.0324,0.013523,0.002678,0.000431,0.593165
4955000,0.0324,0.013523,0.002678,0.000431,0.627130
4956000,0.0324,0.013523,0.002678,0.000431,0.642762
4957000,0.0324,0.013523,0.002678,0.000431,0.642292
4958000,0.0324,0.013523,0.002678,0.000431,0.626190
4959000,0.0324,0.013523,0.002678,0.000431,0.641116
4960000,0.0324,0.013523,0.002678,0.000431,0.623252
4961000,0.0324,0.013523,0.002678,0.000431,0.631126
4962000,0.0324,0.013523,0.002678,0.000431,0.644407
4963000,0.0324,0.013523,0.002678,0.000431,0.620314
4964000,0.0324,0.013523,0.002678,0.000431,0.643702
4965000,0.0324,0.013523,0.002678,0.000431,0.641939
4966000,0.0324,0.013523,0.002678,0.000431,0.640411
4967000,0.0324,0.013523,0.002678,0.000431,0.652164
4968000,0.0324,0.013523,0.002678,0.000431,0.657688
4969000,0.0324,0.013523,0.002678,0.000431,0.657100
4970000,0.0324,0.013523,0.002678,0.000431,0.630304
4971000,0.0324,0.013523,0.002678,0.000431,0.643349
4972000,0.0324,0.013523,0.002678,0.000431,0.661214
4973000,0.0324,0.013523,0.002678,0.000431,0.633712
4974000,0.0324,0.013523,0.002678,0.000431,0.603625
4975000,0.0324,0.013523,0.002678,0.000431,0.639941
4976000,0.0324,0.013523,0.002678,0.000431,0.617963
4977000,0.0324,0.013523,0.002678,0.000431,0.646170
4978000,0.0324,0.013523,0.002678,0.000431,0.644407
4979000,0.0324,0.013523,0.002678,0.000431,0.647815
4980000,0.0324,0.013523,0.002678,0.000431,0.630421
4981000,0.0324,0.013523,0.002678,0.000431,0.623840
4982000,0.0324,0.013523,0.002678,0.000431,0.625485
4983000,0.0324,0.013523,0.002678,0.000431,0.649696
4984000,0.0324,0.013523,0.002678,0.000431,0.646405
4985000,0.0324,0.013523,0.002678,0.000431,0.655102
4986000,0.0324,0.013523,0.002678,0.000431,0.637003
4987000,0.0324,0.013523,0.002678,0.000431,0.612322
4988000,0.0324,0.013523,0.002678,0.000431,0.634652
4989000,0.0324,0.013523,0.002678,0.000431,0.634300
4990000,0.0324,0.013523,0.002678,0.000431,0.638178
4991000,0.0324,0.013523,0.002678,0.000431,0.654397
4992000,0.0324,0.013523,0.002678,0.000431,0.636768
4993000,0.0324,0.013523,0.002678,0.000431,0.629246
4994000,0.0324,0.013523,0.002678,0.000431,0.636650
4995000,0.0324,0.013523,0.002678,0.000431,0.628423
4996000,0.0324,0.013523,0.002678,0.000431,0.627953
4997000,0.0324,0.013523,0.002678,0.000431,0.644760
4998000,0.0324,0.013523,0.002678,0.000431,0.647698
4999000,0.0324,0.013523,0.002678,0.000431,0.643819
