Cycle,Area(mm^2),PeakDynamic(W),SubthresholdLeakage(W),GateLeakage(W),RunTimeDynamic(W)
7000000,0.0324,0.013523,0.002678,0.000431,0.694592
7001000,0.0324,0.013523,0.002678,0.000431,0.711398
7002000,0.0324,0.013523,0.002678,0.000431,0.833392
7003000,0.0324,0.013523,0.002678,0.000431,0.819406
7004000,0.0324,0.013523,0.002678,0.000431,0.828809
7005000,0.0324,0.013523,0.002678,0.000431,0.869003
7006000,0.0324,0.013523,0.002678,0.000431,0.895565
7007000,0.0324,0.013523,0.002678,0.000431,0.867711
7008000,0.0324,0.013523,0.002678,0.000431,0.949510
7009000,0.0324,0.013523,0.002678,0.000431,0.854195
7010000,0.0324,0.013523,0.002678,0.000431,0.790259
7011000,0.0324,0.013523,0.002678,0.000431,0.912606
7012000,0.0324,0.013523,0.002678,0.000431,0.854900
7013000,0.0324,0.013523,0.002678,0.000431,0.887338
7014000,0.0324,0.013523,0.002678,0.000431,0.915309
7015000,0.0324,0.013523,0.002678,0.000431,0.982653
7016000,0.0324,0.013523,0.002678,0.000431,0.923184
7017000,0.0324,0.013523,0.002678,0.000431,0.865595
7018000,0.0324,0.013523,0.002678,0.000431,0.837623
7019000,0.0324,0.013523,0.002678,0.000431,0.815881
7020000,0.0324,0.013523,0.002678,0.000431,0.745599
7021000,0.0324,0.013523,0.002678,0.000431,0.755471
7022000,0.0324,0.013523,0.002678,0.000431,0.822345
7023000,0.0324,0.013523,0.002678,0.000431,0.790847
7024000,0.0324,0.013523,0.002678,0.000431,0.923066
7025000,0.0324,0.013523,0.002678,0.000431,0.761818
7026000,0.0324,0.013523,0.002678,0.000431,0.892862
7027000,0.0324,0.013523,0.002678,0.000431,0.913312
7028000,0.0324,0.013523,0.002678,0.000431,0.815058
7029000,0.0324,0.013523,0.002678,0.000431,0.860071
7030000,0.0324,0.013523,0.002678,0.000431,0.947982
7031000,0.0324,0.013523,0.002678,0.000431,0.837036
7032000,0.0324,0.013523,0.002678,0.000431,0.903909
7033000,0.0324,0.013523,0.002678,0.000431,0.934584
7034000,0.0324,0.013523,0.002678,0.000431,0.943399
7035000,0.0324,0.013523,0.002678,0.000431,0.871471
7036000,0.0324,0.013523,0.002678,0.000431,0.942106
7037000,0.0324,0.013523,0.002678,0.000431,1.005219
7038000,0.0324,0.013523,0.002678,0.000431,0.901559
7039000,0.0324,0.013523,0.002678,0.000431,0.969020
7040000,0.0324,0.013523,0.002678,0.000431,0.929413
7041000,0.0324,0.013523,0.002678,0.000431,0.947747
7042000,0.0324,0.013523,0.002678,0.000431,0.917543
7043000,0.0324,0.013523,0.002678,0.000431,0.920833
7044000,0.0324,0.013523,0.002678,0.000431,0.926005
7045000,0.0324,0.013523,0.002678,0.000431,0.957855
7046000,0.0324,0.013523,0.002678,0.000431,0.958090
7047000,0.0324,0.013523,0.002678,0.000431,1.020145
7048000,0.0324,0.013523,0.002678,0.000431,0.948805
7049000,0.0324,0.013523,0.002678,0.000431,0.918953
7050000,0.0324,0.013523,0.002678,0.000431,0.877465
7051000,0.0324,0.013523,0.002678,0.000431,0.855018
7052000,0.0324,0.013523,0.002678,0.000431,0.945749
7053000,0.0324,0.013523,0.002678,0.000431,0.775216
7054000,0.0324,0.013523,0.002678,0.000431,0.961968
7055000,0.0324,0.013523,0.002678,0.000431,0.903087
7056000,0.0324,0.013523,0.002678,0.000431,0.856193
7057000,0.0324,0.013523,0.002678,0.000431,0.983828
7058000,0.0324,0.013523,0.002678,0.000431,0.957620
7059000,0.0324,0.013523,0.002678,0.000431,0.809652
7060000,0.0324,0.013523,0.002678,0.000431,0.911196
7061000,0.0324,0.013523,0.002678,0.000431,0.903909
7062000,0.0324,0.013523,0.002678,0.000431,0.869826
7063000,0.0324,0.013523,0.002678,0.000431,0.874175
7064000,0.0324,0.013523,0.002678,0.000431,0.945867
7065000,0.0324,0.013523,0.002678,0.000431,0.893919
7066000,0.0324,0.013523,0.002678,0.000431,0.853255
7067000,0.0324,0.013523,0.002678,0.000431,0.939755
7068000,0.0324,0.013523,0.002678,0.000431,0.944339
7069000,0.0324,0.013523,0.002678,0.000431,1.037539
7070000,0.0324,0.013523,0.002678,0.000431,0.893684
7071000,0.0324,0.013523,0.002678,0.000431,0.894507
7072000,0.0324,0.013523,0.002678,0.000431,0.980185
7073000,0.0324,0.013523,0.002678,0.000431,0.922596
7074000,0.0324,0.013523,0.002678,0.000431,0.919070
7075000,0.0324,0.013523,0.002678,0.000431,0.969490
7076000,0.0324,0.013523,0.002678,0.000431,0.948452
7077000,0.0324,0.013523,0.002678,0.000431,0.892156
7078000,0.0324,0.013523,0.002678,0.000431,0.970548
7079000,0.0324,0.013523,0.002678,0.000431,0.883577
7080000,0.0324,0.013523,0.002678,0.000431,0.919070
7081000,0.0324,0.013523,0.002678,0.000431,0.926827
7082000,0.0324,0.013523,0.002678,0.000431,0.976307
7083000,0.0324,0.013523,0.002678,0.000431,0.973956
7084000,0.0324,0.013523,0.002678,0.000431,0.977364
7085000,0.0324,0.013523,0.002678,0.000431,0.961028
7086000,0.0324,0.013523,0.002678,0.000431,0.964201
7087000,0.0324,0.013523,0.002678,0.000431,0.951861
7088000,0.0324,0.013523,0.002678,0.000431,0.957502
7089000,0.0324,0.013523,0.002678,0.000431,1.012505
7090000,0.0324,0.013523,0.002678,0.000431,0.947865
7091000,0.0324,0.013523,0.002678,0.000431,1.024728
7092000,0.0324,0.013523,0.002678,0.000431,1.108408
7093000,0.0324,0.013523,0.002678,0.000431,0.954681
7094000,0.0324,0.013523,0.002678,0.000431,0.917778
7095000,0.0324,0.013523,0.002678,0.000431,0.957737
7096000,0.0324,0.013523,0.002678,0.000431,0.918483
7097000,0.0324,0.013523,0.002678,0.000431,0.936582
7098000,0.0324,0.013523,0.002678,0.000431,0.947630
7099000,0.0324,0.013523,0.002678,0.000431,0.994876
7100000,0.0324,0.013523,0.002678,0.000431,1.044943
7101000,0.0324,0.013523,0.002678,0.000431,0.963731
7102000,0.0324,0.013523,0.002678,0.000431,0.876408
7103000,0.0324,0.013523,0.002678,0.000431,0.926475
7104000,0.0324,0.013523,0.002678,0.000431,1.059282
7105000,0.0324,0.013523,0.002678,0.000431,0.942811
7106000,0.0324,0.013523,0.002678,0.000431,0.950921
7107000,0.0324,0.013523,0.002678,0.000431,0.917778
7108000,0.0324,0.013523,0.002678,0.000431,0.935642
7109000,0.0324,0.013523,0.002678,0.000431,1.056578
7110000,0.0324,0.013523,0.002678,0.000431,0.992761
7111000,0.0324,0.013523,0.002678,0.000431,0.908023
7112000,0.0324,0.013523,0.002678,0.000431,0.920128
7113000,0.0324,0.013523,0.002678,0.000431,0.913312
7114000,0.0324,0.013523,0.002678,0.000431,0.915192
7115000,0.0324,0.013523,0.002678,0.000431,0.964436
7116000,0.0324,0.013523,0.002678,0.000431,0.905085
7117000,0.0324,0.013523,0.002678,0.000431,0.942929
7118000,0.0324,0.013523,0.002678,0.000431,1.048586
7119000,0.0324,0.013523,0.002678,0.000431,0.954329
7120000,0.0324,0.013523,0.002678,0.000431,0.925534
7121000,0.0324,0.013523,0.002678,0.000431,1.004631
7122000,0.0324,0.013523,0.002678,0.000431,0.962673
7123000,0.0324,0.013523,0.002678,0.000431,1.012505
7124000,0.0324,0.013523,0.002678,0.000431,1.014386
7125000,0.0324,0.013523,0.002678,0.000431,0.939285
7126000,0.0324,0.013523,0.002678,0.000431,1.013563
7127000,0.0324,0.013523,0.002678,0.000431,1.037656
7128000,0.0324,0.013523,0.002678,0.000431,1.026609
7129000,0.0324,0.013523,0.002678,0.000431,1.063513
7130000,0.0324,0.013523,0.002678,0.000431,1.013798
7131000,0.0324,0.013523,0.002678,0.000431,0.945044
7132000,0.0324,0.013523,0.002678,0.000431,1.019557
7133000,0.0324,0.013523,0.002678,0.000431,0.964789
7134000,0.0324,0.013523,0.002678,0.000431,0.927415
7135000,0.0324,0.013523,0.002678,0.000431,1.103707
7136000,0.0324,0.013523,0.002678,0.000431,0.880286
7137000,0.0324,0.013523,0.002678,0.000431,1.072562
7138000,0.0324,0.013523,0.002678,0.000431,0.917543
7139000,0.0324,0.013523,0.002678,0.000431,0.879934
7140000,0.0324,0.013523,0.002678,0.000431,0.851139
7141000,0.0324,0.013523,0.002678,0.000431,0.869003
7142000,0.0324,0.013523,0.002678,0.000431,0.909786
7143000,0.0324,0.013523,0.002678,0.000431,0.932234
7144000,0.0324,0.013523,0.002678,0.000431,0.966787
7145000,0.0324,0.013523,0.002678,0.000431,0.928120
7146000,0.0324,0.013523,0.002678,0.000431,0.882519
7147000,0.0324,0.013523,0.002678,0.000431,0.972781
7148000,0.0324,0.013523,0.002678,0.000431,1.030957
7149000,0.0324,0.013523,0.002678,0.000431,0.906142
7150000,0.0324,0.013523,0.002678,0.000431,0.926475
7151000,0.0324,0.013523,0.002678,0.000431,0.920246
7152000,0.0324,0.013523,0.002678,0.000431,0.979950
7153000,0.0324,0.013523,0.002678,0.000431,0.973486
7154000,0.0324,0.013523,0.002678,0.000431,0.971723
7155000,0.0324,0.013523,0.002678,0.000431,0.845145
7156000,0.0324,0.013523,0.002678,0.000431,0.967610
7157000,0.0324,0.013523,0.002678,0.000431,1.009215
7158000,0.0324,0.013523,0.002678,0.000431,0.899913
7159000,0.0324,0.013523,0.002678,0.000431,0.933644
7160000,0.0324,0.013523,0.002678,0.000431,0.984534
7161000,0.0324,0.013523,0.002678,0.000431,0.918248
7162000,0.0324,0.013523,0.002678,0.000431,0.910726
7163000,0.0324,0.013523,0.002678,0.000431,0.950333
7164000,0.0324,0.013523,0.002678,0.000431,0.957502
7165000,0.0324,0.013523,0.002678,0.000431,1.006629
7166000,0.0324,0.013523,0.002678,0.000431,0.892627
7167000,0.0324,0.013523,0.002678,0.000431,0.958207
7168000,0.0324,0.013523,0.002678,0.000431,0.869709
7169000,0.0324,0.013523,0.002678,0.000431,0.936935
7170000,0.0324,0.013523,0.002678,0.000431,0.994053
7171000,0.0324,0.013523,0.002678,0.000431,0.911666
7172000,0.0324,0.013523,0.002678,0.000431,0.896035
7173000,0.0324,0.013523,0.002678,0.000431,0.936582
7174000,0.0324,0.013523,0.002678,0.000431,0.917307
7175000,0.0324,0.013523,0.002678,0.000431,0.869238
7176000,0.0324,0.013523,0.002678,0.000431,0.907083
7177000,0.0324,0.013523,0.002678,0.000431,0.838799
7178000,0.0324,0.013523,0.002678,0.000431,0.868298
7179000,0.0324,0.013523,0.002678,0.000431,0.898503
7180000,0.0324,0.013523,0.002678,0.000431,0.829044
7181000,0.0324,0.013523,0.002678,0.000431,0.926592
7182000,0.0324,0.013523,0.002678,0.000431,0.870649
7183000,0.0324,0.013523,0.002678,0.000431,0.878523
7184000,0.0324,0.013523,0.002678,0.000431,0.920128
7185000,0.0324,0.013523,0.002678,0.000431,0.912489
7186000,0.0324,0.013523,0.002678,0.000431,0.861247
7187000,0.0324,0.013523,0.002678,0.000431,0.950450
7188000,0.0324,0.013523,0.002678,0.000431,0.857603
7189000,0.0324,0.013523,0.002678,0.000431,1.004631
7190000,0.0324,0.013523,0.002678,0.000431,0.997227
7191000,0.0324,0.013523,0.002678,0.000431,0.992996
7192000,0.0324,0.013523,0.002678,0.000431,0.963966
7193000,0.0324,0.013523,0.002678,0.000431,0.935759
7194000,0.0324,0.013523,0.002678,0.000431,0.897093
7195000,0.0324,0.013523,0.002678,0.000431,1.012270
7196000,0.0324,0.013523,0.002678,0.000431,0.926710
7197000,0.0324,0.013523,0.002678,0.000431,0.928238
7198000,0.0324,0.013523,0.002678,0.000431,0.913899
7199000,0.0324,0.013523,0.002678,0.000431,0.882402
7200000,0.0324,0.013523,0.002678,0.000431,0.964554
7201000,0.0324,0.013523,0.002678,0.000431,0.988530
7202000,0.0324,0.013523,0.002678,0.000431,0.930118
7203000,0.0324,0.013523,0.002678,0.000431,0.973251
7204000,0.0324,0.013523,0.002678,0.000431,1.035776
7205000,0.0324,0.013523,0.002678,0.000431,0.964906
7206000,0.0324,0.013523,0.002678,0.000431,0.995229
7207000,0.0324,0.013523,0.002678,0.000431,0.969255
7208000,0.0324,0.013523,0.002678,0.000431,0.962321
7209000,0.0324,0.013523,0.002678,0.000431,0.931176
7210000,0.0324,0.013523,0.002678,0.000431,0.963143
7211000,0.0324,0.013523,0.002678,0.000431,0.924007
7212000,0.0324,0.013523,0.002678,0.000431,1.021555
7213000,0.0324,0.013523,0.002678,0.000431,1.057166
7214000,0.0324,0.013523,0.002678,0.000431,0.893097
7215000,0.0324,0.013523,0.002678,0.000431,0.945867
7216000,0.0324,0.013523,0.002678,0.000431,1.026491
7217000,0.0324,0.013523,0.002678,0.000431,0.930236
7218000,0.0324,0.013523,0.002678,0.000431,0.948687
7219000,0.0324,0.013523,0.002678,0.000431,0.897093
7220000,0.0324,0.013523,0.002678,0.000431,1.099359
7221000,0.0324,0.013523,0.002678,0.000431,0.931763
7222000,0.0324,0.013523,0.002678,0.000431,0.963614
7223000,0.0324,0.013523,0.002678,0.000431,0.964319
7224000,0.0324,0.013523,0.002678,0.000431,0.876055
7225000,0.0324,0.013523,0.002678,0.000431,1.002163
7226000,0.0324,0.013523,0.002678,0.000431,0.951861
7227000,0.0324,0.013523,0.002678,0.000431,0.910021
7228000,0.0324,0.013523,0.002678,0.000431,1.005101
7229000,0.0324,0.013523,0.002678,0.000431,1.063160
7230000,0.0324,0.013523,0.002678,0.000431,0.973251
7231000,0.0324,0.013523,0.002678,0.000431,0.955387
7232000,0.0324,0.013523,0.002678,0.000431,0.966787
7233000,0.0324,0.013523,0.002678,0.000431,1.015796
7234000,0.0324,0.013523,0.002678,0.000431,1.000165
7235000,0.0324,0.013523,0.002678,0.000431,1.063865
7236000,0.0324,0.013523,0.002678,0.000431,0.977717
7237000,0.0324,0.013523,0.002678,0.000431,1.027079
7238000,0.0324,0.013523,0.002678,0.000431,0.974661
7239000,0.0324,0.013523,0.002678,0.000431,1.054698
7240000,0.0324,0.013523,0.002678,0.000431,1.097361
7241000,0.0324,0.013523,0.002678,0.000431,0.963026
7242000,0.0324,0.013523,0.002678,0.000431,0.996404
7243000,0.0324,0.013523,0.002678,0.000431,1.021437
7244000,0.0324,0.013523,0.002678,0.000431,1.032603
7245000,0.0324,0.013523,0.002678,0.000431,1.084433
7246000,0.0324,0.013523,0.002678,0.000431,1.117105
7247000,0.0324,0.013523,0.002678,0.000431,1.085608
7248000,0.0324,0.013523,0.002678,0.000431,0.985944
7249000,0.0324,0.013523,0.002678,0.000431,1.069154
7250000,0.0324,0.013523,0.002678,0.000431,1.039419
7251000,0.0324,0.013523,0.002678,0.000431,1.039889
7252000,0.0324,0.013523,0.002678,0.000431,0.907553
7253000,0.0324,0.013523,0.002678,0.000431,1.043063
7254000,0.0324,0.013523,0.002678,0.000431,0.992173
7255000,0.0324,0.013523,0.002678,0.000431,0.933291
7256000,0.0324,0.013523,0.002678,0.000431,0.894037
7257000,0.0324,0.013523,0.002678,0.000431,1.000400
7258000,0.0324,0.013523,0.002678,0.000431,0.920833
7259000,0.0324,0.013523,0.002678,0.000431,0.935759
7260000,0.0324,0.013523,0.002678,0.000431,0.953389
7261000,0.0324,0.013523,0.002678,0.000431,0.967727
7262000,0.0324,0.013523,0.002678,0.000431,0.894977
7263000,0.0324,0.013523,0.002678,0.000431,0.853020
7264000,0.0324,0.013523,0.002678,0.000431,0.884870
7265000,0.0324,0.013523,0.002678,0.000431,0.950803
7266000,0.0324,0.013523,0.002678,0.000431,0.856545
7267000,0.0324,0.013523,0.002678,0.000431,0.921303
7268000,0.0324,0.013523,0.002678,0.000431,0.932586
7269000,0.0324,0.013523,0.002678,0.000431,0.908023
7270000,0.0324,0.013523,0.002678,0.000431,0.877818
7271000,0.0324,0.013523,0.002678,0.000431,1.002280
7272000,0.0324,0.013523,0.002678,0.000431,0.929530
7273000,0.0324,0.013523,0.002678,0.000431,0.924594
7274000,0.0324,0.013523,0.002678,0.000431,0.977482
7275000,0.0324,0.013523,0.002678,0.000431,0.893567
7276000,0.0324,0.013523,0.002678,0.000431,0.910608
7277000,0.0324,0.013523,0.002678,0.000431,1.001223
7278000,0.0324,0.013523,0.002678,0.000431,0.957385
7279000,0.0324,0.013523,0.002678,0.000431,0.902146
7280000,0.0324,0.013523,0.002678,0.000431,0.828691
7281000,0.0324,0.013523,0.002678,0.000431,0.849376
7282000,0.0324,0.013523,0.002678,0.000431,0.882284
7283000,0.0324,0.013523,0.002678,0.000431,0.974191
7284000,0.0324,0.013523,0.002678,0.000431,0.847966
7285000,0.0324,0.013523,0.002678,0.000431,0.886398
7286000,0.0324,0.013523,0.002678,0.000431,0.882637
7287000,0.0324,0.013523,0.002678,0.000431,0.867946
7288000,0.0324,0.013523,0.002678,0.000431,0.963496
7289000,0.0324,0.013523,0.002678,0.000431,0.963731
7290000,0.0324,0.013523,0.002678,0.000431,0.902499
7291000,0.0324,0.013523,0.002678,0.000431,0.885810
7292000,0.0324,0.013523,0.002678,0.000431,1.012975
7293000,0.0324,0.013523,0.002678,0.000431,1.014386
7294000,0.0324,0.013523,0.002678,0.000431,0.900854
7295000,0.0324,0.013523,0.002678,0.000431,0.922596
7296000,0.0324,0.013523,0.002678,0.000431,0.910256
7297000,0.0324,0.013523,0.002678,0.000431,0.960205
7298000,0.0324,0.013523,0.002678,0.000431,0.952213
7299000,0.0324,0.013523,0.002678,0.000431,0.999225
7300000,0.0324,0.013523,0.002678,0.000431,0.979832
7301000,0.0324,0.013523,0.002678,0.000431,0.895330
7302000,0.0324,0.013523,0.002678,0.000431,0.940696
7303000,0.0324,0.013523,0.002678,0.000431,0.999812
7304000,0.0324,0.013523,0.002678,0.000431,0.931646
7305000,0.0324,0.013523,0.002678,0.000431,0.879346
7306000,0.0324,0.013523,0.002678,0.000431,0.916132
7307000,0.0324,0.013523,0.002678,0.000431,1.001575
7308000,0.0324,0.013523,0.002678,0.000431,1.006629
7309000,0.0324,0.013523,0.002678,0.000431,0.890158
7310000,0.0324,0.013523,0.002678,0.000431,0.940461
7311000,0.0324,0.013523,0.002678,0.000431,0.943869
7312000,0.0324,0.013523,0.002678,0.000431,1.074678
7313000,0.0324,0.013523,0.002678,0.000431,1.042005
7314000,0.0324,0.013523,0.002678,0.000431,0.935877
7315000,0.0324,0.013523,0.002678,0.000431,0.967962
7316000,0.0324,0.013523,0.002678,0.000431,0.927767
7317000,0.0324,0.013523,0.002678,0.000431,0.917895
7318000,0.0324,0.013523,0.002678,0.000431,0.917660
7319000,0.0324,0.013523,0.002678,0.000431,1.095010
7320000,0.0324,0.013523,0.002678,0.000431,0.908258
7321000,0.0324,0.013523,0.002678,0.000431,0.996992
7322000,0.0324,0.013523,0.002678,0.000431,0.947160
7323000,0.0324,0.013523,0.002678,0.000431,1.027901
7324000,0.0324,0.013523,0.002678,0.000431,0.927885
7325000,0.0324,0.013523,0.002678,0.000431,1.007569
7326000,0.0324,0.013523,0.002678,0.000431,1.036481
7327000,0.0324,0.013523,0.002678,0.000431,0.999577
7328000,0.0324,0.013523,0.002678,0.000431,0.940461
7329000,0.0324,0.013523,0.002678,0.000431,0.968080
7330000,0.0324,0.013523,0.002678,0.000431,0.893332
7331000,0.0324,0.013523,0.002678,0.000431,0.896505
7332000,0.0324,0.013523,0.002678,0.000431,0.907905
7333000,0.0324,0.013523,0.002678,0.000431,0.790377
7334000,0.0324,0.013523,0.002678,0.000431,0.989470
7335000,0.0324,0.013523,0.002678,0.000431,0.870061
7336000,0.0324,0.013523,0.002678,0.000431,0.939285
7337000,0.0324,0.013523,0.002678,0.000431,1.038361
7338000,0.0324,0.013523,0.002678,0.000431,0.821404
7339000,0.0324,0.013523,0.002678,0.000431,0.922009
7340000,0.0324,0.013523,0.002678,0.000431,0.960793
7341000,0.0324,0.013523,0.002678,0.000431,0.925652
7342000,0.0324,0.013523,0.002678,0.000431,0.927650
7343000,0.0324,0.013523,0.002678,0.000431,0.969137
7344000,0.0324,0.013523,0.002678,0.000431,0.912136
7345000,0.0324,0.013523,0.002678,0.000431,1.044473
7346000,0.0324,0.013523,0.002678,0.000431,0.865478
7347000,0.0324,0.013523,0.002678,0.000431,0.967257
7348000,0.0324,0.013523,0.002678,0.000431,1.029429
7349000,0.0324,0.013523,0.002678,0.000431,1.018499
7350000,0.0324,0.013523,0.002678,0.000431,0.990645
7351000,0.0324,0.013523,0.002678,0.000431,0.944104
7352000,0.0324,0.013523,0.002678,0.000431,0.913076
7353000,0.0324,0.013523,0.002678,0.000431,0.977952
7354000,0.0324,0.013523,0.002678,0.000431,0.994994
7355000,0.0324,0.013523,0.002678,0.000431,1.081259
7356000,0.0324,0.013523,0.002678,0.000431,1.037891
7357000,0.0324,0.013523,0.002678,0.000431,0.943399
7358000,0.0324,0.013523,0.002678,0.000431,0.927297
7359000,0.0324,0.013523,0.002678,0.000431,0.863009
7360000,0.0324,0.013523,0.002678,0.000431,1.016619
7361000,0.0324,0.013523,0.002678,0.000431,0.878876
7362000,0.0324,0.013523,0.002678,0.000431,1.001223
7363000,0.0324,0.013523,0.002678,0.000431,0.945984
7364000,0.0324,0.013523,0.002678,0.000431,0.884635
7365000,0.0324,0.013523,0.002678,0.000431,0.974191
7366000,0.0324,0.013523,0.002678,0.000431,0.906377
7367000,0.0324,0.013523,0.002678,0.000431,1.032838
7368000,0.0324,0.013523,0.002678,0.000431,0.901559
7369000,0.0324,0.013523,0.002678,0.000431,0.950685
7370000,0.0324,0.013523,0.002678,0.000431,0.951038
7371000,0.0324,0.013523,0.002678,0.000431,0.927297
7372000,0.0324,0.013523,0.002678,0.000431,0.994876
7373000,0.0324,0.013523,0.002678,0.000431,1.107468
7374000,0.0324,0.013523,0.002678,0.000431,0.957737
7375000,0.0324,0.013523,0.002678,0.000431,0.893097
7376000,0.0324,0.013523,0.002678,0.000431,1.002868
7377000,0.0324,0.013523,0.002678,0.000431,0.932939
7378000,0.0324,0.013523,0.002678,0.000431,0.962086
7379000,0.0324,0.013523,0.002678,0.000431,0.898503
7380000,0.0324,0.013523,0.002678,0.000431,0.931881
7381000,0.0324,0.013523,0.002678,0.000431,0.925652
7382000,0.0324,0.013523,0.002678,0.000431,0.962203
7383000,0.0324,0.013523,0.002678,0.000431,0.892391
7384000,0.0324,0.013523,0.002678,0.000431,0.898620
7385000,0.0324,0.013523,0.002678,0.000431,0.962673
7386000,0.0324,0.013523,0.002678,0.000431,0.923536
7387000,0.0324,0.013523,0.002678,0.000431,0.878406
7388000,0.0324,0.013523,0.002678,0.000431,0.924477
7389000,0.0324,0.013523,0.002678,0.000431,0.919423
7390000,0.0324,0.013523,0.002678,0.000431,0.888513
7391000,0.0324,0.013523,0.002678,0.000431,0.914369
7392000,0.0324,0.013523,0.002678,0.000431,0.937992
7393000,0.0324,0.013523,0.002678,0.000431,0.856663
7394000,0.0324,0.013523,0.002678,0.000431,0.872059
7395000,0.0324,0.013523,0.002678,0.000431,0.847848
7396000,0.0324,0.013523,0.002678,0.000431,0.928473
7397000,0.0324,0.013523,0.002678,0.000431,0.948687
7398000,0.0324,0.013523,0.002678,0.000431,0.925182
7399000,0.0324,0.013523,0.002678,0.000431,1.035541
7400000,0.0324,0.013523,0.002678,0.000431,0.778742
7401000,0.0324,0.013523,0.002678,0.000431,0.903204
7402000,0.0324,0.013523,0.002678,0.000431,0.846203
7403000,0.0324,0.013523,0.002678,0.000431,0.724209
7404000,0.0324,0.013523,0.002678,0.000431,0.823520
7405000,0.0324,0.013523,0.002678,0.000431,0.909433
7406000,0.0324,0.013523,0.002678,0.000431,0.870414
7407000,0.0324,0.013523,0.002678,0.000431,0.816703
7408000,0.0324,0.013523,0.002678,0.000431,0.838916
7409000,0.0324,0.013523,0.002678,0.000431,0.984181
7410000,0.0324,0.013523,0.002678,0.000431,0.871824
7411000,0.0324,0.013523,0.002678,0.000431,0.957032
7412000,0.0324,0.013523,0.002678,0.000431,0.853372
7413000,0.0324,0.013523,0.002678,0.000431,0.961968
7414000,0.0324,0.013523,0.002678,0.000431,0.899678
7415000,0.0324,0.013523,0.002678,0.000431,0.920011
7416000,0.0324,0.013523,0.002678,0.000431,0.821287
7417000,0.0324,0.013523,0.002678,0.000431,0.870414
7418000,0.0324,0.013523,0.002678,0.000431,0.850081
7419000,0.0324,0.013523,0.002678,0.000431,0.862069
7420000,0.0324,0.013523,0.002678,0.000431,0.929413
7421000,0.0324,0.013523,0.002678,0.000431,0.872999
7422000,0.0324,0.013523,0.002678,0.000431,0.878288
7423000,0.0324,0.013523,0.002678,0.000431,0.866065
7424000,0.0324,0.013523,0.002678,0.000431,0.995229
7425000,0.0324,0.013523,0.002678,0.000431,0.965964
7426000,0.0324,0.013523,0.002678,0.000431,0.876408
7427000,0.0324,0.013523,0.002678,0.000431,0.805303
7428000,0.0324,0.013523,0.002678,0.000431,0.865478
7429000,0.0324,0.013523,0.002678,0.000431,0.988765
7430000,0.0324,0.013523,0.002678,0.000431,0.850434
7431000,0.0324,0.013523,0.002678,0.000431,0.900736
7432000,0.0324,0.013523,0.002678,0.000431,0.871824
7433000,0.0324,0.013523,0.002678,0.000431,0.806831
7434000,0.0324,0.013523,0.002678,0.000431,0.896152
7435000,0.0324,0.013523,0.002678,0.000431,0.929413
7436000,0.0324,0.013523,0.002678,0.000431,0.997344
7437000,0.0324,0.013523,0.002678,0.000431,0.923066
7438000,0.0324,0.013523,0.002678,0.000431,0.883577
7439000,0.0324,0.013523,0.002678,0.000431,0.865360
7440000,0.0324,0.013523,0.002678,0.000431,0.868298
7441000,0.0324,0.013523,0.002678,0.000431,0.901559
7442000,0.0324,0.013523,0.002678,0.000431,0.918130
7443000,0.0324,0.013523,0.002678,0.000431,0.869826
7444000,0.0324,0.013523,0.002678,0.000431,0.879698
7445000,0.0324,0.013523,0.002678,0.000431,0.835978
7446000,0.0324,0.013523,0.002678,0.000431,1.039537
7447000,0.0324,0.013523,0.002678,0.000431,0.892274
7448000,0.0324,0.013523,0.002678,0.000431,0.949393
7449000,0.0324,0.013523,0.002678,0.000431,0.922479
7450000,0.0324,0.013523,0.002678,0.000431,0.923419
7451000,0.0324,0.013523,0.002678,0.000431,0.938227
7452000,0.0324,0.013523,0.002678,0.000431,0.896035
7453000,0.0324,0.013523,0.002678,0.000431,0.943634
7454000,0.0324,0.013523,0.002678,0.000431,0.941401
7455000,0.0324,0.013523,0.002678,0.000431,0.953036
7456000,0.0324,0.013523,0.002678,0.000431,0.832570
7457000,0.0324,0.013523,0.002678,0.000431,0.848318
7458000,0.0324,0.013523,0.002678,0.000431,0.913782
7459000,0.0324,0.013523,0.002678,0.000431,0.908845
7460000,0.0324,0.013523,0.002678,0.000431,0.855958
7461000,0.0324,0.013523,0.002678,0.000431,0.874762
7462000,0.0324,0.013523,0.002678,0.000431,0.942929
7463000,0.0324,0.013523,0.002678,0.000431,0.959853
7464000,0.0324,0.013523,0.002678,0.000431,0.928003
7465000,0.0324,0.013523,0.002678,0.000431,0.910843
7466000,0.0324,0.013523,0.002678,0.000431,0.946807
7467000,0.0324,0.013523,0.002678,0.000431,0.844793
7468000,0.0324,0.013523,0.002678,0.000431,0.876643
7469000,0.0324,0.013523,0.002678,0.000431,0.963614
7470000,0.0324,0.013523,0.002678,0.000431,0.897798
7471000,0.0324,0.013523,0.002678,0.000431,1.018499
7472000,0.0324,0.013523,0.002678,0.000431,1.025551
7473000,0.0324,0.013523,0.002678,0.000431,0.944339
7474000,0.0324,0.013523,0.002678,0.000431,0.878171
7475000,0.0324,0.013523,0.002678,0.000431,0.967022
7476000,0.0324,0.013523,0.002678,0.000431,0.936347
7477000,0.0324,0.013523,0.002678,0.000431,0.990880
7478000,0.0324,0.013523,0.002678,0.000431,0.916485
7479000,0.0324,0.013523,0.002678,0.000431,1.049527
7480000,0.0324,0.013523,0.002678,0.000431,0.921186
7481000,0.0324,0.013523,0.002678,0.000431,0.894037
7482000,0.0324,0.013523,0.002678,0.000431,0.986414
7483000,0.0324,0.013523,0.002678,0.000431,0.869591
7484000,0.0324,0.013523,0.002678,0.000431,0.961145
7485000,0.0324,0.013523,0.002678,0.000431,0.977129
7486000,0.0324,0.013523,0.002678,0.000431,0.928003
7487000,0.0324,0.013523,0.002678,0.000431,0.941283
7488000,0.0324,0.013523,0.002678,0.000431,1.032955
7489000,0.0324,0.013523,0.002678,0.000431,1.017324
7490000,0.0324,0.013523,0.002678,0.000431,0.973251
7491000,0.0324,0.013523,0.002678,0.000431,1.042475
7492000,0.0324,0.013523,0.002678,0.000431,0.924829
7493000,0.0324,0.013523,0.002678,0.000431,1.034601
7494000,0.0324,0.013523,0.002678,0.000431,1.022848
7495000,0.0324,0.013523,0.002678,0.000431,0.958207
7496000,0.0324,0.013523,0.002678,0.000431,0.870179
7497000,0.0324,0.013523,0.002678,0.000431,0.933526
7498000,0.0324,0.013523,0.002678,0.000431,0.962321
7499000,0.0324,0.013523,0.002678,0.000431,0.971723
7500000,0.0324,0.013523,0.002678,0.000431,0.908140
7501000,0.0324,0.013523,0.002678,0.000431,0.927062
7502000,0.0324,0.013523,0.002678,0.000431,0.915074
7503000,0.0324,0.013523,0.002678,0.000431,0.887455
7504000,0.0324,0.013523,0.002678,0.000431,0.919070
7505000,0.0324,0.013523,0.002678,0.000431,1.022495
7506000,0.0324,0.013523,0.002678,0.000431,0.944104
7507000,0.0324,0.013523,0.002678,0.000431,0.798957
7508000,0.0324,0.013523,0.002678,0.000431,0.940578
7509000,0.0324,0.013523,0.002678,0.000431,0.890864
7510000,0.0324,0.013523,0.002678,0.000431,0.886515
7511000,0.0324,0.013523,0.002678,0.000431,0.977012
7512000,0.0324,0.013523,0.002678,0.000431,0.866065
7513000,0.0324,0.013523,0.002678,0.000431,0.844558
7514000,0.0324,0.013523,0.002678,0.000431,0.941166
7515000,0.0324,0.013523,0.002678,0.000431,0.842089
7516000,0.0324,0.013523,0.002678,0.000431,0.997227
7517000,0.0324,0.013523,0.002678,0.000431,0.935642
7518000,0.0324,0.013523,0.002678,0.000431,0.959030
7519000,0.0324,0.013523,0.002678,0.000431,0.929648
7520000,0.0324,0.013523,0.002678,0.000431,0.897915
7521000,0.0324,0.013523,0.002678,0.000431,1.014033
7522000,0.0324,0.013523,0.002678,0.000431,0.868298
7523000,0.0324,0.013523,0.002678,0.000431,0.972898
7524000,0.0324,0.013523,0.002678,0.000431,1.030487
7525000,0.0324,0.013523,0.002678,0.000431,0.998167
7526000,0.0324,0.013523,0.002678,0.000431,0.920011
7527000,0.0324,0.013523,0.002678,0.000431,1.003808
7528000,0.0324,0.013523,0.002678,0.000431,0.923536
7529000,0.0324,0.013523,0.002678,0.000431,1.027666
7530000,0.0324,0.013523,0.002678,0.000431,1.024141
7531000,0.0324,0.013523,0.002678,0.000431,1.024493
7532000,0.0324,0.013523,0.002678,0.000431,1.077968
7533000,0.0324,0.013523,0.002678,0.000431,0.890511
7534000,0.0324,0.013523,0.002678,0.000431,1.020850
7535000,0.0324,0.013523,0.002678,0.000431,1.038009
7536000,0.0324,0.013523,0.002678,0.000431,0.952566
7537000,0.0324,0.013523,0.002678,0.000431,1.026961
7538000,0.0324,0.013523,0.002678,0.000431,0.935759
7539000,0.0324,0.013523,0.002678,0.000431,0.967845
7540000,0.0324,0.013523,0.002678,0.000431,0.941166
7541000,0.0324,0.013523,0.002678,0.000431,0.972663
7542000,0.0324,0.013523,0.002678,0.000431,1.067626
7543000,0.0324,0.013523,0.002678,0.000431,0.932704
7544000,0.0324,0.013523,0.002678,0.000431,1.036716
7545000,0.0324,0.013523,0.002678,0.000431,0.877348
7546000,0.0324,0.013523,0.002678,0.000431,0.886985
7547000,0.0324,0.013523,0.002678,0.000431,1.056696
7548000,0.0324,0.013523,0.002678,0.000431,1.010390
7549000,0.0324,0.013523,0.002678,0.000431,0.805421
7550000,0.0324,0.013523,0.002678,0.000431,0.881696
7551000,0.0324,0.013523,0.002678,0.000431,0.959147
7552000,0.0324,0.013523,0.002678,0.000431,0.948687
7553000,0.0324,0.013523,0.002678,0.000431,0.961851
7554000,0.0324,0.013523,0.002678,0.000431,0.922009
7555000,0.0324,0.013523,0.002678,0.000431,0.933996
7556000,0.0324,0.013523,0.002678,0.000431,0.928708
7557000,0.0324,0.013523,0.002678,0.000431,0.908023
7558000,0.0324,0.013523,0.002678,0.000431,0.896505
7559000,0.0324,0.013523,0.002678,0.000431,1.031310
7560000,0.0324,0.013523,0.002678,0.000431,0.940343
7561000,0.0324,0.013523,0.002678,0.000431,0.905555
7562000,0.0324,0.013523,0.002678,0.000431,1.011095
7563000,0.0324,0.013523,0.002678,0.000431,1.010272
7564000,0.0324,0.013523,0.002678,0.000431,0.882519
7565000,0.0324,0.013523,0.002678,0.000431,1.030135
7566000,0.0324,0.013523,0.002678,0.000431,0.998872
7567000,0.0324,0.013523,0.002678,0.000431,0.912841
7568000,0.0324,0.013523,0.002678,0.000431,0.954916
7569000,0.0324,0.013523,0.002678,0.000431,1.083610
7570000,0.0324,0.013523,0.002678,0.000431,0.983123
7571000,0.0324,0.013523,0.002678,0.000431,0.983946
7572000,0.0324,0.013523,0.002678,0.000431,1.073150
7573000,0.0324,0.013523,0.002678,0.000431,0.845263
7574000,0.0324,0.013523,0.002678,0.000431,0.944927
7575000,0.0324,0.013523,0.002678,0.000431,0.987589
7576000,0.0324,0.013523,0.002678,0.000431,0.956562
7577000,0.0324,0.013523,0.002678,0.000431,1.019204
7578000,0.0324,0.013523,0.002678,0.000431,1.001105
7579000,0.0324,0.013523,0.002678,0.000431,0.981125
7580000,0.0324,0.013523,0.002678,0.000431,0.989352
7581000,0.0324,0.013523,0.002678,0.000431,0.989235
7582000,0.0324,0.013523,0.002678,0.000431,1.098183
7583000,0.0324,0.013523,0.002678,0.000431,0.897798
7584000,0.0324,0.013523,0.002678,0.000431,1.029782
7585000,0.0324,0.013523,0.002678,0.000431,1.027549
7586000,0.0324,0.013523,0.002678,0.000431,1.035071
7587000,0.0324,0.013523,0.002678,0.000431,0.981125
7588000,0.0324,0.013523,0.002678,0.000431,1.007334
7589000,0.0324,0.013523,0.002678,0.000431,0.940461
7590000,0.0324,0.013523,0.002678,0.000431,0.945632
7591000,0.0324,0.013523,0.002678,0.000431,0.980185
7592000,0.0324,0.013523,0.002678,0.000431,0.929295
7593000,0.0324,0.013523,0.002678,0.000431,1.062572
7594000,0.0324,0.013523,0.002678,0.000431,1.043650
7595000,0.0324,0.013523,0.002678,0.000431,0.922596
7596000,0.0324,0.013523,0.002678,0.000431,0.901441
7597000,0.0324,0.013523,0.002678,0.000431,1.081964
7598000,0.0324,0.013523,0.002678,0.000431,0.921538
7599000,0.0324,0.013523,0.002678,0.000431,0.914957
7600000,0.0324,0.013523,0.002678,0.000431,0.944339
7601000,0.0324,0.013523,0.002678,0.000431,0.990763
7602000,0.0324,0.013523,0.002678,0.000431,1.023083
7603000,0.0324,0.013523,0.002678,0.000431,1.100064
7604000,0.0324,0.013523,0.002678,0.000431,0.912841
7605000,0.0324,0.013523,0.002678,0.000431,1.028607
7606000,0.0324,0.013523,0.002678,0.000431,0.884400
7607000,0.0324,0.013523,0.002678,0.000431,1.034130
7608000,0.0324,0.013523,0.002678,0.000431,0.856545
7609000,0.0324,0.013523,0.002678,0.000431,0.916367
7610000,0.0324,0.013523,0.002678,0.000431,0.937992
7611000,0.0324,0.013523,0.002678,0.000431,0.957385
7612000,0.0324,0.013523,0.002678,0.000431,0.953976
7613000,0.0324,0.013523,0.002678,0.000431,0.961381
7614000,0.0324,0.013523,0.002678,0.000431,0.886280
7615000,0.0324,0.013523,0.002678,0.000431,0.903557
7616000,0.0324,0.013523,0.002678,0.000431,0.905790
7617000,0.0324,0.013523,0.002678,0.000431,0.946454
7618000,0.0324,0.013523,0.002678,0.000431,1.012153
7619000,0.0324,0.013523,0.002678,0.000431,0.830689
7620000,0.0324,0.013523,0.002678,0.000431,0.958912
7621000,0.0324,0.013523,0.002678,0.000431,0.807771
7622000,0.0324,0.013523,0.002678,0.000431,0.883224
7623000,0.0324,0.013523,0.002678,0.000431,0.868181
7624000,0.0324,0.013523,0.002678,0.000431,0.945514
7625000,0.0324,0.013523,0.002678,0.000431,0.883107
7626000,0.0324,0.013523,0.002678,0.000431,0.843617
7627000,0.0324,0.013523,0.002678,0.000431,0.929883
7628000,0.0324,0.013523,0.002678,0.000431,0.882754
7629000,0.0324,0.013523,0.002678,0.000431,0.971370
7630000,0.0324,0.013523,0.002678,0.000431,0.936230
7631000,0.0324,0.013523,0.002678,0.000431,0.894742
7632000,0.0324,0.013523,0.002678,0.000431,0.945162
7633000,0.0324,0.013523,0.002678,0.000431,0.871942
7634000,0.0324,0.013523,0.002678,0.000431,0.837506
7635000,0.0324,0.013523,0.002678,0.000431,0.839269
7636000,0.0324,0.013523,0.002678,0.000431,0.922714
7637000,0.0324,0.013523,0.002678,0.000431,0.884047
7638000,0.0324,0.013523,0.002678,0.000431,0.966317
7639000,0.0324,0.013523,0.002678,0.000431,0.999460
7640000,0.0324,0.013523,0.002678,0.000431,0.961616
7641000,0.0324,0.013523,0.002678,0.000431,0.968902
7642000,0.0324,0.013523,0.002678,0.000431,0.851844
7643000,0.0324,0.013523,0.002678,0.000431,0.985121
7644000,0.0324,0.013523,0.002678,0.000431,0.907553
7645000,0.0324,0.013523,0.002678,0.000431,0.923419
7646000,0.0324,0.013523,0.002678,0.000431,0.895800
7647000,0.0324,0.013523,0.002678,0.000431,0.895330
7648000,0.0324,0.013523,0.002678,0.000431,0.957032
7649000,0.0324,0.013523,0.002678,0.000431,0.886985
7650000,0.0324,0.013523,0.002678,0.000431,0.899208
7651000,0.0324,0.013523,0.002678,0.000431,0.956327
7652000,0.0324,0.013523,0.002678,0.000431,0.932821
7653000,0.0324,0.013523,0.002678,0.000431,0.990763
7654000,0.0324,0.013523,0.002678,0.000431,1.015443
7655000,0.0324,0.013523,0.002678,0.000431,0.957620
7656000,0.0324,0.013523,0.002678,0.000431,0.937522
7657000,0.0324,0.013523,0.002678,0.000431,0.996169
7658000,0.0324,0.013523,0.002678,0.000431,0.975366
7659000,0.0324,0.013523,0.002678,0.000431,0.911196
7660000,0.0324,0.013523,0.002678,0.000431,0.907670
7661000,0.0324,0.013523,0.002678,0.000431,0.976659
7662000,0.0324,0.013523,0.002678,0.000431,0.875820
7663000,0.0324,0.013523,0.002678,0.000431,0.937992
7664000,0.0324,0.013523,0.002678,0.000431,0.909316
7665000,0.0324,0.013523,0.002678,0.000431,0.853607
7666000,0.0324,0.013523,0.002678,0.000431,0.886398
7667000,0.0324,0.013523,0.002678,0.000431,0.900618
7668000,0.0324,0.013523,0.002678,0.000431,0.932234
7669000,0.0324,0.013523,0.002678,0.000431,0.856193
7670000,0.0324,0.013523,0.002678,0.000431,0.910961
7671000,0.0324,0.013523,0.002678,0.000431,0.890981
7672000,0.0324,0.013523,0.002678,0.000431,0.879111
7673000,0.0324,0.013523,0.002678,0.000431,0.872294
7674000,0.0324,0.013523,0.002678,0.000431,0.982653
7675000,0.0324,0.013523,0.002678,0.000431,0.942458
7676000,0.0324,0.013523,0.002678,0.000431,0.846203
7677000,0.0324,0.013523,0.002678,0.000431,0.874880
7678000,0.0324,0.013523,0.002678,0.000431,0.860776
7679000,0.0324,0.013523,0.002678,0.000431,0.848906
7680000,0.0324,0.013523,0.002678,0.000431,0.872059
7681000,0.0324,0.013523,0.002678,0.000431,0.922361
7682000,0.0324,0.013523,0.002678,0.000431,0.914017
7683000,0.0324,0.013523,0.002678,0.000431,0.764991
7684000,0.0324,0.013523,0.002678,0.000431,0.839739
7685000,0.0324,0.013523,0.002678,0.000431,0.858426
7686000,0.0324,0.013523,0.002678,0.000431,0.872882
7687000,0.0324,0.013523,0.002678,0.000431,0.819406
7688000,0.0324,0.013523,0.002678,0.000431,0.773218
7689000,0.0324,0.013523,0.002678,0.000431,0.952919
7690000,0.0324,0.013523,0.002678,0.000431,0.826576
7691000,0.0324,0.013523,0.002678,0.000431,0.854665
7692000,0.0324,0.013523,0.002678,0.000431,0.900854
7693000,0.0324,0.013523,0.002678,0.000431,0.858308
7694000,0.0324,0.013523,0.002678,0.000431,0.815411
7695000,0.0324,0.013523,0.002678,0.000431,0.938580
7696000,0.0324,0.013523,0.002678,0.000431,0.876408
7697000,0.0324,0.013523,0.002678,0.000431,0.829631
7698000,0.0324,0.013523,0.002678,0.000431,0.916250
7699000,0.0324,0.013523,0.002678,0.000431,0.956209
7700000,0.0324,0.013523,0.002678,0.000431,0.933526
7701000,0.0324,0.013523,0.002678,0.000431,0.742778
7702000,0.0324,0.013523,0.002678,0.000431,0.844675
7703000,0.0324,0.013523,0.002678,0.000431,0.827751
7704000,0.0324,0.013523,0.002678,0.000431,0.849141
7705000,0.0324,0.013523,0.002678,0.000431,0.893097
7706000,0.0324,0.013523,0.002678,0.000431,0.963966
7707000,0.0324,0.013523,0.002678,0.000431,0.824460
7708000,0.0324,0.013523,0.002678,0.000431,0.852667
7709000,0.0324,0.013523,0.002678,0.000431,0.833392
7710000,0.0324,0.013523,0.002678,0.000431,0.842677
7711000,0.0324,0.013523,0.002678,0.000431,0.938698
7712000,0.0324,0.013523,0.002678,0.000431,0.868651
7713000,0.0324,0.013523,0.002678,0.000431,0.838916
7714000,0.0324,0.013523,0.002678,0.000431,0.861717
7715000,0.0324,0.013523,0.002678,0.000431,0.902146
7716000,0.0324,0.013523,0.002678,0.000431,0.887925
7717000,0.0324,0.013523,0.002678,0.000431,0.767812
7718000,0.0324,0.013523,0.002678,0.000431,0.842442
7719000,0.0324,0.013523,0.002678,0.000431,0.930118
7720000,0.0324,0.013523,0.002678,0.000431,0.945867
7721000,0.0324,0.013523,0.002678,0.000431,0.802717
7722000,0.0324,0.013523,0.002678,0.000431,0.932351
7723000,0.0324,0.013523,0.002678,0.000431,0.858778
7724000,0.0324,0.013523,0.002678,0.000431,0.949275
7725000,0.0324,0.013523,0.002678,0.000431,0.913194
7726000,0.0324,0.013523,0.002678,0.000431,0.893567
7727000,0.0324,0.013523,0.002678,0.000431,0.987237
7728000,0.0324,0.013523,0.002678,0.000431,0.945632
7729000,0.0324,0.013523,0.002678,0.000431,0.976894
7730000,0.0324,0.013523,0.002678,0.000431,0.930353
7731000,0.0324,0.013523,0.002678,0.000431,0.877818
7732000,0.0324,0.013523,0.002678,0.000431,0.947630
7733000,0.0324,0.013523,0.002678,0.000431,0.911078
7734000,0.0324,0.013523,0.002678,0.000431,1.022848
7735000,0.0324,0.013523,0.002678,0.000431,0.872529
7736000,0.0324,0.013523,0.002678,0.000431,0.905437
7737000,0.0324,0.013523,0.002678,0.000431,0.949158
7738000,0.0324,0.013523,0.002678,0.000431,1.037069
7739000,0.0324,0.013523,0.002678,0.000431,0.905320
7740000,0.0324,0.013523,0.002678,0.000431,0.895095
7741000,0.0324,0.013523,0.002678,0.000431,1.084903
7742000,0.0324,0.013523,0.002678,0.000431,0.929530
7743000,0.0324,0.013523,0.002678,0.000431,0.924007
7744000,0.0324,0.013523,0.002678,0.000431,0.967727
7745000,0.0324,0.013523,0.002678,0.000431,1.058576
7746000,0.0324,0.013523,0.002678,0.000431,0.857603
7747000,0.0324,0.013523,0.002678,0.000431,0.841972
7748000,0.0324,0.013523,0.002678,0.000431,0.894507
7749000,0.0324,0.013523,0.002678,0.000431,0.810122
7750000,0.0324,0.013523,0.002678,0.000431,0.878288
7751000,0.0324,0.013523,0.002678,0.000431,0.887808
7752000,0.0324,0.013523,0.002678,0.000431,0.971253
7753000,0.0324,0.013523,0.002678,0.000431,0.880874
7754000,0.0324,0.013523,0.002678,0.000431,0.948805
7755000,0.0324,0.013523,0.002678,0.000431,1.096773
7756000,0.0324,0.013523,0.002678,0.000431,0.799309
7757000,0.0324,0.013523,0.002678,0.000431,0.902146
7758000,0.0324,0.013523,0.002678,0.000431,0.936112
7759000,0.0324,0.013523,0.002678,0.000431,1.012388
7760000,0.0324,0.013523,0.002678,0.000431,1.043885
7761000,0.0324,0.013523,0.002678,0.000431,0.951978
7762000,0.0324,0.013523,0.002678,0.000431,0.957972
7763000,0.0324,0.013523,0.002678,0.000431,1.040242
7764000,0.0324,0.013523,0.002678,0.000431,0.888396
7765000,0.0324,0.013523,0.002678,0.000431,0.893449
7766000,0.0324,0.013523,0.002678,0.000431,0.915309
7767000,0.0324,0.013523,0.002678,0.000431,1.056578
7768000,0.0324,0.013523,0.002678,0.000431,0.925534
7769000,0.0324,0.013523,0.002678,0.000431,0.919423
7770000,0.0324,0.013523,0.002678,0.000431,1.008392
7771000,0.0324,0.013523,0.002678,0.000431,1.081377
7772000,0.0324,0.013523,0.002678,0.000431,0.988765
7773000,0.0324,0.013523,0.002678,0.000431,1.025904
7774000,0.0324,0.013523,0.002678,0.000431,0.979480
7775000,0.0324,0.013523,0.002678,0.000431,1.010860
7776000,0.0324,0.013523,0.002678,0.000431,1.020262
7777000,0.0324,0.013523,0.002678,0.000431,0.922244
7778000,0.0324,0.013523,0.002678,0.000431,0.964084
7779000,0.0324,0.013523,0.002678,0.000431,0.972076
7780000,0.0324,0.013523,0.002678,0.000431,0.928590
7781000,0.0324,0.013523,0.002678,0.000431,0.939285
7782000,0.0324,0.013523,0.002678,0.000431,0.983123
7783000,0.0324,0.013523,0.002678,0.000431,0.981713
7784000,0.0324,0.013523,0.002678,0.000431,0.986532
7785000,0.0324,0.013523,0.002678,0.000431,0.953624
7786000,0.0324,0.013523,0.002678,0.000431,0.950333
7787000,0.0324,0.013523,0.002678,0.000431,0.928708
7788000,0.0324,0.013523,0.002678,0.000431,0.928943
7789000,0.0324,0.013523,0.002678,0.000431,0.895565
7790000,0.0324,0.013523,0.002678,0.000431,0.918013
7791000,0.0324,0.013523,0.002678,0.000431,0.791670
7792000,0.0324,0.013523,0.002678,0.000431,0.892039
7793000,0.0324,0.013523,0.002678,0.000431,0.863480
7794000,0.0324,0.013523,0.002678,0.000431,0.855840
7795000,0.0324,0.013523,0.002678,0.000431,0.925064
7796000,0.0324,0.013523,0.002678,0.000431,0.883459
7797000,0.0324,0.013523,0.002678,0.000431,0.956209
7798000,0.0324,0.013523,0.002678,0.000431,0.910726
7799000,0.0324,0.013523,0.002678,0.000431,0.847613
7800000,0.0324,0.013523,0.002678,0.000431,0.924359
7801000,0.0324,0.013523,0.002678,0.000431,0.880639
7802000,0.0324,0.013523,0.002678,0.000431,0.881931
7803000,0.0324,0.013523,0.002678,0.000431,0.868886
7804000,0.0324,0.013523,0.002678,0.000431,0.825165
7805000,0.0324,0.013523,0.002678,0.000431,0.879816
7806000,0.0324,0.013523,0.002678,0.000431,0.855958
7807000,0.0324,0.013523,0.002678,0.000431,0.919540
7808000,0.0324,0.013523,0.002678,0.000431,0.978305
7809000,0.0324,0.013523,0.002678,0.000431,0.816468
7810000,0.0324,0.013523,0.002678,0.000431,0.874057
7811000,0.0324,0.013523,0.002678,0.000431,0.832100
7812000,0.0324,0.013523,0.002678,0.000431,0.745834
7813000,0.0324,0.013523,0.002678,0.000431,0.737372
7814000,0.0324,0.013523,0.002678,0.000431,0.878523
7815000,0.0324,0.013523,0.002678,0.000431,0.780270
7816000,0.0324,0.013523,0.002678,0.000431,0.652869
7817000,0.0324,0.013523,0.002678,0.000431,0.688010
7818000,0.0324,0.013523,0.002678,0.000431,0.713514
7819000,0.0324,0.013523,0.002678,0.000431,0.780505
7820000,0.0324,0.013523,0.002678,0.000431,0.802130
7821000,0.0324,0.013523,0.002678,0.000431,0.755706
7822000,0.0324,0.013523,0.002678,0.000431,0.810827
7823000,0.0324,0.013523,0.002678,0.000431,0.806478
7824000,0.0324,0.013523,0.002678,0.000431,0.700233
7825000,0.0324,0.013523,0.002678,0.000431,0.710575
7826000,0.0324,0.013523,0.002678,0.000431,0.769927
7827000,0.0324,0.013523,0.002678,0.000431,0.878406
7828000,0.0324,0.013523,0.002678,0.000431,0.753473
7829000,0.0324,0.013523,0.002678,0.000431,0.668618
7830000,0.0324,0.013523,0.002678,0.000431,0.757822
7831000,0.0324,0.013523,0.002678,0.000431,0.712456
7832000,0.0324,0.013523,0.002678,0.000431,0.590344
7833000,0.0324,0.013523,0.002678,0.000431,0.563195
7834000,0.0324,0.013523,0.002678,0.000431,0.650283
7835000,0.0324,0.013523,0.002678,0.000431,0.643467
7836000,0.0324,0.013523,0.002678,0.000431,0.664034
7837000,0.0324,0.013523,0.002678,0.000431,0.783913
7838000,0.0324,0.013523,0.002678,0.000431,0.756059
7839000,0.0324,0.013523,0.002678,0.000431,0.572950
7840000,0.0324,0.013523,0.002678,0.000431,0.635357
7841000,0.0324,0.013523,0.002678,0.000431,0.665680
7842000,0.0324,0.013523,0.002678,0.000431,0.728440
7843000,0.0324,0.013523,0.002678,0.000431,0.804128
7844000,0.0324,0.013523,0.002678,0.000431,0.860894
7845000,0.0324,0.013523,0.002678,0.000431,0.762523
7846000,0.0324,0.013523,0.002678,0.000431,0.821640
7847000,0.0324,0.013523,0.002678,0.000431,0.652752
7848000,0.0324,0.013523,0.002678,0.000431,0.844675
7849000,0.0324,0.013523,0.002678,0.000431,0.843147
7850000,0.0324,0.013523,0.002678,0.000431,0.823285
7851000,0.0324,0.013523,0.002678,0.000431,0.815528
7852000,0.0324,0.013523,0.002678,0.000431,0.764051
7853000,0.0324,0.013523,0.002678,0.000431,0.867240
7854000,0.0324,0.013523,0.002678,0.000431,0.868768
7855000,0.0324,0.013523,0.002678,0.000431,0.789672
7856000,0.0324,0.013523,0.002678,0.000431,0.852314
7857000,0.0324,0.013523,0.002678,0.000431,0.860894
7858000,0.0324,0.013523,0.002678,0.000431,0.921891
7859000,0.0324,0.013523,0.002678,0.000431,0.905672
7860000,0.0324,0.013523,0.002678,0.000431,0.916602
7861000,0.0324,0.013523,0.002678,0.000431,0.910843
7862000,0.0324,0.013523,0.002678,0.000431,0.798369
7863000,0.0324,0.013523,0.002678,0.000431,0.813295
7864000,0.0324,0.013523,0.002678,0.000431,0.858308
7865000,0.0324,0.013523,0.002678,0.000431,0.822227
7866000,0.0324,0.013523,0.002678,0.000431,0.973368
7867000,0.0324,0.013523,0.002678,0.000431,0.994876
7868000,0.0324,0.013523,0.002678,0.000431,0.964201
7869000,0.0324,0.013523,0.002678,0.000431,0.939990
7870000,0.0324,0.013523,0.002678,0.000431,0.832100
7871000,0.0324,0.013523,0.002678,0.000431,0.853725
7872000,0.0324,0.013523,0.002678,0.000431,0.931058
7873000,0.0324,0.013523,0.002678,0.000431,0.950921
7874000,0.0324,0.013523,0.002678,0.000431,0.885105
7875000,0.0324,0.013523,0.002678,0.000431,0.902734
7876000,0.0324,0.013523,0.002678,0.000431,0.937405
7877000,0.0324,0.013523,0.002678,0.000431,0.975719
7878000,0.0324,0.013523,0.002678,0.000431,1.065863
7879000,0.0324,0.013523,0.002678,0.000431,0.963379
7880000,0.0324,0.013523,0.002678,0.000431,0.833392
7881000,0.0324,0.013523,0.002678,0.000431,0.966082
7882000,0.0324,0.013523,0.002678,0.000431,0.966434
7883000,0.0324,0.013523,0.002678,0.000431,1.057871
7884000,0.0324,0.013523,0.002678,0.000431,1.058341
7885000,0.0324,0.013523,0.002678,0.000431,0.917895
7886000,0.0324,0.013523,0.002678,0.000431,0.966082
7887000,0.0324,0.013523,0.002678,0.000431,0.894507
7888000,0.0324,0.013523,0.002678,0.000431,1.032485
7889000,0.0324,0.013523,0.002678,0.000431,1.015443
7890000,0.0324,0.013523,0.002678,0.000431,1.010625
7891000,0.0324,0.013523,0.002678,0.000431,1.067038
7892000,0.0324,0.013523,0.002678,0.000431,0.942223
7893000,0.0324,0.013523,0.002678,0.000431,1.069154
7894000,0.0324,0.013523,0.002678,0.000431,1.102414
7895000,0.0324,0.013523,0.002678,0.000431,1.073150
7896000,0.0324,0.013523,0.002678,0.000431,0.951273
7897000,0.0324,0.013523,0.002678,0.000431,0.987707
7898000,0.0324,0.013523,0.002678,0.000431,1.109113
7899000,0.0324,0.013523,0.002678,0.000431,0.996874
7900000,0.0324,0.013523,0.002678,0.000431,1.059046
7901000,0.0324,0.013523,0.002678,0.000431,0.993583
7902000,0.0324,0.013523,0.002678,0.000431,0.932704
7903000,0.0324,0.013523,0.002678,0.000431,0.983828
7904000,0.0324,0.013523,0.002678,0.000431,1.030370
7905000,0.0324,0.013523,0.002678,0.000431,0.987707
7906000,0.0324,0.013523,0.002678,0.000431,0.970548
7907000,0.0324,0.013523,0.002678,0.000431,1.013798
7908000,0.0324,0.013523,0.002678,0.000431,0.945514
7909000,0.0324,0.013523,0.002678,0.000431,1.037656
7910000,0.0324,0.013523,0.002678,0.000431,0.879463
7911000,0.0324,0.013523,0.002678,0.000431,0.971488
7912000,0.0324,0.013523,0.002678,0.000431,0.946572
7913000,0.0324,0.013523,0.002678,0.000431,0.988882
7914000,0.0324,0.013523,0.002678,0.000431,0.950803
7915000,0.0324,0.013523,0.002678,0.000431,0.945279
7916000,0.0324,0.013523,0.002678,0.000431,1.006276
7917000,0.0324,0.013523,0.002678,0.000431,1.019087
7918000,0.0324,0.013523,0.002678,0.000431,1.031192
7919000,0.0324,0.013523,0.002678,0.000431,0.954211
7920000,0.0324,0.013523,0.002678,0.000431,0.903909
7921000,0.0324,0.013523,0.002678,0.000431,0.910726
7922000,0.0324,0.013523,0.002678,0.000431,0.978422
7923000,0.0324,0.013523,0.002678,0.000431,0.946572
7924000,0.0324,0.013523,0.002678,0.000431,0.954681
7925000,0.0324,0.013523,0.002678,0.000431,0.981830
7926000,0.0324,0.013523,0.002678,0.000431,0.957267
7927000,0.0324,0.013523,0.002678,0.000431,1.024846
7928000,0.0324,0.013523,0.002678,0.000431,1.123569
7929000,0.0324,0.013523,0.002678,0.000431,0.953859
7930000,0.0324,0.013523,0.002678,0.000431,0.928590
7931000,0.0324,0.013523,0.002678,0.000431,0.992761
7932000,0.0324,0.013523,0.002678,0.000431,0.973133
7933000,0.0324,0.013523,0.002678,0.000431,1.023200
7934000,0.0324,0.013523,0.002678,0.000431,0.891216
7935000,0.0324,0.013523,0.002678,0.000431,0.926475
7936000,0.0324,0.013523,0.002678,0.000431,0.910373
7937000,0.0324,0.013523,0.002678,0.000431,0.946454
7938000,0.0324,0.013523,0.002678,0.000431,0.911784
7939000,0.0324,0.013523,0.002678,0.000431,0.932939
7940000,0.0324,0.013523,0.002678,0.000431,0.921656
7941000,0.0324,0.013523,0.002678,0.000431,0.926240
7942000,0.0324,0.013523,0.002678,0.000431,1.018382
7943000,0.0324,0.013523,0.002678,0.000431,0.910138
7944000,0.0324,0.013523,0.002678,0.000431,0.927415
7945000,0.0324,0.013523,0.002678,0.000431,0.984416
7946000,0.0324,0.013523,0.002678,0.000431,0.956327
7947000,0.0324,0.013523,0.002678,0.000431,1.002633
7948000,0.0324,0.013523,0.002678,0.000431,0.946102
7949000,0.0324,0.013523,0.002678,0.000431,0.896858
7950000,0.0324,0.013523,0.002678,0.000431,0.899678
7951000,0.0324,0.013523,0.002678,0.000431,0.890394
7952000,0.0324,0.013523,0.002678,0.000431,0.927297
7953000,0.0324,0.013523,0.002678,0.000431,0.929060
7954000,0.0324,0.013523,0.002678,0.000431,0.944927
7955000,0.0324,0.013523,0.002678,0.000431,0.834685
7956000,0.0324,0.013523,0.002678,0.000431,0.839034
7957000,0.0324,0.013523,0.002678,0.000431,0.769692
7958000,0.0324,0.013523,0.002678,0.000431,0.869709
7959000,0.0324,0.013523,0.002678,0.000431,0.894742
7960000,0.0324,0.013523,0.002678,0.000431,0.900031
7961000,0.0324,0.013523,0.002678,0.000431,0.944456
7962000,0.0324,0.013523,0.002678,0.000431,0.896270
7963000,0.0324,0.013523,0.002678,0.000431,0.883342
7964000,0.0324,0.013523,0.002678,0.000431,0.738077
7965000,0.0324,0.013523,0.002678,0.000431,0.904732
7966000,0.0324,0.013523,0.002678,0.000431,0.933996
7967000,0.0324,0.013523,0.002678,0.000431,0.840091
7968000,0.0324,0.013523,0.002678,0.000431,0.996757
7969000,0.0324,0.013523,0.002678,0.000431,0.846203
7970000,0.0324,0.013523,0.002678,0.000431,1.052582
7971000,0.0324,0.013523,0.002678,0.000431,0.984299
7972000,0.0324,0.013523,0.002678,0.000431,0.934232
7973000,0.0324,0.013523,0.002678,0.000431,0.938933
7974000,0.0324,0.013523,0.002678,0.000431,0.877230
7975000,0.0324,0.013523,0.002678,0.000431,0.913782
7976000,0.0324,0.013523,0.002678,0.000431,0.810474
7977000,0.0324,0.013523,0.002678,0.000431,0.985591
7978000,0.0324,0.013523,0.002678,0.000431,0.892979
7979000,0.0324,0.013523,0.002678,0.000431,0.849259
7980000,0.0324,0.013523,0.002678,0.000431,0.835155
7981000,0.0324,0.013523,0.002678,0.000431,0.912019
7982000,0.0324,0.013523,0.002678,0.000431,0.929295
7983000,0.0324,0.013523,0.002678,0.000431,0.965612
7984000,0.0324,0.013523,0.002678,0.000431,0.893919
7985000,0.0324,0.013523,0.002678,0.000431,0.911666
7986000,0.0324,0.013523,0.002678,0.000431,0.954211
7987000,0.0324,0.013523,0.002678,0.000431,0.871354
7988000,0.0324,0.013523,0.002678,0.000431,0.943516
7989000,0.0324,0.013523,0.002678,0.000431,0.937405
7990000,0.0324,0.013523,0.002678,0.000431,1.093365
7991000,0.0324,0.013523,0.002678,0.000431,0.945984
7992000,0.0324,0.013523,0.002678,0.000431,0.930353
7993000,0.0324,0.013523,0.002678,0.000431,1.002515
7994000,0.0324,0.013523,0.002678,0.000431,0.942811
7995000,0.0324,0.013523,0.002678,0.000431,1.099476
7996000,0.0324,0.013523,0.002678,0.000431,0.912606
7997000,0.0324,0.013523,0.002678,0.000431,0.878053
7998000,0.0324,0.013523,0.002678,0.000431,0.908375
7999000,0.0324,0.013523,0.002678,0.000431,0.909198
