Cycle,Area(mm^2),PeakDynamic(W),SubthresholdLeakage(W),GateLeakage(W),RunTimeDynamic(W)
9000000,0.0324,0.013523,0.002678,0.000431,1.137320
9001000,0.0324,0.013523,0.002678,0.000431,1.101004
9002000,0.0324,0.013523,0.002678,0.000431,1.120631
9003000,0.0324,0.013523,0.002678,0.000431,1.241333
9004000,0.0324,0.013523,0.002678,0.000431,1.000870
9005000,0.0324,0.013523,0.002678,0.000431,1.074560
9006000,0.0324,0.013523,0.002678,0.000431,1.158123
9007000,0.0324,0.013523,0.002678,0.000431,1.006276
9008000,0.0324,0.013523,0.002678,0.000431,1.153422
9009000,0.0324,0.013523,0.002678,0.000431,1.146487
9010000,0.0324,0.013523,0.002678,0.000431,1.114285
9011000,0.0324,0.013523,0.002678,0.000431,1.216887
9012000,0.0324,0.013523,0.002678,0.000431,1.085255
9013000,0.0324,0.013523,0.002678,0.000431,1.099124
9014000,0.0324,0.013523,0.002678,0.000431,1.114285
9015000,0.0324,0.013523,0.002678,0.000431,1.146722
9016000,0.0324,0.013523,0.002678,0.000431,1.037069
9017000,0.0324,0.013523,0.002678,0.000431,1.054580
9018000,0.0324,0.013523,0.002678,0.000431,1.040947
9019000,0.0324,0.013523,0.002678,0.000431,1.147663
9020000,0.0324,0.013523,0.002678,0.000431,0.969020
9021000,0.0324,0.013523,0.002678,0.000431,1.009685
9022000,0.0324,0.013523,0.002678,0.000431,1.062337
9023000,0.0324,0.013523,0.002678,0.000431,1.016266
9024000,0.0324,0.013523,0.002678,0.000431,1.005101
9025000,0.0324,0.013523,0.002678,0.000431,1.005924
9026000,0.0324,0.013523,0.002678,0.000431,1.116048
9027000,0.0324,0.013523,0.002678,0.000431,0.969960
9028000,0.0324,0.013523,0.002678,0.000431,0.960440
9029000,0.0324,0.013523,0.002678,0.000431,1.059399
9030000,0.0324,0.013523,0.002678,0.000431,0.957385
9031000,0.0324,0.013523,0.002678,0.000431,1.029782
9032000,0.0324,0.013523,0.002678,0.000431,1.083257
9033000,0.0324,0.013523,0.002678,0.000431,0.953271
9034000,0.0324,0.013523,0.002678,0.000431,1.055756
9035000,0.0324,0.013523,0.002678,0.000431,1.030135
9036000,0.0324,0.013523,0.002678,0.000431,1.017559
9037000,0.0324,0.013523,0.002678,0.000431,0.970665
9038000,0.0324,0.013523,0.002678,0.000431,1.092189
9039000,0.0324,0.013523,0.002678,0.000431,0.933644
9040000,0.0324,0.013523,0.002678,0.000431,0.946690
9041000,0.0324,0.013523,0.002678,0.000431,0.969020
9042000,0.0324,0.013523,0.002678,0.000431,0.958795
9043000,0.0324,0.013523,0.002678,0.000431,0.949745
9044000,0.0324,0.013523,0.002678,0.000431,0.934937
9045000,0.0324,0.013523,0.002678,0.000431,0.944456
9046000,0.0324,0.013523,0.002678,0.000431,0.989000
9047000,0.0324,0.013523,0.002678,0.000431,0.955387
9048000,0.0324,0.013523,0.002678,0.000431,1.020262
9049000,0.0324,0.013523,0.002678,0.000431,0.961851
9050000,0.0324,0.013523,0.002678,0.000431,0.958795
9051000,0.0324,0.013523,0.002678,0.000431,1.029077
9052000,0.0324,0.013523,0.002678,0.000431,1.029194
9053000,0.0324,0.013523,0.002678,0.000431,0.934467
9054000,0.0324,0.013523,0.002678,0.000431,1.027784
9055000,0.0324,0.013523,0.002678,0.000431,0.978305
9056000,0.0324,0.013523,0.002678,0.000431,1.050467
9057000,0.0324,0.013523,0.002678,0.000431,0.821522
9058000,0.0324,0.013523,0.002678,0.000431,0.884400
9059000,0.0324,0.013523,0.002678,0.000431,0.947512
9060000,0.0324,0.013523,0.002678,0.000431,0.898620
9061000,0.0324,0.013523,0.002678,0.000431,0.992055
9062000,0.0324,0.013523,0.002678,0.000431,0.842442
9063000,0.0324,0.013523,0.002678,0.000431,0.955739
9064000,0.0324,0.013523,0.002678,0.000431,0.918248
9065000,0.0324,0.013523,0.002678,0.000431,0.858073
9066000,0.0324,0.013523,0.002678,0.000431,0.960440
9067000,0.0324,0.013523,0.002678,0.000431,0.869238
9068000,0.0324,0.013523,0.002678,0.000431,0.966199
9069000,0.0324,0.013523,0.002678,0.000431,0.898268
9070000,0.0324,0.013523,0.002678,0.000431,0.787204
9071000,0.0324,0.013523,0.002678,0.000431,0.974544
9072000,0.0324,0.013523,0.002678,0.000431,0.877700
9073000,0.0324,0.013523,0.002678,0.000431,1.034601
9074000,0.0324,0.013523,0.002678,0.000431,0.841032
9075000,0.0324,0.013523,0.002678,0.000431,0.752533
9076000,0.0324,0.013523,0.002678,0.000431,0.898973
9077000,0.0324,0.013523,0.002678,0.000431,0.913429
9078000,0.0324,0.013523,0.002678,0.000431,0.973133
9079000,0.0324,0.013523,0.002678,0.000431,0.936230
9080000,0.0324,0.013523,0.002678,0.000431,0.857603
9081000,0.0324,0.013523,0.002678,0.000431,1.093482
9082000,0.0324,0.013523,0.002678,0.000431,0.929765
9083000,0.0324,0.013523,0.002678,0.000431,0.865713
9084000,0.0324,0.013523,0.002678,0.000431,0.884987
9085000,0.0324,0.013523,0.002678,0.000431,0.937875
9086000,0.0324,0.013523,0.002678,0.000431,1.010977
9087000,0.0324,0.013523,0.002678,0.000431,0.853255
9088000,0.0324,0.013523,0.002678,0.000431,1.068919
9089000,0.0324,0.013523,0.002678,0.000431,1.024963
9090000,0.0324,0.013523,0.002678,0.000431,1.065275
9091000,0.0324,0.013523,0.002678,0.000431,1.062807
9092000,0.0324,0.013523,0.002678,0.000431,1.044003
9093000,0.0324,0.013523,0.002678,0.000431,1.141081
9094000,0.0324,0.013523,0.002678,0.000431,1.055991
9095000,0.0324,0.013523,0.002678,0.000431,1.087018
9096000,0.0324,0.013523,0.002678,0.000431,0.987119
9097000,0.0324,0.013523,0.002678,0.000431,0.984769
9098000,0.0324,0.013523,0.002678,0.000431,1.131679
9099000,0.0324,0.013523,0.002678,0.000431,0.911901
9100000,0.0324,0.013523,0.002678,0.000431,0.970548
9101000,0.0324,0.013523,0.002678,0.000431,1.104882
9102000,0.0324,0.013523,0.002678,0.000431,1.051525
9103000,0.0324,0.013523,0.002678,0.000431,1.068096
9104000,0.0324,0.013523,0.002678,0.000431,1.055756
9105000,0.0324,0.013523,0.002678,0.000431,1.070212
9106000,0.0324,0.013523,0.002678,0.000431,1.027549
9107000,0.0324,0.013523,0.002678,0.000431,1.111229
9108000,0.0324,0.013523,0.002678,0.000431,1.111699
9109000,0.0324,0.013523,0.002678,0.000431,1.202431
9110000,0.0324,0.013523,0.002678,0.000431,1.065628
9111000,0.0324,0.013523,0.002678,0.000431,0.858661
9112000,0.0324,0.013523,0.002678,0.000431,0.950333
9113000,0.0324,0.013523,0.002678,0.000431,1.130151
9114000,0.0324,0.013523,0.002678,0.000431,1.007099
9115000,0.0324,0.013523,0.002678,0.000431,0.989000
9116000,0.0324,0.013523,0.002678,0.000431,1.096773
9117000,0.0324,0.013523,0.002678,0.000431,0.969020
9118000,0.0324,0.013523,0.002678,0.000431,1.015679
9119000,0.0324,0.013523,0.002678,0.000431,1.020615
9120000,0.0324,0.013523,0.002678,0.000431,0.982301
9121000,0.0324,0.013523,0.002678,0.000431,1.039184
9122000,0.0324,0.013523,0.002678,0.000431,1.079731
9123000,0.0324,0.013523,0.002678,0.000431,1.054345
9124000,0.0324,0.013523,0.002678,0.000431,0.969490
9125000,0.0324,0.013523,0.002678,0.000431,0.974661
9126000,0.0324,0.013523,0.002678,0.000431,1.055638
9127000,0.0324,0.013523,0.002678,0.000431,1.127800
9128000,0.0324,0.013523,0.002678,0.000431,0.973603
9129000,0.0324,0.013523,0.002678,0.000431,1.060339
9130000,0.0324,0.013523,0.002678,0.000431,0.949040
9131000,0.0324,0.013523,0.002678,0.000431,1.052230
9132000,0.0324,0.013523,0.002678,0.000431,1.086195
9133000,0.0324,0.013523,0.002678,0.000431,0.987707
9134000,0.0324,0.013523,0.002678,0.000431,1.029194
9135000,0.0324,0.013523,0.002678,0.000431,0.937992
9136000,0.0324,0.013523,0.002678,0.000431,1.023788
9137000,0.0324,0.013523,0.002678,0.000431,0.872294
9138000,0.0324,0.013523,0.002678,0.000431,0.959853
9139000,0.0324,0.013523,0.002678,0.000431,0.933996
9140000,0.0324,0.013523,0.002678,0.000431,0.958090
9141000,0.0324,0.013523,0.002678,0.000431,0.832217
9142000,0.0324,0.013523,0.002678,0.000431,0.892979
9143000,0.0324,0.013523,0.002678,0.000431,0.944456
9144000,0.0324,0.013523,0.002678,0.000431,0.954916
9145000,0.0324,0.013523,0.002678,0.000431,0.907083
9146000,0.0324,0.013523,0.002678,0.000431,0.911314
9147000,0.0324,0.013523,0.002678,0.000431,0.934114
9148000,0.0324,0.013523,0.002678,0.000431,0.990292
9149000,0.0324,0.013523,0.002678,0.000431,0.979362
9150000,0.0324,0.013523,0.002678,0.000431,0.962321
9151000,0.0324,0.013523,0.002678,0.000431,1.014503
9152000,0.0324,0.013523,0.002678,0.000431,0.988412
9153000,0.0324,0.013523,0.002678,0.000431,1.038361
9154000,0.0324,0.013523,0.002678,0.000431,0.923301
9155000,0.0324,0.013523,0.002678,0.000431,0.869826
9156000,0.0324,0.013523,0.002678,0.000431,0.896387
9157000,0.0324,0.013523,0.002678,0.000431,1.021672
9158000,0.0324,0.013523,0.002678,0.000431,0.857956
9159000,0.0324,0.013523,0.002678,0.000431,0.894625
9160000,0.0324,0.013523,0.002678,0.000431,0.892156
9161000,0.0324,0.013523,0.002678,0.000431,1.033543
9162000,0.0324,0.013523,0.002678,0.000431,0.851962
9163000,0.0324,0.013523,0.002678,0.000431,0.818231
9164000,0.0324,0.013523,0.002678,0.000431,0.902029
9165000,0.0324,0.013523,0.002678,0.000431,0.908963
9166000,0.0324,0.013523,0.002678,0.000431,0.875115
9167000,0.0324,0.013523,0.002678,0.000431,0.977717
9168000,0.0324,0.013523,0.002678,0.000431,1.043298
9169000,0.0324,0.013523,0.002678,0.000431,0.916250
9170000,0.0324,0.013523,0.002678,0.000431,0.965376
9171000,0.0324,0.013523,0.002678,0.000431,0.906612
9172000,0.0324,0.013523,0.002678,0.000431,0.985826
9173000,0.0324,0.013523,0.002678,0.000431,0.947042
9174000,0.0324,0.013523,0.002678,0.000431,0.874057
9175000,0.0324,0.013523,0.002678,0.000431,1.067626
9176000,0.0324,0.013523,0.002678,0.000431,0.897915
9177000,0.0324,0.013523,0.002678,0.000431,0.975954
9178000,0.0324,0.013523,0.002678,0.000431,0.827633
9179000,0.0324,0.013523,0.002678,0.000431,0.793550
9180000,0.0324,0.013523,0.002678,0.000431,0.972898
9181000,0.0324,0.013523,0.002678,0.000431,0.915545
9182000,0.0324,0.013523,0.002678,0.000431,0.913547
9183000,0.0324,0.013523,0.002678,0.000431,0.833510
9184000,0.0324,0.013523,0.002678,0.000431,0.865007
9185000,0.0324,0.013523,0.002678,0.000431,1.018734
9186000,0.0324,0.013523,0.002678,0.000431,1.086313
9187000,0.0324,0.013523,0.002678,0.000431,0.919305
9188000,0.0324,0.013523,0.002678,0.000431,0.897563
9189000,0.0324,0.013523,0.002678,0.000431,0.979127
9190000,0.0324,0.013523,0.002678,0.000431,1.037421
9191000,0.0324,0.013523,0.002678,0.000431,0.986532
9192000,0.0324,0.013523,0.002678,0.000431,0.953624
9193000,0.0324,0.013523,0.002678,0.000431,1.004748
9194000,0.0324,0.013523,0.002678,0.000431,1.067391
9195000,0.0324,0.013523,0.002678,0.000431,0.970665
9196000,0.0324,0.013523,0.002678,0.000431,0.913429
9197000,0.0324,0.013523,0.002678,0.000431,0.839269
9198000,0.0324,0.013523,0.002678,0.000431,0.982301
9199000,0.0324,0.013523,0.002678,0.000431,0.888043
9200000,0.0324,0.013523,0.002678,0.000431,1.058811
9201000,0.0324,0.013523,0.002678,0.000431,0.925299
9202000,0.0324,0.013523,0.002678,0.000431,0.829161
9203000,0.0324,0.013523,0.002678,0.000431,0.970195
9204000,0.0324,0.013523,0.002678,0.000431,0.957150
9205000,0.0324,0.013523,0.002678,0.000431,0.946690
9206000,0.0324,0.013523,0.002678,0.000431,1.088899
9207000,0.0324,0.013523,0.002678,0.000431,1.013093
9208000,0.0324,0.013523,0.002678,0.000431,1.107233
9209000,0.0324,0.013523,0.002678,0.000431,0.969255
9210000,0.0324,0.013523,0.002678,0.000431,0.953154
9211000,0.0324,0.013523,0.002678,0.000431,0.947865
9212000,0.0324,0.013523,0.002678,0.000431,0.970078
9213000,0.0324,0.013523,0.002678,0.000431,1.042357
9214000,0.0324,0.013523,0.002678,0.000431,0.900854
9215000,0.0324,0.013523,0.002678,0.000431,0.892156
9216000,0.0324,0.013523,0.002678,0.000431,0.872647
9217000,0.0324,0.013523,0.002678,0.000431,1.030135
9218000,0.0324,0.013523,0.002678,0.000431,0.953624
9219000,0.0324,0.013523,0.002678,0.000431,1.118046
9220000,0.0324,0.013523,0.002678,0.000431,0.991115
9221000,0.0324,0.013523,0.002678,0.000431,0.919188
9222000,0.0324,0.013523,0.002678,0.000431,1.013916
9223000,0.0324,0.013523,0.002678,0.000431,1.135322
9224000,0.0324,0.013523,0.002678,0.000431,1.022730
9225000,0.0324,0.013523,0.002678,0.000431,1.107468
9226000,0.0324,0.013523,0.002678,0.000431,0.994406
9227000,0.0324,0.013523,0.002678,0.000431,0.849964
9228000,0.0324,0.013523,0.002678,0.000431,0.969960
9229000,0.0324,0.013523,0.002678,0.000431,1.123569
9230000,0.0324,0.013523,0.002678,0.000431,1.028489
9231000,0.0324,0.013523,0.002678,0.000431,1.103002
9232000,0.0324,0.013523,0.002678,0.000431,1.041417
9233000,0.0324,0.013523,0.002678,0.000431,1.027549
9234000,0.0324,0.013523,0.002678,0.000431,1.052935
9235000,0.0324,0.013523,0.002678,0.000431,1.107351
9236000,0.0324,0.013523,0.002678,0.000431,1.025081
9237000,0.0324,0.013523,0.002678,0.000431,0.969255
9238000,0.0324,0.013523,0.002678,0.000431,0.982065
9239000,0.0324,0.013523,0.002678,0.000431,1.053758
9240000,0.0324,0.013523,0.002678,0.000431,1.030957
9241000,0.0324,0.013523,0.002678,0.000431,1.078791
9242000,0.0324,0.013523,0.002678,0.000431,1.034718
9243000,0.0324,0.013523,0.002678,0.000431,1.016149
9244000,0.0324,0.013523,0.002678,0.000431,0.983593
9245000,0.0324,0.013523,0.002678,0.000431,0.979715
9246000,0.0324,0.013523,0.002678,0.000431,1.035541
9247000,0.0324,0.013523,0.002678,0.000431,1.042710
9248000,0.0324,0.013523,0.002678,0.000431,1.059987
9249000,0.0324,0.013523,0.002678,0.000431,0.978422
9250000,0.0324,0.013523,0.002678,0.000431,1.085020
9251000,0.0324,0.013523,0.002678,0.000431,0.945162
9252000,0.0324,0.013523,0.002678,0.000431,1.031897
9253000,0.0324,0.013523,0.002678,0.000431,0.945749
9254000,0.0324,0.013523,0.002678,0.000431,1.032838
9255000,0.0324,0.013523,0.002678,0.000431,0.921421
9256000,0.0324,0.013523,0.002678,0.000431,1.040007
9257000,0.0324,0.013523,0.002678,0.000431,0.985004
9258000,0.0324,0.013523,0.002678,0.000431,0.962203
9259000,0.0324,0.013523,0.002678,0.000431,0.869826
9260000,0.0324,0.013523,0.002678,0.000431,1.094540
9261000,0.0324,0.013523,0.002678,0.000431,1.018264
9262000,0.0324,0.013523,0.002678,0.000431,0.896858
9263000,0.0324,0.013523,0.002678,0.000431,0.832100
9264000,0.0324,0.013523,0.002678,0.000431,0.864185
9265000,0.0324,0.013523,0.002678,0.000431,0.835743
9266000,0.0324,0.013523,0.002678,0.000431,0.924124
9267000,0.0324,0.013523,0.002678,0.000431,0.916602
9268000,0.0324,0.013523,0.002678,0.000431,0.807301
9269000,0.0324,0.013523,0.002678,0.000431,0.886868
9270000,0.0324,0.013523,0.002678,0.000431,0.851609
9271000,0.0324,0.013523,0.002678,0.000431,0.995934
9272000,0.0324,0.013523,0.002678,0.000431,0.840444
9273000,0.0324,0.013523,0.002678,0.000431,0.901206
9274000,0.0324,0.013523,0.002678,0.000431,0.795078
9275000,0.0324,0.013523,0.002678,0.000431,0.785558
9276000,0.0324,0.013523,0.002678,0.000431,0.878641
9277000,0.0324,0.013523,0.002678,0.000431,0.888631
9278000,0.0324,0.013523,0.002678,0.000431,0.845145
9279000,0.0324,0.013523,0.002678,0.000431,0.953741
9280000,0.0324,0.013523,0.002678,0.000431,0.894977
9281000,0.0324,0.013523,0.002678,0.000431,0.850787
9282000,0.0324,0.013523,0.002678,0.000431,0.876878
9283000,0.0324,0.013523,0.002678,0.000431,0.885340
9284000,0.0324,0.013523,0.002678,0.000431,0.800014
9285000,0.0324,0.013523,0.002678,0.000431,0.809182
9286000,0.0324,0.013523,0.002678,0.000431,0.880991
9287000,0.0324,0.013523,0.002678,0.000431,0.887220
9288000,0.0324,0.013523,0.002678,0.000431,0.866653
9289000,0.0324,0.013523,0.002678,0.000431,0.959030
9290000,0.0324,0.013523,0.002678,0.000431,0.938110
9291000,0.0324,0.013523,0.002678,0.000431,0.867711
9292000,0.0324,0.013523,0.002678,0.000431,0.958207
9293000,0.0324,0.013523,0.002678,0.000431,1.069506
9294000,0.0324,0.013523,0.002678,0.000431,0.775686
9295000,0.0324,0.013523,0.002678,0.000431,0.923772
9296000,0.0324,0.013523,0.002678,0.000431,1.006864
9297000,0.0324,0.013523,0.002678,0.000431,0.917307
9298000,0.0324,0.013523,0.002678,0.000431,0.920833
9299000,0.0324,0.013523,0.002678,0.000431,0.862774
9300000,0.0324,0.013523,0.002678,0.000431,0.869709
9301000,0.0324,0.013523,0.002678,0.000431,0.930823
9302000,0.0324,0.013523,0.002678,0.000431,0.885105
9303000,0.0324,0.013523,0.002678,0.000431,0.920951
9304000,0.0324,0.013523,0.002678,0.000431,0.933644
9305000,0.0324,0.013523,0.002678,0.000431,0.981713
9306000,0.0324,0.013523,0.002678,0.000431,0.915897
9307000,0.0324,0.013523,0.002678,0.000431,1.006276
9308000,0.0324,0.013523,0.002678,0.000431,0.889688
9309000,0.0324,0.013523,0.002678,0.000431,0.970548
9310000,0.0324,0.013523,0.002678,0.000431,0.890158
9311000,0.0324,0.013523,0.002678,0.000431,1.116518
9312000,0.0324,0.013523,0.002678,0.000431,0.908375
9313000,0.0324,0.013523,0.002678,0.000431,0.823285
9314000,0.0324,0.013523,0.002678,0.000431,0.933526
9315000,0.0324,0.013523,0.002678,0.000431,0.859484
9316000,0.0324,0.013523,0.002678,0.000431,0.921068
9317000,0.0324,0.013523,0.002678,0.000431,0.927885
9318000,0.0324,0.013523,0.002678,0.000431,0.908728
9319000,0.0324,0.013523,0.002678,0.000431,1.005806
9320000,0.0324,0.013523,0.002678,0.000431,0.990645
9321000,0.0324,0.013523,0.002678,0.000431,0.997579
9322000,0.0324,0.013523,0.002678,0.000431,1.002633
9323000,0.0324,0.013523,0.002678,0.000431,1.012858
9324000,0.0324,0.013523,0.002678,0.000431,0.958560
9325000,0.0324,0.013523,0.002678,0.000431,1.014386
9326000,0.0324,0.013523,0.002678,0.000431,0.975131
9327000,0.0324,0.013523,0.002678,0.000431,0.950921
9328000,0.0324,0.013523,0.002678,0.000431,0.895917
9329000,0.0324,0.013523,0.002678,0.000431,0.978657
9330000,0.0324,0.013523,0.002678,0.000431,0.952213
9331000,0.0324,0.013523,0.002678,0.000431,0.970783
9332000,0.0324,0.013523,0.002678,0.000431,0.887690
9333000,0.0324,0.013523,0.002678,0.000431,0.961028
9334000,0.0324,0.013523,0.002678,0.000431,0.922361
9335000,0.0324,0.013523,0.002678,0.000431,0.946102
9336000,0.0324,0.013523,0.002678,0.000431,1.037421
9337000,0.0324,0.013523,0.002678,0.000431,0.932469
9338000,0.0324,0.013523,0.002678,0.000431,0.858426
9339000,0.0324,0.013523,0.002678,0.000431,0.827281
9340000,0.0324,0.013523,0.002678,0.000431,0.900148
9341000,0.0324,0.013523,0.002678,0.000431,0.936465
9342000,0.0324,0.013523,0.002678,0.000431,0.843970
9343000,0.0324,0.013523,0.002678,0.000431,1.006041
9344000,0.0324,0.013523,0.002678,0.000431,0.984769
9345000,0.0324,0.013523,0.002678,0.000431,0.848201
9346000,0.0324,0.013523,0.002678,0.000431,0.923184
9347000,0.0324,0.013523,0.002678,0.000431,0.789202
9348000,0.0324,0.013523,0.002678,0.000431,0.839504
9349000,0.0324,0.013523,0.002678,0.000431,0.935642
9350000,0.0324,0.013523,0.002678,0.000431,0.806126
9351000,0.0324,0.013523,0.002678,0.000431,0.851727
9352000,0.0324,0.013523,0.002678,0.000431,0.978305
9353000,0.0324,0.013523,0.002678,0.000431,0.738077
9354000,0.0324,0.013523,0.002678,0.000431,0.777802
9355000,0.0324,0.013523,0.002678,0.000431,0.943986
9356000,0.0324,0.013523,0.002678,0.000431,0.923419
9357000,0.0324,0.013523,0.002678,0.000431,0.893567
9358000,0.0324,0.013523,0.002678,0.000431,0.863480
9359000,0.0324,0.013523,0.002678,0.000431,0.927767
9360000,0.0324,0.013523,0.002678,0.000431,1.013798
9361000,0.0324,0.013523,0.002678,0.000431,0.883812
9362000,0.0324,0.013523,0.002678,0.000431,0.954094
9363000,0.0324,0.013523,0.002678,0.000431,0.831394
9364000,0.0324,0.013523,0.002678,0.000431,0.851727
9365000,0.0324,0.013523,0.002678,0.000431,0.948805
9366000,0.0324,0.013523,0.002678,0.000431,0.887573
9367000,0.0324,0.013523,0.002678,0.000431,0.883107
9368000,0.0324,0.013523,0.002678,0.000431,0.832687
9369000,0.0324,0.013523,0.002678,0.000431,0.846203
9370000,0.0324,0.013523,0.002678,0.000431,0.966669
9371000,0.0324,0.013523,0.002678,0.000431,0.937170
9372000,0.0324,0.013523,0.002678,0.000431,0.961381
9373000,0.0324,0.013523,0.002678,0.000431,1.018264
9374000,0.0324,0.013523,0.002678,0.000431,0.944221
9375000,0.0324,0.013523,0.002678,0.000431,1.026961
9376000,0.0324,0.013523,0.002678,0.000431,0.987824
9377000,0.0324,0.013523,0.002678,0.000431,0.918013
9378000,0.0324,0.013523,0.002678,0.000431,0.951273
9379000,0.0324,0.013523,0.002678,0.000431,0.888396
9380000,0.0324,0.013523,0.002678,0.000431,0.904262
9381000,0.0324,0.013523,0.002678,0.000431,0.844558
9382000,0.0324,0.013523,0.002678,0.000431,0.874057
9383000,0.0324,0.013523,0.002678,0.000431,0.811650
9384000,0.0324,0.013523,0.002678,0.000431,0.985591
9385000,0.0324,0.013523,0.002678,0.000431,0.867593
9386000,0.0324,0.013523,0.002678,0.000431,0.943516
9387000,0.0324,0.013523,0.002678,0.000431,0.894507
9388000,0.0324,0.013523,0.002678,0.000431,1.035306
9389000,0.0324,0.013523,0.002678,0.000431,0.924829
9390000,0.0324,0.013523,0.002678,0.000431,0.879581
9391000,0.0324,0.013523,0.002678,0.000431,0.874057
9392000,0.0324,0.013523,0.002678,0.000431,0.962556
9393000,0.0324,0.013523,0.002678,0.000431,0.933056
9394000,0.0324,0.013523,0.002678,0.000431,0.997932
9395000,0.0324,0.013523,0.002678,0.000431,0.859249
9396000,0.0324,0.013523,0.002678,0.000431,0.979480
9397000,0.0324,0.013523,0.002678,0.000431,0.901324
9398000,0.0324,0.013523,0.002678,0.000431,1.026256
9399000,0.0324,0.013523,0.002678,0.000431,0.987942
9400000,0.0324,0.013523,0.002678,0.000431,0.916367
9401000,0.0324,0.013523,0.002678,0.000431,0.939168
9402000,0.0324,0.013523,0.002678,0.000431,0.920716
9403000,0.0324,0.013523,0.002678,0.000431,1.041887
9404000,0.0324,0.013523,0.002678,0.000431,0.995934
9405000,0.0324,0.013523,0.002678,0.000431,0.990528
9406000,0.0324,0.013523,0.002678,0.000431,0.859601
9407000,0.0324,0.013523,0.002678,0.000431,0.940225
9408000,0.0324,0.013523,0.002678,0.000431,0.973603
9409000,0.0324,0.013523,0.002678,0.000431,0.970430
9410000,0.0324,0.013523,0.002678,0.000431,0.959265
9411000,0.0324,0.013523,0.002678,0.000431,0.877230
9412000,0.0324,0.013523,0.002678,0.000431,0.886045
9413000,0.0324,0.013523,0.002678,0.000431,0.933879
9414000,0.0324,0.013523,0.002678,0.000431,0.837623
9415000,0.0324,0.013523,0.002678,0.000431,0.916367
9416000,0.0324,0.013523,0.002678,0.000431,1.067508
9417000,0.0324,0.013523,0.002678,0.000431,0.911078
9418000,0.0324,0.013523,0.002678,0.000431,1.017324
9419000,0.0324,0.013523,0.002678,0.000431,0.904849
9420000,0.0324,0.013523,0.002678,0.000431,0.859836
9421000,0.0324,0.013523,0.002678,0.000431,0.927885
9422000,0.0324,0.013523,0.002678,0.000431,1.063277
9423000,0.0324,0.013523,0.002678,0.000431,0.949158
9424000,0.0324,0.013523,0.002678,0.000431,0.877230
9425000,0.0324,0.013523,0.002678,0.000431,1.020380
9426000,0.0324,0.013523,0.002678,0.000431,0.791317
9427000,0.0324,0.013523,0.002678,0.000431,1.041300
9428000,0.0324,0.013523,0.002678,0.000431,0.834685
9429000,0.0324,0.013523,0.002678,0.000431,0.778037
9430000,0.0324,0.013523,0.002678,0.000431,0.777331
9431000,0.0324,0.013523,0.002678,0.000431,0.783795
9432000,0.0324,0.013523,0.002678,0.000431,0.959735
9433000,0.0324,0.013523,0.002678,0.000431,0.810122
9434000,0.0324,0.013523,0.002678,0.000431,0.808476
9435000,0.0324,0.013523,0.002678,0.000431,0.834098
9436000,0.0324,0.013523,0.002678,0.000431,0.890041
9437000,0.0324,0.013523,0.002678,0.000431,0.910843
9438000,0.0324,0.013523,0.002678,0.000431,0.842324
9439000,0.0324,0.013523,0.002678,0.000431,0.967139
9440000,0.0324,0.013523,0.002678,0.000431,0.830102
9441000,0.0324,0.013523,0.002678,0.000431,0.845498
9442000,0.0324,0.013523,0.002678,0.000431,0.888278
9443000,0.0324,0.013523,0.002678,0.000431,0.962438
9444000,0.0324,0.013523,0.002678,0.000431,0.914722
9445000,0.0324,0.013523,0.002678,0.000431,0.906377
9446000,0.0324,0.013523,0.002678,0.000431,0.993231
9447000,0.0324,0.013523,0.002678,0.000431,0.883107
9448000,0.0324,0.013523,0.002678,0.000431,0.799544
9449000,0.0324,0.013523,0.002678,0.000431,0.906730
9450000,0.0324,0.013523,0.002678,0.000431,0.896505
9451000,0.0324,0.013523,0.002678,0.000431,0.853137
9452000,0.0324,0.013523,0.002678,0.000431,0.930118
9453000,0.0324,0.013523,0.002678,0.000431,0.988177
9454000,0.0324,0.013523,0.002678,0.000431,0.959030
9455000,0.0324,0.013523,0.002678,0.000431,0.891569
9456000,0.0324,0.013523,0.002678,0.000431,0.980420
9457000,0.0324,0.013523,0.002678,0.000431,0.874057
9458000,0.0324,0.013523,0.002678,0.000431,1.010037
9459000,0.0324,0.013523,0.002678,0.000431,0.914604
9460000,0.0324,0.013523,0.002678,0.000431,0.967727
9461000,0.0324,0.013523,0.002678,0.000431,0.991233
9462000,0.0324,0.013523,0.002678,0.000431,1.056578
9463000,0.0324,0.013523,0.002678,0.000431,0.882167
9464000,0.0324,0.013523,0.002678,0.000431,0.918600
9465000,0.0324,0.013523,0.002678,0.000431,0.874762
9466000,0.0324,0.013523,0.002678,0.000431,0.930001
9467000,0.0324,0.013523,0.002678,0.000431,0.910256
9468000,0.0324,0.013523,0.002678,0.000431,1.016031
9469000,0.0324,0.013523,0.002678,0.000431,0.951743
9470000,0.0324,0.013523,0.002678,0.000431,0.921303
9471000,0.0324,0.013523,0.002678,0.000431,1.030135
9472000,0.0324,0.013523,0.002678,0.000431,0.919188
9473000,0.0324,0.013523,0.002678,0.000431,0.892391
9474000,0.0324,0.013523,0.002678,0.000431,0.845733
9475000,0.0324,0.013523,0.002678,0.000431,0.867593
9476000,0.0324,0.013523,0.002678,0.000431,0.980890
9477000,0.0324,0.013523,0.002678,0.000431,0.956797
9478000,0.0324,0.013523,0.002678,0.000431,1.039067
9479000,0.0324,0.013523,0.002678,0.000431,0.896270
9480000,0.0324,0.013523,0.002678,0.000431,0.841854
9481000,0.0324,0.013523,0.002678,0.000431,0.965612
9482000,0.0324,0.013523,0.002678,0.000431,0.908375
9483000,0.0324,0.013523,0.002678,0.000431,0.923654
9484000,0.0324,0.013523,0.002678,0.000431,1.021672
9485000,0.0324,0.013523,0.002678,0.000431,0.972428
9486000,0.0324,0.013523,0.002678,0.000431,1.014621
9487000,0.0324,0.013523,0.002678,0.000431,0.978070
9488000,0.0324,0.013523,0.002678,0.000431,0.970313
9489000,0.0324,0.013523,0.002678,0.000431,0.937405
9490000,0.0324,0.013523,0.002678,0.000431,0.970548
9491000,0.0324,0.013523,0.002678,0.000431,0.916837
9492000,0.0324,0.013523,0.002678,0.000431,1.038244
9493000,0.0324,0.013523,0.002678,0.000431,0.980068
9494000,0.0324,0.013523,0.002678,0.000431,0.918130
9495000,0.0324,0.013523,0.002678,0.000431,0.978422
9496000,0.0324,0.013523,0.002678,0.000431,0.944456
9497000,0.0324,0.013523,0.002678,0.000431,1.001693
9498000,0.0324,0.013523,0.002678,0.000431,1.023200
9499000,0.0324,0.013523,0.002678,0.000431,0.891099
9500000,0.0324,0.013523,0.002678,0.000431,0.962673
9501000,0.0324,0.013523,0.002678,0.000431,0.946337
9502000,0.0324,0.013523,0.002678,0.000431,1.000635
9503000,0.0324,0.013523,0.002678,0.000431,0.901676
9504000,0.0324,0.013523,0.002678,0.000431,0.954799
9505000,0.0324,0.013523,0.002678,0.000431,1.039772
9506000,0.0324,0.013523,0.002678,0.000431,0.890041
9507000,0.0324,0.013523,0.002678,0.000431,0.872177
9508000,0.0324,0.013523,0.002678,0.000431,1.082905
9509000,0.0324,0.013523,0.002678,0.000431,0.918600
9510000,0.0324,0.013523,0.002678,0.000431,0.936230
9511000,0.0324,0.013523,0.002678,0.000431,0.971253
9512000,0.0324,0.013523,0.002678,0.000431,0.871119
9513000,0.0324,0.013523,0.002678,0.000431,0.909903
9514000,0.0324,0.013523,0.002678,0.000431,0.962203
9515000,0.0324,0.013523,0.002678,0.000431,0.865242
9516000,0.0324,0.013523,0.002678,0.000431,1.016266
9517000,0.0324,0.013523,0.002678,0.000431,0.840914
9518000,0.0324,0.013523,0.002678,0.000431,0.957620
9519000,0.0324,0.013523,0.002678,0.000431,0.921186
9520000,0.0324,0.013523,0.002678,0.000431,0.943751
9521000,0.0324,0.013523,0.002678,0.000431,1.005454
9522000,0.0324,0.013523,0.002678,0.000431,0.996757
9523000,0.0324,0.013523,0.002678,0.000431,0.970548
9524000,0.0324,0.013523,0.002678,0.000431,0.879816
9525000,0.0324,0.013523,0.002678,0.000431,0.935877
9526000,0.0324,0.013523,0.002678,0.000431,1.021437
9527000,0.0324,0.013523,0.002678,0.000431,0.941166
9528000,0.0324,0.013523,0.002678,0.000431,0.897210
9529000,0.0324,0.013523,0.002678,0.000431,0.868416
9530000,0.0324,0.013523,0.002678,0.000431,1.017559
9531000,0.0324,0.013523,0.002678,0.000431,0.949040
9532000,0.0324,0.013523,0.002678,0.000431,0.925652
9533000,0.0324,0.013523,0.002678,0.000431,0.908610
9534000,0.0324,0.013523,0.002678,0.000431,0.924242
9535000,0.0324,0.013523,0.002678,0.000431,0.941753
9536000,0.0324,0.013523,0.002678,0.000431,0.992996
9537000,0.0324,0.013523,0.002678,0.000431,0.897445
9538000,0.0324,0.013523,0.002678,0.000431,0.837388
9539000,0.0324,0.013523,0.002678,0.000431,0.829631
9540000,0.0324,0.013523,0.002678,0.000431,0.867476
9541000,0.0324,0.013523,0.002678,0.000431,0.918013
9542000,0.0324,0.013523,0.002678,0.000431,0.884047
9543000,0.0324,0.013523,0.002678,0.000431,0.763463
9544000,0.0324,0.013523,0.002678,0.000431,0.901324
9545000,0.0324,0.013523,0.002678,0.000431,0.828691
9546000,0.0324,0.013523,0.002678,0.000431,0.895212
9547000,0.0324,0.013523,0.002678,0.000431,0.989705
9548000,0.0324,0.013523,0.002678,0.000431,0.981243
9549000,0.0324,0.013523,0.002678,0.000431,0.820934
9550000,0.0324,0.013523,0.002678,0.000431,0.823520
9551000,0.0324,0.013523,0.002678,0.000431,0.838329
9552000,0.0324,0.013523,0.002678,0.000431,0.880521
9553000,0.0324,0.013523,0.002678,0.000431,0.844910
9554000,0.0324,0.013523,0.002678,0.000431,0.786851
9555000,0.0324,0.013523,0.002678,0.000431,0.847848
9556000,0.0324,0.013523,0.002678,0.000431,0.858426
9557000,0.0324,0.013523,0.002678,0.000431,0.815881
9558000,0.0324,0.013523,0.002678,0.000431,0.662859
9559000,0.0324,0.013523,0.002678,0.000431,0.761700
9560000,0.0324,0.013523,0.002678,0.000431,0.749830
9561000,0.0324,0.013523,0.002678,0.000431,0.824343
9562000,0.0324,0.013523,0.002678,0.000431,0.851139
9563000,0.0324,0.013523,0.002678,0.000431,0.962438
9564000,0.0324,0.013523,0.002678,0.000431,0.974544
9565000,0.0324,0.013523,0.002678,0.000431,0.881814
9566000,0.0324,0.013523,0.002678,0.000431,0.883224
9567000,0.0324,0.013523,0.002678,0.000431,0.982653
9568000,0.0324,0.013523,0.002678,0.000431,0.904027
9569000,0.0324,0.013523,0.002678,0.000431,0.865242
9570000,0.0324,0.013523,0.002678,0.000431,0.820699
9571000,0.0324,0.013523,0.002678,0.000431,0.918483
9572000,0.0324,0.013523,0.002678,0.000431,0.934232
9573000,0.0324,0.013523,0.002678,0.000431,0.830219
9574000,0.0324,0.013523,0.002678,0.000431,0.931058
9575000,0.0324,0.013523,0.002678,0.000431,0.792845
9576000,0.0324,0.013523,0.002678,0.000431,0.991938
9577000,0.0324,0.013523,0.002678,0.000431,0.883107
9578000,0.0324,0.013523,0.002678,0.000431,0.881814
9579000,0.0324,0.013523,0.002678,0.000431,0.915074
9580000,0.0324,0.013523,0.002678,0.000431,0.908023
9581000,0.0324,0.013523,0.002678,0.000431,0.845380
9582000,0.0324,0.013523,0.002678,0.000431,0.906730
9583000,0.0324,0.013523,0.002678,0.000431,0.833040
9584000,0.0324,0.013523,0.002678,0.000431,0.934349
9585000,0.0324,0.013523,0.002678,0.000431,0.975131
9586000,0.0324,0.013523,0.002678,0.000431,0.947277
9587000,0.0324,0.013523,0.002678,0.000431,0.760642
9588000,0.0324,0.013523,0.002678,0.000431,0.838211
9589000,0.0324,0.013523,0.002678,0.000431,0.992055
9590000,0.0324,0.013523,0.002678,0.000431,0.906730
9591000,0.0324,0.013523,0.002678,0.000431,0.966669
9592000,0.0324,0.013523,0.002678,0.000431,0.986061
9593000,0.0324,0.013523,0.002678,0.000431,0.857251
9594000,0.0324,0.013523,0.002678,0.000431,0.941988
9595000,0.0324,0.013523,0.002678,0.000431,0.906965
9596000,0.0324,0.013523,0.002678,0.000431,0.902029
9597000,0.0324,0.013523,0.002678,0.000431,0.972898
9598000,0.0324,0.013523,0.002678,0.000431,1.014503
9599000,0.0324,0.013523,0.002678,0.000431,0.906025
9600000,0.0324,0.013523,0.002678,0.000431,0.849494
9601000,0.0324,0.013523,0.002678,0.000431,0.883107
9602000,0.0324,0.013523,0.002678,0.000431,0.993113
9603000,0.0324,0.013523,0.002678,0.000431,0.864537
9604000,0.0324,0.013523,0.002678,0.000431,1.044238
9605000,0.0324,0.013523,0.002678,0.000431,0.967962
9606000,0.0324,0.013523,0.002678,0.000431,0.880991
9607000,0.0324,0.013523,0.002678,0.000431,1.055756
9608000,0.0324,0.013523,0.002678,0.000431,1.005454
9609000,0.0324,0.013523,0.002678,0.000431,0.892274
9610000,0.0324,0.013523,0.002678,0.000431,1.061044
9611000,0.0324,0.013523,0.002678,0.000431,1.010625
9612000,0.0324,0.013523,0.002678,0.000431,0.908140
9613000,0.0324,0.013523,0.002678,0.000431,1.011565
9614000,0.0324,0.013523,0.002678,0.000431,0.885457
9615000,0.0324,0.013523,0.002678,0.000431,1.013093
9616000,0.0324,0.013523,0.002678,0.000431,0.975484
9617000,0.0324,0.013523,0.002678,0.000431,0.906965
9618000,0.0324,0.013523,0.002678,0.000431,0.924477
9619000,0.0324,0.013523,0.002678,0.000431,0.982771
9620000,0.0324,0.013523,0.002678,0.000431,1.042005
9621000,0.0324,0.013523,0.002678,0.000431,0.972546
9622000,0.0324,0.013523,0.002678,0.000431,0.986767
9623000,0.0324,0.013523,0.002678,0.000431,0.911784
9624000,0.0324,0.013523,0.002678,0.000431,0.885340
9625000,0.0324,0.013523,0.002678,0.000431,1.006276
9626000,0.0324,0.013523,0.002678,0.000431,0.930236
9627000,0.0324,0.013523,0.002678,0.000431,0.982536
9628000,0.0324,0.013523,0.002678,0.000431,1.016619
9629000,0.0324,0.013523,0.002678,0.000431,0.925887
9630000,0.0324,0.013523,0.002678,0.000431,1.040359
9631000,0.0324,0.013523,0.002678,0.000431,0.879581
9632000,0.0324,0.013523,0.002678,0.000431,0.905790
9633000,0.0324,0.013523,0.002678,0.000431,0.958912
9634000,0.0324,0.013523,0.002678,0.000431,0.933526
9635000,0.0324,0.013523,0.002678,0.000431,1.014503
9636000,0.0324,0.013523,0.002678,0.000431,0.905790
9637000,0.0324,0.013523,0.002678,0.000431,0.884517
9638000,0.0324,0.013523,0.002678,0.000431,0.901206
9639000,0.0324,0.013523,0.002678,0.000431,0.964436
9640000,0.0324,0.013523,0.002678,0.000431,0.906612
9641000,0.0324,0.013523,0.002678,0.000431,0.881226
9642000,0.0324,0.013523,0.002678,0.000431,0.868886
9643000,0.0324,0.013523,0.002678,0.000431,1.005101
9644000,0.0324,0.013523,0.002678,0.000431,0.837858
9645000,0.0324,0.013523,0.002678,0.000431,0.920833
9646000,0.0324,0.013523,0.002678,0.000431,0.803540
9647000,0.0324,0.013523,0.002678,0.000431,1.019087
9648000,0.0324,0.013523,0.002678,0.000431,0.890981
9649000,0.0324,0.013523,0.002678,0.000431,0.888513
9650000,0.0324,0.013523,0.002678,0.000431,0.872529
9651000,0.0324,0.013523,0.002678,0.000431,0.916015
9652000,0.0324,0.013523,0.002678,0.000431,1.039067
9653000,0.0324,0.013523,0.002678,0.000431,0.864655
9654000,0.0324,0.013523,0.002678,0.000431,0.936230
9655000,0.0324,0.013523,0.002678,0.000431,0.983006
9656000,0.0324,0.013523,0.002678,0.000431,0.826458
9657000,0.0324,0.013523,0.002678,0.000431,0.931293
9658000,0.0324,0.013523,0.002678,0.000431,0.928355
9659000,0.0324,0.013523,0.002678,0.000431,0.863480
9660000,0.0324,0.013523,0.002678,0.000431,0.951273
9661000,0.0324,0.013523,0.002678,0.000431,0.877818
9662000,0.0324,0.013523,0.002678,0.000431,0.953389
9663000,0.0324,0.013523,0.002678,0.000431,0.859013
9664000,0.0324,0.013523,0.002678,0.000431,0.991468
9665000,0.0324,0.013523,0.002678,0.000431,0.868298
9666000,0.0324,0.013523,0.002678,0.000431,0.784266
9667000,0.0324,0.013523,0.002678,0.000431,0.813177
9668000,0.0324,0.013523,0.002678,0.000431,0.910021
9669000,0.0324,0.013523,0.002678,0.000431,0.823755
9670000,0.0324,0.013523,0.002678,0.000431,0.806361
9671000,0.0324,0.013523,0.002678,0.000431,0.841972
9672000,0.0324,0.013523,0.002678,0.000431,0.954681
9673000,0.0324,0.013523,0.002678,0.000431,0.857721
9674000,0.0324,0.013523,0.002678,0.000431,0.868416
9675000,0.0324,0.013523,0.002678,0.000431,0.883342
9676000,0.0324,0.013523,0.002678,0.000431,0.850316
9677000,0.0324,0.013523,0.002678,0.000431,0.935054
9678000,0.0324,0.013523,0.002678,0.000431,0.835273
9679000,0.0324,0.013523,0.002678,0.000431,0.906025
9680000,0.0324,0.013523,0.002678,0.000431,0.682016
9681000,0.0324,0.013523,0.002678,0.000431,0.879228
9682000,0.0324,0.013523,0.002678,0.000431,0.796606
9683000,0.0324,0.013523,0.002678,0.000431,0.927062
9684000,0.0324,0.013523,0.002678,0.000431,0.905202
9685000,0.0324,0.013523,0.002678,0.000431,0.789202
9686000,0.0324,0.013523,0.002678,0.000431,0.812237
9687000,0.0324,0.013523,0.002678,0.000431,0.860894
9688000,0.0324,0.013523,0.002678,0.000431,0.797664
9689000,0.0324,0.013523,0.002678,0.000431,0.842442
9690000,0.0324,0.013523,0.002678,0.000431,0.902851
9691000,0.0324,0.013523,0.002678,0.000431,0.821404
9692000,0.0324,0.013523,0.002678,0.000431,0.826928
9693000,0.0324,0.013523,0.002678,0.000431,0.994759
9694000,0.0324,0.013523,0.002678,0.000431,0.830454
9695000,0.0324,0.013523,0.002678,0.000431,0.882167
9696000,0.0324,0.013523,0.002678,0.000431,0.798604
9697000,0.0324,0.013523,0.002678,0.000431,0.891334
9698000,0.0324,0.013523,0.002678,0.000431,0.865242
9699000,0.0324,0.013523,0.002678,0.000431,0.881579
9700000,0.0324,0.013523,0.002678,0.000431,0.977952
9701000,0.0324,0.013523,0.002678,0.000431,0.910021
9702000,0.0324,0.013523,0.002678,0.000431,0.841502
9703000,0.0324,0.013523,0.002678,0.000431,0.945044
9704000,0.0324,0.013523,0.002678,0.000431,0.928943
9705000,0.0324,0.013523,0.002678,0.000431,0.984063
9706000,0.0324,0.013523,0.002678,0.000431,0.889923
9707000,0.0324,0.013523,0.002678,0.000431,0.897210
9708000,0.0324,0.013523,0.002678,0.000431,0.876173
9709000,0.0324,0.013523,0.002678,0.000431,0.835155
9710000,0.0324,0.013523,0.002678,0.000431,0.812590
9711000,0.0324,0.013523,0.002678,0.000431,0.869003
9712000,0.0324,0.013523,0.002678,0.000431,0.894625
9713000,0.0324,0.013523,0.002678,0.000431,0.928708
9714000,0.0324,0.013523,0.002678,0.000431,0.857251
9715000,0.0324,0.013523,0.002678,0.000431,0.929883
9716000,0.0324,0.013523,0.002678,0.000431,0.936465
9717000,0.0324,0.013523,0.002678,0.000431,0.936582
9718000,0.0324,0.013523,0.002678,0.000431,0.885927
9719000,0.0324,0.013523,0.002678,0.000431,0.973956
9720000,0.0324,0.013523,0.002678,0.000431,0.963026
9721000,0.0324,0.013523,0.002678,0.000431,0.839269
9722000,0.0324,0.013523,0.002678,0.000431,0.905790
9723000,0.0324,0.013523,0.002678,0.000431,0.864420
9724000,0.0324,0.013523,0.002678,0.000431,0.966904
9725000,0.0324,0.013523,0.002678,0.000431,0.823520
9726000,0.0324,0.013523,0.002678,0.000431,0.972428
9727000,0.0324,0.013523,0.002678,0.000431,1.013093
9728000,0.0324,0.013523,0.002678,0.000431,1.006746
9729000,0.0324,0.013523,0.002678,0.000431,0.930353
9730000,0.0324,0.013523,0.002678,0.000431,0.986061
9731000,0.0324,0.013523,0.002678,0.000431,0.938227
9732000,0.0324,0.013523,0.002678,0.000431,0.900854
9733000,0.0324,0.013523,0.002678,0.000431,0.902969
9734000,0.0324,0.013523,0.002678,0.000431,0.986061
9735000,0.0324,0.013523,0.002678,0.000431,0.861834
9736000,0.0324,0.013523,0.002678,0.000431,0.826106
9737000,0.0324,0.013523,0.002678,0.000431,0.948452
9738000,0.0324,0.013523,0.002678,0.000431,0.791905
9739000,0.0324,0.013523,0.002678,0.000431,0.888513
9740000,0.0324,0.013523,0.002678,0.000431,0.978540
9741000,0.0324,0.013523,0.002678,0.000431,0.827281
9742000,0.0324,0.013523,0.002678,0.000431,0.909903
9743000,0.0324,0.013523,0.002678,0.000431,0.939403
9744000,0.0324,0.013523,0.002678,0.000431,0.854312
9745000,0.0324,0.013523,0.002678,0.000431,0.864067
9746000,0.0324,0.013523,0.002678,0.000431,0.984416
9747000,0.0324,0.013523,0.002678,0.000431,0.878523
9748000,0.0324,0.013523,0.002678,0.000431,0.883107
9749000,0.0324,0.013523,0.002678,0.000431,0.922714
9750000,0.0324,0.013523,0.002678,0.000431,0.921186
9751000,0.0324,0.013523,0.002678,0.000431,0.954681
9752000,0.0324,0.013523,0.002678,0.000431,0.907905
9753000,0.0324,0.013523,0.002678,0.000431,0.833392
9754000,0.0324,0.013523,0.002678,0.000431,0.906495
9755000,0.0324,0.013523,0.002678,0.000431,0.922714
9756000,0.0324,0.013523,0.002678,0.000431,0.914017
9757000,0.0324,0.013523,0.002678,0.000431,0.746774
9758000,0.0324,0.013523,0.002678,0.000431,0.917425
9759000,0.0324,0.013523,0.002678,0.000431,0.801542
9760000,0.0324,0.013523,0.002678,0.000431,0.913547
9761000,0.0324,0.013523,0.002678,0.000431,0.875350
9762000,0.0324,0.013523,0.002678,0.000431,0.834803
9763000,0.0324,0.013523,0.002678,0.000431,0.855370
9764000,0.0324,0.013523,0.002678,0.000431,0.890511
9765000,0.0324,0.013523,0.002678,0.000431,0.828104
9766000,0.0324,0.013523,0.002678,0.000431,0.755001
9767000,0.0324,0.013523,0.002678,0.000431,0.843617
9768000,0.0324,0.013523,0.002678,0.000431,0.871001
9769000,0.0324,0.013523,0.002678,0.000431,0.818231
9770000,0.0324,0.013523,0.002678,0.000431,0.828691
9771000,0.0324,0.013523,0.002678,0.000431,0.983711
9772000,0.0324,0.013523,0.002678,0.000431,0.936935
9773000,0.0324,0.013523,0.002678,0.000431,0.810474
9774000,0.0324,0.013523,0.002678,0.000431,0.844910
9775000,0.0324,0.013523,0.002678,0.000431,0.823990
9776000,0.0324,0.013523,0.002678,0.000431,0.774276
9777000,0.0324,0.013523,0.002678,0.000431,0.796136
9778000,0.0324,0.013523,0.002678,0.000431,0.816703
9779000,0.0324,0.013523,0.002678,0.000431,0.727029
9780000,0.0324,0.013523,0.002678,0.000431,0.758762
9781000,0.0324,0.013523,0.002678,0.000431,0.858426
9782000,0.0324,0.013523,0.002678,0.000431,0.823638
9783000,0.0324,0.013523,0.002678,0.000431,0.839269
9784000,0.0324,0.013523,0.002678,0.000431,0.936700
9785000,0.0324,0.013523,0.002678,0.000431,0.869356
9786000,0.0324,0.013523,0.002678,0.000431,0.930706
9787000,0.0324,0.013523,0.002678,0.000431,0.817644
9788000,0.0324,0.013523,0.002678,0.000431,0.855723
9789000,0.0324,0.013523,0.002678,0.000431,0.839621
9790000,0.0324,0.013523,0.002678,0.000431,0.843970
9791000,0.0324,0.013523,0.002678,0.000431,0.988530
9792000,0.0324,0.013523,0.002678,0.000431,0.853137
9793000,0.0324,0.013523,0.002678,0.000431,0.908140
9794000,0.0324,0.013523,0.002678,0.000431,0.850316
9795000,0.0324,0.013523,0.002678,0.000431,0.874292
9796000,0.0324,0.013523,0.002678,0.000431,0.859719
9797000,0.0324,0.013523,0.002678,0.000431,0.877230
9798000,0.0324,0.013523,0.002678,0.000431,0.899561
9799000,0.0324,0.013523,0.002678,0.000431,0.833745
9800000,0.0324,0.013523,0.002678,0.000431,0.831042
9801000,0.0324,0.013523,0.002678,0.000431,0.908023
9802000,0.0324,0.013523,0.002678,0.000431,0.975366
9803000,0.0324,0.013523,0.002678,0.000431,0.783913
9804000,0.0324,0.013523,0.002678,0.000431,0.872177
9805000,0.0324,0.013523,0.002678,0.000431,0.861129
9806000,0.0324,0.013523,0.002678,0.000431,0.901676
9807000,0.0324,0.013523,0.002678,0.000431,0.909903
9808000,0.0324,0.013523,0.002678,0.000431,0.979245
9809000,0.0324,0.013523,0.002678,0.000431,0.958560
9810000,0.0324,0.013523,0.002678,0.000431,0.913899
9811000,0.0324,0.013523,0.002678,0.000431,0.864890
9812000,0.0324,0.013523,0.002678,0.000431,0.945867
9813000,0.0324,0.013523,0.002678,0.000431,0.776979
9814000,0.0324,0.013523,0.002678,0.000431,0.941401
9815000,0.0324,0.013523,0.002678,0.000431,0.883342
9816000,0.0324,0.013523,0.002678,0.000431,0.965376
9817000,0.0324,0.013523,0.002678,0.000431,0.940225
9818000,0.0324,0.013523,0.002678,0.000431,0.924477
9819000,0.0324,0.013523,0.002678,0.000431,1.024493
9820000,0.0324,0.013523,0.002678,0.000431,1.034248
9821000,0.0324,0.013523,0.002678,0.000431,0.924477
9822000,0.0324,0.013523,0.002678,0.000431,1.095128
9823000,0.0324,0.013523,0.002678,0.000431,0.958325
9824000,0.0324,0.013523,0.002678,0.000431,0.942576
9825000,0.0324,0.013523,0.002678,0.000431,0.893919
9826000,0.0324,0.013523,0.002678,0.000431,0.764991
9827000,0.0324,0.013523,0.002678,0.000431,0.891921
9828000,0.0324,0.013523,0.002678,0.000431,0.754061
9829000,0.0324,0.013523,0.002678,0.000431,0.851844
9830000,0.0324,0.013523,0.002678,0.000431,0.812355
9831000,0.0324,0.013523,0.002678,0.000431,0.884517
9832000,0.0324,0.013523,0.002678,0.000431,0.929648
9833000,0.0324,0.013523,0.002678,0.000431,0.964201
9834000,0.0324,0.013523,0.002678,0.000431,0.905202
9835000,0.0324,0.013523,0.002678,0.000431,0.917895
9836000,0.0324,0.013523,0.002678,0.000431,0.916720
9837000,0.0324,0.013523,0.002678,0.000431,0.946807
9838000,0.0324,0.013523,0.002678,0.000431,0.949393
9839000,0.0324,0.013523,0.002678,0.000431,0.987354
9840000,0.0324,0.013523,0.002678,0.000431,1.028254
9841000,0.0324,0.013523,0.002678,0.000431,0.882402
9842000,0.0324,0.013523,0.002678,0.000431,0.840914
9843000,0.0324,0.013523,0.002678,0.000431,0.921891
9844000,0.0324,0.013523,0.002678,0.000431,0.931058
9845000,0.0324,0.013523,0.002678,0.000431,0.755824
9846000,0.0324,0.013523,0.002678,0.000431,0.975836
9847000,0.0324,0.013523,0.002678,0.000431,0.800367
9848000,0.0324,0.013523,0.002678,0.000431,0.957267
9849000,0.0324,0.013523,0.002678,0.000431,0.968667
9850000,0.0324,0.013523,0.002678,0.000431,1.034601
9851000,0.0324,0.013523,0.002678,0.000431,0.928120
9852000,0.0324,0.013523,0.002678,0.000431,1.050937
9853000,0.0324,0.013523,0.002678,0.000431,0.871471
9854000,0.0324,0.013523,0.002678,0.000431,0.951273
9855000,0.0324,0.013523,0.002678,0.000431,0.855135
9856000,0.0324,0.013523,0.002678,0.000431,0.937052
9857000,0.0324,0.013523,0.002678,0.000431,0.939873
9858000,0.0324,0.013523,0.002678,0.000431,1.063395
9859000,0.0324,0.013523,0.002678,0.000431,0.861952
9860000,0.0324,0.013523,0.002678,0.000431,0.967962
9861000,0.0324,0.013523,0.002678,0.000431,0.921186
9862000,0.0324,0.013523,0.002678,0.000431,0.914839
9863000,0.0324,0.013523,0.002678,0.000431,0.914369
9864000,0.0324,0.013523,0.002678,0.000431,0.956562
9865000,0.0324,0.013523,0.002678,0.000431,0.886162
9866000,0.0324,0.013523,0.002678,0.000431,0.917190
9867000,0.0324,0.013523,0.002678,0.000431,0.900971
9868000,0.0324,0.013523,0.002678,0.000431,0.974309
9869000,0.0324,0.013523,0.002678,0.000431,0.879581
9870000,0.0324,0.013523,0.002678,0.000431,0.930588
9871000,0.0324,0.013523,0.002678,0.000431,0.972076
9872000,0.0324,0.013523,0.002678,0.000431,0.936700
9873000,0.0324,0.013523,0.002678,0.000431,0.897210
9874000,0.0324,0.013523,0.002678,0.000431,1.044826
9875000,0.0324,0.013523,0.002678,0.000431,0.894507
9876000,0.0324,0.013523,0.002678,0.000431,0.986061
9877000,0.0324,0.013523,0.002678,0.000431,0.903087
9878000,0.0324,0.013523,0.002678,0.000431,0.922479
9879000,0.0324,0.013523,0.002678,0.000431,0.858308
9880000,0.0324,0.013523,0.002678,0.000431,0.907318
9881000,0.0324,0.013523,0.002678,0.000431,0.891804
9882000,0.0324,0.013523,0.002678,0.000431,0.994641
9883000,0.0324,0.013523,0.002678,0.000431,0.991468
9884000,0.0324,0.013523,0.002678,0.000431,0.984886
9885000,0.0324,0.013523,0.002678,0.000431,0.933761
9886000,0.0324,0.013523,0.002678,0.000431,0.949275
9887000,0.0324,0.013523,0.002678,0.000431,0.892627
9888000,0.0324,0.013523,0.002678,0.000431,0.846791
9889000,0.0324,0.013523,0.002678,0.000431,1.019322
9890000,0.0324,0.013523,0.002678,0.000431,0.959265
9891000,0.0324,0.013523,0.002678,0.000431,0.948452
9892000,0.0324,0.013523,0.002678,0.000431,0.923889
9893000,0.0324,0.013523,0.002678,0.000431,0.927180
9894000,0.0324,0.013523,0.002678,0.000431,0.960088
9895000,0.0324,0.013523,0.002678,0.000431,0.948335
9896000,0.0324,0.013523,0.002678,0.000431,0.843735
9897000,0.0324,0.013523,0.002678,0.000431,0.976307
9898000,0.0324,0.013523,0.002678,0.000431,0.931998
9899000,0.0324,0.013523,0.002678,0.000431,0.911431
9900000,0.0324,0.013523,0.002678,0.000431,0.906847
9901000,0.0324,0.013523,0.002678,0.000431,0.909080
9902000,0.0324,0.013523,0.002678,0.000431,0.866535
9903000,0.0324,0.013523,0.002678,0.000431,0.836566
9904000,0.0324,0.013523,0.002678,0.000431,0.887573
9905000,0.0324,0.013523,0.002678,0.000431,0.746892
9906000,0.0324,0.013523,0.002678,0.000431,0.815293
9907000,0.0324,0.013523,0.002678,0.000431,0.848553
9908000,0.0324,0.013523,0.002678,0.000431,0.822462
9909000,0.0324,0.013523,0.002678,0.000431,0.883577
9910000,0.0324,0.013523,0.002678,0.000431,0.886045
9911000,0.0324,0.013523,0.002678,0.000431,1.010155
9912000,0.0324,0.013523,0.002678,0.000431,0.889453
9913000,0.0324,0.013523,0.002678,0.000431,0.888278
9914000,0.0324,0.013523,0.002678,0.000431,0.897680
9915000,0.0324,0.013523,0.002678,0.000431,0.875702
9916000,0.0324,0.013523,0.002678,0.000431,0.805421
9917000,0.0324,0.013523,0.002678,0.000431,0.907083
9918000,0.0324,0.013523,0.002678,0.000431,0.875350
9919000,0.0324,0.013523,0.002678,0.000431,0.856780
9920000,0.0324,0.013523,0.002678,0.000431,0.872647
9921000,0.0324,0.013523,0.002678,0.000431,0.845028
9922000,0.0324,0.013523,0.002678,0.000431,0.862422
9923000,0.0324,0.013523,0.002678,0.000431,0.811885
9924000,0.0324,0.013523,0.002678,0.000431,0.875702
9925000,0.0324,0.013523,0.002678,0.000431,0.861599
9926000,0.0324,0.013523,0.002678,0.000431,0.799309
9927000,0.0324,0.013523,0.002678,0.000431,0.801072
9928000,0.0324,0.013523,0.002678,0.000431,0.855958
9929000,0.0324,0.013523,0.002678,0.000431,0.913782
9930000,0.0324,0.013523,0.002678,0.000431,0.937052
9931000,0.0324,0.013523,0.002678,0.000431,0.880756
9932000,0.0324,0.013523,0.002678,0.000431,0.879934
9933000,0.0324,0.013523,0.002678,0.000431,0.802482
9934000,0.0324,0.013523,0.002678,0.000431,0.790965
9935000,0.0324,0.013523,0.002678,0.000431,0.890394
9936000,0.0324,0.013523,0.002678,0.000431,1.018969
9937000,0.0324,0.013523,0.002678,0.000431,0.886868
9938000,0.0324,0.013523,0.002678,0.000431,0.856075
9939000,0.0324,0.013523,0.002678,0.000431,0.851962
9940000,0.0324,0.013523,0.002678,0.000431,0.938110
9941000,0.0324,0.013523,0.002678,0.000431,0.746657
9942000,0.0324,0.013523,0.002678,0.000431,0.913664
9943000,0.0324,0.013523,0.002678,0.000431,0.906965
9944000,0.0324,0.013523,0.002678,0.000431,0.855840
9945000,0.0324,0.013523,0.002678,0.000431,0.820464
9946000,0.0324,0.013523,0.002678,0.000431,0.895447
9947000,0.0324,0.013523,0.002678,0.000431,0.871824
9948000,0.0324,0.013523,0.002678,0.000431,0.825400
9949000,0.0324,0.013523,0.002678,0.000431,0.962203
9950000,0.0324,0.013523,0.002678,0.000431,0.810592
9951000,0.0324,0.013523,0.002678,0.000431,0.916602
9952000,0.0324,0.013523,0.002678,0.000431,0.825635
9953000,0.0324,0.013523,0.002678,0.000431,1.020967
9954000,0.0324,0.013523,0.002678,0.000431,1.033190
9955000,0.0324,0.013523,0.002678,0.000431,0.883694
9956000,0.0324,0.013523,0.002678,0.000431,0.894507
9957000,0.0324,0.013523,0.002678,0.000431,0.796018
9958000,0.0324,0.013523,0.002678,0.000431,0.899091
9959000,0.0324,0.013523,0.002678,0.000431,0.783443
9960000,0.0324,0.013523,0.002678,0.000431,0.881344
9961000,0.0324,0.013523,0.002678,0.000431,0.777331
9962000,0.0324,0.013523,0.002678,0.000431,0.882637
9963000,0.0324,0.013523,0.002678,0.000431,0.871707
9964000,0.0324,0.013523,0.002678,0.000431,0.796018
9965000,0.0324,0.013523,0.002678,0.000431,0.910021
9966000,0.0324,0.013523,0.002678,0.000431,0.788026
9967000,0.0324,0.013523,0.002678,0.000431,0.840209
9968000,0.0324,0.013523,0.002678,0.000431,0.913312
9969000,0.0324,0.013523,0.002678,0.000431,0.901441
9970000,0.0324,0.013523,0.002678,0.000431,0.891451
9971000,0.0324,0.013523,0.002678,0.000431,0.871824
9972000,0.0324,0.013523,0.002678,0.000431,0.917307
9973000,0.0324,0.013523,0.002678,0.000431,0.946925
9974000,0.0324,0.013523,0.002678,0.000431,0.909433
9975000,0.0324,0.013523,0.002678,0.000431,0.899796
9976000,0.0324,0.013523,0.002678,0.000431,1.004748
9977000,0.0324,0.013523,0.002678,0.000431,0.899443
9978000,0.0324,0.013523,0.002678,0.000431,0.982653
9979000,0.0324,0.013523,0.002678,0.000431,0.997579
9980000,0.0324,0.013523,0.002678,0.000431,0.941988
9981000,0.0324,0.013523,0.002678,0.000431,0.936935
9982000,0.0324,0.013523,0.002678,0.000431,0.933291
9983000,0.0324,0.013523,0.002678,0.000431,0.926357
9984000,0.0324,0.013523,0.002678,0.000431,0.894272
9985000,0.0324,0.013523,0.002678,0.000431,0.846203
9986000,0.0324,0.013523,0.002678,0.000431,0.873940
9987000,0.0324,0.013523,0.002678,0.000431,0.881814
9988000,0.0324,0.013523,0.002678,0.000431,0.922009
9989000,0.0324,0.013523,0.002678,0.000431,0.990292
9990000,0.0324,0.013523,0.002678,0.000431,0.953506
9991000,0.0324,0.013523,0.002678,0.000431,1.031310
9992000,0.0324,0.013523,0.002678,0.000431,0.916485
9993000,0.0324,0.013523,0.002678,0.000431,0.958912
9994000,0.0324,0.013523,0.002678,0.000431,0.959735
9995000,0.0324,0.013523,0.002678,0.000431,0.978775
9996000,0.0324,0.013523,0.002678,0.000431,0.977834
9997000,0.0324,0.013523,0.002678,0.000431,0.904379
9998000,0.0324,0.013523,0.002678,0.000431,1.057871
9999000,0.0324,0.013523,0.002678,0.000431,0.988294
