Cycle,Area(mm^2),PeakDynamic(W),SubthresholdLeakage(W),GateLeakage(W),RunTimeDynamic(W)
4000000,0.0324,0.013523,0.002678,0.000431,0.931176
4001000,0.0324,0.013523,0.002678,0.000431,0.959383
4002000,0.0324,0.013523,0.002678,0.000431,1.007922
4003000,0.0324,0.013523,0.002678,0.000431,0.947395
4004000,0.0324,0.013523,0.002678,0.000431,1.021202
4005000,0.0324,0.013523,0.002678,0.000431,0.971841
4006000,0.0324,0.013523,0.002678,0.000431,1.011565
4007000,0.0324,0.013523,0.002678,0.000431,1.061632
4008000,0.0324,0.013523,0.002678,0.000431,1.011800
4009000,0.0324,0.013523,0.002678,0.000431,1.000635
4010000,0.0324,0.013523,0.002678,0.000431,1.000635
4011000,0.0324,0.013523,0.002678,0.000431,0.944927
4012000,0.0324,0.013523,0.002678,0.000431,1.021908
4013000,0.0324,0.013523,0.002678,0.000431,0.915897
4014000,0.0324,0.013523,0.002678,0.000431,1.045061
4015000,0.0324,0.013523,0.002678,0.000431,0.916602
4016000,0.0324,0.013523,0.002678,0.000431,0.955504
4017000,0.0324,0.013523,0.002678,0.000431,1.000988
4018000,0.0324,0.013523,0.002678,0.000431,1.003221
4019000,0.0324,0.013523,0.002678,0.000431,1.062572
4020000,0.0324,0.013523,0.002678,0.000431,1.012975
4021000,0.0324,0.013523,0.002678,0.000431,1.036246
4022000,0.0324,0.013523,0.002678,0.000431,1.094893
4023000,0.0324,0.013523,0.002678,0.000431,1.036246
4024000,0.0324,0.013523,0.002678,0.000431,1.089839
4025000,0.0324,0.013523,0.002678,0.000431,0.992408
4026000,0.0324,0.013523,0.002678,0.000431,1.159886
4027000,0.0324,0.013523,0.002678,0.000431,1.040947
4028000,0.0324,0.013523,0.002678,0.000431,1.016971
4029000,0.0324,0.013523,0.002678,0.000431,1.049997
4030000,0.0324,0.013523,0.002678,0.000431,1.148368
4031000,0.0324,0.013523,0.002678,0.000431,0.942576
4032000,0.0324,0.013523,0.002678,0.000431,1.024376
4033000,0.0324,0.013523,0.002678,0.000431,1.081847
4034000,0.0324,0.013523,0.002678,0.000431,0.954916
4035000,0.0324,0.013523,0.002678,0.000431,1.014268
4036000,0.0324,0.013523,0.002678,0.000431,1.123334
4037000,0.0324,0.013523,0.002678,0.000431,1.003926
4038000,0.0324,0.013523,0.002678,0.000431,1.013446
4039000,0.0324,0.013523,0.002678,0.000431,1.006629
4040000,0.0324,0.013523,0.002678,0.000431,1.075383
4041000,0.0324,0.013523,0.002678,0.000431,0.999812
4042000,0.0324,0.013523,0.002678,0.000431,0.933879
4043000,0.0324,0.013523,0.002678,0.000431,0.961145
4044000,0.0324,0.013523,0.002678,0.000431,1.049527
4045000,0.0324,0.013523,0.002678,0.000431,0.974544
4046000,0.0324,0.013523,0.002678,0.000431,1.025198
4047000,0.0324,0.013523,0.002678,0.000431,0.942929
4048000,0.0324,0.013523,0.002678,0.000431,0.936700
4049000,0.0324,0.013523,0.002678,0.000431,1.061750
4050000,0.0324,0.013523,0.002678,0.000431,1.077616
4051000,0.0324,0.013523,0.002678,0.000431,0.992878
4052000,0.0324,0.013523,0.002678,0.000431,1.041300
4053000,0.0324,0.013523,0.002678,0.000431,1.046941
4054000,0.0324,0.013523,0.002678,0.000431,1.010742
4055000,0.0324,0.013523,0.002678,0.000431,1.005571
4056000,0.0324,0.013523,0.002678,0.000431,1.059164
4057000,0.0324,0.013523,0.002678,0.000431,1.053523
4058000,0.0324,0.013523,0.002678,0.000431,1.009097
4059000,0.0324,0.013523,0.002678,0.000431,1.088899
4060000,0.0324,0.013523,0.002678,0.000431,1.076911
4061000,0.0324,0.013523,0.002678,0.000431,1.047176
4062000,0.0324,0.013523,0.002678,0.000431,1.058106
4063000,0.0324,0.013523,0.002678,0.000431,1.071975
4064000,0.0324,0.013523,0.002678,0.000431,1.097008
4065000,0.0324,0.013523,0.002678,0.000431,1.000988
4066000,0.0324,0.013523,0.002678,0.000431,1.114285
4067000,0.0324,0.013523,0.002678,0.000431,1.083962
4068000,0.0324,0.013523,0.002678,0.000431,0.891686
4069000,0.0324,0.013523,0.002678,0.000431,1.033190
4070000,0.0324,0.013523,0.002678,0.000431,0.959030
4071000,0.0324,0.013523,0.002678,0.000431,0.948687
4072000,0.0324,0.013523,0.002678,0.000431,1.105588
4073000,0.0324,0.013523,0.002678,0.000431,1.152129
4074000,0.0324,0.013523,0.002678,0.000431,1.034013
4075000,0.0324,0.013523,0.002678,0.000431,1.040359
4076000,0.0324,0.013523,0.002678,0.000431,1.125802
4077000,0.0324,0.013523,0.002678,0.000431,1.029899
4078000,0.0324,0.013523,0.002678,0.000431,1.106880
4079000,0.0324,0.013523,0.002678,0.000431,0.978305
4080000,0.0324,0.013523,0.002678,0.000431,0.992878
4081000,0.0324,0.013523,0.002678,0.000431,1.095480
4082000,0.0324,0.013523,0.002678,0.000431,1.025433
4083000,0.0324,0.013523,0.002678,0.000431,1.004161
4084000,0.0324,0.013523,0.002678,0.000431,1.037539
4085000,0.0324,0.013523,0.002678,0.000431,1.024611
4086000,0.0324,0.013523,0.002678,0.000431,0.923301
4087000,0.0324,0.013523,0.002678,0.000431,0.895447
4088000,0.0324,0.013523,0.002678,0.000431,0.976072
4089000,0.0324,0.013523,0.002678,0.000431,0.977717
4090000,0.0324,0.013523,0.002678,0.000431,1.046001
4091000,0.0324,0.013523,0.002678,0.000431,0.909551
4092000,0.0324,0.013523,0.002678,0.000431,1.014386
4093000,0.0324,0.013523,0.002678,0.000431,0.908610
4094000,0.0324,0.013523,0.002678,0.000431,0.976307
4095000,0.0324,0.013523,0.002678,0.000431,0.878288
4096000,0.0324,0.013523,0.002678,0.000431,1.119456
4097000,0.0324,0.013523,0.002678,0.000431,0.901911
4098000,0.0324,0.013523,0.002678,0.000431,0.977012
4099000,0.0324,0.013523,0.002678,0.000431,0.934114
4100000,0.0324,0.013523,0.002678,0.000431,0.970078
4101000,0.0324,0.013523,0.002678,0.000431,1.032368
4102000,0.0324,0.013523,0.002678,0.000431,0.942694
4103000,0.0324,0.013523,0.002678,0.000431,0.851257
4104000,0.0324,0.013523,0.002678,0.000431,0.894977
4105000,0.0324,0.013523,0.002678,0.000431,0.885340
4106000,0.0324,0.013523,0.002678,0.000431,0.898268
4107000,0.0324,0.013523,0.002678,0.000431,0.834333
4108000,0.0324,0.013523,0.002678,0.000431,0.938580
4109000,0.0324,0.013523,0.002678,0.000431,0.853137
4110000,0.0324,0.013523,0.002678,0.000431,0.925887
4111000,0.0324,0.013523,0.002678,0.000431,0.902969
4112000,0.0324,0.013523,0.002678,0.000431,0.989587
4113000,0.0324,0.013523,0.002678,0.000431,1.007804
4114000,0.0324,0.013523,0.002678,0.000431,1.027549
4115000,0.0324,0.013523,0.002678,0.000431,0.916485
4116000,0.0324,0.013523,0.002678,0.000431,0.956562
4117000,0.0324,0.013523,0.002678,0.000431,1.036951
4118000,0.0324,0.013523,0.002678,0.000431,0.957150
4119000,0.0324,0.013523,0.002678,0.000431,0.903674
4120000,0.0324,0.013523,0.002678,0.000431,0.939990
4121000,0.0324,0.013523,0.002678,0.000431,0.932469
4122000,0.0324,0.013523,0.002678,0.000431,0.915662
4123000,0.0324,0.013523,0.002678,0.000431,0.908258
4124000,0.0324,0.013523,0.002678,0.000431,0.911078
4125000,0.0324,0.013523,0.002678,0.000431,0.983123
4126000,0.0324,0.013523,0.002678,0.000431,0.997814
4127000,0.0324,0.013523,0.002678,0.000431,0.894389
4128000,0.0324,0.013523,0.002678,0.000431,1.035658
4129000,0.0324,0.013523,0.002678,0.000431,0.842089
4130000,0.0324,0.013523,0.002678,0.000431,1.001693
4131000,0.0324,0.013523,0.002678,0.000431,0.850434
4132000,0.0324,0.013523,0.002678,0.000431,0.965729
4133000,0.0324,0.013523,0.002678,0.000431,0.940108
4134000,0.0324,0.013523,0.002678,0.000431,0.957267
4135000,0.0324,0.013523,0.002678,0.000431,0.984769
4136000,0.0324,0.013523,0.002678,0.000431,0.984181
4137000,0.0324,0.013523,0.002678,0.000431,1.044355
4138000,0.0324,0.013523,0.002678,0.000431,1.106645
4139000,0.0324,0.013523,0.002678,0.000431,0.855723
4140000,0.0324,0.013523,0.002678,0.000431,0.918835
4141000,0.0324,0.013523,0.002678,0.000431,0.957385
4142000,0.0324,0.013523,0.002678,0.000431,1.002868
4143000,0.0324,0.013523,0.002678,0.000431,0.966199
4144000,0.0324,0.013523,0.002678,0.000431,0.919070
4145000,0.0324,0.013523,0.002678,0.000431,0.917072
4146000,0.0324,0.013523,0.002678,0.000431,0.965847
4147000,0.0324,0.013523,0.002678,0.000431,1.027666
4148000,0.0324,0.013523,0.002678,0.000431,0.972898
4149000,0.0324,0.013523,0.002678,0.000431,1.020967
4150000,0.0324,0.013523,0.002678,0.000431,0.992526
4151000,0.0324,0.013523,0.002678,0.000431,0.972781
4152000,0.0324,0.013523,0.002678,0.000431,1.028137
4153000,0.0324,0.013523,0.002678,0.000431,1.060927
4154000,0.0324,0.013523,0.002678,0.000431,1.047411
4155000,0.0324,0.013523,0.002678,0.000431,0.953741
4156000,0.0324,0.013523,0.002678,0.000431,0.953976
4157000,0.0324,0.013523,0.002678,0.000431,1.122394
4158000,0.0324,0.013523,0.002678,0.000431,0.951038
4159000,0.0324,0.013523,0.002678,0.000431,0.978422
4160000,0.0324,0.013523,0.002678,0.000431,1.044943
4161000,0.0324,0.013523,0.002678,0.000431,1.019910
4162000,0.0324,0.013523,0.002678,0.000431,1.096891
4163000,0.0324,0.013523,0.002678,0.000431,1.010742
4164000,0.0324,0.013523,0.002678,0.000431,1.090897
4165000,0.0324,0.013523,0.002678,0.000431,0.973839
4166000,0.0324,0.013523,0.002678,0.000431,1.065393
4167000,0.0324,0.013523,0.002678,0.000431,1.077498
4168000,0.0324,0.013523,0.002678,0.000431,1.057284
4169000,0.0324,0.013523,0.002678,0.000431,0.906847
4170000,0.0324,0.013523,0.002678,0.000431,1.027431
4171000,0.0324,0.013523,0.002678,0.000431,1.016384
4172000,0.0324,0.013523,0.002678,0.000431,0.955622
4173000,0.0324,0.013523,0.002678,0.000431,0.854665
4174000,0.0324,0.013523,0.002678,0.000431,0.959030
4175000,0.0324,0.013523,0.002678,0.000431,1.002280
4176000,0.0324,0.013523,0.002678,0.000431,1.015091
4177000,0.0324,0.013523,0.002678,0.000431,1.012388
4178000,0.0324,0.013523,0.002678,0.000431,1.073737
4179000,0.0324,0.013523,0.002678,0.000431,1.057519
4180000,0.0324,0.013523,0.002678,0.000431,1.075383
4181000,0.0324,0.013523,0.002678,0.000431,1.059869
4182000,0.0324,0.013523,0.002678,0.000431,1.079379
4183000,0.0324,0.013523,0.002678,0.000431,1.060457
4184000,0.0324,0.013523,0.002678,0.000431,1.040124
4185000,0.0324,0.013523,0.002678,0.000431,1.063277
4186000,0.0324,0.013523,0.002678,0.000431,0.943399
4187000,0.0324,0.013523,0.002678,0.000431,1.076793
4188000,0.0324,0.013523,0.002678,0.000431,1.052347
4189000,0.0324,0.013523,0.002678,0.000431,1.000988
4190000,0.0324,0.013523,0.002678,0.000431,1.005454
4191000,0.0324,0.013523,0.002678,0.000431,1.052230
4192000,0.0324,0.013523,0.002678,0.000431,0.943869
4193000,0.0324,0.013523,0.002678,0.000431,1.014386
4194000,0.0324,0.013523,0.002678,0.000431,0.967727
4195000,0.0324,0.013523,0.002678,0.000431,0.868181
4196000,0.0324,0.013523,0.002678,0.000431,0.920833
4197000,0.0324,0.013523,0.002678,0.000431,0.982888
4198000,0.0324,0.013523,0.002678,0.000431,0.945162
4199000,0.0324,0.013523,0.002678,0.000431,1.015796
4200000,0.0324,0.013523,0.002678,0.000431,0.987472
4201000,0.0324,0.013523,0.002678,0.000431,0.908140
4202000,0.0324,0.013523,0.002678,0.000431,1.126508
4203000,0.0324,0.013523,0.002678,0.000431,1.013328
4204000,0.0324,0.013523,0.002678,0.000431,0.829631
4205000,0.0324,0.013523,0.002678,0.000431,0.945514
4206000,0.0324,0.013523,0.002678,0.000431,1.024493
4207000,0.0324,0.013523,0.002678,0.000431,0.972898
4208000,0.0324,0.013523,0.002678,0.000431,1.006394
4209000,0.0324,0.013523,0.002678,0.000431,0.947395
4210000,0.0324,0.013523,0.002678,0.000431,0.944692
4211000,0.0324,0.013523,0.002678,0.000431,0.984651
4212000,0.0324,0.013523,0.002678,0.000431,0.923536
4213000,0.0324,0.013523,0.002678,0.000431,0.879111
4214000,0.0324,0.013523,0.002678,0.000431,1.015679
4215000,0.0324,0.013523,0.002678,0.000431,0.935524
4216000,0.0324,0.013523,0.002678,0.000431,1.037304
4217000,0.0324,0.013523,0.002678,0.000431,0.891804
4218000,0.0324,0.013523,0.002678,0.000431,0.945279
4219000,0.0324,0.013523,0.002678,0.000431,0.906730
4220000,0.0324,0.013523,0.002678,0.000431,1.007334
4221000,0.0324,0.013523,0.002678,0.000431,0.909316
4222000,0.0324,0.013523,0.002678,0.000431,0.964554
4223000,0.0324,0.013523,0.002678,0.000431,0.986884
4224000,0.0324,0.013523,0.002678,0.000431,0.975249
4225000,0.0324,0.013523,0.002678,0.000431,0.986179
4226000,0.0324,0.013523,0.002678,0.000431,0.985591
4227000,0.0324,0.013523,0.002678,0.000431,0.962321
4228000,0.0324,0.013523,0.002678,0.000431,0.934819
4229000,0.0324,0.013523,0.002678,0.000431,0.901206
4230000,0.0324,0.013523,0.002678,0.000431,1.000165
4231000,0.0324,0.013523,0.002678,0.000431,0.924242
4232000,0.0324,0.013523,0.002678,0.000431,0.903557
4233000,0.0324,0.013523,0.002678,0.000431,0.927767
4234000,0.0324,0.013523,0.002678,0.000431,0.993231
4235000,0.0324,0.013523,0.002678,0.000431,0.986414
4236000,0.0324,0.013523,0.002678,0.000431,0.837506
4237000,0.0324,0.013523,0.002678,0.000431,0.886985
4238000,0.0324,0.013523,0.002678,0.000431,0.922479
4239000,0.0324,0.013523,0.002678,0.000431,0.924594
4240000,0.0324,0.013523,0.002678,0.000431,0.945279
4241000,0.0324,0.013523,0.002678,0.000431,0.916250
4242000,0.0324,0.013523,0.002678,0.000431,0.869944
4243000,0.0324,0.013523,0.002678,0.000431,1.018029
4244000,0.0324,0.013523,0.002678,0.000431,0.889923
4245000,0.0324,0.013523,0.002678,0.000431,0.893214
4246000,0.0324,0.013523,0.002678,0.000431,0.923066
4247000,0.0324,0.013523,0.002678,0.000431,1.030957
4248000,0.0324,0.013523,0.002678,0.000431,0.930001
4249000,0.0324,0.013523,0.002678,0.000431,0.970078
4250000,0.0324,0.013523,0.002678,0.000431,0.920716
4251000,0.0324,0.013523,0.002678,0.000431,1.118868
4252000,0.0324,0.013523,0.002678,0.000431,0.899678
4253000,0.0324,0.013523,0.002678,0.000431,1.032603
4254000,0.0324,0.013523,0.002678,0.000431,1.045413
4255000,0.0324,0.013523,0.002678,0.000431,0.993701
4256000,0.0324,0.013523,0.002678,0.000431,1.083375
4257000,0.0324,0.013523,0.002678,0.000431,0.994759
4258000,0.0324,0.013523,0.002678,0.000431,1.011683
4259000,0.0324,0.013523,0.002678,0.000431,1.051055
4260000,0.0324,0.013523,0.002678,0.000431,1.082670
4261000,0.0324,0.013523,0.002678,0.000431,1.022495
4262000,0.0324,0.013523,0.002678,0.000431,0.987707
4263000,0.0324,0.013523,0.002678,0.000431,0.989117
4264000,0.0324,0.013523,0.002678,0.000431,1.006511
4265000,0.0324,0.013523,0.002678,0.000431,0.958912
4266000,0.0324,0.013523,0.002678,0.000431,0.948687
4267000,0.0324,0.013523,0.002678,0.000431,0.957972
4268000,0.0324,0.013523,0.002678,0.000431,1.018264
4269000,0.0324,0.013523,0.002678,0.000431,0.998167
4270000,0.0324,0.013523,0.002678,0.000431,1.006159
4271000,0.0324,0.013523,0.002678,0.000431,0.949628
4272000,0.0324,0.013523,0.002678,0.000431,1.038361
4273000,0.0324,0.013523,0.002678,0.000431,0.956797
4274000,0.0324,0.013523,0.002678,0.000431,0.986649
4275000,0.0324,0.013523,0.002678,0.000431,0.988882
4276000,0.0324,0.013523,0.002678,0.000431,0.997344
4277000,0.0324,0.013523,0.002678,0.000431,1.035423
4278000,0.0324,0.013523,0.002678,0.000431,1.024611
4279000,0.0324,0.013523,0.002678,0.000431,1.012623
4280000,0.0324,0.013523,0.002678,0.000431,0.892979
4281000,0.0324,0.013523,0.002678,0.000431,0.942929
4282000,0.0324,0.013523,0.002678,0.000431,0.949980
4283000,0.0324,0.013523,0.002678,0.000431,0.980420
4284000,0.0324,0.013523,0.002678,0.000431,0.995111
4285000,0.0324,0.013523,0.002678,0.000431,0.989822
4286000,0.0324,0.013523,0.002678,0.000431,0.995581
4287000,0.0324,0.013523,0.002678,0.000431,0.937875
4288000,0.0324,0.013523,0.002678,0.000431,1.108526
4289000,0.0324,0.013523,0.002678,0.000431,0.912019
4290000,0.0324,0.013523,0.002678,0.000431,1.055403
4291000,0.0324,0.013523,0.002678,0.000431,1.064923
4292000,0.0324,0.013523,0.002678,0.000431,1.023318
4293000,0.0324,0.013523,0.002678,0.000431,1.172226
4294000,0.0324,0.013523,0.002678,0.000431,0.898385
4295000,0.0324,0.013523,0.002678,0.000431,1.015326
4296000,0.0324,0.013523,0.002678,0.000431,1.019439
4297000,0.0324,0.013523,0.002678,0.000431,0.916485
4298000,0.0324,0.013523,0.002678,0.000431,0.950333
4299000,0.0324,0.013523,0.002678,0.000431,0.921538
4300000,0.0324,0.013523,0.002678,0.000431,1.057636
4301000,0.0324,0.013523,0.002678,0.000431,0.891569
4302000,0.0324,0.013523,0.002678,0.000431,0.928003
4303000,0.0324,0.013523,0.002678,0.000431,0.982183
4304000,0.0324,0.013523,0.002678,0.000431,1.023318
4305000,0.0324,0.013523,0.002678,0.000431,1.033895
4306000,0.0324,0.013523,0.002678,0.000431,0.941988
4307000,0.0324,0.013523,0.002678,0.000431,1.028724
4308000,0.0324,0.013523,0.002678,0.000431,0.924477
4309000,0.0324,0.013523,0.002678,0.000431,1.004161
4310000,0.0324,0.013523,0.002678,0.000431,1.037421
4311000,0.0324,0.013523,0.002678,0.000431,0.934467
4312000,0.0324,0.013523,0.002678,0.000431,0.878876
4313000,0.0324,0.013523,0.002678,0.000431,0.930118
4314000,0.0324,0.013523,0.002678,0.000431,0.905437
4315000,0.0324,0.013523,0.002678,0.000431,0.967610
4316000,0.0324,0.013523,0.002678,0.000431,0.888278
4317000,0.0324,0.013523,0.002678,0.000431,0.884987
4318000,0.0324,0.013523,0.002678,0.000431,0.946102
4319000,0.0324,0.013523,0.002678,0.000431,0.933291
4320000,0.0324,0.013523,0.002678,0.000431,1.056461
4321000,0.0324,0.013523,0.002678,0.000431,0.917190
4322000,0.0324,0.013523,0.002678,0.000431,0.977129
4323000,0.0324,0.013523,0.002678,0.000431,1.018617
4324000,0.0324,0.013523,0.002678,0.000431,0.992526
4325000,0.0324,0.013523,0.002678,0.000431,0.967022
4326000,0.0324,0.013523,0.002678,0.000431,0.934467
4327000,0.0324,0.013523,0.002678,0.000431,1.004513
4328000,0.0324,0.013523,0.002678,0.000431,1.018852
4329000,0.0324,0.013523,0.002678,0.000431,1.009215
4330000,0.0324,0.013523,0.002678,0.000431,0.978070
4331000,0.0324,0.013523,0.002678,0.000431,0.964671
4332000,0.0324,0.013523,0.002678,0.000431,0.934937
4333000,0.0324,0.013523,0.002678,0.000431,0.952801
4334000,0.0324,0.013523,0.002678,0.000431,0.936465
4335000,0.0324,0.013523,0.002678,0.000431,0.913782
4336000,0.0324,0.013523,0.002678,0.000431,1.051642
4337000,0.0324,0.013523,0.002678,0.000431,0.912254
4338000,0.0324,0.013523,0.002678,0.000431,1.102179
4339000,0.0324,0.013523,0.002678,0.000431,0.937757
4340000,0.0324,0.013523,0.002678,0.000431,0.888160
4341000,0.0324,0.013523,0.002678,0.000431,0.929883
4342000,0.0324,0.013523,0.002678,0.000431,0.953271
4343000,0.0324,0.013523,0.002678,0.000431,1.005924
4344000,0.0324,0.013523,0.002678,0.000431,0.970900
4345000,0.0324,0.013523,0.002678,0.000431,0.991115
4346000,0.0324,0.013523,0.002678,0.000431,0.895565
4347000,0.0324,0.013523,0.002678,0.000431,0.911431
4348000,0.0324,0.013523,0.002678,0.000431,1.082552
4349000,0.0324,0.013523,0.002678,0.000431,0.902381
4350000,0.0324,0.013523,0.002678,0.000431,0.888513
4351000,0.0324,0.013523,0.002678,0.000431,1.013093
4352000,0.0324,0.013523,0.002678,0.000431,0.876760
4353000,0.0324,0.013523,0.002678,0.000431,0.969372
4354000,0.0324,0.013523,0.002678,0.000431,0.972898
4355000,0.0324,0.013523,0.002678,0.000431,0.991938
4356000,0.0324,0.013523,0.002678,0.000431,0.901794
4357000,0.0324,0.013523,0.002678,0.000431,0.924477
4358000,0.0324,0.013523,0.002678,0.000431,0.862774
4359000,0.0324,0.013523,0.002678,0.000431,1.006746
4360000,0.0324,0.013523,0.002678,0.000431,1.042475
4361000,0.0324,0.013523,0.002678,0.000431,0.879463
4362000,0.0324,0.013523,0.002678,0.000431,0.892391
4363000,0.0324,0.013523,0.002678,0.000431,1.023318
4364000,0.0324,0.013523,0.002678,0.000431,0.948805
4365000,0.0324,0.013523,0.002678,0.000431,0.955504
4366000,0.0324,0.013523,0.002678,0.000431,0.971841
4367000,0.0324,0.013523,0.002678,0.000431,0.959735
4368000,0.0324,0.013523,0.002678,0.000431,0.949980
4369000,0.0324,0.013523,0.002678,0.000431,0.976424
4370000,0.0324,0.013523,0.002678,0.000431,0.974309
4371000,0.0324,0.013523,0.002678,0.000431,0.931763
4372000,0.0324,0.013523,0.002678,0.000431,0.946337
4373000,0.0324,0.013523,0.002678,0.000431,0.959500
4374000,0.0324,0.013523,0.002678,0.000431,0.967962
4375000,0.0324,0.013523,0.002678,0.000431,0.979010
4376000,0.0324,0.013523,0.002678,0.000431,0.941401
4377000,0.0324,0.013523,0.002678,0.000431,1.011212
4378000,0.0324,0.013523,0.002678,0.000431,0.972663
4379000,0.0324,0.013523,0.002678,0.000431,0.964554
4380000,0.0324,0.013523,0.002678,0.000431,0.861952
4381000,0.0324,0.013523,0.002678,0.000431,0.909903
4382000,0.0324,0.013523,0.002678,0.000431,0.949275
4383000,0.0324,0.013523,0.002678,0.000431,0.865478
4384000,0.0324,0.013523,0.002678,0.000431,1.021555
4385000,0.0324,0.013523,0.002678,0.000431,0.990292
4386000,0.0324,0.013523,0.002678,0.000431,0.921303
4387000,0.0324,0.013523,0.002678,0.000431,0.999930
4388000,0.0324,0.013523,0.002678,0.000431,1.033308
4389000,0.0324,0.013523,0.002678,0.000431,0.980773
4390000,0.0324,0.013523,0.002678,0.000431,0.993701
4391000,0.0324,0.013523,0.002678,0.000431,1.018029
4392000,0.0324,0.013523,0.002678,0.000431,0.868181
4393000,0.0324,0.013523,0.002678,0.000431,0.987942
4394000,0.0324,0.013523,0.002678,0.000431,0.831512
4395000,0.0324,0.013523,0.002678,0.000431,0.920833
4396000,0.0324,0.013523,0.002678,0.000431,0.873469
4397000,0.0324,0.013523,0.002678,0.000431,0.858308
4398000,0.0324,0.013523,0.002678,0.000431,0.966434
4399000,0.0324,0.013523,0.002678,0.000431,0.923772
4400000,0.0324,0.013523,0.002678,0.000431,0.927297
4401000,0.0324,0.013523,0.002678,0.000431,0.956444
4402000,0.0324,0.013523,0.002678,0.000431,0.942694
4403000,0.0324,0.013523,0.002678,0.000431,0.962321
4404000,0.0324,0.013523,0.002678,0.000431,0.933526
4405000,0.0324,0.013523,0.002678,0.000431,0.957032
4406000,0.0324,0.013523,0.002678,0.000431,0.955857
4407000,0.0324,0.013523,0.002678,0.000431,0.995699
4408000,0.0324,0.013523,0.002678,0.000431,0.967845
4409000,0.0324,0.013523,0.002678,0.000431,0.894625
4410000,0.0324,0.013523,0.002678,0.000431,1.014973
4411000,0.0324,0.013523,0.002678,0.000431,0.949393
4412000,0.0324,0.013523,0.002678,0.000431,0.868181
4413000,0.0324,0.013523,0.002678,0.000431,0.933644
4414000,0.0324,0.013523,0.002678,0.000431,0.967492
4415000,0.0324,0.013523,0.002678,0.000431,0.864420
4416000,0.0324,0.013523,0.002678,0.000431,0.988882
4417000,0.0324,0.013523,0.002678,0.000431,0.964554
4418000,0.0324,0.013523,0.002678,0.000431,0.977952
4419000,0.0324,0.013523,0.002678,0.000431,1.024141
4420000,0.0324,0.013523,0.002678,0.000431,0.935407
4421000,0.0324,0.013523,0.002678,0.000431,0.965964
4422000,0.0324,0.013523,0.002678,0.000431,1.108408
4423000,0.0324,0.013523,0.002678,0.000431,0.902146
4424000,0.0324,0.013523,0.002678,0.000431,1.101239
4425000,0.0324,0.013523,0.002678,0.000431,0.883694
4426000,0.0324,0.013523,0.002678,0.000431,1.047294
4427000,0.0324,0.013523,0.002678,0.000431,1.008744
4428000,0.0324,0.013523,0.002678,0.000431,1.000165
4429000,0.0324,0.013523,0.002678,0.000431,1.103472
4430000,0.0324,0.013523,0.002678,0.000431,0.929765
4431000,0.0324,0.013523,0.002678,0.000431,1.035893
4432000,0.0324,0.013523,0.002678,0.000431,0.916367
4433000,0.0324,0.013523,0.002678,0.000431,0.846438
4434000,0.0324,0.013523,0.002678,0.000431,1.069977
4435000,0.0324,0.013523,0.002678,0.000431,0.979245
4436000,0.0324,0.013523,0.002678,0.000431,0.869944
4437000,0.0324,0.013523,0.002678,0.000431,0.993818
4438000,0.0324,0.013523,0.002678,0.000431,0.920128
4439000,0.0324,0.013523,0.002678,0.000431,0.939755
4440000,0.0324,0.013523,0.002678,0.000431,0.918365
4441000,0.0324,0.013523,0.002678,0.000431,0.890981
4442000,0.0324,0.013523,0.002678,0.000431,1.002163
4443000,0.0324,0.013523,0.002678,0.000431,0.955622
4444000,0.0324,0.013523,0.002678,0.000431,0.900971
4445000,0.0324,0.013523,0.002678,0.000431,0.880169
4446000,0.0324,0.013523,0.002678,0.000431,0.890864
4447000,0.0324,0.013523,0.002678,0.000431,0.939403
4448000,0.0324,0.013523,0.002678,0.000431,0.871589
4449000,0.0324,0.013523,0.002678,0.000431,0.897680
4450000,0.0324,0.013523,0.002678,0.000431,0.792728
4451000,0.0324,0.013523,0.002678,0.000431,0.976659
4452000,0.0324,0.013523,0.002678,0.000431,0.852667
4453000,0.0324,0.013523,0.002678,0.000431,0.852432
4454000,0.0324,0.013523,0.002678,0.000431,0.892744
4455000,0.0324,0.013523,0.002678,0.000431,0.964201
4456000,0.0324,0.013523,0.002678,0.000431,0.954094
4457000,0.0324,0.013523,0.002678,0.000431,0.881461
4458000,0.0324,0.013523,0.002678,0.000431,0.931293
4459000,0.0324,0.013523,0.002678,0.000431,0.933174
4460000,0.0324,0.013523,0.002678,0.000431,0.888160
4461000,0.0324,0.013523,0.002678,0.000431,0.958912
4462000,0.0324,0.013523,0.002678,0.000431,0.968080
4463000,0.0324,0.013523,0.002678,0.000431,0.945044
4464000,0.0324,0.013523,0.002678,0.000431,0.928355
4465000,0.0324,0.013523,0.002678,0.000431,0.924242
4466000,0.0324,0.013523,0.002678,0.000431,0.950803
4467000,0.0324,0.013523,0.002678,0.000431,0.962203
4468000,0.0324,0.013523,0.002678,0.000431,0.904732
4469000,0.0324,0.013523,0.002678,0.000431,0.790965
4470000,0.0324,0.013523,0.002678,0.000431,0.869826
4471000,0.0324,0.013523,0.002678,0.000431,0.912019
4472000,0.0324,0.013523,0.002678,0.000431,0.937522
4473000,0.0324,0.013523,0.002678,0.000431,0.853725
4474000,0.0324,0.013523,0.002678,0.000431,0.874057
4475000,0.0324,0.013523,0.002678,0.000431,0.957737
4476000,0.0324,0.013523,0.002678,0.000431,1.026021
4477000,0.0324,0.013523,0.002678,0.000431,0.893332
4478000,0.0324,0.013523,0.002678,0.000431,0.949628
4479000,0.0324,0.013523,0.002678,0.000431,0.936230
4480000,0.0324,0.013523,0.002678,0.000431,1.020145
4481000,0.0324,0.013523,0.002678,0.000431,0.963849
4482000,0.0324,0.013523,0.002678,0.000431,1.030605
4483000,0.0324,0.013523,0.002678,0.000431,1.084315
4484000,0.0324,0.013523,0.002678,0.000431,0.925534
4485000,0.0324,0.013523,0.002678,0.000431,1.000282
4486000,0.0324,0.013523,0.002678,0.000431,1.022848
4487000,0.0324,0.013523,0.002678,0.000431,1.039067
4488000,0.0324,0.013523,0.002678,0.000431,0.965259
4489000,0.0324,0.013523,0.002678,0.000431,0.966787
4490000,0.0324,0.013523,0.002678,0.000431,0.919540
4491000,0.0324,0.013523,0.002678,0.000431,1.036364
4492000,0.0324,0.013523,0.002678,0.000431,1.057871
4493000,0.0324,0.013523,0.002678,0.000431,0.916602
4494000,0.0324,0.013523,0.002678,0.000431,0.936112
4495000,0.0324,0.013523,0.002678,0.000431,1.006159
4496000,0.0324,0.013523,0.002678,0.000431,1.024376
4497000,0.0324,0.013523,0.002678,0.000431,1.036011
4498000,0.0324,0.013523,0.002678,0.000431,0.789789
4499000,0.0324,0.013523,0.002678,0.000431,0.900854
4500000,0.0324,0.013523,0.002678,0.000431,1.016149
4501000,0.0324,0.013523,0.002678,0.000431,0.924007
4502000,0.0324,0.013523,0.002678,0.000431,1.005689
4503000,0.0324,0.013523,0.002678,0.000431,0.887808
4504000,0.0324,0.013523,0.002678,0.000431,0.867946
4505000,0.0324,0.013523,0.002678,0.000431,0.975719
4506000,0.0324,0.013523,0.002678,0.000431,0.936230
4507000,0.0324,0.013523,0.002678,0.000431,1.050114
4508000,0.0324,0.013523,0.002678,0.000431,0.943751
4509000,0.0324,0.013523,0.002678,0.000431,0.928708
4510000,0.0324,0.013523,0.002678,0.000431,0.974544
4511000,0.0324,0.013523,0.002678,0.000431,0.850787
4512000,0.0324,0.013523,0.002678,0.000431,0.887338
4513000,0.0324,0.013523,0.002678,0.000431,0.983476
4514000,0.0324,0.013523,0.002678,0.000431,1.045413
4515000,0.0324,0.013523,0.002678,0.000431,0.922244
4516000,0.0324,0.013523,0.002678,0.000431,1.074208
4517000,0.0324,0.013523,0.002678,0.000431,0.833157
4518000,0.0324,0.013523,0.002678,0.000431,1.068919
4519000,0.0324,0.013523,0.002678,0.000431,0.866535
4520000,0.0324,0.013523,0.002678,0.000431,0.943516
4521000,0.0324,0.013523,0.002678,0.000431,0.929648
4522000,0.0324,0.013523,0.002678,0.000431,0.977247
4523000,0.0324,0.013523,0.002678,0.000431,0.920011
4524000,0.0324,0.013523,0.002678,0.000431,1.032015
4525000,0.0324,0.013523,0.002678,0.000431,0.906260
4526000,0.0324,0.013523,0.002678,0.000431,0.935054
4527000,0.0324,0.013523,0.002678,0.000431,0.919305
4528000,0.0324,0.013523,0.002678,0.000431,0.997462
4529000,0.0324,0.013523,0.002678,0.000431,0.963026
4530000,0.0324,0.013523,0.002678,0.000431,1.003808
4531000,0.0324,0.013523,0.002678,0.000431,1.022025
4532000,0.0324,0.013523,0.002678,0.000431,0.970900
4533000,0.0324,0.013523,0.002678,0.000431,0.980655
4534000,0.0324,0.013523,0.002678,0.000431,0.993113
4535000,0.0324,0.013523,0.002678,0.000431,0.967727
4536000,0.0324,0.013523,0.002678,0.000431,1.090544
4537000,0.0324,0.013523,0.002678,0.000431,1.016619
4538000,0.0324,0.013523,0.002678,0.000431,0.985474
4539000,0.0324,0.013523,0.002678,0.000431,1.030252
4540000,0.0324,0.013523,0.002678,0.000431,1.028137
4541000,0.0324,0.013523,0.002678,0.000431,1.022260
4542000,0.0324,0.013523,0.002678,0.000431,0.852432
4543000,0.0324,0.013523,0.002678,0.000431,0.967374
4544000,0.0324,0.013523,0.002678,0.000431,0.984534
4545000,0.0324,0.013523,0.002678,0.000431,0.953271
4546000,0.0324,0.013523,0.002678,0.000431,0.931881
4547000,0.0324,0.013523,0.002678,0.000431,1.040242
4548000,0.0324,0.013523,0.002678,0.000431,0.906495
4549000,0.0324,0.013523,0.002678,0.000431,0.993701
4550000,0.0324,0.013523,0.002678,0.000431,0.883224
4551000,0.0324,0.013523,0.002678,0.000431,0.903557
4552000,0.0324,0.013523,0.002678,0.000431,0.902616
4553000,0.0324,0.013523,0.002678,0.000431,1.040007
4554000,0.0324,0.013523,0.002678,0.000431,0.908258
4555000,0.0324,0.013523,0.002678,0.000431,0.937052
4556000,0.0324,0.013523,0.002678,0.000431,0.965376
4557000,0.0324,0.013523,0.002678,0.000431,0.952448
4558000,0.0324,0.013523,0.002678,0.000431,1.017677
4559000,0.0324,0.013523,0.002678,0.000431,0.940696
4560000,0.0324,0.013523,0.002678,0.000431,0.958090
4561000,0.0324,0.013523,0.002678,0.000431,0.931411
4562000,0.0324,0.013523,0.002678,0.000431,1.057166
4563000,0.0324,0.013523,0.002678,0.000431,0.919070
4564000,0.0324,0.013523,0.002678,0.000431,0.931411
4565000,0.0324,0.013523,0.002678,0.000431,0.999342
4566000,0.0324,0.013523,0.002678,0.000431,1.037656
4567000,0.0324,0.013523,0.002678,0.000431,0.981125
4568000,0.0324,0.013523,0.002678,0.000431,0.843030
4569000,0.0324,0.013523,0.002678,0.000431,0.970313
4570000,0.0324,0.013523,0.002678,0.000431,0.840091
4571000,0.0324,0.013523,0.002678,0.000431,0.807184
4572000,0.0324,0.013523,0.002678,0.000431,0.989117
4573000,0.0324,0.013523,0.002678,0.000431,0.904027
4574000,0.0324,0.013523,0.002678,0.000431,0.913547
4575000,0.0324,0.013523,0.002678,0.000431,0.898150
4576000,0.0324,0.013523,0.002678,0.000431,0.897915
4577000,0.0324,0.013523,0.002678,0.000431,0.991585
4578000,0.0324,0.013523,0.002678,0.000431,0.877583
4579000,0.0324,0.013523,0.002678,0.000431,0.881579
4580000,0.0324,0.013523,0.002678,0.000431,0.967139
4581000,0.0324,0.013523,0.002678,0.000431,0.898268
4582000,0.0324,0.013523,0.002678,0.000431,0.956797
4583000,0.0324,0.013523,0.002678,0.000431,0.975836
4584000,0.0324,0.013523,0.002678,0.000431,0.986414
4585000,0.0324,0.013523,0.002678,0.000431,0.972428
4586000,0.0324,0.013523,0.002678,0.000431,0.894507
4587000,0.0324,0.013523,0.002678,0.000431,0.935642
4588000,0.0324,0.013523,0.002678,0.000431,0.958442
4589000,0.0324,0.013523,0.002678,0.000431,0.896740
4590000,0.0324,0.013523,0.002678,0.000431,0.986414
4591000,0.0324,0.013523,0.002678,0.000431,0.901676
4592000,0.0324,0.013523,0.002678,0.000431,0.871707
4593000,0.0324,0.013523,0.002678,0.000431,0.955857
4594000,0.0324,0.013523,0.002678,0.000431,0.887220
4595000,0.0324,0.013523,0.002678,0.000431,1.017677
4596000,0.0324,0.013523,0.002678,0.000431,0.862422
4597000,0.0324,0.013523,0.002678,0.000431,0.832687
4598000,0.0324,0.013523,0.002678,0.000431,1.003456
4599000,0.0324,0.013523,0.002678,0.000431,0.993936
4600000,0.0324,0.013523,0.002678,0.000431,0.831394
4601000,0.0324,0.013523,0.002678,0.000431,0.918953
4602000,0.0324,0.013523,0.002678,0.000431,0.867946
4603000,0.0324,0.013523,0.002678,0.000431,0.891451
4604000,0.0324,0.013523,0.002678,0.000431,0.957385
4605000,0.0324,0.013523,0.002678,0.000431,1.007804
4606000,0.0324,0.013523,0.002678,0.000431,0.984886
4607000,0.0324,0.013523,0.002678,0.000431,0.901911
4608000,0.0324,0.013523,0.002678,0.000431,0.951038
4609000,0.0324,0.013523,0.002678,0.000431,1.006041
4610000,0.0324,0.013523,0.002678,0.000431,0.891921
4611000,0.0324,0.013523,0.002678,0.000431,0.906377
4612000,0.0324,0.013523,0.002678,0.000431,0.925534
4613000,0.0324,0.013523,0.002678,0.000431,0.980655
4614000,0.0324,0.013523,0.002678,0.000431,0.864655
4615000,0.0324,0.013523,0.002678,0.000431,0.911666
4616000,0.0324,0.013523,0.002678,0.000431,0.827986
4617000,0.0324,0.013523,0.002678,0.000431,0.952331
4618000,0.0324,0.013523,0.002678,0.000431,0.914252
4619000,0.0324,0.013523,0.002678,0.000431,0.941518
4620000,0.0324,0.013523,0.002678,0.000431,0.893214
4621000,0.0324,0.013523,0.002678,0.000431,0.880874
4622000,0.0324,0.013523,0.002678,0.000431,1.034718
4623000,0.0324,0.013523,0.002678,0.000431,0.822110
4624000,0.0324,0.013523,0.002678,0.000431,0.956797
4625000,0.0324,0.013523,0.002678,0.000431,0.882989
4626000,0.0324,0.013523,0.002678,0.000431,1.051995
4627000,0.0324,0.013523,0.002678,0.000431,0.923184
4628000,0.0324,0.013523,0.002678,0.000431,0.927532
4629000,0.0324,0.013523,0.002678,0.000431,0.890981
4630000,0.0324,0.013523,0.002678,0.000431,0.966552
4631000,0.0324,0.013523,0.002678,0.000431,1.029782
4632000,0.0324,0.013523,0.002678,0.000431,1.000988
4633000,0.0324,0.013523,0.002678,0.000431,0.970548
4634000,0.0324,0.013523,0.002678,0.000431,1.019675
4635000,0.0324,0.013523,0.002678,0.000431,0.988294
4636000,0.0324,0.013523,0.002678,0.000431,1.133559
4637000,0.0324,0.013523,0.002678,0.000431,1.043885
4638000,0.0324,0.013523,0.002678,0.000431,1.052112
4639000,0.0324,0.013523,0.002678,0.000431,1.051407
4640000,0.0324,0.013523,0.002678,0.000431,0.982301
4641000,0.0324,0.013523,0.002678,0.000431,1.040947
4642000,0.0324,0.013523,0.002678,0.000431,1.110524
4643000,0.0324,0.013523,0.002678,0.000431,1.064923
4644000,0.0324,0.013523,0.002678,0.000431,0.996992
4645000,0.0324,0.013523,0.002678,0.000431,1.042122
4646000,0.0324,0.013523,0.002678,0.000431,1.029429
4647000,0.0324,0.013523,0.002678,0.000431,1.074325
4648000,0.0324,0.013523,0.002678,0.000431,1.144019
4649000,0.0324,0.013523,0.002678,0.000431,0.957737
4650000,0.0324,0.013523,0.002678,0.000431,0.942811
4651000,0.0324,0.013523,0.002678,0.000431,1.080202
4652000,0.0324,0.013523,0.002678,0.000431,1.117105
4653000,0.0324,0.013523,0.002678,0.000431,1.004513
4654000,0.0324,0.013523,0.002678,0.000431,1.119456
4655000,0.0324,0.013523,0.002678,0.000431,1.013798
4656000,0.0324,0.013523,0.002678,0.000431,0.998049
4657000,0.0324,0.013523,0.002678,0.000431,1.016501
4658000,0.0324,0.013523,0.002678,0.000431,1.099594
4659000,0.0324,0.013523,0.002678,0.000431,1.080084
4660000,0.0324,0.013523,0.002678,0.000431,0.936465
4661000,0.0324,0.013523,0.002678,0.000431,0.992761
4662000,0.0324,0.013523,0.002678,0.000431,1.006276
4663000,0.0324,0.013523,0.002678,0.000431,1.085490
4664000,0.0324,0.013523,0.002678,0.000431,0.867240
4665000,0.0324,0.013523,0.002678,0.000431,0.966904
4666000,0.0324,0.013523,0.002678,0.000431,1.066921
4667000,0.0324,0.013523,0.002678,0.000431,1.065275
4668000,0.0324,0.013523,0.002678,0.000431,1.052582
4669000,0.0324,0.013523,0.002678,0.000431,0.992643
4670000,0.0324,0.013523,0.002678,0.000431,1.127330
4671000,0.0324,0.013523,0.002678,0.000431,1.103707
4672000,0.0324,0.013523,0.002678,0.000431,1.054933
4673000,0.0324,0.013523,0.002678,0.000431,1.053640
4674000,0.0324,0.013523,0.002678,0.000431,0.930353
4675000,0.0324,0.013523,0.002678,0.000431,1.167525
4676000,0.0324,0.013523,0.002678,0.000431,0.990410
4677000,0.0324,0.013523,0.002678,0.000431,1.062925
4678000,0.0324,0.013523,0.002678,0.000431,1.011212
4679000,0.0324,0.013523,0.002678,0.000431,1.049762
4680000,0.0324,0.013523,0.002678,0.000431,1.049057
4681000,0.0324,0.013523,0.002678,0.000431,1.084080
4682000,0.0324,0.013523,0.002678,0.000431,1.060339
4683000,0.0324,0.013523,0.002678,0.000431,1.023200
4684000,0.0324,0.013523,0.002678,0.000431,1.046001
4685000,0.0324,0.013523,0.002678,0.000431,1.038479
4686000,0.0324,0.013523,0.002678,0.000431,1.028959
4687000,0.0324,0.013523,0.002678,0.000431,1.056578
4688000,0.0324,0.013523,0.002678,0.000431,1.069036
4689000,0.0324,0.013523,0.002678,0.000431,0.996874
4690000,0.0324,0.013523,0.002678,0.000431,1.123452
4691000,0.0324,0.013523,0.002678,0.000431,1.063865
4692000,0.0324,0.013523,0.002678,0.000431,1.088899
4693000,0.0324,0.013523,0.002678,0.000431,1.069624
4694000,0.0324,0.013523,0.002678,0.000431,1.042593
4695000,0.0324,0.013523,0.002678,0.000431,0.989000
4696000,0.0324,0.013523,0.002678,0.000431,1.034366
4697000,0.0324,0.013523,0.002678,0.000431,1.055050
4698000,0.0324,0.013523,0.002678,0.000431,0.999812
4699000,0.0324,0.013523,0.002678,0.000431,1.029899
4700000,0.0324,0.013523,0.002678,0.000431,0.976894
4701000,0.0324,0.013523,0.002678,0.000431,0.863480
4702000,0.0324,0.013523,0.002678,0.000431,1.056931
4703000,0.0324,0.013523,0.002678,0.000431,1.111229
4704000,0.0324,0.013523,0.002678,0.000431,0.941283
4705000,0.0324,0.013523,0.002678,0.000431,1.104647
4706000,0.0324,0.013523,0.002678,0.000431,1.052347
4707000,0.0324,0.013523,0.002678,0.000431,1.137790
4708000,0.0324,0.013523,0.002678,0.000431,0.964671
4709000,0.0324,0.013523,0.002678,0.000431,0.955152
4710000,0.0324,0.013523,0.002678,0.000431,0.936230
4711000,0.0324,0.013523,0.002678,0.000431,0.970078
4712000,0.0324,0.013523,0.002678,0.000431,0.992761
4713000,0.0324,0.013523,0.002678,0.000431,1.017324
4714000,0.0324,0.013523,0.002678,0.000431,0.990880
4715000,0.0324,0.013523,0.002678,0.000431,1.032485
4716000,0.0324,0.013523,0.002678,0.000431,0.971488
4717000,0.0324,0.013523,0.002678,0.000431,1.030017
4718000,0.0324,0.013523,0.002678,0.000431,1.013563
4719000,0.0324,0.013523,0.002678,0.000431,1.013563
4720000,0.0324,0.013523,0.002678,0.000431,0.941753
4721000,0.0324,0.013523,0.002678,0.000431,0.942694
4722000,0.0324,0.013523,0.002678,0.000431,0.947512
4723000,0.0324,0.013523,0.002678,0.000431,0.923301
4724000,0.0324,0.013523,0.002678,0.000431,0.870296
4725000,0.0324,0.013523,0.002678,0.000431,1.034013
4726000,0.0324,0.013523,0.002678,0.000431,1.045766
4727000,0.0324,0.013523,0.002678,0.000431,0.832922
4728000,0.0324,0.013523,0.002678,0.000431,0.821287
4729000,0.0324,0.013523,0.002678,0.000431,0.930823
4730000,0.0324,0.013523,0.002678,0.000431,0.953506
4731000,0.0324,0.013523,0.002678,0.000431,1.022143
4732000,0.0324,0.013523,0.002678,0.000431,0.894977
4733000,0.0324,0.013523,0.002678,0.000431,0.964554
4734000,0.0324,0.013523,0.002678,0.000431,0.943399
4735000,0.0324,0.013523,0.002678,0.000431,0.912489
4736000,0.0324,0.013523,0.002678,0.000431,0.940578
4737000,0.0324,0.013523,0.002678,0.000431,0.952331
4738000,0.0324,0.013523,0.002678,0.000431,0.928238
4739000,0.0324,0.013523,0.002678,0.000431,0.894037
4740000,0.0324,0.013523,0.002678,0.000431,0.994171
4741000,0.0324,0.013523,0.002678,0.000431,0.908258
4742000,0.0324,0.013523,0.002678,0.000431,0.960558
4743000,0.0324,0.013523,0.002678,0.000431,1.058341
4744000,0.0324,0.013523,0.002678,0.000431,0.965729
4745000,0.0324,0.013523,0.002678,0.000431,0.929060
4746000,0.0324,0.013523,0.002678,0.000431,0.938110
4747000,0.0324,0.013523,0.002678,0.000431,0.993231
4748000,0.0324,0.013523,0.002678,0.000431,1.028842
4749000,0.0324,0.013523,0.002678,0.000431,0.908140
4750000,0.0324,0.013523,0.002678,0.000431,0.921774
4751000,0.0324,0.013523,0.002678,0.000431,1.124510
4752000,0.0324,0.013523,0.002678,0.000431,0.927767
4753000,0.0324,0.013523,0.002678,0.000431,0.891099
4754000,0.0324,0.013523,0.002678,0.000431,1.001340
4755000,0.0324,0.013523,0.002678,0.000431,0.933409
4756000,0.0324,0.013523,0.002678,0.000431,0.874175
4757000,0.0324,0.013523,0.002678,0.000431,0.916367
4758000,0.0324,0.013523,0.002678,0.000431,0.955622
4759000,0.0324,0.013523,0.002678,0.000431,0.953036
4760000,0.0324,0.013523,0.002678,0.000431,0.925299
4761000,0.0324,0.013523,0.002678,0.000431,0.911549
4762000,0.0324,0.013523,0.002678,0.000431,1.082552
4763000,0.0324,0.013523,0.002678,0.000431,0.960088
4764000,0.0324,0.013523,0.002678,0.000431,0.992055
4765000,0.0324,0.013523,0.002678,0.000431,1.035423
4766000,0.0324,0.013523,0.002678,0.000431,1.007687
4767000,0.0324,0.013523,0.002678,0.000431,0.967727
4768000,0.0324,0.013523,0.002678,0.000431,0.829161
4769000,0.0324,0.013523,0.002678,0.000431,1.020027
4770000,0.0324,0.013523,0.002678,0.000431,0.925417
4771000,0.0324,0.013523,0.002678,0.000431,0.880521
4772000,0.0324,0.013523,0.002678,0.000431,0.960205
4773000,0.0324,0.013523,0.002678,0.000431,0.940578
4774000,0.0324,0.013523,0.002678,0.000431,0.787086
4775000,0.0324,0.013523,0.002678,0.000431,0.885105
4776000,0.0324,0.013523,0.002678,0.000431,0.966317
4777000,0.0324,0.013523,0.002678,0.000431,0.892744
4778000,0.0324,0.013523,0.002678,0.000431,1.103002
4779000,0.0324,0.013523,0.002678,0.000431,0.886868
4780000,0.0324,0.013523,0.002678,0.000431,1.032603
4781000,0.0324,0.013523,0.002678,0.000431,1.007687
4782000,0.0324,0.013523,0.002678,0.000431,0.805186
4783000,0.0324,0.013523,0.002678,0.000431,1.011330
4784000,0.0324,0.013523,0.002678,0.000431,0.894272
4785000,0.0324,0.013523,0.002678,0.000431,0.992290
4786000,0.0324,0.013523,0.002678,0.000431,0.937287
4787000,0.0324,0.013523,0.002678,0.000431,0.956562
4788000,0.0324,0.013523,0.002678,0.000431,1.032603
4789000,0.0324,0.013523,0.002678,0.000431,0.945867
4790000,0.0324,0.013523,0.002678,0.000431,1.093835
4791000,0.0324,0.013523,0.002678,0.000431,0.987237
4792000,0.0324,0.013523,0.002678,0.000431,0.993113
4793000,0.0324,0.013523,0.002678,0.000431,1.054463
4794000,0.0324,0.013523,0.002678,0.000431,0.951861
4795000,0.0324,0.013523,0.002678,0.000431,0.971018
4796000,0.0324,0.013523,0.002678,0.000431,1.041535
4797000,0.0324,0.013523,0.002678,0.000431,1.053170
4798000,0.0324,0.013523,0.002678,0.000431,1.112757
4799000,0.0324,0.013523,0.002678,0.000431,1.024846
4800000,0.0324,0.013523,0.002678,0.000431,0.910961
4801000,0.0324,0.013523,0.002678,0.000431,0.949158
4802000,0.0324,0.013523,0.002678,0.000431,0.979597
4803000,0.0324,0.013523,0.002678,0.000431,1.069506
4804000,0.0324,0.013523,0.002678,0.000431,0.950098
4805000,0.0324,0.013523,0.002678,0.000431,1.071504
4806000,0.0324,0.013523,0.002678,0.000431,0.981243
4807000,0.0324,0.013523,0.002678,0.000431,1.047411
4808000,0.0324,0.013523,0.002678,0.000431,0.992408
4809000,0.0324,0.013523,0.002678,0.000431,0.986061
4810000,0.0324,0.013523,0.002678,0.000431,0.997227
4811000,0.0324,0.013523,0.002678,0.000431,0.994876
4812000,0.0324,0.013523,0.002678,0.000431,1.141669
4813000,0.0324,0.013523,0.002678,0.000431,0.941636
4814000,0.0324,0.013523,0.002678,0.000431,1.069036
4815000,0.0324,0.013523,0.002678,0.000431,1.015208
4816000,0.0324,0.013523,0.002678,0.000431,1.090426
4817000,0.0324,0.013523,0.002678,0.000431,0.994994
4818000,0.0324,0.013523,0.002678,0.000431,1.024728
4819000,0.0324,0.013523,0.002678,0.000431,0.983006
4820000,0.0324,0.013523,0.002678,0.000431,1.000047
4821000,0.0324,0.013523,0.002678,0.000431,0.949040
4822000,0.0324,0.013523,0.002678,0.000431,0.966904
4823000,0.0324,0.013523,0.002678,0.000431,0.925299
4824000,0.0324,0.013523,0.002678,0.000431,0.995581
4825000,0.0324,0.013523,0.002678,0.000431,1.006981
4826000,0.0324,0.013523,0.002678,0.000431,1.042828
4827000,0.0324,0.013523,0.002678,0.000431,0.939520
4828000,0.0324,0.013523,0.002678,0.000431,1.014621
4829000,0.0324,0.013523,0.002678,0.000431,1.004513
4830000,0.0324,0.013523,0.002678,0.000431,1.016501
4831000,0.0324,0.013523,0.002678,0.000431,1.014738
4832000,0.0324,0.013523,0.002678,0.000431,1.109349
4833000,0.0324,0.013523,0.002678,0.000431,1.068566
4834000,0.0324,0.013523,0.002678,0.000431,0.935994
4835000,0.0324,0.013523,0.002678,0.000431,0.941048
4836000,0.0324,0.013523,0.002678,0.000431,0.974074
4837000,0.0324,0.013523,0.002678,0.000431,1.002280
4838000,0.0324,0.013523,0.002678,0.000431,1.005336
4839000,0.0324,0.013523,0.002678,0.000431,1.053993
4840000,0.0324,0.013523,0.002678,0.000431,0.916132
4841000,0.0324,0.013523,0.002678,0.000431,0.991233
4842000,0.0324,0.013523,0.002678,0.000431,1.024728
4843000,0.0324,0.013523,0.002678,0.000431,0.983241
4844000,0.0324,0.013523,0.002678,0.000431,0.922126
4845000,0.0324,0.013523,0.002678,0.000431,1.013916
4846000,0.0324,0.013523,0.002678,0.000431,1.121336
4847000,0.0324,0.013523,0.002678,0.000431,0.938345
4848000,0.0324,0.013523,0.002678,0.000431,0.990880
4849000,0.0324,0.013523,0.002678,0.000431,1.053288
4850000,0.0324,0.013523,0.002678,0.000431,0.904732
4851000,0.0324,0.013523,0.002678,0.000431,1.007334
4852000,0.0324,0.013523,0.002678,0.000431,0.986297
4853000,0.0324,0.013523,0.002678,0.000431,0.994053
4854000,0.0324,0.013523,0.002678,0.000431,1.037186
4855000,0.0324,0.013523,0.002678,0.000431,0.937405
4856000,0.0324,0.013523,0.002678,0.000431,0.895447
4857000,0.0324,0.013523,0.002678,0.000431,0.969608
4858000,0.0324,0.013523,0.002678,0.000431,0.954446
4859000,0.0324,0.013523,0.002678,0.000431,0.930588
4860000,0.0324,0.013523,0.002678,0.000431,0.941871
4861000,0.0324,0.013523,0.002678,0.000431,0.848553
4862000,0.0324,0.013523,0.002678,0.000431,0.932704
4863000,0.0324,0.013523,0.002678,0.000431,0.899796
4864000,0.0324,0.013523,0.002678,0.000431,1.019910
4865000,0.0324,0.013523,0.002678,0.000431,0.826576
4866000,0.0324,0.013523,0.002678,0.000431,0.924947
4867000,0.0324,0.013523,0.002678,0.000431,0.887455
4868000,0.0324,0.013523,0.002678,0.000431,0.998637
4869000,0.0324,0.013523,0.002678,0.000431,0.930706
4870000,0.0324,0.013523,0.002678,0.000431,0.912724
4871000,0.0324,0.013523,0.002678,0.000431,0.883107
4872000,0.0324,0.013523,0.002678,0.000431,1.004631
4873000,0.0324,0.013523,0.002678,0.000431,0.987824
4874000,0.0324,0.013523,0.002678,0.000431,1.126038
4875000,0.0324,0.013523,0.002678,0.000431,0.913547
4876000,0.0324,0.013523,0.002678,0.000431,0.962086
4877000,0.0324,0.013523,0.002678,0.000431,0.933996
4878000,0.0324,0.013523,0.002678,0.000431,0.938933
4879000,0.0324,0.013523,0.002678,0.000431,0.920011
4880000,0.0324,0.013523,0.002678,0.000431,0.861247
4881000,0.0324,0.013523,0.002678,0.000431,0.772395
4882000,0.0324,0.013523,0.002678,0.000431,0.891686
4883000,0.0324,0.013523,0.002678,0.000431,0.793080
4884000,0.0324,0.013523,0.002678,0.000431,0.858661
4885000,0.0324,0.013523,0.002678,0.000431,0.825165
4886000,0.0324,0.013523,0.002678,0.000431,0.754178
4887000,0.0324,0.013523,0.002678,0.000431,0.814705
4888000,0.0324,0.013523,0.002678,0.000431,0.814235
4889000,0.0324,0.013523,0.002678,0.000431,0.848553
4890000,0.0324,0.013523,0.002678,0.000431,0.897563
4891000,0.0324,0.013523,0.002678,0.000431,0.789202
4892000,0.0324,0.013523,0.002678,0.000431,0.808124
4893000,0.0324,0.013523,0.002678,0.000431,0.777096
4894000,0.0324,0.013523,0.002678,0.000431,0.920128
4895000,0.0324,0.013523,0.002678,0.000431,0.818466
4896000,0.0324,0.013523,0.002678,0.000431,0.874292
4897000,0.0324,0.013523,0.002678,0.000431,0.809887
4898000,0.0324,0.013523,0.002678,0.000431,0.861952
4899000,0.0324,0.013523,0.002678,0.000431,0.902499
4900000,0.0324,0.013523,0.002678,0.000431,0.825518
4901000,0.0324,0.013523,0.002678,0.000431,0.991350
4902000,0.0324,0.013523,0.002678,0.000431,0.852197
4903000,0.0324,0.013523,0.002678,0.000431,0.915662
4904000,0.0324,0.013523,0.002678,0.000431,0.865478
4905000,0.0324,0.013523,0.002678,0.000431,0.958442
4906000,0.0324,0.013523,0.002678,0.000431,0.982301
4907000,0.0324,0.013523,0.002678,0.000431,0.997227
4908000,0.0324,0.013523,0.002678,0.000431,0.890629
4909000,0.0324,0.013523,0.002678,0.000431,0.958795
4910000,0.0324,0.013523,0.002678,0.000431,1.154127
4911000,0.0324,0.013523,0.002678,0.000431,0.918953
4912000,0.0324,0.013523,0.002678,0.000431,0.876995
4913000,0.0324,0.013523,0.002678,0.000431,0.862069
4914000,0.0324,0.013523,0.002678,0.000431,0.893214
4915000,0.0324,0.013523,0.002678,0.000431,0.886162
4916000,0.0324,0.013523,0.002678,0.000431,0.952448
4917000,0.0324,0.013523,0.002678,0.000431,0.911078
4918000,0.0324,0.013523,0.002678,0.000431,0.907083
4919000,0.0324,0.013523,0.002678,0.000431,0.971605
4920000,0.0324,0.013523,0.002678,0.000431,0.967374
4921000,0.0324,0.013523,0.002678,0.000431,0.866888
4922000,0.0324,0.013523,0.002678,0.000431,0.926945
4923000,0.0324,0.013523,0.002678,0.000431,0.955152
4924000,0.0324,0.013523,0.002678,0.000431,0.931176
4925000,0.0324,0.013523,0.002678,0.000431,0.888160
4926000,0.0324,0.013523,0.002678,0.000431,0.978775
4927000,0.0324,0.013523,0.002678,0.000431,0.949158
4928000,0.0324,0.013523,0.002678,0.000431,0.961263
4929000,0.0324,0.013523,0.002678,0.000431,0.985121
4930000,0.0324,0.013523,0.002678,0.000431,1.002750
4931000,0.0324,0.013523,0.002678,0.000431,0.858191
4932000,0.0324,0.013523,0.002678,0.000431,0.978540
4933000,0.0324,0.013523,0.002678,0.000431,0.951391
4934000,0.0324,0.013523,0.002678,0.000431,0.937640
4935000,0.0324,0.013523,0.002678,0.000431,0.924594
4936000,0.0324,0.013523,0.002678,0.000431,0.919423
4937000,0.0324,0.013523,0.002678,0.000431,0.934702
4938000,0.0324,0.013523,0.002678,0.000431,0.879463
4939000,0.0324,0.013523,0.002678,0.000431,0.879111
4940000,0.0324,0.013523,0.002678,0.000431,0.908140
4941000,0.0324,0.013523,0.002678,0.000431,1.028019
4942000,0.0324,0.013523,0.002678,0.000431,0.996286
4943000,0.0324,0.013523,0.002678,0.000431,0.915309
4944000,0.0324,0.013523,0.002678,0.000431,0.967962
4945000,0.0324,0.013523,0.002678,0.000431,0.897798
4946000,0.0324,0.013523,0.002678,0.000431,1.084550
4947000,0.0324,0.013523,0.002678,0.000431,0.971723
4948000,0.0324,0.013523,0.002678,0.000431,1.029077
4949000,0.0324,0.013523,0.002678,0.000431,0.965847
4950000,0.0324,0.013523,0.002678,0.000431,0.896975
4951000,0.0324,0.013523,0.002678,0.000431,1.083962
4952000,0.0324,0.013523,0.002678,0.000431,0.942694
4953000,0.0324,0.013523,0.002678,0.000431,1.048469
4954000,0.0324,0.013523,0.002678,0.000431,0.944339
4955000,0.0324,0.013523,0.002678,0.000431,0.987119
4956000,0.0324,0.013523,0.002678,0.000431,1.054698
4957000,0.0324,0.013523,0.002678,0.000431,0.921774
4958000,0.0324,0.013523,0.002678,0.000431,1.004748
4959000,0.0324,0.013523,0.002678,0.000431,0.994406
4960000,0.0324,0.013523,0.002678,0.000431,1.030370
4961000,0.0324,0.013523,0.002678,0.000431,0.975366
4962000,0.0324,0.013523,0.002678,0.000431,0.921068
4963000,0.0324,0.013523,0.002678,0.000431,0.930941
4964000,0.0324,0.013523,0.002678,0.000431,1.028372
4965000,0.0324,0.013523,0.002678,0.000431,0.934584
4966000,0.0324,0.013523,0.002678,0.000431,1.010860
4967000,0.0324,0.013523,0.002678,0.000431,1.028607
4968000,0.0324,0.013523,0.002678,0.000431,1.041652
4969000,0.0324,0.013523,0.002678,0.000431,0.933174
4970000,0.0324,0.013523,0.002678,0.000431,1.000635
4971000,0.0324,0.013523,0.002678,0.000431,1.109819
4972000,0.0324,0.013523,0.002678,0.000431,0.916485
4973000,0.0324,0.013523,0.002678,0.000431,0.946690
4974000,0.0324,0.013523,0.002678,0.000431,0.985826
4975000,0.0324,0.013523,0.002678,0.000431,1.051525
4976000,0.0324,0.013523,0.002678,0.000431,1.022848
4977000,0.0324,0.013523,0.002678,0.000431,0.987119
4978000,0.0324,0.013523,0.002678,0.000431,0.984181
4979000,0.0324,0.013523,0.002678,0.000431,0.986649
4980000,0.0324,0.013523,0.002678,0.000431,0.962673
4981000,0.0324,0.013523,0.002678,0.000431,0.983476
4982000,0.0324,0.013523,0.002678,0.000431,0.914604
4983000,0.0324,0.013523,0.002678,0.000431,1.042357
4984000,0.0324,0.013523,0.002678,0.000431,0.946102
4985000,0.0324,0.013523,0.002678,0.000431,0.967492
4986000,0.0324,0.013523,0.002678,0.000431,0.982065
4987000,0.0324,0.013523,0.002678,0.000431,0.908610
4988000,0.0324,0.013523,0.002678,0.000431,0.959735
4989000,0.0324,0.013523,0.002678,0.000431,1.011565
4990000,0.0324,0.013523,0.002678,0.000431,0.929883
4991000,0.0324,0.013523,0.002678,0.000431,1.013446
4992000,0.0324,0.013523,0.002678,0.000431,0.957972
4993000,0.0324,0.013523,0.002678,0.000431,0.911549
4994000,0.0324,0.013523,0.002678,0.000431,1.004631
4995000,0.0324,0.013523,0.002678,0.000431,0.896858
4996000,0.0324,0.013523,0.002678,0.000431,1.009215
4997000,0.0324,0.013523,0.002678,0.000431,0.983476
4998000,0.0324,0.013523,0.002678,0.000431,0.966082
4999000,0.0324,0.013523,0.002678,0.000431,1.074090
