Cycle,Area(mm^2),PeakDynamic(W),SubthresholdLeakage(W),GateLeakage(W),RunTimeDynamic(W)
30000000,0.0324,0.013523,0.002678,0.000431,0.004701
30001000,0.0324,0.013523,0.002678,0.000431,0.004701
30002000,0.0324,0.013523,0.002678,0.000431,0.027267
30003000,0.0324,0.013523,0.002678,0.000431,0.012223
30004000,0.0324,0.013523,0.002678,0.000431,0.004584
30005000,0.0324,0.013523,0.002678,0.000431,0.004584
30006000,0.0324,0.013523,0.002678,0.000431,0.042310
30007000,0.0324,0.013523,0.002678,0.000431,0.004701
30008000,0.0324,0.013523,0.002678,0.000431,0.004701
30009000,0.0324,0.013523,0.002678,0.000431,0.004701
30010000,0.0324,0.013523,0.002678,0.000431,0.004701
30011000,0.0324,0.013523,0.002678,0.000431,0.004466
30012000,0.0324,0.013523,0.002678,0.000431,0.004701
30013000,0.0324,0.013523,0.002678,0.000431,0.070869
30014000,0.0324,0.013523,0.002678,0.000431,0.013281
30015000,0.0324,0.013523,0.002678,0.000431,0.004701
30016000,0.0324,0.013523,0.002678,0.000431,0.012223
30017000,0.0324,0.013523,0.002678,0.000431,0.004701
30018000,0.0324,0.013523,0.002678,0.000431,0.004701
30019000,0.0324,0.013523,0.002678,0.000431,0.004701
30020000,0.0324,0.013523,0.002678,0.000431,0.019745
30021000,0.0324,0.013523,0.002678,0.000431,0.004701
30022000,0.0324,0.013523,0.002678,0.000431,0.019745
30023000,0.0324,0.013523,0.002678,0.000431,0.034788
30024000,0.0324,0.013523,0.002678,0.000431,0.004701
30025000,0.0324,0.013523,0.002678,0.000431,0.004701
30026000,0.0324,0.013523,0.002678,0.000431,0.012223
30027000,0.0324,0.013523,0.002678,0.000431,0.004701
30028000,0.0324,0.013523,0.002678,0.000431,0.012223
30029000,0.0324,0.013523,0.002678,0.000431,0.011988
30030000,0.0324,0.013523,0.002678,0.000431,0.004701
30031000,0.0324,0.013523,0.002678,0.000431,0.004701
30032000,0.0324,0.013523,0.002678,0.000431,0.004701
30033000,0.0324,0.013523,0.002678,0.000431,0.004701
30034000,0.0324,0.013523,0.002678,0.000431,0.004701
30035000,0.0324,0.013523,0.002678,0.000431,0.004584
30036000,0.0324,0.013523,0.002678,0.000431,0.051712
30037000,0.0324,0.013523,0.002678,0.000431,0.024916
30038000,0.0324,0.013523,0.002678,0.000431,0.004584
30039000,0.0324,0.013523,0.002678,0.000431,0.004701
30040000,0.0324,0.013523,0.002678,0.000431,0.004701
30041000,0.0324,0.013523,0.002678,0.000431,0.004701
30042000,0.0324,0.013523,0.002678,0.000431,0.038667
30043000,0.0324,0.013523,0.002678,0.000431,0.061232
30044000,0.0324,0.013523,0.002678,0.000431,0.004701
30045000,0.0324,0.013523,0.002678,0.000431,0.004701
30046000,0.0324,0.013523,0.002678,0.000431,0.004701
30047000,0.0324,0.013523,0.002678,0.000431,0.004701
30048000,0.0324,0.013523,0.002678,0.000431,0.042545
30049000,0.0324,0.013523,0.002678,0.000431,0.026914
30050000,0.0324,0.013523,0.002678,0.000431,0.252333
30051000,0.0324,0.013523,0.002678,0.000431,0.124580
30052000,0.0324,0.013523,0.002678,0.000431,0.004701
30053000,0.0324,0.013523,0.002678,0.000431,0.004701
30054000,0.0324,0.013523,0.002678,0.000431,0.004701
30055000,0.0324,0.013523,0.002678,0.000431,0.071692
30056000,0.0324,0.013523,0.002678,0.000431,0.087676
30057000,0.0324,0.013523,0.002678,0.000431,0.135980
30058000,0.0324,0.013523,0.002678,0.000431,0.083327
30059000,0.0324,0.013523,0.002678,0.000431,0.004701
30060000,0.0324,0.013523,0.002678,0.000431,0.004701
30061000,0.0324,0.013523,0.002678,0.000431,0.004584
30062000,0.0324,0.013523,0.002678,0.000431,0.021860
30063000,0.0324,0.013523,0.002678,0.000431,0.137390
30064000,0.0324,0.013523,0.002678,0.000431,0.034318
30065000,0.0324,0.013523,0.002678,0.000431,0.019980
30066000,0.0324,0.013523,0.002678,0.000431,0.004701
30067000,0.0324,0.013523,0.002678,0.000431,0.004701
30068000,0.0324,0.013523,0.002678,0.000431,0.004701
30069000,0.0324,0.013523,0.002678,0.000431,0.015161
30070000,0.0324,0.013523,0.002678,0.000431,0.009285
30071000,0.0324,0.013523,0.002678,0.000431,0.034788
30072000,0.0324,0.013523,0.002678,0.000431,0.042310
30073000,0.0324,0.013523,0.002678,0.000431,0.004701
30074000,0.0324,0.013523,0.002678,0.000431,0.004584
30075000,0.0324,0.013523,0.002678,0.000431,0.004584
30076000,0.0324,0.013523,0.002678,0.000431,0.012223
30077000,0.0324,0.013523,0.002678,0.000431,0.019627
30078000,0.0324,0.013523,0.002678,0.000431,0.004584
30079000,0.0324,0.013523,0.002678,0.000431,0.004701
30080000,0.0324,0.013523,0.002678,0.000431,0.004701
30081000,0.0324,0.013523,0.002678,0.000431,0.004701
30082000,0.0324,0.013523,0.002678,0.000431,0.012223
30083000,0.0324,0.013523,0.002678,0.000431,0.012223
30084000,0.0324,0.013523,0.002678,0.000431,0.004701
30085000,0.0324,0.013523,0.002678,0.000431,0.158193
30086000,0.0324,0.013523,0.002678,0.000431,0.008462
30087000,0.0324,0.013523,0.002678,0.000431,0.004584
30088000,0.0324,0.013523,0.002678,0.000431,0.004584
30089000,0.0324,0.013523,0.002678,0.000431,0.042075
30090000,0.0324,0.013523,0.002678,0.000431,0.027267
30091000,0.0324,0.013523,0.002678,0.000431,0.004466
30092000,0.0324,0.013523,0.002678,0.000431,0.027267
30093000,0.0324,0.013523,0.002678,0.000431,0.004701
30094000,0.0324,0.013523,0.002678,0.000431,0.004701
30095000,0.0324,0.013523,0.002678,0.000431,0.012223
30096000,0.0324,0.013523,0.002678,0.000431,0.019745
30097000,0.0324,0.013523,0.002678,0.000431,0.004701
30098000,0.0324,0.013523,0.002678,0.000431,0.004701
30099000,0.0324,0.013523,0.002678,0.000431,0.004701
30100000,0.0324,0.013523,0.002678,0.000431,0.004701
30101000,0.0324,0.013523,0.002678,0.000431,0.004701
30102000,0.0324,0.013523,0.002678,0.000431,0.023388
30103000,0.0324,0.013523,0.002678,0.000431,0.015866
30104000,0.0324,0.013523,0.002678,0.000431,0.004701
30105000,0.0324,0.013523,0.002678,0.000431,0.064876
30106000,0.0324,0.013523,0.002678,0.000431,0.004701
30107000,0.0324,0.013523,0.002678,0.000431,0.004701
30108000,0.0324,0.013523,0.002678,0.000431,0.004701
30109000,0.0324,0.013523,0.002678,0.000431,0.012223
30110000,0.0324,0.013523,0.002678,0.000431,0.011988
30111000,0.0324,0.013523,0.002678,0.000431,0.008580
30112000,0.0324,0.013523,0.002678,0.000431,0.008580
30113000,0.0324,0.013523,0.002678,0.000431,0.004701
30114000,0.0324,0.013523,0.002678,0.000431,0.004701
30115000,0.0324,0.013523,0.002678,0.000431,0.027031
30116000,0.0324,0.013523,0.002678,0.000431,0.019745
30117000,0.0324,0.013523,0.002678,0.000431,0.004701
30118000,0.0324,0.013523,0.002678,0.000431,0.004701
30119000,0.0324,0.013523,0.002678,0.000431,0.004701
30120000,0.0324,0.013523,0.002678,0.000431,0.012223
30121000,0.0324,0.013523,0.002678,0.000431,0.008462
30122000,0.0324,0.013523,0.002678,0.000431,0.042075
30123000,0.0324,0.013523,0.002678,0.000431,0.031027
30124000,0.0324,0.013523,0.002678,0.000431,0.004701
30125000,0.0324,0.013523,0.002678,0.000431,0.004701
30126000,0.0324,0.013523,0.002678,0.000431,0.012223
30127000,0.0324,0.013523,0.002678,0.000431,0.004701
30128000,0.0324,0.013523,0.002678,0.000431,0.042310
30129000,0.0324,0.013523,0.002678,0.000431,0.049832
30130000,0.0324,0.013523,0.002678,0.000431,0.004701
30131000,0.0324,0.013523,0.002678,0.000431,0.004701
30132000,0.0324,0.013523,0.002678,0.000431,0.004701
30133000,0.0324,0.013523,0.002678,0.000431,0.019745
30134000,0.0324,0.013523,0.002678,0.000431,0.015984
30135000,0.0324,0.013523,0.002678,0.000431,0.015749
30136000,0.0324,0.013523,0.002678,0.000431,0.012223
30137000,0.0324,0.013523,0.002678,0.000431,0.004701
30138000,0.0324,0.013523,0.002678,0.000431,0.004701
30139000,0.0324,0.013523,0.002678,0.000431,0.004701
30140000,0.0324,0.013523,0.002678,0.000431,0.004701
30141000,0.0324,0.013523,0.002678,0.000431,0.057119
30142000,0.0324,0.013523,0.002678,0.000431,0.056766
30143000,0.0324,0.013523,0.002678,0.000431,0.080037
30144000,0.0324,0.013523,0.002678,0.000431,0.004701
30145000,0.0324,0.013523,0.002678,0.000431,0.004701
30146000,0.0324,0.013523,0.002678,0.000431,0.004701
30147000,0.0324,0.013523,0.002678,0.000431,0.004466
30148000,0.0324,0.013523,0.002678,0.000431,0.042310
30149000,0.0324,0.013523,0.002678,0.000431,0.019745
30150000,0.0324,0.013523,0.002678,0.000431,0.004701
30151000,0.0324,0.013523,0.002678,0.000431,0.004701
30152000,0.0324,0.013523,0.002678,0.000431,0.004701
30153000,0.0324,0.013523,0.002678,0.000431,0.004701
30154000,0.0324,0.013523,0.002678,0.000431,0.064758
30155000,0.0324,0.013523,0.002678,0.000431,0.146793
30156000,0.0324,0.013523,0.002678,0.000431,0.072162
30157000,0.0324,0.013523,0.002678,0.000431,0.004701
30158000,0.0324,0.013523,0.002678,0.000431,0.004701
30159000,0.0324,0.013523,0.002678,0.000431,0.004701
30160000,0.0324,0.013523,0.002678,0.000431,0.004584
30161000,0.0324,0.013523,0.002678,0.000431,0.064758
30162000,0.0324,0.013523,0.002678,0.000431,0.004701
30163000,0.0324,0.013523,0.002678,0.000431,0.004701
30164000,0.0324,0.013523,0.002678,0.000431,0.004701
30165000,0.0324,0.013523,0.002678,0.000431,0.004701
30166000,0.0324,0.013523,0.002678,0.000431,0.004701
30167000,0.0324,0.013523,0.002678,0.000431,0.042310
30168000,0.0324,0.013523,0.002678,0.000431,0.042545
30169000,0.0324,0.013523,0.002678,0.000431,0.004701
30170000,0.0324,0.013523,0.002678,0.000431,0.004701
30171000,0.0324,0.013523,0.002678,0.000431,0.004701
30172000,0.0324,0.013523,0.002678,0.000431,0.004701
30173000,0.0324,0.013523,0.002678,0.000431,0.027149
30174000,0.0324,0.013523,0.002678,0.000431,0.019862
30175000,0.0324,0.013523,0.002678,0.000431,0.015984
30176000,0.0324,0.013523,0.002678,0.000431,0.023506
30177000,0.0324,0.013523,0.002678,0.000431,0.034788
30178000,0.0324,0.013523,0.002678,0.000431,0.027267
30179000,0.0324,0.013523,0.002678,0.000431,0.004701
30180000,0.0324,0.013523,0.002678,0.000431,0.004701
30181000,0.0324,0.013523,0.002678,0.000431,0.004701
30182000,0.0324,0.013523,0.002678,0.000431,0.012223
30183000,0.0324,0.013523,0.002678,0.000431,0.004466
30184000,0.0324,0.013523,0.002678,0.000431,0.012223
30185000,0.0324,0.013523,0.002678,0.000431,0.004701
30186000,0.0324,0.013523,0.002678,0.000431,0.004701
30187000,0.0324,0.013523,0.002678,0.000431,0.004701
30188000,0.0324,0.013523,0.002678,0.000431,0.004701
30189000,0.0324,0.013523,0.002678,0.000431,0.004701
30190000,0.0324,0.013523,0.002678,0.000431,0.004701
30191000,0.0324,0.013523,0.002678,0.000431,0.004701
30192000,0.0324,0.013523,0.002678,0.000431,0.004701
30193000,0.0324,0.013523,0.002678,0.000431,0.004466
30194000,0.0324,0.013523,0.002678,0.000431,0.004701
30195000,0.0324,0.013523,0.002678,0.000431,0.004701
30196000,0.0324,0.013523,0.002678,0.000431,0.004701
30197000,0.0324,0.013523,0.002678,0.000431,0.004701
30198000,0.0324,0.013523,0.002678,0.000431,0.004701
30199000,0.0324,0.013523,0.002678,0.000431,0.004701
30200000,0.0324,0.013523,0.002678,0.000431,0.004701
30201000,0.0324,0.013523,0.002678,0.000431,0.012223
30202000,0.0324,0.013523,0.002678,0.000431,0.004701
30203000,0.0324,0.013523,0.002678,0.000431,0.004701
30204000,0.0324,0.013523,0.002678,0.000431,0.065111
30205000,0.0324,0.013523,0.002678,0.000431,0.004701
30206000,0.0324,0.013523,0.002678,0.000431,0.004701
30207000,0.0324,0.013523,0.002678,0.000431,0.158193
30208000,0.0324,0.013523,0.002678,0.000431,0.023976
30209000,0.0324,0.013523,0.002678,0.000431,0.004701
30210000,0.0324,0.013523,0.002678,0.000431,0.004466
30211000,0.0324,0.013523,0.002678,0.000431,0.004701
30212000,0.0324,0.013523,0.002678,0.000431,0.004701
30213000,0.0324,0.013523,0.002678,0.000431,0.004584
30214000,0.0324,0.013523,0.002678,0.000431,0.034671
30215000,0.0324,0.013523,0.002678,0.000431,0.012223
30216000,0.0324,0.013523,0.002678,0.000431,0.004701
30217000,0.0324,0.013523,0.002678,0.000431,0.012223
30218000,0.0324,0.013523,0.002678,0.000431,0.004584
30219000,0.0324,0.013523,0.002678,0.000431,0.004584
30220000,0.0324,0.013523,0.002678,0.000431,0.008462
30221000,0.0324,0.013523,0.002678,0.000431,0.008462
30222000,0.0324,0.013523,0.002678,0.000431,0.004701
30223000,0.0324,0.013523,0.002678,0.000431,0.004701
30224000,0.0324,0.013523,0.002678,0.000431,0.012223
30225000,0.0324,0.013523,0.002678,0.000431,0.012223
30226000,0.0324,0.013523,0.002678,0.000431,0.004701
30227000,0.0324,0.013523,0.002678,0.000431,0.004936
30228000,0.0324,0.013523,0.002678,0.000431,0.004701
30229000,0.0324,0.013523,0.002678,0.000431,0.012223
30230000,0.0324,0.013523,0.002678,0.000431,0.004701
30231000,0.0324,0.013523,0.002678,0.000431,0.012223
30232000,0.0324,0.013523,0.002678,0.000431,0.012223
30233000,0.0324,0.013523,0.002678,0.000431,0.027267
30234000,0.0324,0.013523,0.002678,0.000431,0.004701
30235000,0.0324,0.013523,0.002678,0.000431,0.004701
30236000,0.0324,0.013523,0.002678,0.000431,0.027267
30237000,0.0324,0.013523,0.002678,0.000431,0.004701
30238000,0.0324,0.013523,0.002678,0.000431,0.012223
30239000,0.0324,0.013523,0.002678,0.000431,0.004701
30240000,0.0324,0.013523,0.002678,0.000431,0.004701
30241000,0.0324,0.013523,0.002678,0.000431,0.004701
30242000,0.0324,0.013523,0.002678,0.000431,0.004701
30243000,0.0324,0.013523,0.002678,0.000431,0.004701
30244000,0.0324,0.013523,0.002678,0.000431,0.029617
30245000,0.0324,0.013523,0.002678,0.000431,0.039960
30246000,0.0324,0.013523,0.002678,0.000431,0.012223
30247000,0.0324,0.013523,0.002678,0.000431,0.004584
30248000,0.0324,0.013523,0.002678,0.000431,0.004584
30249000,0.0324,0.013523,0.002678,0.000431,0.004701
30250000,0.0324,0.013523,0.002678,0.000431,0.004584
30251000,0.0324,0.013523,0.002678,0.000431,0.042193
30252000,0.0324,0.013523,0.002678,0.000431,0.004701
30253000,0.0324,0.013523,0.002678,0.000431,0.004701
30254000,0.0324,0.013523,0.002678,0.000431,0.004466
30255000,0.0324,0.013523,0.002678,0.000431,0.012223
30256000,0.0324,0.013523,0.002678,0.000431,0.034788
30257000,0.0324,0.013523,0.002678,0.000431,0.019745
30258000,0.0324,0.013523,0.002678,0.000431,0.004584
30259000,0.0324,0.013523,0.002678,0.000431,0.004584
30260000,0.0324,0.013523,0.002678,0.000431,0.004701
30261000,0.0324,0.013523,0.002678,0.000431,0.012223
30262000,0.0324,0.013523,0.002678,0.000431,0.087441
30263000,0.0324,0.013523,0.002678,0.000431,0.004701
30264000,0.0324,0.013523,0.002678,0.000431,0.004701
30265000,0.0324,0.013523,0.002678,0.000431,0.004701
30266000,0.0324,0.013523,0.002678,0.000431,0.004701
30267000,0.0324,0.013523,0.002678,0.000431,0.004701
30268000,0.0324,0.013523,0.002678,0.000431,0.012223
30269000,0.0324,0.013523,0.002678,0.000431,0.012223
30270000,0.0324,0.013523,0.002678,0.000431,0.004701
30271000,0.0324,0.013523,0.002678,0.000431,0.004701
30272000,0.0324,0.013523,0.002678,0.000431,0.004701
30273000,0.0324,0.013523,0.002678,0.000431,0.012223
30274000,0.0324,0.013523,0.002678,0.000431,0.012223
30275000,0.0324,0.013523,0.002678,0.000431,0.004701
30276000,0.0324,0.013523,0.002678,0.000431,0.004701
30277000,0.0324,0.013523,0.002678,0.000431,0.010460
30278000,0.0324,0.013523,0.002678,0.000431,0.006464
30279000,0.0324,0.013523,0.002678,0.000431,0.012223
30280000,0.0324,0.013523,0.002678,0.000431,0.004701
30281000,0.0324,0.013523,0.002678,0.000431,0.034553
30282000,0.0324,0.013523,0.002678,0.000431,0.057354
30283000,0.0324,0.013523,0.002678,0.000431,0.004701
30284000,0.0324,0.013523,0.002678,0.000431,0.004701
30285000,0.0324,0.013523,0.002678,0.000431,0.009520
30286000,0.0324,0.013523,0.002678,0.000431,0.014926
30287000,0.0324,0.013523,0.002678,0.000431,0.012105
30288000,0.0324,0.013523,0.002678,0.000431,0.038549
30289000,0.0324,0.013523,0.002678,0.000431,0.060997
30290000,0.0324,0.013523,0.002678,0.000431,0.004701
30291000,0.0324,0.013523,0.002678,0.000431,0.004701
30292000,0.0324,0.013523,0.002678,0.000431,0.004701
30293000,0.0324,0.013523,0.002678,0.000431,0.007639
30294000,0.0324,0.013523,0.002678,0.000431,0.034318
30295000,0.0324,0.013523,0.002678,0.000431,0.099781
30296000,0.0324,0.013523,0.002678,0.000431,0.004701
30297000,0.0324,0.013523,0.002678,0.000431,0.004701
30298000,0.0324,0.013523,0.002678,0.000431,0.004701
30299000,0.0324,0.013523,0.002678,0.000431,0.004466
30300000,0.0324,0.013523,0.002678,0.000431,0.068636
30301000,0.0324,0.013523,0.002678,0.000431,0.015984
30302000,0.0324,0.013523,0.002678,0.000431,0.004936
30303000,0.0324,0.013523,0.002678,0.000431,0.004701
30304000,0.0324,0.013523,0.002678,0.000431,0.004701
30305000,0.0324,0.013523,0.002678,0.000431,0.004701
30306000,0.0324,0.013523,0.002678,0.000431,0.004701
30307000,0.0324,0.013523,0.002678,0.000431,0.046306
30308000,0.0324,0.013523,0.002678,0.000431,0.023506
30309000,0.0324,0.013523,0.002678,0.000431,0.012223
30310000,0.0324,0.013523,0.002678,0.000431,0.004466
30311000,0.0324,0.013523,0.002678,0.000431,0.004701
30312000,0.0324,0.013523,0.002678,0.000431,0.004701
30313000,0.0324,0.013523,0.002678,0.000431,0.015984
30314000,0.0324,0.013523,0.002678,0.000431,0.061115
30315000,0.0324,0.013523,0.002678,0.000431,0.004701
30316000,0.0324,0.013523,0.002678,0.000431,0.027267
30317000,0.0324,0.013523,0.002678,0.000431,0.004701
30318000,0.0324,0.013523,0.002678,0.000431,0.004701
30319000,0.0324,0.013523,0.002678,0.000431,0.008462
30320000,0.0324,0.013523,0.002678,0.000431,0.095198
30321000,0.0324,0.013523,0.002678,0.000431,0.098841
30322000,0.0324,0.013523,0.002678,0.000431,0.004819
30323000,0.0324,0.013523,0.002678,0.000431,0.004466
30324000,0.0324,0.013523,0.002678,0.000431,0.004701
30325000,0.0324,0.013523,0.002678,0.000431,0.004701
30326000,0.0324,0.013523,0.002678,0.000431,0.027267
30327000,0.0324,0.013523,0.002678,0.000431,0.034671
30328000,0.0324,0.013523,0.002678,0.000431,0.109654
30329000,0.0324,0.013523,0.002678,0.000431,0.004701
30330000,0.0324,0.013523,0.002678,0.000431,0.004701
30331000,0.0324,0.013523,0.002678,0.000431,0.004701
30332000,0.0324,0.013523,0.002678,0.000431,0.004701
30333000,0.0324,0.013523,0.002678,0.000431,0.004701
30334000,0.0324,0.013523,0.002678,0.000431,0.008227
30335000,0.0324,0.013523,0.002678,0.000431,0.008462
30336000,0.0324,0.013523,0.002678,0.000431,0.004701
30337000,0.0324,0.013523,0.002678,0.000431,0.008462
30338000,0.0324,0.013523,0.002678,0.000431,0.008227
30339000,0.0324,0.013523,0.002678,0.000431,0.004701
30340000,0.0324,0.013523,0.002678,0.000431,0.012223
30341000,0.0324,0.013523,0.002678,0.000431,0.004701
30342000,0.0324,0.013523,0.002678,0.000431,0.004701
30343000,0.0324,0.013523,0.002678,0.000431,0.004701
30344000,0.0324,0.013523,0.002678,0.000431,0.012458
30345000,0.0324,0.013523,0.002678,0.000431,0.004701
30346000,0.0324,0.013523,0.002678,0.000431,0.027267
30347000,0.0324,0.013523,0.002678,0.000431,0.004701
30348000,0.0324,0.013523,0.002678,0.000431,0.034788
30349000,0.0324,0.013523,0.002678,0.000431,0.004701
30350000,0.0324,0.013523,0.002678,0.000431,0.034671
30351000,0.0324,0.013523,0.002678,0.000431,0.004584
30352000,0.0324,0.013523,0.002678,0.000431,0.027267
30353000,0.0324,0.013523,0.002678,0.000431,0.034788
30354000,0.0324,0.013523,0.002678,0.000431,0.004701
30355000,0.0324,0.013523,0.002678,0.000431,0.004701
30356000,0.0324,0.013523,0.002678,0.000431,0.004701
30357000,0.0324,0.013523,0.002678,0.000431,0.012223
30358000,0.0324,0.013523,0.002678,0.000431,0.004701
30359000,0.0324,0.013523,0.002678,0.000431,0.019980
30360000,0.0324,0.013523,0.002678,0.000431,0.004701
30361000,0.0324,0.013523,0.002678,0.000431,0.004701
30362000,0.0324,0.013523,0.002678,0.000431,0.004701
30363000,0.0324,0.013523,0.002678,0.000431,0.039137
30364000,0.0324,0.013523,0.002678,0.000431,0.037727
30365000,0.0324,0.013523,0.002678,0.000431,0.051595
30366000,0.0324,0.013523,0.002678,0.000431,0.048539
30367000,0.0324,0.013523,0.002678,0.000431,0.007052
30368000,0.0324,0.013523,0.002678,0.000431,0.009637
30369000,0.0324,0.013523,0.002678,0.000431,0.004701
30370000,0.0324,0.013523,0.002678,0.000431,0.012223
30371000,0.0324,0.013523,0.002678,0.000431,0.019745
30372000,0.0324,0.013523,0.002678,0.000431,0.094963
30373000,0.0324,0.013523,0.002678,0.000431,0.004936
30374000,0.0324,0.013523,0.002678,0.000431,0.011988
30375000,0.0324,0.013523,0.002678,0.000431,0.004701
30376000,0.0324,0.013523,0.002678,0.000431,0.020215
30377000,0.0324,0.013523,0.002678,0.000431,0.004701
30378000,0.0324,0.013523,0.002678,0.000431,0.064758
30379000,0.0324,0.013523,0.002678,0.000431,0.004584
30380000,0.0324,0.013523,0.002678,0.000431,0.004701
30381000,0.0324,0.013523,0.002678,0.000431,0.004701
30382000,0.0324,0.013523,0.002678,0.000431,0.019980
30383000,0.0324,0.013523,0.002678,0.000431,0.079449
30384000,0.0324,0.013523,0.002678,0.000431,0.012223
30385000,0.0324,0.013523,0.002678,0.000431,0.072397
30386000,0.0324,0.013523,0.002678,0.000431,0.004701
30387000,0.0324,0.013523,0.002678,0.000431,0.019510
30388000,0.0324,0.013523,0.002678,0.000431,0.004701
30389000,0.0324,0.013523,0.002678,0.000431,0.027267
30390000,0.0324,0.013523,0.002678,0.000431,0.004584
30391000,0.0324,0.013523,0.002678,0.000431,0.012105
30392000,0.0324,0.013523,0.002678,0.000431,0.004701
30393000,0.0324,0.013523,0.002678,0.000431,0.012693
30394000,0.0324,0.013523,0.002678,0.000431,0.004701
30395000,0.0324,0.013523,0.002678,0.000431,0.004701
30396000,0.0324,0.013523,0.002678,0.000431,0.004701
30397000,0.0324,0.013523,0.002678,0.000431,0.043485
30398000,0.0324,0.013523,0.002678,0.000431,0.063935
30399000,0.0324,0.013523,0.002678,0.000431,0.022565
30400000,0.0324,0.013523,0.002678,0.000431,0.107186
30401000,0.0324,0.013523,0.002678,0.000431,0.004701
30402000,0.0324,0.013523,0.002678,0.000431,0.004701
30403000,0.0324,0.013523,0.002678,0.000431,0.004701
30404000,0.0324,0.013523,0.002678,0.000431,0.110947
30405000,0.0324,0.013523,0.002678,0.000431,0.012223
30406000,0.0324,0.013523,0.002678,0.000431,0.019745
30407000,0.0324,0.013523,0.002678,0.000431,0.004701
30408000,0.0324,0.013523,0.002678,0.000431,0.004584
30409000,0.0324,0.013523,0.002678,0.000431,0.004584
30410000,0.0324,0.013523,0.002678,0.000431,0.088616
30411000,0.0324,0.013523,0.002678,0.000431,0.055943
30412000,0.0324,0.013523,0.002678,0.000431,0.004819
30413000,0.0324,0.013523,0.002678,0.000431,0.012340
30414000,0.0324,0.013523,0.002678,0.000431,0.019745
30415000,0.0324,0.013523,0.002678,0.000431,0.004701
30416000,0.0324,0.013523,0.002678,0.000431,0.007522
30417000,0.0324,0.013523,0.002678,0.000431,0.088616
30418000,0.0324,0.013523,0.002678,0.000431,0.023506
30419000,0.0324,0.013523,0.002678,0.000431,0.019980
30420000,0.0324,0.013523,0.002678,0.000431,0.004466
30421000,0.0324,0.013523,0.002678,0.000431,0.004584
30422000,0.0324,0.013523,0.002678,0.000431,0.004584
30423000,0.0324,0.013523,0.002678,0.000431,0.034553
30424000,0.0324,0.013523,0.002678,0.000431,0.027267
30425000,0.0324,0.013523,0.002678,0.000431,0.004701
30426000,0.0324,0.013523,0.002678,0.000431,0.004701
30427000,0.0324,0.013523,0.002678,0.000431,0.025034
30428000,0.0324,0.013523,0.002678,0.000431,0.022448
30429000,0.0324,0.013523,0.002678,0.000431,0.012223
30430000,0.0324,0.013523,0.002678,0.000431,0.012223
30431000,0.0324,0.013523,0.002678,0.000431,0.004701
30432000,0.0324,0.013523,0.002678,0.000431,0.034788
30433000,0.0324,0.013523,0.002678,0.000431,0.004701
30434000,0.0324,0.013523,0.002678,0.000431,0.019745
30435000,0.0324,0.013523,0.002678,0.000431,0.004701
30436000,0.0324,0.013523,0.002678,0.000431,0.064641
30437000,0.0324,0.013523,0.002678,0.000431,0.057354
30438000,0.0324,0.013523,0.002678,0.000431,0.012223
30439000,0.0324,0.013523,0.002678,0.000431,0.004701
30440000,0.0324,0.013523,0.002678,0.000431,0.004701
30441000,0.0324,0.013523,0.002678,0.000431,0.004701
30442000,0.0324,0.013523,0.002678,0.000431,0.049009
30443000,0.0324,0.013523,0.002678,0.000431,0.050890
30444000,0.0324,0.013523,0.002678,0.000431,0.004701
30445000,0.0324,0.013523,0.002678,0.000431,0.004701
30446000,0.0324,0.013523,0.002678,0.000431,0.004701
30447000,0.0324,0.013523,0.002678,0.000431,0.012223
30448000,0.0324,0.013523,0.002678,0.000431,0.004701
30449000,0.0324,0.013523,0.002678,0.000431,0.053828
30450000,0.0324,0.013523,0.002678,0.000431,0.030792
30451000,0.0324,0.013523,0.002678,0.000431,0.011048
30452000,0.0324,0.013523,0.002678,0.000431,0.051007
30453000,0.0324,0.013523,0.002678,0.000431,0.007757
30454000,0.0324,0.013523,0.002678,0.000431,0.023976
30455000,0.0324,0.013523,0.002678,0.000431,0.008462
30456000,0.0324,0.013523,0.002678,0.000431,0.066991
30457000,0.0324,0.013523,0.002678,0.000431,0.021390
30458000,0.0324,0.013523,0.002678,0.000431,0.004701
30459000,0.0324,0.013523,0.002678,0.000431,0.004701
30460000,0.0324,0.013523,0.002678,0.000431,0.004466
30461000,0.0324,0.013523,0.002678,0.000431,0.004701
30462000,0.0324,0.013523,0.002678,0.000431,0.072397
30463000,0.0324,0.013523,0.002678,0.000431,0.049597
30464000,0.0324,0.013523,0.002678,0.000431,0.042310
30465000,0.0324,0.013523,0.002678,0.000431,0.004701
30466000,0.0324,0.013523,0.002678,0.000431,0.004701
30467000,0.0324,0.013523,0.002678,0.000431,0.004701
30468000,0.0324,0.013523,0.002678,0.000431,0.004701
30469000,0.0324,0.013523,0.002678,0.000431,0.004701
30470000,0.0324,0.013523,0.002678,0.000431,0.004701
30471000,0.0324,0.013523,0.002678,0.000431,0.180758
30472000,0.0324,0.013523,0.002678,0.000431,0.016924
30473000,0.0324,0.013523,0.002678,0.000431,0.004701
30474000,0.0324,0.013523,0.002678,0.000431,0.004701
30475000,0.0324,0.013523,0.002678,0.000431,0.004701
30476000,0.0324,0.013523,0.002678,0.000431,0.010578
30477000,0.0324,0.013523,0.002678,0.000431,0.096608
30478000,0.0324,0.013523,0.002678,0.000431,0.012223
30479000,0.0324,0.013523,0.002678,0.000431,0.004701
30480000,0.0324,0.013523,0.002678,0.000431,0.004701
30481000,0.0324,0.013523,0.002678,0.000431,0.004701
30482000,0.0324,0.013523,0.002678,0.000431,0.004701
30483000,0.0324,0.013523,0.002678,0.000431,0.007404
30484000,0.0324,0.013523,0.002678,0.000431,0.061937
30485000,0.0324,0.013523,0.002678,0.000431,0.004701
30486000,0.0324,0.013523,0.002678,0.000431,0.004701
30487000,0.0324,0.013523,0.002678,0.000431,0.004701
30488000,0.0324,0.013523,0.002678,0.000431,0.004466
30489000,0.0324,0.013523,0.002678,0.000431,0.004701
30490000,0.0324,0.013523,0.002678,0.000431,0.057354
30491000,0.0324,0.013523,0.002678,0.000431,0.012223
30492000,0.0324,0.013523,0.002678,0.000431,0.004701
30493000,0.0324,0.013523,0.002678,0.000431,0.004701
30494000,0.0324,0.013523,0.002678,0.000431,0.004584
30495000,0.0324,0.013523,0.002678,0.000431,0.049714
30496000,0.0324,0.013523,0.002678,0.000431,0.017394
30497000,0.0324,0.013523,0.002678,0.000431,0.130574
30498000,0.0324,0.013523,0.002678,0.000431,0.009285
30499000,0.0324,0.013523,0.002678,0.000431,0.004701
30500000,0.0324,0.013523,0.002678,0.000431,0.004466
30501000,0.0324,0.013523,0.002678,0.000431,0.043015
30502000,0.0324,0.013523,0.002678,0.000431,0.026561
30503000,0.0324,0.013523,0.002678,0.000431,0.012223
30504000,0.0324,0.013523,0.002678,0.000431,0.004701
30505000,0.0324,0.013523,0.002678,0.000431,0.004701
30506000,0.0324,0.013523,0.002678,0.000431,0.096961
30507000,0.0324,0.013523,0.002678,0.000431,0.084973
30508000,0.0324,0.013523,0.002678,0.000431,0.079919
30509000,0.0324,0.013523,0.002678,0.000431,0.004701
30510000,0.0324,0.013523,0.002678,0.000431,0.004701
30511000,0.0324,0.013523,0.002678,0.000431,0.004701
30512000,0.0324,0.013523,0.002678,0.000431,0.065111
30513000,0.0324,0.013523,0.002678,0.000431,0.004936
30514000,0.0324,0.013523,0.002678,0.000431,0.034436
30515000,0.0324,0.013523,0.002678,0.000431,0.057706
30516000,0.0324,0.013523,0.002678,0.000431,0.004701
30517000,0.0324,0.013523,0.002678,0.000431,0.004701
30518000,0.0324,0.013523,0.002678,0.000431,0.004584
30519000,0.0324,0.013523,0.002678,0.000431,0.016219
30520000,0.0324,0.013523,0.002678,0.000431,0.023388
30521000,0.0324,0.013523,0.002678,0.000431,0.019627
30522000,0.0324,0.013523,0.002678,0.000431,0.004584
30523000,0.0324,0.013523,0.002678,0.000431,0.004701
30524000,0.0324,0.013523,0.002678,0.000431,0.004701
30525000,0.0324,0.013523,0.002678,0.000431,0.004701
30526000,0.0324,0.013523,0.002678,0.000431,0.042310
30527000,0.0324,0.013523,0.002678,0.000431,0.102955
30528000,0.0324,0.013523,0.002678,0.000431,0.012105
30529000,0.0324,0.013523,0.002678,0.000431,0.004584
30530000,0.0324,0.013523,0.002678,0.000431,0.004701
30531000,0.0324,0.013523,0.002678,0.000431,0.004701
30532000,0.0324,0.013523,0.002678,0.000431,0.004701
30533000,0.0324,0.013523,0.002678,0.000431,0.030792
30534000,0.0324,0.013523,0.002678,0.000431,0.076863
30535000,0.0324,0.013523,0.002678,0.000431,0.004701
30536000,0.0324,0.013523,0.002678,0.000431,0.027267
30537000,0.0324,0.013523,0.002678,0.000431,0.004701
30538000,0.0324,0.013523,0.002678,0.000431,0.004701
30539000,0.0324,0.013523,0.002678,0.000431,0.004701
30540000,0.0324,0.013523,0.002678,0.000431,0.116588
30541000,0.0324,0.013523,0.002678,0.000431,0.028442
30542000,0.0324,0.013523,0.002678,0.000431,0.012223
30543000,0.0324,0.013523,0.002678,0.000431,0.004701
30544000,0.0324,0.013523,0.002678,0.000431,0.004701
30545000,0.0324,0.013523,0.002678,0.000431,0.020215
30546000,0.0324,0.013523,0.002678,0.000431,0.004819
30547000,0.0324,0.013523,0.002678,0.000431,0.034906
30548000,0.0324,0.013523,0.002678,0.000431,0.005994
30549000,0.0324,0.013523,0.002678,0.000431,0.063348
30550000,0.0324,0.013523,0.002678,0.000431,0.004701
30551000,0.0324,0.013523,0.002678,0.000431,0.004701
30552000,0.0324,0.013523,0.002678,0.000431,0.012223
30553000,0.0324,0.013523,0.002678,0.000431,0.064876
30554000,0.0324,0.013523,0.002678,0.000431,0.004701
30555000,0.0324,0.013523,0.002678,0.000431,0.042310
30556000,0.0324,0.013523,0.002678,0.000431,0.004701
30557000,0.0324,0.013523,0.002678,0.000431,0.004701
30558000,0.0324,0.013523,0.002678,0.000431,0.004584
30559000,0.0324,0.013523,0.002678,0.000431,0.024916
30560000,0.0324,0.013523,0.002678,0.000431,0.006934
30561000,0.0324,0.013523,0.002678,0.000431,0.011870
30562000,0.0324,0.013523,0.002678,0.000431,0.034906
30563000,0.0324,0.013523,0.002678,0.000431,0.004701
30564000,0.0324,0.013523,0.002678,0.000431,0.087794
30565000,0.0324,0.013523,0.002678,0.000431,0.030322
30566000,0.0324,0.013523,0.002678,0.000431,0.068989
30567000,0.0324,0.013523,0.002678,0.000431,0.004701
30568000,0.0324,0.013523,0.002678,0.000431,0.034671
30569000,0.0324,0.013523,0.002678,0.000431,0.004584
30570000,0.0324,0.013523,0.002678,0.000431,0.004701
30571000,0.0324,0.013523,0.002678,0.000431,0.004701
30572000,0.0324,0.013523,0.002678,0.000431,0.027267
30573000,0.0324,0.013523,0.002678,0.000431,0.004701
30574000,0.0324,0.013523,0.002678,0.000431,0.004701
30575000,0.0324,0.013523,0.002678,0.000431,0.004701
30576000,0.0324,0.013523,0.002678,0.000431,0.041017
30577000,0.0324,0.013523,0.002678,0.000431,0.073573
30578000,0.0324,0.013523,0.002678,0.000431,0.004819
30579000,0.0324,0.013523,0.002678,0.000431,0.004701
30580000,0.0324,0.013523,0.002678,0.000431,0.004584
30581000,0.0324,0.013523,0.002678,0.000431,0.012105
30582000,0.0324,0.013523,0.002678,0.000431,0.004701
30583000,0.0324,0.013523,0.002678,0.000431,0.012458
30584000,0.0324,0.013523,0.002678,0.000431,0.004701
30585000,0.0324,0.013523,0.002678,0.000431,0.004701
30586000,0.0324,0.013523,0.002678,0.000431,0.012223
30587000,0.0324,0.013523,0.002678,0.000431,0.004701
30588000,0.0324,0.013523,0.002678,0.000431,0.004701
30589000,0.0324,0.013523,0.002678,0.000431,0.004701
30590000,0.0324,0.013523,0.002678,0.000431,0.004701
30591000,0.0324,0.013523,0.002678,0.000431,0.038432
30592000,0.0324,0.013523,0.002678,0.000431,0.076511
30593000,0.0324,0.013523,0.002678,0.000431,0.015984
30594000,0.0324,0.013523,0.002678,0.000431,0.031027
30595000,0.0324,0.013523,0.002678,0.000431,0.004701
30596000,0.0324,0.013523,0.002678,0.000431,0.007052
30597000,0.0324,0.013523,0.002678,0.000431,0.122229
30598000,0.0324,0.013523,0.002678,0.000431,0.004701
30599000,0.0324,0.013523,0.002678,0.000431,0.004701
30600000,0.0324,0.013523,0.002678,0.000431,0.042310
30601000,0.0324,0.013523,0.002678,0.000431,0.004701
30602000,0.0324,0.013523,0.002678,0.000431,0.072397
30603000,0.0324,0.013523,0.002678,0.000431,0.045131
30604000,0.0324,0.013523,0.002678,0.000431,0.148673
30605000,0.0324,0.013523,0.002678,0.000431,0.008109
30606000,0.0324,0.013523,0.002678,0.000431,0.010695
30607000,0.0324,0.013523,0.002678,0.000431,0.028794
30608000,0.0324,0.013523,0.002678,0.000431,0.004701
30609000,0.0324,0.013523,0.002678,0.000431,0.004701
30610000,0.0324,0.013523,0.002678,0.000431,0.004936
30611000,0.0324,0.013523,0.002678,0.000431,0.004701
30612000,0.0324,0.013523,0.002678,0.000431,0.004701
30613000,0.0324,0.013523,0.002678,0.000431,0.004701
30614000,0.0324,0.013523,0.002678,0.000431,0.004701
30615000,0.0324,0.013523,0.002678,0.000431,0.042545
30616000,0.0324,0.013523,0.002678,0.000431,0.012458
30617000,0.0324,0.013523,0.002678,0.000431,0.004466
30618000,0.0324,0.013523,0.002678,0.000431,0.004701
30619000,0.0324,0.013523,0.002678,0.000431,0.024681
30620000,0.0324,0.013523,0.002678,0.000431,0.029500
30621000,0.0324,0.013523,0.002678,0.000431,0.015866
30622000,0.0324,0.013523,0.002678,0.000431,0.015984
30623000,0.0324,0.013523,0.002678,0.000431,0.012223
30624000,0.0324,0.013523,0.002678,0.000431,0.004701
30625000,0.0324,0.013523,0.002678,0.000431,0.004701
30626000,0.0324,0.013523,0.002678,0.000431,0.012223
30627000,0.0324,0.013523,0.002678,0.000431,0.004584
30628000,0.0324,0.013523,0.002678,0.000431,0.034671
30629000,0.0324,0.013523,0.002678,0.000431,0.004701
30630000,0.0324,0.013523,0.002678,0.000431,0.004701
30631000,0.0324,0.013523,0.002678,0.000431,0.004701
30632000,0.0324,0.013523,0.002678,0.000431,0.037139
30633000,0.0324,0.013523,0.002678,0.000431,0.009872
30634000,0.0324,0.013523,0.002678,0.000431,0.023506
30635000,0.0324,0.013523,0.002678,0.000431,0.008462
30636000,0.0324,0.013523,0.002678,0.000431,0.004701
30637000,0.0324,0.013523,0.002678,0.000431,0.004701
30638000,0.0324,0.013523,0.002678,0.000431,0.004701
30639000,0.0324,0.013523,0.002678,0.000431,0.004701
30640000,0.0324,0.013523,0.002678,0.000431,0.019392
30641000,0.0324,0.013523,0.002678,0.000431,0.050185
30642000,0.0324,0.013523,0.002678,0.000431,0.012223
30643000,0.0324,0.013523,0.002678,0.000431,0.004701
30644000,0.0324,0.013523,0.002678,0.000431,0.004701
30645000,0.0324,0.013523,0.002678,0.000431,0.058999
30646000,0.0324,0.013523,0.002678,0.000431,0.010578
30647000,0.0324,0.013523,0.002678,0.000431,0.004701
30648000,0.0324,0.013523,0.002678,0.000431,0.004701
30649000,0.0324,0.013523,0.002678,0.000431,0.004701
30650000,0.0324,0.013523,0.002678,0.000431,0.004701
30651000,0.0324,0.013523,0.002678,0.000431,0.004701
30652000,0.0324,0.013523,0.002678,0.000431,0.004701
30653000,0.0324,0.013523,0.002678,0.000431,0.015866
30654000,0.0324,0.013523,0.002678,0.000431,0.015866
30655000,0.0324,0.013523,0.002678,0.000431,0.011988
30656000,0.0324,0.013523,0.002678,0.000431,0.004701
30657000,0.0324,0.013523,0.002678,0.000431,0.004701
30658000,0.0324,0.013523,0.002678,0.000431,0.107421
30659000,0.0324,0.013523,0.002678,0.000431,0.029735
30660000,0.0324,0.013523,0.002678,0.000431,0.034671
30661000,0.0324,0.013523,0.002678,0.000431,0.004466
30662000,0.0324,0.013523,0.002678,0.000431,0.004701
30663000,0.0324,0.013523,0.002678,0.000431,0.004701
30664000,0.0324,0.013523,0.002678,0.000431,0.004701
30665000,0.0324,0.013523,0.002678,0.000431,0.004701
30666000,0.0324,0.013523,0.002678,0.000431,0.035846
30667000,0.0324,0.013523,0.002678,0.000431,0.078626
30668000,0.0324,0.013523,0.002678,0.000431,0.011988
30669000,0.0324,0.013523,0.002678,0.000431,0.004701
30670000,0.0324,0.013523,0.002678,0.000431,0.004701
30671000,0.0324,0.013523,0.002678,0.000431,0.019745
30672000,0.0324,0.013523,0.002678,0.000431,0.004701
30673000,0.0324,0.013523,0.002678,0.000431,0.113767
30674000,0.0324,0.013523,0.002678,0.000431,0.079449
30675000,0.0324,0.013523,0.002678,0.000431,0.008462
30676000,0.0324,0.013523,0.002678,0.000431,0.004701
30677000,0.0324,0.013523,0.002678,0.000431,0.004701
30678000,0.0324,0.013523,0.002678,0.000431,0.004701
30679000,0.0324,0.013523,0.002678,0.000431,0.069107
30680000,0.0324,0.013523,0.002678,0.000431,0.007992
30681000,0.0324,0.013523,0.002678,0.000431,0.019745
30682000,0.0324,0.013523,0.002678,0.000431,0.004701
30683000,0.0324,0.013523,0.002678,0.000431,0.004701
30684000,0.0324,0.013523,0.002678,0.000431,0.012223
30685000,0.0324,0.013523,0.002678,0.000431,0.005171
30686000,0.0324,0.013523,0.002678,0.000431,0.030557
30687000,0.0324,0.013523,0.002678,0.000431,0.045366
30688000,0.0324,0.013523,0.002678,0.000431,0.050537
30689000,0.0324,0.013523,0.002678,0.000431,0.004584
30690000,0.0324,0.013523,0.002678,0.000431,0.013281
30691000,0.0324,0.013523,0.002678,0.000431,0.041135
30692000,0.0324,0.013523,0.002678,0.000431,0.049597
30693000,0.0324,0.013523,0.002678,0.000431,0.042545
30694000,0.0324,0.013523,0.002678,0.000431,0.109771
30695000,0.0324,0.013523,0.002678,0.000431,0.004701
30696000,0.0324,0.013523,0.002678,0.000431,0.004701
30697000,0.0324,0.013523,0.002678,0.000431,0.004701
30698000,0.0324,0.013523,0.002678,0.000431,0.008462
30699000,0.0324,0.013523,0.002678,0.000431,0.015984
30700000,0.0324,0.013523,0.002678,0.000431,0.019745
30701000,0.0324,0.013523,0.002678,0.000431,0.087206
30702000,0.0324,0.013523,0.002678,0.000431,0.004701
30703000,0.0324,0.013523,0.002678,0.000431,0.028794
30704000,0.0324,0.013523,0.002678,0.000431,0.048069
30705000,0.0324,0.013523,0.002678,0.000431,0.027267
30706000,0.0324,0.013523,0.002678,0.000431,0.004701
30707000,0.0324,0.013523,0.002678,0.000431,0.083327
30708000,0.0324,0.013523,0.002678,0.000431,0.016571
30709000,0.0324,0.013523,0.002678,0.000431,0.004701
30710000,0.0324,0.013523,0.002678,0.000431,0.004701
30711000,0.0324,0.013523,0.002678,0.000431,0.004701
30712000,0.0324,0.013523,0.002678,0.000431,0.004701
30713000,0.0324,0.013523,0.002678,0.000431,0.004701
30714000,0.0324,0.013523,0.002678,0.000431,0.004701
30715000,0.0324,0.013523,0.002678,0.000431,0.034788
30716000,0.0324,0.013523,0.002678,0.000431,0.033613
30717000,0.0324,0.013523,0.002678,0.000431,0.085090
30718000,0.0324,0.013523,0.002678,0.000431,0.027267
30719000,0.0324,0.013523,0.002678,0.000431,0.008462
30720000,0.0324,0.013523,0.002678,0.000431,0.004701
30721000,0.0324,0.013523,0.002678,0.000431,0.004701
30722000,0.0324,0.013523,0.002678,0.000431,0.004701
30723000,0.0324,0.013523,0.002678,0.000431,0.004701
30724000,0.0324,0.013523,0.002678,0.000431,0.004701
30725000,0.0324,0.013523,0.002678,0.000431,0.012223
30726000,0.0324,0.013523,0.002678,0.000431,0.007287
30727000,0.0324,0.013523,0.002678,0.000431,0.009637
30728000,0.0324,0.013523,0.002678,0.000431,0.004701
30729000,0.0324,0.013523,0.002678,0.000431,0.004584
30730000,0.0324,0.013523,0.002678,0.000431,0.012223
30731000,0.0324,0.013523,0.002678,0.000431,0.030440
30732000,0.0324,0.013523,0.002678,0.000431,0.008462
30733000,0.0324,0.013523,0.002678,0.000431,0.012223
30734000,0.0324,0.013523,0.002678,0.000431,0.004701
30735000,0.0324,0.013523,0.002678,0.000431,0.004701
30736000,0.0324,0.013523,0.002678,0.000431,0.004701
30737000,0.0324,0.013523,0.002678,0.000431,0.057589
30738000,0.0324,0.013523,0.002678,0.000431,0.004701
30739000,0.0324,0.013523,0.002678,0.000431,0.004701
30740000,0.0324,0.013523,0.002678,0.000431,0.004701
30741000,0.0324,0.013523,0.002678,0.000431,0.004701
30742000,0.0324,0.013523,0.002678,0.000431,0.019980
30743000,0.0324,0.013523,0.002678,0.000431,0.015984
30744000,0.0324,0.013523,0.002678,0.000431,0.015984
30745000,0.0324,0.013523,0.002678,0.000431,0.004701
30746000,0.0324,0.013523,0.002678,0.000431,0.004584
30747000,0.0324,0.013523,0.002678,0.000431,0.004584
30748000,0.0324,0.013523,0.002678,0.000431,0.004701
30749000,0.0324,0.013523,0.002678,0.000431,0.012223
30750000,0.0324,0.013523,0.002678,0.000431,0.012223
30751000,0.0324,0.013523,0.002678,0.000431,0.012223
30752000,0.0324,0.013523,0.002678,0.000431,0.004701
30753000,0.0324,0.013523,0.002678,0.000431,0.004701
30754000,0.0324,0.013523,0.002678,0.000431,0.004701
30755000,0.0324,0.013523,0.002678,0.000431,0.064876
30756000,0.0324,0.013523,0.002678,0.000431,0.030440
30757000,0.0324,0.013523,0.002678,0.000431,0.024328
30758000,0.0324,0.013523,0.002678,0.000431,0.004701
30759000,0.0324,0.013523,0.002678,0.000431,0.012223
30760000,0.0324,0.013523,0.002678,0.000431,0.004701
30761000,0.0324,0.013523,0.002678,0.000431,0.004701
30762000,0.0324,0.013523,0.002678,0.000431,0.004701
30763000,0.0324,0.013523,0.002678,0.000431,0.075688
30764000,0.0324,0.013523,0.002678,0.000431,0.023741
30765000,0.0324,0.013523,0.002678,0.000431,0.004701
30766000,0.0324,0.013523,0.002678,0.000431,0.004701
30767000,0.0324,0.013523,0.002678,0.000431,0.004701
30768000,0.0324,0.013523,0.002678,0.000431,0.122934
30769000,0.0324,0.013523,0.002678,0.000431,0.036786
30770000,0.0324,0.013523,0.002678,0.000431,0.101544
30771000,0.0324,0.013523,0.002678,0.000431,0.177232
30772000,0.0324,0.013523,0.002678,0.000431,0.004584
30773000,0.0324,0.013523,0.002678,0.000431,0.004701
30774000,0.0324,0.013523,0.002678,0.000431,0.004701
30775000,0.0324,0.013523,0.002678,0.000431,0.004466
30776000,0.0324,0.013523,0.002678,0.000431,0.004701
30777000,0.0324,0.013523,0.002678,0.000431,0.019745
30778000,0.0324,0.013523,0.002678,0.000431,0.080154
30779000,0.0324,0.013523,0.002678,0.000431,0.012223
30780000,0.0324,0.013523,0.002678,0.000431,0.004701
30781000,0.0324,0.013523,0.002678,0.000431,0.034788
30782000,0.0324,0.013523,0.002678,0.000431,0.080154
30783000,0.0324,0.013523,0.002678,0.000431,0.034318
30784000,0.0324,0.013523,0.002678,0.000431,0.004936
30785000,0.0324,0.013523,0.002678,0.000431,0.004466
30786000,0.0324,0.013523,0.002678,0.000431,0.004701
30787000,0.0324,0.013523,0.002678,0.000431,0.004701
30788000,0.0324,0.013523,0.002678,0.000431,0.012223
30789000,0.0324,0.013523,0.002678,0.000431,0.087441
30790000,0.0324,0.013523,0.002678,0.000431,0.004701
30791000,0.0324,0.013523,0.002678,0.000431,0.085090
30792000,0.0324,0.013523,0.002678,0.000431,0.007052
30793000,0.0324,0.013523,0.002678,0.000431,0.004701
30794000,0.0324,0.013523,0.002678,0.000431,0.056296
30795000,0.0324,0.013523,0.002678,0.000431,0.013281
30796000,0.0324,0.013523,0.002678,0.000431,0.011400
30797000,0.0324,0.013523,0.002678,0.000431,0.020567
30798000,0.0324,0.013523,0.002678,0.000431,0.012223
30799000,0.0324,0.013523,0.002678,0.000431,0.004701
30800000,0.0324,0.013523,0.002678,0.000431,0.004701
30801000,0.0324,0.013523,0.002678,0.000431,0.004701
30802000,0.0324,0.013523,0.002678,0.000431,0.004701
30803000,0.0324,0.013523,0.002678,0.000431,0.012223
30804000,0.0324,0.013523,0.002678,0.000431,0.094963
30805000,0.0324,0.013523,0.002678,0.000431,0.004701
30806000,0.0324,0.013523,0.002678,0.000431,0.004701
30807000,0.0324,0.013523,0.002678,0.000431,0.004701
30808000,0.0324,0.013523,0.002678,0.000431,0.004701
30809000,0.0324,0.013523,0.002678,0.000431,0.015514
30810000,0.0324,0.013523,0.002678,0.000431,0.072632
30811000,0.0324,0.013523,0.002678,0.000431,0.098254
30812000,0.0324,0.013523,0.002678,0.000431,0.004701
30813000,0.0324,0.013523,0.002678,0.000431,0.004701
30814000,0.0324,0.013523,0.002678,0.000431,0.004701
30815000,0.0324,0.013523,0.002678,0.000431,0.034553
30816000,0.0324,0.013523,0.002678,0.000431,0.004701
30817000,0.0324,0.013523,0.002678,0.000431,0.004466
30818000,0.0324,0.013523,0.002678,0.000431,0.004701
30819000,0.0324,0.013523,0.002678,0.000431,0.004701
30820000,0.0324,0.013523,0.002678,0.000431,0.004701
30821000,0.0324,0.013523,0.002678,0.000431,0.012223
30822000,0.0324,0.013523,0.002678,0.000431,0.004701
30823000,0.0324,0.013523,0.002678,0.000431,0.004701
30824000,0.0324,0.013523,0.002678,0.000431,0.004701
30825000,0.0324,0.013523,0.002678,0.000431,0.004466
30826000,0.0324,0.013523,0.002678,0.000431,0.004701
30827000,0.0324,0.013523,0.002678,0.000431,0.004701
30828000,0.0324,0.013523,0.002678,0.000431,0.019745
30829000,0.0324,0.013523,0.002678,0.000431,0.012693
30830000,0.0324,0.013523,0.002678,0.000431,0.004701
30831000,0.0324,0.013523,0.002678,0.000431,0.004701
30832000,0.0324,0.013523,0.002678,0.000431,0.004701
30833000,0.0324,0.013523,0.002678,0.000431,0.004701
30834000,0.0324,0.013523,0.002678,0.000431,0.094023
30835000,0.0324,0.013523,0.002678,0.000431,0.080389
30836000,0.0324,0.013523,0.002678,0.000431,0.004701
30837000,0.0324,0.013523,0.002678,0.000431,0.004701
30838000,0.0324,0.013523,0.002678,0.000431,0.004701
30839000,0.0324,0.013523,0.002678,0.000431,0.057354
30840000,0.0324,0.013523,0.002678,0.000431,0.004701
30841000,0.0324,0.013523,0.002678,0.000431,0.004701
30842000,0.0324,0.013523,0.002678,0.000431,0.004701
30843000,0.0324,0.013523,0.002678,0.000431,0.004701
30844000,0.0324,0.013523,0.002678,0.000431,0.004701
30845000,0.0324,0.013523,0.002678,0.000431,0.008462
30846000,0.0324,0.013523,0.002678,0.000431,0.023506
30847000,0.0324,0.013523,0.002678,0.000431,0.019745
30848000,0.0324,0.013523,0.002678,0.000431,0.012223
30849000,0.0324,0.013523,0.002678,0.000431,0.012223
30850000,0.0324,0.013523,0.002678,0.000431,0.004701
30851000,0.0324,0.013523,0.002678,0.000431,0.004701
30852000,0.0324,0.013523,0.002678,0.000431,0.064641
30853000,0.0324,0.013523,0.002678,0.000431,0.004701
30854000,0.0324,0.013523,0.002678,0.000431,0.012223
30855000,0.0324,0.013523,0.002678,0.000431,0.011988
30856000,0.0324,0.013523,0.002678,0.000431,0.019745
30857000,0.0324,0.013523,0.002678,0.000431,0.004701
30858000,0.0324,0.013523,0.002678,0.000431,0.021978
30859000,0.0324,0.013523,0.002678,0.000431,0.054651
30860000,0.0324,0.013523,0.002678,0.000431,0.004701
30861000,0.0324,0.013523,0.002678,0.000431,0.042310
30862000,0.0324,0.013523,0.002678,0.000431,0.007757
30863000,0.0324,0.013523,0.002678,0.000431,0.024446
30864000,0.0324,0.013523,0.002678,0.000431,0.004701
30865000,0.0324,0.013523,0.002678,0.000431,0.072632
30866000,0.0324,0.013523,0.002678,0.000431,0.012223
30867000,0.0324,0.013523,0.002678,0.000431,0.039960
30868000,0.0324,0.013523,0.002678,0.000431,0.014573
30869000,0.0324,0.013523,0.002678,0.000431,0.034788
30870000,0.0324,0.013523,0.002678,0.000431,0.004466
30871000,0.0324,0.013523,0.002678,0.000431,0.012340
30872000,0.0324,0.013523,0.002678,0.000431,0.012340
30873000,0.0324,0.013523,0.002678,0.000431,0.004701
30874000,0.0324,0.013523,0.002678,0.000431,0.004584
30875000,0.0324,0.013523,0.002678,0.000431,0.004584
30876000,0.0324,0.013523,0.002678,0.000431,0.008462
30877000,0.0324,0.013523,0.002678,0.000431,0.008462
30878000,0.0324,0.013523,0.002678,0.000431,0.012458
30879000,0.0324,0.013523,0.002678,0.000431,0.038432
30880000,0.0324,0.013523,0.002678,0.000431,0.095315
30881000,0.0324,0.013523,0.002678,0.000431,0.082975
30882000,0.0324,0.013523,0.002678,0.000431,0.004701
30883000,0.0324,0.013523,0.002678,0.000431,0.004701
30884000,0.0324,0.013523,0.002678,0.000431,0.019745
30885000,0.0324,0.013523,0.002678,0.000431,0.004701
30886000,0.0324,0.013523,0.002678,0.000431,0.034788
30887000,0.0324,0.013523,0.002678,0.000431,0.004701
30888000,0.0324,0.013523,0.002678,0.000431,0.004701
30889000,0.0324,0.013523,0.002678,0.000431,0.004701
30890000,0.0324,0.013523,0.002678,0.000431,0.004701
30891000,0.0324,0.013523,0.002678,0.000431,0.004701
30892000,0.0324,0.013523,0.002678,0.000431,0.049832
30893000,0.0324,0.013523,0.002678,0.000431,0.004701
30894000,0.0324,0.013523,0.002678,0.000431,0.027267
30895000,0.0324,0.013523,0.002678,0.000431,0.012223
30896000,0.0324,0.013523,0.002678,0.000431,0.004701
30897000,0.0324,0.013523,0.002678,0.000431,0.012223
30898000,0.0324,0.013523,0.002678,0.000431,0.004466
30899000,0.0324,0.013523,0.002678,0.000431,0.012223
30900000,0.0324,0.013523,0.002678,0.000431,0.017629
30901000,0.0324,0.013523,0.002678,0.000431,0.007522
30902000,0.0324,0.013523,0.002678,0.000431,0.004701
30903000,0.0324,0.013523,0.002678,0.000431,0.004701
30904000,0.0324,0.013523,0.002678,0.000431,0.004701
30905000,0.0324,0.013523,0.002678,0.000431,0.004701
30906000,0.0324,0.013523,0.002678,0.000431,0.005994
30907000,0.0324,0.013523,0.002678,0.000431,0.010930
30908000,0.0324,0.013523,0.002678,0.000431,0.015984
30909000,0.0324,0.013523,0.002678,0.000431,0.015749
30910000,0.0324,0.013523,0.002678,0.000431,0.012105
30911000,0.0324,0.013523,0.002678,0.000431,0.004584
30912000,0.0324,0.013523,0.002678,0.000431,0.004701
30913000,0.0324,0.013523,0.002678,0.000431,0.004701
30914000,0.0324,0.013523,0.002678,0.000431,0.004701
30915000,0.0324,0.013523,0.002678,0.000431,0.004466
30916000,0.0324,0.013523,0.002678,0.000431,0.015984
30917000,0.0324,0.013523,0.002678,0.000431,0.015984
30918000,0.0324,0.013523,0.002678,0.000431,0.068872
30919000,0.0324,0.013523,0.002678,0.000431,0.008462
30920000,0.0324,0.013523,0.002678,0.000431,0.012223
30921000,0.0324,0.013523,0.002678,0.000431,0.004701
30922000,0.0324,0.013523,0.002678,0.000431,0.004701
30923000,0.0324,0.013523,0.002678,0.000431,0.004584
30924000,0.0324,0.013523,0.002678,0.000431,0.004584
30925000,0.0324,0.013523,0.002678,0.000431,0.012223
30926000,0.0324,0.013523,0.002678,0.000431,0.004701
30927000,0.0324,0.013523,0.002678,0.000431,0.012223
30928000,0.0324,0.013523,0.002678,0.000431,0.004701
30929000,0.0324,0.013523,0.002678,0.000431,0.004701
30930000,0.0324,0.013523,0.002678,0.000431,0.004701
30931000,0.0324,0.013523,0.002678,0.000431,0.007522
30932000,0.0324,0.013523,0.002678,0.000431,0.069577
30933000,0.0324,0.013523,0.002678,0.000431,0.027267
30934000,0.0324,0.013523,0.002678,0.000431,0.027267
30935000,0.0324,0.013523,0.002678,0.000431,0.004701
30936000,0.0324,0.013523,0.002678,0.000431,0.004701
30937000,0.0324,0.013523,0.002678,0.000431,0.012223
30938000,0.0324,0.013523,0.002678,0.000431,0.007757
30939000,0.0324,0.013523,0.002678,0.000431,0.009167
30940000,0.0324,0.013523,0.002678,0.000431,0.013046
30941000,0.0324,0.013523,0.002678,0.000431,0.018922
30942000,0.0324,0.013523,0.002678,0.000431,0.004701
30943000,0.0324,0.013523,0.002678,0.000431,0.004701
30944000,0.0324,0.013523,0.002678,0.000431,0.019980
30945000,0.0324,0.013523,0.002678,0.000431,0.012223
30946000,0.0324,0.013523,0.002678,0.000431,0.004701
30947000,0.0324,0.013523,0.002678,0.000431,0.053945
30948000,0.0324,0.013523,0.002678,0.000431,0.060997
30949000,0.0324,0.013523,0.002678,0.000431,0.004584
30950000,0.0324,0.013523,0.002678,0.000431,0.004466
30951000,0.0324,0.013523,0.002678,0.000431,0.008345
30952000,0.0324,0.013523,0.002678,0.000431,0.008462
30953000,0.0324,0.013523,0.002678,0.000431,0.004701
30954000,0.0324,0.013523,0.002678,0.000431,0.004701
30955000,0.0324,0.013523,0.002678,0.000431,0.004466
30956000,0.0324,0.013523,0.002678,0.000431,0.004701
30957000,0.0324,0.013523,0.002678,0.000431,0.004701
30958000,0.0324,0.013523,0.002678,0.000431,0.034788
30959000,0.0324,0.013523,0.002678,0.000431,0.004701
30960000,0.0324,0.013523,0.002678,0.000431,0.004701
30961000,0.0324,0.013523,0.002678,0.000431,0.019627
30962000,0.0324,0.013523,0.002678,0.000431,0.034906
30963000,0.0324,0.013523,0.002678,0.000431,0.004701
30964000,0.0324,0.013523,0.002678,0.000431,0.004466
30965000,0.0324,0.013523,0.002678,0.000431,0.012223
30966000,0.0324,0.013523,0.002678,0.000431,0.004701
30967000,0.0324,0.013523,0.002678,0.000431,0.004701
30968000,0.0324,0.013523,0.002678,0.000431,0.004701
30969000,0.0324,0.013523,0.002678,0.000431,0.004701
30970000,0.0324,0.013523,0.002678,0.000431,0.004701
30971000,0.0324,0.013523,0.002678,0.000431,0.008462
30972000,0.0324,0.013523,0.002678,0.000431,0.008462
30973000,0.0324,0.013523,0.002678,0.000431,0.004701
30974000,0.0324,0.013523,0.002678,0.000431,0.019745
30975000,0.0324,0.013523,0.002678,0.000431,0.004701
30976000,0.0324,0.013523,0.002678,0.000431,0.079684
30977000,0.0324,0.013523,0.002678,0.000431,0.004701
30978000,0.0324,0.013523,0.002678,0.000431,0.019745
30979000,0.0324,0.013523,0.002678,0.000431,0.004701
30980000,0.0324,0.013523,0.002678,0.000431,0.004701
30981000,0.0324,0.013523,0.002678,0.000431,0.004701
30982000,0.0324,0.013523,0.002678,0.000431,0.012340
30983000,0.0324,0.013523,0.002678,0.000431,0.012340
30984000,0.0324,0.013523,0.002678,0.000431,0.004701
30985000,0.0324,0.013523,0.002678,0.000431,0.004701
30986000,0.0324,0.013523,0.002678,0.000431,0.004701
30987000,0.0324,0.013523,0.002678,0.000431,0.046071
30988000,0.0324,0.013523,0.002678,0.000431,0.008462
30989000,0.0324,0.013523,0.002678,0.000431,0.004584
30990000,0.0324,0.013523,0.002678,0.000431,0.027031
30991000,0.0324,0.013523,0.002678,0.000431,0.008345
30992000,0.0324,0.013523,0.002678,0.000431,0.008462
30993000,0.0324,0.013523,0.002678,0.000431,0.004701
30994000,0.0324,0.013523,0.002678,0.000431,0.049832
30995000,0.0324,0.013523,0.002678,0.000431,0.004466
30996000,0.0324,0.013523,0.002678,0.000431,0.004701
30997000,0.0324,0.013523,0.002678,0.000431,0.042310
30998000,0.0324,0.013523,0.002678,0.000431,0.012223
30999000,0.0324,0.013523,0.002678,0.000431,0.049832
