Cycle,Area(mm^2),PeakDynamic(W),SubthresholdLeakage(W),GateLeakage(W),RunTimeDynamic(W)
31000000,0.0324,0.013523,0.002678,0.000431,0.027267
31001000,0.0324,0.013523,0.002678,0.000431,0.004701
31002000,0.0324,0.013523,0.002678,0.000431,0.004701
31003000,0.0324,0.013523,0.002678,0.000431,0.008462
31004000,0.0324,0.013523,0.002678,0.000431,0.135980
31005000,0.0324,0.013523,0.002678,0.000431,0.095785
31006000,0.0324,0.013523,0.002678,0.000431,0.004701
31007000,0.0324,0.013523,0.002678,0.000431,0.072397
31008000,0.0324,0.013523,0.002678,0.000431,0.004701
31009000,0.0324,0.013523,0.002678,0.000431,0.004701
31010000,0.0324,0.013523,0.002678,0.000431,0.004701
31011000,0.0324,0.013523,0.002678,0.000431,0.112710
31012000,0.0324,0.013523,0.002678,0.000431,0.039607
31013000,0.0324,0.013523,0.002678,0.000431,0.004936
31014000,0.0324,0.013523,0.002678,0.000431,0.004701
31015000,0.0324,0.013523,0.002678,0.000431,0.004701
31016000,0.0324,0.013523,0.002678,0.000431,0.011988
31017000,0.0324,0.013523,0.002678,0.000431,0.027502
31018000,0.0324,0.013523,0.002678,0.000431,0.004701
31019000,0.0324,0.013523,0.002678,0.000431,0.033731
31020000,0.0324,0.013523,0.002678,0.000431,0.020802
31021000,0.0324,0.013523,0.002678,0.000431,0.004701
31022000,0.0324,0.013523,0.002678,0.000431,0.004701
31023000,0.0324,0.013523,0.002678,0.000431,0.030910
31024000,0.0324,0.013523,0.002678,0.000431,0.087794
31025000,0.0324,0.013523,0.002678,0.000431,0.015984
31026000,0.0324,0.013523,0.002678,0.000431,0.049832
31027000,0.0324,0.013523,0.002678,0.000431,0.004701
31028000,0.0324,0.013523,0.002678,0.000431,0.004701
31029000,0.0324,0.013523,0.002678,0.000431,0.026914
31030000,0.0324,0.013523,0.002678,0.000431,0.004584
31031000,0.0324,0.013523,0.002678,0.000431,0.004701
31032000,0.0324,0.013523,0.002678,0.000431,0.031027
31033000,0.0324,0.013523,0.002678,0.000431,0.008462
31034000,0.0324,0.013523,0.002678,0.000431,0.004701
31035000,0.0324,0.013523,0.002678,0.000431,0.004701
31036000,0.0324,0.013523,0.002678,0.000431,0.027267
31037000,0.0324,0.013523,0.002678,0.000431,0.004701
31038000,0.0324,0.013523,0.002678,0.000431,0.012105
31039000,0.0324,0.013523,0.002678,0.000431,0.004584
31040000,0.0324,0.013523,0.002678,0.000431,0.019980
31041000,0.0324,0.013523,0.002678,0.000431,0.004701
31042000,0.0324,0.013523,0.002678,0.000431,0.004701
31043000,0.0324,0.013523,0.002678,0.000431,0.004701
31044000,0.0324,0.013523,0.002678,0.000431,0.019745
31045000,0.0324,0.013523,0.002678,0.000431,0.019745
31046000,0.0324,0.013523,0.002678,0.000431,0.004701
31047000,0.0324,0.013523,0.002678,0.000431,0.027267
31048000,0.0324,0.013523,0.002678,0.000431,0.004701
31049000,0.0324,0.013523,0.002678,0.000431,0.004701
31050000,0.0324,0.013523,0.002678,0.000431,0.004701
31051000,0.0324,0.013523,0.002678,0.000431,0.004701
31052000,0.0324,0.013523,0.002678,0.000431,0.004701
31053000,0.0324,0.013523,0.002678,0.000431,0.027267
31054000,0.0324,0.013523,0.002678,0.000431,0.004701
31055000,0.0324,0.013523,0.002678,0.000431,0.004701
31056000,0.0324,0.013523,0.002678,0.000431,0.004584
31057000,0.0324,0.013523,0.002678,0.000431,0.004584
31058000,0.0324,0.013523,0.002678,0.000431,0.004701
31059000,0.0324,0.013523,0.002678,0.000431,0.004701
31060000,0.0324,0.013523,0.002678,0.000431,0.012223
31061000,0.0324,0.013523,0.002678,0.000431,0.004701
31062000,0.0324,0.013523,0.002678,0.000431,0.004701
31063000,0.0324,0.013523,0.002678,0.000431,0.027267
31064000,0.0324,0.013523,0.002678,0.000431,0.004701
31065000,0.0324,0.013523,0.002678,0.000431,0.004701
31066000,0.0324,0.013523,0.002678,0.000431,0.057589
31067000,0.0324,0.013523,0.002678,0.000431,0.024798
31068000,0.0324,0.013523,0.002678,0.000431,0.067344
31069000,0.0324,0.013523,0.002678,0.000431,0.004466
31070000,0.0324,0.013523,0.002678,0.000431,0.004584
31071000,0.0324,0.013523,0.002678,0.000431,0.004584
31072000,0.0324,0.013523,0.002678,0.000431,0.008462
31073000,0.0324,0.013523,0.002678,0.000431,0.008462
31074000,0.0324,0.013523,0.002678,0.000431,0.050067
31075000,0.0324,0.013523,0.002678,0.000431,0.004701
31076000,0.0324,0.013523,0.002678,0.000431,0.004701
31077000,0.0324,0.013523,0.002678,0.000431,0.004701
31078000,0.0324,0.013523,0.002678,0.000431,0.004584
31079000,0.0324,0.013523,0.002678,0.000431,0.004584
31080000,0.0324,0.013523,0.002678,0.000431,0.004701
31081000,0.0324,0.013523,0.002678,0.000431,0.004701
31082000,0.0324,0.013523,0.002678,0.000431,0.004701
31083000,0.0324,0.013523,0.002678,0.000431,0.004701
31084000,0.0324,0.013523,0.002678,0.000431,0.004701
31085000,0.0324,0.013523,0.002678,0.000431,0.004701
31086000,0.0324,0.013523,0.002678,0.000431,0.004701
31087000,0.0324,0.013523,0.002678,0.000431,0.079802
31088000,0.0324,0.013523,0.002678,0.000431,0.012340
31089000,0.0324,0.013523,0.002678,0.000431,0.004701
31090000,0.0324,0.013523,0.002678,0.000431,0.004701
31091000,0.0324,0.013523,0.002678,0.000431,0.004701
31092000,0.0324,0.013523,0.002678,0.000431,0.004701
31093000,0.0324,0.013523,0.002678,0.000431,0.004819
31094000,0.0324,0.013523,0.002678,0.000431,0.049714
31095000,0.0324,0.013523,0.002678,0.000431,0.012223
31096000,0.0324,0.013523,0.002678,0.000431,0.008462
31097000,0.0324,0.013523,0.002678,0.000431,0.023506
31098000,0.0324,0.013523,0.002678,0.000431,0.004701
31099000,0.0324,0.013523,0.002678,0.000431,0.004701
31100000,0.0324,0.013523,0.002678,0.000431,0.004701
31101000,0.0324,0.013523,0.002678,0.000431,0.010695
31102000,0.0324,0.013523,0.002678,0.000431,0.028794
31103000,0.0324,0.013523,0.002678,0.000431,0.027267
31104000,0.0324,0.013523,0.002678,0.000431,0.004701
31105000,0.0324,0.013523,0.002678,0.000431,0.004701
31106000,0.0324,0.013523,0.002678,0.000431,0.004701
31107000,0.0324,0.013523,0.002678,0.000431,0.004701
31108000,0.0324,0.013523,0.002678,0.000431,0.060997
31109000,0.0324,0.013523,0.002678,0.000431,0.113885
31110000,0.0324,0.013523,0.002678,0.000431,0.019745
31111000,0.0324,0.013523,0.002678,0.000431,0.004466
31112000,0.0324,0.013523,0.002678,0.000431,0.004701
31113000,0.0324,0.013523,0.002678,0.000431,0.042310
31114000,0.0324,0.013523,0.002678,0.000431,0.004936
31115000,0.0324,0.013523,0.002678,0.000431,0.004701
31116000,0.0324,0.013523,0.002678,0.000431,0.019745
31117000,0.0324,0.013523,0.002678,0.000431,0.004701
31118000,0.0324,0.013523,0.002678,0.000431,0.004701
31119000,0.0324,0.013523,0.002678,0.000431,0.004466
31120000,0.0324,0.013523,0.002678,0.000431,0.027267
31121000,0.0324,0.013523,0.002678,0.000431,0.019745
31122000,0.0324,0.013523,0.002678,0.000431,0.027267
31123000,0.0324,0.013523,0.002678,0.000431,0.004701
31124000,0.0324,0.013523,0.002678,0.000431,0.088381
31125000,0.0324,0.013523,0.002678,0.000431,0.011048
31126000,0.0324,0.013523,0.002678,0.000431,0.012223
31127000,0.0324,0.013523,0.002678,0.000431,0.004701
31128000,0.0324,0.013523,0.002678,0.000431,0.004701
31129000,0.0324,0.013523,0.002678,0.000431,0.012223
31130000,0.0324,0.013523,0.002678,0.000431,0.004701
31131000,0.0324,0.013523,0.002678,0.000431,0.012223
31132000,0.0324,0.013523,0.002678,0.000431,0.004701
31133000,0.0324,0.013523,0.002678,0.000431,0.019745
31134000,0.0324,0.013523,0.002678,0.000431,0.004701
31135000,0.0324,0.013523,0.002678,0.000431,0.061585
31136000,0.0324,0.013523,0.002678,0.000431,0.015514
31137000,0.0324,0.013523,0.002678,0.000431,0.027267
31138000,0.0324,0.013523,0.002678,0.000431,0.012223
31139000,0.0324,0.013523,0.002678,0.000431,0.012223
31140000,0.0324,0.013523,0.002678,0.000431,0.004701
31141000,0.0324,0.013523,0.002678,0.000431,0.004701
31142000,0.0324,0.013523,0.002678,0.000431,0.004701
31143000,0.0324,0.013523,0.002678,0.000431,0.004701
31144000,0.0324,0.013523,0.002678,0.000431,0.012223
31145000,0.0324,0.013523,0.002678,0.000431,0.004701
31146000,0.0324,0.013523,0.002678,0.000431,0.004701
31147000,0.0324,0.013523,0.002678,0.000431,0.004701
31148000,0.0324,0.013523,0.002678,0.000431,0.012458
31149000,0.0324,0.013523,0.002678,0.000431,0.004584
31150000,0.0324,0.013523,0.002678,0.000431,0.004584
31151000,0.0324,0.013523,0.002678,0.000431,0.004584
31152000,0.0324,0.013523,0.002678,0.000431,0.034671
31153000,0.0324,0.013523,0.002678,0.000431,0.004701
31154000,0.0324,0.013523,0.002678,0.000431,0.004701
31155000,0.0324,0.013523,0.002678,0.000431,0.049832
31156000,0.0324,0.013523,0.002678,0.000431,0.004701
31157000,0.0324,0.013523,0.002678,0.000431,0.012223
31158000,0.0324,0.013523,0.002678,0.000431,0.004466
31159000,0.0324,0.013523,0.002678,0.000431,0.004466
31160000,0.0324,0.013523,0.002678,0.000431,0.004701
31161000,0.0324,0.013523,0.002678,0.000431,0.031027
31162000,0.0324,0.013523,0.002678,0.000431,0.008462
31163000,0.0324,0.013523,0.002678,0.000431,0.019745
31164000,0.0324,0.013523,0.002678,0.000431,0.004701
31165000,0.0324,0.013523,0.002678,0.000431,0.019745
31166000,0.0324,0.013523,0.002678,0.000431,0.004701
31167000,0.0324,0.013523,0.002678,0.000431,0.102485
31168000,0.0324,0.013523,0.002678,0.000431,0.004701
31169000,0.0324,0.013523,0.002678,0.000431,0.057471
31170000,0.0324,0.013523,0.002678,0.000431,0.042310
31171000,0.0324,0.013523,0.002678,0.000431,0.046424
31172000,0.0324,0.013523,0.002678,0.000431,0.030557
31173000,0.0324,0.013523,0.002678,0.000431,0.036199
31174000,0.0324,0.013523,0.002678,0.000431,0.040900
31175000,0.0324,0.013523,0.002678,0.000431,0.004701
31176000,0.0324,0.013523,0.002678,0.000431,0.004701
31177000,0.0324,0.013523,0.002678,0.000431,0.004701
31178000,0.0324,0.013523,0.002678,0.000431,0.027267
31179000,0.0324,0.013523,0.002678,0.000431,0.004701
31180000,0.0324,0.013523,0.002678,0.000431,0.004701
31181000,0.0324,0.013523,0.002678,0.000431,0.004701
31182000,0.0324,0.013523,0.002678,0.000431,0.039489
31183000,0.0324,0.013523,0.002678,0.000431,0.030322
31184000,0.0324,0.013523,0.002678,0.000431,0.050302
31185000,0.0324,0.013523,0.002678,0.000431,0.012223
31186000,0.0324,0.013523,0.002678,0.000431,0.039019
31187000,0.0324,0.013523,0.002678,0.000431,0.015984
31188000,0.0324,0.013523,0.002678,0.000431,0.004701
31189000,0.0324,0.013523,0.002678,0.000431,0.034553
31190000,0.0324,0.013523,0.002678,0.000431,0.012458
31191000,0.0324,0.013523,0.002678,0.000431,0.011635
31192000,0.0324,0.013523,0.002678,0.000431,0.004584
31193000,0.0324,0.013523,0.002678,0.000431,0.087911
31194000,0.0324,0.013523,0.002678,0.000431,0.004701
31195000,0.0324,0.013523,0.002678,0.000431,0.004701
31196000,0.0324,0.013523,0.002678,0.000431,0.012223
31197000,0.0324,0.013523,0.002678,0.000431,0.004701
31198000,0.0324,0.013523,0.002678,0.000431,0.004701
31199000,0.0324,0.013523,0.002678,0.000431,0.004701
31200000,0.0324,0.013523,0.002678,0.000431,0.019745
31201000,0.0324,0.013523,0.002678,0.000431,0.005406
31202000,0.0324,0.013523,0.002678,0.000431,0.041370
31203000,0.0324,0.013523,0.002678,0.000431,0.004701
31204000,0.0324,0.013523,0.002678,0.000431,0.004701
31205000,0.0324,0.013523,0.002678,0.000431,0.004701
31206000,0.0324,0.013523,0.002678,0.000431,0.102955
31207000,0.0324,0.013523,0.002678,0.000431,0.019980
31208000,0.0324,0.013523,0.002678,0.000431,0.034788
31209000,0.0324,0.013523,0.002678,0.000431,0.012223
31210000,0.0324,0.013523,0.002678,0.000431,0.012105
31211000,0.0324,0.013523,0.002678,0.000431,0.004584
31212000,0.0324,0.013523,0.002678,0.000431,0.004936
31213000,0.0324,0.013523,0.002678,0.000431,0.004701
31214000,0.0324,0.013523,0.002678,0.000431,0.004701
31215000,0.0324,0.013523,0.002678,0.000431,0.012223
31216000,0.0324,0.013523,0.002678,0.000431,0.004701
31217000,0.0324,0.013523,0.002678,0.000431,0.004701
31218000,0.0324,0.013523,0.002678,0.000431,0.004701
31219000,0.0324,0.013523,0.002678,0.000431,0.019745
31220000,0.0324,0.013523,0.002678,0.000431,0.004701
31221000,0.0324,0.013523,0.002678,0.000431,0.049832
31222000,0.0324,0.013523,0.002678,0.000431,0.019980
31223000,0.0324,0.013523,0.002678,0.000431,0.004701
31224000,0.0324,0.013523,0.002678,0.000431,0.034788
31225000,0.0324,0.013523,0.002678,0.000431,0.019745
31226000,0.0324,0.013523,0.002678,0.000431,0.004701
31227000,0.0324,0.013523,0.002678,0.000431,0.004701
31228000,0.0324,0.013523,0.002678,0.000431,0.092965
31229000,0.0324,0.013523,0.002678,0.000431,0.044308
31230000,0.0324,0.013523,0.002678,0.000431,0.004584
31231000,0.0324,0.013523,0.002678,0.000431,0.004584
31232000,0.0324,0.013523,0.002678,0.000431,0.004466
31233000,0.0324,0.013523,0.002678,0.000431,0.004701
31234000,0.0324,0.013523,0.002678,0.000431,0.004701
31235000,0.0324,0.013523,0.002678,0.000431,0.102485
31236000,0.0324,0.013523,0.002678,0.000431,0.004701
31237000,0.0324,0.013523,0.002678,0.000431,0.004701
31238000,0.0324,0.013523,0.002678,0.000431,0.004701
31239000,0.0324,0.013523,0.002678,0.000431,0.004701
31240000,0.0324,0.013523,0.002678,0.000431,0.004701
31241000,0.0324,0.013523,0.002678,0.000431,0.018217
31242000,0.0324,0.013523,0.002678,0.000431,0.051595
31243000,0.0324,0.013523,0.002678,0.000431,0.004701
31244000,0.0324,0.013523,0.002678,0.000431,0.004701
31245000,0.0324,0.013523,0.002678,0.000431,0.004701
31246000,0.0324,0.013523,0.002678,0.000431,0.004701
31247000,0.0324,0.013523,0.002678,0.000431,0.004701
31248000,0.0324,0.013523,0.002678,0.000431,0.027267
31249000,0.0324,0.013523,0.002678,0.000431,0.072397
31250000,0.0324,0.013523,0.002678,0.000431,0.004584
31251000,0.0324,0.013523,0.002678,0.000431,0.004584
31252000,0.0324,0.013523,0.002678,0.000431,0.004701
31253000,0.0324,0.013523,0.002678,0.000431,0.004701
31254000,0.0324,0.013523,0.002678,0.000431,0.080154
31255000,0.0324,0.013523,0.002678,0.000431,0.012223
31256000,0.0324,0.013523,0.002678,0.000431,0.004701
31257000,0.0324,0.013523,0.002678,0.000431,0.004701
31258000,0.0324,0.013523,0.002678,0.000431,0.004701
31259000,0.0324,0.013523,0.002678,0.000431,0.004701
31260000,0.0324,0.013523,0.002678,0.000431,0.014338
31261000,0.0324,0.013523,0.002678,0.000431,0.057941
31262000,0.0324,0.013523,0.002678,0.000431,0.017277
31263000,0.0324,0.013523,0.002678,0.000431,0.004701
31264000,0.0324,0.013523,0.002678,0.000431,0.004701
31265000,0.0324,0.013523,0.002678,0.000431,0.004701
31266000,0.0324,0.013523,0.002678,0.000431,0.011988
31267000,0.0324,0.013523,0.002678,0.000431,0.042545
31268000,0.0324,0.013523,0.002678,0.000431,0.042075
31269000,0.0324,0.013523,0.002678,0.000431,0.004701
31270000,0.0324,0.013523,0.002678,0.000431,0.004584
31271000,0.0324,0.013523,0.002678,0.000431,0.004584
31272000,0.0324,0.013523,0.002678,0.000431,0.011988
31273000,0.0324,0.013523,0.002678,0.000431,0.027267
31274000,0.0324,0.013523,0.002678,0.000431,0.125403
31275000,0.0324,0.013523,0.002678,0.000431,0.012340
31276000,0.0324,0.013523,0.002678,0.000431,0.004701
31277000,0.0324,0.013523,0.002678,0.000431,0.004701
31278000,0.0324,0.013523,0.002678,0.000431,0.008462
31279000,0.0324,0.013523,0.002678,0.000431,0.023506
31280000,0.0324,0.013523,0.002678,0.000431,0.012223
31281000,0.0324,0.013523,0.002678,0.000431,0.004701
31282000,0.0324,0.013523,0.002678,0.000431,0.004701
31283000,0.0324,0.013523,0.002678,0.000431,0.004466
31284000,0.0324,0.013523,0.002678,0.000431,0.004701
31285000,0.0324,0.013523,0.002678,0.000431,0.049479
31286000,0.0324,0.013523,0.002678,0.000431,0.087794
31287000,0.0324,0.013523,0.002678,0.000431,0.034788
31288000,0.0324,0.013523,0.002678,0.000431,0.004701
31289000,0.0324,0.013523,0.002678,0.000431,0.004701
31290000,0.0324,0.013523,0.002678,0.000431,0.019627
31291000,0.0324,0.013523,0.002678,0.000431,0.038549
31292000,0.0324,0.013523,0.002678,0.000431,0.048069
31293000,0.0324,0.013523,0.002678,0.000431,0.055238
31294000,0.0324,0.013523,0.002678,0.000431,0.004701
31295000,0.0324,0.013523,0.002678,0.000431,0.004701
31296000,0.0324,0.013523,0.002678,0.000431,0.153257
31297000,0.0324,0.013523,0.002678,0.000431,0.021390
31298000,0.0324,0.013523,0.002678,0.000431,0.151964
31299000,0.0324,0.013523,0.002678,0.000431,0.022448
31300000,0.0324,0.013523,0.002678,0.000431,0.004701
31301000,0.0324,0.013523,0.002678,0.000431,0.004701
31302000,0.0324,0.013523,0.002678,0.000431,0.012223
31303000,0.0324,0.013523,0.002678,0.000431,0.012223
31304000,0.0324,0.013523,0.002678,0.000431,0.004701
31305000,0.0324,0.013523,0.002678,0.000431,0.004701
31306000,0.0324,0.013523,0.002678,0.000431,0.004701
31307000,0.0324,0.013523,0.002678,0.000431,0.004701
31308000,0.0324,0.013523,0.002678,0.000431,0.004701
31309000,0.0324,0.013523,0.002678,0.000431,0.027267
31310000,0.0324,0.013523,0.002678,0.000431,0.012223
31311000,0.0324,0.013523,0.002678,0.000431,0.004701
31312000,0.0324,0.013523,0.002678,0.000431,0.042310
31313000,0.0324,0.013523,0.002678,0.000431,0.004466
31314000,0.0324,0.013523,0.002678,0.000431,0.004466
31315000,0.0324,0.013523,0.002678,0.000431,0.004701
31316000,0.0324,0.013523,0.002678,0.000431,0.027972
31317000,0.0324,0.013523,0.002678,0.000431,0.008462
31318000,0.0324,0.013523,0.002678,0.000431,0.008462
31319000,0.0324,0.013523,0.002678,0.000431,0.004701
31320000,0.0324,0.013523,0.002678,0.000431,0.004701
31321000,0.0324,0.013523,0.002678,0.000431,0.004701
31322000,0.0324,0.013523,0.002678,0.000431,0.030675
31323000,0.0324,0.013523,0.002678,0.000431,0.008697
31324000,0.0324,0.013523,0.002678,0.000431,0.019627
31325000,0.0324,0.013523,0.002678,0.000431,0.004701
31326000,0.0324,0.013523,0.002678,0.000431,0.027267
31327000,0.0324,0.013523,0.002678,0.000431,0.004701
31328000,0.0324,0.013523,0.002678,0.000431,0.004701
31329000,0.0324,0.013523,0.002678,0.000431,0.004701
31330000,0.0324,0.013523,0.002678,0.000431,0.004701
31331000,0.0324,0.013523,0.002678,0.000431,0.012223
31332000,0.0324,0.013523,0.002678,0.000431,0.034083
31333000,0.0324,0.013523,0.002678,0.000431,0.006817
31334000,0.0324,0.013523,0.002678,0.000431,0.078391
31335000,0.0324,0.013523,0.002678,0.000431,0.072045
31336000,0.0324,0.013523,0.002678,0.000431,0.004701
31337000,0.0324,0.013523,0.002678,0.000431,0.019745
31338000,0.0324,0.013523,0.002678,0.000431,0.004701
31339000,0.0324,0.013523,0.002678,0.000431,0.029500
31340000,0.0324,0.013523,0.002678,0.000431,0.105540
31341000,0.0324,0.013523,0.002678,0.000431,0.006934
31342000,0.0324,0.013523,0.002678,0.000431,0.004701
31343000,0.0324,0.013523,0.002678,0.000431,0.004701
31344000,0.0324,0.013523,0.002678,0.000431,0.004701
31345000,0.0324,0.013523,0.002678,0.000431,0.012223
31346000,0.0324,0.013523,0.002678,0.000431,0.004701
31347000,0.0324,0.013523,0.002678,0.000431,0.004701
31348000,0.0324,0.013523,0.002678,0.000431,0.004701
31349000,0.0324,0.013523,0.002678,0.000431,0.006582
31350000,0.0324,0.013523,0.002678,0.000431,0.032908
31351000,0.0324,0.013523,0.002678,0.000431,0.007874
31352000,0.0324,0.013523,0.002678,0.000431,0.009050
31353000,0.0324,0.013523,0.002678,0.000431,0.079919
31354000,0.0324,0.013523,0.002678,0.000431,0.012223
31355000,0.0324,0.013523,0.002678,0.000431,0.004701
31356000,0.0324,0.013523,0.002678,0.000431,0.102485
31357000,0.0324,0.013523,0.002678,0.000431,0.019745
31358000,0.0324,0.013523,0.002678,0.000431,0.068754
31359000,0.0324,0.013523,0.002678,0.000431,0.009050
31360000,0.0324,0.013523,0.002678,0.000431,0.004701
31361000,0.0324,0.013523,0.002678,0.000431,0.004701
31362000,0.0324,0.013523,0.002678,0.000431,0.070517
31363000,0.0324,0.013523,0.002678,0.000431,0.044191
31364000,0.0324,0.013523,0.002678,0.000431,0.004701
31365000,0.0324,0.013523,0.002678,0.000431,0.034788
31366000,0.0324,0.013523,0.002678,0.000431,0.004701
31367000,0.0324,0.013523,0.002678,0.000431,0.004701
31368000,0.0324,0.013523,0.002678,0.000431,0.004701
31369000,0.0324,0.013523,0.002678,0.000431,0.006934
31370000,0.0324,0.013523,0.002678,0.000431,0.017512
31371000,0.0324,0.013523,0.002678,0.000431,0.027267
31372000,0.0324,0.013523,0.002678,0.000431,0.004701
31373000,0.0324,0.013523,0.002678,0.000431,0.004584
31374000,0.0324,0.013523,0.002678,0.000431,0.034906
31375000,0.0324,0.013523,0.002678,0.000431,0.004701
31376000,0.0324,0.013523,0.002678,0.000431,0.012223
31377000,0.0324,0.013523,0.002678,0.000431,0.012223
31378000,0.0324,0.013523,0.002678,0.000431,0.004701
31379000,0.0324,0.013523,0.002678,0.000431,0.012223
31380000,0.0324,0.013523,0.002678,0.000431,0.098606
31381000,0.0324,0.013523,0.002678,0.000431,0.043250
31382000,0.0324,0.013523,0.002678,0.000431,0.015631
31383000,0.0324,0.013523,0.002678,0.000431,0.004701
31384000,0.0324,0.013523,0.002678,0.000431,0.004701
31385000,0.0324,0.013523,0.002678,0.000431,0.004701
31386000,0.0324,0.013523,0.002678,0.000431,0.008462
31387000,0.0324,0.013523,0.002678,0.000431,0.008462
31388000,0.0324,0.013523,0.002678,0.000431,0.027267
31389000,0.0324,0.013523,0.002678,0.000431,0.012223
31390000,0.0324,0.013523,0.002678,0.000431,0.004701
31391000,0.0324,0.013523,0.002678,0.000431,0.011988
31392000,0.0324,0.013523,0.002678,0.000431,0.004701
31393000,0.0324,0.013523,0.002678,0.000431,0.004701
31394000,0.0324,0.013523,0.002678,0.000431,0.004701
31395000,0.0324,0.013523,0.002678,0.000431,0.102720
31396000,0.0324,0.013523,0.002678,0.000431,0.004701
31397000,0.0324,0.013523,0.002678,0.000431,0.024211
31398000,0.0324,0.013523,0.002678,0.000431,0.015279
31399000,0.0324,0.013523,0.002678,0.000431,0.004701
31400000,0.0324,0.013523,0.002678,0.000431,0.006229
31401000,0.0324,0.013523,0.002678,0.000431,0.010695
31402000,0.0324,0.013523,0.002678,0.000431,0.004466
31403000,0.0324,0.013523,0.002678,0.000431,0.005171
31404000,0.0324,0.013523,0.002678,0.000431,0.242813
31405000,0.0324,0.013523,0.002678,0.000431,0.036669
31406000,0.0324,0.013523,0.002678,0.000431,0.004701
31407000,0.0324,0.013523,0.002678,0.000431,0.034788
31408000,0.0324,0.013523,0.002678,0.000431,0.004701
31409000,0.0324,0.013523,0.002678,0.000431,0.004701
31410000,0.0324,0.013523,0.002678,0.000431,0.007052
31411000,0.0324,0.013523,0.002678,0.000431,0.130456
31412000,0.0324,0.013523,0.002678,0.000431,0.004701
31413000,0.0324,0.013523,0.002678,0.000431,0.004701
31414000,0.0324,0.013523,0.002678,0.000431,0.004701
31415000,0.0324,0.013523,0.002678,0.000431,0.004701
31416000,0.0324,0.013523,0.002678,0.000431,0.004701
31417000,0.0324,0.013523,0.002678,0.000431,0.004701
31418000,0.0324,0.013523,0.002678,0.000431,0.027267
31419000,0.0324,0.013523,0.002678,0.000431,0.004701
31420000,0.0324,0.013523,0.002678,0.000431,0.019745
31421000,0.0324,0.013523,0.002678,0.000431,0.004701
31422000,0.0324,0.013523,0.002678,0.000431,0.004701
31423000,0.0324,0.013523,0.002678,0.000431,0.004701
31424000,0.0324,0.013523,0.002678,0.000431,0.097901
31425000,0.0324,0.013523,0.002678,0.000431,0.054416
31426000,0.0324,0.013523,0.002678,0.000431,0.004701
31427000,0.0324,0.013523,0.002678,0.000431,0.004701
31428000,0.0324,0.013523,0.002678,0.000431,0.083092
31429000,0.0324,0.013523,0.002678,0.000431,0.035611
31430000,0.0324,0.013523,0.002678,0.000431,0.019745
31431000,0.0324,0.013523,0.002678,0.000431,0.015984
31432000,0.0324,0.013523,0.002678,0.000431,0.004701
31433000,0.0324,0.013523,0.002678,0.000431,0.049832
31434000,0.0324,0.013523,0.002678,0.000431,0.004701
31435000,0.0324,0.013523,0.002678,0.000431,0.012223
31436000,0.0324,0.013523,0.002678,0.000431,0.004701
31437000,0.0324,0.013523,0.002678,0.000431,0.004701
31438000,0.0324,0.013523,0.002678,0.000431,0.004701
31439000,0.0324,0.013523,0.002678,0.000431,0.062995
31440000,0.0324,0.013523,0.002678,0.000431,0.014103
31441000,0.0324,0.013523,0.002678,0.000431,0.004701
31442000,0.0324,0.013523,0.002678,0.000431,0.004701
31443000,0.0324,0.013523,0.002678,0.000431,0.012223
31444000,0.0324,0.013523,0.002678,0.000431,0.004701
31445000,0.0324,0.013523,0.002678,0.000431,0.004584
31446000,0.0324,0.013523,0.002678,0.000431,0.117646
31447000,0.0324,0.013523,0.002678,0.000431,0.004701
31448000,0.0324,0.013523,0.002678,0.000431,0.132807
31449000,0.0324,0.013523,0.002678,0.000431,0.064876
31450000,0.0324,0.013523,0.002678,0.000431,0.019745
31451000,0.0324,0.013523,0.002678,0.000431,0.004701
31452000,0.0324,0.013523,0.002678,0.000431,0.004936
31453000,0.0324,0.013523,0.002678,0.000431,0.004701
31454000,0.0324,0.013523,0.002678,0.000431,0.006582
31455000,0.0324,0.013523,0.002678,0.000431,0.025151
31456000,0.0324,0.013523,0.002678,0.000431,0.004701
31457000,0.0324,0.013523,0.002678,0.000431,0.004701
31458000,0.0324,0.013523,0.002678,0.000431,0.004701
31459000,0.0324,0.013523,0.002678,0.000431,0.079919
31460000,0.0324,0.013523,0.002678,0.000431,0.004701
31461000,0.0324,0.013523,0.002678,0.000431,0.004701
31462000,0.0324,0.013523,0.002678,0.000431,0.065111
31463000,0.0324,0.013523,0.002678,0.000431,0.096726
31464000,0.0324,0.013523,0.002678,0.000431,0.010930
31465000,0.0324,0.013523,0.002678,0.000431,0.015749
31466000,0.0324,0.013523,0.002678,0.000431,0.015984
31467000,0.0324,0.013523,0.002678,0.000431,0.008462
31468000,0.0324,0.013523,0.002678,0.000431,0.008227
31469000,0.0324,0.013523,0.002678,0.000431,0.004701
31470000,0.0324,0.013523,0.002678,0.000431,0.004701
31471000,0.0324,0.013523,0.002678,0.000431,0.004701
31472000,0.0324,0.013523,0.002678,0.000431,0.042075
31473000,0.0324,0.013523,0.002678,0.000431,0.004701
31474000,0.0324,0.013523,0.002678,0.000431,0.019745
31475000,0.0324,0.013523,0.002678,0.000431,0.095433
31476000,0.0324,0.013523,0.002678,0.000431,0.019745
31477000,0.0324,0.013523,0.002678,0.000431,0.004701
31478000,0.0324,0.013523,0.002678,0.000431,0.019745
31479000,0.0324,0.013523,0.002678,0.000431,0.004701
31480000,0.0324,0.013523,0.002678,0.000431,0.004701
31481000,0.0324,0.013523,0.002678,0.000431,0.053828
31482000,0.0324,0.013523,0.002678,0.000431,0.038079
31483000,0.0324,0.013523,0.002678,0.000431,0.004701
31484000,0.0324,0.013523,0.002678,0.000431,0.018452
31485000,0.0324,0.013523,0.002678,0.000431,0.043603
31486000,0.0324,0.013523,0.002678,0.000431,0.004701
31487000,0.0324,0.013523,0.002678,0.000431,0.004701
31488000,0.0324,0.013523,0.002678,0.000431,0.004701
31489000,0.0324,0.013523,0.002678,0.000431,0.012223
31490000,0.0324,0.013523,0.002678,0.000431,0.012223
31491000,0.0324,0.013523,0.002678,0.000431,0.027149
31492000,0.0324,0.013523,0.002678,0.000431,0.004584
31493000,0.0324,0.013523,0.002678,0.000431,0.017042
31494000,0.0324,0.013523,0.002678,0.000431,0.007169
31495000,0.0324,0.013523,0.002678,0.000431,0.004701
31496000,0.0324,0.013523,0.002678,0.000431,0.027267
31497000,0.0324,0.013523,0.002678,0.000431,0.004701
31498000,0.0324,0.013523,0.002678,0.000431,0.004701
31499000,0.0324,0.013523,0.002678,0.000431,0.004701
31500000,0.0324,0.013523,0.002678,0.000431,0.117763
31501000,0.0324,0.013523,0.002678,0.000431,0.027267
31502000,0.0324,0.013523,0.002678,0.000431,0.008462
31503000,0.0324,0.013523,0.002678,0.000431,0.008462
31504000,0.0324,0.013523,0.002678,0.000431,0.004701
31505000,0.0324,0.013523,0.002678,0.000431,0.012105
31506000,0.0324,0.013523,0.002678,0.000431,0.048069
31507000,0.0324,0.013523,0.002678,0.000431,0.091319
31508000,0.0324,0.013523,0.002678,0.000431,0.024798
31509000,0.0324,0.013523,0.002678,0.000431,0.012223
31510000,0.0324,0.013523,0.002678,0.000431,0.004701
31511000,0.0324,0.013523,0.002678,0.000431,0.004701
31512000,0.0324,0.013523,0.002678,0.000431,0.004701
31513000,0.0324,0.013523,0.002678,0.000431,0.019745
31514000,0.0324,0.013523,0.002678,0.000431,0.012223
31515000,0.0324,0.013523,0.002678,0.000431,0.034788
31516000,0.0324,0.013523,0.002678,0.000431,0.004701
31517000,0.0324,0.013523,0.002678,0.000431,0.137626
31518000,0.0324,0.013523,0.002678,0.000431,0.067579
31519000,0.0324,0.013523,0.002678,0.000431,0.019040
31520000,0.0324,0.013523,0.002678,0.000431,0.103190
31521000,0.0324,0.013523,0.002678,0.000431,0.034788
31522000,0.0324,0.013523,0.002678,0.000431,0.004701
31523000,0.0324,0.013523,0.002678,0.000431,0.004701
31524000,0.0324,0.013523,0.002678,0.000431,0.004701
31525000,0.0324,0.013523,0.002678,0.000431,0.004701
31526000,0.0324,0.013523,0.002678,0.000431,0.012928
31527000,0.0324,0.013523,0.002678,0.000431,0.004701
31528000,0.0324,0.013523,0.002678,0.000431,0.004701
31529000,0.0324,0.013523,0.002678,0.000431,0.004701
31530000,0.0324,0.013523,0.002678,0.000431,0.004701
31531000,0.0324,0.013523,0.002678,0.000431,0.004701
31532000,0.0324,0.013523,0.002678,0.000431,0.004466
31533000,0.0324,0.013523,0.002678,0.000431,0.011988
31534000,0.0324,0.013523,0.002678,0.000431,0.004701
31535000,0.0324,0.013523,0.002678,0.000431,0.004701
31536000,0.0324,0.013523,0.002678,0.000431,0.004701
31537000,0.0324,0.013523,0.002678,0.000431,0.004701
31538000,0.0324,0.013523,0.002678,0.000431,0.004701
31539000,0.0324,0.013523,0.002678,0.000431,0.011988
31540000,0.0324,0.013523,0.002678,0.000431,0.040900
31541000,0.0324,0.013523,0.002678,0.000431,0.021155
31542000,0.0324,0.013523,0.002678,0.000431,0.004701
31543000,0.0324,0.013523,0.002678,0.000431,0.057354
31544000,0.0324,0.013523,0.002678,0.000431,0.004701
31545000,0.0324,0.013523,0.002678,0.000431,0.004701
31546000,0.0324,0.013523,0.002678,0.000431,0.042310
31547000,0.0324,0.013523,0.002678,0.000431,0.004701
31548000,0.0324,0.013523,0.002678,0.000431,0.020567
31549000,0.0324,0.013523,0.002678,0.000431,0.071810
31550000,0.0324,0.013523,0.002678,0.000431,0.072632
31551000,0.0324,0.013523,0.002678,0.000431,0.004466
31552000,0.0324,0.013523,0.002678,0.000431,0.012223
31553000,0.0324,0.013523,0.002678,0.000431,0.004701
31554000,0.0324,0.013523,0.002678,0.000431,0.004701
31555000,0.0324,0.013523,0.002678,0.000431,0.020450
31556000,0.0324,0.013523,0.002678,0.000431,0.040665
31557000,0.0324,0.013523,0.002678,0.000431,0.029147
31558000,0.0324,0.013523,0.002678,0.000431,0.019745
31559000,0.0324,0.013523,0.002678,0.000431,0.004466
31560000,0.0324,0.013523,0.002678,0.000431,0.004701
31561000,0.0324,0.013523,0.002678,0.000431,0.016101
31562000,0.0324,0.013523,0.002678,0.000431,0.016101
31563000,0.0324,0.013523,0.002678,0.000431,0.004701
31564000,0.0324,0.013523,0.002678,0.000431,0.004584
31565000,0.0324,0.013523,0.002678,0.000431,0.034671
31566000,0.0324,0.013523,0.002678,0.000431,0.004701
31567000,0.0324,0.013523,0.002678,0.000431,0.004701
31568000,0.0324,0.013523,0.002678,0.000431,0.027267
31569000,0.0324,0.013523,0.002678,0.000431,0.012223
31570000,0.0324,0.013523,0.002678,0.000431,0.012223
31571000,0.0324,0.013523,0.002678,0.000431,0.004701
31572000,0.0324,0.013523,0.002678,0.000431,0.049832
31573000,0.0324,0.013523,0.002678,0.000431,0.004701
31574000,0.0324,0.013523,0.002678,0.000431,0.029735
31575000,0.0324,0.013523,0.002678,0.000431,0.017277
31576000,0.0324,0.013523,0.002678,0.000431,0.034788
31577000,0.0324,0.013523,0.002678,0.000431,0.004701
31578000,0.0324,0.013523,0.002678,0.000431,0.035023
31579000,0.0324,0.013523,0.002678,0.000431,0.004701
31580000,0.0324,0.013523,0.002678,0.000431,0.004701
31581000,0.0324,0.013523,0.002678,0.000431,0.072867
31582000,0.0324,0.013523,0.002678,0.000431,0.004701
31583000,0.0324,0.013523,0.002678,0.000431,0.004701
31584000,0.0324,0.013523,0.002678,0.000431,0.011518
31585000,0.0324,0.013523,0.002678,0.000431,0.035494
31586000,0.0324,0.013523,0.002678,0.000431,0.004701
31587000,0.0324,0.013523,0.002678,0.000431,0.004701
31588000,0.0324,0.013523,0.002678,0.000431,0.004701
31589000,0.0324,0.013523,0.002678,0.000431,0.004936
31590000,0.0324,0.013523,0.002678,0.000431,0.004701
31591000,0.0324,0.013523,0.002678,0.000431,0.004466
31592000,0.0324,0.013523,0.002678,0.000431,0.004701
31593000,0.0324,0.013523,0.002678,0.000431,0.004701
31594000,0.0324,0.013523,0.002678,0.000431,0.019745
31595000,0.0324,0.013523,0.002678,0.000431,0.019745
31596000,0.0324,0.013523,0.002678,0.000431,0.004701
31597000,0.0324,0.013523,0.002678,0.000431,0.038314
31598000,0.0324,0.013523,0.002678,0.000431,0.008462
31599000,0.0324,0.013523,0.002678,0.000431,0.004466
31600000,0.0324,0.013523,0.002678,0.000431,0.004701
31601000,0.0324,0.013523,0.002678,0.000431,0.004701
31602000,0.0324,0.013523,0.002678,0.000431,0.004701
31603000,0.0324,0.013523,0.002678,0.000431,0.012223
31604000,0.0324,0.013523,0.002678,0.000431,0.004701
31605000,0.0324,0.013523,0.002678,0.000431,0.004466
31606000,0.0324,0.013523,0.002678,0.000431,0.004701
31607000,0.0324,0.013523,0.002678,0.000431,0.027267
31608000,0.0324,0.013523,0.002678,0.000431,0.004701
31609000,0.0324,0.013523,0.002678,0.000431,0.004701
31610000,0.0324,0.013523,0.002678,0.000431,0.012223
31611000,0.0324,0.013523,0.002678,0.000431,0.004701
31612000,0.0324,0.013523,0.002678,0.000431,0.004701
31613000,0.0324,0.013523,0.002678,0.000431,0.004936
31614000,0.0324,0.013523,0.002678,0.000431,0.004701
31615000,0.0324,0.013523,0.002678,0.000431,0.004701
31616000,0.0324,0.013523,0.002678,0.000431,0.004701
31617000,0.0324,0.013523,0.002678,0.000431,0.019745
31618000,0.0324,0.013523,0.002678,0.000431,0.004701
31619000,0.0324,0.013523,0.002678,0.000431,0.007639
31620000,0.0324,0.013523,0.002678,0.000431,0.009285
31621000,0.0324,0.013523,0.002678,0.000431,0.004701
31622000,0.0324,0.013523,0.002678,0.000431,0.009520
31623000,0.0324,0.013523,0.002678,0.000431,0.029970
31624000,0.0324,0.013523,0.002678,0.000431,0.012223
31625000,0.0324,0.013523,0.002678,0.000431,0.034788
31626000,0.0324,0.013523,0.002678,0.000431,0.004701
31627000,0.0324,0.013523,0.002678,0.000431,0.037609
31628000,0.0324,0.013523,0.002678,0.000431,0.016924
31629000,0.0324,0.013523,0.002678,0.000431,0.008462
31630000,0.0324,0.013523,0.002678,0.000431,0.091437
31631000,0.0324,0.013523,0.002678,0.000431,0.004466
31632000,0.0324,0.013523,0.002678,0.000431,0.004701
31633000,0.0324,0.013523,0.002678,0.000431,0.004701
31634000,0.0324,0.013523,0.002678,0.000431,0.004701
31635000,0.0324,0.013523,0.002678,0.000431,0.004701
31636000,0.0324,0.013523,0.002678,0.000431,0.012105
31637000,0.0324,0.013523,0.002678,0.000431,0.012105
31638000,0.0324,0.013523,0.002678,0.000431,0.004701
31639000,0.0324,0.013523,0.002678,0.000431,0.004584
31640000,0.0324,0.013523,0.002678,0.000431,0.027149
31641000,0.0324,0.013523,0.002678,0.000431,0.004701
31642000,0.0324,0.013523,0.002678,0.000431,0.004701
31643000,0.0324,0.013523,0.002678,0.000431,0.008462
31644000,0.0324,0.013523,0.002678,0.000431,0.076158
31645000,0.0324,0.013523,0.002678,0.000431,0.030910
31646000,0.0324,0.013523,0.002678,0.000431,0.008345
31647000,0.0324,0.013523,0.002678,0.000431,0.042780
31648000,0.0324,0.013523,0.002678,0.000431,0.004701
31649000,0.0324,0.013523,0.002678,0.000431,0.004701
31650000,0.0324,0.013523,0.002678,0.000431,0.004701
31651000,0.0324,0.013523,0.002678,0.000431,0.004701
31652000,0.0324,0.013523,0.002678,0.000431,0.057589
31653000,0.0324,0.013523,0.002678,0.000431,0.027502
31654000,0.0324,0.013523,0.002678,0.000431,0.004701
31655000,0.0324,0.013523,0.002678,0.000431,0.004701
31656000,0.0324,0.013523,0.002678,0.000431,0.004701
31657000,0.0324,0.013523,0.002678,0.000431,0.004701
31658000,0.0324,0.013523,0.002678,0.000431,0.034788
31659000,0.0324,0.013523,0.002678,0.000431,0.008462
31660000,0.0324,0.013523,0.002678,0.000431,0.053358
31661000,0.0324,0.013523,0.002678,0.000431,0.004701
31662000,0.0324,0.013523,0.002678,0.000431,0.004701
31663000,0.0324,0.013523,0.002678,0.000431,0.004701
31664000,0.0324,0.013523,0.002678,0.000431,0.004584
31665000,0.0324,0.013523,0.002678,0.000431,0.004584
31666000,0.0324,0.013523,0.002678,0.000431,0.064523
31667000,0.0324,0.013523,0.002678,0.000431,0.005054
31668000,0.0324,0.013523,0.002678,0.000431,0.004701
31669000,0.0324,0.013523,0.002678,0.000431,0.004701
31670000,0.0324,0.013523,0.002678,0.000431,0.004701
31671000,0.0324,0.013523,0.002678,0.000431,0.019510
31672000,0.0324,0.013523,0.002678,0.000431,0.004701
31673000,0.0324,0.013523,0.002678,0.000431,0.019980
31674000,0.0324,0.013523,0.002678,0.000431,0.004701
31675000,0.0324,0.013523,0.002678,0.000431,0.004701
31676000,0.0324,0.013523,0.002678,0.000431,0.004584
31677000,0.0324,0.013523,0.002678,0.000431,0.004584
31678000,0.0324,0.013523,0.002678,0.000431,0.004701
31679000,0.0324,0.013523,0.002678,0.000431,0.027619
31680000,0.0324,0.013523,0.002678,0.000431,0.004584
31681000,0.0324,0.013523,0.002678,0.000431,0.004701
31682000,0.0324,0.013523,0.002678,0.000431,0.088851
31683000,0.0324,0.013523,0.002678,0.000431,0.026561
31684000,0.0324,0.013523,0.002678,0.000431,0.049832
31685000,0.0324,0.013523,0.002678,0.000431,0.008227
31686000,0.0324,0.013523,0.002678,0.000431,0.023741
31687000,0.0324,0.013523,0.002678,0.000431,0.004701
31688000,0.0324,0.013523,0.002678,0.000431,0.004701
31689000,0.0324,0.013523,0.002678,0.000431,0.004701
31690000,0.0324,0.013523,0.002678,0.000431,0.073455
31691000,0.0324,0.013523,0.002678,0.000431,0.041487
31692000,0.0324,0.013523,0.002678,0.000431,0.027267
31693000,0.0324,0.013523,0.002678,0.000431,0.042310
31694000,0.0324,0.013523,0.002678,0.000431,0.004701
31695000,0.0324,0.013523,0.002678,0.000431,0.038549
31696000,0.0324,0.013523,0.002678,0.000431,0.015984
31697000,0.0324,0.013523,0.002678,0.000431,0.012223
31698000,0.0324,0.013523,0.002678,0.000431,0.004701
31699000,0.0324,0.013523,0.002678,0.000431,0.027619
31700000,0.0324,0.013523,0.002678,0.000431,0.005876
31701000,0.0324,0.013523,0.002678,0.000431,0.005876
31702000,0.0324,0.013523,0.002678,0.000431,0.035964
31703000,0.0324,0.013523,0.002678,0.000431,0.005876
31704000,0.0324,0.013523,0.002678,0.000431,0.005876
31705000,0.0324,0.013523,0.002678,0.000431,0.013986
31706000,0.0324,0.013523,0.002678,0.000431,0.011988
31707000,0.0324,0.013523,0.002678,0.000431,0.027267
31708000,0.0324,0.013523,0.002678,0.000431,0.004701
31709000,0.0324,0.013523,0.002678,0.000431,0.004701
31710000,0.0324,0.013523,0.002678,0.000431,0.004701
31711000,0.0324,0.013523,0.002678,0.000431,0.004701
31712000,0.0324,0.013523,0.002678,0.000431,0.004701
31713000,0.0324,0.013523,0.002678,0.000431,0.010225
31714000,0.0324,0.013523,0.002678,0.000431,0.021743
31715000,0.0324,0.013523,0.002678,0.000431,0.004936
31716000,0.0324,0.013523,0.002678,0.000431,0.057119
31717000,0.0324,0.013523,0.002678,0.000431,0.004701
31718000,0.0324,0.013523,0.002678,0.000431,0.004819
31719000,0.0324,0.013523,0.002678,0.000431,0.020920
31720000,0.0324,0.013523,0.002678,0.000431,0.005876
31721000,0.0324,0.013523,0.002678,0.000431,0.020332
31722000,0.0324,0.013523,0.002678,0.000431,0.004584
31723000,0.0324,0.013523,0.002678,0.000431,0.004349
31724000,0.0324,0.013523,0.002678,0.000431,0.004701
31725000,0.0324,0.013523,0.002678,0.000431,0.012223
31726000,0.0324,0.013523,0.002678,0.000431,0.012223
31727000,0.0324,0.013523,0.002678,0.000431,0.034788
31728000,0.0324,0.013523,0.002678,0.000431,0.009872
31729000,0.0324,0.013523,0.002678,0.000431,0.074748
31730000,0.0324,0.013523,0.002678,0.000431,0.004701
31731000,0.0324,0.013523,0.002678,0.000431,0.004701
31732000,0.0324,0.013523,0.002678,0.000431,0.034788
31733000,0.0324,0.013523,0.002678,0.000431,0.027854
31734000,0.0324,0.013523,0.002678,0.000431,0.005876
31735000,0.0324,0.013523,0.002678,0.000431,0.005876
31736000,0.0324,0.013523,0.002678,0.000431,0.005876
31737000,0.0324,0.013523,0.002678,0.000431,0.005876
31738000,0.0324,0.013523,0.002678,0.000431,0.005876
31739000,0.0324,0.013523,0.002678,0.000431,0.013398
31740000,0.0324,0.013523,0.002678,0.000431,0.004584
31741000,0.0324,0.013523,0.002678,0.000431,0.004701
31742000,0.0324,0.013523,0.002678,0.000431,0.004701
31743000,0.0324,0.013523,0.002678,0.000431,0.004701
31744000,0.0324,0.013523,0.002678,0.000431,0.004701
31745000,0.0324,0.013523,0.002678,0.000431,0.004701
31746000,0.0324,0.013523,0.002678,0.000431,0.012223
31747000,0.0324,0.013523,0.002678,0.000431,0.004701
31748000,0.0324,0.013523,0.002678,0.000431,0.004701
31749000,0.0324,0.013523,0.002678,0.000431,0.004701
31750000,0.0324,0.013523,0.002678,0.000431,0.004701
31751000,0.0324,0.013523,0.002678,0.000431,0.004701
31752000,0.0324,0.013523,0.002678,0.000431,0.012223
31753000,0.0324,0.013523,0.002678,0.000431,0.012223
31754000,0.0324,0.013523,0.002678,0.000431,0.008462
31755000,0.0324,0.013523,0.002678,0.000431,0.008462
31756000,0.0324,0.013523,0.002678,0.000431,0.004701
31757000,0.0324,0.013523,0.002678,0.000431,0.004701
31758000,0.0324,0.013523,0.002678,0.000431,0.004584
31759000,0.0324,0.013523,0.002678,0.000431,0.005171
31760000,0.0324,0.013523,0.002678,0.000431,0.005876
31761000,0.0324,0.013523,0.002678,0.000431,0.015631
31762000,0.0324,0.013523,0.002678,0.000431,0.006934
31763000,0.0324,0.013523,0.002678,0.000431,0.004466
31764000,0.0324,0.013523,0.002678,0.000431,0.004584
31765000,0.0324,0.013523,0.002678,0.000431,0.004701
31766000,0.0324,0.013523,0.002678,0.000431,0.004701
31767000,0.0324,0.013523,0.002678,0.000431,0.004701
31768000,0.0324,0.013523,0.002678,0.000431,0.034788
31769000,0.0324,0.013523,0.002678,0.000431,0.004701
31770000,0.0324,0.013523,0.002678,0.000431,0.004701
31771000,0.0324,0.013523,0.002678,0.000431,0.004701
31772000,0.0324,0.013523,0.002678,0.000431,0.019745
31773000,0.0324,0.013523,0.002678,0.000431,0.004701
31774000,0.0324,0.013523,0.002678,0.000431,0.013986
31775000,0.0324,0.013523,0.002678,0.000431,0.010460
31776000,0.0324,0.013523,0.002678,0.000431,0.004701
31777000,0.0324,0.013523,0.002678,0.000431,0.004584
31778000,0.0324,0.013523,0.002678,0.000431,0.004584
31779000,0.0324,0.013523,0.002678,0.000431,0.027267
31780000,0.0324,0.013523,0.002678,0.000431,0.004701
31781000,0.0324,0.013523,0.002678,0.000431,0.004701
31782000,0.0324,0.013523,0.002678,0.000431,0.004701
31783000,0.0324,0.013523,0.002678,0.000431,0.004701
31784000,0.0324,0.013523,0.002678,0.000431,0.004701
31785000,0.0324,0.013523,0.002678,0.000431,0.004701
31786000,0.0324,0.013523,0.002678,0.000431,0.007874
31787000,0.0324,0.013523,0.002678,0.000431,0.009050
31788000,0.0324,0.013523,0.002678,0.000431,0.004701
31789000,0.0324,0.013523,0.002678,0.000431,0.004701
31790000,0.0324,0.013523,0.002678,0.000431,0.004701
31791000,0.0324,0.013523,0.002678,0.000431,0.004701
31792000,0.0324,0.013523,0.002678,0.000431,0.004701
31793000,0.0324,0.013523,0.002678,0.000431,0.095080
31794000,0.0324,0.013523,0.002678,0.000431,0.011635
31795000,0.0324,0.013523,0.002678,0.000431,0.004701
31796000,0.0324,0.013523,0.002678,0.000431,0.004701
31797000,0.0324,0.013523,0.002678,0.000431,0.004701
31798000,0.0324,0.013523,0.002678,0.000431,0.004701
31799000,0.0324,0.013523,0.002678,0.000431,0.004701
31800000,0.0324,0.013523,0.002678,0.000431,0.004701
31801000,0.0324,0.013523,0.002678,0.000431,0.004701
31802000,0.0324,0.013523,0.002678,0.000431,0.004701
31803000,0.0324,0.013523,0.002678,0.000431,0.004349
31804000,0.0324,0.013523,0.002678,0.000431,0.004584
31805000,0.0324,0.013523,0.002678,0.000431,0.012223
31806000,0.0324,0.013523,0.002678,0.000431,0.069694
31807000,0.0324,0.013523,0.002678,0.000431,0.052065
31808000,0.0324,0.013523,0.002678,0.000431,0.004701
31809000,0.0324,0.013523,0.002678,0.000431,0.012223
31810000,0.0324,0.013523,0.002678,0.000431,0.004701
31811000,0.0324,0.013523,0.002678,0.000431,0.004819
31812000,0.0324,0.013523,0.002678,0.000431,0.005876
31813000,0.0324,0.013523,0.002678,0.000431,0.028207
31814000,0.0324,0.013523,0.002678,0.000431,0.009990
31815000,0.0324,0.013523,0.002678,0.000431,0.004701
31816000,0.0324,0.013523,0.002678,0.000431,0.012693
31817000,0.0324,0.013523,0.002678,0.000431,0.020332
31818000,0.0324,0.013523,0.002678,0.000431,0.005876
31819000,0.0324,0.013523,0.002678,0.000431,0.005876
31820000,0.0324,0.013523,0.002678,0.000431,0.005406
31821000,0.0324,0.013523,0.002678,0.000431,0.005876
31822000,0.0324,0.013523,0.002678,0.000431,0.005876
31823000,0.0324,0.013523,0.002678,0.000431,0.057824
31824000,0.0324,0.013523,0.002678,0.000431,0.004584
31825000,0.0324,0.013523,0.002678,0.000431,0.004701
31826000,0.0324,0.013523,0.002678,0.000431,0.088029
31827000,0.0324,0.013523,0.002678,0.000431,0.005876
31828000,0.0324,0.013523,0.002678,0.000431,0.013751
31829000,0.0324,0.013523,0.002678,0.000431,0.007052
31830000,0.0324,0.013523,0.002678,0.000431,0.007052
31831000,0.0324,0.013523,0.002678,0.000431,0.007052
31832000,0.0324,0.013523,0.002678,0.000431,0.010695
31833000,0.0324,0.013523,0.002678,0.000431,0.009637
31834000,0.0324,0.013523,0.002678,0.000431,0.006817
31835000,0.0324,0.013523,0.002678,0.000431,0.019627
31836000,0.0324,0.013523,0.002678,0.000431,0.005524
31837000,0.0324,0.013523,0.002678,0.000431,0.005876
31838000,0.0324,0.013523,0.002678,0.000431,0.005876
31839000,0.0324,0.013523,0.002678,0.000431,0.058294
31840000,0.0324,0.013523,0.002678,0.000431,0.005876
31841000,0.0324,0.013523,0.002678,0.000431,0.028324
31842000,0.0324,0.013523,0.002678,0.000431,0.024563
31843000,0.0324,0.013523,0.002678,0.000431,0.014926
31844000,0.0324,0.013523,0.002678,0.000431,0.004701
31845000,0.0324,0.013523,0.002678,0.000431,0.012340
31846000,0.0324,0.013523,0.002678,0.000431,0.005876
31847000,0.0324,0.013523,0.002678,0.000431,0.013398
31848000,0.0324,0.013523,0.002678,0.000431,0.035964
31849000,0.0324,0.013523,0.002678,0.000431,0.095903
31850000,0.0324,0.013523,0.002678,0.000431,0.005876
31851000,0.0324,0.013523,0.002678,0.000431,0.005876
31852000,0.0324,0.013523,0.002678,0.000431,0.043485
31853000,0.0324,0.013523,0.002678,0.000431,0.005876
31854000,0.0324,0.013523,0.002678,0.000431,0.043485
31855000,0.0324,0.013523,0.002678,0.000431,0.013633
31856000,0.0324,0.013523,0.002678,0.000431,0.005876
31857000,0.0324,0.013523,0.002678,0.000431,0.005876
31858000,0.0324,0.013523,0.002678,0.000431,0.020567
31859000,0.0324,0.013523,0.002678,0.000431,0.004701
31860000,0.0324,0.013523,0.002678,0.000431,0.015631
31861000,0.0324,0.013523,0.002678,0.000431,0.045954
31862000,0.0324,0.013523,0.002678,0.000431,0.042310
31863000,0.0324,0.013523,0.002678,0.000431,0.004466
31864000,0.0324,0.013523,0.002678,0.000431,0.004701
31865000,0.0324,0.013523,0.002678,0.000431,0.004701
31866000,0.0324,0.013523,0.002678,0.000431,0.004466
31867000,0.0324,0.013523,0.002678,0.000431,0.034788
31868000,0.0324,0.013523,0.002678,0.000431,0.044191
31869000,0.0324,0.013523,0.002678,0.000431,0.015044
31870000,0.0324,0.013523,0.002678,0.000431,0.004466
31871000,0.0324,0.013523,0.002678,0.000431,0.072632
31872000,0.0324,0.013523,0.002678,0.000431,0.004701
31873000,0.0324,0.013523,0.002678,0.000431,0.008462
31874000,0.0324,0.013523,0.002678,0.000431,0.008462
31875000,0.0324,0.013523,0.002678,0.000431,0.004701
31876000,0.0324,0.013523,0.002678,0.000431,0.004701
31877000,0.0324,0.013523,0.002678,0.000431,0.004701
31878000,0.0324,0.013523,0.002678,0.000431,0.004701
31879000,0.0324,0.013523,0.002678,0.000431,0.004701
31880000,0.0324,0.013523,0.002678,0.000431,0.004701
31881000,0.0324,0.013523,0.002678,0.000431,0.004701
31882000,0.0324,0.013523,0.002678,0.000431,0.004701
31883000,0.0324,0.013523,0.002678,0.000431,0.010813
31884000,0.0324,0.013523,0.002678,0.000431,0.013633
31885000,0.0324,0.013523,0.002678,0.000431,0.004701
31886000,0.0324,0.013523,0.002678,0.000431,0.019745
31887000,0.0324,0.013523,0.002678,0.000431,0.004701
31888000,0.0324,0.013523,0.002678,0.000431,0.004701
31889000,0.0324,0.013523,0.002678,0.000431,0.004701
31890000,0.0324,0.013523,0.002678,0.000431,0.050772
31891000,0.0324,0.013523,0.002678,0.000431,0.019040
31892000,0.0324,0.013523,0.002678,0.000431,0.004701
31893000,0.0324,0.013523,0.002678,0.000431,0.005054
31894000,0.0324,0.013523,0.002678,0.000431,0.005876
31895000,0.0324,0.013523,0.002678,0.000431,0.005876
31896000,0.0324,0.013523,0.002678,0.000431,0.005876
31897000,0.0324,0.013523,0.002678,0.000431,0.015631
31898000,0.0324,0.013523,0.002678,0.000431,0.004701
31899000,0.0324,0.013523,0.002678,0.000431,0.059822
31900000,0.0324,0.013523,0.002678,0.000431,0.009637
31901000,0.0324,0.013523,0.002678,0.000431,0.004349
31902000,0.0324,0.013523,0.002678,0.000431,0.004701
31903000,0.0324,0.013523,0.002678,0.000431,0.039607
31904000,0.0324,0.013523,0.002678,0.000431,0.041017
31905000,0.0324,0.013523,0.002678,0.000431,0.031733
31906000,0.0324,0.013523,0.002678,0.000431,0.004466
31907000,0.0324,0.013523,0.002678,0.000431,0.004701
31908000,0.0324,0.013523,0.002678,0.000431,0.004701
31909000,0.0324,0.013523,0.002678,0.000431,0.004701
31910000,0.0324,0.013523,0.002678,0.000431,0.012223
31911000,0.0324,0.013523,0.002678,0.000431,0.004701
31912000,0.0324,0.013523,0.002678,0.000431,0.004701
31913000,0.0324,0.013523,0.002678,0.000431,0.004819
31914000,0.0324,0.013523,0.002678,0.000431,0.005876
31915000,0.0324,0.013523,0.002678,0.000431,0.005876
31916000,0.0324,0.013523,0.002678,0.000431,0.005876
31917000,0.0324,0.013523,0.002678,0.000431,0.005876
31918000,0.0324,0.013523,0.002678,0.000431,0.005876
31919000,0.0324,0.013523,0.002678,0.000431,0.021273
31920000,0.0324,0.013523,0.002678,0.000431,0.004701
31921000,0.0324,0.013523,0.002678,0.000431,0.004701
31922000,0.0324,0.013523,0.002678,0.000431,0.011988
31923000,0.0324,0.013523,0.002678,0.000431,0.004701
31924000,0.0324,0.013523,0.002678,0.000431,0.004701
31925000,0.0324,0.013523,0.002678,0.000431,0.004701
31926000,0.0324,0.013523,0.002678,0.000431,0.004701
31927000,0.0324,0.013523,0.002678,0.000431,0.004701
31928000,0.0324,0.013523,0.002678,0.000431,0.007874
31929000,0.0324,0.013523,0.002678,0.000431,0.032673
31930000,0.0324,0.013523,0.002678,0.000431,0.005876
31931000,0.0324,0.013523,0.002678,0.000431,0.050890
31932000,0.0324,0.013523,0.002678,0.000431,0.013516
31933000,0.0324,0.013523,0.002678,0.000431,0.005876
31934000,0.0324,0.013523,0.002678,0.000431,0.005876
31935000,0.0324,0.013523,0.002678,0.000431,0.005054
31936000,0.0324,0.013523,0.002678,0.000431,0.004701
31937000,0.0324,0.013523,0.002678,0.000431,0.004701
31938000,0.0324,0.013523,0.002678,0.000431,0.015984
31939000,0.0324,0.013523,0.002678,0.000431,0.008462
31940000,0.0324,0.013523,0.002678,0.000431,0.004701
31941000,0.0324,0.013523,0.002678,0.000431,0.008462
31942000,0.0324,0.013523,0.002678,0.000431,0.008462
31943000,0.0324,0.013523,0.002678,0.000431,0.004701
31944000,0.0324,0.013523,0.002678,0.000431,0.005759
31945000,0.0324,0.013523,0.002678,0.000431,0.005406
31946000,0.0324,0.013523,0.002678,0.000431,0.005876
31947000,0.0324,0.013523,0.002678,0.000431,0.005876
31948000,0.0324,0.013523,0.002678,0.000431,0.025269
31949000,0.0324,0.013523,0.002678,0.000431,0.032438
31950000,0.0324,0.013523,0.002678,0.000431,0.004701
31951000,0.0324,0.013523,0.002678,0.000431,0.004701
31952000,0.0324,0.013523,0.002678,0.000431,0.012223
31953000,0.0324,0.013523,0.002678,0.000431,0.004701
31954000,0.0324,0.013523,0.002678,0.000431,0.027031
31955000,0.0324,0.013523,0.002678,0.000431,0.004701
31956000,0.0324,0.013523,0.002678,0.000431,0.004701
31957000,0.0324,0.013523,0.002678,0.000431,0.004701
31958000,0.0324,0.013523,0.002678,0.000431,0.004936
31959000,0.0324,0.013523,0.002678,0.000431,0.004701
31960000,0.0324,0.013523,0.002678,0.000431,0.004701
31961000,0.0324,0.013523,0.002678,0.000431,0.027384
31962000,0.0324,0.013523,0.002678,0.000431,0.016689
31963000,0.0324,0.013523,0.002678,0.000431,0.017159
31964000,0.0324,0.013523,0.002678,0.000431,0.017159
31965000,0.0324,0.013523,0.002678,0.000431,0.016101
31966000,0.0324,0.013523,0.002678,0.000431,0.004701
31967000,0.0324,0.013523,0.002678,0.000431,0.004701
31968000,0.0324,0.013523,0.002678,0.000431,0.004701
31969000,0.0324,0.013523,0.002678,0.000431,0.004701
31970000,0.0324,0.013523,0.002678,0.000431,0.005054
31971000,0.0324,0.013523,0.002678,0.000431,0.031968
31972000,0.0324,0.013523,0.002678,0.000431,0.009637
31973000,0.0324,0.013523,0.002678,0.000431,0.006347
31974000,0.0324,0.013523,0.002678,0.000431,0.062760
31975000,0.0324,0.013523,0.002678,0.000431,0.009755
31976000,0.0324,0.013523,0.002678,0.000431,0.004701
31977000,0.0324,0.013523,0.002678,0.000431,0.004701
31978000,0.0324,0.013523,0.002678,0.000431,0.019745
31979000,0.0324,0.013523,0.002678,0.000431,0.004701
31980000,0.0324,0.013523,0.002678,0.000431,0.004701
31981000,0.0324,0.013523,0.002678,0.000431,0.012223
31982000,0.0324,0.013523,0.002678,0.000431,0.004701
31983000,0.0324,0.013523,0.002678,0.000431,0.005289
31984000,0.0324,0.013523,0.002678,0.000431,0.006229
31985000,0.0324,0.013523,0.002678,0.000431,0.007052
31986000,0.0324,0.013523,0.002678,0.000431,0.009755
31987000,0.0324,0.013523,0.002678,0.000431,0.046071
31988000,0.0324,0.013523,0.002678,0.000431,0.005876
31989000,0.0324,0.013523,0.002678,0.000431,0.009872
31990000,0.0324,0.013523,0.002678,0.000431,0.009637
31991000,0.0324,0.013523,0.002678,0.000431,0.005876
31992000,0.0324,0.013523,0.002678,0.000431,0.005289
31993000,0.0324,0.013523,0.002678,0.000431,0.013751
31994000,0.0324,0.013523,0.002678,0.000431,0.041487
31995000,0.0324,0.013523,0.002678,0.000431,0.004701
31996000,0.0324,0.013523,0.002678,0.000431,0.004701
31997000,0.0324,0.013523,0.002678,0.000431,0.004701
31998000,0.0324,0.013523,0.002678,0.000431,0.004466
31999000,0.0324,0.013523,0.002678,0.000431,0.031027
