Cycle,Area(mm^2),PeakDynamic(W),SubthresholdLeakage(W),GateLeakage(W),RunTimeDynamic(W)
19000000,0.0324,0.013523,0.002678,0.000431,0.151024
19001000,0.0324,0.013523,0.002678,0.000431,0.171004
19002000,0.0324,0.013523,0.002678,0.000431,0.185695
19003000,0.0324,0.013523,0.002678,0.000431,0.110006
19004000,0.0324,0.013523,0.002678,0.000431,0.158663
19005000,0.0324,0.013523,0.002678,0.000431,0.090027
19006000,0.0324,0.013523,0.002678,0.000431,0.271960
19007000,0.0324,0.013523,0.002678,0.000431,0.082505
19008000,0.0324,0.013523,0.002678,0.000431,0.223891
19009000,0.0324,0.013523,0.002678,0.000431,0.073690
19010000,0.0324,0.013523,0.002678,0.000431,0.105658
19011000,0.0324,0.013523,0.002678,0.000431,0.122112
19012000,0.0324,0.013523,0.002678,0.000431,0.071810
19013000,0.0324,0.013523,0.002678,0.000431,0.126343
19014000,0.0324,0.013523,0.002678,0.000431,0.285593
19015000,0.0324,0.013523,0.002678,0.000431,0.204029
19016000,0.0324,0.013523,0.002678,0.000431,0.076393
19017000,0.0324,0.013523,0.002678,0.000431,0.123992
19018000,0.0324,0.013523,0.002678,0.000431,0.130339
19019000,0.0324,0.013523,0.002678,0.000431,0.068636
19020000,0.0324,0.013523,0.002678,0.000431,0.241991
19021000,0.0324,0.013523,0.002678,0.000431,0.315798
19022000,0.0324,0.013523,0.002678,0.000431,0.091437
19023000,0.0324,0.013523,0.002678,0.000431,0.054063
19024000,0.0324,0.013523,0.002678,0.000431,0.050185
19025000,0.0324,0.013523,0.002678,0.000431,0.092142
19026000,0.0324,0.013523,0.002678,0.000431,0.120231
19027000,0.0324,0.013523,0.002678,0.000431,0.199798
19028000,0.0324,0.013523,0.002678,0.000431,0.112827
19029000,0.0324,0.013523,0.002678,0.000431,0.128811
19030000,0.0324,0.013523,0.002678,0.000431,0.062407
19031000,0.0324,0.013523,0.002678,0.000431,0.096373
19032000,0.0324,0.013523,0.002678,0.000431,0.122817
19033000,0.0324,0.013523,0.002678,0.000431,0.241050
19034000,0.0324,0.013523,0.002678,0.000431,0.163129
19035000,0.0324,0.013523,0.002678,0.000431,0.043838
19036000,0.0324,0.013523,0.002678,0.000431,0.059822
19037000,0.0324,0.013523,0.002678,0.000431,0.050185
19038000,0.0324,0.013523,0.002678,0.000431,0.147145
19039000,0.0324,0.013523,0.002678,0.000431,0.249865
19040000,0.0324,0.013523,0.002678,0.000431,0.199680
19041000,0.0324,0.013523,0.002678,0.000431,0.112592
19042000,0.0324,0.013523,0.002678,0.000431,0.120584
19043000,0.0324,0.013523,0.002678,0.000431,0.045718
19044000,0.0324,0.013523,0.002678,0.000431,0.085443
19045000,0.0324,0.013523,0.002678,0.000431,0.178408
19046000,0.0324,0.013523,0.002678,0.000431,0.166772
19047000,0.0324,0.013523,0.002678,0.000431,0.126578
19048000,0.0324,0.013523,0.002678,0.000431,0.109771
19049000,0.0324,0.013523,0.002678,0.000431,0.117763
19050000,0.0324,0.013523,0.002678,0.000431,0.080037
19051000,0.0324,0.013523,0.002678,0.000431,0.086501
19052000,0.0324,0.013523,0.002678,0.000431,0.250688
19053000,0.0324,0.013523,0.002678,0.000431,0.214724
19054000,0.0324,0.013523,0.002678,0.000431,0.089556
19055000,0.0324,0.013523,0.002678,0.000431,0.082505
19056000,0.0324,0.013523,0.002678,0.000431,0.066286
19057000,0.0324,0.013523,0.002678,0.000431,0.144090
19058000,0.0324,0.013523,0.002678,0.000431,0.145970
19059000,0.0324,0.013523,0.002678,0.000431,0.137273
19060000,0.0324,0.013523,0.002678,0.000431,0.166655
19061000,0.0324,0.013523,0.002678,0.000431,0.116705
19062000,0.0324,0.013523,0.002678,0.000431,0.188868
19063000,0.0324,0.013523,0.002678,0.000431,0.035258
19064000,0.0324,0.013523,0.002678,0.000431,0.222011
19065000,0.0324,0.013523,0.002678,0.000431,0.210728
19066000,0.0324,0.013523,0.002678,0.000431,0.131749
19067000,0.0324,0.013523,0.002678,0.000431,0.133159
19068000,0.0324,0.013523,0.002678,0.000431,0.178760
19069000,0.0324,0.013523,0.002678,0.000431,0.094375
19070000,0.0324,0.013523,0.002678,0.000431,0.147733
19071000,0.0324,0.013523,0.002678,0.000431,0.100252
19072000,0.0324,0.013523,0.002678,0.000431,0.145970
19073000,0.0324,0.013523,0.002678,0.000431,0.102955
19074000,0.0324,0.013523,0.002678,0.000431,0.061585
19075000,0.0324,0.013523,0.002678,0.000431,0.147380
19076000,0.0324,0.013523,0.002678,0.000431,0.044426
19077000,0.0324,0.013523,0.002678,0.000431,0.272313
19078000,0.0324,0.013523,0.002678,0.000431,0.136920
19079000,0.0324,0.013523,0.002678,0.000431,0.042780
19080000,0.0324,0.013523,0.002678,0.000431,0.083915
19081000,0.0324,0.013523,0.002678,0.000431,0.246692
19082000,0.0324,0.013523,0.002678,0.000431,0.217780
19083000,0.0324,0.013523,0.002678,0.000431,0.169946
19084000,0.0324,0.013523,0.002678,0.000431,0.128576
19085000,0.0324,0.013523,0.002678,0.000431,0.161484
19086000,0.0324,0.013523,0.002678,0.000431,0.150436
19087000,0.0324,0.013523,0.002678,0.000431,0.264203
19088000,0.0324,0.013523,0.002678,0.000431,0.137626
19089000,0.0324,0.013523,0.002678,0.000431,0.059822
19090000,0.0324,0.013523,0.002678,0.000431,0.087206
19091000,0.0324,0.013523,0.002678,0.000431,0.056178
19092000,0.0324,0.013523,0.002678,0.000431,0.096491
19093000,0.0324,0.013523,0.002678,0.000431,0.168183
19094000,0.0324,0.013523,0.002678,0.000431,0.280892
19095000,0.0324,0.013523,0.002678,0.000431,0.078274
19096000,0.0324,0.013523,0.002678,0.000431,0.159838
19097000,0.0324,0.013523,0.002678,0.000431,0.253508
19098000,0.0324,0.013523,0.002678,0.000431,0.132454
19099000,0.0324,0.013523,0.002678,0.000431,0.177703
19100000,0.0324,0.013523,0.002678,0.000431,0.149848
19101000,0.0324,0.013523,0.002678,0.000431,0.123522
19102000,0.0324,0.013523,0.002678,0.000431,0.142914
19103000,0.0324,0.013523,0.002678,0.000431,0.115413
19104000,0.0324,0.013523,0.002678,0.000431,0.057589
19105000,0.0324,0.013523,0.002678,0.000431,0.281833
19106000,0.0324,0.013523,0.002678,0.000431,0.226477
19107000,0.0324,0.013523,0.002678,0.000431,0.079332
19108000,0.0324,0.013523,0.002678,0.000431,0.089556
19109000,0.0324,0.013523,0.002678,0.000431,0.170533
19110000,0.0324,0.013523,0.002678,0.000431,0.128576
19111000,0.0324,0.013523,0.002678,0.000431,0.069459
19112000,0.0324,0.013523,0.002678,0.000431,0.121289
19113000,0.0324,0.013523,0.002678,0.000431,0.126813
19114000,0.0324,0.013523,0.002678,0.000431,0.122817
19115000,0.0324,0.013523,0.002678,0.000431,0.125403
19116000,0.0324,0.013523,0.002678,0.000431,0.215312
19117000,0.0324,0.013523,0.002678,0.000431,0.082740
19118000,0.0324,0.013523,0.002678,0.000431,0.159016
19119000,0.0324,0.013523,0.002678,0.000431,0.113062
19120000,0.0324,0.013523,0.002678,0.000431,0.216957
19121000,0.0324,0.013523,0.002678,0.000431,0.093082
19122000,0.0324,0.013523,0.002678,0.000431,0.127165
19123000,0.0324,0.013523,0.002678,0.000431,0.140446
19124000,0.0324,0.013523,0.002678,0.000431,0.120231
19125000,0.0324,0.013523,0.002678,0.000431,0.137273
19126000,0.0324,0.013523,0.002678,0.000431,0.075336
19127000,0.0324,0.013523,0.002678,0.000431,0.121289
19128000,0.0324,0.013523,0.002678,0.000431,0.101897
19129000,0.0324,0.013523,0.002678,0.000431,0.161954
19130000,0.0324,0.013523,0.002678,0.000431,0.087323
19131000,0.0324,0.013523,0.002678,0.000431,0.098606
19132000,0.0324,0.013523,0.002678,0.000431,0.068401
19133000,0.0324,0.013523,0.002678,0.000431,0.137626
19134000,0.0324,0.013523,0.002678,0.000431,0.157605
19135000,0.0324,0.013523,0.002678,0.000431,0.131279
19136000,0.0324,0.013523,0.002678,0.000431,0.281598
19137000,0.0324,0.013523,0.002678,0.000431,0.150554
19138000,0.0324,0.013523,0.002678,0.000431,0.098019
19139000,0.0324,0.013523,0.002678,0.000431,0.167125
19140000,0.0324,0.013523,0.002678,0.000431,0.227064
19141000,0.0324,0.013523,0.002678,0.000431,0.101192
19142000,0.0324,0.013523,0.002678,0.000431,0.075336
19143000,0.0324,0.013523,0.002678,0.000431,0.088851
19144000,0.0324,0.013523,0.002678,0.000431,0.072397
19145000,0.0324,0.013523,0.002678,0.000431,0.125168
19146000,0.0324,0.013523,0.002678,0.000431,0.302165
19147000,0.0324,0.013523,0.002678,0.000431,0.336483
19148000,0.0324,0.013523,0.002678,0.000431,0.229533
19149000,0.0324,0.013523,0.002678,0.000431,0.200150
19150000,0.0324,0.013523,0.002678,0.000431,0.172766
19151000,0.0324,0.013523,0.002678,0.000431,0.105658
19152000,0.0324,0.013523,0.002678,0.000431,0.095668
19153000,0.0324,0.013523,0.002678,0.000431,0.134805
19154000,0.0324,0.013523,0.002678,0.000431,0.118116
19155000,0.0324,0.013523,0.002678,0.000431,0.070517
19156000,0.0324,0.013523,0.002678,0.000431,0.053828
19157000,0.0324,0.013523,0.002678,0.000431,0.182169
19158000,0.0324,0.013523,0.002678,0.000431,0.114120
19159000,0.0324,0.013523,0.002678,0.000431,0.093905
19160000,0.0324,0.013523,0.002678,0.000431,0.065111
19161000,0.0324,0.013523,0.002678,0.000431,0.100957
19162000,0.0324,0.013523,0.002678,0.000431,0.091907
19163000,0.0324,0.013523,0.002678,0.000431,0.163952
19164000,0.0324,0.013523,0.002678,0.000431,0.200268
19165000,0.0324,0.013523,0.002678,0.000431,0.203324
19166000,0.0324,0.013523,0.002678,0.000431,0.099194
19167000,0.0324,0.013523,0.002678,0.000431,0.052183
19168000,0.0324,0.013523,0.002678,0.000431,0.108596
19169000,0.0324,0.013523,0.002678,0.000431,0.094610
19170000,0.0324,0.013523,0.002678,0.000431,0.183579
19171000,0.0324,0.013523,0.002678,0.000431,0.175117
19172000,0.0324,0.013523,0.002678,0.000431,0.107656
19173000,0.0324,0.013523,0.002678,0.000431,0.107891
19174000,0.0324,0.013523,0.002678,0.000431,0.308276
19175000,0.0324,0.013523,0.002678,0.000431,0.138096
19176000,0.0324,0.013523,0.002678,0.000431,0.065346
19177000,0.0324,0.013523,0.002678,0.000431,0.066991
19178000,0.0324,0.013523,0.002678,0.000431,0.191571
19179000,0.0324,0.013523,0.002678,0.000431,0.141621
19180000,0.0324,0.013523,0.002678,0.000431,0.090497
19181000,0.0324,0.013523,0.002678,0.000431,0.197565
19182000,0.0324,0.013523,0.002678,0.000431,0.113415
19183000,0.0324,0.013523,0.002678,0.000431,0.263381
19184000,0.0324,0.013523,0.002678,0.000431,0.179348
19185000,0.0324,0.013523,0.002678,0.000431,0.152552
19186000,0.0324,0.013523,0.002678,0.000431,0.236937
19187000,0.0324,0.013523,0.002678,0.000431,0.222716
19188000,0.0324,0.013523,0.002678,0.000431,0.156312
19189000,0.0324,0.013523,0.002678,0.000431,0.090614
19190000,0.0324,0.013523,0.002678,0.000431,0.120701
19191000,0.0324,0.013523,0.002678,0.000431,0.296759
19192000,0.0324,0.013523,0.002678,0.000431,0.130221
19193000,0.0324,0.013523,0.002678,0.000431,0.129163
19194000,0.0324,0.013523,0.002678,0.000431,0.155607
19195000,0.0324,0.013523,0.002678,0.000431,0.066286
19196000,0.0324,0.013523,0.002678,0.000431,0.078626
19197000,0.0324,0.013523,0.002678,0.000431,0.123052
19198000,0.0324,0.013523,0.002678,0.000431,0.304280
19199000,0.0324,0.013523,0.002678,0.000431,0.120936
19200000,0.0324,0.013523,0.002678,0.000431,0.080742
19201000,0.0324,0.013523,0.002678,0.000431,0.130574
19202000,0.0324,0.013523,0.002678,0.000431,0.110594
19203000,0.0324,0.013523,0.002678,0.000431,0.059704
19204000,0.0324,0.013523,0.002678,0.000431,0.228710
19205000,0.0324,0.013523,0.002678,0.000431,0.176645
19206000,0.0324,0.013523,0.002678,0.000431,0.216369
19207000,0.0324,0.013523,0.002678,0.000431,0.170651
19208000,0.0324,0.013523,0.002678,0.000431,0.148791
19209000,0.0324,0.013523,0.002678,0.000431,0.081682
19210000,0.0324,0.013523,0.002678,0.000431,0.129399
19211000,0.0324,0.013523,0.002678,0.000431,0.117411
19212000,0.0324,0.013523,0.002678,0.000431,0.117763
19213000,0.0324,0.013523,0.002678,0.000431,0.111534
19214000,0.0324,0.013523,0.002678,0.000431,0.255389
19215000,0.0324,0.013523,0.002678,0.000431,0.136803
19216000,0.0324,0.013523,0.002678,0.000431,0.039019
19217000,0.0324,0.013523,0.002678,0.000431,0.130574
19218000,0.0324,0.013523,0.002678,0.000431,0.069224
19219000,0.0324,0.013523,0.002678,0.000431,0.089909
19220000,0.0324,0.013523,0.002678,0.000431,0.191453
19221000,0.0324,0.013523,0.002678,0.000431,0.122817
19222000,0.0324,0.013523,0.002678,0.000431,0.112122
19223000,0.0324,0.013523,0.002678,0.000431,0.097548
19224000,0.0324,0.013523,0.002678,0.000431,0.067109
19225000,0.0324,0.013523,0.002678,0.000431,0.050067
19226000,0.0324,0.013523,0.002678,0.000431,0.103895
19227000,0.0324,0.013523,0.002678,0.000431,0.264673
19228000,0.0324,0.013523,0.002678,0.000431,0.373622
19229000,0.0324,0.013523,0.002678,0.000431,0.077686
19230000,0.0324,0.013523,0.002678,0.000431,0.260913
19231000,0.0324,0.013523,0.002678,0.000431,0.201208
19232000,0.0324,0.013523,0.002678,0.000431,0.086971
19233000,0.0324,0.013523,0.002678,0.000431,0.259267
19234000,0.0324,0.013523,0.002678,0.000431,0.348236
19235000,0.0324,0.013523,0.002678,0.000431,0.236467
19236000,0.0324,0.013523,0.002678,0.000431,0.153257
19237000,0.0324,0.013523,0.002678,0.000431,0.199445
19238000,0.0324,0.013523,0.002678,0.000431,0.058999
19239000,0.0324,0.013523,0.002678,0.000431,0.253391
19240000,0.0324,0.013523,0.002678,0.000431,0.054063
19241000,0.0324,0.013523,0.002678,0.000431,0.152081
19242000,0.0324,0.013523,0.002678,0.000431,0.180993
19243000,0.0324,0.013523,0.002678,0.000431,0.212256
19244000,0.0324,0.013523,0.002678,0.000431,0.100487
19245000,0.0324,0.013523,0.002678,0.000431,0.174999
19246000,0.0324,0.013523,0.002678,0.000431,0.309452
19247000,0.0324,0.013523,0.002678,0.000431,0.253391
19248000,0.0324,0.013523,0.002678,0.000431,0.102250
19249000,0.0324,0.013523,0.002678,0.000431,0.259855
19250000,0.0324,0.013523,0.002678,0.000431,0.041370
19251000,0.0324,0.013523,0.002678,0.000431,0.246692
19252000,0.0324,0.013523,0.002678,0.000431,0.184989
19253000,0.0324,0.013523,0.002678,0.000431,0.122112
19254000,0.0324,0.013523,0.002678,0.000431,0.145265
19255000,0.0324,0.013523,0.002678,0.000431,0.151611
19256000,0.0324,0.013523,0.002678,0.000431,0.050302
19257000,0.0324,0.013523,0.002678,0.000431,0.095668
19258000,0.0324,0.013523,0.002678,0.000431,0.154902
19259000,0.0324,0.013523,0.002678,0.000431,0.072985
19260000,0.0324,0.013523,0.002678,0.000431,0.143032
19261000,0.0324,0.013523,0.002678,0.000431,0.173942
19262000,0.0324,0.013523,0.002678,0.000431,0.171004
19263000,0.0324,0.013523,0.002678,0.000431,0.035023
19264000,0.0324,0.013523,0.002678,0.000431,0.135392
19265000,0.0324,0.013523,0.002678,0.000431,0.351644
19266000,0.0324,0.013523,0.002678,0.000431,0.094375
19267000,0.0324,0.013523,0.002678,0.000431,0.092965
19268000,0.0324,0.013523,0.002678,0.000431,0.288649
19269000,0.0324,0.013523,0.002678,0.000431,0.143032
19270000,0.0324,0.013523,0.002678,0.000431,0.065111
19271000,0.0324,0.013523,0.002678,0.000431,0.094610
19272000,0.0324,0.013523,0.002678,0.000431,0.147968
19273000,0.0324,0.013523,0.002678,0.000431,0.312155
19274000,0.0324,0.013523,0.002678,0.000431,0.132102
19275000,0.0324,0.013523,0.002678,0.000431,0.178408
19276000,0.0324,0.013523,0.002678,0.000431,0.042545
19277000,0.0324,0.013523,0.002678,0.000431,0.090497
19278000,0.0324,0.013523,0.002678,0.000431,0.220953
19279000,0.0324,0.013523,0.002678,0.000431,0.131632
19280000,0.0324,0.013523,0.002678,0.000431,0.289354
19281000,0.0324,0.013523,0.002678,0.000431,0.179818
19282000,0.0324,0.013523,0.002678,0.000431,0.257269
19283000,0.0324,0.013523,0.002678,0.000431,0.034671
19284000,0.0324,0.013523,0.002678,0.000431,0.217427
19285000,0.0324,0.013523,0.002678,0.000431,0.244929
19286000,0.0324,0.013523,0.002678,0.000431,0.229180
19287000,0.0324,0.013523,0.002678,0.000431,0.249042
19288000,0.0324,0.013523,0.002678,0.000431,0.125050
19289000,0.0324,0.013523,0.002678,0.000431,0.074278
19290000,0.0324,0.013523,0.002678,0.000431,0.181111
19291000,0.0324,0.013523,0.002678,0.000431,0.175470
19292000,0.0324,0.013523,0.002678,0.000431,0.240463
19293000,0.0324,0.013523,0.002678,0.000431,0.068989
19294000,0.0324,0.013523,0.002678,0.000431,0.152081
19295000,0.0324,0.013523,0.002678,0.000431,0.102485
19296000,0.0324,0.013523,0.002678,0.000431,0.085325
19297000,0.0324,0.013523,0.002678,0.000431,0.181699
19298000,0.0324,0.013523,0.002678,0.000431,0.149848
19299000,0.0324,0.013523,0.002678,0.000431,0.192394
19300000,0.0324,0.013523,0.002678,0.000431,0.073925
19301000,0.0324,0.013523,0.002678,0.000431,0.147380
19302000,0.0324,0.013523,0.002678,0.000431,0.149496
19303000,0.0324,0.013523,0.002678,0.000431,0.092730
19304000,0.0324,0.013523,0.002678,0.000431,0.148203
19305000,0.0324,0.013523,0.002678,0.000431,0.137861
19306000,0.0324,0.013523,0.002678,0.000431,0.129986
19307000,0.0324,0.013523,0.002678,0.000431,0.220835
19308000,0.0324,0.013523,0.002678,0.000431,0.088264
19309000,0.0324,0.013523,0.002678,0.000431,0.213079
19310000,0.0324,0.013523,0.002678,0.000431,0.202031
19311000,0.0324,0.013523,0.002678,0.000431,0.150906
19312000,0.0324,0.013523,0.002678,0.000431,0.122112
19313000,0.0324,0.013523,0.002678,0.000431,0.247279
19314000,0.0324,0.013523,0.002678,0.000431,0.050772
19315000,0.0324,0.013523,0.002678,0.000431,0.115648
19316000,0.0324,0.013523,0.002678,0.000431,0.115060
19317000,0.0324,0.013523,0.002678,0.000431,0.167948
19318000,0.0324,0.013523,0.002678,0.000431,0.185224
19319000,0.0324,0.013523,0.002678,0.000431,0.134570
19320000,0.0324,0.013523,0.002678,0.000431,0.101309
19321000,0.0324,0.013523,0.002678,0.000431,0.035258
19322000,0.0324,0.013523,0.002678,0.000431,0.065111
19323000,0.0324,0.013523,0.002678,0.000431,0.185107
19324000,0.0324,0.013523,0.002678,0.000431,0.095785
19325000,0.0324,0.013523,0.002678,0.000431,0.267612
19326000,0.0324,0.013523,0.002678,0.000431,0.230708
19327000,0.0324,0.013523,0.002678,0.000431,0.250688
19328000,0.0324,0.013523,0.002678,0.000431,0.107303
19329000,0.0324,0.013523,0.002678,0.000431,0.065346
19330000,0.0324,0.013523,0.002678,0.000431,0.092025
19331000,0.0324,0.013523,0.002678,0.000431,0.192159
19332000,0.0324,0.013523,0.002678,0.000431,0.250570
19333000,0.0324,0.013523,0.002678,0.000431,0.162189
19334000,0.0324,0.013523,0.002678,0.000431,0.059704
19335000,0.0324,0.013523,0.002678,0.000431,0.220483
19336000,0.0324,0.013523,0.002678,0.000431,0.164892
19337000,0.0324,0.013523,0.002678,0.000431,0.155960
19338000,0.0324,0.013523,0.002678,0.000431,0.160661
19339000,0.0324,0.013523,0.002678,0.000431,0.209083
19340000,0.0324,0.013523,0.002678,0.000431,0.130456
19341000,0.0324,0.013523,0.002678,0.000431,0.145147
19342000,0.0324,0.013523,0.002678,0.000431,0.302753
19343000,0.0324,0.013523,0.002678,0.000431,0.446372
19344000,0.0324,0.013523,0.002678,0.000431,0.179936
19345000,0.0324,0.013523,0.002678,0.000431,0.156783
19346000,0.0324,0.013523,0.002678,0.000431,0.045131
19347000,0.0324,0.013523,0.002678,0.000431,0.052300
19348000,0.0324,0.013523,0.002678,0.000431,0.105305
19349000,0.0324,0.013523,0.002678,0.000431,0.129399
19350000,0.0324,0.013523,0.002678,0.000431,0.095550
19351000,0.0324,0.013523,0.002678,0.000431,0.077921
19352000,0.0324,0.013523,0.002678,0.000431,0.290765
19353000,0.0324,0.013523,0.002678,0.000431,0.246927
19354000,0.0324,0.013523,0.002678,0.000431,0.098606
19355000,0.0324,0.013523,0.002678,0.000431,0.170886
19356000,0.0324,0.013523,0.002678,0.000431,0.215077
19357000,0.0324,0.013523,0.002678,0.000431,0.222128
19358000,0.0324,0.013523,0.002678,0.000431,0.129281
19359000,0.0324,0.013523,0.002678,0.000431,0.102014
19360000,0.0324,0.013523,0.002678,0.000431,0.246457
19361000,0.0324,0.013523,0.002678,0.000431,0.125050
19362000,0.0324,0.013523,0.002678,0.000431,0.129046
19363000,0.0324,0.013523,0.002678,0.000431,0.147733
19364000,0.0324,0.013523,0.002678,0.000431,0.059704
19365000,0.0324,0.013523,0.002678,0.000431,0.104600
19366000,0.0324,0.013523,0.002678,0.000431,0.100722
19367000,0.0324,0.013523,0.002678,0.000431,0.257269
19368000,0.0324,0.013523,0.002678,0.000431,0.138801
19369000,0.0324,0.013523,0.002678,0.000431,0.194979
19370000,0.0324,0.013523,0.002678,0.000431,0.123640
19371000,0.0324,0.013523,0.002678,0.000431,0.087676
19372000,0.0324,0.013523,0.002678,0.000431,0.038197
19373000,0.0324,0.013523,0.002678,0.000431,0.108008
19374000,0.0324,0.013523,0.002678,0.000431,0.198153
19375000,0.0324,0.013523,0.002678,0.000431,0.161366
19376000,0.0324,0.013523,0.002678,0.000431,0.228240
19377000,0.0324,0.013523,0.002678,0.000431,0.189573
19378000,0.0324,0.013523,0.002678,0.000431,0.159603
19379000,0.0324,0.013523,0.002678,0.000431,0.059704
19380000,0.0324,0.013523,0.002678,0.000431,0.117998
19381000,0.0324,0.013523,0.002678,0.000431,0.084150
19382000,0.0324,0.013523,0.002678,0.000431,0.126225
19383000,0.0324,0.013523,0.002678,0.000431,0.327551
19384000,0.0324,0.013523,0.002678,0.000431,0.121994
19385000,0.0324,0.013523,0.002678,0.000431,0.073338
19386000,0.0324,0.013523,0.002678,0.000431,0.236232
19387000,0.0324,0.013523,0.002678,0.000431,0.217075
19388000,0.0324,0.013523,0.002678,0.000431,0.219190
19389000,0.0324,0.013523,0.002678,0.000431,0.385257
19390000,0.0324,0.013523,0.002678,0.000431,0.165597
19391000,0.0324,0.013523,0.002678,0.000431,0.144795
19392000,0.0324,0.013523,0.002678,0.000431,0.171826
19393000,0.0324,0.013523,0.002678,0.000431,0.185695
19394000,0.0324,0.013523,0.002678,0.000431,0.223774
19395000,0.0324,0.013523,0.002678,0.000431,0.110476
19396000,0.0324,0.013523,0.002678,0.000431,0.153844
19397000,0.0324,0.013523,0.002678,0.000431,0.168183
19398000,0.0324,0.013523,0.002678,0.000431,0.090967
19399000,0.0324,0.013523,0.002678,0.000431,0.185695
19400000,0.0324,0.013523,0.002678,0.000431,0.127753
19401000,0.0324,0.013523,0.002678,0.000431,0.116470
19402000,0.0324,0.013523,0.002678,0.000431,0.228122
19403000,0.0324,0.013523,0.002678,0.000431,0.201796
19404000,0.0324,0.013523,0.002678,0.000431,0.173001
19405000,0.0324,0.013523,0.002678,0.000431,0.301930
19406000,0.0324,0.013523,0.002678,0.000431,0.212138
19407000,0.0324,0.013523,0.002678,0.000431,0.110476
19408000,0.0324,0.013523,0.002678,0.000431,0.095433
19409000,0.0324,0.013523,0.002678,0.000431,0.181934
19410000,0.0324,0.013523,0.002678,0.000431,0.121759
19411000,0.0324,0.013523,0.002678,0.000431,0.190866
19412000,0.0324,0.013523,0.002678,0.000431,0.317209
19413000,0.0324,0.013523,0.002678,0.000431,0.238112
19414000,0.0324,0.013523,0.002678,0.000431,0.127048
19415000,0.0324,0.013523,0.002678,0.000431,0.146675
19416000,0.0324,0.013523,0.002678,0.000431,0.114120
19417000,0.0324,0.013523,0.002678,0.000431,0.076276
19418000,0.0324,0.013523,0.002678,0.000431,0.311450
19419000,0.0324,0.013523,0.002678,0.000431,0.130809
19420000,0.0324,0.013523,0.002678,0.000431,0.182286
19421000,0.0324,0.013523,0.002678,0.000431,0.151846
19422000,0.0324,0.013523,0.002678,0.000431,0.170886
19423000,0.0324,0.013523,0.002678,0.000431,0.109889
19424000,0.0324,0.013523,0.002678,0.000431,0.125403
19425000,0.0324,0.013523,0.002678,0.000431,0.136333
19426000,0.0324,0.013523,0.002678,0.000431,0.256917
19427000,0.0324,0.013523,0.002678,0.000431,0.102955
19428000,0.0324,0.013523,0.002678,0.000431,0.241285
19429000,0.0324,0.013523,0.002678,0.000431,0.208965
19430000,0.0324,0.013523,0.002678,0.000431,0.054180
19431000,0.0324,0.013523,0.002678,0.000431,0.129516
19432000,0.0324,0.013523,0.002678,0.000431,0.151494
19433000,0.0324,0.013523,0.002678,0.000431,0.213196
19434000,0.0324,0.013523,0.002678,0.000431,0.143502
19435000,0.0324,0.013523,0.002678,0.000431,0.203794
19436000,0.0324,0.013523,0.002678,0.000431,0.218955
19437000,0.0324,0.013523,0.002678,0.000431,0.071457
19438000,0.0324,0.013523,0.002678,0.000431,0.263498
19439000,0.0324,0.013523,0.002678,0.000431,0.191924
19440000,0.0324,0.013523,0.002678,0.000431,0.224479
19441000,0.0324,0.013523,0.002678,0.000431,0.146205
19442000,0.0324,0.013523,0.002678,0.000431,0.154785
19443000,0.0324,0.013523,0.002678,0.000431,0.095550
19444000,0.0324,0.013523,0.002678,0.000431,0.301225
19445000,0.0324,0.013523,0.002678,0.000431,0.182756
19446000,0.0324,0.013523,0.002678,0.000431,0.114002
19447000,0.0324,0.013523,0.002678,0.000431,0.065346
19448000,0.0324,0.013523,0.002678,0.000431,0.090262
19449000,0.0324,0.013523,0.002678,0.000431,0.126343
19450000,0.0324,0.013523,0.002678,0.000431,0.067461
19451000,0.0324,0.013523,0.002678,0.000431,0.203559
19452000,0.0324,0.013523,0.002678,0.000431,0.116235
19453000,0.0324,0.013523,0.002678,0.000431,0.137978
19454000,0.0324,0.013523,0.002678,0.000431,0.162659
19455000,0.0324,0.013523,0.002678,0.000431,0.253626
19456000,0.0324,0.013523,0.002678,0.000431,0.182286
19457000,0.0324,0.013523,0.002678,0.000431,0.318619
19458000,0.0324,0.013523,0.002678,0.000431,0.145852
19459000,0.0324,0.013523,0.002678,0.000431,0.227535
19460000,0.0324,0.013523,0.002678,0.000431,0.165127
19461000,0.0324,0.013523,0.002678,0.000431,0.087911
19462000,0.0324,0.013523,0.002678,0.000431,0.080272
19463000,0.0324,0.013523,0.002678,0.000431,0.129046
19464000,0.0324,0.013523,0.002678,0.000431,0.208377
19465000,0.0324,0.013523,0.002678,0.000431,0.114237
19466000,0.0324,0.013523,0.002678,0.000431,0.143149
19467000,0.0324,0.013523,0.002678,0.000431,0.202501
19468000,0.0324,0.013523,0.002678,0.000431,0.128223
19469000,0.0324,0.013523,0.002678,0.000431,0.120349
19470000,0.0324,0.013523,0.002678,0.000431,0.234469
19471000,0.0324,0.013523,0.002678,0.000431,0.067344
19472000,0.0324,0.013523,0.002678,0.000431,0.061585
19473000,0.0324,0.013523,0.002678,0.000431,0.154550
19474000,0.0324,0.013523,0.002678,0.000431,0.178643
19475000,0.0324,0.013523,0.002678,0.000431,0.053475
19476000,0.0324,0.013523,0.002678,0.000431,0.241050
19477000,0.0324,0.013523,0.002678,0.000431,0.115530
19478000,0.0324,0.013523,0.002678,0.000431,0.165480
19479000,0.0324,0.013523,0.002678,0.000431,0.103425
19480000,0.0324,0.013523,0.002678,0.000431,0.111182
19481000,0.0324,0.013523,0.002678,0.000431,0.046541
19482000,0.0324,0.013523,0.002678,0.000431,0.133042
19483000,0.0324,0.013523,0.002678,0.000431,0.172296
19484000,0.0324,0.013523,0.002678,0.000431,0.247984
19485000,0.0324,0.013523,0.002678,0.000431,0.153257
19486000,0.0324,0.013523,0.002678,0.000431,0.047246
19487000,0.0324,0.013523,0.002678,0.000431,0.129399
19488000,0.0324,0.013523,0.002678,0.000431,0.124815
19489000,0.0324,0.013523,0.002678,0.000431,0.221893
19490000,0.0324,0.013523,0.002678,0.000431,0.194862
19491000,0.0324,0.013523,0.002678,0.000431,0.185459
19492000,0.0324,0.013523,0.002678,0.000431,0.152317
19493000,0.0324,0.013523,0.002678,0.000431,0.128928
19494000,0.0324,0.013523,0.002678,0.000431,0.087794
19495000,0.0324,0.013523,0.002678,0.000431,0.348354
19496000,0.0324,0.013523,0.002678,0.000431,0.200856
19497000,0.0324,0.013523,0.002678,0.000431,0.244106
19498000,0.0324,0.013523,0.002678,0.000431,0.247162
19499000,0.0324,0.013523,0.002678,0.000431,0.111064
19500000,0.0324,0.013523,0.002678,0.000431,0.079802
19501000,0.0324,0.013523,0.002678,0.000431,0.080389
19502000,0.0324,0.013523,0.002678,0.000431,0.112239
19503000,0.0324,0.013523,0.002678,0.000431,0.229650
19504000,0.0324,0.013523,0.002678,0.000431,0.193922
19505000,0.0324,0.013523,0.002678,0.000431,0.108126
19506000,0.0324,0.013523,0.002678,0.000431,0.102132
19507000,0.0324,0.013523,0.002678,0.000431,0.055591
19508000,0.0324,0.013523,0.002678,0.000431,0.154902
19509000,0.0324,0.013523,0.002678,0.000431,0.387255
19510000,0.0324,0.013523,0.002678,0.000431,0.155490
19511000,0.0324,0.013523,0.002678,0.000431,0.115530
19512000,0.0324,0.013523,0.002678,0.000431,0.138918
19513000,0.0324,0.013523,0.002678,0.000431,0.104247
19514000,0.0324,0.013523,0.002678,0.000431,0.057941
19515000,0.0324,0.013523,0.002678,0.000431,0.154197
19516000,0.0324,0.013523,0.002678,0.000431,0.180288
19517000,0.0324,0.013523,0.002678,0.000431,0.095433
19518000,0.0324,0.013523,0.002678,0.000431,0.191336
19519000,0.0324,0.013523,0.002678,0.000431,0.216017
19520000,0.0324,0.013523,0.002678,0.000431,0.065228
19521000,0.0324,0.013523,0.002678,0.000431,0.094610
19522000,0.0324,0.013523,0.002678,0.000431,0.207320
19523000,0.0324,0.013523,0.002678,0.000431,0.168535
19524000,0.0324,0.013523,0.002678,0.000431,0.102955
19525000,0.0324,0.013523,0.002678,0.000431,0.064993
19526000,0.0324,0.013523,0.002678,0.000431,0.088029
19527000,0.0324,0.013523,0.002678,0.000431,0.138213
19528000,0.0324,0.013523,0.002678,0.000431,0.143384
19529000,0.0324,0.013523,0.002678,0.000431,0.237054
19530000,0.0324,0.013523,0.002678,0.000431,0.120584
19531000,0.0324,0.013523,0.002678,0.000431,0.189338
19532000,0.0324,0.013523,0.002678,0.000431,0.174529
19533000,0.0324,0.013523,0.002678,0.000431,0.108479
19534000,0.0324,0.013523,0.002678,0.000431,0.153609
19535000,0.0324,0.013523,0.002678,0.000431,0.106951
19536000,0.0324,0.013523,0.002678,0.000431,0.285476
19537000,0.0324,0.013523,0.002678,0.000431,0.157840
19538000,0.0324,0.013523,0.002678,0.000431,0.269845
19539000,0.0324,0.013523,0.002678,0.000431,0.208730
19540000,0.0324,0.013523,0.002678,0.000431,0.042663
19541000,0.0324,0.013523,0.002678,0.000431,0.215429
19542000,0.0324,0.013523,0.002678,0.000431,0.118821
19543000,0.0324,0.013523,0.002678,0.000431,0.172061
19544000,0.0324,0.013523,0.002678,0.000431,0.116941
19545000,0.0324,0.013523,0.002678,0.000431,0.161601
19546000,0.0324,0.013523,0.002678,0.000431,0.241638
19547000,0.0324,0.013523,0.002678,0.000431,0.087676
19548000,0.0324,0.013523,0.002678,0.000431,0.223539
19549000,0.0324,0.013523,0.002678,0.000431,0.061350
19550000,0.0324,0.013523,0.002678,0.000431,0.232471
19551000,0.0324,0.013523,0.002678,0.000431,0.109066
19552000,0.0324,0.013523,0.002678,0.000431,0.164775
19553000,0.0324,0.013523,0.002678,0.000431,0.060292
19554000,0.0324,0.013523,0.002678,0.000431,0.159016
19555000,0.0324,0.013523,0.002678,0.000431,0.162894
19556000,0.0324,0.013523,0.002678,0.000431,0.203794
19557000,0.0324,0.013523,0.002678,0.000431,0.076628
19558000,0.0324,0.013523,0.002678,0.000431,0.101309
19559000,0.0324,0.013523,0.002678,0.000431,0.089321
19560000,0.0324,0.013523,0.002678,0.000431,0.125520
19561000,0.0324,0.013523,0.002678,0.000431,0.102955
19562000,0.0324,0.013523,0.002678,0.000431,0.197212
19563000,0.0324,0.013523,0.002678,0.000431,0.188515
19564000,0.0324,0.013523,0.002678,0.000431,0.158075
19565000,0.0324,0.013523,0.002678,0.000431,0.129516
19566000,0.0324,0.013523,0.002678,0.000431,0.152081
19567000,0.0324,0.013523,0.002678,0.000431,0.160426
19568000,0.0324,0.013523,0.002678,0.000431,0.155490
19569000,0.0324,0.013523,0.002678,0.000431,0.172296
19570000,0.0324,0.013523,0.002678,0.000431,0.109066
19571000,0.0324,0.013523,0.002678,0.000431,0.124227
19572000,0.0324,0.013523,0.002678,0.000431,0.037021
19573000,0.0324,0.013523,0.002678,0.000431,0.152317
19574000,0.0324,0.013523,0.002678,0.000431,0.152552
19575000,0.0324,0.013523,0.002678,0.000431,0.083327
19576000,0.0324,0.013523,0.002678,0.000431,0.096843
19577000,0.0324,0.013523,0.002678,0.000431,0.084620
19578000,0.0324,0.013523,0.002678,0.000431,0.179818
19579000,0.0324,0.013523,0.002678,0.000431,0.175352
19580000,0.0324,0.013523,0.002678,0.000431,0.178525
19581000,0.0324,0.013523,0.002678,0.000431,0.079214
19582000,0.0324,0.013523,0.002678,0.000431,0.104600
19583000,0.0324,0.013523,0.002678,0.000431,0.126813
19584000,0.0324,0.013523,0.002678,0.000431,0.053828
19585000,0.0324,0.013523,0.002678,0.000431,0.143972
19586000,0.0324,0.013523,0.002678,0.000431,0.241873
19587000,0.0324,0.013523,0.002678,0.000431,0.089439
19588000,0.0324,0.013523,0.002678,0.000431,0.090849
19589000,0.0324,0.013523,0.002678,0.000431,0.297229
19590000,0.0324,0.013523,0.002678,0.000431,0.097548
19591000,0.0324,0.013523,0.002678,0.000431,0.128693
19592000,0.0324,0.013523,0.002678,0.000431,0.178995
19593000,0.0324,0.013523,0.002678,0.000431,0.165950
19594000,0.0324,0.013523,0.002678,0.000431,0.175352
19595000,0.0324,0.013523,0.002678,0.000431,0.117881
19596000,0.0324,0.013523,0.002678,0.000431,0.128928
19597000,0.0324,0.013523,0.002678,0.000431,0.197330
19598000,0.0324,0.013523,0.002678,0.000431,0.132689
19599000,0.0324,0.013523,0.002678,0.000431,0.217897
19600000,0.0324,0.013523,0.002678,0.000431,0.065346
19601000,0.0324,0.013523,0.002678,0.000431,0.110712
19602000,0.0324,0.013523,0.002678,0.000431,0.096256
19603000,0.0324,0.013523,0.002678,0.000431,0.119761
19604000,0.0324,0.013523,0.002678,0.000431,0.125050
19605000,0.0324,0.013523,0.002678,0.000431,0.136685
19606000,0.0324,0.013523,0.002678,0.000431,0.096021
19607000,0.0324,0.013523,0.002678,0.000431,0.080742
19608000,0.0324,0.013523,0.002678,0.000431,0.157958
19609000,0.0324,0.013523,0.002678,0.000431,0.179113
19610000,0.0324,0.013523,0.002678,0.000431,0.164304
19611000,0.0324,0.013523,0.002678,0.000431,0.254566
19612000,0.0324,0.013523,0.002678,0.000431,0.059939
19613000,0.0324,0.013523,0.002678,0.000431,0.142092
19614000,0.0324,0.013523,0.002678,0.000431,0.192159
19615000,0.0324,0.013523,0.002678,0.000431,0.122934
19616000,0.0324,0.013523,0.002678,0.000431,0.169946
19617000,0.0324,0.013523,0.002678,0.000431,0.084033
19618000,0.0324,0.013523,0.002678,0.000431,0.061350
19619000,0.0324,0.013523,0.002678,0.000431,0.248572
19620000,0.0324,0.013523,0.002678,0.000431,0.253273
19621000,0.0324,0.013523,0.002678,0.000431,0.172179
19622000,0.0324,0.013523,0.002678,0.000431,0.087323
19623000,0.0324,0.013523,0.002678,0.000431,0.124697
19624000,0.0324,0.013523,0.002678,0.000431,0.132219
19625000,0.0324,0.013523,0.002678,0.000431,0.127048
19626000,0.0324,0.013523,0.002678,0.000431,0.131279
19627000,0.0324,0.013523,0.002678,0.000431,0.083445
19628000,0.0324,0.013523,0.002678,0.000431,0.201561
19629000,0.0324,0.013523,0.002678,0.000431,0.176292
19630000,0.0324,0.013523,0.002678,0.000431,0.113180
19631000,0.0324,0.013523,0.002678,0.000431,0.062407
19632000,0.0324,0.013523,0.002678,0.000431,0.161836
19633000,0.0324,0.013523,0.002678,0.000431,0.247984
19634000,0.0324,0.013523,0.002678,0.000431,0.132219
19635000,0.0324,0.013523,0.002678,0.000431,0.065228
19636000,0.0324,0.013523,0.002678,0.000431,0.094728
19637000,0.0324,0.013523,0.002678,0.000431,0.121759
19638000,0.0324,0.013523,0.002678,0.000431,0.077569
19639000,0.0324,0.013523,0.002678,0.000431,0.153844
19640000,0.0324,0.013523,0.002678,0.000431,0.122347
19641000,0.0324,0.013523,0.002678,0.000431,0.103660
19642000,0.0324,0.013523,0.002678,0.000431,0.105893
19643000,0.0324,0.013523,0.002678,0.000431,0.142327
19644000,0.0324,0.013523,0.002678,0.000431,0.155607
19645000,0.0324,0.013523,0.002678,0.000431,0.175940
19646000,0.0324,0.013523,0.002678,0.000431,0.164892
19647000,0.0324,0.013523,0.002678,0.000431,0.088499
19648000,0.0324,0.013523,0.002678,0.000431,0.173119
19649000,0.0324,0.013523,0.002678,0.000431,0.117998
19650000,0.0324,0.013523,0.002678,0.000431,0.114237
19651000,0.0324,0.013523,0.002678,0.000431,0.114002
19652000,0.0324,0.013523,0.002678,0.000431,0.168065
19653000,0.0324,0.013523,0.002678,0.000431,0.151141
19654000,0.0324,0.013523,0.002678,0.000431,0.128811
19655000,0.0324,0.013523,0.002678,0.000431,0.151376
19656000,0.0324,0.013523,0.002678,0.000431,0.168183
19657000,0.0324,0.013523,0.002678,0.000431,0.108479
19658000,0.0324,0.013523,0.002678,0.000431,0.196860
19659000,0.0324,0.013523,0.002678,0.000431,0.078391
19660000,0.0324,0.013523,0.002678,0.000431,0.132807
19661000,0.0324,0.013523,0.002678,0.000431,0.171121
19662000,0.0324,0.013523,0.002678,0.000431,0.064993
19663000,0.0324,0.013523,0.002678,0.000431,0.042545
19664000,0.0324,0.013523,0.002678,0.000431,0.114355
19665000,0.0324,0.013523,0.002678,0.000431,0.166537
19666000,0.0324,0.013523,0.002678,0.000431,0.042663
19667000,0.0324,0.013523,0.002678,0.000431,0.136333
19668000,0.0324,0.013523,0.002678,0.000431,0.182756
19669000,0.0324,0.013523,0.002678,0.000431,0.087206
19670000,0.0324,0.013523,0.002678,0.000431,0.126108
19671000,0.0324,0.013523,0.002678,0.000431,0.158546
19672000,0.0324,0.013523,0.002678,0.000431,0.084973
19673000,0.0324,0.013523,0.002678,0.000431,0.050537
19674000,0.0324,0.013523,0.002678,0.000431,0.191218
19675000,0.0324,0.013523,0.002678,0.000431,0.239170
19676000,0.0324,0.013523,0.002678,0.000431,0.148086
19677000,0.0324,0.013523,0.002678,0.000431,0.068872
19678000,0.0324,0.013523,0.002678,0.000431,0.242578
19679000,0.0324,0.013523,0.002678,0.000431,0.094610
19680000,0.0324,0.013523,0.002678,0.000431,0.134100
19681000,0.0324,0.013523,0.002678,0.000431,0.103425
19682000,0.0324,0.013523,0.002678,0.000431,0.126578
19683000,0.0324,0.013523,0.002678,0.000431,0.094610
19684000,0.0324,0.013523,0.002678,0.000431,0.176175
19685000,0.0324,0.013523,0.002678,0.000431,0.096608
19686000,0.0324,0.013523,0.002678,0.000431,0.209670
19687000,0.0324,0.013523,0.002678,0.000431,0.102250
19688000,0.0324,0.013523,0.002678,0.000431,0.138801
19689000,0.0324,0.013523,0.002678,0.000431,0.128106
19690000,0.0324,0.013523,0.002678,0.000431,0.311332
19691000,0.0324,0.013523,0.002678,0.000431,0.304751
19692000,0.0324,0.013523,0.002678,0.000431,0.051125
19693000,0.0324,0.013523,0.002678,0.000431,0.189573
19694000,0.0324,0.013523,0.002678,0.000431,0.088616
19695000,0.0324,0.013523,0.002678,0.000431,0.045483
19696000,0.0324,0.013523,0.002678,0.000431,0.106128
19697000,0.0324,0.013523,0.002678,0.000431,0.170298
19698000,0.0324,0.013523,0.002678,0.000431,0.069577
19699000,0.0324,0.013523,0.002678,0.000431,0.170768
19700000,0.0324,0.013523,0.002678,0.000431,0.061585
19701000,0.0324,0.013523,0.002678,0.000431,0.086736
19702000,0.0324,0.013523,0.002678,0.000431,0.171474
19703000,0.0324,0.013523,0.002678,0.000431,0.178290
19704000,0.0324,0.013523,0.002678,0.000431,0.106598
19705000,0.0324,0.013523,0.002678,0.000431,0.139271
19706000,0.0324,0.013523,0.002678,0.000431,0.186987
19707000,0.0324,0.013523,0.002678,0.000431,0.170063
19708000,0.0324,0.013523,0.002678,0.000431,0.057354
19709000,0.0324,0.013523,0.002678,0.000431,0.218485
19710000,0.0324,0.013523,0.002678,0.000431,0.176057
19711000,0.0324,0.013523,0.002678,0.000431,0.082740
19712000,0.0324,0.013523,0.002678,0.000431,0.122582
19713000,0.0324,0.013523,0.002678,0.000431,0.065698
19714000,0.0324,0.013523,0.002678,0.000431,0.123522
19715000,0.0324,0.013523,0.002678,0.000431,0.092847
19716000,0.0324,0.013523,0.002678,0.000431,0.197330
19717000,0.0324,0.013523,0.002678,0.000431,0.212021
19718000,0.0324,0.013523,0.002678,0.000431,0.122112
19719000,0.0324,0.013523,0.002678,0.000431,0.101074
19720000,0.0324,0.013523,0.002678,0.000431,0.098841
19721000,0.0324,0.013523,0.002678,0.000431,0.041487
19722000,0.0324,0.013523,0.002678,0.000431,0.138566
19723000,0.0324,0.013523,0.002678,0.000431,0.161484
19724000,0.0324,0.013523,0.002678,0.000431,0.129399
19725000,0.0324,0.013523,0.002678,0.000431,0.110712
19726000,0.0324,0.013523,0.002678,0.000431,0.087676
19727000,0.0324,0.013523,0.002678,0.000431,0.110241
19728000,0.0324,0.013523,0.002678,0.000431,0.094963
19729000,0.0324,0.013523,0.002678,0.000431,0.160543
19730000,0.0324,0.013523,0.002678,0.000431,0.223186
19731000,0.0324,0.013523,0.002678,0.000431,0.124815
19732000,0.0324,0.013523,0.002678,0.000431,0.068872
19733000,0.0324,0.013523,0.002678,0.000431,0.125403
19734000,0.0324,0.013523,0.002678,0.000431,0.210258
19735000,0.0324,0.013523,0.002678,0.000431,0.153609
19736000,0.0324,0.013523,0.002678,0.000431,0.061115
19737000,0.0324,0.013523,0.002678,0.000431,0.182286
19738000,0.0324,0.013523,0.002678,0.000431,0.162894
19739000,0.0324,0.013523,0.002678,0.000431,0.092730
19740000,0.0324,0.013523,0.002678,0.000431,0.054063
19741000,0.0324,0.013523,0.002678,0.000431,0.185107
19742000,0.0324,0.013523,0.002678,0.000431,0.106833
19743000,0.0324,0.013523,0.002678,0.000431,0.159133
19744000,0.0324,0.013523,0.002678,0.000431,0.106716
19745000,0.0324,0.013523,0.002678,0.000431,0.071340
19746000,0.0324,0.013523,0.002678,0.000431,0.137390
19747000,0.0324,0.013523,0.002678,0.000431,0.108479
19748000,0.0324,0.013523,0.002678,0.000431,0.167243
19749000,0.0324,0.013523,0.002678,0.000431,0.183814
19750000,0.0324,0.013523,0.002678,0.000431,0.232941
19751000,0.0324,0.013523,0.002678,0.000431,0.049244
19752000,0.0324,0.013523,0.002678,0.000431,0.123757
19753000,0.0324,0.013523,0.002678,0.000431,0.043133
19754000,0.0324,0.013523,0.002678,0.000431,0.079096
19755000,0.0324,0.013523,0.002678,0.000431,0.058882
19756000,0.0324,0.013523,0.002678,0.000431,0.148438
19757000,0.0324,0.013523,0.002678,0.000431,0.171239
19758000,0.0324,0.013523,0.002678,0.000431,0.243283
19759000,0.0324,0.013523,0.002678,0.000431,0.204029
19760000,0.0324,0.013523,0.002678,0.000431,0.093905
19761000,0.0324,0.013523,0.002678,0.000431,0.104483
19762000,0.0324,0.013523,0.002678,0.000431,0.161249
19763000,0.0324,0.013523,0.002678,0.000431,0.117763
19764000,0.0324,0.013523,0.002678,0.000431,0.195919
19765000,0.0324,0.013523,0.002678,0.000431,0.139623
19766000,0.0324,0.013523,0.002678,0.000431,0.137978
19767000,0.0324,0.013523,0.002678,0.000431,0.145147
19768000,0.0324,0.013523,0.002678,0.000431,0.143737
19769000,0.0324,0.013523,0.002678,0.000431,0.147498
19770000,0.0324,0.013523,0.002678,0.000431,0.121524
19771000,0.0324,0.013523,0.002678,0.000431,0.104247
19772000,0.0324,0.013523,0.002678,0.000431,0.200386
19773000,0.0324,0.013523,0.002678,0.000431,0.124932
19774000,0.0324,0.013523,0.002678,0.000431,0.139859
19775000,0.0324,0.013523,0.002678,0.000431,0.246692
19776000,0.0324,0.013523,0.002678,0.000431,0.128928
19777000,0.0324,0.013523,0.002678,0.000431,0.117998
19778000,0.0324,0.013523,0.002678,0.000431,0.098606
19779000,0.0324,0.013523,0.002678,0.000431,0.099546
19780000,0.0324,0.013523,0.002678,0.000431,0.065463
19781000,0.0324,0.013523,0.002678,0.000431,0.060997
19782000,0.0324,0.013523,0.002678,0.000431,0.369038
19783000,0.0324,0.013523,0.002678,0.000431,0.049479
19784000,0.0324,0.013523,0.002678,0.000431,0.216839
19785000,0.0324,0.013523,0.002678,0.000431,0.101427
19786000,0.0324,0.013523,0.002678,0.000431,0.149378
19787000,0.0324,0.013523,0.002678,0.000431,0.035258
19788000,0.0324,0.013523,0.002678,0.000431,0.157135
19789000,0.0324,0.013523,0.002678,0.000431,0.131279
19790000,0.0324,0.013523,0.002678,0.000431,0.128223
19791000,0.0324,0.013523,0.002678,0.000431,0.077686
19792000,0.0324,0.013523,0.002678,0.000431,0.182991
19793000,0.0324,0.013523,0.002678,0.000431,0.089204
19794000,0.0324,0.013523,0.002678,0.000431,0.126930
19795000,0.0324,0.013523,0.002678,0.000431,0.102485
19796000,0.0324,0.013523,0.002678,0.000431,0.076746
19797000,0.0324,0.013523,0.002678,0.000431,0.184519
19798000,0.0324,0.013523,0.002678,0.000431,0.266671
19799000,0.0324,0.013523,0.002678,0.000431,0.065346
19800000,0.0324,0.013523,0.002678,0.000431,0.061467
19801000,0.0324,0.013523,0.002678,0.000431,0.219660
19802000,0.0324,0.013523,0.002678,0.000431,0.065111
19803000,0.0324,0.013523,0.002678,0.000431,0.133982
19804000,0.0324,0.013523,0.002678,0.000431,0.176175
19805000,0.0324,0.013523,0.002678,0.000431,0.194274
19806000,0.0324,0.013523,0.002678,0.000431,0.235997
19807000,0.0324,0.013523,0.002678,0.000431,0.254331
19808000,0.0324,0.013523,0.002678,0.000431,0.097313
19809000,0.0324,0.013523,0.002678,0.000431,0.050185
19810000,0.0324,0.013523,0.002678,0.000431,0.088029
19811000,0.0324,0.013523,0.002678,0.000431,0.170533
19812000,0.0324,0.013523,0.002678,0.000431,0.132454
19813000,0.0324,0.013523,0.002678,0.000431,0.400771
19814000,0.0324,0.013523,0.002678,0.000431,0.234351
19815000,0.0324,0.013523,0.002678,0.000431,0.065111
19816000,0.0324,0.013523,0.002678,0.000431,0.260207
19817000,0.0324,0.013523,0.002678,0.000431,0.215664
19818000,0.0324,0.013523,0.002678,0.000431,0.153257
19819000,0.0324,0.013523,0.002678,0.000431,0.096373
19820000,0.0324,0.013523,0.002678,0.000431,0.157370
19821000,0.0324,0.013523,0.002678,0.000431,0.064641
19822000,0.0324,0.013523,0.002678,0.000431,0.140799
19823000,0.0324,0.013523,0.002678,0.000431,0.125285
19824000,0.0324,0.013523,0.002678,0.000431,0.088146
19825000,0.0324,0.013523,0.002678,0.000431,0.079802
19826000,0.0324,0.013523,0.002678,0.000431,0.177820
19827000,0.0324,0.013523,0.002678,0.000431,0.095433
19828000,0.0324,0.013523,0.002678,0.000431,0.125168
19829000,0.0324,0.013523,0.002678,0.000431,0.109889
19830000,0.0324,0.013523,0.002678,0.000431,0.141034
19831000,0.0324,0.013523,0.002678,0.000431,0.080859
19832000,0.0324,0.013523,0.002678,0.000431,0.100134
19833000,0.0324,0.013523,0.002678,0.000431,0.060645
19834000,0.0324,0.013523,0.002678,0.000431,0.103307
19835000,0.0324,0.013523,0.002678,0.000431,0.110359
19836000,0.0324,0.013523,0.002678,0.000431,0.109654
19837000,0.0324,0.013523,0.002678,0.000431,0.247397
19838000,0.0324,0.013523,0.002678,0.000431,0.111417
19839000,0.0324,0.013523,0.002678,0.000431,0.221541
19840000,0.0324,0.013523,0.002678,0.000431,0.065228
19841000,0.0324,0.013523,0.002678,0.000431,0.078509
19842000,0.0324,0.013523,0.002678,0.000431,0.121407
19843000,0.0324,0.013523,0.002678,0.000431,0.108949
19844000,0.0324,0.013523,0.002678,0.000431,0.050302
19845000,0.0324,0.013523,0.002678,0.000431,0.188868
19846000,0.0324,0.013523,0.002678,0.000431,0.107068
19847000,0.0324,0.013523,0.002678,0.000431,0.050302
19848000,0.0324,0.013523,0.002678,0.000431,0.160191
19849000,0.0324,0.013523,0.002678,0.000431,0.186165
19850000,0.0324,0.013523,0.002678,0.000431,0.197565
19851000,0.0324,0.013523,0.002678,0.000431,0.105423
19852000,0.0324,0.013523,0.002678,0.000431,0.153492
19853000,0.0324,0.013523,0.002678,0.000431,0.221306
19854000,0.0324,0.013523,0.002678,0.000431,0.140446
19855000,0.0324,0.013523,0.002678,0.000431,0.260442
19856000,0.0324,0.013523,0.002678,0.000431,0.141151
19857000,0.0324,0.013523,0.002678,0.000431,0.135863
19858000,0.0324,0.013523,0.002678,0.000431,0.262793
19859000,0.0324,0.013523,0.002678,0.000431,0.040077
19860000,0.0324,0.013523,0.002678,0.000431,0.156783
19861000,0.0324,0.013523,0.002678,0.000431,0.122699
19862000,0.0324,0.013523,0.002678,0.000431,0.099311
19863000,0.0324,0.013523,0.002678,0.000431,0.054063
19864000,0.0324,0.013523,0.002678,0.000431,0.162306
19865000,0.0324,0.013523,0.002678,0.000431,0.205792
19866000,0.0324,0.013523,0.002678,0.000431,0.046541
19867000,0.0324,0.013523,0.002678,0.000431,0.072867
19868000,0.0324,0.013523,0.002678,0.000431,0.170063
19869000,0.0324,0.013523,0.002678,0.000431,0.178055
19870000,0.0324,0.013523,0.002678,0.000431,0.050067
19871000,0.0324,0.013523,0.002678,0.000431,0.157253
19872000,0.0324,0.013523,0.002678,0.000431,0.182521
19873000,0.0324,0.013523,0.002678,0.000431,0.148321
19874000,0.0324,0.013523,0.002678,0.000431,0.065111
19875000,0.0324,0.013523,0.002678,0.000431,0.160661
19876000,0.0324,0.013523,0.002678,0.000431,0.145147
19877000,0.0324,0.013523,0.002678,0.000431,0.189338
19878000,0.0324,0.013523,0.002678,0.000431,0.249747
19879000,0.0324,0.013523,0.002678,0.000431,0.108479
19880000,0.0324,0.013523,0.002678,0.000431,0.124697
19881000,0.0324,0.013523,0.002678,0.000431,0.105658
19882000,0.0324,0.013523,0.002678,0.000431,0.058999
19883000,0.0324,0.013523,0.002678,0.000431,0.105540
19884000,0.0324,0.013523,0.002678,0.000431,0.200621
19885000,0.0324,0.013523,0.002678,0.000431,0.038667
19886000,0.0324,0.013523,0.002678,0.000431,0.166890
19887000,0.0324,0.013523,0.002678,0.000431,0.130574
19888000,0.0324,0.013523,0.002678,0.000431,0.150083
19889000,0.0324,0.013523,0.002678,0.000431,0.091554
19890000,0.0324,0.013523,0.002678,0.000431,0.173824
19891000,0.0324,0.013523,0.002678,0.000431,0.073220
19892000,0.0324,0.013523,0.002678,0.000431,0.062995
19893000,0.0324,0.013523,0.002678,0.000431,0.063583
19894000,0.0324,0.013523,0.002678,0.000431,0.162424
19895000,0.0324,0.013523,0.002678,0.000431,0.135275
19896000,0.0324,0.013523,0.002678,0.000431,0.192041
19897000,0.0324,0.013523,0.002678,0.000431,0.162541
19898000,0.0324,0.013523,0.002678,0.000431,0.095433
19899000,0.0324,0.013523,0.002678,0.000431,0.080389
19900000,0.0324,0.013523,0.002678,0.000431,0.229533
19901000,0.0324,0.013523,0.002678,0.000431,0.073338
19902000,0.0324,0.013523,0.002678,0.000431,0.192276
19903000,0.0324,0.013523,0.002678,0.000431,0.126578
19904000,0.0324,0.013523,0.002678,0.000431,0.050185
19905000,0.0324,0.013523,0.002678,0.000431,0.102837
19906000,0.0324,0.013523,0.002678,0.000431,0.087911
19907000,0.0324,0.013523,0.002678,0.000431,0.245986
19908000,0.0324,0.013523,0.002678,0.000431,0.122347
19909000,0.0324,0.013523,0.002678,0.000431,0.316151
19910000,0.0324,0.013523,0.002678,0.000431,0.125050
19911000,0.0324,0.013523,0.002678,0.000431,0.110476
19912000,0.0324,0.013523,0.002678,0.000431,0.087911
19913000,0.0324,0.013523,0.002678,0.000431,0.062290
19914000,0.0324,0.013523,0.002678,0.000431,0.166067
19915000,0.0324,0.013523,0.002678,0.000431,0.281833
19916000,0.0324,0.013523,0.002678,0.000431,0.149613
19917000,0.0324,0.013523,0.002678,0.000431,0.125873
19918000,0.0324,0.013523,0.002678,0.000431,0.211316
19919000,0.0324,0.013523,0.002678,0.000431,0.114943
19920000,0.0324,0.013523,0.002678,0.000431,0.095080
19921000,0.0324,0.013523,0.002678,0.000431,0.109066
19922000,0.0324,0.013523,0.002678,0.000431,0.262911
19923000,0.0324,0.013523,0.002678,0.000431,0.155960
19924000,0.0324,0.013523,0.002678,0.000431,0.035376
19925000,0.0324,0.013523,0.002678,0.000431,0.072750
19926000,0.0324,0.013523,0.002678,0.000431,0.103777
19927000,0.0324,0.013523,0.002678,0.000431,0.071692
19928000,0.0324,0.013523,0.002678,0.000431,0.216369
19929000,0.0324,0.013523,0.002678,0.000431,0.132454
19930000,0.0324,0.013523,0.002678,0.000431,0.199915
19931000,0.0324,0.013523,0.002678,0.000431,0.175587
19932000,0.0324,0.013523,0.002678,0.000431,0.270902
19933000,0.0324,0.013523,0.002678,0.000431,0.174412
19934000,0.0324,0.013523,0.002678,0.000431,0.083210
19935000,0.0324,0.013523,0.002678,0.000431,0.208142
19936000,0.0324,0.013523,0.002678,0.000431,0.095198
19937000,0.0324,0.013523,0.002678,0.000431,0.088616
19938000,0.0324,0.013523,0.002678,0.000431,0.174177
19939000,0.0324,0.013523,0.002678,0.000431,0.155372
19940000,0.0324,0.013523,0.002678,0.000431,0.100487
19941000,0.0324,0.013523,0.002678,0.000431,0.163834
19942000,0.0324,0.013523,0.002678,0.000431,0.102367
19943000,0.0324,0.013523,0.002678,0.000431,0.092965
19944000,0.0324,0.013523,0.002678,0.000431,0.180876
19945000,0.0324,0.013523,0.002678,0.000431,0.132337
19946000,0.0324,0.013523,0.002678,0.000431,0.196860
19947000,0.0324,0.013523,0.002678,0.000431,0.154432
19948000,0.0324,0.013523,0.002678,0.000431,0.255624
19949000,0.0324,0.013523,0.002678,0.000431,0.120584
19950000,0.0324,0.013523,0.002678,0.000431,0.076393
19951000,0.0324,0.013523,0.002678,0.000431,0.170886
19952000,0.0324,0.013523,0.002678,0.000431,0.122582
19953000,0.0324,0.013523,0.002678,0.000431,0.087206
19954000,0.0324,0.013523,0.002678,0.000431,0.136568
19955000,0.0324,0.013523,0.002678,0.000431,0.208495
19956000,0.0324,0.013523,0.002678,0.000431,0.131749
19957000,0.0324,0.013523,0.002678,0.000431,0.160191
19958000,0.0324,0.013523,0.002678,0.000431,0.147968
19959000,0.0324,0.013523,0.002678,0.000431,0.185930
19960000,0.0324,0.013523,0.002678,0.000431,0.273606
19961000,0.0324,0.013523,0.002678,0.000431,0.226124
19962000,0.0324,0.013523,0.002678,0.000431,0.035258
19963000,0.0324,0.013523,0.002678,0.000431,0.151964
19964000,0.0324,0.013523,0.002678,0.000431,0.269375
19965000,0.0324,0.013523,0.002678,0.000431,0.238935
19966000,0.0324,0.013523,0.002678,0.000431,0.122229
19967000,0.0324,0.013523,0.002678,0.000431,0.230003
19968000,0.0324,0.013523,0.002678,0.000431,0.121524
19969000,0.0324,0.013523,0.002678,0.000431,0.061467
19970000,0.0324,0.013523,0.002678,0.000431,0.124815
19971000,0.0324,0.013523,0.002678,0.000431,0.133394
19972000,0.0324,0.013523,0.002678,0.000431,0.131984
19973000,0.0324,0.013523,0.002678,0.000431,0.183344
19974000,0.0324,0.013523,0.002678,0.000431,0.068872
19975000,0.0324,0.013523,0.002678,0.000431,0.096843
19976000,0.0324,0.013523,0.002678,0.000431,0.121054
19977000,0.0324,0.013523,0.002678,0.000431,0.174647
19978000,0.0324,0.013523,0.002678,0.000431,0.137508
19979000,0.0324,0.013523,0.002678,0.000431,0.124227
19980000,0.0324,0.013523,0.002678,0.000431,0.265261
19981000,0.0324,0.013523,0.002678,0.000431,0.060880
19982000,0.0324,0.013523,0.002678,0.000431,0.213901
19983000,0.0324,0.013523,0.002678,0.000431,0.129869
19984000,0.0324,0.013523,0.002678,0.000431,0.150554
19985000,0.0324,0.013523,0.002678,0.000431,0.261383
19986000,0.0324,0.013523,0.002678,0.000431,0.343417
19987000,0.0324,0.013523,0.002678,0.000431,0.176292
19988000,0.0324,0.013523,0.002678,0.000431,0.151846
19989000,0.0324,0.013523,0.002678,0.000431,0.181934
19990000,0.0324,0.013523,0.002678,0.000431,0.096843
19991000,0.0324,0.013523,0.002678,0.000431,0.070869
19992000,0.0324,0.013523,0.002678,0.000431,0.135745
19993000,0.0324,0.013523,0.002678,0.000431,0.184519
19994000,0.0324,0.013523,0.002678,0.000431,0.117293
19995000,0.0324,0.013523,0.002678,0.000431,0.133159
19996000,0.0324,0.013523,0.002678,0.000431,0.242931
19997000,0.0324,0.013523,0.002678,0.000431,0.159133
19998000,0.0324,0.013523,0.002678,0.000431,0.140211
19999000,0.0324,0.013523,0.002678,0.000431,0.236467
