Cycle,Area(mm^2),PeakDynamic(W),SubthresholdLeakage(W),GateLeakage(W),RunTimeDynamic(W)
28000000,0.0324,0.013523,0.002678,0.000431,0.087441
28001000,0.0324,0.013523,0.002678,0.000431,0.004701
28002000,0.0324,0.013523,0.002678,0.000431,0.004701
28003000,0.0324,0.013523,0.002678,0.000431,0.004701
28004000,0.0324,0.013523,0.002678,0.000431,0.004701
28005000,0.0324,0.013523,0.002678,0.000431,0.027267
28006000,0.0324,0.013523,0.002678,0.000431,0.031145
28007000,0.0324,0.013523,0.002678,0.000431,0.015866
28008000,0.0324,0.013523,0.002678,0.000431,0.004701
28009000,0.0324,0.013523,0.002678,0.000431,0.027267
28010000,0.0324,0.013523,0.002678,0.000431,0.035023
28011000,0.0324,0.013523,0.002678,0.000431,0.004701
28012000,0.0324,0.013523,0.002678,0.000431,0.109771
28013000,0.0324,0.013523,0.002678,0.000431,0.004701
28014000,0.0324,0.013523,0.002678,0.000431,0.004701
28015000,0.0324,0.013523,0.002678,0.000431,0.012223
28016000,0.0324,0.013523,0.002678,0.000431,0.004701
28017000,0.0324,0.013523,0.002678,0.000431,0.004466
28018000,0.0324,0.013523,0.002678,0.000431,0.004701
28019000,0.0324,0.013523,0.002678,0.000431,0.067344
28020000,0.0324,0.013523,0.002678,0.000431,0.070164
28021000,0.0324,0.013523,0.002678,0.000431,0.004701
28022000,0.0324,0.013523,0.002678,0.000431,0.004701
28023000,0.0324,0.013523,0.002678,0.000431,0.004701
28024000,0.0324,0.013523,0.002678,0.000431,0.004701
28025000,0.0324,0.013523,0.002678,0.000431,0.034788
28026000,0.0324,0.013523,0.002678,0.000431,0.034788
28027000,0.0324,0.013523,0.002678,0.000431,0.004584
28028000,0.0324,0.013523,0.002678,0.000431,0.041958
28029000,0.0324,0.013523,0.002678,0.000431,0.004701
28030000,0.0324,0.013523,0.002678,0.000431,0.004701
28031000,0.0324,0.013523,0.002678,0.000431,0.004701
28032000,0.0324,0.013523,0.002678,0.000431,0.004701
28033000,0.0324,0.013523,0.002678,0.000431,0.004701
28034000,0.0324,0.013523,0.002678,0.000431,0.016219
28035000,0.0324,0.013523,0.002678,0.000431,0.012223
28036000,0.0324,0.013523,0.002678,0.000431,0.008462
28037000,0.0324,0.013523,0.002678,0.000431,0.004584
28038000,0.0324,0.013523,0.002678,0.000431,0.012105
28039000,0.0324,0.013523,0.002678,0.000431,0.064876
28040000,0.0324,0.013523,0.002678,0.000431,0.004701
28041000,0.0324,0.013523,0.002678,0.000431,0.004701
28042000,0.0324,0.013523,0.002678,0.000431,0.004701
28043000,0.0324,0.013523,0.002678,0.000431,0.004701
28044000,0.0324,0.013523,0.002678,0.000431,0.049832
28045000,0.0324,0.013523,0.002678,0.000431,0.035023
28046000,0.0324,0.013523,0.002678,0.000431,0.004701
28047000,0.0324,0.013523,0.002678,0.000431,0.034553
28048000,0.0324,0.013523,0.002678,0.000431,0.034906
28049000,0.0324,0.013523,0.002678,0.000431,0.012105
28050000,0.0324,0.013523,0.002678,0.000431,0.014221
28051000,0.0324,0.013523,0.002678,0.000431,0.055356
28052000,0.0324,0.013523,0.002678,0.000431,0.004701
28053000,0.0324,0.013523,0.002678,0.000431,0.004701
28054000,0.0324,0.013523,0.002678,0.000431,0.049832
28055000,0.0324,0.013523,0.002678,0.000431,0.110006
28056000,0.0324,0.013523,0.002678,0.000431,0.004701
28057000,0.0324,0.013523,0.002678,0.000431,0.004701
28058000,0.0324,0.013523,0.002678,0.000431,0.004701
28059000,0.0324,0.013523,0.002678,0.000431,0.004701
28060000,0.0324,0.013523,0.002678,0.000431,0.004701
28061000,0.0324,0.013523,0.002678,0.000431,0.004936
28062000,0.0324,0.013523,0.002678,0.000431,0.004466
28063000,0.0324,0.013523,0.002678,0.000431,0.019745
28064000,0.0324,0.013523,0.002678,0.000431,0.034436
28065000,0.0324,0.013523,0.002678,0.000431,0.005054
28066000,0.0324,0.013523,0.002678,0.000431,0.012223
28067000,0.0324,0.013523,0.002678,0.000431,0.012223
28068000,0.0324,0.013523,0.002678,0.000431,0.102720
28069000,0.0324,0.013523,0.002678,0.000431,0.004701
28070000,0.0324,0.013523,0.002678,0.000431,0.019745
28071000,0.0324,0.013523,0.002678,0.000431,0.027267
28072000,0.0324,0.013523,0.002678,0.000431,0.012223
28073000,0.0324,0.013523,0.002678,0.000431,0.094728
28074000,0.0324,0.013523,0.002678,0.000431,0.067461
28075000,0.0324,0.013523,0.002678,0.000431,0.017394
28076000,0.0324,0.013523,0.002678,0.000431,0.004701
28077000,0.0324,0.013523,0.002678,0.000431,0.050067
28078000,0.0324,0.013523,0.002678,0.000431,0.019275
28079000,0.0324,0.013523,0.002678,0.000431,0.015984
28080000,0.0324,0.013523,0.002678,0.000431,0.038549
28081000,0.0324,0.013523,0.002678,0.000431,0.004701
28082000,0.0324,0.013523,0.002678,0.000431,0.004701
28083000,0.0324,0.013523,0.002678,0.000431,0.019745
28084000,0.0324,0.013523,0.002678,0.000431,0.004466
28085000,0.0324,0.013523,0.002678,0.000431,0.004701
28086000,0.0324,0.013523,0.002678,0.000431,0.019745
28087000,0.0324,0.013523,0.002678,0.000431,0.004701
28088000,0.0324,0.013523,0.002678,0.000431,0.004701
28089000,0.0324,0.013523,0.002678,0.000431,0.004701
28090000,0.0324,0.013523,0.002678,0.000431,0.008462
28091000,0.0324,0.013523,0.002678,0.000431,0.008462
28092000,0.0324,0.013523,0.002678,0.000431,0.017277
28093000,0.0324,0.013523,0.002678,0.000431,0.018452
28094000,0.0324,0.013523,0.002678,0.000431,0.015984
28095000,0.0324,0.013523,0.002678,0.000431,0.008345
28096000,0.0324,0.013523,0.002678,0.000431,0.057471
28097000,0.0324,0.013523,0.002678,0.000431,0.008462
28098000,0.0324,0.013523,0.002678,0.000431,0.004701
28099000,0.0324,0.013523,0.002678,0.000431,0.034788
28100000,0.0324,0.013523,0.002678,0.000431,0.012223
28101000,0.0324,0.013523,0.002678,0.000431,0.004584
28102000,0.0324,0.013523,0.002678,0.000431,0.019392
28103000,0.0324,0.013523,0.002678,0.000431,0.019745
28104000,0.0324,0.013523,0.002678,0.000431,0.004701
28105000,0.0324,0.013523,0.002678,0.000431,0.004701
28106000,0.0324,0.013523,0.002678,0.000431,0.040312
28107000,0.0324,0.013523,0.002678,0.000431,0.029265
28108000,0.0324,0.013523,0.002678,0.000431,0.008462
28109000,0.0324,0.013523,0.002678,0.000431,0.020567
28110000,0.0324,0.013523,0.002678,0.000431,0.007639
28111000,0.0324,0.013523,0.002678,0.000431,0.004701
28112000,0.0324,0.013523,0.002678,0.000431,0.027267
28113000,0.0324,0.013523,0.002678,0.000431,0.012223
28114000,0.0324,0.013523,0.002678,0.000431,0.004701
28115000,0.0324,0.013523,0.002678,0.000431,0.034788
28116000,0.0324,0.013523,0.002678,0.000431,0.019745
28117000,0.0324,0.013523,0.002678,0.000431,0.004584
28118000,0.0324,0.013523,0.002678,0.000431,0.057236
28119000,0.0324,0.013523,0.002678,0.000431,0.012223
28120000,0.0324,0.013523,0.002678,0.000431,0.004701
28121000,0.0324,0.013523,0.002678,0.000431,0.012223
28122000,0.0324,0.013523,0.002678,0.000431,0.048069
28123000,0.0324,0.013523,0.002678,0.000431,0.021508
28124000,0.0324,0.013523,0.002678,0.000431,0.004466
28125000,0.0324,0.013523,0.002678,0.000431,0.004701
28126000,0.0324,0.013523,0.002678,0.000431,0.004701
28127000,0.0324,0.013523,0.002678,0.000431,0.004701
28128000,0.0324,0.013523,0.002678,0.000431,0.004701
28129000,0.0324,0.013523,0.002678,0.000431,0.019745
28130000,0.0324,0.013523,0.002678,0.000431,0.004701
28131000,0.0324,0.013523,0.002678,0.000431,0.012223
28132000,0.0324,0.013523,0.002678,0.000431,0.057589
28133000,0.0324,0.013523,0.002678,0.000431,0.004701
28134000,0.0324,0.013523,0.002678,0.000431,0.004701
28135000,0.0324,0.013523,0.002678,0.000431,0.004701
28136000,0.0324,0.013523,0.002678,0.000431,0.004701
28137000,0.0324,0.013523,0.002678,0.000431,0.022213
28138000,0.0324,0.013523,0.002678,0.000431,0.017277
28139000,0.0324,0.013523,0.002678,0.000431,0.004701
28140000,0.0324,0.013523,0.002678,0.000431,0.004701
28141000,0.0324,0.013523,0.002678,0.000431,0.047834
28142000,0.0324,0.013523,0.002678,0.000431,0.013751
28143000,0.0324,0.013523,0.002678,0.000431,0.004701
28144000,0.0324,0.013523,0.002678,0.000431,0.064876
28145000,0.0324,0.013523,0.002678,0.000431,0.027267
28146000,0.0324,0.013523,0.002678,0.000431,0.004701
28147000,0.0324,0.013523,0.002678,0.000431,0.004701
28148000,0.0324,0.013523,0.002678,0.000431,0.019745
28149000,0.0324,0.013523,0.002678,0.000431,0.004701
28150000,0.0324,0.013523,0.002678,0.000431,0.019745
28151000,0.0324,0.013523,0.002678,0.000431,0.004701
28152000,0.0324,0.013523,0.002678,0.000431,0.004701
28153000,0.0324,0.013523,0.002678,0.000431,0.021155
28154000,0.0324,0.013523,0.002678,0.000431,0.080507
28155000,0.0324,0.013523,0.002678,0.000431,0.017747
28156000,0.0324,0.013523,0.002678,0.000431,0.004701
28157000,0.0324,0.013523,0.002678,0.000431,0.004466
28158000,0.0324,0.013523,0.002678,0.000431,0.004466
28159000,0.0324,0.013523,0.002678,0.000431,0.004701
28160000,0.0324,0.013523,0.002678,0.000431,0.012223
28161000,0.0324,0.013523,0.002678,0.000431,0.004701
28162000,0.0324,0.013523,0.002678,0.000431,0.004701
28163000,0.0324,0.013523,0.002678,0.000431,0.012223
28164000,0.0324,0.013523,0.002678,0.000431,0.004466
28165000,0.0324,0.013523,0.002678,0.000431,0.004701
28166000,0.0324,0.013523,0.002678,0.000431,0.004701
28167000,0.0324,0.013523,0.002678,0.000431,0.041252
28168000,0.0324,0.013523,0.002678,0.000431,0.013281
28169000,0.0324,0.013523,0.002678,0.000431,0.004701
28170000,0.0324,0.013523,0.002678,0.000431,0.004701
28171000,0.0324,0.013523,0.002678,0.000431,0.042310
28172000,0.0324,0.013523,0.002678,0.000431,0.004701
28173000,0.0324,0.013523,0.002678,0.000431,0.019745
28174000,0.0324,0.013523,0.002678,0.000431,0.012223
28175000,0.0324,0.013523,0.002678,0.000431,0.004701
28176000,0.0324,0.013523,0.002678,0.000431,0.019745
28177000,0.0324,0.013523,0.002678,0.000431,0.019745
28178000,0.0324,0.013523,0.002678,0.000431,0.004701
28179000,0.0324,0.013523,0.002678,0.000431,0.011165
28180000,0.0324,0.013523,0.002678,0.000431,0.043368
28181000,0.0324,0.013523,0.002678,0.000431,0.004701
28182000,0.0324,0.013523,0.002678,0.000431,0.027149
28183000,0.0324,0.013523,0.002678,0.000431,0.050185
28184000,0.0324,0.013523,0.002678,0.000431,0.019275
28185000,0.0324,0.013523,0.002678,0.000431,0.004701
28186000,0.0324,0.013523,0.002678,0.000431,0.015044
28187000,0.0324,0.013523,0.002678,0.000431,0.016924
28188000,0.0324,0.013523,0.002678,0.000431,0.004701
28189000,0.0324,0.013523,0.002678,0.000431,0.004701
28190000,0.0324,0.013523,0.002678,0.000431,0.004701
28191000,0.0324,0.013523,0.002678,0.000431,0.004701
28192000,0.0324,0.013523,0.002678,0.000431,0.019745
28193000,0.0324,0.013523,0.002678,0.000431,0.012223
28194000,0.0324,0.013523,0.002678,0.000431,0.004701
28195000,0.0324,0.013523,0.002678,0.000431,0.019745
28196000,0.0324,0.013523,0.002678,0.000431,0.015984
28197000,0.0324,0.013523,0.002678,0.000431,0.008227
28198000,0.0324,0.013523,0.002678,0.000431,0.004466
28199000,0.0324,0.013523,0.002678,0.000431,0.019745
28200000,0.0324,0.013523,0.002678,0.000431,0.012223
28201000,0.0324,0.013523,0.002678,0.000431,0.004701
28202000,0.0324,0.013523,0.002678,0.000431,0.027267
28203000,0.0324,0.013523,0.002678,0.000431,0.027267
28204000,0.0324,0.013523,0.002678,0.000431,0.004584
28205000,0.0324,0.013523,0.002678,0.000431,0.012105
28206000,0.0324,0.013523,0.002678,0.000431,0.004701
28207000,0.0324,0.013523,0.002678,0.000431,0.004701
28208000,0.0324,0.013523,0.002678,0.000431,0.012223
28209000,0.0324,0.013523,0.002678,0.000431,0.012223
28210000,0.0324,0.013523,0.002678,0.000431,0.004701
28211000,0.0324,0.013523,0.002678,0.000431,0.008462
28212000,0.0324,0.013523,0.002678,0.000431,0.038549
28213000,0.0324,0.013523,0.002678,0.000431,0.004701
28214000,0.0324,0.013523,0.002678,0.000431,0.005759
28215000,0.0324,0.013523,0.002678,0.000431,0.026209
28216000,0.0324,0.013523,0.002678,0.000431,0.019627
28217000,0.0324,0.013523,0.002678,0.000431,0.004584
28218000,0.0324,0.013523,0.002678,0.000431,0.064641
28219000,0.0324,0.013523,0.002678,0.000431,0.042310
28220000,0.0324,0.013523,0.002678,0.000431,0.004701
28221000,0.0324,0.013523,0.002678,0.000431,0.019745
28222000,0.0324,0.013523,0.002678,0.000431,0.004701
28223000,0.0324,0.013523,0.002678,0.000431,0.004701
28224000,0.0324,0.013523,0.002678,0.000431,0.012223
28225000,0.0324,0.013523,0.002678,0.000431,0.012223
28226000,0.0324,0.013523,0.002678,0.000431,0.004701
28227000,0.0324,0.013523,0.002678,0.000431,0.008462
28228000,0.0324,0.013523,0.002678,0.000431,0.015984
28229000,0.0324,0.013523,0.002678,0.000431,0.034553
28230000,0.0324,0.013523,0.002678,0.000431,0.004701
28231000,0.0324,0.013523,0.002678,0.000431,0.031027
28232000,0.0324,0.013523,0.002678,0.000431,0.038314
28233000,0.0324,0.013523,0.002678,0.000431,0.004701
28234000,0.0324,0.013523,0.002678,0.000431,0.034788
28235000,0.0324,0.013523,0.002678,0.000431,0.012223
28236000,0.0324,0.013523,0.002678,0.000431,0.004701
28237000,0.0324,0.013523,0.002678,0.000431,0.027267
28238000,0.0324,0.013523,0.002678,0.000431,0.034553
28239000,0.0324,0.013523,0.002678,0.000431,0.004701
28240000,0.0324,0.013523,0.002678,0.000431,0.004701
28241000,0.0324,0.013523,0.002678,0.000431,0.010225
28242000,0.0324,0.013523,0.002678,0.000431,0.006699
28243000,0.0324,0.013523,0.002678,0.000431,0.004701
28244000,0.0324,0.013523,0.002678,0.000431,0.023388
28245000,0.0324,0.013523,0.002678,0.000431,0.008345
28246000,0.0324,0.013523,0.002678,0.000431,0.004701
28247000,0.0324,0.013523,0.002678,0.000431,0.049597
28248000,0.0324,0.013523,0.002678,0.000431,0.012223
28249000,0.0324,0.013523,0.002678,0.000431,0.004701
28250000,0.0324,0.013523,0.002678,0.000431,0.034788
28251000,0.0324,0.013523,0.002678,0.000431,0.012223
28252000,0.0324,0.013523,0.002678,0.000431,0.004701
28253000,0.0324,0.013523,0.002678,0.000431,0.010460
28254000,0.0324,0.013523,0.002678,0.000431,0.042545
28255000,0.0324,0.013523,0.002678,0.000431,0.028794
28256000,0.0324,0.013523,0.002678,0.000431,0.013163
28257000,0.0324,0.013523,0.002678,0.000431,0.033613
28258000,0.0324,0.013523,0.002678,0.000431,0.004701
28259000,0.0324,0.013523,0.002678,0.000431,0.004701
28260000,0.0324,0.013523,0.002678,0.000431,0.034788
28261000,0.0324,0.013523,0.002678,0.000431,0.027267
28262000,0.0324,0.013523,0.002678,0.000431,0.004701
28263000,0.0324,0.013523,0.002678,0.000431,0.004701
28264000,0.0324,0.013523,0.002678,0.000431,0.012223
28265000,0.0324,0.013523,0.002678,0.000431,0.004701
28266000,0.0324,0.013523,0.002678,0.000431,0.034788
28267000,0.0324,0.013523,0.002678,0.000431,0.038549
28268000,0.0324,0.013523,0.002678,0.000431,0.008462
28269000,0.0324,0.013523,0.002678,0.000431,0.004701
28270000,0.0324,0.013523,0.002678,0.000431,0.055121
28271000,0.0324,0.013523,0.002678,0.000431,0.006699
28272000,0.0324,0.013523,0.002678,0.000431,0.004466
28273000,0.0324,0.013523,0.002678,0.000431,0.015984
28274000,0.0324,0.013523,0.002678,0.000431,0.015984
28275000,0.0324,0.013523,0.002678,0.000431,0.004701
28276000,0.0324,0.013523,0.002678,0.000431,0.042310
28277000,0.0324,0.013523,0.002678,0.000431,0.012223
28278000,0.0324,0.013523,0.002678,0.000431,0.004584
28279000,0.0324,0.013523,0.002678,0.000431,0.004584
28280000,0.0324,0.013523,0.002678,0.000431,0.004701
28281000,0.0324,0.013523,0.002678,0.000431,0.004701
28282000,0.0324,0.013523,0.002678,0.000431,0.004701
28283000,0.0324,0.013523,0.002678,0.000431,0.012223
28284000,0.0324,0.013523,0.002678,0.000431,0.004701
28285000,0.0324,0.013523,0.002678,0.000431,0.007522
28286000,0.0324,0.013523,0.002678,0.000431,0.046071
28287000,0.0324,0.013523,0.002678,0.000431,0.080624
28288000,0.0324,0.013523,0.002678,0.000431,0.004701
28289000,0.0324,0.013523,0.002678,0.000431,0.031027
28290000,0.0324,0.013523,0.002678,0.000431,0.008462
28291000,0.0324,0.013523,0.002678,0.000431,0.004701
28292000,0.0324,0.013523,0.002678,0.000431,0.004701
28293000,0.0324,0.013523,0.002678,0.000431,0.019745
28294000,0.0324,0.013523,0.002678,0.000431,0.004701
28295000,0.0324,0.013523,0.002678,0.000431,0.042310
28296000,0.0324,0.013523,0.002678,0.000431,0.057354
28297000,0.0324,0.013523,0.002678,0.000431,0.004466
28298000,0.0324,0.013523,0.002678,0.000431,0.034788
28299000,0.0324,0.013523,0.002678,0.000431,0.004701
28300000,0.0324,0.013523,0.002678,0.000431,0.004701
28301000,0.0324,0.013523,0.002678,0.000431,0.004701
28302000,0.0324,0.013523,0.002678,0.000431,0.044543
28303000,0.0324,0.013523,0.002678,0.000431,0.017747
28304000,0.0324,0.013523,0.002678,0.000431,0.004701
28305000,0.0324,0.013523,0.002678,0.000431,0.064876
28306000,0.0324,0.013523,0.002678,0.000431,0.057354
28307000,0.0324,0.013523,0.002678,0.000431,0.004701
28308000,0.0324,0.013523,0.002678,0.000431,0.019745
28309000,0.0324,0.013523,0.002678,0.000431,0.019745
28310000,0.0324,0.013523,0.002678,0.000431,0.004701
28311000,0.0324,0.013523,0.002678,0.000431,0.019745
28312000,0.0324,0.013523,0.002678,0.000431,0.004349
28313000,0.0324,0.013523,0.002678,0.000431,0.004466
28314000,0.0324,0.013523,0.002678,0.000431,0.022565
28315000,0.0324,0.013523,0.002678,0.000431,0.028089
28316000,0.0324,0.013523,0.002678,0.000431,0.008462
28317000,0.0324,0.013523,0.002678,0.000431,0.008580
28318000,0.0324,0.013523,0.002678,0.000431,0.023388
28319000,0.0324,0.013523,0.002678,0.000431,0.019745
28320000,0.0324,0.013523,0.002678,0.000431,0.004701
28321000,0.0324,0.013523,0.002678,0.000431,0.102955
28322000,0.0324,0.013523,0.002678,0.000431,0.027502
28323000,0.0324,0.013523,0.002678,0.000431,0.004701
28324000,0.0324,0.013523,0.002678,0.000431,0.019745
28325000,0.0324,0.013523,0.002678,0.000431,0.034553
28326000,0.0324,0.013523,0.002678,0.000431,0.004701
28327000,0.0324,0.013523,0.002678,0.000431,0.004584
28328000,0.0324,0.013523,0.002678,0.000431,0.012105
28329000,0.0324,0.013523,0.002678,0.000431,0.004701
28330000,0.0324,0.013523,0.002678,0.000431,0.023506
28331000,0.0324,0.013523,0.002678,0.000431,0.062643
28332000,0.0324,0.013523,0.002678,0.000431,0.018217
28333000,0.0324,0.013523,0.002678,0.000431,0.004701
28334000,0.0324,0.013523,0.002678,0.000431,0.012223
28335000,0.0324,0.013523,0.002678,0.000431,0.004701
28336000,0.0324,0.013523,0.002678,0.000431,0.004701
28337000,0.0324,0.013523,0.002678,0.000431,0.012223
28338000,0.0324,0.013523,0.002678,0.000431,0.019745
28339000,0.0324,0.013523,0.002678,0.000431,0.004701
28340000,0.0324,0.013523,0.002678,0.000431,0.004701
28341000,0.0324,0.013523,0.002678,0.000431,0.012458
28342000,0.0324,0.013523,0.002678,0.000431,0.004701
28343000,0.0324,0.013523,0.002678,0.000431,0.032320
28344000,0.0324,0.013523,0.002678,0.000431,0.016454
28345000,0.0324,0.013523,0.002678,0.000431,0.010342
28346000,0.0324,0.013523,0.002678,0.000431,0.004584
28347000,0.0324,0.013523,0.002678,0.000431,0.064876
28348000,0.0324,0.013523,0.002678,0.000431,0.004701
28349000,0.0324,0.013523,0.002678,0.000431,0.004701
28350000,0.0324,0.013523,0.002678,0.000431,0.019745
28351000,0.0324,0.013523,0.002678,0.000431,0.004701
28352000,0.0324,0.013523,0.002678,0.000431,0.004701
28353000,0.0324,0.013523,0.002678,0.000431,0.012223
28354000,0.0324,0.013523,0.002678,0.000431,0.011988
28355000,0.0324,0.013523,0.002678,0.000431,0.004701
28356000,0.0324,0.013523,0.002678,0.000431,0.032320
28357000,0.0324,0.013523,0.002678,0.000431,0.022213
28358000,0.0324,0.013523,0.002678,0.000431,0.004701
28359000,0.0324,0.013523,0.002678,0.000431,0.004701
28360000,0.0324,0.013523,0.002678,0.000431,0.096021
28361000,0.0324,0.013523,0.002678,0.000431,0.033496
28362000,0.0324,0.013523,0.002678,0.000431,0.005759
28363000,0.0324,0.013523,0.002678,0.000431,0.026209
28364000,0.0324,0.013523,0.002678,0.000431,0.042310
28365000,0.0324,0.013523,0.002678,0.000431,0.004466
28366000,0.0324,0.013523,0.002678,0.000431,0.012223
28367000,0.0324,0.013523,0.002678,0.000431,0.042193
28368000,0.0324,0.013523,0.002678,0.000431,0.004584
28369000,0.0324,0.013523,0.002678,0.000431,0.083210
28370000,0.0324,0.013523,0.002678,0.000431,0.039489
28371000,0.0324,0.013523,0.002678,0.000431,0.004701
28372000,0.0324,0.013523,0.002678,0.000431,0.012223
28373000,0.0324,0.013523,0.002678,0.000431,0.051712
28374000,0.0324,0.013523,0.002678,0.000431,0.017864
28375000,0.0324,0.013523,0.002678,0.000431,0.004701
28376000,0.0324,0.013523,0.002678,0.000431,0.010813
28377000,0.0324,0.013523,0.002678,0.000431,0.021155
28378000,0.0324,0.013523,0.002678,0.000431,0.004701
28379000,0.0324,0.013523,0.002678,0.000431,0.012223
28380000,0.0324,0.013523,0.002678,0.000431,0.004701
28381000,0.0324,0.013523,0.002678,0.000431,0.004701
28382000,0.0324,0.013523,0.002678,0.000431,0.004701
28383000,0.0324,0.013523,0.002678,0.000431,0.004701
28384000,0.0324,0.013523,0.002678,0.000431,0.004701
28385000,0.0324,0.013523,0.002678,0.000431,0.012223
28386000,0.0324,0.013523,0.002678,0.000431,0.004701
28387000,0.0324,0.013523,0.002678,0.000431,0.004701
28388000,0.0324,0.013523,0.002678,0.000431,0.018687
28389000,0.0324,0.013523,0.002678,0.000431,0.015984
28390000,0.0324,0.013523,0.002678,0.000431,0.009520
28391000,0.0324,0.013523,0.002678,0.000431,0.050537
28392000,0.0324,0.013523,0.002678,0.000431,0.004701
28393000,0.0324,0.013523,0.002678,0.000431,0.004701
28394000,0.0324,0.013523,0.002678,0.000431,0.004466
28395000,0.0324,0.013523,0.002678,0.000431,0.012105
28396000,0.0324,0.013523,0.002678,0.000431,0.027149
28397000,0.0324,0.013523,0.002678,0.000431,0.010578
28398000,0.0324,0.013523,0.002678,0.000431,0.104130
28399000,0.0324,0.013523,0.002678,0.000431,0.004584
28400000,0.0324,0.013523,0.002678,0.000431,0.004584
28401000,0.0324,0.013523,0.002678,0.000431,0.012223
28402000,0.0324,0.013523,0.002678,0.000431,0.004701
28403000,0.0324,0.013523,0.002678,0.000431,0.004701
28404000,0.0324,0.013523,0.002678,0.000431,0.004701
28405000,0.0324,0.013523,0.002678,0.000431,0.012223
28406000,0.0324,0.013523,0.002678,0.000431,0.019745
28407000,0.0324,0.013523,0.002678,0.000431,0.004701
28408000,0.0324,0.013523,0.002678,0.000431,0.004701
28409000,0.0324,0.013523,0.002678,0.000431,0.027267
28410000,0.0324,0.013523,0.002678,0.000431,0.019745
28411000,0.0324,0.013523,0.002678,0.000431,0.004701
28412000,0.0324,0.013523,0.002678,0.000431,0.004701
28413000,0.0324,0.013523,0.002678,0.000431,0.004701
28414000,0.0324,0.013523,0.002678,0.000431,0.012223
28415000,0.0324,0.013523,0.002678,0.000431,0.004701
28416000,0.0324,0.013523,0.002678,0.000431,0.004701
28417000,0.0324,0.013523,0.002678,0.000431,0.004701
28418000,0.0324,0.013523,0.002678,0.000431,0.004701
28419000,0.0324,0.013523,0.002678,0.000431,0.004701
28420000,0.0324,0.013523,0.002678,0.000431,0.015631
28421000,0.0324,0.013523,0.002678,0.000431,0.064641
28422000,0.0324,0.013523,0.002678,0.000431,0.114590
28423000,0.0324,0.013523,0.002678,0.000431,0.027267
28424000,0.0324,0.013523,0.002678,0.000431,0.004701
28425000,0.0324,0.013523,0.002678,0.000431,0.004701
28426000,0.0324,0.013523,0.002678,0.000431,0.004466
28427000,0.0324,0.013523,0.002678,0.000431,0.004701
28428000,0.0324,0.013523,0.002678,0.000431,0.004701
28429000,0.0324,0.013523,0.002678,0.000431,0.057354
28430000,0.0324,0.013523,0.002678,0.000431,0.004701
28431000,0.0324,0.013523,0.002678,0.000431,0.071692
28432000,0.0324,0.013523,0.002678,0.000431,0.095433
28433000,0.0324,0.013523,0.002678,0.000431,0.004819
28434000,0.0324,0.013523,0.002678,0.000431,0.004819
28435000,0.0324,0.013523,0.002678,0.000431,0.004936
28436000,0.0324,0.013523,0.002678,0.000431,0.072162
28437000,0.0324,0.013523,0.002678,0.000431,0.004701
28438000,0.0324,0.013523,0.002678,0.000431,0.004701
28439000,0.0324,0.013523,0.002678,0.000431,0.004701
28440000,0.0324,0.013523,0.002678,0.000431,0.072397
28441000,0.0324,0.013523,0.002678,0.000431,0.012928
28442000,0.0324,0.013523,0.002678,0.000431,0.034083
28443000,0.0324,0.013523,0.002678,0.000431,0.049832
28444000,0.0324,0.013523,0.002678,0.000431,0.004701
28445000,0.0324,0.013523,0.002678,0.000431,0.012223
28446000,0.0324,0.013523,0.002678,0.000431,0.004701
28447000,0.0324,0.013523,0.002678,0.000431,0.004701
28448000,0.0324,0.013523,0.002678,0.000431,0.004936
28449000,0.0324,0.013523,0.002678,0.000431,0.004701
28450000,0.0324,0.013523,0.002678,0.000431,0.004701
28451000,0.0324,0.013523,0.002678,0.000431,0.004701
28452000,0.0324,0.013523,0.002678,0.000431,0.004701
28453000,0.0324,0.013523,0.002678,0.000431,0.012223
28454000,0.0324,0.013523,0.002678,0.000431,0.025504
28455000,0.0324,0.013523,0.002678,0.000431,0.036434
28456000,0.0324,0.013523,0.002678,0.000431,0.015866
28457000,0.0324,0.013523,0.002678,0.000431,0.028089
28458000,0.0324,0.013523,0.002678,0.000431,0.007639
28459000,0.0324,0.013523,0.002678,0.000431,0.004701
28460000,0.0324,0.013523,0.002678,0.000431,0.004701
28461000,0.0324,0.013523,0.002678,0.000431,0.004701
28462000,0.0324,0.013523,0.002678,0.000431,0.004701
28463000,0.0324,0.013523,0.002678,0.000431,0.012223
28464000,0.0324,0.013523,0.002678,0.000431,0.020332
28465000,0.0324,0.013523,0.002678,0.000431,0.019157
28466000,0.0324,0.013523,0.002678,0.000431,0.019510
28467000,0.0324,0.013523,0.002678,0.000431,0.051477
28468000,0.0324,0.013523,0.002678,0.000431,0.018334
28469000,0.0324,0.013523,0.002678,0.000431,0.027502
28470000,0.0324,0.013523,0.002678,0.000431,0.004701
28471000,0.0324,0.013523,0.002678,0.000431,0.004701
28472000,0.0324,0.013523,0.002678,0.000431,0.011988
28473000,0.0324,0.013523,0.002678,0.000431,0.004701
28474000,0.0324,0.013523,0.002678,0.000431,0.004466
28475000,0.0324,0.013523,0.002678,0.000431,0.004701
28476000,0.0324,0.013523,0.002678,0.000431,0.012223
28477000,0.0324,0.013523,0.002678,0.000431,0.012223
28478000,0.0324,0.013523,0.002678,0.000431,0.004701
28479000,0.0324,0.013523,0.002678,0.000431,0.004701
28480000,0.0324,0.013523,0.002678,0.000431,0.027267
28481000,0.0324,0.013523,0.002678,0.000431,0.004701
28482000,0.0324,0.013523,0.002678,0.000431,0.075218
28483000,0.0324,0.013523,0.002678,0.000431,0.031968
28484000,0.0324,0.013523,0.002678,0.000431,0.027031
28485000,0.0324,0.013523,0.002678,0.000431,0.004701
28486000,0.0324,0.013523,0.002678,0.000431,0.004701
28487000,0.0324,0.013523,0.002678,0.000431,0.012223
28488000,0.0324,0.013523,0.002678,0.000431,0.004701
28489000,0.0324,0.013523,0.002678,0.000431,0.004701
28490000,0.0324,0.013523,0.002678,0.000431,0.085443
28491000,0.0324,0.013523,0.002678,0.000431,0.074160
28492000,0.0324,0.013523,0.002678,0.000431,0.004701
28493000,0.0324,0.013523,0.002678,0.000431,0.004701
28494000,0.0324,0.013523,0.002678,0.000431,0.004701
28495000,0.0324,0.013523,0.002678,0.000431,0.087206
28496000,0.0324,0.013523,0.002678,0.000431,0.004701
28497000,0.0324,0.013523,0.002678,0.000431,0.004701
28498000,0.0324,0.013523,0.002678,0.000431,0.004701
28499000,0.0324,0.013523,0.002678,0.000431,0.020450
28500000,0.0324,0.013523,0.002678,0.000431,0.004701
28501000,0.0324,0.013523,0.002678,0.000431,0.008462
28502000,0.0324,0.013523,0.002678,0.000431,0.008462
28503000,0.0324,0.013523,0.002678,0.000431,0.019745
28504000,0.0324,0.013523,0.002678,0.000431,0.004701
28505000,0.0324,0.013523,0.002678,0.000431,0.022918
28506000,0.0324,0.013523,0.002678,0.000431,0.009050
28507000,0.0324,0.013523,0.002678,0.000431,0.004701
28508000,0.0324,0.013523,0.002678,0.000431,0.012223
28509000,0.0324,0.013523,0.002678,0.000431,0.004936
28510000,0.0324,0.013523,0.002678,0.000431,0.004701
28511000,0.0324,0.013523,0.002678,0.000431,0.004701
28512000,0.0324,0.013523,0.002678,0.000431,0.117528
28513000,0.0324,0.013523,0.002678,0.000431,0.004701
28514000,0.0324,0.013523,0.002678,0.000431,0.011870
28515000,0.0324,0.013523,0.002678,0.000431,0.004584
28516000,0.0324,0.013523,0.002678,0.000431,0.012223
28517000,0.0324,0.013523,0.002678,0.000431,0.004701
28518000,0.0324,0.013523,0.002678,0.000431,0.008462
28519000,0.0324,0.013523,0.002678,0.000431,0.008227
28520000,0.0324,0.013523,0.002678,0.000431,0.004701
28521000,0.0324,0.013523,0.002678,0.000431,0.004701
28522000,0.0324,0.013523,0.002678,0.000431,0.004701
28523000,0.0324,0.013523,0.002678,0.000431,0.019745
28524000,0.0324,0.013523,0.002678,0.000431,0.004701
28525000,0.0324,0.013523,0.002678,0.000431,0.012223
28526000,0.0324,0.013523,0.002678,0.000431,0.004701
28527000,0.0324,0.013523,0.002678,0.000431,0.004701
28528000,0.0324,0.013523,0.002678,0.000431,0.004701
28529000,0.0324,0.013523,0.002678,0.000431,0.090967
28530000,0.0324,0.013523,0.002678,0.000431,0.015984
28531000,0.0324,0.013523,0.002678,0.000431,0.017982
28532000,0.0324,0.013523,0.002678,0.000431,0.013986
28533000,0.0324,0.013523,0.002678,0.000431,0.004701
28534000,0.0324,0.013523,0.002678,0.000431,0.004701
28535000,0.0324,0.013523,0.002678,0.000431,0.015749
28536000,0.0324,0.013523,0.002678,0.000431,0.076158
28537000,0.0324,0.013523,0.002678,0.000431,0.004701
28538000,0.0324,0.013523,0.002678,0.000431,0.034788
28539000,0.0324,0.013523,0.002678,0.000431,0.004701
28540000,0.0324,0.013523,0.002678,0.000431,0.109771
28541000,0.0324,0.013523,0.002678,0.000431,0.004466
28542000,0.0324,0.013523,0.002678,0.000431,0.019745
28543000,0.0324,0.013523,0.002678,0.000431,0.004701
28544000,0.0324,0.013523,0.002678,0.000431,0.004701
28545000,0.0324,0.013523,0.002678,0.000431,0.004701
28546000,0.0324,0.013523,0.002678,0.000431,0.004701
28547000,0.0324,0.013523,0.002678,0.000431,0.004701
28548000,0.0324,0.013523,0.002678,0.000431,0.008345
28549000,0.0324,0.013523,0.002678,0.000431,0.045954
28550000,0.0324,0.013523,0.002678,0.000431,0.004701
28551000,0.0324,0.013523,0.002678,0.000431,0.004701
28552000,0.0324,0.013523,0.002678,0.000431,0.004701
28553000,0.0324,0.013523,0.002678,0.000431,0.087441
28554000,0.0324,0.013523,0.002678,0.000431,0.004701
28555000,0.0324,0.013523,0.002678,0.000431,0.134217
28556000,0.0324,0.013523,0.002678,0.000431,0.032438
28557000,0.0324,0.013523,0.002678,0.000431,0.035023
28558000,0.0324,0.013523,0.002678,0.000431,0.004701
28559000,0.0324,0.013523,0.002678,0.000431,0.048422
28560000,0.0324,0.013523,0.002678,0.000431,0.020920
28561000,0.0324,0.013523,0.002678,0.000431,0.004701
28562000,0.0324,0.013523,0.002678,0.000431,0.034788
28563000,0.0324,0.013523,0.002678,0.000431,0.012223
28564000,0.0324,0.013523,0.002678,0.000431,0.019745
28565000,0.0324,0.013523,0.002678,0.000431,0.004701
28566000,0.0324,0.013523,0.002678,0.000431,0.019745
28567000,0.0324,0.013523,0.002678,0.000431,0.004701
28568000,0.0324,0.013523,0.002678,0.000431,0.008462
28569000,0.0324,0.013523,0.002678,0.000431,0.008462
28570000,0.0324,0.013523,0.002678,0.000431,0.064876
28571000,0.0324,0.013523,0.002678,0.000431,0.004584
28572000,0.0324,0.013523,0.002678,0.000431,0.012105
28573000,0.0324,0.013523,0.002678,0.000431,0.004701
28574000,0.0324,0.013523,0.002678,0.000431,0.012223
28575000,0.0324,0.013523,0.002678,0.000431,0.034788
28576000,0.0324,0.013523,0.002678,0.000431,0.026326
28577000,0.0324,0.013523,0.002678,0.000431,0.035729
28578000,0.0324,0.013523,0.002678,0.000431,0.004701
28579000,0.0324,0.013523,0.002678,0.000431,0.019745
28580000,0.0324,0.013523,0.002678,0.000431,0.004701
28581000,0.0324,0.013523,0.002678,0.000431,0.042193
28582000,0.0324,0.013523,0.002678,0.000431,0.004584
28583000,0.0324,0.013523,0.002678,0.000431,0.004701
28584000,0.0324,0.013523,0.002678,0.000431,0.004701
28585000,0.0324,0.013523,0.002678,0.000431,0.027267
28586000,0.0324,0.013523,0.002678,0.000431,0.004701
28587000,0.0324,0.013523,0.002678,0.000431,0.072162
28588000,0.0324,0.013523,0.002678,0.000431,0.124345
28589000,0.0324,0.013523,0.002678,0.000431,0.004701
28590000,0.0324,0.013523,0.002678,0.000431,0.004701
28591000,0.0324,0.013523,0.002678,0.000431,0.004701
28592000,0.0324,0.013523,0.002678,0.000431,0.004701
28593000,0.0324,0.013523,0.002678,0.000431,0.004701
28594000,0.0324,0.013523,0.002678,0.000431,0.004701
28595000,0.0324,0.013523,0.002678,0.000431,0.042310
28596000,0.0324,0.013523,0.002678,0.000431,0.027267
28597000,0.0324,0.013523,0.002678,0.000431,0.012576
28598000,0.0324,0.013523,0.002678,0.000431,0.049479
28599000,0.0324,0.013523,0.002678,0.000431,0.004701
28600000,0.0324,0.013523,0.002678,0.000431,0.027267
28601000,0.0324,0.013523,0.002678,0.000431,0.004701
28602000,0.0324,0.013523,0.002678,0.000431,0.066638
28603000,0.0324,0.013523,0.002678,0.000431,0.025504
28604000,0.0324,0.013523,0.002678,0.000431,0.108008
28605000,0.0324,0.013523,0.002678,0.000431,0.013751
28606000,0.0324,0.013523,0.002678,0.000431,0.009050
28607000,0.0324,0.013523,0.002678,0.000431,0.022918
28608000,0.0324,0.013523,0.002678,0.000431,0.004701
28609000,0.0324,0.013523,0.002678,0.000431,0.027267
28610000,0.0324,0.013523,0.002678,0.000431,0.004701
28611000,0.0324,0.013523,0.002678,0.000431,0.042310
28612000,0.0324,0.013523,0.002678,0.000431,0.004701
28613000,0.0324,0.013523,0.002678,0.000431,0.034788
28614000,0.0324,0.013523,0.002678,0.000431,0.038197
28615000,0.0324,0.013523,0.002678,0.000431,0.024093
28616000,0.0324,0.013523,0.002678,0.000431,0.004701
28617000,0.0324,0.013523,0.002678,0.000431,0.019745
28618000,0.0324,0.013523,0.002678,0.000431,0.004701
28619000,0.0324,0.013523,0.002678,0.000431,0.019745
28620000,0.0324,0.013523,0.002678,0.000431,0.079919
28621000,0.0324,0.013523,0.002678,0.000431,0.019627
28622000,0.0324,0.013523,0.002678,0.000431,0.027149
28623000,0.0324,0.013523,0.002678,0.000431,0.004701
28624000,0.0324,0.013523,0.002678,0.000431,0.004584
28625000,0.0324,0.013523,0.002678,0.000431,0.004584
28626000,0.0324,0.013523,0.002678,0.000431,0.004701
28627000,0.0324,0.013523,0.002678,0.000431,0.042310
28628000,0.0324,0.013523,0.002678,0.000431,0.004701
28629000,0.0324,0.013523,0.002678,0.000431,0.004701
28630000,0.0324,0.013523,0.002678,0.000431,0.042310
28631000,0.0324,0.013523,0.002678,0.000431,0.004701
28632000,0.0324,0.013523,0.002678,0.000431,0.036434
28633000,0.0324,0.013523,0.002678,0.000431,0.040665
28634000,0.0324,0.013523,0.002678,0.000431,0.008462
28635000,0.0324,0.013523,0.002678,0.000431,0.008227
28636000,0.0324,0.013523,0.002678,0.000431,0.023036
28637000,0.0324,0.013523,0.002678,0.000431,0.023976
28638000,0.0324,0.013523,0.002678,0.000431,0.004701
28639000,0.0324,0.013523,0.002678,0.000431,0.019275
28640000,0.0324,0.013523,0.002678,0.000431,0.065111
28641000,0.0324,0.013523,0.002678,0.000431,0.027267
28642000,0.0324,0.013523,0.002678,0.000431,0.012223
28643000,0.0324,0.013523,0.002678,0.000431,0.027267
28644000,0.0324,0.013523,0.002678,0.000431,0.004701
28645000,0.0324,0.013523,0.002678,0.000431,0.027267
28646000,0.0324,0.013523,0.002678,0.000431,0.027267
28647000,0.0324,0.013523,0.002678,0.000431,0.040547
28648000,0.0324,0.013523,0.002678,0.000431,0.036316
28649000,0.0324,0.013523,0.002678,0.000431,0.015279
28650000,0.0324,0.013523,0.002678,0.000431,0.024446
28651000,0.0324,0.013523,0.002678,0.000431,0.006347
28652000,0.0324,0.013523,0.002678,0.000431,0.033260
28653000,0.0324,0.013523,0.002678,0.000431,0.012340
28654000,0.0324,0.013523,0.002678,0.000431,0.085796
28655000,0.0324,0.013523,0.002678,0.000431,0.073573
28656000,0.0324,0.013523,0.002678,0.000431,0.004701
28657000,0.0324,0.013523,0.002678,0.000431,0.004701
28658000,0.0324,0.013523,0.002678,0.000431,0.019745
28659000,0.0324,0.013523,0.002678,0.000431,0.004701
28660000,0.0324,0.013523,0.002678,0.000431,0.004701
28661000,0.0324,0.013523,0.002678,0.000431,0.025856
28662000,0.0324,0.013523,0.002678,0.000431,0.028677
28663000,0.0324,0.013523,0.002678,0.000431,0.019980
28664000,0.0324,0.013523,0.002678,0.000431,0.008462
28665000,0.0324,0.013523,0.002678,0.000431,0.023388
28666000,0.0324,0.013523,0.002678,0.000431,0.004584
28667000,0.0324,0.013523,0.002678,0.000431,0.004701
28668000,0.0324,0.013523,0.002678,0.000431,0.004701
28669000,0.0324,0.013523,0.002678,0.000431,0.012223
28670000,0.0324,0.013523,0.002678,0.000431,0.004701
28671000,0.0324,0.013523,0.002678,0.000431,0.102250
28672000,0.0324,0.013523,0.002678,0.000431,0.019745
28673000,0.0324,0.013523,0.002678,0.000431,0.004466
28674000,0.0324,0.013523,0.002678,0.000431,0.038549
28675000,0.0324,0.013523,0.002678,0.000431,0.008227
28676000,0.0324,0.013523,0.002678,0.000431,0.004701
28677000,0.0324,0.013523,0.002678,0.000431,0.015984
28678000,0.0324,0.013523,0.002678,0.000431,0.076158
28679000,0.0324,0.013523,0.002678,0.000431,0.004701
28680000,0.0324,0.013523,0.002678,0.000431,0.004701
28681000,0.0324,0.013523,0.002678,0.000431,0.019745
28682000,0.0324,0.013523,0.002678,0.000431,0.004701
28683000,0.0324,0.013523,0.002678,0.000431,0.004701
28684000,0.0324,0.013523,0.002678,0.000431,0.046071
28685000,0.0324,0.013523,0.002678,0.000431,0.023506
28686000,0.0324,0.013523,0.002678,0.000431,0.004701
28687000,0.0324,0.013523,0.002678,0.000431,0.004701
28688000,0.0324,0.013523,0.002678,0.000431,0.004701
28689000,0.0324,0.013523,0.002678,0.000431,0.004701
28690000,0.0324,0.013523,0.002678,0.000431,0.004701
28691000,0.0324,0.013523,0.002678,0.000431,0.004701
28692000,0.0324,0.013523,0.002678,0.000431,0.004701
28693000,0.0324,0.013523,0.002678,0.000431,0.008462
28694000,0.0324,0.013523,0.002678,0.000431,0.038549
28695000,0.0324,0.013523,0.002678,0.000431,0.113767
28696000,0.0324,0.013523,0.002678,0.000431,0.044191
28697000,0.0324,0.013523,0.002678,0.000431,0.021625
28698000,0.0324,0.013523,0.002678,0.000431,0.004701
28699000,0.0324,0.013523,0.002678,0.000431,0.004701
28700000,0.0324,0.013523,0.002678,0.000431,0.079684
28701000,0.0324,0.013523,0.002678,0.000431,0.004701
28702000,0.0324,0.013523,0.002678,0.000431,0.042075
28703000,0.0324,0.013523,0.002678,0.000431,0.027267
28704000,0.0324,0.013523,0.002678,0.000431,0.004701
28705000,0.0324,0.013523,0.002678,0.000431,0.004701
28706000,0.0324,0.013523,0.002678,0.000431,0.004701
28707000,0.0324,0.013523,0.002678,0.000431,0.004701
28708000,0.0324,0.013523,0.002678,0.000431,0.004701
28709000,0.0324,0.013523,0.002678,0.000431,0.027737
28710000,0.0324,0.013523,0.002678,0.000431,0.086853
28711000,0.0324,0.013523,0.002678,0.000431,0.050655
28712000,0.0324,0.013523,0.002678,0.000431,0.004701
28713000,0.0324,0.013523,0.002678,0.000431,0.049714
28714000,0.0324,0.013523,0.002678,0.000431,0.004584
28715000,0.0324,0.013523,0.002678,0.000431,0.027267
28716000,0.0324,0.013523,0.002678,0.000431,0.019745
28717000,0.0324,0.013523,0.002678,0.000431,0.050067
28718000,0.0324,0.013523,0.002678,0.000431,0.004701
28719000,0.0324,0.013523,0.002678,0.000431,0.012223
28720000,0.0324,0.013523,0.002678,0.000431,0.004701
28721000,0.0324,0.013523,0.002678,0.000431,0.056414
28722000,0.0324,0.013523,0.002678,0.000431,0.005641
28723000,0.0324,0.013523,0.002678,0.000431,0.004701
28724000,0.0324,0.013523,0.002678,0.000431,0.004701
28725000,0.0324,0.013523,0.002678,0.000431,0.004701
28726000,0.0324,0.013523,0.002678,0.000431,0.004701
28727000,0.0324,0.013523,0.002678,0.000431,0.004701
28728000,0.0324,0.013523,0.002678,0.000431,0.011635
28729000,0.0324,0.013523,0.002678,0.000431,0.020332
28730000,0.0324,0.013523,0.002678,0.000431,0.004701
28731000,0.0324,0.013523,0.002678,0.000431,0.004466
28732000,0.0324,0.013523,0.002678,0.000431,0.042310
28733000,0.0324,0.013523,0.002678,0.000431,0.004584
28734000,0.0324,0.013523,0.002678,0.000431,0.008462
28735000,0.0324,0.013523,0.002678,0.000431,0.016101
28736000,0.0324,0.013523,0.002678,0.000431,0.004701
28737000,0.0324,0.013523,0.002678,0.000431,0.004584
28738000,0.0324,0.013523,0.002678,0.000431,0.004584
28739000,0.0324,0.013523,0.002678,0.000431,0.004701
28740000,0.0324,0.013523,0.002678,0.000431,0.004701
28741000,0.0324,0.013523,0.002678,0.000431,0.019745
28742000,0.0324,0.013523,0.002678,0.000431,0.004701
28743000,0.0324,0.013523,0.002678,0.000431,0.012223
28744000,0.0324,0.013523,0.002678,0.000431,0.004701
28745000,0.0324,0.013523,0.002678,0.000431,0.019745
28746000,0.0324,0.013523,0.002678,0.000431,0.004701
28747000,0.0324,0.013523,0.002678,0.000431,0.057589
28748000,0.0324,0.013523,0.002678,0.000431,0.042310
28749000,0.0324,0.013523,0.002678,0.000431,0.020802
28750000,0.0324,0.013523,0.002678,0.000431,0.131279
28751000,0.0324,0.013523,0.002678,0.000431,0.015984
28752000,0.0324,0.013523,0.002678,0.000431,0.008462
28753000,0.0324,0.013523,0.002678,0.000431,0.018569
28754000,0.0324,0.013523,0.002678,0.000431,0.013163
28755000,0.0324,0.013523,0.002678,0.000431,0.004701
28756000,0.0324,0.013523,0.002678,0.000431,0.008462
28757000,0.0324,0.013523,0.002678,0.000431,0.021508
28758000,0.0324,0.013523,0.002678,0.000431,0.021743
28759000,0.0324,0.013523,0.002678,0.000431,0.004701
28760000,0.0324,0.013523,0.002678,0.000431,0.083680
28761000,0.0324,0.013523,0.002678,0.000431,0.113767
28762000,0.0324,0.013523,0.002678,0.000431,0.004701
28763000,0.0324,0.013523,0.002678,0.000431,0.035023
28764000,0.0324,0.013523,0.002678,0.000431,0.004701
28765000,0.0324,0.013523,0.002678,0.000431,0.004701
28766000,0.0324,0.013523,0.002678,0.000431,0.004701
28767000,0.0324,0.013523,0.002678,0.000431,0.004701
28768000,0.0324,0.013523,0.002678,0.000431,0.004584
28769000,0.0324,0.013523,0.002678,0.000431,0.027149
28770000,0.0324,0.013523,0.002678,0.000431,0.004701
28771000,0.0324,0.013523,0.002678,0.000431,0.004466
28772000,0.0324,0.013523,0.002678,0.000431,0.004701
28773000,0.0324,0.013523,0.002678,0.000431,0.076041
28774000,0.0324,0.013523,0.002678,0.000431,0.053475
28775000,0.0324,0.013523,0.002678,0.000431,0.004701
28776000,0.0324,0.013523,0.002678,0.000431,0.012223
28777000,0.0324,0.013523,0.002678,0.000431,0.004701
28778000,0.0324,0.013523,0.002678,0.000431,0.004701
28779000,0.0324,0.013523,0.002678,0.000431,0.012223
28780000,0.0324,0.013523,0.002678,0.000431,0.004701
28781000,0.0324,0.013523,0.002678,0.000431,0.035258
28782000,0.0324,0.013523,0.002678,0.000431,0.071692
28783000,0.0324,0.013523,0.002678,0.000431,0.004701
28784000,0.0324,0.013523,0.002678,0.000431,0.004701
28785000,0.0324,0.013523,0.002678,0.000431,0.004701
28786000,0.0324,0.013523,0.002678,0.000431,0.004701
28787000,0.0324,0.013523,0.002678,0.000431,0.027267
28788000,0.0324,0.013523,0.002678,0.000431,0.045601
28789000,0.0324,0.013523,0.002678,0.000431,0.016454
28790000,0.0324,0.013523,0.002678,0.000431,0.004701
28791000,0.0324,0.013523,0.002678,0.000431,0.004701
28792000,0.0324,0.013523,0.002678,0.000431,0.019980
28793000,0.0324,0.013523,0.002678,0.000431,0.004701
28794000,0.0324,0.013523,0.002678,0.000431,0.057354
28795000,0.0324,0.013523,0.002678,0.000431,0.004701
28796000,0.0324,0.013523,0.002678,0.000431,0.004701
28797000,0.0324,0.013523,0.002678,0.000431,0.004701
28798000,0.0324,0.013523,0.002678,0.000431,0.027502
28799000,0.0324,0.013523,0.002678,0.000431,0.004701
28800000,0.0324,0.013523,0.002678,0.000431,0.042310
28801000,0.0324,0.013523,0.002678,0.000431,0.038314
28802000,0.0324,0.013523,0.002678,0.000431,0.053828
28803000,0.0324,0.013523,0.002678,0.000431,0.004701
28804000,0.0324,0.013523,0.002678,0.000431,0.008462
28805000,0.0324,0.013523,0.002678,0.000431,0.023976
28806000,0.0324,0.013523,0.002678,0.000431,0.004701
28807000,0.0324,0.013523,0.002678,0.000431,0.043133
28808000,0.0324,0.013523,0.002678,0.000431,0.146675
28809000,0.0324,0.013523,0.002678,0.000431,0.027149
28810000,0.0324,0.013523,0.002678,0.000431,0.004701
28811000,0.0324,0.013523,0.002678,0.000431,0.019745
28812000,0.0324,0.013523,0.002678,0.000431,0.004701
28813000,0.0324,0.013523,0.002678,0.000431,0.004701
28814000,0.0324,0.013523,0.002678,0.000431,0.049597
28815000,0.0324,0.013523,0.002678,0.000431,0.019980
28816000,0.0324,0.013523,0.002678,0.000431,0.004584
28817000,0.0324,0.013523,0.002678,0.000431,0.023858
28818000,0.0324,0.013523,0.002678,0.000431,0.083210
28819000,0.0324,0.013523,0.002678,0.000431,0.004701
28820000,0.0324,0.013523,0.002678,0.000431,0.042545
28821000,0.0324,0.013523,0.002678,0.000431,0.057354
28822000,0.0324,0.013523,0.002678,0.000431,0.004701
28823000,0.0324,0.013523,0.002678,0.000431,0.004701
28824000,0.0324,0.013523,0.002678,0.000431,0.004936
28825000,0.0324,0.013523,0.002678,0.000431,0.004701
28826000,0.0324,0.013523,0.002678,0.000431,0.013281
28827000,0.0324,0.013523,0.002678,0.000431,0.071105
28828000,0.0324,0.013523,0.002678,0.000431,0.012223
28829000,0.0324,0.013523,0.002678,0.000431,0.004701
28830000,0.0324,0.013523,0.002678,0.000431,0.004701
28831000,0.0324,0.013523,0.002678,0.000431,0.004701
28832000,0.0324,0.013523,0.002678,0.000431,0.004701
28833000,0.0324,0.013523,0.002678,0.000431,0.004819
28834000,0.0324,0.013523,0.002678,0.000431,0.008580
28835000,0.0324,0.013523,0.002678,0.000431,0.008462
28836000,0.0324,0.013523,0.002678,0.000431,0.004701
28837000,0.0324,0.013523,0.002678,0.000431,0.004701
28838000,0.0324,0.013523,0.002678,0.000431,0.004701
28839000,0.0324,0.013523,0.002678,0.000431,0.017629
28840000,0.0324,0.013523,0.002678,0.000431,0.059352
28841000,0.0324,0.013523,0.002678,0.000431,0.019862
28842000,0.0324,0.013523,0.002678,0.000431,0.004701
28843000,0.0324,0.013523,0.002678,0.000431,0.012223
28844000,0.0324,0.013523,0.002678,0.000431,0.004701
28845000,0.0324,0.013523,0.002678,0.000431,0.004701
28846000,0.0324,0.013523,0.002678,0.000431,0.004701
28847000,0.0324,0.013523,0.002678,0.000431,0.087206
28848000,0.0324,0.013523,0.002678,0.000431,0.004584
28849000,0.0324,0.013523,0.002678,0.000431,0.004584
28850000,0.0324,0.013523,0.002678,0.000431,0.012223
28851000,0.0324,0.013523,0.002678,0.000431,0.004701
28852000,0.0324,0.013523,0.002678,0.000431,0.055826
28853000,0.0324,0.013523,0.002678,0.000431,0.022800
28854000,0.0324,0.013523,0.002678,0.000431,0.033496
28855000,0.0324,0.013523,0.002678,0.000431,0.004701
28856000,0.0324,0.013523,0.002678,0.000431,0.049714
28857000,0.0324,0.013523,0.002678,0.000431,0.004584
28858000,0.0324,0.013523,0.002678,0.000431,0.004701
28859000,0.0324,0.013523,0.002678,0.000431,0.023623
28860000,0.0324,0.013523,0.002678,0.000431,0.008580
28861000,0.0324,0.013523,0.002678,0.000431,0.004701
28862000,0.0324,0.013523,0.002678,0.000431,0.004701
28863000,0.0324,0.013523,0.002678,0.000431,0.004701
28864000,0.0324,0.013523,0.002678,0.000431,0.004701
28865000,0.0324,0.013523,0.002678,0.000431,0.050067
28866000,0.0324,0.013523,0.002678,0.000431,0.004466
28867000,0.0324,0.013523,0.002678,0.000431,0.004701
28868000,0.0324,0.013523,0.002678,0.000431,0.004701
28869000,0.0324,0.013523,0.002678,0.000431,0.094610
28870000,0.0324,0.013523,0.002678,0.000431,0.012811
28871000,0.0324,0.013523,0.002678,0.000431,0.004701
28872000,0.0324,0.013523,0.002678,0.000431,0.008462
28873000,0.0324,0.013523,0.002678,0.000431,0.015984
28874000,0.0324,0.013523,0.002678,0.000431,0.004701
28875000,0.0324,0.013523,0.002678,0.000431,0.004701
28876000,0.0324,0.013523,0.002678,0.000431,0.004701
28877000,0.0324,0.013523,0.002678,0.000431,0.011048
28878000,0.0324,0.013523,0.002678,0.000431,0.125755
28879000,0.0324,0.013523,0.002678,0.000431,0.065816
28880000,0.0324,0.013523,0.002678,0.000431,0.004701
28881000,0.0324,0.013523,0.002678,0.000431,0.004701
28882000,0.0324,0.013523,0.002678,0.000431,0.034788
28883000,0.0324,0.013523,0.002678,0.000431,0.004701
28884000,0.0324,0.013523,0.002678,0.000431,0.012223
28885000,0.0324,0.013523,0.002678,0.000431,0.042545
28886000,0.0324,0.013523,0.002678,0.000431,0.012223
28887000,0.0324,0.013523,0.002678,0.000431,0.004701
28888000,0.0324,0.013523,0.002678,0.000431,0.004584
28889000,0.0324,0.013523,0.002678,0.000431,0.004584
28890000,0.0324,0.013523,0.002678,0.000431,0.004701
28891000,0.0324,0.013523,0.002678,0.000431,0.064876
28892000,0.0324,0.013523,0.002678,0.000431,0.027267
28893000,0.0324,0.013523,0.002678,0.000431,0.004701
28894000,0.0324,0.013523,0.002678,0.000431,0.004701
28895000,0.0324,0.013523,0.002678,0.000431,0.004701
28896000,0.0324,0.013523,0.002678,0.000431,0.004701
28897000,0.0324,0.013523,0.002678,0.000431,0.012223
28898000,0.0324,0.013523,0.002678,0.000431,0.012223
28899000,0.0324,0.013523,0.002678,0.000431,0.004701
28900000,0.0324,0.013523,0.002678,0.000431,0.004701
28901000,0.0324,0.013523,0.002678,0.000431,0.004701
28902000,0.0324,0.013523,0.002678,0.000431,0.012223
28903000,0.0324,0.013523,0.002678,0.000431,0.012223
28904000,0.0324,0.013523,0.002678,0.000431,0.112474
28905000,0.0324,0.013523,0.002678,0.000431,0.032555
28906000,0.0324,0.013523,0.002678,0.000431,0.004584
28907000,0.0324,0.013523,0.002678,0.000431,0.004584
28908000,0.0324,0.013523,0.002678,0.000431,0.019745
28909000,0.0324,0.013523,0.002678,0.000431,0.004701
28910000,0.0324,0.013523,0.002678,0.000431,0.004936
28911000,0.0324,0.013523,0.002678,0.000431,0.027502
28912000,0.0324,0.013523,0.002678,0.000431,0.004701
28913000,0.0324,0.013523,0.002678,0.000431,0.004701
28914000,0.0324,0.013523,0.002678,0.000431,0.004701
28915000,0.0324,0.013523,0.002678,0.000431,0.034201
28916000,0.0324,0.013523,0.002678,0.000431,0.006699
28917000,0.0324,0.013523,0.002678,0.000431,0.010813
28918000,0.0324,0.013523,0.002678,0.000431,0.019745
28919000,0.0324,0.013523,0.002678,0.000431,0.004701
28920000,0.0324,0.013523,0.002678,0.000431,0.004701
28921000,0.0324,0.013523,0.002678,0.000431,0.056178
28922000,0.0324,0.013523,0.002678,0.000431,0.106481
28923000,0.0324,0.013523,0.002678,0.000431,0.008462
28924000,0.0324,0.013523,0.002678,0.000431,0.004701
28925000,0.0324,0.013523,0.002678,0.000431,0.034671
28926000,0.0324,0.013523,0.002678,0.000431,0.004584
28927000,0.0324,0.013523,0.002678,0.000431,0.004701
28928000,0.0324,0.013523,0.002678,0.000431,0.004936
28929000,0.0324,0.013523,0.002678,0.000431,0.057119
28930000,0.0324,0.013523,0.002678,0.000431,0.053593
28931000,0.0324,0.013523,0.002678,0.000431,0.015984
28932000,0.0324,0.013523,0.002678,0.000431,0.012223
28933000,0.0324,0.013523,0.002678,0.000431,0.004701
28934000,0.0324,0.013523,0.002678,0.000431,0.021390
28935000,0.0324,0.013523,0.002678,0.000431,0.010578
28936000,0.0324,0.013523,0.002678,0.000431,0.057354
28937000,0.0324,0.013523,0.002678,0.000431,0.019745
28938000,0.0324,0.013523,0.002678,0.000431,0.012223
28939000,0.0324,0.013523,0.002678,0.000431,0.004701
28940000,0.0324,0.013523,0.002678,0.000431,0.004701
28941000,0.0324,0.013523,0.002678,0.000431,0.004701
28942000,0.0324,0.013523,0.002678,0.000431,0.012223
28943000,0.0324,0.013523,0.002678,0.000431,0.012223
28944000,0.0324,0.013523,0.002678,0.000431,0.004701
28945000,0.0324,0.013523,0.002678,0.000431,0.012223
28946000,0.0324,0.013523,0.002678,0.000431,0.004701
28947000,0.0324,0.013523,0.002678,0.000431,0.004701
28948000,0.0324,0.013523,0.002678,0.000431,0.039254
28949000,0.0324,0.013523,0.002678,0.000431,0.060409
28950000,0.0324,0.013523,0.002678,0.000431,0.004466
28951000,0.0324,0.013523,0.002678,0.000431,0.019745
28952000,0.0324,0.013523,0.002678,0.000431,0.004701
28953000,0.0324,0.013523,0.002678,0.000431,0.004701
28954000,0.0324,0.013523,0.002678,0.000431,0.034788
28955000,0.0324,0.013523,0.002678,0.000431,0.014338
28956000,0.0324,0.013523,0.002678,0.000431,0.040195
28957000,0.0324,0.013523,0.002678,0.000431,0.019745
28958000,0.0324,0.013523,0.002678,0.000431,0.004701
28959000,0.0324,0.013523,0.002678,0.000431,0.004701
28960000,0.0324,0.013523,0.002678,0.000431,0.050067
28961000,0.0324,0.013523,0.002678,0.000431,0.004701
28962000,0.0324,0.013523,0.002678,0.000431,0.012105
28963000,0.0324,0.013523,0.002678,0.000431,0.027149
28964000,0.0324,0.013523,0.002678,0.000431,0.004701
28965000,0.0324,0.013523,0.002678,0.000431,0.004701
28966000,0.0324,0.013523,0.002678,0.000431,0.004466
28967000,0.0324,0.013523,0.002678,0.000431,0.016454
28968000,0.0324,0.013523,0.002678,0.000431,0.015514
28969000,0.0324,0.013523,0.002678,0.000431,0.004466
28970000,0.0324,0.013523,0.002678,0.000431,0.110006
28971000,0.0324,0.013523,0.002678,0.000431,0.004701
28972000,0.0324,0.013523,0.002678,0.000431,0.004701
28973000,0.0324,0.013523,0.002678,0.000431,0.019980
28974000,0.0324,0.013523,0.002678,0.000431,0.004701
28975000,0.0324,0.013523,0.002678,0.000431,0.012223
28976000,0.0324,0.013523,0.002678,0.000431,0.016807
28977000,0.0324,0.013523,0.002678,0.000431,0.007639
28978000,0.0324,0.013523,0.002678,0.000431,0.004701
28979000,0.0324,0.013523,0.002678,0.000431,0.004701
28980000,0.0324,0.013523,0.002678,0.000431,0.040077
28981000,0.0324,0.013523,0.002678,0.000431,0.014456
28982000,0.0324,0.013523,0.002678,0.000431,0.016689
28983000,0.0324,0.013523,0.002678,0.000431,0.007992
28984000,0.0324,0.013523,0.002678,0.000431,0.004701
28985000,0.0324,0.013523,0.002678,0.000431,0.004701
28986000,0.0324,0.013523,0.002678,0.000431,0.004701
28987000,0.0324,0.013523,0.002678,0.000431,0.012458
28988000,0.0324,0.013523,0.002678,0.000431,0.012223
28989000,0.0324,0.013523,0.002678,0.000431,0.004701
28990000,0.0324,0.013523,0.002678,0.000431,0.004349
28991000,0.0324,0.013523,0.002678,0.000431,0.004584
28992000,0.0324,0.013523,0.002678,0.000431,0.012223
28993000,0.0324,0.013523,0.002678,0.000431,0.004701
28994000,0.0324,0.013523,0.002678,0.000431,0.004701
28995000,0.0324,0.013523,0.002678,0.000431,0.004701
28996000,0.0324,0.013523,0.002678,0.000431,0.004701
28997000,0.0324,0.013523,0.002678,0.000431,0.004701
28998000,0.0324,0.013523,0.002678,0.000431,0.004701
28999000,0.0324,0.013523,0.002678,0.000431,0.025151
