Cycle,Area(mm^2),PeakDynamic(W),SubthresholdLeakage(W),GateLeakage(W),RunTimeDynamic(W)
18000000,0.0324,0.013523,0.002678,0.000431,0.123640
18001000,0.0324,0.013523,0.002678,0.000431,0.107186
18002000,0.0324,0.013523,0.002678,0.000431,0.188633
18003000,0.0324,0.013523,0.002678,0.000431,0.070164
18004000,0.0324,0.013523,0.002678,0.000431,0.087676
18005000,0.0324,0.013523,0.002678,0.000431,0.137155
18006000,0.0324,0.013523,0.002678,0.000431,0.087323
18007000,0.0324,0.013523,0.002678,0.000431,0.078039
18008000,0.0324,0.013523,0.002678,0.000431,0.137743
18009000,0.0324,0.013523,0.002678,0.000431,0.073690
18010000,0.0324,0.013523,0.002678,0.000431,0.115530
18011000,0.0324,0.013523,0.002678,0.000431,0.124110
18012000,0.0324,0.013523,0.002678,0.000431,0.159251
18013000,0.0324,0.013523,0.002678,0.000431,0.102955
18014000,0.0324,0.013523,0.002678,0.000431,0.098371
18015000,0.0324,0.013523,0.002678,0.000431,0.143737
18016000,0.0324,0.013523,0.002678,0.000431,0.088616
18017000,0.0324,0.013523,0.002678,0.000431,0.125520
18018000,0.0324,0.013523,0.002678,0.000431,0.125755
18019000,0.0324,0.013523,0.002678,0.000431,0.100487
18020000,0.0324,0.013523,0.002678,0.000431,0.142679
18021000,0.0324,0.013523,0.002678,0.000431,0.137743
18022000,0.0324,0.013523,0.002678,0.000431,0.165480
18023000,0.0324,0.013523,0.002678,0.000431,0.070164
18024000,0.0324,0.013523,0.002678,0.000431,0.105188
18025000,0.0324,0.013523,0.002678,0.000431,0.095785
18026000,0.0324,0.013523,0.002678,0.000431,0.049949
18027000,0.0324,0.013523,0.002678,0.000431,0.073220
18028000,0.0324,0.013523,0.002678,0.000431,0.160779
18029000,0.0324,0.013523,0.002678,0.000431,0.140211
18030000,0.0324,0.013523,0.002678,0.000431,0.232353
18031000,0.0324,0.013523,0.002678,0.000431,0.050537
18032000,0.0324,0.013523,0.002678,0.000431,0.161601
18033000,0.0324,0.013523,0.002678,0.000431,0.138331
18034000,0.0324,0.013523,0.002678,0.000431,0.094610
18035000,0.0324,0.013523,0.002678,0.000431,0.174647
18036000,0.0324,0.013523,0.002678,0.000431,0.090849
18037000,0.0324,0.013523,0.002678,0.000431,0.189690
18038000,0.0324,0.013523,0.002678,0.000431,0.091907
18039000,0.0324,0.013523,0.002678,0.000431,0.090967
18040000,0.0324,0.013523,0.002678,0.000431,0.123522
18041000,0.0324,0.013523,0.002678,0.000431,0.143149
18042000,0.0324,0.013523,0.002678,0.000431,0.080977
18043000,0.0324,0.013523,0.002678,0.000431,0.180758
18044000,0.0324,0.013523,0.002678,0.000431,0.198975
18045000,0.0324,0.013523,0.002678,0.000431,0.130809
18046000,0.0324,0.013523,0.002678,0.000431,0.170063
18047000,0.0324,0.013523,0.002678,0.000431,0.136098
18048000,0.0324,0.013523,0.002678,0.000431,0.219895
18049000,0.0324,0.013523,0.002678,0.000431,0.082857
18050000,0.0324,0.013523,0.002678,0.000431,0.111064
18051000,0.0324,0.013523,0.002678,0.000431,0.179348
18052000,0.0324,0.013523,0.002678,0.000431,0.103190
18053000,0.0324,0.013523,0.002678,0.000431,0.121054
18054000,0.0324,0.013523,0.002678,0.000431,0.149848
18055000,0.0324,0.013523,0.002678,0.000431,0.098254
18056000,0.0324,0.013523,0.002678,0.000431,0.173001
18057000,0.0324,0.013523,0.002678,0.000431,0.095315
18058000,0.0324,0.013523,0.002678,0.000431,0.099194
18059000,0.0324,0.013523,0.002678,0.000431,0.137038
18060000,0.0324,0.013523,0.002678,0.000431,0.118116
18061000,0.0324,0.013523,0.002678,0.000431,0.179348
18062000,0.0324,0.013523,0.002678,0.000431,0.098489
18063000,0.0324,0.013523,0.002678,0.000431,0.128693
18064000,0.0324,0.013523,0.002678,0.000431,0.054063
18065000,0.0324,0.013523,0.002678,0.000431,0.113180
18066000,0.0324,0.013523,0.002678,0.000431,0.096256
18067000,0.0324,0.013523,0.002678,0.000431,0.188750
18068000,0.0324,0.013523,0.002678,0.000431,0.089909
18069000,0.0324,0.013523,0.002678,0.000431,0.120701
18070000,0.0324,0.013523,0.002678,0.000431,0.115060
18071000,0.0324,0.013523,0.002678,0.000431,0.090379
18072000,0.0324,0.013523,0.002678,0.000431,0.102955
18073000,0.0324,0.013523,0.002678,0.000431,0.042898
18074000,0.0324,0.013523,0.002678,0.000431,0.155725
18075000,0.0324,0.013523,0.002678,0.000431,0.080154
18076000,0.0324,0.013523,0.002678,0.000431,0.132102
18077000,0.0324,0.013523,0.002678,0.000431,0.151259
18078000,0.0324,0.013523,0.002678,0.000431,0.096726
18079000,0.0324,0.013523,0.002678,0.000431,0.061350
18080000,0.0324,0.013523,0.002678,0.000431,0.226947
18081000,0.0324,0.013523,0.002678,0.000431,0.107186
18082000,0.0324,0.013523,0.002678,0.000431,0.147733
18083000,0.0324,0.013523,0.002678,0.000431,0.101779
18084000,0.0324,0.013523,0.002678,0.000431,0.090262
18085000,0.0324,0.013523,0.002678,0.000431,0.090262
18086000,0.0324,0.013523,0.002678,0.000431,0.053593
18087000,0.0324,0.013523,0.002678,0.000431,0.141269
18088000,0.0324,0.013523,0.002678,0.000431,0.117528
18089000,0.0324,0.013523,0.002678,0.000431,0.113650
18090000,0.0324,0.013523,0.002678,0.000431,0.226712
18091000,0.0324,0.013523,0.002678,0.000431,0.110476
18092000,0.0324,0.013523,0.002678,0.000431,0.065346
18093000,0.0324,0.013523,0.002678,0.000431,0.177820
18094000,0.0324,0.013523,0.002678,0.000431,0.186400
18095000,0.0324,0.013523,0.002678,0.000431,0.207555
18096000,0.0324,0.013523,0.002678,0.000431,0.082857
18097000,0.0324,0.013523,0.002678,0.000431,0.062525
18098000,0.0324,0.013523,0.002678,0.000431,0.057706
18099000,0.0324,0.013523,0.002678,0.000431,0.071692
18100000,0.0324,0.013523,0.002678,0.000431,0.156195
18101000,0.0324,0.013523,0.002678,0.000431,0.159133
18102000,0.0324,0.013523,0.002678,0.000431,0.141504
18103000,0.0324,0.013523,0.002678,0.000431,0.122347
18104000,0.0324,0.013523,0.002678,0.000431,0.108949
18105000,0.0324,0.013523,0.002678,0.000431,0.136685
18106000,0.0324,0.013523,0.002678,0.000431,0.125990
18107000,0.0324,0.013523,0.002678,0.000431,0.085796
18108000,0.0324,0.013523,0.002678,0.000431,0.217662
18109000,0.0324,0.013523,0.002678,0.000431,0.079332
18110000,0.0324,0.013523,0.002678,0.000431,0.115295
18111000,0.0324,0.013523,0.002678,0.000431,0.075923
18112000,0.0324,0.013523,0.002678,0.000431,0.152434
18113000,0.0324,0.013523,0.002678,0.000431,0.057824
18114000,0.0324,0.013523,0.002678,0.000431,0.080272
18115000,0.0324,0.013523,0.002678,0.000431,0.135628
18116000,0.0324,0.013523,0.002678,0.000431,0.156195
18117000,0.0324,0.013523,0.002678,0.000431,0.061115
18118000,0.0324,0.013523,0.002678,0.000431,0.088146
18119000,0.0324,0.013523,0.002678,0.000431,0.102720
18120000,0.0324,0.013523,0.002678,0.000431,0.091672
18121000,0.0324,0.013523,0.002678,0.000431,0.129516
18122000,0.0324,0.013523,0.002678,0.000431,0.061350
18123000,0.0324,0.013523,0.002678,0.000431,0.094963
18124000,0.0324,0.013523,0.002678,0.000431,0.201443
18125000,0.0324,0.013523,0.002678,0.000431,0.113062
18126000,0.0324,0.013523,0.002678,0.000431,0.162894
18127000,0.0324,0.013523,0.002678,0.000431,0.093787
18128000,0.0324,0.013523,0.002678,0.000431,0.066991
18129000,0.0324,0.013523,0.002678,0.000431,0.247749
18130000,0.0324,0.013523,0.002678,0.000431,0.171121
18131000,0.0324,0.013523,0.002678,0.000431,0.096491
18132000,0.0324,0.013523,0.002678,0.000431,0.102367
18133000,0.0324,0.013523,0.002678,0.000431,0.069107
18134000,0.0324,0.013523,0.002678,0.000431,0.129281
18135000,0.0324,0.013523,0.002678,0.000431,0.046306
18136000,0.0324,0.013523,0.002678,0.000431,0.166655
18137000,0.0324,0.013523,0.002678,0.000431,0.099194
18138000,0.0324,0.013523,0.002678,0.000431,0.034788
18139000,0.0324,0.013523,0.002678,0.000431,0.220835
18140000,0.0324,0.013523,0.002678,0.000431,0.179936
18141000,0.0324,0.013523,0.002678,0.000431,0.169241
18142000,0.0324,0.013523,0.002678,0.000431,0.104953
18143000,0.0324,0.013523,0.002678,0.000431,0.128811
18144000,0.0324,0.013523,0.002678,0.000431,0.106598
18145000,0.0324,0.013523,0.002678,0.000431,0.087911
18146000,0.0324,0.013523,0.002678,0.000431,0.061467
18147000,0.0324,0.013523,0.002678,0.000431,0.099194
18148000,0.0324,0.013523,0.002678,0.000431,0.115413
18149000,0.0324,0.013523,0.002678,0.000431,0.105658
18150000,0.0324,0.013523,0.002678,0.000431,0.139976
18151000,0.0324,0.013523,0.002678,0.000431,0.117646
18152000,0.0324,0.013523,0.002678,0.000431,0.222481
18153000,0.0324,0.013523,0.002678,0.000431,0.110829
18154000,0.0324,0.013523,0.002678,0.000431,0.087676
18155000,0.0324,0.013523,0.002678,0.000431,0.142209
18156000,0.0324,0.013523,0.002678,0.000431,0.128106
18157000,0.0324,0.013523,0.002678,0.000431,0.090732
18158000,0.0324,0.013523,0.002678,0.000431,0.056884
18159000,0.0324,0.013523,0.002678,0.000431,0.152317
18160000,0.0324,0.013523,0.002678,0.000431,0.084150
18161000,0.0324,0.013523,0.002678,0.000431,0.072867
18162000,0.0324,0.013523,0.002678,0.000431,0.074160
18163000,0.0324,0.013523,0.002678,0.000431,0.131749
18164000,0.0324,0.013523,0.002678,0.000431,0.140564
18165000,0.0324,0.013523,0.002678,0.000431,0.126225
18166000,0.0324,0.013523,0.002678,0.000431,0.094023
18167000,0.0324,0.013523,0.002678,0.000431,0.072632
18168000,0.0324,0.013523,0.002678,0.000431,0.035258
18169000,0.0324,0.013523,0.002678,0.000431,0.042545
18170000,0.0324,0.013523,0.002678,0.000431,0.102014
18171000,0.0324,0.013523,0.002678,0.000431,0.104953
18172000,0.0324,0.013523,0.002678,0.000431,0.191688
18173000,0.0324,0.013523,0.002678,0.000431,0.098371
18174000,0.0324,0.013523,0.002678,0.000431,0.039842
18175000,0.0324,0.013523,0.002678,0.000431,0.035023
18176000,0.0324,0.013523,0.002678,0.000431,0.057824
18177000,0.0324,0.013523,0.002678,0.000431,0.089909
18178000,0.0324,0.013523,0.002678,0.000431,0.175587
18179000,0.0324,0.013523,0.002678,0.000431,0.093670
18180000,0.0324,0.013523,0.002678,0.000431,0.107303
18181000,0.0324,0.013523,0.002678,0.000431,0.137626
18182000,0.0324,0.013523,0.002678,0.000431,0.143854
18183000,0.0324,0.013523,0.002678,0.000431,0.067344
18184000,0.0324,0.013523,0.002678,0.000431,0.231766
18185000,0.0324,0.013523,0.002678,0.000431,0.228122
18186000,0.0324,0.013523,0.002678,0.000431,0.248925
18187000,0.0324,0.013523,0.002678,0.000431,0.165010
18188000,0.0324,0.013523,0.002678,0.000431,0.163599
18189000,0.0324,0.013523,0.002678,0.000431,0.091672
18190000,0.0324,0.013523,0.002678,0.000431,0.107421
18191000,0.0324,0.013523,0.002678,0.000431,0.134217
18192000,0.0324,0.013523,0.002678,0.000431,0.066991
18193000,0.0324,0.013523,0.002678,0.000431,0.072867
18194000,0.0324,0.013523,0.002678,0.000431,0.153374
18195000,0.0324,0.013523,0.002678,0.000431,0.177938
18196000,0.0324,0.013523,0.002678,0.000431,0.082270
18197000,0.0324,0.013523,0.002678,0.000431,0.140446
18198000,0.0324,0.013523,0.002678,0.000431,0.110241
18199000,0.0324,0.013523,0.002678,0.000431,0.083680
18200000,0.0324,0.013523,0.002678,0.000431,0.080037
18201000,0.0324,0.013523,0.002678,0.000431,0.137390
18202000,0.0324,0.013523,0.002678,0.000431,0.087911
18203000,0.0324,0.013523,0.002678,0.000431,0.177938
18204000,0.0324,0.013523,0.002678,0.000431,0.102837
18205000,0.0324,0.013523,0.002678,0.000431,0.106245
18206000,0.0324,0.013523,0.002678,0.000431,0.132102
18207000,0.0324,0.013523,0.002678,0.000431,0.129163
18208000,0.0324,0.013523,0.002678,0.000431,0.096021
18209000,0.0324,0.013523,0.002678,0.000431,0.042545
18210000,0.0324,0.013523,0.002678,0.000431,0.144325
18211000,0.0324,0.013523,0.002678,0.000431,0.155372
18212000,0.0324,0.013523,0.002678,0.000431,0.080272
18213000,0.0324,0.013523,0.002678,0.000431,0.147850
18214000,0.0324,0.013523,0.002678,0.000431,0.183461
18215000,0.0324,0.013523,0.002678,0.000431,0.071575
18216000,0.0324,0.013523,0.002678,0.000431,0.085678
18217000,0.0324,0.013523,0.002678,0.000431,0.126695
18218000,0.0324,0.013523,0.002678,0.000431,0.103895
18219000,0.0324,0.013523,0.002678,0.000431,0.088851
18220000,0.0324,0.013523,0.002678,0.000431,0.153844
18221000,0.0324,0.013523,0.002678,0.000431,0.118703
18222000,0.0324,0.013523,0.002678,0.000431,0.127871
18223000,0.0324,0.013523,0.002678,0.000431,0.154079
18224000,0.0324,0.013523,0.002678,0.000431,0.142797
18225000,0.0324,0.013523,0.002678,0.000431,0.172766
18226000,0.0324,0.013523,0.002678,0.000431,0.095433
18227000,0.0324,0.013523,0.002678,0.000431,0.150906
18228000,0.0324,0.013523,0.002678,0.000431,0.144325
18229000,0.0324,0.013523,0.002678,0.000431,0.077334
18230000,0.0324,0.013523,0.002678,0.000431,0.205674
18231000,0.0324,0.013523,0.002678,0.000431,0.098254
18232000,0.0324,0.013523,0.002678,0.000431,0.234469
18233000,0.0324,0.013523,0.002678,0.000431,0.106481
18234000,0.0324,0.013523,0.002678,0.000431,0.271843
18235000,0.0324,0.013523,0.002678,0.000431,0.141974
18236000,0.0324,0.013523,0.002678,0.000431,0.109771
18237000,0.0324,0.013523,0.002678,0.000431,0.155020
18238000,0.0324,0.013523,0.002678,0.000431,0.087676
18239000,0.0324,0.013523,0.002678,0.000431,0.087558
18240000,0.0324,0.013523,0.002678,0.000431,0.139271
18241000,0.0324,0.013523,0.002678,0.000431,0.051360
18242000,0.0324,0.013523,0.002678,0.000431,0.151846
18243000,0.0324,0.013523,0.002678,0.000431,0.134452
18244000,0.0324,0.013523,0.002678,0.000431,0.090262
18245000,0.0324,0.013523,0.002678,0.000431,0.109301
18246000,0.0324,0.013523,0.002678,0.000431,0.117763
18247000,0.0324,0.013523,0.002678,0.000431,0.147850
18248000,0.0324,0.013523,0.002678,0.000431,0.057706
18249000,0.0324,0.013523,0.002678,0.000431,0.209083
18250000,0.0324,0.013523,0.002678,0.000431,0.094375
18251000,0.0324,0.013523,0.002678,0.000431,0.124227
18252000,0.0324,0.013523,0.002678,0.000431,0.077451
18253000,0.0324,0.013523,0.002678,0.000431,0.057236
18254000,0.0324,0.013523,0.002678,0.000431,0.061820
18255000,0.0324,0.013523,0.002678,0.000431,0.097431
18256000,0.0324,0.013523,0.002678,0.000431,0.213784
18257000,0.0324,0.013523,0.002678,0.000431,0.088734
18258000,0.0324,0.013523,0.002678,0.000431,0.327316
18259000,0.0324,0.013523,0.002678,0.000431,0.114825
18260000,0.0324,0.013523,0.002678,0.000431,0.135745
18261000,0.0324,0.013523,0.002678,0.000431,0.057824
18262000,0.0324,0.013523,0.002678,0.000431,0.132572
18263000,0.0324,0.013523,0.002678,0.000431,0.142444
18264000,0.0324,0.013523,0.002678,0.000431,0.145500
18265000,0.0324,0.013523,0.002678,0.000431,0.075336
18266000,0.0324,0.013523,0.002678,0.000431,0.107186
18267000,0.0324,0.013523,0.002678,0.000431,0.105775
18268000,0.0324,0.013523,0.002678,0.000431,0.096726
18269000,0.0324,0.013523,0.002678,0.000431,0.102485
18270000,0.0324,0.013523,0.002678,0.000431,0.057824
18271000,0.0324,0.013523,0.002678,0.000431,0.144325
18272000,0.0324,0.013523,0.002678,0.000431,0.134335
18273000,0.0324,0.013523,0.002678,0.000431,0.070869
18274000,0.0324,0.013523,0.002678,0.000431,0.102955
18275000,0.0324,0.013523,0.002678,0.000431,0.121642
18276000,0.0324,0.013523,0.002678,0.000431,0.171474
18277000,0.0324,0.013523,0.002678,0.000431,0.169593
18278000,0.0324,0.013523,0.002678,0.000431,0.140564
18279000,0.0324,0.013523,0.002678,0.000431,0.151494
18280000,0.0324,0.013523,0.002678,0.000431,0.087088
18281000,0.0324,0.013523,0.002678,0.000431,0.059704
18282000,0.0324,0.013523,0.002678,0.000431,0.173237
18283000,0.0324,0.013523,0.002678,0.000431,0.094963
18284000,0.0324,0.013523,0.002678,0.000431,0.159721
18285000,0.0324,0.013523,0.002678,0.000431,0.186400
18286000,0.0324,0.013523,0.002678,0.000431,0.124345
18287000,0.0324,0.013523,0.002678,0.000431,0.110124
18288000,0.0324,0.013523,0.002678,0.000431,0.222363
18289000,0.0324,0.013523,0.002678,0.000431,0.065933
18290000,0.0324,0.013523,0.002678,0.000431,0.133630
18291000,0.0324,0.013523,0.002678,0.000431,0.177820
18292000,0.0324,0.013523,0.002678,0.000431,0.079567
18293000,0.0324,0.013523,0.002678,0.000431,0.091554
18294000,0.0324,0.013523,0.002678,0.000431,0.129281
18295000,0.0324,0.013523,0.002678,0.000431,0.192511
18296000,0.0324,0.013523,0.002678,0.000431,0.069459
18297000,0.0324,0.013523,0.002678,0.000431,0.115883
18298000,0.0324,0.013523,0.002678,0.000431,0.225302
18299000,0.0324,0.013523,0.002678,0.000431,0.074513
18300000,0.0324,0.013523,0.002678,0.000431,0.199798
18301000,0.0324,0.013523,0.002678,0.000431,0.134922
18302000,0.0324,0.013523,0.002678,0.000431,0.057706
18303000,0.0324,0.013523,0.002678,0.000431,0.053710
18304000,0.0324,0.013523,0.002678,0.000431,0.166420
18305000,0.0324,0.013523,0.002678,0.000431,0.170533
18306000,0.0324,0.013523,0.002678,0.000431,0.152552
18307000,0.0324,0.013523,0.002678,0.000431,0.062878
18308000,0.0324,0.013523,0.002678,0.000431,0.288297
18309000,0.0324,0.013523,0.002678,0.000431,0.061350
18310000,0.0324,0.013523,0.002678,0.000431,0.159251
18311000,0.0324,0.013523,0.002678,0.000431,0.110476
18312000,0.0324,0.013523,0.002678,0.000431,0.065228
18313000,0.0324,0.013523,0.002678,0.000431,0.144207
18314000,0.0324,0.013523,0.002678,0.000431,0.251158
18315000,0.0324,0.013523,0.002678,0.000431,0.100957
18316000,0.0324,0.013523,0.002678,0.000431,0.176880
18317000,0.0324,0.013523,0.002678,0.000431,0.198153
18318000,0.0324,0.013523,0.002678,0.000431,0.263968
18319000,0.0324,0.013523,0.002678,0.000431,0.110241
18320000,0.0324,0.013523,0.002678,0.000431,0.071222
18321000,0.0324,0.013523,0.002678,0.000431,0.127048
18322000,0.0324,0.013523,0.002678,0.000431,0.076511
18323000,0.0324,0.013523,0.002678,0.000431,0.166772
18324000,0.0324,0.013523,0.002678,0.000431,0.153374
18325000,0.0324,0.013523,0.002678,0.000431,0.074865
18326000,0.0324,0.013523,0.002678,0.000431,0.080977
18327000,0.0324,0.013523,0.002678,0.000431,0.173589
18328000,0.0324,0.013523,0.002678,0.000431,0.038549
18329000,0.0324,0.013523,0.002678,0.000431,0.106833
18330000,0.0324,0.013523,0.002678,0.000431,0.244811
18331000,0.0324,0.013523,0.002678,0.000431,0.166420
18332000,0.0324,0.013523,0.002678,0.000431,0.065228
18333000,0.0324,0.013523,0.002678,0.000431,0.130339
18334000,0.0324,0.013523,0.002678,0.000431,0.124110
18335000,0.0324,0.013523,0.002678,0.000431,0.129751
18336000,0.0324,0.013523,0.002678,0.000431,0.109771
18337000,0.0324,0.013523,0.002678,0.000431,0.218250
18338000,0.0324,0.013523,0.002678,0.000431,0.159838
18339000,0.0324,0.013523,0.002678,0.000431,0.137861
18340000,0.0324,0.013523,0.002678,0.000431,0.182991
18341000,0.0324,0.013523,0.002678,0.000431,0.123522
18342000,0.0324,0.013523,0.002678,0.000431,0.178878
18343000,0.0324,0.013523,0.002678,0.000431,0.095315
18344000,0.0324,0.013523,0.002678,0.000431,0.087441
18345000,0.0324,0.013523,0.002678,0.000431,0.129281
18346000,0.0324,0.013523,0.002678,0.000431,0.122699
18347000,0.0324,0.013523,0.002678,0.000431,0.099546
18348000,0.0324,0.013523,0.002678,0.000431,0.102955
18349000,0.0324,0.013523,0.002678,0.000431,0.143854
18350000,0.0324,0.013523,0.002678,0.000431,0.097666
18351000,0.0324,0.013523,0.002678,0.000431,0.136920
18352000,0.0324,0.013523,0.002678,0.000431,0.161014
18353000,0.0324,0.013523,0.002678,0.000431,0.181346
18354000,0.0324,0.013523,0.002678,0.000431,0.074043
18355000,0.0324,0.013523,0.002678,0.000431,0.134100
18356000,0.0324,0.013523,0.002678,0.000431,0.262088
18357000,0.0324,0.013523,0.002678,0.000431,0.127518
18358000,0.0324,0.013523,0.002678,0.000431,0.110241
18359000,0.0324,0.013523,0.002678,0.000431,0.174882
18360000,0.0324,0.013523,0.002678,0.000431,0.150789
18361000,0.0324,0.013523,0.002678,0.000431,0.127401
18362000,0.0324,0.013523,0.002678,0.000431,0.092612
18363000,0.0324,0.013523,0.002678,0.000431,0.228005
18364000,0.0324,0.013523,0.002678,0.000431,0.091672
18365000,0.0324,0.013523,0.002678,0.000431,0.104483
18366000,0.0324,0.013523,0.002678,0.000431,0.118233
18367000,0.0324,0.013523,0.002678,0.000431,0.089439
18368000,0.0324,0.013523,0.002678,0.000431,0.091437
18369000,0.0324,0.013523,0.002678,0.000431,0.178760
18370000,0.0324,0.013523,0.002678,0.000431,0.225654
18371000,0.0324,0.013523,0.002678,0.000431,0.158898
18372000,0.0324,0.013523,0.002678,0.000431,0.095315
18373000,0.0324,0.013523,0.002678,0.000431,0.095198
18374000,0.0324,0.013523,0.002678,0.000431,0.070517
18375000,0.0324,0.013523,0.002678,0.000431,0.198388
18376000,0.0324,0.013523,0.002678,0.000431,0.161719
18377000,0.0324,0.013523,0.002678,0.000431,0.067226
18378000,0.0324,0.013523,0.002678,0.000431,0.204969
18379000,0.0324,0.013523,0.002678,0.000431,0.267259
18380000,0.0324,0.013523,0.002678,0.000431,0.093905
18381000,0.0324,0.013523,0.002678,0.000431,0.101192
18382000,0.0324,0.013523,0.002678,0.000431,0.196625
18383000,0.0324,0.013523,0.002678,0.000431,0.155020
18384000,0.0324,0.013523,0.002678,0.000431,0.035141
18385000,0.0324,0.013523,0.002678,0.000431,0.210728
18386000,0.0324,0.013523,0.002678,0.000431,0.062760
18387000,0.0324,0.013523,0.002678,0.000431,0.095315
18388000,0.0324,0.013523,0.002678,0.000431,0.100252
18389000,0.0324,0.013523,0.002678,0.000431,0.145617
18390000,0.0324,0.013523,0.002678,0.000431,0.092142
18391000,0.0324,0.013523,0.002678,0.000431,0.117411
18392000,0.0324,0.013523,0.002678,0.000431,0.141034
18393000,0.0324,0.013523,0.002678,0.000431,0.076628
18394000,0.0324,0.013523,0.002678,0.000431,0.136803
18395000,0.0324,0.013523,0.002678,0.000431,0.133042
18396000,0.0324,0.013523,0.002678,0.000431,0.094963
18397000,0.0324,0.013523,0.002678,0.000431,0.059117
18398000,0.0324,0.013523,0.002678,0.000431,0.222598
18399000,0.0324,0.013523,0.002678,0.000431,0.101662
18400000,0.0324,0.013523,0.002678,0.000431,0.110829
18401000,0.0324,0.013523,0.002678,0.000431,0.257269
18402000,0.0324,0.013523,0.002678,0.000431,0.173237
18403000,0.0324,0.013523,0.002678,0.000431,0.042663
18404000,0.0324,0.013523,0.002678,0.000431,0.099076
18405000,0.0324,0.013523,0.002678,0.000431,0.091437
18406000,0.0324,0.013523,0.002678,0.000431,0.113767
18407000,0.0324,0.013523,0.002678,0.000431,0.226477
18408000,0.0324,0.013523,0.002678,0.000431,0.141386
18409000,0.0324,0.013523,0.002678,0.000431,0.148086
18410000,0.0324,0.013523,0.002678,0.000431,0.045483
18411000,0.0324,0.013523,0.002678,0.000431,0.346473
18412000,0.0324,0.013523,0.002678,0.000431,0.216134
18413000,0.0324,0.013523,0.002678,0.000431,0.100839
18414000,0.0324,0.013523,0.002678,0.000431,0.165715
18415000,0.0324,0.013523,0.002678,0.000431,0.183461
18416000,0.0324,0.013523,0.002678,0.000431,0.127753
18417000,0.0324,0.013523,0.002678,0.000431,0.136803
18418000,0.0324,0.013523,0.002678,0.000431,0.067696
18419000,0.0324,0.013523,0.002678,0.000431,0.149261
18420000,0.0324,0.013523,0.002678,0.000431,0.156548
18421000,0.0324,0.013523,0.002678,0.000431,0.143267
18422000,0.0324,0.013523,0.002678,0.000431,0.155725
18423000,0.0324,0.013523,0.002678,0.000431,0.112474
18424000,0.0324,0.013523,0.002678,0.000431,0.194157
18425000,0.0324,0.013523,0.002678,0.000431,0.162777
18426000,0.0324,0.013523,0.002678,0.000431,0.070634
18427000,0.0324,0.013523,0.002678,0.000431,0.191336
18428000,0.0324,0.013523,0.002678,0.000431,0.144207
18429000,0.0324,0.013523,0.002678,0.000431,0.080154
18430000,0.0324,0.013523,0.002678,0.000431,0.225419
18431000,0.0324,0.013523,0.002678,0.000431,0.161131
18432000,0.0324,0.013523,0.002678,0.000431,0.094375
18433000,0.0324,0.013523,0.002678,0.000431,0.184402
18434000,0.0324,0.013523,0.002678,0.000431,0.156900
18435000,0.0324,0.013523,0.002678,0.000431,0.137273
18436000,0.0324,0.013523,0.002678,0.000431,0.118586
18437000,0.0324,0.013523,0.002678,0.000431,0.113650
18438000,0.0324,0.013523,0.002678,0.000431,0.088264
18439000,0.0324,0.013523,0.002678,0.000431,0.102132
18440000,0.0324,0.013523,0.002678,0.000431,0.087676
18441000,0.0324,0.013523,0.002678,0.000431,0.155372
18442000,0.0324,0.013523,0.002678,0.000431,0.085561
18443000,0.0324,0.013523,0.002678,0.000431,0.246457
18444000,0.0324,0.013523,0.002678,0.000431,0.074630
18445000,0.0324,0.013523,0.002678,0.000431,0.201326
18446000,0.0324,0.013523,0.002678,0.000431,0.230825
18447000,0.0324,0.013523,0.002678,0.000431,0.242578
18448000,0.0324,0.013523,0.002678,0.000431,0.094610
18449000,0.0324,0.013523,0.002678,0.000431,0.113297
18450000,0.0324,0.013523,0.002678,0.000431,0.181699
18451000,0.0324,0.013523,0.002678,0.000431,0.076041
18452000,0.0324,0.013523,0.002678,0.000431,0.117881
18453000,0.0324,0.013523,0.002678,0.000431,0.155607
18454000,0.0324,0.013523,0.002678,0.000431,0.094963
18455000,0.0324,0.013523,0.002678,0.000431,0.110476
18456000,0.0324,0.013523,0.002678,0.000431,0.087911
18457000,0.0324,0.013523,0.002678,0.000431,0.091672
18458000,0.0324,0.013523,0.002678,0.000431,0.106481
18459000,0.0324,0.013523,0.002678,0.000431,0.255389
18460000,0.0324,0.013523,0.002678,0.000431,0.186870
18461000,0.0324,0.013523,0.002678,0.000431,0.166420
18462000,0.0324,0.013523,0.002678,0.000431,0.185695
18463000,0.0324,0.013523,0.002678,0.000431,0.149261
18464000,0.0324,0.013523,0.002678,0.000431,0.096961
18465000,0.0324,0.013523,0.002678,0.000431,0.101192
18466000,0.0324,0.013523,0.002678,0.000431,0.294291
18467000,0.0324,0.013523,0.002678,0.000431,0.179230
18468000,0.0324,0.013523,0.002678,0.000431,0.145852
18469000,0.0324,0.013523,0.002678,0.000431,0.256799
18470000,0.0324,0.013523,0.002678,0.000431,0.248807
18471000,0.0324,0.013523,0.002678,0.000431,0.104718
18472000,0.0324,0.013523,0.002678,0.000431,0.118703
18473000,0.0324,0.013523,0.002678,0.000431,0.159956
18474000,0.0324,0.013523,0.002678,0.000431,0.134687
18475000,0.0324,0.013523,0.002678,0.000431,0.162541
18476000,0.0324,0.013523,0.002678,0.000431,0.103895
18477000,0.0324,0.013523,0.002678,0.000431,0.056178
18478000,0.0324,0.013523,0.002678,0.000431,0.173824
18479000,0.0324,0.013523,0.002678,0.000431,0.102720
18480000,0.0324,0.013523,0.002678,0.000431,0.347766
18481000,0.0324,0.013523,0.002678,0.000431,0.159133
18482000,0.0324,0.013523,0.002678,0.000431,0.092612
18483000,0.0324,0.013523,0.002678,0.000431,0.092495
18484000,0.0324,0.013523,0.002678,0.000431,0.205674
18485000,0.0324,0.013523,0.002678,0.000431,0.077569
18486000,0.0324,0.013523,0.002678,0.000431,0.128928
18487000,0.0324,0.013523,0.002678,0.000431,0.169123
18488000,0.0324,0.013523,0.002678,0.000431,0.216369
18489000,0.0324,0.013523,0.002678,0.000431,0.092377
18490000,0.0324,0.013523,0.002678,0.000431,0.111182
18491000,0.0324,0.013523,0.002678,0.000431,0.345885
18492000,0.0324,0.013523,0.002678,0.000431,0.148791
18493000,0.0324,0.013523,0.002678,0.000431,0.278542
18494000,0.0324,0.013523,0.002678,0.000431,0.239875
18495000,0.0324,0.013523,0.002678,0.000431,0.197095
18496000,0.0324,0.013523,0.002678,0.000431,0.119761
18497000,0.0324,0.013523,0.002678,0.000431,0.158898
18498000,0.0324,0.013523,0.002678,0.000431,0.208730
18499000,0.0324,0.013523,0.002678,0.000431,0.089556
18500000,0.0324,0.013523,0.002678,0.000431,0.093082
18501000,0.0324,0.013523,0.002678,0.000431,0.277249
18502000,0.0324,0.013523,0.002678,0.000431,0.327551
18503000,0.0324,0.013523,0.002678,0.000431,0.194862
18504000,0.0324,0.013523,0.002678,0.000431,0.089792
18505000,0.0324,0.013523,0.002678,0.000431,0.053945
18506000,0.0324,0.013523,0.002678,0.000431,0.053945
18507000,0.0324,0.013523,0.002678,0.000431,0.137743
18508000,0.0324,0.013523,0.002678,0.000431,0.199210
18509000,0.0324,0.013523,0.002678,0.000431,0.140681
18510000,0.0324,0.013523,0.002678,0.000431,0.088146
18511000,0.0324,0.013523,0.002678,0.000431,0.057236
18512000,0.0324,0.013523,0.002678,0.000431,0.121642
18513000,0.0324,0.013523,0.002678,0.000431,0.065346
18514000,0.0324,0.013523,0.002678,0.000431,0.128811
18515000,0.0324,0.013523,0.002678,0.000431,0.098959
18516000,0.0324,0.013523,0.002678,0.000431,0.124110
18517000,0.0324,0.013523,0.002678,0.000431,0.190631
18518000,0.0324,0.013523,0.002678,0.000431,0.207202
18519000,0.0324,0.013523,0.002678,0.000431,0.085443
18520000,0.0324,0.013523,0.002678,0.000431,0.267847
18521000,0.0324,0.013523,0.002678,0.000431,0.243636
18522000,0.0324,0.013523,0.002678,0.000431,0.108596
18523000,0.0324,0.013523,0.002678,0.000431,0.156900
18524000,0.0324,0.013523,0.002678,0.000431,0.346826
18525000,0.0324,0.013523,0.002678,0.000431,0.136568
18526000,0.0324,0.013523,0.002678,0.000431,0.151964
18527000,0.0324,0.013523,0.002678,0.000431,0.163482
18528000,0.0324,0.013523,0.002678,0.000431,0.169593
18529000,0.0324,0.013523,0.002678,0.000431,0.143972
18530000,0.0324,0.013523,0.002678,0.000431,0.206615
18531000,0.0324,0.013523,0.002678,0.000431,0.243518
18532000,0.0324,0.013523,0.002678,0.000431,0.135863
18533000,0.0324,0.013523,0.002678,0.000431,0.082152
18534000,0.0324,0.013523,0.002678,0.000431,0.138566
18535000,0.0324,0.013523,0.002678,0.000431,0.121054
18536000,0.0324,0.013523,0.002678,0.000431,0.122582
18537000,0.0324,0.013523,0.002678,0.000431,0.178055
18538000,0.0324,0.013523,0.002678,0.000431,0.212138
18539000,0.0324,0.013523,0.002678,0.000431,0.240110
18540000,0.0324,0.013523,0.002678,0.000431,0.099664
18541000,0.0324,0.013523,0.002678,0.000431,0.106598
18542000,0.0324,0.013523,0.002678,0.000431,0.155255
18543000,0.0324,0.013523,0.002678,0.000431,0.239170
18544000,0.0324,0.013523,0.002678,0.000431,0.114237
18545000,0.0324,0.013523,0.002678,0.000431,0.190043
18546000,0.0324,0.013523,0.002678,0.000431,0.131514
18547000,0.0324,0.013523,0.002678,0.000431,0.140446
18548000,0.0324,0.013523,0.002678,0.000431,0.166890
18549000,0.0324,0.013523,0.002678,0.000431,0.115295
18550000,0.0324,0.013523,0.002678,0.000431,0.154079
18551000,0.0324,0.013523,0.002678,0.000431,0.170533
18552000,0.0324,0.013523,0.002678,0.000431,0.265731
18553000,0.0324,0.013523,0.002678,0.000431,0.094258
18554000,0.0324,0.013523,0.002678,0.000431,0.139623
18555000,0.0324,0.013523,0.002678,0.000431,0.117998
18556000,0.0324,0.013523,0.002678,0.000431,0.222716
18557000,0.0324,0.013523,0.002678,0.000431,0.410526
18558000,0.0324,0.013523,0.002678,0.000431,0.225419
18559000,0.0324,0.013523,0.002678,0.000431,0.095433
18560000,0.0324,0.013523,0.002678,0.000431,0.121642
18561000,0.0324,0.013523,0.002678,0.000431,0.087794
18562000,0.0324,0.013523,0.002678,0.000431,0.057824
18563000,0.0324,0.013523,0.002678,0.000431,0.101427
18564000,0.0324,0.013523,0.002678,0.000431,0.200738
18565000,0.0324,0.013523,0.002678,0.000431,0.174882
18566000,0.0324,0.013523,0.002678,0.000431,0.211433
18567000,0.0324,0.013523,0.002678,0.000431,0.245164
18568000,0.0324,0.013523,0.002678,0.000431,0.273135
18569000,0.0324,0.013523,0.002678,0.000431,0.125873
18570000,0.0324,0.013523,0.002678,0.000431,0.238465
18571000,0.0324,0.013523,0.002678,0.000431,0.130574
18572000,0.0324,0.013523,0.002678,0.000431,0.214254
18573000,0.0324,0.013523,0.002678,0.000431,0.098959
18574000,0.0324,0.013523,0.002678,0.000431,0.185107
18575000,0.0324,0.013523,0.002678,0.000431,0.318619
18576000,0.0324,0.013523,0.002678,0.000431,0.203324
18577000,0.0324,0.013523,0.002678,0.000431,0.103307
18578000,0.0324,0.013523,0.002678,0.000431,0.083327
18579000,0.0324,0.013523,0.002678,0.000431,0.079449
18580000,0.0324,0.013523,0.002678,0.000431,0.168418
18581000,0.0324,0.013523,0.002678,0.000431,0.200150
18582000,0.0324,0.013523,0.002678,0.000431,0.151024
18583000,0.0324,0.013523,0.002678,0.000431,0.073573
18584000,0.0324,0.013523,0.002678,0.000431,0.132454
18585000,0.0324,0.013523,0.002678,0.000431,0.155842
18586000,0.0324,0.013523,0.002678,0.000431,0.170651
18587000,0.0324,0.013523,0.002678,0.000431,0.107773
18588000,0.0324,0.013523,0.002678,0.000431,0.208495
18589000,0.0324,0.013523,0.002678,0.000431,0.112357
18590000,0.0324,0.013523,0.002678,0.000431,0.134922
18591000,0.0324,0.013523,0.002678,0.000431,0.217780
18592000,0.0324,0.013523,0.002678,0.000431,0.230708
18593000,0.0324,0.013523,0.002678,0.000431,0.095550
18594000,0.0324,0.013523,0.002678,0.000431,0.201208
18595000,0.0324,0.013523,0.002678,0.000431,0.174059
18596000,0.0324,0.013523,0.002678,0.000431,0.080037
18597000,0.0324,0.013523,0.002678,0.000431,0.179466
18598000,0.0324,0.013523,0.002678,0.000431,0.237760
18599000,0.0324,0.013523,0.002678,0.000431,0.170651
18600000,0.0324,0.013523,0.002678,0.000431,0.150906
18601000,0.0324,0.013523,0.002678,0.000431,0.268904
18602000,0.0324,0.013523,0.002678,0.000431,0.073808
18603000,0.0324,0.013523,0.002678,0.000431,0.062760
18604000,0.0324,0.013523,0.002678,0.000431,0.204852
18605000,0.0324,0.013523,0.002678,0.000431,0.160779
18606000,0.0324,0.013523,0.002678,0.000431,0.064993
18607000,0.0324,0.013523,0.002678,0.000431,0.147850
18608000,0.0324,0.013523,0.002678,0.000431,0.119409
18609000,0.0324,0.013523,0.002678,0.000431,0.105775
18610000,0.0324,0.013523,0.002678,0.000431,0.083563
18611000,0.0324,0.013523,0.002678,0.000431,0.220248
18612000,0.0324,0.013523,0.002678,0.000431,0.090849
18613000,0.0324,0.013523,0.002678,0.000431,0.107421
18614000,0.0324,0.013523,0.002678,0.000431,0.173589
18615000,0.0324,0.013523,0.002678,0.000431,0.114002
18616000,0.0324,0.013523,0.002678,0.000431,0.050420
18617000,0.0324,0.013523,0.002678,0.000431,0.218485
18618000,0.0324,0.013523,0.002678,0.000431,0.293468
18619000,0.0324,0.013523,0.002678,0.000431,0.110241
18620000,0.0324,0.013523,0.002678,0.000431,0.200386
18621000,0.0324,0.013523,0.002678,0.000431,0.108596
18622000,0.0324,0.013523,0.002678,0.000431,0.083915
18623000,0.0324,0.013523,0.002678,0.000431,0.205557
18624000,0.0324,0.013523,0.002678,0.000431,0.369274
18625000,0.0324,0.013523,0.002678,0.000431,0.087911
18626000,0.0324,0.013523,0.002678,0.000431,0.118468
18627000,0.0324,0.013523,0.002678,0.000431,0.316503
18628000,0.0324,0.013523,0.002678,0.000431,0.205909
18629000,0.0324,0.013523,0.002678,0.000431,0.115883
18630000,0.0324,0.013523,0.002678,0.000431,0.076276
18631000,0.0324,0.013523,0.002678,0.000431,0.152199
18632000,0.0324,0.013523,0.002678,0.000431,0.222951
18633000,0.0324,0.013523,0.002678,0.000431,0.267612
18634000,0.0324,0.013523,0.002678,0.000431,0.125168
18635000,0.0324,0.013523,0.002678,0.000431,0.135392
18636000,0.0324,0.013523,0.002678,0.000431,0.119291
18637000,0.0324,0.013523,0.002678,0.000431,0.149613
18638000,0.0324,0.013523,0.002678,0.000431,0.168300
18639000,0.0324,0.013523,0.002678,0.000431,0.362457
18640000,0.0324,0.013523,0.002678,0.000431,0.095198
18641000,0.0324,0.013523,0.002678,0.000431,0.177585
18642000,0.0324,0.013523,0.002678,0.000431,0.192276
18643000,0.0324,0.013523,0.002678,0.000431,0.192864
18644000,0.0324,0.013523,0.002678,0.000431,0.275486
18645000,0.0324,0.013523,0.002678,0.000431,0.101427
18646000,0.0324,0.013523,0.002678,0.000431,0.372682
18647000,0.0324,0.013523,0.002678,0.000431,0.295701
18648000,0.0324,0.013523,0.002678,0.000431,0.105070
18649000,0.0324,0.013523,0.002678,0.000431,0.157488
18650000,0.0324,0.013523,0.002678,0.000431,0.301695
18651000,0.0324,0.013523,0.002678,0.000431,0.080507
18652000,0.0324,0.013523,0.002678,0.000431,0.192159
18653000,0.0324,0.013523,0.002678,0.000431,0.167595
18654000,0.0324,0.013523,0.002678,0.000431,0.129163
18655000,0.0324,0.013523,0.002678,0.000431,0.053945
18656000,0.0324,0.013523,0.002678,0.000431,0.114120
18657000,0.0324,0.013523,0.002678,0.000431,0.230355
18658000,0.0324,0.013523,0.002678,0.000431,0.087794
18659000,0.0324,0.013523,0.002678,0.000431,0.095080
18660000,0.0324,0.013523,0.002678,0.000431,0.194627
18661000,0.0324,0.013523,0.002678,0.000431,0.041252
18662000,0.0324,0.013523,0.002678,0.000431,0.077686
18663000,0.0324,0.013523,0.002678,0.000431,0.136098
18664000,0.0324,0.013523,0.002678,0.000431,0.202148
18665000,0.0324,0.013523,0.002678,0.000431,0.213431
18666000,0.0324,0.013523,0.002678,0.000431,0.117176
18667000,0.0324,0.013523,0.002678,0.000431,0.088264
18668000,0.0324,0.013523,0.002678,0.000431,0.102132
18669000,0.0324,0.013523,0.002678,0.000431,0.241403
18670000,0.0324,0.013523,0.002678,0.000431,0.268787
18671000,0.0324,0.013523,0.002678,0.000431,0.175587
18672000,0.0324,0.013523,0.002678,0.000431,0.163247
18673000,0.0324,0.013523,0.002678,0.000431,0.101662
18674000,0.0324,0.013523,0.002678,0.000431,0.050302
18675000,0.0324,0.013523,0.002678,0.000431,0.062407
18676000,0.0324,0.013523,0.002678,0.000431,0.257622
18677000,0.0324,0.013523,0.002678,0.000431,0.176645
18678000,0.0324,0.013523,0.002678,0.000431,0.114472
18679000,0.0324,0.013523,0.002678,0.000431,0.194157
18680000,0.0324,0.013523,0.002678,0.000431,0.052065
18681000,0.0324,0.013523,0.002678,0.000431,0.072632
18682000,0.0324,0.013523,0.002678,0.000431,0.112122
18683000,0.0324,0.013523,0.002678,0.000431,0.146323
18684000,0.0324,0.013523,0.002678,0.000431,0.310274
18685000,0.0324,0.013523,0.002678,0.000431,0.262323
18686000,0.0324,0.013523,0.002678,0.000431,0.172531
18687000,0.0324,0.013523,0.002678,0.000431,0.035141
18688000,0.0324,0.013523,0.002678,0.000431,0.163834
18689000,0.0324,0.013523,0.002678,0.000431,0.234821
18690000,0.0324,0.013523,0.002678,0.000431,0.156430
18691000,0.0324,0.013523,0.002678,0.000431,0.255624
18692000,0.0324,0.013523,0.002678,0.000431,0.078509
18693000,0.0324,0.013523,0.002678,0.000431,0.043838
18694000,0.0324,0.013523,0.002678,0.000431,0.153727
18695000,0.0324,0.013523,0.002678,0.000431,0.068872
18696000,0.0324,0.013523,0.002678,0.000431,0.224831
18697000,0.0324,0.013523,0.002678,0.000431,0.228945
18698000,0.0324,0.013523,0.002678,0.000431,0.296876
18699000,0.0324,0.013523,0.002678,0.000431,0.108479
18700000,0.0324,0.013523,0.002678,0.000431,0.072867
18701000,0.0324,0.013523,0.002678,0.000431,0.095198
18702000,0.0324,0.013523,0.002678,0.000431,0.211081
18703000,0.0324,0.013523,0.002678,0.000431,0.239640
18704000,0.0324,0.013523,0.002678,0.000431,0.258562
18705000,0.0324,0.013523,0.002678,0.000431,0.062643
18706000,0.0324,0.013523,0.002678,0.000431,0.035258
18707000,0.0324,0.013523,0.002678,0.000431,0.064993
18708000,0.0324,0.013523,0.002678,0.000431,0.212021
18709000,0.0324,0.013523,0.002678,0.000431,0.129046
18710000,0.0324,0.013523,0.002678,0.000431,0.251628
18711000,0.0324,0.013523,0.002678,0.000431,0.134452
18712000,0.0324,0.013523,0.002678,0.000431,0.037256
18713000,0.0324,0.013523,0.002678,0.000431,0.080272
18714000,0.0324,0.013523,0.002678,0.000431,0.285006
18715000,0.0324,0.013523,0.002678,0.000431,0.158781
18716000,0.0324,0.013523,0.002678,0.000431,0.203676
18717000,0.0324,0.013523,0.002678,0.000431,0.117646
18718000,0.0324,0.013523,0.002678,0.000431,0.087558
18719000,0.0324,0.013523,0.002678,0.000431,0.147968
18720000,0.0324,0.013523,0.002678,0.000431,0.083210
18721000,0.0324,0.013523,0.002678,0.000431,0.235291
18722000,0.0324,0.013523,0.002678,0.000431,0.117998
18723000,0.0324,0.013523,0.002678,0.000431,0.320499
18724000,0.0324,0.013523,0.002678,0.000431,0.111299
18725000,0.0324,0.013523,0.002678,0.000431,0.125520
18726000,0.0324,0.013523,0.002678,0.000431,0.257387
18727000,0.0324,0.013523,0.002678,0.000431,0.079684
18728000,0.0324,0.013523,0.002678,0.000431,0.137508
18729000,0.0324,0.013523,0.002678,0.000431,0.337071
18730000,0.0324,0.013523,0.002678,0.000431,0.194862
18731000,0.0324,0.013523,0.002678,0.000431,0.125050
18732000,0.0324,0.013523,0.002678,0.000431,0.096021
18733000,0.0324,0.013523,0.002678,0.000431,0.204852
18734000,0.0324,0.013523,0.002678,0.000431,0.137861
18735000,0.0324,0.013523,0.002678,0.000431,0.202971
18736000,0.0324,0.013523,0.002678,0.000431,0.155372
18737000,0.0324,0.013523,0.002678,0.000431,0.189220
18738000,0.0324,0.013523,0.002678,0.000431,0.125285
18739000,0.0324,0.013523,0.002678,0.000431,0.132337
18740000,0.0324,0.013523,0.002678,0.000431,0.136568
18741000,0.0324,0.013523,0.002678,0.000431,0.132807
18742000,0.0324,0.013523,0.002678,0.000431,0.154315
18743000,0.0324,0.013523,0.002678,0.000431,0.101897
18744000,0.0324,0.013523,0.002678,0.000431,0.140564
18745000,0.0324,0.013523,0.002678,0.000431,0.184167
18746000,0.0324,0.013523,0.002678,0.000431,0.087441
18747000,0.0324,0.013523,0.002678,0.000431,0.416402
18748000,0.0324,0.013523,0.002678,0.000431,0.300402
18749000,0.0324,0.013523,0.002678,0.000431,0.206379
18750000,0.0324,0.013523,0.002678,0.000431,0.219543
18751000,0.0324,0.013523,0.002678,0.000431,0.089204
18752000,0.0324,0.013523,0.002678,0.000431,0.118703
18753000,0.0324,0.013523,0.002678,0.000431,0.101427
18754000,0.0324,0.013523,0.002678,0.000431,0.086383
18755000,0.0324,0.013523,0.002678,0.000431,0.122229
18756000,0.0324,0.013523,0.002678,0.000431,0.075571
18757000,0.0324,0.013523,0.002678,0.000431,0.220718
18758000,0.0324,0.013523,0.002678,0.000431,0.095198
18759000,0.0324,0.013523,0.002678,0.000431,0.066874
18760000,0.0324,0.013523,0.002678,0.000431,0.112710
18761000,0.0324,0.013523,0.002678,0.000431,0.087676
18762000,0.0324,0.013523,0.002678,0.000431,0.103425
18763000,0.0324,0.013523,0.002678,0.000431,0.301342
18764000,0.0324,0.013523,0.002678,0.000431,0.110241
18765000,0.0324,0.013523,0.002678,0.000431,0.042780
18766000,0.0324,0.013523,0.002678,0.000431,0.214489
18767000,0.0324,0.013523,0.002678,0.000431,0.086853
18768000,0.0324,0.013523,0.002678,0.000431,0.224949
18769000,0.0324,0.013523,0.002678,0.000431,0.143619
18770000,0.0324,0.013523,0.002678,0.000431,0.333075
18771000,0.0324,0.013523,0.002678,0.000431,0.053240
18772000,0.0324,0.013523,0.002678,0.000431,0.145500
18773000,0.0324,0.013523,0.002678,0.000431,0.200033
18774000,0.0324,0.013523,0.002678,0.000431,0.072867
18775000,0.0324,0.013523,0.002678,0.000431,0.064993
18776000,0.0324,0.013523,0.002678,0.000431,0.276661
18777000,0.0324,0.013523,0.002678,0.000431,0.088734
18778000,0.0324,0.013523,0.002678,0.000431,0.034906
18779000,0.0324,0.013523,0.002678,0.000431,0.296171
18780000,0.0324,0.013523,0.002678,0.000431,0.233528
18781000,0.0324,0.013523,0.002678,0.000431,0.133747
18782000,0.0324,0.013523,0.002678,0.000431,0.098959
18783000,0.0324,0.013523,0.002678,0.000431,0.324495
18784000,0.0324,0.013523,0.002678,0.000431,0.035258
18785000,0.0324,0.013523,0.002678,0.000431,0.112827
18786000,0.0324,0.013523,0.002678,0.000431,0.169828
18787000,0.0324,0.013523,0.002678,0.000431,0.156077
18788000,0.0324,0.013523,0.002678,0.000431,0.281245
18789000,0.0324,0.013523,0.002678,0.000431,0.238465
18790000,0.0324,0.013523,0.002678,0.000431,0.155490
18791000,0.0324,0.013523,0.002678,0.000431,0.064641
18792000,0.0324,0.013523,0.002678,0.000431,0.150554
18793000,0.0324,0.013523,0.002678,0.000431,0.138331
18794000,0.0324,0.013523,0.002678,0.000431,0.198035
18795000,0.0324,0.013523,0.002678,0.000431,0.117411
18796000,0.0324,0.013523,0.002678,0.000431,0.135392
18797000,0.0324,0.013523,0.002678,0.000431,0.037609
18798000,0.0324,0.013523,0.002678,0.000431,0.080977
18799000,0.0324,0.013523,0.002678,0.000431,0.308276
18800000,0.0324,0.013523,0.002678,0.000431,0.291940
18801000,0.0324,0.013523,0.002678,0.000431,0.193216
18802000,0.0324,0.013523,0.002678,0.000431,0.046541
18803000,0.0324,0.013523,0.002678,0.000431,0.080507
18804000,0.0324,0.013523,0.002678,0.000431,0.087794
18805000,0.0324,0.013523,0.002678,0.000431,0.144090
18806000,0.0324,0.013523,0.002678,0.000431,0.155607
18807000,0.0324,0.013523,0.002678,0.000431,0.197565
18808000,0.0324,0.013523,0.002678,0.000431,0.167713
18809000,0.0324,0.013523,0.002678,0.000431,0.069107
18810000,0.0324,0.013523,0.002678,0.000431,0.091790
18811000,0.0324,0.013523,0.002678,0.000431,0.076981
18812000,0.0324,0.013523,0.002678,0.000431,0.238230
18813000,0.0324,0.013523,0.002678,0.000431,0.179348
18814000,0.0324,0.013523,0.002678,0.000431,0.199445
18815000,0.0324,0.013523,0.002678,0.000431,0.099429
18816000,0.0324,0.013523,0.002678,0.000431,0.174177
18817000,0.0324,0.013523,0.002678,0.000431,0.234234
18818000,0.0324,0.013523,0.002678,0.000431,0.102837
18819000,0.0324,0.013523,0.002678,0.000431,0.170886
18820000,0.0324,0.013523,0.002678,0.000431,0.126108
18821000,0.0324,0.013523,0.002678,0.000431,0.115765
18822000,0.0324,0.013523,0.002678,0.000431,0.108596
18823000,0.0324,0.013523,0.002678,0.000431,0.202148
18824000,0.0324,0.013523,0.002678,0.000431,0.184284
18825000,0.0324,0.013523,0.002678,0.000431,0.178760
18826000,0.0324,0.013523,0.002678,0.000431,0.117646
18827000,0.0324,0.013523,0.002678,0.000431,0.035141
18828000,0.0324,0.013523,0.002678,0.000431,0.050185
18829000,0.0324,0.013523,0.002678,0.000431,0.057589
18830000,0.0324,0.013523,0.002678,0.000431,0.173589
18831000,0.0324,0.013523,0.002678,0.000431,0.287356
18832000,0.0324,0.013523,0.002678,0.000431,0.155255
18833000,0.0324,0.013523,0.002678,0.000431,0.087323
18834000,0.0324,0.013523,0.002678,0.000431,0.035729
18835000,0.0324,0.013523,0.002678,0.000431,0.077098
18836000,0.0324,0.013523,0.002678,0.000431,0.169593
18837000,0.0324,0.013523,0.002678,0.000431,0.349411
18838000,0.0324,0.013523,0.002678,0.000431,0.162894
18839000,0.0324,0.013523,0.002678,0.000431,0.295466
18840000,0.0324,0.013523,0.002678,0.000431,0.074513
18841000,0.0324,0.013523,0.002678,0.000431,0.035023
18842000,0.0324,0.013523,0.002678,0.000431,0.096608
18843000,0.0324,0.013523,0.002678,0.000431,0.177468
18844000,0.0324,0.013523,0.002678,0.000431,0.272078
18845000,0.0324,0.013523,0.002678,0.000431,0.154197
18846000,0.0324,0.013523,0.002678,0.000431,0.170533
18847000,0.0324,0.013523,0.002678,0.000431,0.136920
18848000,0.0324,0.013523,0.002678,0.000431,0.066168
18849000,0.0324,0.013523,0.002678,0.000431,0.096021
18850000,0.0324,0.013523,0.002678,0.000431,0.079919
18851000,0.0324,0.013523,0.002678,0.000431,0.141621
18852000,0.0324,0.013523,0.002678,0.000431,0.118821
18853000,0.0324,0.013523,0.002678,0.000431,0.157370
18854000,0.0324,0.013523,0.002678,0.000431,0.109066
18855000,0.0324,0.013523,0.002678,0.000431,0.188398
18856000,0.0324,0.013523,0.002678,0.000431,0.131514
18857000,0.0324,0.013523,0.002678,0.000431,0.092377
18858000,0.0324,0.013523,0.002678,0.000431,0.243166
18859000,0.0324,0.013523,0.002678,0.000431,0.110359
18860000,0.0324,0.013523,0.002678,0.000431,0.121054
18861000,0.0324,0.013523,0.002678,0.000431,0.171944
18862000,0.0324,0.013523,0.002678,0.000431,0.202384
18863000,0.0324,0.013523,0.002678,0.000431,0.136920
18864000,0.0324,0.013523,0.002678,0.000431,0.111417
18865000,0.0324,0.013523,0.002678,0.000431,0.139036
18866000,0.0324,0.013523,0.002678,0.000431,0.175705
18867000,0.0324,0.013523,0.002678,0.000431,0.066051
18868000,0.0324,0.013523,0.002678,0.000431,0.091437
18869000,0.0324,0.013523,0.002678,0.000431,0.185695
18870000,0.0324,0.013523,0.002678,0.000431,0.058764
18871000,0.0324,0.013523,0.002678,0.000431,0.094140
18872000,0.0324,0.013523,0.002678,0.000431,0.167830
18873000,0.0324,0.013523,0.002678,0.000431,0.075453
18874000,0.0324,0.013523,0.002678,0.000431,0.110124
18875000,0.0324,0.013523,0.002678,0.000431,0.120584
18876000,0.0324,0.013523,0.002678,0.000431,0.124580
18877000,0.0324,0.013523,0.002678,0.000431,0.095668
18878000,0.0324,0.013523,0.002678,0.000431,0.148791
18879000,0.0324,0.013523,0.002678,0.000431,0.122464
18880000,0.0324,0.013523,0.002678,0.000431,0.097196
18881000,0.0324,0.013523,0.002678,0.000431,0.200738
18882000,0.0324,0.013523,0.002678,0.000431,0.150201
18883000,0.0324,0.013523,0.002678,0.000431,0.070869
18884000,0.0324,0.013523,0.002678,0.000431,0.264673
18885000,0.0324,0.013523,0.002678,0.000431,0.159368
18886000,0.0324,0.013523,0.002678,0.000431,0.112004
18887000,0.0324,0.013523,0.002678,0.000431,0.178995
18888000,0.0324,0.013523,0.002678,0.000431,0.107891
18889000,0.0324,0.013523,0.002678,0.000431,0.138096
18890000,0.0324,0.013523,0.002678,0.000431,0.130104
18891000,0.0324,0.013523,0.002678,0.000431,0.067696
18892000,0.0324,0.013523,0.002678,0.000431,0.101897
18893000,0.0324,0.013523,0.002678,0.000431,0.137626
18894000,0.0324,0.013523,0.002678,0.000431,0.191336
18895000,0.0324,0.013523,0.002678,0.000431,0.128811
18896000,0.0324,0.013523,0.002678,0.000431,0.230238
18897000,0.0324,0.013523,0.002678,0.000431,0.142327
18898000,0.0324,0.013523,0.002678,0.000431,0.082975
18899000,0.0324,0.013523,0.002678,0.000431,0.096491
18900000,0.0324,0.013523,0.002678,0.000431,0.230708
18901000,0.0324,0.013523,0.002678,0.000431,0.095315
18902000,0.0324,0.013523,0.002678,0.000431,0.076511
18903000,0.0324,0.013523,0.002678,0.000431,0.189338
18904000,0.0324,0.013523,0.002678,0.000431,0.129399
18905000,0.0324,0.013523,0.002678,0.000431,0.065111
18906000,0.0324,0.013523,0.002678,0.000431,0.139388
18907000,0.0324,0.013523,0.002678,0.000431,0.185812
18908000,0.0324,0.013523,0.002678,0.000431,0.058412
18909000,0.0324,0.013523,0.002678,0.000431,0.168065
18910000,0.0324,0.013523,0.002678,0.000431,0.208260
18911000,0.0324,0.013523,0.002678,0.000431,0.092847
18912000,0.0324,0.013523,0.002678,0.000431,0.107773
18913000,0.0324,0.013523,0.002678,0.000431,0.205909
18914000,0.0324,0.013523,0.002678,0.000431,0.223891
18915000,0.0324,0.013523,0.002678,0.000431,0.107068
18916000,0.0324,0.013523,0.002678,0.000431,0.085208
18917000,0.0324,0.013523,0.002678,0.000431,0.187340
18918000,0.0324,0.013523,0.002678,0.000431,0.300637
18919000,0.0324,0.013523,0.002678,0.000431,0.175470
18920000,0.0324,0.013523,0.002678,0.000431,0.203676
18921000,0.0324,0.013523,0.002678,0.000431,0.054063
18922000,0.0324,0.013523,0.002678,0.000431,0.121642
18923000,0.0324,0.013523,0.002678,0.000431,0.095315
18924000,0.0324,0.013523,0.002678,0.000431,0.217427
18925000,0.0324,0.013523,0.002678,0.000431,0.229297
18926000,0.0324,0.013523,0.002678,0.000431,0.153374
18927000,0.0324,0.013523,0.002678,0.000431,0.121172
18928000,0.0324,0.013523,0.002678,0.000431,0.050185
18929000,0.0324,0.013523,0.002678,0.000431,0.035023
18930000,0.0324,0.013523,0.002678,0.000431,0.074513
18931000,0.0324,0.013523,0.002678,0.000431,0.114237
18932000,0.0324,0.013523,0.002678,0.000431,0.128811
18933000,0.0324,0.013523,0.002678,0.000431,0.083915
18934000,0.0324,0.013523,0.002678,0.000431,0.195449
18935000,0.0324,0.013523,0.002678,0.000431,0.155020
18936000,0.0324,0.013523,0.002678,0.000431,0.045131
18937000,0.0324,0.013523,0.002678,0.000431,0.045248
18938000,0.0324,0.013523,0.002678,0.000431,0.150436
18939000,0.0324,0.013523,0.002678,0.000431,0.132807
18940000,0.0324,0.013523,0.002678,0.000431,0.213079
18941000,0.0324,0.013523,0.002678,0.000431,0.121877
18942000,0.0324,0.013523,0.002678,0.000431,0.121877
18943000,0.0324,0.013523,0.002678,0.000431,0.203089
18944000,0.0324,0.013523,0.002678,0.000431,0.202971
18945000,0.0324,0.013523,0.002678,0.000431,0.100722
18946000,0.0324,0.013523,0.002678,0.000431,0.115178
18947000,0.0324,0.013523,0.002678,0.000431,0.190513
18948000,0.0324,0.013523,0.002678,0.000431,0.261970
18949000,0.0324,0.013523,0.002678,0.000431,0.094258
18950000,0.0324,0.013523,0.002678,0.000431,0.154785
18951000,0.0324,0.013523,0.002678,0.000431,0.151494
18952000,0.0324,0.013523,0.002678,0.000431,0.251980
18953000,0.0324,0.013523,0.002678,0.000431,0.220013
18954000,0.0324,0.013523,0.002678,0.000431,0.118116
18955000,0.0324,0.013523,0.002678,0.000431,0.250100
18956000,0.0324,0.013523,0.002678,0.000431,0.058294
18957000,0.0324,0.013523,0.002678,0.000431,0.147615
18958000,0.0324,0.013523,0.002678,0.000431,0.074865
18959000,0.0324,0.013523,0.002678,0.000431,0.050772
18960000,0.0324,0.013523,0.002678,0.000431,0.171591
18961000,0.0324,0.013523,0.002678,0.000431,0.201091
18962000,0.0324,0.013523,0.002678,0.000431,0.189338
18963000,0.0324,0.013523,0.002678,0.000431,0.067696
18964000,0.0324,0.013523,0.002678,0.000431,0.069224
18965000,0.0324,0.013523,0.002678,0.000431,0.194392
18966000,0.0324,0.013523,0.002678,0.000431,0.073338
18967000,0.0324,0.013523,0.002678,0.000431,0.112239
18968000,0.0324,0.013523,0.002678,0.000431,0.089439
18969000,0.0324,0.013523,0.002678,0.000431,0.088969
18970000,0.0324,0.013523,0.002678,0.000431,0.110476
18971000,0.0324,0.013523,0.002678,0.000431,0.072867
18972000,0.0324,0.013523,0.002678,0.000431,0.070047
18973000,0.0324,0.013523,0.002678,0.000431,0.095433
18974000,0.0324,0.013523,0.002678,0.000431,0.129399
18975000,0.0324,0.013523,0.002678,0.000431,0.132337
18976000,0.0324,0.013523,0.002678,0.000431,0.183932
18977000,0.0324,0.013523,0.002678,0.000431,0.166890
18978000,0.0324,0.013523,0.002678,0.000431,0.095198
18979000,0.0324,0.013523,0.002678,0.000431,0.049362
18980000,0.0324,0.013523,0.002678,0.000431,0.118233
18981000,0.0324,0.013523,0.002678,0.000431,0.203089
18982000,0.0324,0.013523,0.002678,0.000431,0.097548
18983000,0.0324,0.013523,0.002678,0.000431,0.383494
18984000,0.0324,0.013523,0.002678,0.000431,0.138801
18985000,0.0324,0.013523,0.002678,0.000431,0.035258
18986000,0.0324,0.013523,0.002678,0.000431,0.049009
18987000,0.0324,0.013523,0.002678,0.000431,0.234821
18988000,0.0324,0.013523,0.002678,0.000431,0.169476
18989000,0.0324,0.013523,0.002678,0.000431,0.046306
18990000,0.0324,0.013523,0.002678,0.000431,0.080507
18991000,0.0324,0.013523,0.002678,0.000431,0.118586
18992000,0.0324,0.013523,0.002678,0.000431,0.137626
18993000,0.0324,0.013523,0.002678,0.000431,0.196860
18994000,0.0324,0.013523,0.002678,0.000431,0.242108
18995000,0.0324,0.013523,0.002678,0.000431,0.089792
18996000,0.0324,0.013523,0.002678,0.000431,0.072750
18997000,0.0324,0.013523,0.002678,0.000431,0.051007
18998000,0.0324,0.013523,0.002678,0.000431,0.140681
18999000,0.0324,0.013523,0.002678,0.000431,0.086853
