Cycle,Area(mm^2),PeakDynamic(W),SubthresholdLeakage(W),GateLeakage(W),RunTimeDynamic(W)
1000000,0.0324,0.013523,0.002678,0.000431,0.183226
1001000,0.0324,0.013523,0.002678,0.000431,0.203794
1002000,0.0324,0.013523,0.002678,0.000431,0.129986
1003000,0.0324,0.013523,0.002678,0.000431,0.073925
1004000,0.0324,0.013523,0.002678,0.000431,0.083680
1005000,0.0324,0.013523,0.002678,0.000431,0.099194
1006000,0.0324,0.013523,0.002678,0.000431,0.193451
1007000,0.0324,0.013523,0.002678,0.000431,0.229885
1008000,0.0324,0.013523,0.002678,0.000431,0.152434
1009000,0.0324,0.013523,0.002678,0.000431,0.245046
1010000,0.0324,0.013523,0.002678,0.000431,0.057589
1011000,0.0324,0.013523,0.002678,0.000431,0.072867
1012000,0.0324,0.013523,0.002678,0.000431,0.176057
1013000,0.0324,0.013523,0.002678,0.000431,0.178878
1014000,0.0324,0.013523,0.002678,0.000431,0.375620
1015000,0.0324,0.013523,0.002678,0.000431,0.133747
1016000,0.0324,0.013523,0.002678,0.000431,0.151611
1017000,0.0324,0.013523,0.002678,0.000431,0.173354
1018000,0.0324,0.013523,0.002678,0.000431,0.169828
1019000,0.0324,0.013523,0.002678,0.000431,0.112592
1020000,0.0324,0.013523,0.002678,0.000431,0.371507
1021000,0.0324,0.013523,0.002678,0.000431,0.153139
1022000,0.0324,0.013523,0.002678,0.000431,0.166772
1023000,0.0324,0.013523,0.002678,0.000431,0.046776
1024000,0.0324,0.013523,0.002678,0.000431,0.068636
1025000,0.0324,0.013523,0.002678,0.000431,0.124227
1026000,0.0324,0.013523,0.002678,0.000431,0.119174
1027000,0.0324,0.013523,0.002678,0.000431,0.178408
1028000,0.0324,0.013523,0.002678,0.000431,0.137155
1029000,0.0324,0.013523,0.002678,0.000431,0.094375
1030000,0.0324,0.013523,0.002678,0.000431,0.176410
1031000,0.0324,0.013523,0.002678,0.000431,0.194157
1032000,0.0324,0.013523,0.002678,0.000431,0.106481
1033000,0.0324,0.013523,0.002678,0.000431,0.131044
1034000,0.0324,0.013523,0.002678,0.000431,0.130809
1035000,0.0324,0.013523,0.002678,0.000431,0.105188
1036000,0.0324,0.013523,0.002678,0.000431,0.085090
1037000,0.0324,0.013523,0.002678,0.000431,0.054298
1038000,0.0324,0.013523,0.002678,0.000431,0.117763
1039000,0.0324,0.013523,0.002678,0.000431,0.192041
1040000,0.0324,0.013523,0.002678,0.000431,0.140681
1041000,0.0324,0.013523,0.002678,0.000431,0.098959
1042000,0.0324,0.013523,0.002678,0.000431,0.294643
1043000,0.0324,0.013523,0.002678,0.000431,0.214724
1044000,0.0324,0.013523,0.002678,0.000431,0.084503
1045000,0.0324,0.013523,0.002678,0.000431,0.129751
1046000,0.0324,0.013523,0.002678,0.000431,0.263968
1047000,0.0324,0.013523,0.002678,0.000431,0.117646
1048000,0.0324,0.013523,0.002678,0.000431,0.087794
1049000,0.0324,0.013523,0.002678,0.000431,0.117528
1050000,0.0324,0.013523,0.002678,0.000431,0.092377
1051000,0.0324,0.013523,0.002678,0.000431,0.109536
1052000,0.0324,0.013523,0.002678,0.000431,0.200973
1053000,0.0324,0.013523,0.002678,0.000431,0.199915
1054000,0.0324,0.013523,0.002678,0.000431,0.162777
1055000,0.0324,0.013523,0.002678,0.000431,0.061702
1056000,0.0324,0.013523,0.002678,0.000431,0.108949
1057000,0.0324,0.013523,0.002678,0.000431,0.126695
1058000,0.0324,0.013523,0.002678,0.000431,0.129281
1059000,0.0324,0.013523,0.002678,0.000431,0.116470
1060000,0.0324,0.013523,0.002678,0.000431,0.073808
1061000,0.0324,0.013523,0.002678,0.000431,0.177820
1062000,0.0324,0.013523,0.002678,0.000431,0.111299
1063000,0.0324,0.013523,0.002678,0.000431,0.138918
1064000,0.0324,0.013523,0.002678,0.000431,0.201091
1065000,0.0324,0.013523,0.002678,0.000431,0.114002
1066000,0.0324,0.013523,0.002678,0.000431,0.188045
1067000,0.0324,0.013523,0.002678,0.000431,0.317796
1068000,0.0324,0.013523,0.002678,0.000431,0.267024
1069000,0.0324,0.013523,0.002678,0.000431,0.137743
1070000,0.0324,0.013523,0.002678,0.000431,0.079802
1071000,0.0324,0.013523,0.002678,0.000431,0.176292
1072000,0.0324,0.013523,0.002678,0.000431,0.205557
1073000,0.0324,0.013523,0.002678,0.000431,0.087911
1074000,0.0324,0.013523,0.002678,0.000431,0.129163
1075000,0.0324,0.013523,0.002678,0.000431,0.125285
1076000,0.0324,0.013523,0.002678,0.000431,0.053945
1077000,0.0324,0.013523,0.002678,0.000431,0.099194
1078000,0.0324,0.013523,0.002678,0.000431,0.169476
1079000,0.0324,0.013523,0.002678,0.000431,0.118939
1080000,0.0324,0.013523,0.002678,0.000431,0.100252
1081000,0.0324,0.013523,0.002678,0.000431,0.085796
1082000,0.0324,0.013523,0.002678,0.000431,0.125990
1083000,0.0324,0.013523,0.002678,0.000431,0.086148
1084000,0.0324,0.013523,0.002678,0.000431,0.123640
1085000,0.0324,0.013523,0.002678,0.000431,0.180288
1086000,0.0324,0.013523,0.002678,0.000431,0.218837
1087000,0.0324,0.013523,0.002678,0.000431,0.076276
1088000,0.0324,0.013523,0.002678,0.000431,0.075101
1089000,0.0324,0.013523,0.002678,0.000431,0.089086
1090000,0.0324,0.013523,0.002678,0.000431,0.123052
1091000,0.0324,0.013523,0.002678,0.000431,0.187457
1092000,0.0324,0.013523,0.002678,0.000431,0.098959
1093000,0.0324,0.013523,0.002678,0.000431,0.151259
1094000,0.0324,0.013523,0.002678,0.000431,0.072515
1095000,0.0324,0.013523,0.002678,0.000431,0.120819
1096000,0.0324,0.013523,0.002678,0.000431,0.106951
1097000,0.0324,0.013523,0.002678,0.000431,0.143502
1098000,0.0324,0.013523,0.002678,0.000431,0.151494
1099000,0.0324,0.013523,0.002678,0.000431,0.170298
1100000,0.0324,0.013523,0.002678,0.000431,0.305456
1101000,0.0324,0.013523,0.002678,0.000431,0.118586
1102000,0.0324,0.013523,0.002678,0.000431,0.119761
1103000,0.0324,0.013523,0.002678,0.000431,0.156195
1104000,0.0324,0.013523,0.002678,0.000431,0.152787
1105000,0.0324,0.013523,0.002678,0.000431,0.217780
1106000,0.0324,0.013523,0.002678,0.000431,0.069107
1107000,0.0324,0.013523,0.002678,0.000431,0.114002
1108000,0.0324,0.013523,0.002678,0.000431,0.069107
1109000,0.0324,0.013523,0.002678,0.000431,0.087911
1110000,0.0324,0.013523,0.002678,0.000431,0.184167
1111000,0.0324,0.013523,0.002678,0.000431,0.209905
1112000,0.0324,0.013523,0.002678,0.000431,0.173589
1113000,0.0324,0.013523,0.002678,0.000431,0.116000
1114000,0.0324,0.013523,0.002678,0.000431,0.161131
1115000,0.0324,0.013523,0.002678,0.000431,0.084150
1116000,0.0324,0.013523,0.002678,0.000431,0.056649
1117000,0.0324,0.013523,0.002678,0.000431,0.210023
1118000,0.0324,0.013523,0.002678,0.000431,0.102485
1119000,0.0324,0.013523,0.002678,0.000431,0.065228
1120000,0.0324,0.013523,0.002678,0.000431,0.130926
1121000,0.0324,0.013523,0.002678,0.000431,0.209670
1122000,0.0324,0.013523,0.002678,0.000431,0.136450
1123000,0.0324,0.013523,0.002678,0.000431,0.202854
1124000,0.0324,0.013523,0.002678,0.000431,0.267377
1125000,0.0324,0.013523,0.002678,0.000431,0.203324
1126000,0.0324,0.013523,0.002678,0.000431,0.115178
1127000,0.0324,0.013523,0.002678,0.000431,0.251393
1128000,0.0324,0.013523,0.002678,0.000431,0.271960
1129000,0.0324,0.013523,0.002678,0.000431,0.068284
1130000,0.0324,0.013523,0.002678,0.000431,0.193686
1131000,0.0324,0.013523,0.002678,0.000431,0.106598
1132000,0.0324,0.013523,0.002678,0.000431,0.129869
1133000,0.0324,0.013523,0.002678,0.000431,0.083445
1134000,0.0324,0.013523,0.002678,0.000431,0.175117
1135000,0.0324,0.013523,0.002678,0.000431,0.201208
1136000,0.0324,0.013523,0.002678,0.000431,0.125520
1137000,0.0324,0.013523,0.002678,0.000431,0.156195
1138000,0.0324,0.013523,0.002678,0.000431,0.105893
1139000,0.0324,0.013523,0.002678,0.000431,0.190983
1140000,0.0324,0.013523,0.002678,0.000431,0.077451
1141000,0.0324,0.013523,0.002678,0.000431,0.115648
1142000,0.0324,0.013523,0.002678,0.000431,0.046541
1143000,0.0324,0.013523,0.002678,0.000431,0.162894
1144000,0.0324,0.013523,0.002678,0.000431,0.076511
1145000,0.0324,0.013523,0.002678,0.000431,0.072280
1146000,0.0324,0.013523,0.002678,0.000431,0.103425
1147000,0.0324,0.013523,0.002678,0.000431,0.125285
1148000,0.0324,0.013523,0.002678,0.000431,0.269727
1149000,0.0324,0.013523,0.002678,0.000431,0.101427
1150000,0.0324,0.013523,0.002678,0.000431,0.104365
1151000,0.0324,0.013523,0.002678,0.000431,0.274076
1152000,0.0324,0.013523,0.002678,0.000431,0.050185
1153000,0.0324,0.013523,0.002678,0.000431,0.143502
1154000,0.0324,0.013523,0.002678,0.000431,0.125520
1155000,0.0324,0.013523,0.002678,0.000431,0.152317
1156000,0.0324,0.013523,0.002678,0.000431,0.143619
1157000,0.0324,0.013523,0.002678,0.000431,0.052888
1158000,0.0324,0.013523,0.002678,0.000431,0.124580
1159000,0.0324,0.013523,0.002678,0.000431,0.122699
1160000,0.0324,0.013523,0.002678,0.000431,0.088969
1161000,0.0324,0.013523,0.002678,0.000431,0.110359
1162000,0.0324,0.013523,0.002678,0.000431,0.134217
1163000,0.0324,0.013523,0.002678,0.000431,0.329784
1164000,0.0324,0.013523,0.002678,0.000431,0.183932
1165000,0.0324,0.013523,0.002678,0.000431,0.105188
1166000,0.0324,0.013523,0.002678,0.000431,0.158898
1167000,0.0324,0.013523,0.002678,0.000431,0.074983
1168000,0.0324,0.013523,0.002678,0.000431,0.079919
1169000,0.0324,0.013523,0.002678,0.000431,0.262793
1170000,0.0324,0.013523,0.002678,0.000431,0.161014
1171000,0.0324,0.013523,0.002678,0.000431,0.138918
1172000,0.0324,0.013523,0.002678,0.000431,0.213666
1173000,0.0324,0.013523,0.002678,0.000431,0.224126
1174000,0.0324,0.013523,0.002678,0.000431,0.137155
1175000,0.0324,0.013523,0.002678,0.000431,0.069812
1176000,0.0324,0.013523,0.002678,0.000431,0.317914
1177000,0.0324,0.013523,0.002678,0.000431,0.136215
1178000,0.0324,0.013523,0.002678,0.000431,0.087676
1179000,0.0324,0.013523,0.002678,0.000431,0.256682
1180000,0.0324,0.013523,0.002678,0.000431,0.114943
1181000,0.0324,0.013523,0.002678,0.000431,0.162189
1182000,0.0324,0.013523,0.002678,0.000431,0.113650
1183000,0.0324,0.013523,0.002678,0.000431,0.103777
1184000,0.0324,0.013523,0.002678,0.000431,0.128341
1185000,0.0324,0.013523,0.002678,0.000431,0.119174
1186000,0.0324,0.013523,0.002678,0.000431,0.134100
1187000,0.0324,0.013523,0.002678,0.000431,0.133394
1188000,0.0324,0.013523,0.002678,0.000431,0.184402
1189000,0.0324,0.013523,0.002678,0.000431,0.147968
1190000,0.0324,0.013523,0.002678,0.000431,0.165010
1191000,0.0324,0.013523,0.002678,0.000431,0.110829
1192000,0.0324,0.013523,0.002678,0.000431,0.072162
1193000,0.0324,0.013523,0.002678,0.000431,0.142914
1194000,0.0324,0.013523,0.002678,0.000431,0.255624
1195000,0.0324,0.013523,0.002678,0.000431,0.134687
1196000,0.0324,0.013523,0.002678,0.000431,0.198623
1197000,0.0324,0.013523,0.002678,0.000431,0.097901
1198000,0.0324,0.013523,0.002678,0.000431,0.059117
1199000,0.0324,0.013523,0.002678,0.000431,0.122934
1200000,0.0324,0.013523,0.002678,0.000431,0.075218
1201000,0.0324,0.013523,0.002678,0.000431,0.087794
1202000,0.0324,0.013523,0.002678,0.000431,0.147968
1203000,0.0324,0.013523,0.002678,0.000431,0.170298
1204000,0.0324,0.013523,0.002678,0.000431,0.184167
1205000,0.0324,0.013523,0.002678,0.000431,0.195097
1206000,0.0324,0.013523,0.002678,0.000431,0.088264
1207000,0.0324,0.013523,0.002678,0.000431,0.144560
1208000,0.0324,0.013523,0.002678,0.000431,0.102837
1209000,0.0324,0.013523,0.002678,0.000431,0.220483
1210000,0.0324,0.013523,0.002678,0.000431,0.085913
1211000,0.0324,0.013523,0.002678,0.000431,0.064641
1212000,0.0324,0.013523,0.002678,0.000431,0.168653
1213000,0.0324,0.013523,0.002678,0.000431,0.153022
1214000,0.0324,0.013523,0.002678,0.000431,0.054768
1215000,0.0324,0.013523,0.002678,0.000431,0.181464
1216000,0.0324,0.013523,0.002678,0.000431,0.202736
1217000,0.0324,0.013523,0.002678,0.000431,0.091084
1218000,0.0324,0.013523,0.002678,0.000431,0.108949
1219000,0.0324,0.013523,0.002678,0.000431,0.111887
1220000,0.0324,0.013523,0.002678,0.000431,0.071222
1221000,0.0324,0.013523,0.002678,0.000431,0.072632
1222000,0.0324,0.013523,0.002678,0.000431,0.228827
1223000,0.0324,0.013523,0.002678,0.000431,0.198975
1224000,0.0324,0.013523,0.002678,0.000431,0.198740
1225000,0.0324,0.013523,0.002678,0.000431,0.069342
1226000,0.0324,0.013523,0.002678,0.000431,0.109301
1227000,0.0324,0.013523,0.002678,0.000431,0.120114
1228000,0.0324,0.013523,0.002678,0.000431,0.161954
1229000,0.0324,0.013523,0.002678,0.000431,0.151846
1230000,0.0324,0.013523,0.002678,0.000431,0.098371
1231000,0.0324,0.013523,0.002678,0.000431,0.117293
1232000,0.0324,0.013523,0.002678,0.000431,0.127871
1233000,0.0324,0.013523,0.002678,0.000431,0.140094
1234000,0.0324,0.013523,0.002678,0.000431,0.086971
1235000,0.0324,0.013523,0.002678,0.000431,0.143502
1236000,0.0324,0.013523,0.002678,0.000431,0.072632
1237000,0.0324,0.013523,0.002678,0.000431,0.035258
1238000,0.0324,0.013523,0.002678,0.000431,0.188045
1239000,0.0324,0.013523,0.002678,0.000431,0.196037
1240000,0.0324,0.013523,0.002678,0.000431,0.224479
1241000,0.0324,0.013523,0.002678,0.000431,0.134687
1242000,0.0324,0.013523,0.002678,0.000431,0.226947
1243000,0.0324,0.013523,0.002678,0.000431,0.099076
1244000,0.0324,0.013523,0.002678,0.000431,0.075923
1245000,0.0324,0.013523,0.002678,0.000431,0.214489
1246000,0.0324,0.013523,0.002678,0.000431,0.177585
1247000,0.0324,0.013523,0.002678,0.000431,0.153844
1248000,0.0324,0.013523,0.002678,0.000431,0.089674
1249000,0.0324,0.013523,0.002678,0.000431,0.059469
1250000,0.0324,0.013523,0.002678,0.000431,0.064053
1251000,0.0324,0.013523,0.002678,0.000431,0.035141
1252000,0.0324,0.013523,0.002678,0.000431,0.194274
1253000,0.0324,0.013523,0.002678,0.000431,0.156077
1254000,0.0324,0.013523,0.002678,0.000431,0.111769
1255000,0.0324,0.013523,0.002678,0.000431,0.104835
1256000,0.0324,0.013523,0.002678,0.000431,0.071222
1257000,0.0324,0.013523,0.002678,0.000431,0.052888
1258000,0.0324,0.013523,0.002678,0.000431,0.089204
1259000,0.0324,0.013523,0.002678,0.000431,0.061232
1260000,0.0324,0.013523,0.002678,0.000431,0.230708
1261000,0.0324,0.013523,0.002678,0.000431,0.216722
1262000,0.0324,0.013523,0.002678,0.000431,0.069224
1263000,0.0324,0.013523,0.002678,0.000431,0.112357
1264000,0.0324,0.013523,0.002678,0.000431,0.147968
1265000,0.0324,0.013523,0.002678,0.000431,0.120936
1266000,0.0324,0.013523,0.002678,0.000431,0.108008
1267000,0.0324,0.013523,0.002678,0.000431,0.216487
1268000,0.0324,0.013523,0.002678,0.000431,0.141857
1269000,0.0324,0.013523,0.002678,0.000431,0.087911
1270000,0.0324,0.013523,0.002678,0.000431,0.050537
1271000,0.0324,0.013523,0.002678,0.000431,0.050067
1272000,0.0324,0.013523,0.002678,0.000431,0.087911
1273000,0.0324,0.013523,0.002678,0.000431,0.118939
1274000,0.0324,0.013523,0.002678,0.000431,0.094610
1275000,0.0324,0.013523,0.002678,0.000431,0.063348
1276000,0.0324,0.013523,0.002678,0.000431,0.157018
1277000,0.0324,0.013523,0.002678,0.000431,0.086971
1278000,0.0324,0.013523,0.002678,0.000431,0.063113
1279000,0.0324,0.013523,0.002678,0.000431,0.141621
1280000,0.0324,0.013523,0.002678,0.000431,0.092495
1281000,0.0324,0.013523,0.002678,0.000431,0.137508
1282000,0.0324,0.013523,0.002678,0.000431,0.172414
1283000,0.0324,0.013523,0.002678,0.000431,0.110124
1284000,0.0324,0.013523,0.002678,0.000431,0.127518
1285000,0.0324,0.013523,0.002678,0.000431,0.105305
1286000,0.0324,0.013523,0.002678,0.000431,0.057589
1287000,0.0324,0.013523,0.002678,0.000431,0.163247
1288000,0.0324,0.013523,0.002678,0.000431,0.099781
1289000,0.0324,0.013523,0.002678,0.000431,0.071927
1290000,0.0324,0.013523,0.002678,0.000431,0.078979
1291000,0.0324,0.013523,0.002678,0.000431,0.173824
1292000,0.0324,0.013523,0.002678,0.000431,0.078509
1293000,0.0324,0.013523,0.002678,0.000431,0.158781
1294000,0.0324,0.013523,0.002678,0.000431,0.057824
1295000,0.0324,0.013523,0.002678,0.000431,0.127401
1296000,0.0324,0.013523,0.002678,0.000431,0.128223
1297000,0.0324,0.013523,0.002678,0.000431,0.096256
1298000,0.0324,0.013523,0.002678,0.000431,0.095198
1299000,0.0324,0.013523,0.002678,0.000431,0.180406
1300000,0.0324,0.013523,0.002678,0.000431,0.117881
1301000,0.0324,0.013523,0.002678,0.000431,0.117646
1302000,0.0324,0.013523,0.002678,0.000431,0.108949
1303000,0.0324,0.013523,0.002678,0.000431,0.089556
1304000,0.0324,0.013523,0.002678,0.000431,0.120466
1305000,0.0324,0.013523,0.002678,0.000431,0.175235
1306000,0.0324,0.013523,0.002678,0.000431,0.247984
1307000,0.0324,0.013523,0.002678,0.000431,0.126930
1308000,0.0324,0.013523,0.002678,0.000431,0.152081
1309000,0.0324,0.013523,0.002678,0.000431,0.061702
1310000,0.0324,0.013523,0.002678,0.000431,0.206497
1311000,0.0324,0.013523,0.002678,0.000431,0.118468
1312000,0.0324,0.013523,0.002678,0.000431,0.062995
1313000,0.0324,0.013523,0.002678,0.000431,0.115530
1314000,0.0324,0.013523,0.002678,0.000431,0.138918
1315000,0.0324,0.013523,0.002678,0.000431,0.109889
1316000,0.0324,0.013523,0.002678,0.000431,0.056296
1317000,0.0324,0.013523,0.002678,0.000431,0.055591
1318000,0.0324,0.013523,0.002678,0.000431,0.105658
1319000,0.0324,0.013523,0.002678,0.000431,0.141739
1320000,0.0324,0.013523,0.002678,0.000431,0.086266
1321000,0.0324,0.013523,0.002678,0.000431,0.131279
1322000,0.0324,0.013523,0.002678,0.000431,0.045601
1323000,0.0324,0.013523,0.002678,0.000431,0.102837
1324000,0.0324,0.013523,0.002678,0.000431,0.110241
1325000,0.0324,0.013523,0.002678,0.000431,0.249982
1326000,0.0324,0.013523,0.002678,0.000431,0.168300
1327000,0.0324,0.013523,0.002678,0.000431,0.095550
1328000,0.0324,0.013523,0.002678,0.000431,0.061232
1329000,0.0324,0.013523,0.002678,0.000431,0.055708
1330000,0.0324,0.013523,0.002678,0.000431,0.104718
1331000,0.0324,0.013523,0.002678,0.000431,0.181816
1332000,0.0324,0.013523,0.002678,0.000431,0.125050
1333000,0.0324,0.013523,0.002678,0.000431,0.125990
1334000,0.0324,0.013523,0.002678,0.000431,0.044308
1335000,0.0324,0.013523,0.002678,0.000431,0.094140
1336000,0.0324,0.013523,0.002678,0.000431,0.156548
1337000,0.0324,0.013523,0.002678,0.000431,0.183579
1338000,0.0324,0.013523,0.002678,0.000431,0.068989
1339000,0.0324,0.013523,0.002678,0.000431,0.061467
1340000,0.0324,0.013523,0.002678,0.000431,0.140329
1341000,0.0324,0.013523,0.002678,0.000431,0.231413
1342000,0.0324,0.013523,0.002678,0.000431,0.056178
1343000,0.0324,0.013523,0.002678,0.000431,0.193569
1344000,0.0324,0.013523,0.002678,0.000431,0.196272
1345000,0.0324,0.013523,0.002678,0.000431,0.096021
1346000,0.0324,0.013523,0.002678,0.000431,0.191101
1347000,0.0324,0.013523,0.002678,0.000431,0.188633
1348000,0.0324,0.013523,0.002678,0.000431,0.163129
1349000,0.0324,0.013523,0.002678,0.000431,0.070282
1350000,0.0324,0.013523,0.002678,0.000431,0.097783
1351000,0.0324,0.013523,0.002678,0.000431,0.109536
1352000,0.0324,0.013523,0.002678,0.000431,0.092377
1353000,0.0324,0.013523,0.002678,0.000431,0.094493
1354000,0.0324,0.013523,0.002678,0.000431,0.182404
1355000,0.0324,0.013523,0.002678,0.000431,0.065581
1356000,0.0324,0.013523,0.002678,0.000431,0.162777
1357000,0.0324,0.013523,0.002678,0.000431,0.104600
1358000,0.0324,0.013523,0.002678,0.000431,0.070869
1359000,0.0324,0.013523,0.002678,0.000431,0.073455
1360000,0.0324,0.013523,0.002678,0.000431,0.148908
1361000,0.0324,0.013523,0.002678,0.000431,0.240463
1362000,0.0324,0.013523,0.002678,0.000431,0.159133
1363000,0.0324,0.013523,0.002678,0.000431,0.065111
1364000,0.0324,0.013523,0.002678,0.000431,0.113650
1365000,0.0324,0.013523,0.002678,0.000431,0.112474
1366000,0.0324,0.013523,0.002678,0.000431,0.126930
1367000,0.0324,0.013523,0.002678,0.000431,0.112827
1368000,0.0324,0.013523,0.002678,0.000431,0.070399
1369000,0.0324,0.013523,0.002678,0.000431,0.080977
1370000,0.0324,0.013523,0.002678,0.000431,0.095315
1371000,0.0324,0.013523,0.002678,0.000431,0.080389
1372000,0.0324,0.013523,0.002678,0.000431,0.203911
1373000,0.0324,0.013523,0.002678,0.000431,0.161366
1374000,0.0324,0.013523,0.002678,0.000431,0.156665
1375000,0.0324,0.013523,0.002678,0.000431,0.194274
1376000,0.0324,0.013523,0.002678,0.000431,0.089321
1377000,0.0324,0.013523,0.002678,0.000431,0.134687
1378000,0.0324,0.013523,0.002678,0.000431,0.097783
1379000,0.0324,0.013523,0.002678,0.000431,0.147733
1380000,0.0324,0.013523,0.002678,0.000431,0.163834
1381000,0.0324,0.013523,0.002678,0.000431,0.067226
1382000,0.0324,0.013523,0.002678,0.000431,0.089909
1383000,0.0324,0.013523,0.002678,0.000431,0.042545
1384000,0.0324,0.013523,0.002678,0.000431,0.057941
1385000,0.0324,0.013523,0.002678,0.000431,0.085443
1386000,0.0324,0.013523,0.002678,0.000431,0.123875
1387000,0.0324,0.013523,0.002678,0.000431,0.174529
1388000,0.0324,0.013523,0.002678,0.000431,0.107186
1389000,0.0324,0.013523,0.002678,0.000431,0.109184
1390000,0.0324,0.013523,0.002678,0.000431,0.144560
1391000,0.0324,0.013523,0.002678,0.000431,0.050067
1392000,0.0324,0.013523,0.002678,0.000431,0.131867
1393000,0.0324,0.013523,0.002678,0.000431,0.222833
1394000,0.0324,0.013523,0.002678,0.000431,0.124580
1395000,0.0324,0.013523,0.002678,0.000431,0.120819
1396000,0.0324,0.013523,0.002678,0.000431,0.089556
1397000,0.0324,0.013523,0.002678,0.000431,0.040430
1398000,0.0324,0.013523,0.002678,0.000431,0.170651
1399000,0.0324,0.013523,0.002678,0.000431,0.308276
1400000,0.0324,0.013523,0.002678,0.000431,0.143032
1401000,0.0324,0.013523,0.002678,0.000431,0.072162
1402000,0.0324,0.013523,0.002678,0.000431,0.128811
1403000,0.0324,0.013523,0.002678,0.000431,0.135863
1404000,0.0324,0.013523,0.002678,0.000431,0.083798
1405000,0.0324,0.013523,0.002678,0.000431,0.182404
1406000,0.0324,0.013523,0.002678,0.000431,0.275133
1407000,0.0324,0.013523,0.002678,0.000431,0.182169
1408000,0.0324,0.013523,0.002678,0.000431,0.137390
1409000,0.0324,0.013523,0.002678,0.000431,0.066521
1410000,0.0324,0.013523,0.002678,0.000431,0.056531
1411000,0.0324,0.013523,0.002678,0.000431,0.125403
1412000,0.0324,0.013523,0.002678,0.000431,0.182286
1413000,0.0324,0.013523,0.002678,0.000431,0.148673
1414000,0.0324,0.013523,0.002678,0.000431,0.201913
1415000,0.0324,0.013523,0.002678,0.000431,0.074278
1416000,0.0324,0.013523,0.002678,0.000431,0.072515
1417000,0.0324,0.013523,0.002678,0.000431,0.090967
1418000,0.0324,0.013523,0.002678,0.000431,0.042310
1419000,0.0324,0.013523,0.002678,0.000431,0.306161
1420000,0.0324,0.013523,0.002678,0.000431,0.142444
1421000,0.0324,0.013523,0.002678,0.000431,0.083680
1422000,0.0324,0.013523,0.002678,0.000431,0.115413
1423000,0.0324,0.013523,0.002678,0.000431,0.156900
1424000,0.0324,0.013523,0.002678,0.000431,0.087794
1425000,0.0324,0.013523,0.002678,0.000431,0.269610
1426000,0.0324,0.013523,0.002678,0.000431,0.141504
1427000,0.0324,0.013523,0.002678,0.000431,0.139036
1428000,0.0324,0.013523,0.002678,0.000431,0.165010
1429000,0.0324,0.013523,0.002678,0.000431,0.236937
1430000,0.0324,0.013523,0.002678,0.000431,0.082505
1431000,0.0324,0.013523,0.002678,0.000431,0.165480
1432000,0.0324,0.013523,0.002678,0.000431,0.236467
1433000,0.0324,0.013523,0.002678,0.000431,0.139036
1434000,0.0324,0.013523,0.002678,0.000431,0.257152
1435000,0.0324,0.013523,0.002678,0.000431,0.150436
1436000,0.0324,0.013523,0.002678,0.000431,0.114708
1437000,0.0324,0.013523,0.002678,0.000431,0.082505
1438000,0.0324,0.013523,0.002678,0.000431,0.299579
1439000,0.0324,0.013523,0.002678,0.000431,0.243753
1440000,0.0324,0.013523,0.002678,0.000431,0.146910
1441000,0.0324,0.013523,0.002678,0.000431,0.034671
1442000,0.0324,0.013523,0.002678,0.000431,0.136803
1443000,0.0324,0.013523,0.002678,0.000431,0.046306
1444000,0.0324,0.013523,0.002678,0.000431,0.133277
1445000,0.0324,0.013523,0.002678,0.000431,0.160191
1446000,0.0324,0.013523,0.002678,0.000431,0.160779
1447000,0.0324,0.013523,0.002678,0.000431,0.116823
1448000,0.0324,0.013523,0.002678,0.000431,0.038902
1449000,0.0324,0.013523,0.002678,0.000431,0.099194
1450000,0.0324,0.013523,0.002678,0.000431,0.072867
1451000,0.0324,0.013523,0.002678,0.000431,0.278072
1452000,0.0324,0.013523,0.002678,0.000431,0.144442
1453000,0.0324,0.013523,0.002678,0.000431,0.197330
1454000,0.0324,0.013523,0.002678,0.000431,0.077098
1455000,0.0324,0.013523,0.002678,0.000431,0.065581
1456000,0.0324,0.013523,0.002678,0.000431,0.049832
1457000,0.0324,0.013523,0.002678,0.000431,0.118351
1458000,0.0324,0.013523,0.002678,0.000431,0.228710
1459000,0.0324,0.013523,0.002678,0.000431,0.111064
1460000,0.0324,0.013523,0.002678,0.000431,0.132689
1461000,0.0324,0.013523,0.002678,0.000431,0.223186
1462000,0.0324,0.013523,0.002678,0.000431,0.065346
1463000,0.0324,0.013523,0.002678,0.000431,0.058529
1464000,0.0324,0.013523,0.002678,0.000431,0.231413
1465000,0.0324,0.013523,0.002678,0.000431,0.262793
1466000,0.0324,0.013523,0.002678,0.000431,0.146323
1467000,0.0324,0.013523,0.002678,0.000431,0.146558
1468000,0.0324,0.013523,0.002678,0.000431,0.207672
1469000,0.0324,0.013523,0.002678,0.000431,0.060057
1470000,0.0324,0.013523,0.002678,0.000431,0.145617
1471000,0.0324,0.013523,0.002678,0.000431,0.139741
1472000,0.0324,0.013523,0.002678,0.000431,0.196155
1473000,0.0324,0.013523,0.002678,0.000431,0.118468
1474000,0.0324,0.013523,0.002678,0.000431,0.117763
1475000,0.0324,0.013523,0.002678,0.000431,0.110124
1476000,0.0324,0.013523,0.002678,0.000431,0.049714
1477000,0.0324,0.013523,0.002678,0.000431,0.117763
1478000,0.0324,0.013523,0.002678,0.000431,0.275486
1479000,0.0324,0.013523,0.002678,0.000431,0.204382
1480000,0.0324,0.013523,0.002678,0.000431,0.287121
1481000,0.0324,0.013523,0.002678,0.000431,0.072280
1482000,0.0324,0.013523,0.002678,0.000431,0.072750
1483000,0.0324,0.013523,0.002678,0.000431,0.215782
1484000,0.0324,0.013523,0.002678,0.000431,0.084385
1485000,0.0324,0.013523,0.002678,0.000431,0.190278
1486000,0.0324,0.013523,0.002678,0.000431,0.120701
1487000,0.0324,0.013523,0.002678,0.000431,0.196742
1488000,0.0324,0.013523,0.002678,0.000431,0.197917
1489000,0.0324,0.013523,0.002678,0.000431,0.100016
1490000,0.0324,0.013523,0.002678,0.000431,0.189455
1491000,0.0324,0.013523,0.002678,0.000431,0.120114
1492000,0.0324,0.013523,0.002678,0.000431,0.190278
1493000,0.0324,0.013523,0.002678,0.000431,0.204029
1494000,0.0324,0.013523,0.002678,0.000431,0.080154
1495000,0.0324,0.013523,0.002678,0.000431,0.122582
1496000,0.0324,0.013523,0.002678,0.000431,0.082975
1497000,0.0324,0.013523,0.002678,0.000431,0.132689
1498000,0.0324,0.013523,0.002678,0.000431,0.140799
1499000,0.0324,0.013523,0.002678,0.000431,0.137390
1500000,0.0324,0.013523,0.002678,0.000431,0.127518
1501000,0.0324,0.013523,0.002678,0.000431,0.268317
1502000,0.0324,0.013523,0.002678,0.000431,0.117058
1503000,0.0324,0.013523,0.002678,0.000431,0.224596
1504000,0.0324,0.013523,0.002678,0.000431,0.072985
1505000,0.0324,0.013523,0.002678,0.000431,0.179583
1506000,0.0324,0.013523,0.002678,0.000431,0.249160
1507000,0.0324,0.013523,0.002678,0.000431,0.112945
1508000,0.0324,0.013523,0.002678,0.000431,0.102955
1509000,0.0324,0.013523,0.002678,0.000431,0.189926
1510000,0.0324,0.013523,0.002678,0.000431,0.136803
1511000,0.0324,0.013523,0.002678,0.000431,0.230355
1512000,0.0324,0.013523,0.002678,0.000431,0.205557
1513000,0.0324,0.013523,0.002678,0.000431,0.287239
1514000,0.0324,0.013523,0.002678,0.000431,0.124345
1515000,0.0324,0.013523,0.002678,0.000431,0.115060
1516000,0.0324,0.013523,0.002678,0.000431,0.130104
1517000,0.0324,0.013523,0.002678,0.000431,0.177820
1518000,0.0324,0.013523,0.002678,0.000431,0.128223
1519000,0.0324,0.013523,0.002678,0.000431,0.337306
1520000,0.0324,0.013523,0.002678,0.000431,0.138213
1521000,0.0324,0.013523,0.002678,0.000431,0.097783
1522000,0.0324,0.013523,0.002678,0.000431,0.114472
1523000,0.0324,0.013523,0.002678,0.000431,0.128576
1524000,0.0324,0.013523,0.002678,0.000431,0.103307
1525000,0.0324,0.013523,0.002678,0.000431,0.107656
1526000,0.0324,0.013523,0.002678,0.000431,0.124697
1527000,0.0324,0.013523,0.002678,0.000431,0.099546
1528000,0.0324,0.013523,0.002678,0.000431,0.111534
1529000,0.0324,0.013523,0.002678,0.000431,0.151376
1530000,0.0324,0.013523,0.002678,0.000431,0.136215
1531000,0.0324,0.013523,0.002678,0.000431,0.080389
1532000,0.0324,0.013523,0.002678,0.000431,0.102955
1533000,0.0324,0.013523,0.002678,0.000431,0.084150
1534000,0.0324,0.013523,0.002678,0.000431,0.129163
1535000,0.0324,0.013523,0.002678,0.000431,0.045954
1536000,0.0324,0.013523,0.002678,0.000431,0.185107
1537000,0.0324,0.013523,0.002678,0.000431,0.098606
1538000,0.0324,0.013523,0.002678,0.000431,0.074043
1539000,0.0324,0.013523,0.002678,0.000431,0.215899
1540000,0.0324,0.013523,0.002678,0.000431,0.243048
1541000,0.0324,0.013523,0.002678,0.000431,0.062643
1542000,0.0324,0.013523,0.002678,0.000431,0.163247
1543000,0.0324,0.013523,0.002678,0.000431,0.159133
1544000,0.0324,0.013523,0.002678,0.000431,0.158310
1545000,0.0324,0.013523,0.002678,0.000431,0.218602
1546000,0.0324,0.013523,0.002678,0.000431,0.157723
1547000,0.0324,0.013523,0.002678,0.000431,0.088851
1548000,0.0324,0.013523,0.002678,0.000431,0.109536
1549000,0.0324,0.013523,0.002678,0.000431,0.171004
1550000,0.0324,0.013523,0.002678,0.000431,0.124462
1551000,0.0324,0.013523,0.002678,0.000431,0.200856
1552000,0.0324,0.013523,0.002678,0.000431,0.124580
1553000,0.0324,0.013523,0.002678,0.000431,0.180288
1554000,0.0324,0.013523,0.002678,0.000431,0.196742
1555000,0.0324,0.013523,0.002678,0.000431,0.159486
1556000,0.0324,0.013523,0.002678,0.000431,0.148673
1557000,0.0324,0.013523,0.002678,0.000431,0.206967
1558000,0.0324,0.013523,0.002678,0.000431,0.131632
1559000,0.0324,0.013523,0.002678,0.000431,0.326728
1560000,0.0324,0.013523,0.002678,0.000431,0.144207
1561000,0.0324,0.013523,0.002678,0.000431,0.216604
1562000,0.0324,0.013523,0.002678,0.000431,0.241755
1563000,0.0324,0.013523,0.002678,0.000431,0.207790
1564000,0.0324,0.013523,0.002678,0.000431,0.165010
1565000,0.0324,0.013523,0.002678,0.000431,0.111299
1566000,0.0324,0.013523,0.002678,0.000431,0.232236
1567000,0.0324,0.013523,0.002678,0.000431,0.112945
1568000,0.0324,0.013523,0.002678,0.000431,0.166537
1569000,0.0324,0.013523,0.002678,0.000431,0.341654
1570000,0.0324,0.013523,0.002678,0.000431,0.097196
1571000,0.0324,0.013523,0.002678,0.000431,0.206615
1572000,0.0324,0.013523,0.002678,0.000431,0.281127
1573000,0.0324,0.013523,0.002678,0.000431,0.192394
1574000,0.0324,0.013523,0.002678,0.000431,0.161954
1575000,0.0324,0.013523,0.002678,0.000431,0.087323
1576000,0.0324,0.013523,0.002678,0.000431,0.137743
1577000,0.0324,0.013523,0.002678,0.000431,0.117528
1578000,0.0324,0.013523,0.002678,0.000431,0.161249
1579000,0.0324,0.013523,0.002678,0.000431,0.089556
1580000,0.0324,0.013523,0.002678,0.000431,0.236819
1581000,0.0324,0.013523,0.002678,0.000431,0.212961
1582000,0.0324,0.013523,0.002678,0.000431,0.176997
1583000,0.0324,0.013523,0.002678,0.000431,0.329784
1584000,0.0324,0.013523,0.002678,0.000431,0.165715
1585000,0.0324,0.013523,0.002678,0.000431,0.179701
1586000,0.0324,0.013523,0.002678,0.000431,0.230590
1587000,0.0324,0.013523,0.002678,0.000431,0.229885
1588000,0.0324,0.013523,0.002678,0.000431,0.152787
1589000,0.0324,0.013523,0.002678,0.000431,0.038784
1590000,0.0324,0.013523,0.002678,0.000431,0.172531
1591000,0.0324,0.013523,0.002678,0.000431,0.187105
1592000,0.0324,0.013523,0.002678,0.000431,0.203676
1593000,0.0324,0.013523,0.002678,0.000431,0.170063
1594000,0.0324,0.013523,0.002678,0.000431,0.189220
1595000,0.0324,0.013523,0.002678,0.000431,0.183109
1596000,0.0324,0.013523,0.002678,0.000431,0.120936
1597000,0.0324,0.013523,0.002678,0.000431,0.156430
1598000,0.0324,0.013523,0.002678,0.000431,0.163247
1599000,0.0324,0.013523,0.002678,0.000431,0.204146
1600000,0.0324,0.013523,0.002678,0.000431,0.153609
1601000,0.0324,0.013523,0.002678,0.000431,0.081447
1602000,0.0324,0.013523,0.002678,0.000431,0.146910
1603000,0.0324,0.013523,0.002678,0.000431,0.228005
1604000,0.0324,0.013523,0.002678,0.000431,0.140094
1605000,0.0324,0.013523,0.002678,0.000431,0.261148
1606000,0.0324,0.013523,0.002678,0.000431,0.175470
1607000,0.0324,0.013523,0.002678,0.000431,0.160426
1608000,0.0324,0.013523,0.002678,0.000431,0.064405
1609000,0.0324,0.013523,0.002678,0.000431,0.091790
1610000,0.0324,0.013523,0.002678,0.000431,0.119761
1611000,0.0324,0.013523,0.002678,0.000431,0.316621
1612000,0.0324,0.013523,0.002678,0.000431,0.070517
1613000,0.0324,0.013523,0.002678,0.000431,0.208730
1614000,0.0324,0.013523,0.002678,0.000431,0.144442
1615000,0.0324,0.013523,0.002678,0.000431,0.334133
1616000,0.0324,0.013523,0.002678,0.000431,0.255624
1617000,0.0324,0.013523,0.002678,0.000431,0.149143
1618000,0.0324,0.013523,0.002678,0.000431,0.134687
1619000,0.0324,0.013523,0.002678,0.000431,0.135392
1620000,0.0324,0.013523,0.002678,0.000431,0.170651
1621000,0.0324,0.013523,0.002678,0.000431,0.201913
1622000,0.0324,0.013523,0.002678,0.000431,0.119526
1623000,0.0324,0.013523,0.002678,0.000431,0.128576
1624000,0.0324,0.013523,0.002678,0.000431,0.293938
1625000,0.0324,0.013523,0.002678,0.000431,0.151611
1626000,0.0324,0.013523,0.002678,0.000431,0.175822
1627000,0.0324,0.013523,0.002678,0.000431,0.132102
1628000,0.0324,0.013523,0.002678,0.000431,0.087323
1629000,0.0324,0.013523,0.002678,0.000431,0.113180
1630000,0.0324,0.013523,0.002678,0.000431,0.149496
1631000,0.0324,0.013523,0.002678,0.000431,0.215077
1632000,0.0324,0.013523,0.002678,0.000431,0.267847
1633000,0.0324,0.013523,0.002678,0.000431,0.249865
1634000,0.0324,0.013523,0.002678,0.000431,0.114002
1635000,0.0324,0.013523,0.002678,0.000431,0.108714
1636000,0.0324,0.013523,0.002678,0.000431,0.153022
1637000,0.0324,0.013523,0.002678,0.000431,0.458477
1638000,0.0324,0.013523,0.002678,0.000431,0.233176
1639000,0.0324,0.013523,0.002678,0.000431,0.386785
1640000,0.0324,0.013523,0.002678,0.000431,0.332370
1641000,0.0324,0.013523,0.002678,0.000431,0.065111
1642000,0.0324,0.013523,0.002678,0.000431,0.072985
1643000,0.0324,0.013523,0.002678,0.000431,0.204734
1644000,0.0324,0.013523,0.002678,0.000431,0.176527
1645000,0.0324,0.013523,0.002678,0.000431,0.311567
1646000,0.0324,0.013523,0.002678,0.000431,0.259737
1647000,0.0324,0.013523,0.002678,0.000431,0.108126
1648000,0.0324,0.013523,0.002678,0.000431,0.208260
1649000,0.0324,0.013523,0.002678,0.000431,0.061232
1650000,0.0324,0.013523,0.002678,0.000431,0.268669
1651000,0.0324,0.013523,0.002678,0.000431,0.306984
1652000,0.0324,0.013523,0.002678,0.000431,0.318266
1653000,0.0324,0.013523,0.002678,0.000431,0.173589
1654000,0.0324,0.013523,0.002678,0.000431,0.050537
1655000,0.0324,0.013523,0.002678,0.000431,0.121524
1656000,0.0324,0.013523,0.002678,0.000431,0.084033
1657000,0.0324,0.013523,0.002678,0.000431,0.130926
1658000,0.0324,0.013523,0.002678,0.000431,0.296053
1659000,0.0324,0.013523,0.002678,0.000431,0.239875
1660000,0.0324,0.013523,0.002678,0.000431,0.272430
1661000,0.0324,0.013523,0.002678,0.000431,0.063348
1662000,0.0324,0.013523,0.002678,0.000431,0.178173
1663000,0.0324,0.013523,0.002678,0.000431,0.076511
1664000,0.0324,0.013523,0.002678,0.000431,0.208377
1665000,0.0324,0.013523,0.002678,0.000431,0.175587
1666000,0.0324,0.013523,0.002678,0.000431,0.309334
1667000,0.0324,0.013523,0.002678,0.000431,0.142562
1668000,0.0324,0.013523,0.002678,0.000431,0.106363
1669000,0.0324,0.013523,0.002678,0.000431,0.186870
1670000,0.0324,0.013523,0.002678,0.000431,0.264791
1671000,0.0324,0.013523,0.002678,0.000431,0.442964
1672000,0.0324,0.013523,0.002678,0.000431,0.367628
1673000,0.0324,0.013523,0.002678,0.000431,0.190631
1674000,0.0324,0.013523,0.002678,0.000431,0.167478
1675000,0.0324,0.013523,0.002678,0.000431,0.223891
1676000,0.0324,0.013523,0.002678,0.000431,0.073103
1677000,0.0324,0.013523,0.002678,0.000431,0.180758
1678000,0.0324,0.013523,0.002678,0.000431,0.182874
1679000,0.0324,0.013523,0.002678,0.000431,0.208377
1680000,0.0324,0.013523,0.002678,0.000431,0.142092
1681000,0.0324,0.013523,0.002678,0.000431,0.171239
1682000,0.0324,0.013523,0.002678,0.000431,0.159016
1683000,0.0324,0.013523,0.002678,0.000431,0.161366
1684000,0.0324,0.013523,0.002678,0.000431,0.169593
1685000,0.0324,0.013523,0.002678,0.000431,0.114708
1686000,0.0324,0.013523,0.002678,0.000431,0.155490
1687000,0.0324,0.013523,0.002678,0.000431,0.176527
1688000,0.0324,0.013523,0.002678,0.000431,0.112239
1689000,0.0324,0.013523,0.002678,0.000431,0.044073
1690000,0.0324,0.013523,0.002678,0.000431,0.298051
1691000,0.0324,0.013523,0.002678,0.000431,0.168535
1692000,0.0324,0.013523,0.002678,0.000431,0.111064
1693000,0.0324,0.013523,0.002678,0.000431,0.179701
1694000,0.0324,0.013523,0.002678,0.000431,0.225889
1695000,0.0324,0.013523,0.002678,0.000431,0.109889
1696000,0.0324,0.013523,0.002678,0.000431,0.186635
1697000,0.0324,0.013523,0.002678,0.000431,0.218602
1698000,0.0324,0.013523,0.002678,0.000431,0.264203
1699000,0.0324,0.013523,0.002678,0.000431,0.170651
1700000,0.0324,0.013523,0.002678,0.000431,0.202736
1701000,0.0324,0.013523,0.002678,0.000431,0.150554
1702000,0.0324,0.013523,0.002678,0.000431,0.092377
1703000,0.0324,0.013523,0.002678,0.000431,0.260442
1704000,0.0324,0.013523,0.002678,0.000431,0.338011
1705000,0.0324,0.013523,0.002678,0.000431,0.082270
1706000,0.0324,0.013523,0.002678,0.000431,0.121759
1707000,0.0324,0.013523,0.002678,0.000431,0.242343
1708000,0.0324,0.013523,0.002678,0.000431,0.201443
1709000,0.0324,0.013523,0.002678,0.000431,0.149026
1710000,0.0324,0.013523,0.002678,0.000431,0.142209
1711000,0.0324,0.013523,0.002678,0.000431,0.361047
1712000,0.0324,0.013523,0.002678,0.000431,0.239405
1713000,0.0324,0.013523,0.002678,0.000431,0.199563
1714000,0.0324,0.013523,0.002678,0.000431,0.135863
1715000,0.0324,0.013523,0.002678,0.000431,0.127753
1716000,0.0324,0.013523,0.002678,0.000431,0.190866
1717000,0.0324,0.013523,0.002678,0.000431,0.090732
1718000,0.0324,0.013523,0.002678,0.000431,0.180171
1719000,0.0324,0.013523,0.002678,0.000431,0.111417
1720000,0.0324,0.013523,0.002678,0.000431,0.156195
1721000,0.0324,0.013523,0.002678,0.000431,0.110359
1722000,0.0324,0.013523,0.002678,0.000431,0.207437
1723000,0.0324,0.013523,0.002678,0.000431,0.195097
1724000,0.0324,0.013523,0.002678,0.000431,0.161836
1725000,0.0324,0.013523,0.002678,0.000431,0.147380
1726000,0.0324,0.013523,0.002678,0.000431,0.050420
1727000,0.0324,0.013523,0.002678,0.000431,0.170416
1728000,0.0324,0.013523,0.002678,0.000431,0.148438
1729000,0.0324,0.013523,0.002678,0.000431,0.253156
1730000,0.0324,0.013523,0.002678,0.000431,0.239287
1731000,0.0324,0.013523,0.002678,0.000431,0.342947
1732000,0.0324,0.013523,0.002678,0.000431,0.140564
1733000,0.0324,0.013523,0.002678,0.000431,0.095315
1734000,0.0324,0.013523,0.002678,0.000431,0.065111
1735000,0.0324,0.013523,0.002678,0.000431,0.143149
1736000,0.0324,0.013523,0.002678,0.000431,0.266789
1737000,0.0324,0.013523,0.002678,0.000431,0.092495
1738000,0.0324,0.013523,0.002678,0.000431,0.222951
1739000,0.0324,0.013523,0.002678,0.000431,0.302282
1740000,0.0324,0.013523,0.002678,0.000431,0.210258
1741000,0.0324,0.013523,0.002678,0.000431,0.100957
1742000,0.0324,0.013523,0.002678,0.000431,0.153727
1743000,0.0324,0.013523,0.002678,0.000431,0.125520
1744000,0.0324,0.013523,0.002678,0.000431,0.133277
1745000,0.0324,0.013523,0.002678,0.000431,0.280422
1746000,0.0324,0.013523,0.002678,0.000431,0.109889
1747000,0.0324,0.013523,0.002678,0.000431,0.140211
1748000,0.0324,0.013523,0.002678,0.000431,0.158310
1749000,0.0324,0.013523,0.002678,0.000431,0.152552
1750000,0.0324,0.013523,0.002678,0.000431,0.160426
1751000,0.0324,0.013523,0.002678,0.000431,0.105540
1752000,0.0324,0.013523,0.002678,0.000431,0.136685
1753000,0.0324,0.013523,0.002678,0.000431,0.106598
1754000,0.0324,0.013523,0.002678,0.000431,0.099076
1755000,0.0324,0.013523,0.002678,0.000431,0.161601
1756000,0.0324,0.013523,0.002678,0.000431,0.089556
1757000,0.0324,0.013523,0.002678,0.000431,0.184754
1758000,0.0324,0.013523,0.002678,0.000431,0.193922
1759000,0.0324,0.013523,0.002678,0.000431,0.107068
1760000,0.0324,0.013523,0.002678,0.000431,0.116470
1761000,0.0324,0.013523,0.002678,0.000431,0.121289
1762000,0.0324,0.013523,0.002678,0.000431,0.202501
1763000,0.0324,0.013523,0.002678,0.000431,0.158310
1764000,0.0324,0.013523,0.002678,0.000431,0.324495
1765000,0.0324,0.013523,0.002678,0.000431,0.111534
1766000,0.0324,0.013523,0.002678,0.000431,0.150319
1767000,0.0324,0.013523,0.002678,0.000431,0.072045
1768000,0.0324,0.013523,0.002678,0.000431,0.146205
1769000,0.0324,0.013523,0.002678,0.000431,0.073338
1770000,0.0324,0.013523,0.002678,0.000431,0.146558
1771000,0.0324,0.013523,0.002678,0.000431,0.178995
1772000,0.0324,0.013523,0.002678,0.000431,0.116823
1773000,0.0324,0.013523,0.002678,0.000431,0.063935
1774000,0.0324,0.013523,0.002678,0.000431,0.168183
1775000,0.0324,0.013523,0.002678,0.000431,0.189808
1776000,0.0324,0.013523,0.002678,0.000431,0.198740
1777000,0.0324,0.013523,0.002678,0.000431,0.164775
1778000,0.0324,0.013523,0.002678,0.000431,0.260442
1779000,0.0324,0.013523,0.002678,0.000431,0.236937
1780000,0.0324,0.013523,0.002678,0.000431,0.124932
1781000,0.0324,0.013523,0.002678,0.000431,0.233528
1782000,0.0324,0.013523,0.002678,0.000431,0.105188
1783000,0.0324,0.013523,0.002678,0.000431,0.210728
1784000,0.0324,0.013523,0.002678,0.000431,0.218250
1785000,0.0324,0.013523,0.002678,0.000431,0.096021
1786000,0.0324,0.013523,0.002678,0.000431,0.132102
1787000,0.0324,0.013523,0.002678,0.000431,0.132924
1788000,0.0324,0.013523,0.002678,0.000431,0.117998
1789000,0.0324,0.013523,0.002678,0.000431,0.117763
1790000,0.0324,0.013523,0.002678,0.000431,0.163012
1791000,0.0324,0.013523,0.002678,0.000431,0.178055
1792000,0.0324,0.013523,0.002678,0.000431,0.163364
1793000,0.0324,0.013523,0.002678,0.000431,0.175352
1794000,0.0324,0.013523,0.002678,0.000431,0.217427
1795000,0.0324,0.013523,0.002678,0.000431,0.114943
1796000,0.0324,0.013523,0.002678,0.000431,0.160191
1797000,0.0324,0.013523,0.002678,0.000431,0.220248
1798000,0.0324,0.013523,0.002678,0.000431,0.096961
1799000,0.0324,0.013523,0.002678,0.000431,0.051830
1800000,0.0324,0.013523,0.002678,0.000431,0.101897
1801000,0.0324,0.013523,0.002678,0.000431,0.141504
1802000,0.0324,0.013523,0.002678,0.000431,0.099429
1803000,0.0324,0.013523,0.002678,0.000431,0.091554
1804000,0.0324,0.013523,0.002678,0.000431,0.215429
1805000,0.0324,0.013523,0.002678,0.000431,0.147380
1806000,0.0324,0.013523,0.002678,0.000431,0.171004
1807000,0.0324,0.013523,0.002678,0.000431,0.358461
1808000,0.0324,0.013523,0.002678,0.000431,0.079684
1809000,0.0324,0.013523,0.002678,0.000431,0.087558
1810000,0.0324,0.013523,0.002678,0.000431,0.068519
1811000,0.0324,0.013523,0.002678,0.000431,0.068754
1812000,0.0324,0.013523,0.002678,0.000431,0.159251
1813000,0.0324,0.013523,0.002678,0.000431,0.096726
1814000,0.0324,0.013523,0.002678,0.000431,0.128106
1815000,0.0324,0.013523,0.002678,0.000431,0.085443
1816000,0.0324,0.013523,0.002678,0.000431,0.263381
1817000,0.0324,0.013523,0.002678,0.000431,0.121407
1818000,0.0324,0.013523,0.002678,0.000431,0.049949
1819000,0.0324,0.013523,0.002678,0.000431,0.137861
1820000,0.0324,0.013523,0.002678,0.000431,0.261618
1821000,0.0324,0.013523,0.002678,0.000431,0.127283
1822000,0.0324,0.013523,0.002678,0.000431,0.135275
1823000,0.0324,0.013523,0.002678,0.000431,0.119056
1824000,0.0324,0.013523,0.002678,0.000431,0.148791
1825000,0.0324,0.013523,0.002678,0.000431,0.075688
1826000,0.0324,0.013523,0.002678,0.000431,0.092377
1827000,0.0324,0.013523,0.002678,0.000431,0.211903
1828000,0.0324,0.013523,0.002678,0.000431,0.053945
1829000,0.0324,0.013523,0.002678,0.000431,0.252451
1830000,0.0324,0.013523,0.002678,0.000431,0.112827
1831000,0.0324,0.013523,0.002678,0.000431,0.205439
1832000,0.0324,0.013523,0.002678,0.000431,0.109771
1833000,0.0324,0.013523,0.002678,0.000431,0.156195
1834000,0.0324,0.013523,0.002678,0.000431,0.268199
1835000,0.0324,0.013523,0.002678,0.000431,0.106598
1836000,0.0324,0.013523,0.002678,0.000431,0.088616
1837000,0.0324,0.013523,0.002678,0.000431,0.158663
1838000,0.0324,0.013523,0.002678,0.000431,0.054063
1839000,0.0324,0.013523,0.002678,0.000431,0.183109
1840000,0.0324,0.013523,0.002678,0.000431,0.233293
1841000,0.0324,0.013523,0.002678,0.000431,0.294526
1842000,0.0324,0.013523,0.002678,0.000431,0.117881
1843000,0.0324,0.013523,0.002678,0.000431,0.110359
1844000,0.0324,0.013523,0.002678,0.000431,0.069107
1845000,0.0324,0.013523,0.002678,0.000431,0.060880
1846000,0.0324,0.013523,0.002678,0.000431,0.154197
1847000,0.0324,0.013523,0.002678,0.000431,0.226477
1848000,0.0324,0.013523,0.002678,0.000431,0.153374
1849000,0.0324,0.013523,0.002678,0.000431,0.190278
1850000,0.0324,0.013523,0.002678,0.000431,0.127988
1851000,0.0324,0.013523,0.002678,0.000431,0.114237
1852000,0.0324,0.013523,0.002678,0.000431,0.076276
1853000,0.0324,0.013523,0.002678,0.000431,0.121759
1854000,0.0324,0.013523,0.002678,0.000431,0.152317
1855000,0.0324,0.013523,0.002678,0.000431,0.058412
1856000,0.0324,0.013523,0.002678,0.000431,0.203911
1857000,0.0324,0.013523,0.002678,0.000431,0.140564
1858000,0.0324,0.013523,0.002678,0.000431,0.129516
1859000,0.0324,0.013523,0.002678,0.000431,0.080154
1860000,0.0324,0.013523,0.002678,0.000431,0.080389
1861000,0.0324,0.013523,0.002678,0.000431,0.256917
1862000,0.0324,0.013523,0.002678,0.000431,0.108596
1863000,0.0324,0.013523,0.002678,0.000431,0.142092
1864000,0.0324,0.013523,0.002678,0.000431,0.068519
1865000,0.0324,0.013523,0.002678,0.000431,0.117763
1866000,0.0324,0.013523,0.002678,0.000431,0.216957
1867000,0.0324,0.013523,0.002678,0.000431,0.131749
1868000,0.0324,0.013523,0.002678,0.000431,0.043956
1869000,0.0324,0.013523,0.002678,0.000431,0.168888
1870000,0.0324,0.013523,0.002678,0.000431,0.141739
1871000,0.0324,0.013523,0.002678,0.000431,0.171474
1872000,0.0324,0.013523,0.002678,0.000431,0.163952
1873000,0.0324,0.013523,0.002678,0.000431,0.154197
1874000,0.0324,0.013523,0.002678,0.000431,0.097078
1875000,0.0324,0.013523,0.002678,0.000431,0.061585
1876000,0.0324,0.013523,0.002678,0.000431,0.095433
1877000,0.0324,0.013523,0.002678,0.000431,0.096961
1878000,0.0324,0.013523,0.002678,0.000431,0.174764
1879000,0.0324,0.013523,0.002678,0.000431,0.168300
1880000,0.0324,0.013523,0.002678,0.000431,0.103425
1881000,0.0324,0.013523,0.002678,0.000431,0.050420
1882000,0.0324,0.013523,0.002678,0.000431,0.149143
1883000,0.0324,0.013523,0.002678,0.000431,0.127871
1884000,0.0324,0.013523,0.002678,0.000431,0.070752
1885000,0.0324,0.013523,0.002678,0.000431,0.247632
1886000,0.0324,0.013523,0.002678,0.000431,0.110712
1887000,0.0324,0.013523,0.002678,0.000431,0.163599
1888000,0.0324,0.013523,0.002678,0.000431,0.096138
1889000,0.0324,0.013523,0.002678,0.000431,0.095315
1890000,0.0324,0.013523,0.002678,0.000431,0.102485
1891000,0.0324,0.013523,0.002678,0.000431,0.133982
1892000,0.0324,0.013523,0.002678,0.000431,0.333545
1893000,0.0324,0.013523,0.002678,0.000431,0.076981
1894000,0.0324,0.013523,0.002678,0.000431,0.091319
1895000,0.0324,0.013523,0.002678,0.000431,0.062172
1896000,0.0324,0.013523,0.002678,0.000431,0.168535
1897000,0.0324,0.013523,0.002678,0.000431,0.052418
1898000,0.0324,0.013523,0.002678,0.000431,0.132689
1899000,0.0324,0.013523,0.002678,0.000431,0.151141
1900000,0.0324,0.013523,0.002678,0.000431,0.121759
1901000,0.0324,0.013523,0.002678,0.000431,0.147498
1902000,0.0324,0.013523,0.002678,0.000431,0.171709
1903000,0.0324,0.013523,0.002678,0.000431,0.143149
1904000,0.0324,0.013523,0.002678,0.000431,0.104483
1905000,0.0324,0.013523,0.002678,0.000431,0.213784
1906000,0.0324,0.013523,0.002678,0.000431,0.076158
1907000,0.0324,0.013523,0.002678,0.000431,0.061467
1908000,0.0324,0.013523,0.002678,0.000431,0.049949
1909000,0.0324,0.013523,0.002678,0.000431,0.155490
1910000,0.0324,0.013523,0.002678,0.000431,0.087911
1911000,0.0324,0.013523,0.002678,0.000431,0.135392
1912000,0.0324,0.013523,0.002678,0.000431,0.123287
1913000,0.0324,0.013523,0.002678,0.000431,0.050067
1914000,0.0324,0.013523,0.002678,0.000431,0.141974
1915000,0.0324,0.013523,0.002678,0.000431,0.224361
1916000,0.0324,0.013523,0.002678,0.000431,0.153844
1917000,0.0324,0.013523,0.002678,0.000431,0.087676
1918000,0.0324,0.013523,0.002678,0.000431,0.183697
1919000,0.0324,0.013523,0.002678,0.000431,0.083563
1920000,0.0324,0.013523,0.002678,0.000431,0.055238
1921000,0.0324,0.013523,0.002678,0.000431,0.183226
1922000,0.0324,0.013523,0.002678,0.000431,0.163012
1923000,0.0324,0.013523,0.002678,0.000431,0.099194
1924000,0.0324,0.013523,0.002678,0.000431,0.118703
1925000,0.0324,0.013523,0.002678,0.000431,0.241873
1926000,0.0324,0.013523,0.002678,0.000431,0.172061
1927000,0.0324,0.013523,0.002678,0.000431,0.128811
1928000,0.0324,0.013523,0.002678,0.000431,0.145735
1929000,0.0324,0.013523,0.002678,0.000431,0.110241
1930000,0.0324,0.013523,0.002678,0.000431,0.183109
1931000,0.0324,0.013523,0.002678,0.000431,0.153844
1932000,0.0324,0.013523,0.002678,0.000431,0.118586
1933000,0.0324,0.013523,0.002678,0.000431,0.091437
1934000,0.0324,0.013523,0.002678,0.000431,0.112122
1935000,0.0324,0.013523,0.002678,0.000431,0.116353
1936000,0.0324,0.013523,0.002678,0.000431,0.049362
1937000,0.0324,0.013523,0.002678,0.000431,0.090967
1938000,0.0324,0.013523,0.002678,0.000431,0.055708
1939000,0.0324,0.013523,0.002678,0.000431,0.110594
1940000,0.0324,0.013523,0.002678,0.000431,0.071575
1941000,0.0324,0.013523,0.002678,0.000431,0.159016
1942000,0.0324,0.013523,0.002678,0.000431,0.107656
1943000,0.0324,0.013523,0.002678,0.000431,0.128928
1944000,0.0324,0.013523,0.002678,0.000431,0.226242
1945000,0.0324,0.013523,0.002678,0.000431,0.071692
1946000,0.0324,0.013523,0.002678,0.000431,0.066286
1947000,0.0324,0.013523,0.002678,0.000431,0.129046
1948000,0.0324,0.013523,0.002678,0.000431,0.125168
1949000,0.0324,0.013523,0.002678,0.000431,0.076511
1950000,0.0324,0.013523,0.002678,0.000431,0.114002
1951000,0.0324,0.013523,0.002678,0.000431,0.092612
1952000,0.0324,0.013523,0.002678,0.000431,0.214489
1953000,0.0324,0.013523,0.002678,0.000431,0.039019
1954000,0.0324,0.013523,0.002678,0.000431,0.065346
1955000,0.0324,0.013523,0.002678,0.000431,0.069107
1956000,0.0324,0.013523,0.002678,0.000431,0.124932
1957000,0.0324,0.013523,0.002678,0.000431,0.162659
1958000,0.0324,0.013523,0.002678,0.000431,0.064523
1959000,0.0324,0.013523,0.002678,0.000431,0.059469
1960000,0.0324,0.013523,0.002678,0.000431,0.201443
1961000,0.0324,0.013523,0.002678,0.000431,0.095433
1962000,0.0324,0.013523,0.002678,0.000431,0.083915
1963000,0.0324,0.013523,0.002678,0.000431,0.118939
1964000,0.0324,0.013523,0.002678,0.000431,0.083445
1965000,0.0324,0.013523,0.002678,0.000431,0.042663
1966000,0.0324,0.013523,0.002678,0.000431,0.087323
1967000,0.0324,0.013523,0.002678,0.000431,0.365160
1968000,0.0324,0.013523,0.002678,0.000431,0.077569
1969000,0.0324,0.013523,0.002678,0.000431,0.064170
1970000,0.0324,0.013523,0.002678,0.000431,0.114120
1971000,0.0324,0.013523,0.002678,0.000431,0.072632
1972000,0.0324,0.013523,0.002678,0.000431,0.050302
1973000,0.0324,0.013523,0.002678,0.000431,0.129281
1974000,0.0324,0.013523,0.002678,0.000431,0.069107
1975000,0.0324,0.013523,0.002678,0.000431,0.054298
1976000,0.0324,0.013523,0.002678,0.000431,0.196507
1977000,0.0324,0.013523,0.002678,0.000431,0.080624
1978000,0.0324,0.013523,0.002678,0.000431,0.072632
1979000,0.0324,0.013523,0.002678,0.000431,0.069224
1980000,0.0324,0.013523,0.002678,0.000431,0.143737
1981000,0.0324,0.013523,0.002678,0.000431,0.125755
1982000,0.0324,0.013523,0.002678,0.000431,0.099194
1983000,0.0324,0.013523,0.002678,0.000431,0.151259
1984000,0.0324,0.013523,0.002678,0.000431,0.112004
1985000,0.0324,0.013523,0.002678,0.000431,0.115530
1986000,0.0324,0.013523,0.002678,0.000431,0.127401
1987000,0.0324,0.013523,0.002678,0.000431,0.249395
1988000,0.0324,0.013523,0.002678,0.000431,0.111652
1989000,0.0324,0.013523,0.002678,0.000431,0.094258
1990000,0.0324,0.013523,0.002678,0.000431,0.181934
1991000,0.0324,0.013523,0.002678,0.000431,0.103307
1992000,0.0324,0.013523,0.002678,0.000431,0.091084
1993000,0.0324,0.013523,0.002678,0.000431,0.219895
1994000,0.0324,0.013523,0.002678,0.000431,0.054063
1995000,0.0324,0.013523,0.002678,0.000431,0.109536
1996000,0.0324,0.013523,0.002678,0.000431,0.138801
1997000,0.0324,0.013523,0.002678,0.000431,0.135745
1998000,0.0324,0.013523,0.002678,0.000431,0.133277
1999000,0.0324,0.013523,0.002678,0.000431,0.112945
