Cycle,Area(mm^2),PeakDynamic(W),SubthresholdLeakage(W),GateLeakage(W),RunTimeDynamic(W)
27000000,0.0324,0.013523,0.002678,0.000431,0.004701
27001000,0.0324,0.013523,0.002678,0.000431,0.062407
27002000,0.0324,0.013523,0.002678,0.000431,0.057589
27003000,0.0324,0.013523,0.002678,0.000431,0.012105
27004000,0.0324,0.013523,0.002678,0.000431,0.004701
27005000,0.0324,0.013523,0.002678,0.000431,0.004701
27006000,0.0324,0.013523,0.002678,0.000431,0.019745
27007000,0.0324,0.013523,0.002678,0.000431,0.004701
27008000,0.0324,0.013523,0.002678,0.000431,0.004701
27009000,0.0324,0.013523,0.002678,0.000431,0.193451
27010000,0.0324,0.013523,0.002678,0.000431,0.048657
27011000,0.0324,0.013523,0.002678,0.000431,0.004701
27012000,0.0324,0.013523,0.002678,0.000431,0.012223
27013000,0.0324,0.013523,0.002678,0.000431,0.004701
27014000,0.0324,0.013523,0.002678,0.000431,0.050067
27015000,0.0324,0.013523,0.002678,0.000431,0.006817
27016000,0.0324,0.013523,0.002678,0.000431,0.080154
27017000,0.0324,0.013523,0.002678,0.000431,0.004701
27018000,0.0324,0.013523,0.002678,0.000431,0.004701
27019000,0.0324,0.013523,0.002678,0.000431,0.004701
27020000,0.0324,0.013523,0.002678,0.000431,0.027502
27021000,0.0324,0.013523,0.002678,0.000431,0.004701
27022000,0.0324,0.013523,0.002678,0.000431,0.004584
27023000,0.0324,0.013523,0.002678,0.000431,0.019627
27024000,0.0324,0.013523,0.002678,0.000431,0.004701
27025000,0.0324,0.013523,0.002678,0.000431,0.004701
27026000,0.0324,0.013523,0.002678,0.000431,0.004701
27027000,0.0324,0.013523,0.002678,0.000431,0.004584
27028000,0.0324,0.013523,0.002678,0.000431,0.004584
27029000,0.0324,0.013523,0.002678,0.000431,0.064641
27030000,0.0324,0.013523,0.002678,0.000431,0.004584
27031000,0.0324,0.013523,0.002678,0.000431,0.040312
27032000,0.0324,0.013523,0.002678,0.000431,0.119409
27033000,0.0324,0.013523,0.002678,0.000431,0.004701
27034000,0.0324,0.013523,0.002678,0.000431,0.004701
27035000,0.0324,0.013523,0.002678,0.000431,0.057354
27036000,0.0324,0.013523,0.002678,0.000431,0.064876
27037000,0.0324,0.013523,0.002678,0.000431,0.004701
27038000,0.0324,0.013523,0.002678,0.000431,0.064876
27039000,0.0324,0.013523,0.002678,0.000431,0.008462
27040000,0.0324,0.013523,0.002678,0.000431,0.008462
27041000,0.0324,0.013523,0.002678,0.000431,0.004701
27042000,0.0324,0.013523,0.002678,0.000431,0.049832
27043000,0.0324,0.013523,0.002678,0.000431,0.004701
27044000,0.0324,0.013523,0.002678,0.000431,0.004584
27045000,0.0324,0.013523,0.002678,0.000431,0.064758
27046000,0.0324,0.013523,0.002678,0.000431,0.012223
27047000,0.0324,0.013523,0.002678,0.000431,0.004701
27048000,0.0324,0.013523,0.002678,0.000431,0.114120
27049000,0.0324,0.013523,0.002678,0.000431,0.022918
27050000,0.0324,0.013523,0.002678,0.000431,0.004701
27051000,0.0324,0.013523,0.002678,0.000431,0.012223
27052000,0.0324,0.013523,0.002678,0.000431,0.026679
27053000,0.0324,0.013523,0.002678,0.000431,0.005289
27054000,0.0324,0.013523,0.002678,0.000431,0.004701
27055000,0.0324,0.013523,0.002678,0.000431,0.102250
27056000,0.0324,0.013523,0.002678,0.000431,0.004701
27057000,0.0324,0.013523,0.002678,0.000431,0.004701
27058000,0.0324,0.013523,0.002678,0.000431,0.004701
27059000,0.0324,0.013523,0.002678,0.000431,0.017394
27060000,0.0324,0.013523,0.002678,0.000431,0.004701
27061000,0.0324,0.013523,0.002678,0.000431,0.012223
27062000,0.0324,0.013523,0.002678,0.000431,0.019745
27063000,0.0324,0.013523,0.002678,0.000431,0.004701
27064000,0.0324,0.013523,0.002678,0.000431,0.049832
27065000,0.0324,0.013523,0.002678,0.000431,0.004701
27066000,0.0324,0.013523,0.002678,0.000431,0.007052
27067000,0.0324,0.013523,0.002678,0.000431,0.080624
27068000,0.0324,0.013523,0.002678,0.000431,0.026561
27069000,0.0324,0.013523,0.002678,0.000431,0.004701
27070000,0.0324,0.013523,0.002678,0.000431,0.038079
27071000,0.0324,0.013523,0.002678,0.000431,0.091202
27072000,0.0324,0.013523,0.002678,0.000431,0.034788
27073000,0.0324,0.013523,0.002678,0.000431,0.004701
27074000,0.0324,0.013523,0.002678,0.000431,0.147615
27075000,0.0324,0.013523,0.002678,0.000431,0.004466
27076000,0.0324,0.013523,0.002678,0.000431,0.004701
27077000,0.0324,0.013523,0.002678,0.000431,0.012223
27078000,0.0324,0.013523,0.002678,0.000431,0.004466
27079000,0.0324,0.013523,0.002678,0.000431,0.004466
27080000,0.0324,0.013523,0.002678,0.000431,0.073808
27081000,0.0324,0.013523,0.002678,0.000431,0.015984
27082000,0.0324,0.013523,0.002678,0.000431,0.004701
27083000,0.0324,0.013523,0.002678,0.000431,0.008462
27084000,0.0324,0.013523,0.002678,0.000431,0.038549
27085000,0.0324,0.013523,0.002678,0.000431,0.057354
27086000,0.0324,0.013523,0.002678,0.000431,0.004701
27087000,0.0324,0.013523,0.002678,0.000431,0.057354
27088000,0.0324,0.013523,0.002678,0.000431,0.004701
27089000,0.0324,0.013523,0.002678,0.000431,0.027267
27090000,0.0324,0.013523,0.002678,0.000431,0.042310
27091000,0.0324,0.013523,0.002678,0.000431,0.019510
27092000,0.0324,0.013523,0.002678,0.000431,0.019745
27093000,0.0324,0.013523,0.002678,0.000431,0.004701
27094000,0.0324,0.013523,0.002678,0.000431,0.012223
27095000,0.0324,0.013523,0.002678,0.000431,0.027267
27096000,0.0324,0.013523,0.002678,0.000431,0.034553
27097000,0.0324,0.013523,0.002678,0.000431,0.012458
27098000,0.0324,0.013523,0.002678,0.000431,0.034788
27099000,0.0324,0.013523,0.002678,0.000431,0.004701
27100000,0.0324,0.013523,0.002678,0.000431,0.004701
27101000,0.0324,0.013523,0.002678,0.000431,0.014691
27102000,0.0324,0.013523,0.002678,0.000431,0.040077
27103000,0.0324,0.013523,0.002678,0.000431,0.049832
27104000,0.0324,0.013523,0.002678,0.000431,0.008462
27105000,0.0324,0.013523,0.002678,0.000431,0.008462
27106000,0.0324,0.013523,0.002678,0.000431,0.004701
27107000,0.0324,0.013523,0.002678,0.000431,0.012223
27108000,0.0324,0.013523,0.002678,0.000431,0.004701
27109000,0.0324,0.013523,0.002678,0.000431,0.004701
27110000,0.0324,0.013523,0.002678,0.000431,0.004701
27111000,0.0324,0.013523,0.002678,0.000431,0.049832
27112000,0.0324,0.013523,0.002678,0.000431,0.004701
27113000,0.0324,0.013523,0.002678,0.000431,0.015984
27114000,0.0324,0.013523,0.002678,0.000431,0.015984
27115000,0.0324,0.013523,0.002678,0.000431,0.004466
27116000,0.0324,0.013523,0.002678,0.000431,0.012223
27117000,0.0324,0.013523,0.002678,0.000431,0.012223
27118000,0.0324,0.013523,0.002678,0.000431,0.012105
27119000,0.0324,0.013523,0.002678,0.000431,0.057001
27120000,0.0324,0.013523,0.002678,0.000431,0.004701
27121000,0.0324,0.013523,0.002678,0.000431,0.072632
27122000,0.0324,0.013523,0.002678,0.000431,0.012223
27123000,0.0324,0.013523,0.002678,0.000431,0.004701
27124000,0.0324,0.013523,0.002678,0.000431,0.004701
27125000,0.0324,0.013523,0.002678,0.000431,0.012223
27126000,0.0324,0.013523,0.002678,0.000431,0.004701
27127000,0.0324,0.013523,0.002678,0.000431,0.050655
27128000,0.0324,0.013523,0.002678,0.000431,0.072045
27129000,0.0324,0.013523,0.002678,0.000431,0.004466
27130000,0.0324,0.013523,0.002678,0.000431,0.004701
27131000,0.0324,0.013523,0.002678,0.000431,0.049597
27132000,0.0324,0.013523,0.002678,0.000431,0.042310
27133000,0.0324,0.013523,0.002678,0.000431,0.004701
27134000,0.0324,0.013523,0.002678,0.000431,0.019745
27135000,0.0324,0.013523,0.002678,0.000431,0.004701
27136000,0.0324,0.013523,0.002678,0.000431,0.004701
27137000,0.0324,0.013523,0.002678,0.000431,0.004701
27138000,0.0324,0.013523,0.002678,0.000431,0.019745
27139000,0.0324,0.013523,0.002678,0.000431,0.004701
27140000,0.0324,0.013523,0.002678,0.000431,0.012693
27141000,0.0324,0.013523,0.002678,0.000431,0.049362
27142000,0.0324,0.013523,0.002678,0.000431,0.004701
27143000,0.0324,0.013523,0.002678,0.000431,0.034788
27144000,0.0324,0.013523,0.002678,0.000431,0.004701
27145000,0.0324,0.013523,0.002678,0.000431,0.004701
27146000,0.0324,0.013523,0.002678,0.000431,0.004701
27147000,0.0324,0.013523,0.002678,0.000431,0.064876
27148000,0.0324,0.013523,0.002678,0.000431,0.027267
27149000,0.0324,0.013523,0.002678,0.000431,0.046071
27150000,0.0324,0.013523,0.002678,0.000431,0.023741
27151000,0.0324,0.013523,0.002678,0.000431,0.034788
27152000,0.0324,0.013523,0.002678,0.000431,0.004701
27153000,0.0324,0.013523,0.002678,0.000431,0.017042
27154000,0.0324,0.013523,0.002678,0.000431,0.014926
27155000,0.0324,0.013523,0.002678,0.000431,0.004466
27156000,0.0324,0.013523,0.002678,0.000431,0.004701
27157000,0.0324,0.013523,0.002678,0.000431,0.009167
27158000,0.0324,0.013523,0.002678,0.000431,0.007639
27159000,0.0324,0.013523,0.002678,0.000431,0.009755
27160000,0.0324,0.013523,0.002678,0.000431,0.014573
27161000,0.0324,0.013523,0.002678,0.000431,0.004701
27162000,0.0324,0.013523,0.002678,0.000431,0.042545
27163000,0.0324,0.013523,0.002678,0.000431,0.004701
27164000,0.0324,0.013523,0.002678,0.000431,0.131279
27165000,0.0324,0.013523,0.002678,0.000431,0.006229
27166000,0.0324,0.013523,0.002678,0.000431,0.031027
27167000,0.0324,0.013523,0.002678,0.000431,0.023506
27168000,0.0324,0.013523,0.002678,0.000431,0.006111
27169000,0.0324,0.013523,0.002678,0.000431,0.025621
27170000,0.0324,0.013523,0.002678,0.000431,0.012223
27171000,0.0324,0.013523,0.002678,0.000431,0.011988
27172000,0.0324,0.013523,0.002678,0.000431,0.004701
27173000,0.0324,0.013523,0.002678,0.000431,0.004701
27174000,0.0324,0.013523,0.002678,0.000431,0.032085
27175000,0.0324,0.013523,0.002678,0.000431,0.014926
27176000,0.0324,0.013523,0.002678,0.000431,0.004701
27177000,0.0324,0.013523,0.002678,0.000431,0.034788
27178000,0.0324,0.013523,0.002678,0.000431,0.004701
27179000,0.0324,0.013523,0.002678,0.000431,0.004701
27180000,0.0324,0.013523,0.002678,0.000431,0.004701
27181000,0.0324,0.013523,0.002678,0.000431,0.004701
27182000,0.0324,0.013523,0.002678,0.000431,0.004701
27183000,0.0324,0.013523,0.002678,0.000431,0.015984
27184000,0.0324,0.013523,0.002678,0.000431,0.008462
27185000,0.0324,0.013523,0.002678,0.000431,0.051477
27186000,0.0324,0.013523,0.002678,0.000431,0.060174
27187000,0.0324,0.013523,0.002678,0.000431,0.015279
27188000,0.0324,0.013523,0.002678,0.000431,0.019745
27189000,0.0324,0.013523,0.002678,0.000431,0.004701
27190000,0.0324,0.013523,0.002678,0.000431,0.004701
27191000,0.0324,0.013523,0.002678,0.000431,0.004701
27192000,0.0324,0.013523,0.002678,0.000431,0.034788
27193000,0.0324,0.013523,0.002678,0.000431,0.019745
27194000,0.0324,0.013523,0.002678,0.000431,0.047011
27195000,0.0324,0.013523,0.002678,0.000431,0.082152
27196000,0.0324,0.013523,0.002678,0.000431,0.027149
27197000,0.0324,0.013523,0.002678,0.000431,0.004701
27198000,0.0324,0.013523,0.002678,0.000431,0.012223
27199000,0.0324,0.013523,0.002678,0.000431,0.004701
27200000,0.0324,0.013523,0.002678,0.000431,0.004701
27201000,0.0324,0.013523,0.002678,0.000431,0.012223
27202000,0.0324,0.013523,0.002678,0.000431,0.004701
27203000,0.0324,0.013523,0.002678,0.000431,0.004701
27204000,0.0324,0.013523,0.002678,0.000431,0.007052
27205000,0.0324,0.013523,0.002678,0.000431,0.017394
27206000,0.0324,0.013523,0.002678,0.000431,0.049832
27207000,0.0324,0.013523,0.002678,0.000431,0.020332
27208000,0.0324,0.013523,0.002678,0.000431,0.053945
27209000,0.0324,0.013523,0.002678,0.000431,0.015044
27210000,0.0324,0.013523,0.002678,0.000431,0.004701
27211000,0.0324,0.013523,0.002678,0.000431,0.012223
27212000,0.0324,0.013523,0.002678,0.000431,0.034788
27213000,0.0324,0.013523,0.002678,0.000431,0.004701
27214000,0.0324,0.013523,0.002678,0.000431,0.004701
27215000,0.0324,0.013523,0.002678,0.000431,0.023153
27216000,0.0324,0.013523,0.002678,0.000431,0.091790
27217000,0.0324,0.013523,0.002678,0.000431,0.022800
27218000,0.0324,0.013523,0.002678,0.000431,0.054298
27219000,0.0324,0.013523,0.002678,0.000431,0.004701
27220000,0.0324,0.013523,0.002678,0.000431,0.004701
27221000,0.0324,0.013523,0.002678,0.000431,0.004701
27222000,0.0324,0.013523,0.002678,0.000431,0.058176
27223000,0.0324,0.013523,0.002678,0.000431,0.011165
27224000,0.0324,0.013523,0.002678,0.000431,0.034788
27225000,0.0324,0.013523,0.002678,0.000431,0.036786
27226000,0.0324,0.013523,0.002678,0.000431,0.010225
27227000,0.0324,0.013523,0.002678,0.000431,0.008462
27228000,0.0324,0.013523,0.002678,0.000431,0.008462
27229000,0.0324,0.013523,0.002678,0.000431,0.012223
27230000,0.0324,0.013523,0.002678,0.000431,0.004701
27231000,0.0324,0.013523,0.002678,0.000431,0.010578
27232000,0.0324,0.013523,0.002678,0.000431,0.013868
27233000,0.0324,0.013523,0.002678,0.000431,0.004701
27234000,0.0324,0.013523,0.002678,0.000431,0.008345
27235000,0.0324,0.013523,0.002678,0.000431,0.030792
27236000,0.0324,0.013523,0.002678,0.000431,0.019627
27237000,0.0324,0.013523,0.002678,0.000431,0.034788
27238000,0.0324,0.013523,0.002678,0.000431,0.023506
27239000,0.0324,0.013523,0.002678,0.000431,0.008462
27240000,0.0324,0.013523,0.002678,0.000431,0.024093
27241000,0.0324,0.013523,0.002678,0.000431,0.060997
27242000,0.0324,0.013523,0.002678,0.000431,0.004701
27243000,0.0324,0.013523,0.002678,0.000431,0.004701
27244000,0.0324,0.013523,0.002678,0.000431,0.004701
27245000,0.0324,0.013523,0.002678,0.000431,0.012223
27246000,0.0324,0.013523,0.002678,0.000431,0.004701
27247000,0.0324,0.013523,0.002678,0.000431,0.004701
27248000,0.0324,0.013523,0.002678,0.000431,0.004701
27249000,0.0324,0.013523,0.002678,0.000431,0.004231
27250000,0.0324,0.013523,0.002678,0.000431,0.057354
27251000,0.0324,0.013523,0.002678,0.000431,0.004701
27252000,0.0324,0.013523,0.002678,0.000431,0.004701
27253000,0.0324,0.013523,0.002678,0.000431,0.021390
27254000,0.0324,0.013523,0.002678,0.000431,0.085796
27255000,0.0324,0.013523,0.002678,0.000431,0.012223
27256000,0.0324,0.013523,0.002678,0.000431,0.027267
27257000,0.0324,0.013523,0.002678,0.000431,0.027267
27258000,0.0324,0.013523,0.002678,0.000431,0.004466
27259000,0.0324,0.013523,0.002678,0.000431,0.004701
27260000,0.0324,0.013523,0.002678,0.000431,0.004701
27261000,0.0324,0.013523,0.002678,0.000431,0.004701
27262000,0.0324,0.013523,0.002678,0.000431,0.019745
27263000,0.0324,0.013523,0.002678,0.000431,0.027267
27264000,0.0324,0.013523,0.002678,0.000431,0.004701
27265000,0.0324,0.013523,0.002678,0.000431,0.004701
27266000,0.0324,0.013523,0.002678,0.000431,0.004701
27267000,0.0324,0.013523,0.002678,0.000431,0.004701
27268000,0.0324,0.013523,0.002678,0.000431,0.072632
27269000,0.0324,0.013523,0.002678,0.000431,0.049832
27270000,0.0324,0.013523,0.002678,0.000431,0.004584
27271000,0.0324,0.013523,0.002678,0.000431,0.004584
27272000,0.0324,0.013523,0.002678,0.000431,0.004701
27273000,0.0324,0.013523,0.002678,0.000431,0.004701
27274000,0.0324,0.013523,0.002678,0.000431,0.004701
27275000,0.0324,0.013523,0.002678,0.000431,0.102720
27276000,0.0324,0.013523,0.002678,0.000431,0.042075
27277000,0.0324,0.013523,0.002678,0.000431,0.117528
27278000,0.0324,0.013523,0.002678,0.000431,0.004701
27279000,0.0324,0.013523,0.002678,0.000431,0.019745
27280000,0.0324,0.013523,0.002678,0.000431,0.004701
27281000,0.0324,0.013523,0.002678,0.000431,0.004701
27282000,0.0324,0.013523,0.002678,0.000431,0.004701
27283000,0.0324,0.013523,0.002678,0.000431,0.065111
27284000,0.0324,0.013523,0.002678,0.000431,0.004466
27285000,0.0324,0.013523,0.002678,0.000431,0.027267
27286000,0.0324,0.013523,0.002678,0.000431,0.004584
27287000,0.0324,0.013523,0.002678,0.000431,0.019627
27288000,0.0324,0.013523,0.002678,0.000431,0.004701
27289000,0.0324,0.013523,0.002678,0.000431,0.027031
27290000,0.0324,0.013523,0.002678,0.000431,0.053358
27291000,0.0324,0.013523,0.002678,0.000431,0.042310
27292000,0.0324,0.013523,0.002678,0.000431,0.008462
27293000,0.0324,0.013523,0.002678,0.000431,0.012223
27294000,0.0324,0.013523,0.002678,0.000431,0.004701
27295000,0.0324,0.013523,0.002678,0.000431,0.004701
27296000,0.0324,0.013523,0.002678,0.000431,0.012458
27297000,0.0324,0.013523,0.002678,0.000431,0.004701
27298000,0.0324,0.013523,0.002678,0.000431,0.080154
27299000,0.0324,0.013523,0.002678,0.000431,0.004701
27300000,0.0324,0.013523,0.002678,0.000431,0.004701
27301000,0.0324,0.013523,0.002678,0.000431,0.004701
27302000,0.0324,0.013523,0.002678,0.000431,0.004466
27303000,0.0324,0.013523,0.002678,0.000431,0.004701
27304000,0.0324,0.013523,0.002678,0.000431,0.019745
27305000,0.0324,0.013523,0.002678,0.000431,0.004701
27306000,0.0324,0.013523,0.002678,0.000431,0.012340
27307000,0.0324,0.013523,0.002678,0.000431,0.004819
27308000,0.0324,0.013523,0.002678,0.000431,0.012223
27309000,0.0324,0.013523,0.002678,0.000431,0.037021
27310000,0.0324,0.013523,0.002678,0.000431,0.160191
27311000,0.0324,0.013523,0.002678,0.000431,0.004701
27312000,0.0324,0.013523,0.002678,0.000431,0.004701
27313000,0.0324,0.013523,0.002678,0.000431,0.004701
27314000,0.0324,0.013523,0.002678,0.000431,0.004701
27315000,0.0324,0.013523,0.002678,0.000431,0.019745
27316000,0.0324,0.013523,0.002678,0.000431,0.008462
27317000,0.0324,0.013523,0.002678,0.000431,0.008462
27318000,0.0324,0.013523,0.002678,0.000431,0.004701
27319000,0.0324,0.013523,0.002678,0.000431,0.004701
27320000,0.0324,0.013523,0.002678,0.000431,0.004701
27321000,0.0324,0.013523,0.002678,0.000431,0.025034
27322000,0.0324,0.013523,0.002678,0.000431,0.021978
27323000,0.0324,0.013523,0.002678,0.000431,0.012223
27324000,0.0324,0.013523,0.002678,0.000431,0.004466
27325000,0.0324,0.013523,0.002678,0.000431,0.016689
27326000,0.0324,0.013523,0.002678,0.000431,0.031615
27327000,0.0324,0.013523,0.002678,0.000431,0.033260
27328000,0.0324,0.013523,0.002678,0.000431,0.019745
27329000,0.0324,0.013523,0.002678,0.000431,0.028207
27330000,0.0324,0.013523,0.002678,0.000431,0.011518
27331000,0.0324,0.013523,0.002678,0.000431,0.004701
27332000,0.0324,0.013523,0.002678,0.000431,0.004701
27333000,0.0324,0.013523,0.002678,0.000431,0.060174
27334000,0.0324,0.013523,0.002678,0.000431,0.016924
27335000,0.0324,0.013523,0.002678,0.000431,0.004701
27336000,0.0324,0.013523,0.002678,0.000431,0.012223
27337000,0.0324,0.013523,0.002678,0.000431,0.004701
27338000,0.0324,0.013523,0.002678,0.000431,0.004701
27339000,0.0324,0.013523,0.002678,0.000431,0.012340
27340000,0.0324,0.013523,0.002678,0.000431,0.033848
27341000,0.0324,0.013523,0.002678,0.000431,0.005759
27342000,0.0324,0.013523,0.002678,0.000431,0.034906
27343000,0.0324,0.013523,0.002678,0.000431,0.004584
27344000,0.0324,0.013523,0.002678,0.000431,0.004701
27345000,0.0324,0.013523,0.002678,0.000431,0.004701
27346000,0.0324,0.013523,0.002678,0.000431,0.049832
27347000,0.0324,0.013523,0.002678,0.000431,0.004701
27348000,0.0324,0.013523,0.002678,0.000431,0.004701
27349000,0.0324,0.013523,0.002678,0.000431,0.034788
27350000,0.0324,0.013523,0.002678,0.000431,0.004701
27351000,0.0324,0.013523,0.002678,0.000431,0.004701
27352000,0.0324,0.013523,0.002678,0.000431,0.031733
27353000,0.0324,0.013523,0.002678,0.000431,0.007757
27354000,0.0324,0.013523,0.002678,0.000431,0.010342
27355000,0.0324,0.013523,0.002678,0.000431,0.079802
27356000,0.0324,0.013523,0.002678,0.000431,0.014691
27357000,0.0324,0.013523,0.002678,0.000431,0.004701
27358000,0.0324,0.013523,0.002678,0.000431,0.004701
27359000,0.0324,0.013523,0.002678,0.000431,0.004701
27360000,0.0324,0.013523,0.002678,0.000431,0.072867
27361000,0.0324,0.013523,0.002678,0.000431,0.004701
27362000,0.0324,0.013523,0.002678,0.000431,0.004936
27363000,0.0324,0.013523,0.002678,0.000431,0.004701
27364000,0.0324,0.013523,0.002678,0.000431,0.004466
27365000,0.0324,0.013523,0.002678,0.000431,0.004701
27366000,0.0324,0.013523,0.002678,0.000431,0.023388
27367000,0.0324,0.013523,0.002678,0.000431,0.079567
27368000,0.0324,0.013523,0.002678,0.000431,0.046541
27369000,0.0324,0.013523,0.002678,0.000431,0.004701
27370000,0.0324,0.013523,0.002678,0.000431,0.004701
27371000,0.0324,0.013523,0.002678,0.000431,0.004701
27372000,0.0324,0.013523,0.002678,0.000431,0.004701
27373000,0.0324,0.013523,0.002678,0.000431,0.019745
27374000,0.0324,0.013523,0.002678,0.000431,0.085678
27375000,0.0324,0.013523,0.002678,0.000431,0.052065
27376000,0.0324,0.013523,0.002678,0.000431,0.004701
27377000,0.0324,0.013523,0.002678,0.000431,0.004466
27378000,0.0324,0.013523,0.002678,0.000431,0.004701
27379000,0.0324,0.013523,0.002678,0.000431,0.019745
27380000,0.0324,0.013523,0.002678,0.000431,0.004701
27381000,0.0324,0.013523,0.002678,0.000431,0.019745
27382000,0.0324,0.013523,0.002678,0.000431,0.004701
27383000,0.0324,0.013523,0.002678,0.000431,0.004701
27384000,0.0324,0.013523,0.002678,0.000431,0.004701
27385000,0.0324,0.013523,0.002678,0.000431,0.004701
27386000,0.0324,0.013523,0.002678,0.000431,0.004701
27387000,0.0324,0.013523,0.002678,0.000431,0.019862
27388000,0.0324,0.013523,0.002678,0.000431,0.004584
27389000,0.0324,0.013523,0.002678,0.000431,0.004701
27390000,0.0324,0.013523,0.002678,0.000431,0.004701
27391000,0.0324,0.013523,0.002678,0.000431,0.034788
27392000,0.0324,0.013523,0.002678,0.000431,0.004701
27393000,0.0324,0.013523,0.002678,0.000431,0.004701
27394000,0.0324,0.013523,0.002678,0.000431,0.004701
27395000,0.0324,0.013523,0.002678,0.000431,0.004701
27396000,0.0324,0.013523,0.002678,0.000431,0.004701
27397000,0.0324,0.013523,0.002678,0.000431,0.081800
27398000,0.0324,0.013523,0.002678,0.000431,0.025151
27399000,0.0324,0.013523,0.002678,0.000431,0.004701
27400000,0.0324,0.013523,0.002678,0.000431,0.012223
27401000,0.0324,0.013523,0.002678,0.000431,0.012223
27402000,0.0324,0.013523,0.002678,0.000431,0.004466
27403000,0.0324,0.013523,0.002678,0.000431,0.004701
27404000,0.0324,0.013523,0.002678,0.000431,0.004466
27405000,0.0324,0.013523,0.002678,0.000431,0.004701
27406000,0.0324,0.013523,0.002678,0.000431,0.004701
27407000,0.0324,0.013523,0.002678,0.000431,0.029147
27408000,0.0324,0.013523,0.002678,0.000431,0.017864
27409000,0.0324,0.013523,0.002678,0.000431,0.004701
27410000,0.0324,0.013523,0.002678,0.000431,0.004701
27411000,0.0324,0.013523,0.002678,0.000431,0.004701
27412000,0.0324,0.013523,0.002678,0.000431,0.004701
27413000,0.0324,0.013523,0.002678,0.000431,0.004701
27414000,0.0324,0.013523,0.002678,0.000431,0.012223
27415000,0.0324,0.013523,0.002678,0.000431,0.004701
27416000,0.0324,0.013523,0.002678,0.000431,0.004701
27417000,0.0324,0.013523,0.002678,0.000431,0.072515
27418000,0.0324,0.013523,0.002678,0.000431,0.004584
27419000,0.0324,0.013523,0.002678,0.000431,0.004701
27420000,0.0324,0.013523,0.002678,0.000431,0.034788
27421000,0.0324,0.013523,0.002678,0.000431,0.004701
27422000,0.0324,0.013523,0.002678,0.000431,0.004701
27423000,0.0324,0.013523,0.002678,0.000431,0.004701
27424000,0.0324,0.013523,0.002678,0.000431,0.046306
27425000,0.0324,0.013523,0.002678,0.000431,0.023271
27426000,0.0324,0.013523,0.002678,0.000431,0.008462
27427000,0.0324,0.013523,0.002678,0.000431,0.038549
27428000,0.0324,0.013523,0.002678,0.000431,0.004466
27429000,0.0324,0.013523,0.002678,0.000431,0.004701
27430000,0.0324,0.013523,0.002678,0.000431,0.004701
27431000,0.0324,0.013523,0.002678,0.000431,0.050067
27432000,0.0324,0.013523,0.002678,0.000431,0.004701
27433000,0.0324,0.013523,0.002678,0.000431,0.027267
27434000,0.0324,0.013523,0.002678,0.000431,0.004701
27435000,0.0324,0.013523,0.002678,0.000431,0.004701
27436000,0.0324,0.013523,0.002678,0.000431,0.080859
27437000,0.0324,0.013523,0.002678,0.000431,0.026326
27438000,0.0324,0.013523,0.002678,0.000431,0.004701
27439000,0.0324,0.013523,0.002678,0.000431,0.062407
27440000,0.0324,0.013523,0.002678,0.000431,0.067109
27441000,0.0324,0.013523,0.002678,0.000431,0.004701
27442000,0.0324,0.013523,0.002678,0.000431,0.004466
27443000,0.0324,0.013523,0.002678,0.000431,0.042310
27444000,0.0324,0.013523,0.002678,0.000431,0.004701
27445000,0.0324,0.013523,0.002678,0.000431,0.004701
27446000,0.0324,0.013523,0.002678,0.000431,0.072397
27447000,0.0324,0.013523,0.002678,0.000431,0.004701
27448000,0.0324,0.013523,0.002678,0.000431,0.004701
27449000,0.0324,0.013523,0.002678,0.000431,0.004701
27450000,0.0324,0.013523,0.002678,0.000431,0.004701
27451000,0.0324,0.013523,0.002678,0.000431,0.004701
27452000,0.0324,0.013523,0.002678,0.000431,0.027267
27453000,0.0324,0.013523,0.002678,0.000431,0.004701
27454000,0.0324,0.013523,0.002678,0.000431,0.004701
27455000,0.0324,0.013523,0.002678,0.000431,0.023741
27456000,0.0324,0.013523,0.002678,0.000431,0.015984
27457000,0.0324,0.013523,0.002678,0.000431,0.004584
27458000,0.0324,0.013523,0.002678,0.000431,0.004584
27459000,0.0324,0.013523,0.002678,0.000431,0.057354
27460000,0.0324,0.013523,0.002678,0.000431,0.004701
27461000,0.0324,0.013523,0.002678,0.000431,0.004701
27462000,0.0324,0.013523,0.002678,0.000431,0.019980
27463000,0.0324,0.013523,0.002678,0.000431,0.004701
27464000,0.0324,0.013523,0.002678,0.000431,0.004701
27465000,0.0324,0.013523,0.002678,0.000431,0.012223
27466000,0.0324,0.013523,0.002678,0.000431,0.004701
27467000,0.0324,0.013523,0.002678,0.000431,0.004701
27468000,0.0324,0.013523,0.002678,0.000431,0.010930
27469000,0.0324,0.013523,0.002678,0.000431,0.043603
27470000,0.0324,0.013523,0.002678,0.000431,0.004701
27471000,0.0324,0.013523,0.002678,0.000431,0.004701
27472000,0.0324,0.013523,0.002678,0.000431,0.004701
27473000,0.0324,0.013523,0.002678,0.000431,0.004701
27474000,0.0324,0.013523,0.002678,0.000431,0.034788
27475000,0.0324,0.013523,0.002678,0.000431,0.112945
27476000,0.0324,0.013523,0.002678,0.000431,0.031850
27477000,0.0324,0.013523,0.002678,0.000431,0.004701
27478000,0.0324,0.013523,0.002678,0.000431,0.004701
27479000,0.0324,0.013523,0.002678,0.000431,0.012223
27480000,0.0324,0.013523,0.002678,0.000431,0.004701
27481000,0.0324,0.013523,0.002678,0.000431,0.004701
27482000,0.0324,0.013523,0.002678,0.000431,0.004466
27483000,0.0324,0.013523,0.002678,0.000431,0.004701
27484000,0.0324,0.013523,0.002678,0.000431,0.004701
27485000,0.0324,0.013523,0.002678,0.000431,0.012223
27486000,0.0324,0.013523,0.002678,0.000431,0.004701
27487000,0.0324,0.013523,0.002678,0.000431,0.019510
27488000,0.0324,0.013523,0.002678,0.000431,0.012223
27489000,0.0324,0.013523,0.002678,0.000431,0.004701
27490000,0.0324,0.013523,0.002678,0.000431,0.004701
27491000,0.0324,0.013523,0.002678,0.000431,0.004936
27492000,0.0324,0.013523,0.002678,0.000431,0.011753
27493000,0.0324,0.013523,0.002678,0.000431,0.004701
27494000,0.0324,0.013523,0.002678,0.000431,0.004701
27495000,0.0324,0.013523,0.002678,0.000431,0.004701
27496000,0.0324,0.013523,0.002678,0.000431,0.019745
27497000,0.0324,0.013523,0.002678,0.000431,0.031027
27498000,0.0324,0.013523,0.002678,0.000431,0.061115
27499000,0.0324,0.013523,0.002678,0.000431,0.004701
27500000,0.0324,0.013523,0.002678,0.000431,0.010225
27501000,0.0324,0.013523,0.002678,0.000431,0.021743
27502000,0.0324,0.013523,0.002678,0.000431,0.004701
27503000,0.0324,0.013523,0.002678,0.000431,0.049832
27504000,0.0324,0.013523,0.002678,0.000431,0.004701
27505000,0.0324,0.013523,0.002678,0.000431,0.004701
27506000,0.0324,0.013523,0.002678,0.000431,0.004701
27507000,0.0324,0.013523,0.002678,0.000431,0.019745
27508000,0.0324,0.013523,0.002678,0.000431,0.004701
27509000,0.0324,0.013523,0.002678,0.000431,0.012223
27510000,0.0324,0.013523,0.002678,0.000431,0.091202
27511000,0.0324,0.013523,0.002678,0.000431,0.015984
27512000,0.0324,0.013523,0.002678,0.000431,0.004701
27513000,0.0324,0.013523,0.002678,0.000431,0.030557
27514000,0.0324,0.013523,0.002678,0.000431,0.031733
27515000,0.0324,0.013523,0.002678,0.000431,0.004466
27516000,0.0324,0.013523,0.002678,0.000431,0.042310
27517000,0.0324,0.013523,0.002678,0.000431,0.004701
27518000,0.0324,0.013523,0.002678,0.000431,0.004701
27519000,0.0324,0.013523,0.002678,0.000431,0.004701
27520000,0.0324,0.013523,0.002678,0.000431,0.034788
27521000,0.0324,0.013523,0.002678,0.000431,0.030322
27522000,0.0324,0.013523,0.002678,0.000431,0.031733
27523000,0.0324,0.013523,0.002678,0.000431,0.049832
27524000,0.0324,0.013523,0.002678,0.000431,0.087441
27525000,0.0324,0.013523,0.002678,0.000431,0.004701
27526000,0.0324,0.013523,0.002678,0.000431,0.027267
27527000,0.0324,0.013523,0.002678,0.000431,0.004584
27528000,0.0324,0.013523,0.002678,0.000431,0.004584
27529000,0.0324,0.013523,0.002678,0.000431,0.004701
27530000,0.0324,0.013523,0.002678,0.000431,0.030440
27531000,0.0324,0.013523,0.002678,0.000431,0.009050
27532000,0.0324,0.013523,0.002678,0.000431,0.004584
27533000,0.0324,0.013523,0.002678,0.000431,0.019627
27534000,0.0324,0.013523,0.002678,0.000431,0.023506
27535000,0.0324,0.013523,0.002678,0.000431,0.008462
27536000,0.0324,0.013523,0.002678,0.000431,0.004701
27537000,0.0324,0.013523,0.002678,0.000431,0.027267
27538000,0.0324,0.013523,0.002678,0.000431,0.019745
27539000,0.0324,0.013523,0.002678,0.000431,0.004701
27540000,0.0324,0.013523,0.002678,0.000431,0.004701
27541000,0.0324,0.013523,0.002678,0.000431,0.019745
27542000,0.0324,0.013523,0.002678,0.000431,0.021743
27543000,0.0324,0.013523,0.002678,0.000431,0.032790
27544000,0.0324,0.013523,0.002678,0.000431,0.014691
27545000,0.0324,0.013523,0.002678,0.000431,0.077216
27546000,0.0324,0.013523,0.002678,0.000431,0.004701
27547000,0.0324,0.013523,0.002678,0.000431,0.004701
27548000,0.0324,0.013523,0.002678,0.000431,0.004701
27549000,0.0324,0.013523,0.002678,0.000431,0.072397
27550000,0.0324,0.013523,0.002678,0.000431,0.004701
27551000,0.0324,0.013523,0.002678,0.000431,0.034788
27552000,0.0324,0.013523,0.002678,0.000431,0.004701
27553000,0.0324,0.013523,0.002678,0.000431,0.004701
27554000,0.0324,0.013523,0.002678,0.000431,0.008462
27555000,0.0324,0.013523,0.002678,0.000431,0.046071
27556000,0.0324,0.013523,0.002678,0.000431,0.049832
27557000,0.0324,0.013523,0.002678,0.000431,0.008462
27558000,0.0324,0.013523,0.002678,0.000431,0.015984
27559000,0.0324,0.013523,0.002678,0.000431,0.004701
27560000,0.0324,0.013523,0.002678,0.000431,0.050302
27561000,0.0324,0.013523,0.002678,0.000431,0.025856
27562000,0.0324,0.013523,0.002678,0.000431,0.013163
27563000,0.0324,0.013523,0.002678,0.000431,0.004701
27564000,0.0324,0.013523,0.002678,0.000431,0.012223
27565000,0.0324,0.013523,0.002678,0.000431,0.004701
27566000,0.0324,0.013523,0.002678,0.000431,0.012693
27567000,0.0324,0.013523,0.002678,0.000431,0.041958
27568000,0.0324,0.013523,0.002678,0.000431,0.087323
27569000,0.0324,0.013523,0.002678,0.000431,0.004701
27570000,0.0324,0.013523,0.002678,0.000431,0.023506
27571000,0.0324,0.013523,0.002678,0.000431,0.015984
27572000,0.0324,0.013523,0.002678,0.000431,0.004584
27573000,0.0324,0.013523,0.002678,0.000431,0.012105
27574000,0.0324,0.013523,0.002678,0.000431,0.027267
27575000,0.0324,0.013523,0.002678,0.000431,0.004701
27576000,0.0324,0.013523,0.002678,0.000431,0.004701
27577000,0.0324,0.013523,0.002678,0.000431,0.004701
27578000,0.0324,0.013523,0.002678,0.000431,0.004701
27579000,0.0324,0.013523,0.002678,0.000431,0.004701
27580000,0.0324,0.013523,0.002678,0.000431,0.027267
27581000,0.0324,0.013523,0.002678,0.000431,0.042193
27582000,0.0324,0.013523,0.002678,0.000431,0.019627
27583000,0.0324,0.013523,0.002678,0.000431,0.004584
27584000,0.0324,0.013523,0.002678,0.000431,0.004584
27585000,0.0324,0.013523,0.002678,0.000431,0.004701
27586000,0.0324,0.013523,0.002678,0.000431,0.024563
27587000,0.0324,0.013523,0.002678,0.000431,0.037491
27588000,0.0324,0.013523,0.002678,0.000431,0.014573
27589000,0.0324,0.013523,0.002678,0.000431,0.070047
27590000,0.0324,0.013523,0.002678,0.000431,0.019745
27591000,0.0324,0.013523,0.002678,0.000431,0.004701
27592000,0.0324,0.013523,0.002678,0.000431,0.004701
27593000,0.0324,0.013523,0.002678,0.000431,0.027267
27594000,0.0324,0.013523,0.002678,0.000431,0.004701
27595000,0.0324,0.013523,0.002678,0.000431,0.019745
27596000,0.0324,0.013523,0.002678,0.000431,0.004701
27597000,0.0324,0.013523,0.002678,0.000431,0.004701
27598000,0.0324,0.013523,0.002678,0.000431,0.004701
27599000,0.0324,0.013523,0.002678,0.000431,0.016924
27600000,0.0324,0.013523,0.002678,0.000431,0.007522
27601000,0.0324,0.013523,0.002678,0.000431,0.004701
27602000,0.0324,0.013523,0.002678,0.000431,0.012223
27603000,0.0324,0.013523,0.002678,0.000431,0.012223
27604000,0.0324,0.013523,0.002678,0.000431,0.035023
27605000,0.0324,0.013523,0.002678,0.000431,0.004701
27606000,0.0324,0.013523,0.002678,0.000431,0.095198
27607000,0.0324,0.013523,0.002678,0.000431,0.004701
27608000,0.0324,0.013523,0.002678,0.000431,0.004466
27609000,0.0324,0.013523,0.002678,0.000431,0.004701
27610000,0.0324,0.013523,0.002678,0.000431,0.038549
27611000,0.0324,0.013523,0.002678,0.000431,0.008462
27612000,0.0324,0.013523,0.002678,0.000431,0.064993
27613000,0.0324,0.013523,0.002678,0.000431,0.012105
27614000,0.0324,0.013523,0.002678,0.000431,0.012223
27615000,0.0324,0.013523,0.002678,0.000431,0.004584
27616000,0.0324,0.013523,0.002678,0.000431,0.004701
27617000,0.0324,0.013523,0.002678,0.000431,0.004819
27618000,0.0324,0.013523,0.002678,0.000431,0.004701
27619000,0.0324,0.013523,0.002678,0.000431,0.004701
27620000,0.0324,0.013523,0.002678,0.000431,0.027267
27621000,0.0324,0.013523,0.002678,0.000431,0.004701
27622000,0.0324,0.013523,0.002678,0.000431,0.004701
27623000,0.0324,0.013523,0.002678,0.000431,0.004701
27624000,0.0324,0.013523,0.002678,0.000431,0.004466
27625000,0.0324,0.013523,0.002678,0.000431,0.027267
27626000,0.0324,0.013523,0.002678,0.000431,0.066991
27627000,0.0324,0.013523,0.002678,0.000431,0.010107
27628000,0.0324,0.013523,0.002678,0.000431,0.004701
27629000,0.0324,0.013523,0.002678,0.000431,0.004701
27630000,0.0324,0.013523,0.002678,0.000431,0.004701
27631000,0.0324,0.013523,0.002678,0.000431,0.004701
27632000,0.0324,0.013523,0.002678,0.000431,0.042310
27633000,0.0324,0.013523,0.002678,0.000431,0.004701
27634000,0.0324,0.013523,0.002678,0.000431,0.004701
27635000,0.0324,0.013523,0.002678,0.000431,0.004701
27636000,0.0324,0.013523,0.002678,0.000431,0.042310
27637000,0.0324,0.013523,0.002678,0.000431,0.004701
27638000,0.0324,0.013523,0.002678,0.000431,0.034788
27639000,0.0324,0.013523,0.002678,0.000431,0.012223
27640000,0.0324,0.013523,0.002678,0.000431,0.004701
27641000,0.0324,0.013523,0.002678,0.000431,0.004701
27642000,0.0324,0.013523,0.002678,0.000431,0.012223
27643000,0.0324,0.013523,0.002678,0.000431,0.004701
27644000,0.0324,0.013523,0.002678,0.000431,0.010342
27645000,0.0324,0.013523,0.002678,0.000431,0.019862
27646000,0.0324,0.013523,0.002678,0.000431,0.021508
27647000,0.0324,0.013523,0.002678,0.000431,0.004701
27648000,0.0324,0.013523,0.002678,0.000431,0.004466
27649000,0.0324,0.013523,0.002678,0.000431,0.012223
27650000,0.0324,0.013523,0.002678,0.000431,0.004701
27651000,0.0324,0.013523,0.002678,0.000431,0.062290
27652000,0.0324,0.013523,0.002678,0.000431,0.067814
27653000,0.0324,0.013523,0.002678,0.000431,0.004584
27654000,0.0324,0.013523,0.002678,0.000431,0.004701
27655000,0.0324,0.013523,0.002678,0.000431,0.027149
27656000,0.0324,0.013523,0.002678,0.000431,0.004584
27657000,0.0324,0.013523,0.002678,0.000431,0.041958
27658000,0.0324,0.013523,0.002678,0.000431,0.057941
27659000,0.0324,0.013523,0.002678,0.000431,0.004701
27660000,0.0324,0.013523,0.002678,0.000431,0.004701
27661000,0.0324,0.013523,0.002678,0.000431,0.005994
27662000,0.0324,0.013523,0.002678,0.000431,0.078861
27663000,0.0324,0.013523,0.002678,0.000431,0.004701
27664000,0.0324,0.013523,0.002678,0.000431,0.072162
27665000,0.0324,0.013523,0.002678,0.000431,0.004701
27666000,0.0324,0.013523,0.002678,0.000431,0.004701
27667000,0.0324,0.013523,0.002678,0.000431,0.004701
27668000,0.0324,0.013523,0.002678,0.000431,0.004701
27669000,0.0324,0.013523,0.002678,0.000431,0.004701
27670000,0.0324,0.013523,0.002678,0.000431,0.034788
27671000,0.0324,0.013523,0.002678,0.000431,0.004701
27672000,0.0324,0.013523,0.002678,0.000431,0.004701
27673000,0.0324,0.013523,0.002678,0.000431,0.004701
27674000,0.0324,0.013523,0.002678,0.000431,0.021743
27675000,0.0324,0.013523,0.002678,0.000431,0.063113
27676000,0.0324,0.013523,0.002678,0.000431,0.011400
27677000,0.0324,0.013523,0.002678,0.000431,0.080507
27678000,0.0324,0.013523,0.002678,0.000431,0.004701
27679000,0.0324,0.013523,0.002678,0.000431,0.004701
27680000,0.0324,0.013523,0.002678,0.000431,0.004701
27681000,0.0324,0.013523,0.002678,0.000431,0.027267
27682000,0.0324,0.013523,0.002678,0.000431,0.004701
27683000,0.0324,0.013523,0.002678,0.000431,0.102485
27684000,0.0324,0.013523,0.002678,0.000431,0.027267
27685000,0.0324,0.013523,0.002678,0.000431,0.004701
27686000,0.0324,0.013523,0.002678,0.000431,0.004701
27687000,0.0324,0.013523,0.002678,0.000431,0.004701
27688000,0.0324,0.013523,0.002678,0.000431,0.004466
27689000,0.0324,0.013523,0.002678,0.000431,0.027267
27690000,0.0324,0.013523,0.002678,0.000431,0.072397
27691000,0.0324,0.013523,0.002678,0.000431,0.004701
27692000,0.0324,0.013523,0.002678,0.000431,0.004701
27693000,0.0324,0.013523,0.002678,0.000431,0.004466
27694000,0.0324,0.013523,0.002678,0.000431,0.019980
27695000,0.0324,0.013523,0.002678,0.000431,0.050302
27696000,0.0324,0.013523,0.002678,0.000431,0.004701
27697000,0.0324,0.013523,0.002678,0.000431,0.027267
27698000,0.0324,0.013523,0.002678,0.000431,0.004584
27699000,0.0324,0.013523,0.002678,0.000431,0.004584
27700000,0.0324,0.013523,0.002678,0.000431,0.034788
27701000,0.0324,0.013523,0.002678,0.000431,0.046541
27702000,0.0324,0.013523,0.002678,0.000431,0.015514
27703000,0.0324,0.013523,0.002678,0.000431,0.004701
27704000,0.0324,0.013523,0.002678,0.000431,0.004466
27705000,0.0324,0.013523,0.002678,0.000431,0.004701
27706000,0.0324,0.013523,0.002678,0.000431,0.004701
27707000,0.0324,0.013523,0.002678,0.000431,0.004701
27708000,0.0324,0.013523,0.002678,0.000431,0.064876
27709000,0.0324,0.013523,0.002678,0.000431,0.042310
27710000,0.0324,0.013523,0.002678,0.000431,0.064876
27711000,0.0324,0.013523,0.002678,0.000431,0.004701
27712000,0.0324,0.013523,0.002678,0.000431,0.004701
27713000,0.0324,0.013523,0.002678,0.000431,0.012223
27714000,0.0324,0.013523,0.002678,0.000431,0.004701
27715000,0.0324,0.013523,0.002678,0.000431,0.004701
27716000,0.0324,0.013523,0.002678,0.000431,0.004701
27717000,0.0324,0.013523,0.002678,0.000431,0.004701
27718000,0.0324,0.013523,0.002678,0.000431,0.004701
27719000,0.0324,0.013523,0.002678,0.000431,0.019040
27720000,0.0324,0.013523,0.002678,0.000431,0.027972
27721000,0.0324,0.013523,0.002678,0.000431,0.004701
27722000,0.0324,0.013523,0.002678,0.000431,0.004701
27723000,0.0324,0.013523,0.002678,0.000431,0.132337
27724000,0.0324,0.013523,0.002678,0.000431,0.019980
27725000,0.0324,0.013523,0.002678,0.000431,0.004701
27726000,0.0324,0.013523,0.002678,0.000431,0.095198
27727000,0.0324,0.013523,0.002678,0.000431,0.004701
27728000,0.0324,0.013523,0.002678,0.000431,0.036904
27729000,0.0324,0.013523,0.002678,0.000431,0.032790
27730000,0.0324,0.013523,0.002678,0.000431,0.027384
27731000,0.0324,0.013523,0.002678,0.000431,0.004701
27732000,0.0324,0.013523,0.002678,0.000431,0.031027
27733000,0.0324,0.013523,0.002678,0.000431,0.023271
27734000,0.0324,0.013523,0.002678,0.000431,0.004701
27735000,0.0324,0.013523,0.002678,0.000431,0.042310
27736000,0.0324,0.013523,0.002678,0.000431,0.004701
27737000,0.0324,0.013523,0.002678,0.000431,0.004701
27738000,0.0324,0.013523,0.002678,0.000431,0.080154
27739000,0.0324,0.013523,0.002678,0.000431,0.072397
27740000,0.0324,0.013523,0.002678,0.000431,0.004701
27741000,0.0324,0.013523,0.002678,0.000431,0.027267
27742000,0.0324,0.013523,0.002678,0.000431,0.008462
27743000,0.0324,0.013523,0.002678,0.000431,0.008345
27744000,0.0324,0.013523,0.002678,0.000431,0.004584
27745000,0.0324,0.013523,0.002678,0.000431,0.007169
27746000,0.0324,0.013523,0.002678,0.000431,0.024563
27747000,0.0324,0.013523,0.002678,0.000431,0.019745
27748000,0.0324,0.013523,0.002678,0.000431,0.034788
27749000,0.0324,0.013523,0.002678,0.000431,0.004701
27750000,0.0324,0.013523,0.002678,0.000431,0.049597
27751000,0.0324,0.013523,0.002678,0.000431,0.012223
27752000,0.0324,0.013523,0.002678,0.000431,0.004701
27753000,0.0324,0.013523,0.002678,0.000431,0.012223
27754000,0.0324,0.013523,0.002678,0.000431,0.091554
27755000,0.0324,0.013523,0.002678,0.000431,0.062055
27756000,0.0324,0.013523,0.002678,0.000431,0.010930
27757000,0.0324,0.013523,0.002678,0.000431,0.042310
27758000,0.0324,0.013523,0.002678,0.000431,0.004701
27759000,0.0324,0.013523,0.002678,0.000431,0.037609
27760000,0.0324,0.013523,0.002678,0.000431,0.009402
27761000,0.0324,0.013523,0.002678,0.000431,0.057354
27762000,0.0324,0.013523,0.002678,0.000431,0.004701
27763000,0.0324,0.013523,0.002678,0.000431,0.004701
27764000,0.0324,0.013523,0.002678,0.000431,0.004584
27765000,0.0324,0.013523,0.002678,0.000431,0.004584
27766000,0.0324,0.013523,0.002678,0.000431,0.019745
27767000,0.0324,0.013523,0.002678,0.000431,0.008462
27768000,0.0324,0.013523,0.002678,0.000431,0.045954
27769000,0.0324,0.013523,0.002678,0.000431,0.004584
27770000,0.0324,0.013523,0.002678,0.000431,0.004701
27771000,0.0324,0.013523,0.002678,0.000431,0.004701
27772000,0.0324,0.013523,0.002678,0.000431,0.004701
27773000,0.0324,0.013523,0.002678,0.000431,0.004701
27774000,0.0324,0.013523,0.002678,0.000431,0.008462
27775000,0.0324,0.013523,0.002678,0.000431,0.023506
27776000,0.0324,0.013523,0.002678,0.000431,0.016924
27777000,0.0324,0.013523,0.002678,0.000431,0.037844
27778000,0.0324,0.013523,0.002678,0.000431,0.057354
27779000,0.0324,0.013523,0.002678,0.000431,0.004701
27780000,0.0324,0.013523,0.002678,0.000431,0.027267
27781000,0.0324,0.013523,0.002678,0.000431,0.034788
27782000,0.0324,0.013523,0.002678,0.000431,0.004701
27783000,0.0324,0.013523,0.002678,0.000431,0.027267
27784000,0.0324,0.013523,0.002678,0.000431,0.011988
27785000,0.0324,0.013523,0.002678,0.000431,0.004701
27786000,0.0324,0.013523,0.002678,0.000431,0.008462
27787000,0.0324,0.013523,0.002678,0.000431,0.029265
27788000,0.0324,0.013523,0.002678,0.000431,0.051595
27789000,0.0324,0.013523,0.002678,0.000431,0.015984
27790000,0.0324,0.013523,0.002678,0.000431,0.008227
27791000,0.0324,0.013523,0.002678,0.000431,0.057589
27792000,0.0324,0.013523,0.002678,0.000431,0.004701
27793000,0.0324,0.013523,0.002678,0.000431,0.004701
27794000,0.0324,0.013523,0.002678,0.000431,0.019745
27795000,0.0324,0.013523,0.002678,0.000431,0.004701
27796000,0.0324,0.013523,0.002678,0.000431,0.004701
27797000,0.0324,0.013523,0.002678,0.000431,0.034788
27798000,0.0324,0.013523,0.002678,0.000431,0.004701
27799000,0.0324,0.013523,0.002678,0.000431,0.021155
27800000,0.0324,0.013523,0.002678,0.000431,0.020332
27801000,0.0324,0.013523,0.002678,0.000431,0.017747
27802000,0.0324,0.013523,0.002678,0.000431,0.004701
27803000,0.0324,0.013523,0.002678,0.000431,0.004701
27804000,0.0324,0.013523,0.002678,0.000431,0.012105
27805000,0.0324,0.013523,0.002678,0.000431,0.012105
27806000,0.0324,0.013523,0.002678,0.000431,0.034788
27807000,0.0324,0.013523,0.002678,0.000431,0.012223
27808000,0.0324,0.013523,0.002678,0.000431,0.004701
27809000,0.0324,0.013523,0.002678,0.000431,0.019510
27810000,0.0324,0.013523,0.002678,0.000431,0.004701
27811000,0.0324,0.013523,0.002678,0.000431,0.034788
27812000,0.0324,0.013523,0.002678,0.000431,0.004466
27813000,0.0324,0.013523,0.002678,0.000431,0.004701
27814000,0.0324,0.013523,0.002678,0.000431,0.004701
27815000,0.0324,0.013523,0.002678,0.000431,0.034788
27816000,0.0324,0.013523,0.002678,0.000431,0.004701
27817000,0.0324,0.013523,0.002678,0.000431,0.016219
27818000,0.0324,0.013523,0.002678,0.000431,0.008227
27819000,0.0324,0.013523,0.002678,0.000431,0.057354
27820000,0.0324,0.013523,0.002678,0.000431,0.035023
27821000,0.0324,0.013523,0.002678,0.000431,0.018099
27822000,0.0324,0.013523,0.002678,0.000431,0.036434
27823000,0.0324,0.013523,0.002678,0.000431,0.004701
27824000,0.0324,0.013523,0.002678,0.000431,0.042193
27825000,0.0324,0.013523,0.002678,0.000431,0.075218
27826000,0.0324,0.013523,0.002678,0.000431,0.031850
27827000,0.0324,0.013523,0.002678,0.000431,0.004701
27828000,0.0324,0.013523,0.002678,0.000431,0.042310
27829000,0.0324,0.013523,0.002678,0.000431,0.004701
27830000,0.0324,0.013523,0.002678,0.000431,0.004701
27831000,0.0324,0.013523,0.002678,0.000431,0.019392
27832000,0.0324,0.013523,0.002678,0.000431,0.110359
27833000,0.0324,0.013523,0.002678,0.000431,0.004701
27834000,0.0324,0.013523,0.002678,0.000431,0.039607
27835000,0.0324,0.013523,0.002678,0.000431,0.052300
27836000,0.0324,0.013523,0.002678,0.000431,0.004701
27837000,0.0324,0.013523,0.002678,0.000431,0.079919
27838000,0.0324,0.013523,0.002678,0.000431,0.064876
27839000,0.0324,0.013523,0.002678,0.000431,0.004701
27840000,0.0324,0.013523,0.002678,0.000431,0.004701
27841000,0.0324,0.013523,0.002678,0.000431,0.004701
27842000,0.0324,0.013523,0.002678,0.000431,0.004701
27843000,0.0324,0.013523,0.002678,0.000431,0.042310
27844000,0.0324,0.013523,0.002678,0.000431,0.011048
27845000,0.0324,0.013523,0.002678,0.000431,0.081094
27846000,0.0324,0.013523,0.002678,0.000431,0.004701
27847000,0.0324,0.013523,0.002678,0.000431,0.046541
27848000,0.0324,0.013523,0.002678,0.000431,0.037844
27849000,0.0324,0.013523,0.002678,0.000431,0.004701
27850000,0.0324,0.013523,0.002678,0.000431,0.004701
27851000,0.0324,0.013523,0.002678,0.000431,0.057354
27852000,0.0324,0.013523,0.002678,0.000431,0.004701
27853000,0.0324,0.013523,0.002678,0.000431,0.004701
27854000,0.0324,0.013523,0.002678,0.000431,0.004701
27855000,0.0324,0.013523,0.002678,0.000431,0.004701
27856000,0.0324,0.013523,0.002678,0.000431,0.004701
27857000,0.0324,0.013523,0.002678,0.000431,0.004701
27858000,0.0324,0.013523,0.002678,0.000431,0.004701
27859000,0.0324,0.013523,0.002678,0.000431,0.004701
27860000,0.0324,0.013523,0.002678,0.000431,0.012223
27861000,0.0324,0.013523,0.002678,0.000431,0.012223
27862000,0.0324,0.013523,0.002678,0.000431,0.013281
27863000,0.0324,0.013523,0.002678,0.000431,0.010930
27864000,0.0324,0.013523,0.002678,0.000431,0.079802
27865000,0.0324,0.013523,0.002678,0.000431,0.004584
27866000,0.0324,0.013523,0.002678,0.000431,0.004701
27867000,0.0324,0.013523,0.002678,0.000431,0.027267
27868000,0.0324,0.013523,0.002678,0.000431,0.004701
27869000,0.0324,0.013523,0.002678,0.000431,0.019745
27870000,0.0324,0.013523,0.002678,0.000431,0.076393
27871000,0.0324,0.013523,0.002678,0.000431,0.023506
27872000,0.0324,0.013523,0.002678,0.000431,0.004701
27873000,0.0324,0.013523,0.002678,0.000431,0.004701
27874000,0.0324,0.013523,0.002678,0.000431,0.004701
27875000,0.0324,0.013523,0.002678,0.000431,0.004701
27876000,0.0324,0.013523,0.002678,0.000431,0.004701
27877000,0.0324,0.013523,0.002678,0.000431,0.019745
27878000,0.0324,0.013523,0.002678,0.000431,0.004701
27879000,0.0324,0.013523,0.002678,0.000431,0.006229
27880000,0.0324,0.013523,0.002678,0.000431,0.033260
27881000,0.0324,0.013523,0.002678,0.000431,0.004701
27882000,0.0324,0.013523,0.002678,0.000431,0.012105
27883000,0.0324,0.013523,0.002678,0.000431,0.004584
27884000,0.0324,0.013523,0.002678,0.000431,0.004701
27885000,0.0324,0.013523,0.002678,0.000431,0.004701
27886000,0.0324,0.013523,0.002678,0.000431,0.027267
27887000,0.0324,0.013523,0.002678,0.000431,0.004701
27888000,0.0324,0.013523,0.002678,0.000431,0.027267
27889000,0.0324,0.013523,0.002678,0.000431,0.019745
27890000,0.0324,0.013523,0.002678,0.000431,0.072632
27891000,0.0324,0.013523,0.002678,0.000431,0.004701
27892000,0.0324,0.013523,0.002678,0.000431,0.008462
27893000,0.0324,0.013523,0.002678,0.000431,0.008462
27894000,0.0324,0.013523,0.002678,0.000431,0.010578
27895000,0.0324,0.013523,0.002678,0.000431,0.013868
27896000,0.0324,0.013523,0.002678,0.000431,0.072397
27897000,0.0324,0.013523,0.002678,0.000431,0.004701
27898000,0.0324,0.013523,0.002678,0.000431,0.004584
27899000,0.0324,0.013523,0.002678,0.000431,0.064993
27900000,0.0324,0.013523,0.002678,0.000431,0.004701
27901000,0.0324,0.013523,0.002678,0.000431,0.105775
27902000,0.0324,0.013523,0.002678,0.000431,0.053828
27903000,0.0324,0.013523,0.002678,0.000431,0.057354
27904000,0.0324,0.013523,0.002678,0.000431,0.004701
27905000,0.0324,0.013523,0.002678,0.000431,0.023623
27906000,0.0324,0.013523,0.002678,0.000431,0.008580
27907000,0.0324,0.013523,0.002678,0.000431,0.004701
27908000,0.0324,0.013523,0.002678,0.000431,0.004701
27909000,0.0324,0.013523,0.002678,0.000431,0.034788
27910000,0.0324,0.013523,0.002678,0.000431,0.004701
27911000,0.0324,0.013523,0.002678,0.000431,0.004701
27912000,0.0324,0.013523,0.002678,0.000431,0.049832
27913000,0.0324,0.013523,0.002678,0.000431,0.004701
27914000,0.0324,0.013523,0.002678,0.000431,0.049479
27915000,0.0324,0.013523,0.002678,0.000431,0.005054
27916000,0.0324,0.013523,0.002678,0.000431,0.012223
27917000,0.0324,0.013523,0.002678,0.000431,0.004701
27918000,0.0324,0.013523,0.002678,0.000431,0.004701
27919000,0.0324,0.013523,0.002678,0.000431,0.004701
27920000,0.0324,0.013523,0.002678,0.000431,0.008462
27921000,0.0324,0.013523,0.002678,0.000431,0.008462
27922000,0.0324,0.013523,0.002678,0.000431,0.034671
27923000,0.0324,0.013523,0.002678,0.000431,0.019627
27924000,0.0324,0.013523,0.002678,0.000431,0.004701
27925000,0.0324,0.013523,0.002678,0.000431,0.004701
27926000,0.0324,0.013523,0.002678,0.000431,0.004701
27927000,0.0324,0.013523,0.002678,0.000431,0.072280
27928000,0.0324,0.013523,0.002678,0.000431,0.049714
27929000,0.0324,0.013523,0.002678,0.000431,0.065581
27930000,0.0324,0.013523,0.002678,0.000431,0.011518
27931000,0.0324,0.013523,0.002678,0.000431,0.004701
27932000,0.0324,0.013523,0.002678,0.000431,0.004701
27933000,0.0324,0.013523,0.002678,0.000431,0.004701
27934000,0.0324,0.013523,0.002678,0.000431,0.004701
27935000,0.0324,0.013523,0.002678,0.000431,0.008345
27936000,0.0324,0.013523,0.002678,0.000431,0.016101
27937000,0.0324,0.013523,0.002678,0.000431,0.012223
27938000,0.0324,0.013523,0.002678,0.000431,0.027267
27939000,0.0324,0.013523,0.002678,0.000431,0.004466
27940000,0.0324,0.013523,0.002678,0.000431,0.004701
27941000,0.0324,0.013523,0.002678,0.000431,0.057354
27942000,0.0324,0.013523,0.002678,0.000431,0.027031
27943000,0.0324,0.013523,0.002678,0.000431,0.004701
27944000,0.0324,0.013523,0.002678,0.000431,0.124815
27945000,0.0324,0.013523,0.002678,0.000431,0.011988
27946000,0.0324,0.013523,0.002678,0.000431,0.012223
27947000,0.0324,0.013523,0.002678,0.000431,0.004701
27948000,0.0324,0.013523,0.002678,0.000431,0.023506
27949000,0.0324,0.013523,0.002678,0.000431,0.038549
27950000,0.0324,0.013523,0.002678,0.000431,0.004701
27951000,0.0324,0.013523,0.002678,0.000431,0.072397
27952000,0.0324,0.013523,0.002678,0.000431,0.004701
27953000,0.0324,0.013523,0.002678,0.000431,0.049832
27954000,0.0324,0.013523,0.002678,0.000431,0.012223
27955000,0.0324,0.013523,0.002678,0.000431,0.012223
27956000,0.0324,0.013523,0.002678,0.000431,0.004701
27957000,0.0324,0.013523,0.002678,0.000431,0.027267
27958000,0.0324,0.013523,0.002678,0.000431,0.004701
27959000,0.0324,0.013523,0.002678,0.000431,0.047951
27960000,0.0324,0.013523,0.002678,0.000431,0.014103
27961000,0.0324,0.013523,0.002678,0.000431,0.027267
27962000,0.0324,0.013523,0.002678,0.000431,0.004701
27963000,0.0324,0.013523,0.002678,0.000431,0.006229
27964000,0.0324,0.013523,0.002678,0.000431,0.018217
27965000,0.0324,0.013523,0.002678,0.000431,0.004701
27966000,0.0324,0.013523,0.002678,0.000431,0.004584
27967000,0.0324,0.013523,0.002678,0.000431,0.004584
27968000,0.0324,0.013523,0.002678,0.000431,0.011988
27969000,0.0324,0.013523,0.002678,0.000431,0.004701
27970000,0.0324,0.013523,0.002678,0.000431,0.012223
27971000,0.0324,0.013523,0.002678,0.000431,0.004701
27972000,0.0324,0.013523,0.002678,0.000431,0.004701
27973000,0.0324,0.013523,0.002678,0.000431,0.019745
27974000,0.0324,0.013523,0.002678,0.000431,0.004701
27975000,0.0324,0.013523,0.002678,0.000431,0.004701
27976000,0.0324,0.013523,0.002678,0.000431,0.014338
27977000,0.0324,0.013523,0.002678,0.000431,0.032673
27978000,0.0324,0.013523,0.002678,0.000431,0.019745
27979000,0.0324,0.013523,0.002678,0.000431,0.034553
27980000,0.0324,0.013523,0.002678,0.000431,0.020567
27981000,0.0324,0.013523,0.002678,0.000431,0.011400
27982000,0.0324,0.013523,0.002678,0.000431,0.004466
27983000,0.0324,0.013523,0.002678,0.000431,0.012223
27984000,0.0324,0.013523,0.002678,0.000431,0.004701
27985000,0.0324,0.013523,0.002678,0.000431,0.072397
27986000,0.0324,0.013523,0.002678,0.000431,0.034788
27987000,0.0324,0.013523,0.002678,0.000431,0.004701
27988000,0.0324,0.013523,0.002678,0.000431,0.004466
27989000,0.0324,0.013523,0.002678,0.000431,0.029617
27990000,0.0324,0.013523,0.002678,0.000431,0.009872
27991000,0.0324,0.013523,0.002678,0.000431,0.004701
27992000,0.0324,0.013523,0.002678,0.000431,0.004701
27993000,0.0324,0.013523,0.002678,0.000431,0.012223
27994000,0.0324,0.013523,0.002678,0.000431,0.012223
27995000,0.0324,0.013523,0.002678,0.000431,0.004701
27996000,0.0324,0.013523,0.002678,0.000431,0.019745
27997000,0.0324,0.013523,0.002678,0.000431,0.004701
27998000,0.0324,0.013523,0.002678,0.000431,0.087441
27999000,0.0324,0.013523,0.002678,0.000431,0.034788
