Cycle,Area(mm^2),PeakDynamic(W),SubthresholdLeakage(W),GateLeakage(W),RunTimeDynamic(W)
24000000,0.0324,0.013523,0.002678,0.000431,0.077216
24001000,0.0324,0.013523,0.002678,0.000431,0.051242
24002000,0.0324,0.013523,0.002678,0.000431,0.068989
24003000,0.0324,0.013523,0.002678,0.000431,0.170416
24004000,0.0324,0.013523,0.002678,0.000431,0.099429
24005000,0.0324,0.013523,0.002678,0.000431,0.091084
24006000,0.0324,0.013523,0.002678,0.000431,0.091907
24007000,0.0324,0.013523,0.002678,0.000431,0.106598
24008000,0.0324,0.013523,0.002678,0.000431,0.127048
24009000,0.0324,0.013523,0.002678,0.000431,0.092377
24010000,0.0324,0.013523,0.002678,0.000431,0.102955
24011000,0.0324,0.013523,0.002678,0.000431,0.078979
24012000,0.0324,0.013523,0.002678,0.000431,0.098959
24013000,0.0324,0.013523,0.002678,0.000431,0.048892
24014000,0.0324,0.013523,0.002678,0.000431,0.058647
24015000,0.0324,0.013523,0.002678,0.000431,0.087206
24016000,0.0324,0.013523,0.002678,0.000431,0.148556
24017000,0.0324,0.013523,0.002678,0.000431,0.080507
24018000,0.0324,0.013523,0.002678,0.000431,0.057471
24019000,0.0324,0.013523,0.002678,0.000431,0.087911
24020000,0.0324,0.013523,0.002678,0.000431,0.036551
24021000,0.0324,0.013523,0.002678,0.000431,0.104953
24022000,0.0324,0.013523,0.002678,0.000431,0.074865
24023000,0.0324,0.013523,0.002678,0.000431,0.078039
24024000,0.0324,0.013523,0.002678,0.000431,0.079684
24025000,0.0324,0.013523,0.002678,0.000431,0.099664
24026000,0.0324,0.013523,0.002678,0.000431,0.046306
24027000,0.0324,0.013523,0.002678,0.000431,0.128458
24028000,0.0324,0.013523,0.002678,0.000431,0.060174
24029000,0.0324,0.013523,0.002678,0.000431,0.200386
24030000,0.0324,0.013523,0.002678,0.000431,0.046894
24031000,0.0324,0.013523,0.002678,0.000431,0.078391
24032000,0.0324,0.013523,0.002678,0.000431,0.143267
24033000,0.0324,0.013523,0.002678,0.000431,0.141857
24034000,0.0324,0.013523,0.002678,0.000431,0.089204
24035000,0.0324,0.013523,0.002678,0.000431,0.058176
24036000,0.0324,0.013523,0.002678,0.000431,0.094258
24037000,0.0324,0.013523,0.002678,0.000431,0.107303
24038000,0.0324,0.013523,0.002678,0.000431,0.108361
24039000,0.0324,0.013523,0.002678,0.000431,0.075806
24040000,0.0324,0.013523,0.002678,0.000431,0.173707
24041000,0.0324,0.013523,0.002678,0.000431,0.145617
24042000,0.0324,0.013523,0.002678,0.000431,0.115295
24043000,0.0324,0.013523,0.002678,0.000431,0.131514
24044000,0.0324,0.013523,0.002678,0.000431,0.097196
24045000,0.0324,0.013523,0.002678,0.000431,0.126460
24046000,0.0324,0.013523,0.002678,0.000431,0.101427
24047000,0.0324,0.013523,0.002678,0.000431,0.039019
24048000,0.0324,0.013523,0.002678,0.000431,0.040900
24049000,0.0324,0.013523,0.002678,0.000431,0.048657
24050000,0.0324,0.013523,0.002678,0.000431,0.046189
24051000,0.0324,0.013523,0.002678,0.000431,0.134570
24052000,0.0324,0.013523,0.002678,0.000431,0.069577
24053000,0.0324,0.013523,0.002678,0.000431,0.107773
24054000,0.0324,0.013523,0.002678,0.000431,0.073103
24055000,0.0324,0.013523,0.002678,0.000431,0.110124
24056000,0.0324,0.013523,0.002678,0.000431,0.058999
24057000,0.0324,0.013523,0.002678,0.000431,0.071222
24058000,0.0324,0.013523,0.002678,0.000431,0.112474
24059000,0.0324,0.013523,0.002678,0.000431,0.241168
24060000,0.0324,0.013523,0.002678,0.000431,0.059939
24061000,0.0324,0.013523,0.002678,0.000431,0.097078
24062000,0.0324,0.013523,0.002678,0.000431,0.047716
24063000,0.0324,0.013523,0.002678,0.000431,0.047716
24064000,0.0324,0.013523,0.002678,0.000431,0.053710
24065000,0.0324,0.013523,0.002678,0.000431,0.097313
24066000,0.0324,0.013523,0.002678,0.000431,0.115178
24067000,0.0324,0.013523,0.002678,0.000431,0.045601
24068000,0.0324,0.013523,0.002678,0.000431,0.080859
24069000,0.0324,0.013523,0.002678,0.000431,0.058176
24070000,0.0324,0.013523,0.002678,0.000431,0.046894
24071000,0.0324,0.013523,0.002678,0.000431,0.115060
24072000,0.0324,0.013523,0.002678,0.000431,0.151024
24073000,0.0324,0.013523,0.002678,0.000431,0.159016
24074000,0.0324,0.013523,0.002678,0.000431,0.167595
24075000,0.0324,0.013523,0.002678,0.000431,0.128106
24076000,0.0324,0.013523,0.002678,0.000431,0.070517
24077000,0.0324,0.013523,0.002678,0.000431,0.129516
24078000,0.0324,0.013523,0.002678,0.000431,0.090732
24079000,0.0324,0.013523,0.002678,0.000431,0.083563
24080000,0.0324,0.013523,0.002678,0.000431,0.068049
24081000,0.0324,0.013523,0.002678,0.000431,0.072515
24082000,0.0324,0.013523,0.002678,0.000431,0.035023
24083000,0.0324,0.013523,0.002678,0.000431,0.125990
24084000,0.0324,0.013523,0.002678,0.000431,0.117998
24085000,0.0324,0.013523,0.002678,0.000431,0.057706
24086000,0.0324,0.013523,0.002678,0.000431,0.088264
24087000,0.0324,0.013523,0.002678,0.000431,0.072750
24088000,0.0324,0.013523,0.002678,0.000431,0.085913
24089000,0.0324,0.013523,0.002678,0.000431,0.101897
24090000,0.0324,0.013523,0.002678,0.000431,0.087206
24091000,0.0324,0.013523,0.002678,0.000431,0.082740
24092000,0.0324,0.013523,0.002678,0.000431,0.048539
24093000,0.0324,0.013523,0.002678,0.000431,0.055238
24094000,0.0324,0.013523,0.002678,0.000431,0.118703
24095000,0.0324,0.013523,0.002678,0.000431,0.050067
24096000,0.0324,0.013523,0.002678,0.000431,0.083445
24097000,0.0324,0.013523,0.002678,0.000431,0.098959
24098000,0.0324,0.013523,0.002678,0.000431,0.069577
24099000,0.0324,0.013523,0.002678,0.000431,0.040782
24100000,0.0324,0.013523,0.002678,0.000431,0.153727
24101000,0.0324,0.013523,0.002678,0.000431,0.139036
24102000,0.0324,0.013523,0.002678,0.000431,0.096138
24103000,0.0324,0.013523,0.002678,0.000431,0.208613
24104000,0.0324,0.013523,0.002678,0.000431,0.145265
24105000,0.0324,0.013523,0.002678,0.000431,0.053475
24106000,0.0324,0.013523,0.002678,0.000431,0.064405
24107000,0.0324,0.013523,0.002678,0.000431,0.068989
24108000,0.0324,0.013523,0.002678,0.000431,0.063230
24109000,0.0324,0.013523,0.002678,0.000431,0.062995
24110000,0.0324,0.013523,0.002678,0.000431,0.068754
24111000,0.0324,0.013523,0.002678,0.000431,0.140094
24112000,0.0324,0.013523,0.002678,0.000431,0.062290
24113000,0.0324,0.013523,0.002678,0.000431,0.158663
24114000,0.0324,0.013523,0.002678,0.000431,0.045718
24115000,0.0324,0.013523,0.002678,0.000431,0.102485
24116000,0.0324,0.013523,0.002678,0.000431,0.116823
24117000,0.0324,0.013523,0.002678,0.000431,0.125168
24118000,0.0324,0.013523,0.002678,0.000431,0.047129
24119000,0.0324,0.013523,0.002678,0.000431,0.067579
24120000,0.0324,0.013523,0.002678,0.000431,0.039019
24121000,0.0324,0.013523,0.002678,0.000431,0.077216
24122000,0.0324,0.013523,0.002678,0.000431,0.127988
24123000,0.0324,0.013523,0.002678,0.000431,0.078744
24124000,0.0324,0.013523,0.002678,0.000431,0.087441
24125000,0.0324,0.013523,0.002678,0.000431,0.090379
24126000,0.0324,0.013523,0.002678,0.000431,0.075218
24127000,0.0324,0.013523,0.002678,0.000431,0.077334
24128000,0.0324,0.013523,0.002678,0.000431,0.083680
24129000,0.0324,0.013523,0.002678,0.000431,0.196272
24130000,0.0324,0.013523,0.002678,0.000431,0.081917
24131000,0.0324,0.013523,0.002678,0.000431,0.037374
24132000,0.0324,0.013523,0.002678,0.000431,0.060409
24133000,0.0324,0.013523,0.002678,0.000431,0.069224
24134000,0.0324,0.013523,0.002678,0.000431,0.065228
24135000,0.0324,0.013523,0.002678,0.000431,0.083798
24136000,0.0324,0.013523,0.002678,0.000431,0.099429
24137000,0.0324,0.013523,0.002678,0.000431,0.112710
24138000,0.0324,0.013523,0.002678,0.000431,0.081682
24139000,0.0324,0.013523,0.002678,0.000431,0.087206
24140000,0.0324,0.013523,0.002678,0.000431,0.147028
24141000,0.0324,0.013523,0.002678,0.000431,0.050302
24142000,0.0324,0.013523,0.002678,0.000431,0.087206
24143000,0.0324,0.013523,0.002678,0.000431,0.065111
24144000,0.0324,0.013523,0.002678,0.000431,0.036199
24145000,0.0324,0.013523,0.002678,0.000431,0.036199
24146000,0.0324,0.013523,0.002678,0.000431,0.085443
24147000,0.0324,0.013523,0.002678,0.000431,0.122699
24148000,0.0324,0.013523,0.002678,0.000431,0.074630
24149000,0.0324,0.013523,0.002678,0.000431,0.099664
24150000,0.0324,0.013523,0.002678,0.000431,0.068636
24151000,0.0324,0.013523,0.002678,0.000431,0.050067
24152000,0.0324,0.013523,0.002678,0.000431,0.090497
24153000,0.0324,0.013523,0.002678,0.000431,0.104365
24154000,0.0324,0.013523,0.002678,0.000431,0.066168
24155000,0.0324,0.013523,0.002678,0.000431,0.108831
24156000,0.0324,0.013523,0.002678,0.000431,0.060880
24157000,0.0324,0.013523,0.002678,0.000431,0.038549
24158000,0.0324,0.013523,0.002678,0.000431,0.038432
24159000,0.0324,0.013523,0.002678,0.000431,0.167948
24160000,0.0324,0.013523,0.002678,0.000431,0.094963
24161000,0.0324,0.013523,0.002678,0.000431,0.076158
24162000,0.0324,0.013523,0.002678,0.000431,0.091319
24163000,0.0324,0.013523,0.002678,0.000431,0.069929
24164000,0.0324,0.013523,0.002678,0.000431,0.077451
24165000,0.0324,0.013523,0.002678,0.000431,0.054768
24166000,0.0324,0.013523,0.002678,0.000431,0.054651
24167000,0.0324,0.013523,0.002678,0.000431,0.062055
24168000,0.0324,0.013523,0.002678,0.000431,0.073573
24169000,0.0324,0.013523,0.002678,0.000431,0.050655
24170000,0.0324,0.013523,0.002678,0.000431,0.087911
24171000,0.0324,0.013523,0.002678,0.000431,0.072397
24172000,0.0324,0.013523,0.002678,0.000431,0.041252
24173000,0.0324,0.013523,0.002678,0.000431,0.128811
24174000,0.0324,0.013523,0.002678,0.000431,0.067109
24175000,0.0324,0.013523,0.002678,0.000431,0.083327
24176000,0.0324,0.013523,0.002678,0.000431,0.070164
24177000,0.0324,0.013523,0.002678,0.000431,0.078861
24178000,0.0324,0.013523,0.002678,0.000431,0.064876
24179000,0.0324,0.013523,0.002678,0.000431,0.189220
24180000,0.0324,0.013523,0.002678,0.000431,0.148086
24181000,0.0324,0.013523,0.002678,0.000431,0.163247
24182000,0.0324,0.013523,0.002678,0.000431,0.121524
24183000,0.0324,0.013523,0.002678,0.000431,0.042193
24184000,0.0324,0.013523,0.002678,0.000431,0.042898
24185000,0.0324,0.013523,0.002678,0.000431,0.072867
24186000,0.0324,0.013523,0.002678,0.000431,0.092965
24187000,0.0324,0.013523,0.002678,0.000431,0.048304
24188000,0.0324,0.013523,0.002678,0.000431,0.136568
24189000,0.0324,0.013523,0.002678,0.000431,0.079684
24190000,0.0324,0.013523,0.002678,0.000431,0.116941
24191000,0.0324,0.013523,0.002678,0.000431,0.054180
24192000,0.0324,0.013523,0.002678,0.000431,0.084973
24193000,0.0324,0.013523,0.002678,0.000431,0.078391
24194000,0.0324,0.013523,0.002678,0.000431,0.081565
24195000,0.0324,0.013523,0.002678,0.000431,0.111417
24196000,0.0324,0.013523,0.002678,0.000431,0.039725
24197000,0.0324,0.013523,0.002678,0.000431,0.040430
24198000,0.0324,0.013523,0.002678,0.000431,0.104953
24199000,0.0324,0.013523,0.002678,0.000431,0.102720
24200000,0.0324,0.013523,0.002678,0.000431,0.097666
24201000,0.0324,0.013523,0.002678,0.000431,0.086501
24202000,0.0324,0.013523,0.002678,0.000431,0.067696
24203000,0.0324,0.013523,0.002678,0.000431,0.108126
24204000,0.0324,0.013523,0.002678,0.000431,0.054298
24205000,0.0324,0.013523,0.002678,0.000431,0.058412
24206000,0.0324,0.013523,0.002678,0.000431,0.119291
24207000,0.0324,0.013523,0.002678,0.000431,0.061232
24208000,0.0324,0.013523,0.002678,0.000431,0.076981
24209000,0.0324,0.013523,0.002678,0.000431,0.055003
24210000,0.0324,0.013523,0.002678,0.000431,0.039372
24211000,0.0324,0.013523,0.002678,0.000431,0.068872
24212000,0.0324,0.013523,0.002678,0.000431,0.095080
24213000,0.0324,0.013523,0.002678,0.000431,0.196155
24214000,0.0324,0.013523,0.002678,0.000431,0.142797
24215000,0.0324,0.013523,0.002678,0.000431,0.052300
24216000,0.0324,0.013523,0.002678,0.000431,0.054651
24217000,0.0324,0.013523,0.002678,0.000431,0.077098
24218000,0.0324,0.013523,0.002678,0.000431,0.089439
24219000,0.0324,0.013523,0.002678,0.000431,0.117881
24220000,0.0324,0.013523,0.002678,0.000431,0.099194
24221000,0.0324,0.013523,0.002678,0.000431,0.114355
24222000,0.0324,0.013523,0.002678,0.000431,0.056178
24223000,0.0324,0.013523,0.002678,0.000431,0.089909
24224000,0.0324,0.013523,0.002678,0.000431,0.058529
24225000,0.0324,0.013523,0.002678,0.000431,0.072162
24226000,0.0324,0.013523,0.002678,0.000431,0.067579
24227000,0.0324,0.013523,0.002678,0.000431,0.053005
24228000,0.0324,0.013523,0.002678,0.000431,0.052770
24229000,0.0324,0.013523,0.002678,0.000431,0.037374
24230000,0.0324,0.013523,0.002678,0.000431,0.066521
24231000,0.0324,0.013523,0.002678,0.000431,0.150554
24232000,0.0324,0.013523,0.002678,0.000431,0.080624
24233000,0.0324,0.013523,0.002678,0.000431,0.064170
24234000,0.0324,0.013523,0.002678,0.000431,0.051477
24235000,0.0324,0.013523,0.002678,0.000431,0.088734
24236000,0.0324,0.013523,0.002678,0.000431,0.051125
24237000,0.0324,0.013523,0.002678,0.000431,0.038549
24238000,0.0324,0.013523,0.002678,0.000431,0.117881
24239000,0.0324,0.013523,0.002678,0.000431,0.153492
24240000,0.0324,0.013523,0.002678,0.000431,0.061702
24241000,0.0324,0.013523,0.002678,0.000431,0.078391
24242000,0.0324,0.013523,0.002678,0.000431,0.081330
24243000,0.0324,0.013523,0.002678,0.000431,0.036199
24244000,0.0324,0.013523,0.002678,0.000431,0.081565
24245000,0.0324,0.013523,0.002678,0.000431,0.131397
24246000,0.0324,0.013523,0.002678,0.000431,0.055238
24247000,0.0324,0.013523,0.002678,0.000431,0.043838
24248000,0.0324,0.013523,0.002678,0.000431,0.131514
24249000,0.0324,0.013523,0.002678,0.000431,0.115295
24250000,0.0324,0.013523,0.002678,0.000431,0.038197
24251000,0.0324,0.013523,0.002678,0.000431,0.035846
24252000,0.0324,0.013523,0.002678,0.000431,0.107773
24253000,0.0324,0.013523,0.002678,0.000431,0.078744
24254000,0.0324,0.013523,0.002678,0.000431,0.041840
24255000,0.0324,0.013523,0.002678,0.000431,0.071575
24256000,0.0324,0.013523,0.002678,0.000431,0.048304
24257000,0.0324,0.013523,0.002678,0.000431,0.064288
24258000,0.0324,0.013523,0.002678,0.000431,0.103425
24259000,0.0324,0.013523,0.002678,0.000431,0.186282
24260000,0.0324,0.013523,0.002678,0.000431,0.053358
24261000,0.0324,0.013523,0.002678,0.000431,0.079096
24262000,0.0324,0.013523,0.002678,0.000431,0.041370
24263000,0.0324,0.013523,0.002678,0.000431,0.128811
24264000,0.0324,0.013523,0.002678,0.000431,0.060174
24265000,0.0324,0.013523,0.002678,0.000431,0.090849
24266000,0.0324,0.013523,0.002678,0.000431,0.039137
24267000,0.0324,0.013523,0.002678,0.000431,0.054768
24268000,0.0324,0.013523,0.002678,0.000431,0.095433
24269000,0.0324,0.013523,0.002678,0.000431,0.066168
24270000,0.0324,0.013523,0.002678,0.000431,0.043838
24271000,0.0324,0.013523,0.002678,0.000431,0.052535
24272000,0.0324,0.013523,0.002678,0.000431,0.061115
24273000,0.0324,0.013523,0.002678,0.000431,0.045131
24274000,0.0324,0.013523,0.002678,0.000431,0.038549
24275000,0.0324,0.013523,0.002678,0.000431,0.046189
24276000,0.0324,0.013523,0.002678,0.000431,0.045718
24277000,0.0324,0.013523,0.002678,0.000431,0.052300
24278000,0.0324,0.013523,0.002678,0.000431,0.053123
24279000,0.0324,0.013523,0.002678,0.000431,0.123170
24280000,0.0324,0.013523,0.002678,0.000431,0.076981
24281000,0.0324,0.013523,0.002678,0.000431,0.044073
24282000,0.0324,0.013523,0.002678,0.000431,0.049244
24283000,0.0324,0.013523,0.002678,0.000431,0.071810
24284000,0.0324,0.013523,0.002678,0.000431,0.064523
24285000,0.0324,0.013523,0.002678,0.000431,0.061467
24286000,0.0324,0.013523,0.002678,0.000431,0.060645
24287000,0.0324,0.013523,0.002678,0.000431,0.071105
24288000,0.0324,0.013523,0.002678,0.000431,0.063583
24289000,0.0324,0.013523,0.002678,0.000431,0.089086
24290000,0.0324,0.013523,0.002678,0.000431,0.069224
24291000,0.0324,0.013523,0.002678,0.000431,0.081565
24292000,0.0324,0.013523,0.002678,0.000431,0.055591
24293000,0.0324,0.013523,0.002678,0.000431,0.051712
24294000,0.0324,0.013523,0.002678,0.000431,0.082387
24295000,0.0324,0.013523,0.002678,0.000431,0.054886
24296000,0.0324,0.013523,0.002678,0.000431,0.078626
24297000,0.0324,0.013523,0.002678,0.000431,0.151846
24298000,0.0324,0.013523,0.002678,0.000431,0.147145
24299000,0.0324,0.013523,0.002678,0.000431,0.040900
24300000,0.0324,0.013523,0.002678,0.000431,0.055591
24301000,0.0324,0.013523,0.002678,0.000431,0.079449
24302000,0.0324,0.013523,0.002678,0.000431,0.044308
24303000,0.0324,0.013523,0.002678,0.000431,0.063465
24304000,0.0324,0.013523,0.002678,0.000431,0.100487
24305000,0.0324,0.013523,0.002678,0.000431,0.059117
24306000,0.0324,0.013523,0.002678,0.000431,0.089321
24307000,0.0324,0.013523,0.002678,0.000431,0.050185
24308000,0.0324,0.013523,0.002678,0.000431,0.086853
24309000,0.0324,0.013523,0.002678,0.000431,0.041135
24310000,0.0324,0.013523,0.002678,0.000431,0.054886
24311000,0.0324,0.013523,0.002678,0.000431,0.076041
24312000,0.0324,0.013523,0.002678,0.000431,0.097783
24313000,0.0324,0.013523,0.002678,0.000431,0.060645
24314000,0.0324,0.013523,0.002678,0.000431,0.107538
24315000,0.0324,0.013523,0.002678,0.000431,0.080154
24316000,0.0324,0.013523,0.002678,0.000431,0.056178
24317000,0.0324,0.013523,0.002678,0.000431,0.041840
24318000,0.0324,0.013523,0.002678,0.000431,0.061115
24319000,0.0324,0.013523,0.002678,0.000431,0.053475
24320000,0.0324,0.013523,0.002678,0.000431,0.057471
24321000,0.0324,0.013523,0.002678,0.000431,0.123287
24322000,0.0324,0.013523,0.002678,0.000431,0.039137
24323000,0.0324,0.013523,0.002678,0.000431,0.063700
24324000,0.0324,0.013523,0.002678,0.000431,0.050302
24325000,0.0324,0.013523,0.002678,0.000431,0.055356
24326000,0.0324,0.013523,0.002678,0.000431,0.071927
24327000,0.0324,0.013523,0.002678,0.000431,0.061115
24328000,0.0324,0.013523,0.002678,0.000431,0.107068
24329000,0.0324,0.013523,0.002678,0.000431,0.072750
24330000,0.0324,0.013523,0.002678,0.000431,0.065463
24331000,0.0324,0.013523,0.002678,0.000431,0.042310
24332000,0.0324,0.013523,0.002678,0.000431,0.051947
24333000,0.0324,0.013523,0.002678,0.000431,0.072750
24334000,0.0324,0.013523,0.002678,0.000431,0.138448
24335000,0.0324,0.013523,0.002678,0.000431,0.149378
24336000,0.0324,0.013523,0.002678,0.000431,0.059117
24337000,0.0324,0.013523,0.002678,0.000431,0.082270
24338000,0.0324,0.013523,0.002678,0.000431,0.098254
24339000,0.0324,0.013523,0.002678,0.000431,0.085208
24340000,0.0324,0.013523,0.002678,0.000431,0.091907
24341000,0.0324,0.013523,0.002678,0.000431,0.075571
24342000,0.0324,0.013523,0.002678,0.000431,0.169828
24343000,0.0324,0.013523,0.002678,0.000431,0.055591
24344000,0.0324,0.013523,0.002678,0.000431,0.056296
24345000,0.0324,0.013523,0.002678,0.000431,0.068401
24346000,0.0324,0.013523,0.002678,0.000431,0.035258
24347000,0.0324,0.013523,0.002678,0.000431,0.132689
24348000,0.0324,0.013523,0.002678,0.000431,0.097783
24349000,0.0324,0.013523,0.002678,0.000431,0.111769
24350000,0.0324,0.013523,0.002678,0.000431,0.076158
24351000,0.0324,0.013523,0.002678,0.000431,0.050067
24352000,0.0324,0.013523,0.002678,0.000431,0.057589
24353000,0.0324,0.013523,0.002678,0.000431,0.042780
24354000,0.0324,0.013523,0.002678,0.000431,0.066403
24355000,0.0324,0.013523,0.002678,0.000431,0.070517
24356000,0.0324,0.013523,0.002678,0.000431,0.060762
24357000,0.0324,0.013523,0.002678,0.000431,0.060645
24358000,0.0324,0.013523,0.002678,0.000431,0.051947
24359000,0.0324,0.013523,0.002678,0.000431,0.062290
24360000,0.0324,0.013523,0.002678,0.000431,0.075336
24361000,0.0324,0.013523,0.002678,0.000431,0.118468
24362000,0.0324,0.013523,0.002678,0.000431,0.054886
24363000,0.0324,0.013523,0.002678,0.000431,0.055708
24364000,0.0324,0.013523,0.002678,0.000431,0.062172
24365000,0.0324,0.013523,0.002678,0.000431,0.088734
24366000,0.0324,0.013523,0.002678,0.000431,0.083445
24367000,0.0324,0.013523,0.002678,0.000431,0.043485
24368000,0.0324,0.013523,0.002678,0.000431,0.088734
24369000,0.0324,0.013523,0.002678,0.000431,0.041605
24370000,0.0324,0.013523,0.002678,0.000431,0.073338
24371000,0.0324,0.013523,0.002678,0.000431,0.058999
24372000,0.0324,0.013523,0.002678,0.000431,0.037021
24373000,0.0324,0.013523,0.002678,0.000431,0.045131
24374000,0.0324,0.013523,0.002678,0.000431,0.056414
24375000,0.0324,0.013523,0.002678,0.000431,0.113650
24376000,0.0324,0.013523,0.002678,0.000431,0.073220
24377000,0.0324,0.013523,0.002678,0.000431,0.039842
24378000,0.0324,0.013523,0.002678,0.000431,0.051007
24379000,0.0324,0.013523,0.002678,0.000431,0.046541
24380000,0.0324,0.013523,0.002678,0.000431,0.088734
24381000,0.0324,0.013523,0.002678,0.000431,0.041487
24382000,0.0324,0.013523,0.002678,0.000431,0.068754
24383000,0.0324,0.013523,0.002678,0.000431,0.097783
24384000,0.0324,0.013523,0.002678,0.000431,0.039137
24385000,0.0324,0.013523,0.002678,0.000431,0.071575
24386000,0.0324,0.013523,0.002678,0.000431,0.086853
24387000,0.0324,0.013523,0.002678,0.000431,0.071340
24388000,0.0324,0.013523,0.002678,0.000431,0.063935
24389000,0.0324,0.013523,0.002678,0.000431,0.108949
24390000,0.0324,0.013523,0.002678,0.000431,0.072632
24391000,0.0324,0.013523,0.002678,0.000431,0.075571
24392000,0.0324,0.013523,0.002678,0.000431,0.071222
24393000,0.0324,0.013523,0.002678,0.000431,0.061702
24394000,0.0324,0.013523,0.002678,0.000431,0.043133
24395000,0.0324,0.013523,0.002678,0.000431,0.046189
24396000,0.0324,0.013523,0.002678,0.000431,0.090262
24397000,0.0324,0.013523,0.002678,0.000431,0.102602
24398000,0.0324,0.013523,0.002678,0.000431,0.045718
24399000,0.0324,0.013523,0.002678,0.000431,0.067931
24400000,0.0324,0.013523,0.002678,0.000431,0.066521
24401000,0.0324,0.013523,0.002678,0.000431,0.062407
24402000,0.0324,0.013523,0.002678,0.000431,0.036081
24403000,0.0324,0.013523,0.002678,0.000431,0.058529
24404000,0.0324,0.013523,0.002678,0.000431,0.036081
24405000,0.0324,0.013523,0.002678,0.000431,0.049479
24406000,0.0324,0.013523,0.002678,0.000431,0.080507
24407000,0.0324,0.013523,0.002678,0.000431,0.080624
24408000,0.0324,0.013523,0.002678,0.000431,0.088734
24409000,0.0324,0.013523,0.002678,0.000431,0.039842
24410000,0.0324,0.013523,0.002678,0.000431,0.144207
24411000,0.0324,0.013523,0.002678,0.000431,0.036434
24412000,0.0324,0.013523,0.002678,0.000431,0.065698
24413000,0.0324,0.013523,0.002678,0.000431,0.060527
24414000,0.0324,0.013523,0.002678,0.000431,0.037374
24415000,0.0324,0.013523,0.002678,0.000431,0.047951
24416000,0.0324,0.013523,0.002678,0.000431,0.078861
24417000,0.0324,0.013523,0.002678,0.000431,0.175940
24418000,0.0324,0.013523,0.002678,0.000431,0.071927
24419000,0.0324,0.013523,0.002678,0.000431,0.083092
24420000,0.0324,0.013523,0.002678,0.000431,0.053828
24421000,0.0324,0.013523,0.002678,0.000431,0.032908
24422000,0.0324,0.013523,0.002678,0.000431,0.070282
24423000,0.0324,0.013523,0.002678,0.000431,0.096256
24424000,0.0324,0.013523,0.002678,0.000431,0.107538
24425000,0.0324,0.013523,0.002678,0.000431,0.069459
24426000,0.0324,0.013523,0.002678,0.000431,0.080154
24427000,0.0324,0.013523,0.002678,0.000431,0.060997
24428000,0.0324,0.013523,0.002678,0.000431,0.032908
24429000,0.0324,0.013523,0.002678,0.000431,0.052418
24430000,0.0324,0.013523,0.002678,0.000431,0.078391
24431000,0.0324,0.013523,0.002678,0.000431,0.029382
24432000,0.0324,0.013523,0.002678,0.000431,0.052535
24433000,0.0324,0.013523,0.002678,0.000431,0.053123
24434000,0.0324,0.013523,0.002678,0.000431,0.030557
24435000,0.0324,0.013523,0.002678,0.000431,0.034318
24436000,0.0324,0.013523,0.002678,0.000431,0.055826
24437000,0.0324,0.013523,0.002678,0.000431,0.036551
24438000,0.0324,0.013523,0.002678,0.000431,0.051125
24439000,0.0324,0.013523,0.002678,0.000431,0.034671
24440000,0.0324,0.013523,0.002678,0.000431,0.028207
24441000,0.0324,0.013523,0.002678,0.000431,0.027854
24442000,0.0324,0.013523,0.002678,0.000431,0.046424
24443000,0.0324,0.013523,0.002678,0.000431,0.031850
24444000,0.0324,0.013523,0.002678,0.000431,0.028442
24445000,0.0324,0.013523,0.002678,0.000431,0.062290
24446000,0.0324,0.013523,0.002678,0.000431,0.064523
24447000,0.0324,0.013523,0.002678,0.000431,0.041840
24448000,0.0324,0.013523,0.002678,0.000431,0.090262
24449000,0.0324,0.013523,0.002678,0.000431,0.041958
24450000,0.0324,0.013523,0.002678,0.000431,0.037727
24451000,0.0324,0.013523,0.002678,0.000431,0.078156
24452000,0.0324,0.013523,0.002678,0.000431,0.030910
24453000,0.0324,0.013523,0.002678,0.000431,0.035729
24454000,0.0324,0.013523,0.002678,0.000431,0.028794
24455000,0.0324,0.013523,0.002678,0.000431,0.029147
24456000,0.0324,0.013523,0.002678,0.000431,0.081800
24457000,0.0324,0.013523,0.002678,0.000431,0.040547
24458000,0.0324,0.013523,0.002678,0.000431,0.080859
24459000,0.0324,0.013523,0.002678,0.000431,0.058647
24460000,0.0324,0.013523,0.002678,0.000431,0.078626
24461000,0.0324,0.013523,0.002678,0.000431,0.025739
24462000,0.0324,0.013523,0.002678,0.000431,0.025621
24463000,0.0324,0.013523,0.002678,0.000431,0.055238
24464000,0.0324,0.013523,0.002678,0.000431,0.032203
24465000,0.0324,0.013523,0.002678,0.000431,0.076863
24466000,0.0324,0.013523,0.002678,0.000431,0.024681
24467000,0.0324,0.013523,0.002678,0.000431,0.038902
24468000,0.0324,0.013523,0.002678,0.000431,0.045366
24469000,0.0324,0.013523,0.002678,0.000431,0.044661
24470000,0.0324,0.013523,0.002678,0.000431,0.022448
24471000,0.0324,0.013523,0.002678,0.000431,0.032673
24472000,0.0324,0.013523,0.002678,0.000431,0.045601
24473000,0.0324,0.013523,0.002678,0.000431,0.052418
24474000,0.0324,0.013523,0.002678,0.000431,0.100369
24475000,0.0324,0.013523,0.002678,0.000431,0.026679
24476000,0.0324,0.013523,0.002678,0.000431,0.079802
24477000,0.0324,0.013523,0.002678,0.000431,0.027502
24478000,0.0324,0.013523,0.002678,0.000431,0.053358
24479000,0.0324,0.013523,0.002678,0.000431,0.089439
24480000,0.0324,0.013523,0.002678,0.000431,0.037139
24481000,0.0324,0.013523,0.002678,0.000431,0.029970
24482000,0.0324,0.013523,0.002678,0.000431,0.062995
24483000,0.0324,0.013523,0.002678,0.000431,0.065816
24484000,0.0324,0.013523,0.002678,0.000431,0.067226
24485000,0.0324,0.013523,0.002678,0.000431,0.047129
24486000,0.0324,0.013523,0.002678,0.000431,0.076511
24487000,0.0324,0.013523,0.002678,0.000431,0.075101
24488000,0.0324,0.013523,0.002678,0.000431,0.051947
24489000,0.0324,0.013523,0.002678,0.000431,0.064405
24490000,0.0324,0.013523,0.002678,0.000431,0.143972
24491000,0.0324,0.013523,0.002678,0.000431,0.204146
24492000,0.0324,0.013523,0.002678,0.000431,0.120466
24493000,0.0324,0.013523,0.002678,0.000431,0.188163
24494000,0.0324,0.013523,0.002678,0.000431,0.136920
24495000,0.0324,0.013523,0.002678,0.000431,0.040665
24496000,0.0324,0.013523,0.002678,0.000431,0.019040
24497000,0.0324,0.013523,0.002678,0.000431,0.015044
24498000,0.0324,0.013523,0.002678,0.000431,0.052653
24499000,0.0324,0.013523,0.002678,0.000431,0.031850
24500000,0.0324,0.013523,0.002678,0.000431,0.058882
24501000,0.0324,0.013523,0.002678,0.000431,0.067931
24502000,0.0324,0.013523,0.002678,0.000431,0.045131
24503000,0.0324,0.013523,0.002678,0.000431,0.029265
24504000,0.0324,0.013523,0.002678,0.000431,0.029147
24505000,0.0324,0.013523,0.002678,0.000431,0.021625
24506000,0.0324,0.013523,0.002678,0.000431,0.014926
24507000,0.0324,0.013523,0.002678,0.000431,0.039372
24508000,0.0324,0.013523,0.002678,0.000431,0.035729
24509000,0.0324,0.013523,0.002678,0.000431,0.014103
24510000,0.0324,0.013523,0.002678,0.000431,0.021625
24511000,0.0324,0.013523,0.002678,0.000431,0.029147
24512000,0.0324,0.013523,0.002678,0.000431,0.017512
24513000,0.0324,0.013523,0.002678,0.000431,0.016689
24514000,0.0324,0.013523,0.002678,0.000431,0.012928
24515000,0.0324,0.013523,0.002678,0.000431,0.058059
24516000,0.0324,0.013523,0.002678,0.000431,0.020097
24517000,0.0324,0.013523,0.002678,0.000431,0.018099
24518000,0.0324,0.013523,0.002678,0.000431,0.018687
24519000,0.0324,0.013523,0.002678,0.000431,0.061585
24520000,0.0324,0.013523,0.002678,0.000431,0.016454
24521000,0.0324,0.013523,0.002678,0.000431,0.024328
24522000,0.0324,0.013523,0.002678,0.000431,0.040077
24523000,0.0324,0.013523,0.002678,0.000431,0.027972
24524000,0.0324,0.013523,0.002678,0.000431,0.039019
24525000,0.0324,0.013523,0.002678,0.000431,0.019627
24526000,0.0324,0.013523,0.002678,0.000431,0.019275
24527000,0.0324,0.013523,0.002678,0.000431,0.049714
24528000,0.0324,0.013523,0.002678,0.000431,0.010342
24529000,0.0324,0.013523,0.002678,0.000431,0.010578
24530000,0.0324,0.013523,0.002678,0.000431,0.034788
24531000,0.0324,0.013523,0.002678,0.000431,0.030087
24532000,0.0324,0.013523,0.002678,0.000431,0.014338
24533000,0.0324,0.013523,0.002678,0.000431,0.014338
24534000,0.0324,0.013523,0.002678,0.000431,0.040665
24535000,0.0324,0.013523,0.002678,0.000431,0.013633
24536000,0.0324,0.013523,0.002678,0.000431,0.025386
24537000,0.0324,0.013523,0.002678,0.000431,0.025269
24538000,0.0324,0.013523,0.002678,0.000431,0.024328
24539000,0.0324,0.013523,0.002678,0.000431,0.064993
24540000,0.0324,0.013523,0.002678,0.000431,0.072750
24541000,0.0324,0.013523,0.002678,0.000431,0.020097
24542000,0.0324,0.013523,0.002678,0.000431,0.013163
24543000,0.0324,0.013523,0.002678,0.000431,0.028207
24544000,0.0324,0.013523,0.002678,0.000431,0.013163
24545000,0.0324,0.013523,0.002678,0.000431,0.024446
24546000,0.0324,0.013523,0.002678,0.000431,0.013163
24547000,0.0324,0.013523,0.002678,0.000431,0.009402
24548000,0.0324,0.013523,0.002678,0.000431,0.009402
24549000,0.0324,0.013523,0.002678,0.000431,0.010930
24550000,0.0324,0.013523,0.002678,0.000431,0.025974
24551000,0.0324,0.013523,0.002678,0.000431,0.009402
24552000,0.0324,0.013523,0.002678,0.000431,0.009402
24553000,0.0324,0.013523,0.002678,0.000431,0.015161
24554000,0.0324,0.013523,0.002678,0.000431,0.010930
24555000,0.0324,0.013523,0.002678,0.000431,0.009167
24556000,0.0324,0.013523,0.002678,0.000431,0.021390
24557000,0.0324,0.013523,0.002678,0.000431,0.019745
24558000,0.0324,0.013523,0.002678,0.000431,0.020685
24559000,0.0324,0.013523,0.002678,0.000431,0.012928
24560000,0.0324,0.013523,0.002678,0.000431,0.043015
24561000,0.0324,0.013523,0.002678,0.000431,0.011870
24562000,0.0324,0.013523,0.002678,0.000431,0.009167
24563000,0.0324,0.013523,0.002678,0.000431,0.140446
24564000,0.0324,0.013523,0.002678,0.000431,0.009167
24565000,0.0324,0.013523,0.002678,0.000431,0.009402
24566000,0.0324,0.013523,0.002678,0.000431,0.013633
24567000,0.0324,0.013523,0.002678,0.000431,0.016924
24568000,0.0324,0.013523,0.002678,0.000431,0.023858
24569000,0.0324,0.013523,0.002678,0.000431,0.007992
24570000,0.0324,0.013523,0.002678,0.000431,0.030792
24571000,0.0324,0.013523,0.002678,0.000431,0.014691
24572000,0.0324,0.013523,0.002678,0.000431,0.007052
24573000,0.0324,0.013523,0.002678,0.000431,0.007052
24574000,0.0324,0.013523,0.002678,0.000431,0.007052
24575000,0.0324,0.013523,0.002678,0.000431,0.011518
24576000,0.0324,0.013523,0.002678,0.000431,0.021978
24577000,0.0324,0.013523,0.002678,0.000431,0.006934
24578000,0.0324,0.013523,0.002678,0.000431,0.092260
24579000,0.0324,0.013523,0.002678,0.000431,0.019627
24580000,0.0324,0.013523,0.002678,0.000431,0.025151
24581000,0.0324,0.013523,0.002678,0.000431,0.019275
24582000,0.0324,0.013523,0.002678,0.000431,0.070047
24583000,0.0324,0.013523,0.002678,0.000431,0.074160
24584000,0.0324,0.013523,0.002678,0.000431,0.005876
24585000,0.0324,0.013523,0.002678,0.000431,0.051007
24586000,0.0324,0.013523,0.002678,0.000431,0.019627
24587000,0.0324,0.013523,0.002678,0.000431,0.010930
24588000,0.0324,0.013523,0.002678,0.000431,0.047246
24589000,0.0324,0.013523,0.002678,0.000431,0.005876
24590000,0.0324,0.013523,0.002678,0.000431,0.005876
24591000,0.0324,0.013523,0.002678,0.000431,0.005876
24592000,0.0324,0.013523,0.002678,0.000431,0.005641
24593000,0.0324,0.013523,0.002678,0.000431,0.005876
24594000,0.0324,0.013523,0.002678,0.000431,0.020920
24595000,0.0324,0.013523,0.002678,0.000431,0.028442
24596000,0.0324,0.013523,0.002678,0.000431,0.013398
24597000,0.0324,0.013523,0.002678,0.000431,0.013163
24598000,0.0324,0.013523,0.002678,0.000431,0.020920
24599000,0.0324,0.013523,0.002678,0.000431,0.017629
24600000,0.0324,0.013523,0.002678,0.000431,0.013281
24601000,0.0324,0.013523,0.002678,0.000431,0.059822
24602000,0.0324,0.013523,0.002678,0.000431,0.011870
24603000,0.0324,0.013523,0.002678,0.000431,0.020567
24604000,0.0324,0.013523,0.002678,0.000431,0.013398
24605000,0.0324,0.013523,0.002678,0.000431,0.022565
24606000,0.0324,0.013523,0.002678,0.000431,0.026796
24607000,0.0324,0.013523,0.002678,0.000431,0.020685
24608000,0.0324,0.013523,0.002678,0.000431,0.096138
24609000,0.0324,0.013523,0.002678,0.000431,0.005876
24610000,0.0324,0.013523,0.002678,0.000431,0.005876
24611000,0.0324,0.013523,0.002678,0.000431,0.016454
24612000,0.0324,0.013523,0.002678,0.000431,0.005876
24613000,0.0324,0.013523,0.002678,0.000431,0.005876
24614000,0.0324,0.013523,0.002678,0.000431,0.018099
24615000,0.0324,0.013523,0.002678,0.000431,0.023741
24616000,0.0324,0.013523,0.002678,0.000431,0.013398
24617000,0.0324,0.013523,0.002678,0.000431,0.008109
24618000,0.0324,0.013523,0.002678,0.000431,0.019392
24619000,0.0324,0.013523,0.002678,0.000431,0.017159
24620000,0.0324,0.013523,0.002678,0.000431,0.013163
24621000,0.0324,0.013523,0.002678,0.000431,0.017864
24622000,0.0324,0.013523,0.002678,0.000431,0.005876
24623000,0.0324,0.013523,0.002678,0.000431,0.051007
24624000,0.0324,0.013523,0.002678,0.000431,0.013398
24625000,0.0324,0.013523,0.002678,0.000431,0.008109
24626000,0.0324,0.013523,0.002678,0.000431,0.008109
24627000,0.0324,0.013523,0.002678,0.000431,0.014691
24628000,0.0324,0.013523,0.002678,0.000431,0.061467
24629000,0.0324,0.013523,0.002678,0.000431,0.005876
24630000,0.0324,0.013523,0.002678,0.000431,0.013046
24631000,0.0324,0.013523,0.002678,0.000431,0.055826
24632000,0.0324,0.013523,0.002678,0.000431,0.005876
24633000,0.0324,0.013523,0.002678,0.000431,0.017042
24634000,0.0324,0.013523,0.002678,0.000431,0.019745
24635000,0.0324,0.013523,0.002678,0.000431,0.019745
24636000,0.0324,0.013523,0.002678,0.000431,0.009167
24637000,0.0324,0.013523,0.002678,0.000431,0.008697
24638000,0.0324,0.013523,0.002678,0.000431,0.042545
24639000,0.0324,0.013523,0.002678,0.000431,0.004701
24640000,0.0324,0.013523,0.002678,0.000431,0.004701
24641000,0.0324,0.013523,0.002678,0.000431,0.004466
24642000,0.0324,0.013523,0.002678,0.000431,0.008462
24643000,0.0324,0.013523,0.002678,0.000431,0.008109
24644000,0.0324,0.013523,0.002678,0.000431,0.079684
24645000,0.0324,0.013523,0.002678,0.000431,0.022918
24646000,0.0324,0.013523,0.002678,0.000431,0.004701
24647000,0.0324,0.013523,0.002678,0.000431,0.034788
24648000,0.0324,0.013523,0.002678,0.000431,0.004701
24649000,0.0324,0.013523,0.002678,0.000431,0.057354
24650000,0.0324,0.013523,0.002678,0.000431,0.004701
24651000,0.0324,0.013523,0.002678,0.000431,0.037844
24652000,0.0324,0.013523,0.002678,0.000431,0.004701
24653000,0.0324,0.013523,0.002678,0.000431,0.004701
24654000,0.0324,0.013523,0.002678,0.000431,0.034788
24655000,0.0324,0.013523,0.002678,0.000431,0.030322
24656000,0.0324,0.013523,0.002678,0.000431,0.012223
24657000,0.0324,0.013523,0.002678,0.000431,0.004701
24658000,0.0324,0.013523,0.002678,0.000431,0.011988
24659000,0.0324,0.013523,0.002678,0.000431,0.012223
24660000,0.0324,0.013523,0.002678,0.000431,0.004701
24661000,0.0324,0.013523,0.002678,0.000431,0.013751
24662000,0.0324,0.013523,0.002678,0.000431,0.024328
24663000,0.0324,0.013523,0.002678,0.000431,0.004701
24664000,0.0324,0.013523,0.002678,0.000431,0.004701
24665000,0.0324,0.013523,0.002678,0.000431,0.092495
24666000,0.0324,0.013523,0.002678,0.000431,0.205087
24667000,0.0324,0.013523,0.002678,0.000431,0.019980
24668000,0.0324,0.013523,0.002678,0.000431,0.004701
24669000,0.0324,0.013523,0.002678,0.000431,0.004701
24670000,0.0324,0.013523,0.002678,0.000431,0.012223
24671000,0.0324,0.013523,0.002678,0.000431,0.004701
24672000,0.0324,0.013523,0.002678,0.000431,0.125050
24673000,0.0324,0.013523,0.002678,0.000431,0.024563
24674000,0.0324,0.013523,0.002678,0.000431,0.010460
24675000,0.0324,0.013523,0.002678,0.000431,0.057354
24676000,0.0324,0.013523,0.002678,0.000431,0.023506
24677000,0.0324,0.013523,0.002678,0.000431,0.143619
24678000,0.0324,0.013523,0.002678,0.000431,0.004701
24679000,0.0324,0.013523,0.002678,0.000431,0.004701
24680000,0.0324,0.013523,0.002678,0.000431,0.042310
24681000,0.0324,0.013523,0.002678,0.000431,0.004701
24682000,0.0324,0.013523,0.002678,0.000431,0.004466
24683000,0.0324,0.013523,0.002678,0.000431,0.019510
24684000,0.0324,0.013523,0.002678,0.000431,0.012223
24685000,0.0324,0.013523,0.002678,0.000431,0.031027
24686000,0.0324,0.013523,0.002678,0.000431,0.023506
24687000,0.0324,0.013523,0.002678,0.000431,0.065111
24688000,0.0324,0.013523,0.002678,0.000431,0.004701
24689000,0.0324,0.013523,0.002678,0.000431,0.004701
24690000,0.0324,0.013523,0.002678,0.000431,0.027267
24691000,0.0324,0.013523,0.002678,0.000431,0.004701
24692000,0.0324,0.013523,0.002678,0.000431,0.019745
24693000,0.0324,0.013523,0.002678,0.000431,0.004584
24694000,0.0324,0.013523,0.002678,0.000431,0.004584
24695000,0.0324,0.013523,0.002678,0.000431,0.004701
24696000,0.0324,0.013523,0.002678,0.000431,0.034788
24697000,0.0324,0.013523,0.002678,0.000431,0.019745
24698000,0.0324,0.013523,0.002678,0.000431,0.004466
24699000,0.0324,0.013523,0.002678,0.000431,0.019745
24700000,0.0324,0.013523,0.002678,0.000431,0.064876
24701000,0.0324,0.013523,0.002678,0.000431,0.004701
24702000,0.0324,0.013523,0.002678,0.000431,0.004701
24703000,0.0324,0.013523,0.002678,0.000431,0.090967
24704000,0.0324,0.013523,0.002678,0.000431,0.031027
24705000,0.0324,0.013523,0.002678,0.000431,0.053593
24706000,0.0324,0.013523,0.002678,0.000431,0.015984
24707000,0.0324,0.013523,0.002678,0.000431,0.053358
24708000,0.0324,0.013523,0.002678,0.000431,0.004701
24709000,0.0324,0.013523,0.002678,0.000431,0.042310
24710000,0.0324,0.013523,0.002678,0.000431,0.012223
24711000,0.0324,0.013523,0.002678,0.000431,0.012223
24712000,0.0324,0.013523,0.002678,0.000431,0.027267
24713000,0.0324,0.013523,0.002678,0.000431,0.004701
24714000,0.0324,0.013523,0.002678,0.000431,0.004701
24715000,0.0324,0.013523,0.002678,0.000431,0.004701
24716000,0.0324,0.013523,0.002678,0.000431,0.034788
24717000,0.0324,0.013523,0.002678,0.000431,0.080154
24718000,0.0324,0.013523,0.002678,0.000431,0.012223
24719000,0.0324,0.013523,0.002678,0.000431,0.019745
24720000,0.0324,0.013523,0.002678,0.000431,0.004701
24721000,0.0324,0.013523,0.002678,0.000431,0.004701
24722000,0.0324,0.013523,0.002678,0.000431,0.012223
24723000,0.0324,0.013523,0.002678,0.000431,0.004584
24724000,0.0324,0.013523,0.002678,0.000431,0.007874
24725000,0.0324,0.013523,0.002678,0.000431,0.004701
24726000,0.0324,0.013523,0.002678,0.000431,0.004701
24727000,0.0324,0.013523,0.002678,0.000431,0.052183
24728000,0.0324,0.013523,0.002678,0.000431,0.009872
24729000,0.0324,0.013523,0.002678,0.000431,0.057354
24730000,0.0324,0.013523,0.002678,0.000431,0.012223
24731000,0.0324,0.013523,0.002678,0.000431,0.008580
24732000,0.0324,0.013523,0.002678,0.000431,0.113415
24733000,0.0324,0.013523,0.002678,0.000431,0.004701
24734000,0.0324,0.013523,0.002678,0.000431,0.057119
24735000,0.0324,0.013523,0.002678,0.000431,0.004701
24736000,0.0324,0.013523,0.002678,0.000431,0.034788
24737000,0.0324,0.013523,0.002678,0.000431,0.004466
24738000,0.0324,0.013523,0.002678,0.000431,0.019745
24739000,0.0324,0.013523,0.002678,0.000431,0.004701
24740000,0.0324,0.013523,0.002678,0.000431,0.012223
24741000,0.0324,0.013523,0.002678,0.000431,0.012223
24742000,0.0324,0.013523,0.002678,0.000431,0.064876
24743000,0.0324,0.013523,0.002678,0.000431,0.035023
24744000,0.0324,0.013523,0.002678,0.000431,0.004701
24745000,0.0324,0.013523,0.002678,0.000431,0.019745
24746000,0.0324,0.013523,0.002678,0.000431,0.004701
24747000,0.0324,0.013523,0.002678,0.000431,0.019745
24748000,0.0324,0.013523,0.002678,0.000431,0.004701
24749000,0.0324,0.013523,0.002678,0.000431,0.087676
24750000,0.0324,0.013523,0.002678,0.000431,0.004701
24751000,0.0324,0.013523,0.002678,0.000431,0.012223
24752000,0.0324,0.013523,0.002678,0.000431,0.004701
24753000,0.0324,0.013523,0.002678,0.000431,0.021860
24754000,0.0324,0.013523,0.002678,0.000431,0.017629
24755000,0.0324,0.013523,0.002678,0.000431,0.035023
24756000,0.0324,0.013523,0.002678,0.000431,0.038784
24757000,0.0324,0.013523,0.002678,0.000431,0.036434
24758000,0.0324,0.013523,0.002678,0.000431,0.033143
24759000,0.0324,0.013523,0.002678,0.000431,0.004701
24760000,0.0324,0.013523,0.002678,0.000431,0.004584
24761000,0.0324,0.013523,0.002678,0.000431,0.004584
24762000,0.0324,0.013523,0.002678,0.000431,0.062407
24763000,0.0324,0.013523,0.002678,0.000431,0.123992
24764000,0.0324,0.013523,0.002678,0.000431,0.034436
24765000,0.0324,0.013523,0.002678,0.000431,0.008580
24766000,0.0324,0.013523,0.002678,0.000431,0.004701
24767000,0.0324,0.013523,0.002678,0.000431,0.004466
24768000,0.0324,0.013523,0.002678,0.000431,0.008462
24769000,0.0324,0.013523,0.002678,0.000431,0.121289
24770000,0.0324,0.013523,0.002678,0.000431,0.004701
24771000,0.0324,0.013523,0.002678,0.000431,0.079919
24772000,0.0324,0.013523,0.002678,0.000431,0.004701
24773000,0.0324,0.013523,0.002678,0.000431,0.004701
24774000,0.0324,0.013523,0.002678,0.000431,0.004701
24775000,0.0324,0.013523,0.002678,0.000431,0.025269
24776000,0.0324,0.013523,0.002678,0.000431,0.036786
24777000,0.0324,0.013523,0.002678,0.000431,0.017747
24778000,0.0324,0.013523,0.002678,0.000431,0.053475
24779000,0.0324,0.013523,0.002678,0.000431,0.030087
24780000,0.0324,0.013523,0.002678,0.000431,0.004701
24781000,0.0324,0.013523,0.002678,0.000431,0.004466
24782000,0.0324,0.013523,0.002678,0.000431,0.019980
24783000,0.0324,0.013523,0.002678,0.000431,0.004701
24784000,0.0324,0.013523,0.002678,0.000431,0.012340
24785000,0.0324,0.013523,0.002678,0.000431,0.015161
24786000,0.0324,0.013523,0.002678,0.000431,0.144090
24787000,0.0324,0.013523,0.002678,0.000431,0.004701
24788000,0.0324,0.013523,0.002678,0.000431,0.035141
24789000,0.0324,0.013523,0.002678,0.000431,0.057001
24790000,0.0324,0.013523,0.002678,0.000431,0.004701
24791000,0.0324,0.013523,0.002678,0.000431,0.040077
24792000,0.0324,0.013523,0.002678,0.000431,0.037727
24793000,0.0324,0.013523,0.002678,0.000431,0.023271
24794000,0.0324,0.013523,0.002678,0.000431,0.008697
24795000,0.0324,0.013523,0.002678,0.000431,0.042310
24796000,0.0324,0.013523,0.002678,0.000431,0.004701
24797000,0.0324,0.013523,0.002678,0.000431,0.004701
24798000,0.0324,0.013523,0.002678,0.000431,0.019745
24799000,0.0324,0.013523,0.002678,0.000431,0.034553
24800000,0.0324,0.013523,0.002678,0.000431,0.019980
24801000,0.0324,0.013523,0.002678,0.000431,0.012458
24802000,0.0324,0.013523,0.002678,0.000431,0.034788
24803000,0.0324,0.013523,0.002678,0.000431,0.004701
24804000,0.0324,0.013523,0.002678,0.000431,0.004701
24805000,0.0324,0.013523,0.002678,0.000431,0.030557
24806000,0.0324,0.013523,0.002678,0.000431,0.057354
24807000,0.0324,0.013523,0.002678,0.000431,0.004701
24808000,0.0324,0.013523,0.002678,0.000431,0.019745
24809000,0.0324,0.013523,0.002678,0.000431,0.004701
24810000,0.0324,0.013523,0.002678,0.000431,0.004701
24811000,0.0324,0.013523,0.002678,0.000431,0.004466
24812000,0.0324,0.013523,0.002678,0.000431,0.014809
24813000,0.0324,0.013523,0.002678,0.000431,0.062290
24814000,0.0324,0.013523,0.002678,0.000431,0.019275
24815000,0.0324,0.013523,0.002678,0.000431,0.019745
24816000,0.0324,0.013523,0.002678,0.000431,0.004701
24817000,0.0324,0.013523,0.002678,0.000431,0.004701
24818000,0.0324,0.013523,0.002678,0.000431,0.004701
24819000,0.0324,0.013523,0.002678,0.000431,0.042310
24820000,0.0324,0.013523,0.002678,0.000431,0.053123
24821000,0.0324,0.013523,0.002678,0.000431,0.030087
24822000,0.0324,0.013523,0.002678,0.000431,0.054768
24823000,0.0324,0.013523,0.002678,0.000431,0.004701
24824000,0.0324,0.013523,0.002678,0.000431,0.035023
24825000,0.0324,0.013523,0.002678,0.000431,0.004701
24826000,0.0324,0.013523,0.002678,0.000431,0.012223
24827000,0.0324,0.013523,0.002678,0.000431,0.188985
24828000,0.0324,0.013523,0.002678,0.000431,0.085561
24829000,0.0324,0.013523,0.002678,0.000431,0.009637
24830000,0.0324,0.013523,0.002678,0.000431,0.004701
24831000,0.0324,0.013523,0.002678,0.000431,0.019980
24832000,0.0324,0.013523,0.002678,0.000431,0.004701
24833000,0.0324,0.013523,0.002678,0.000431,0.004466
24834000,0.0324,0.013523,0.002678,0.000431,0.027267
24835000,0.0324,0.013523,0.002678,0.000431,0.049832
24836000,0.0324,0.013523,0.002678,0.000431,0.004701
24837000,0.0324,0.013523,0.002678,0.000431,0.008932
24838000,0.0324,0.013523,0.002678,0.000431,0.004701
24839000,0.0324,0.013523,0.002678,0.000431,0.012223
24840000,0.0324,0.013523,0.002678,0.000431,0.070517
24841000,0.0324,0.013523,0.002678,0.000431,0.063465
24842000,0.0324,0.013523,0.002678,0.000431,0.042310
24843000,0.0324,0.013523,0.002678,0.000431,0.013046
24844000,0.0324,0.013523,0.002678,0.000431,0.023036
24845000,0.0324,0.013523,0.002678,0.000431,0.008345
24846000,0.0324,0.013523,0.002678,0.000431,0.031027
24847000,0.0324,0.013523,0.002678,0.000431,0.004701
24848000,0.0324,0.013523,0.002678,0.000431,0.019745
24849000,0.0324,0.013523,0.002678,0.000431,0.004701
24850000,0.0324,0.013523,0.002678,0.000431,0.064405
24851000,0.0324,0.013523,0.002678,0.000431,0.128576
24852000,0.0324,0.013523,0.002678,0.000431,0.004466
24853000,0.0324,0.013523,0.002678,0.000431,0.004701
24854000,0.0324,0.013523,0.002678,0.000431,0.061115
24855000,0.0324,0.013523,0.002678,0.000431,0.046071
24856000,0.0324,0.013523,0.002678,0.000431,0.004701
24857000,0.0324,0.013523,0.002678,0.000431,0.015749
24858000,0.0324,0.013523,0.002678,0.000431,0.016219
24859000,0.0324,0.013523,0.002678,0.000431,0.004701
24860000,0.0324,0.013523,0.002678,0.000431,0.007992
24861000,0.0324,0.013523,0.002678,0.000431,0.045248
24862000,0.0324,0.013523,0.002678,0.000431,0.069459
24863000,0.0324,0.013523,0.002678,0.000431,0.004701
24864000,0.0324,0.013523,0.002678,0.000431,0.064641
24865000,0.0324,0.013523,0.002678,0.000431,0.012223
24866000,0.0324,0.013523,0.002678,0.000431,0.004701
24867000,0.0324,0.013523,0.002678,0.000431,0.004701
24868000,0.0324,0.013523,0.002678,0.000431,0.004701
24869000,0.0324,0.013523,0.002678,0.000431,0.004701
24870000,0.0324,0.013523,0.002678,0.000431,0.019862
24871000,0.0324,0.013523,0.002678,0.000431,0.034671
24872000,0.0324,0.013523,0.002678,0.000431,0.012223
24873000,0.0324,0.013523,0.002678,0.000431,0.004466
24874000,0.0324,0.013523,0.002678,0.000431,0.004701
24875000,0.0324,0.013523,0.002678,0.000431,0.012223
24876000,0.0324,0.013523,0.002678,0.000431,0.004701
24877000,0.0324,0.013523,0.002678,0.000431,0.042663
24878000,0.0324,0.013523,0.002678,0.000431,0.007639
24879000,0.0324,0.013523,0.002678,0.000431,0.004701
24880000,0.0324,0.013523,0.002678,0.000431,0.004701
24881000,0.0324,0.013523,0.002678,0.000431,0.023036
24882000,0.0324,0.013523,0.002678,0.000431,0.039019
24883000,0.0324,0.013523,0.002678,0.000431,0.004701
24884000,0.0324,0.013523,0.002678,0.000431,0.004701
24885000,0.0324,0.013523,0.002678,0.000431,0.004466
24886000,0.0324,0.013523,0.002678,0.000431,0.004701
24887000,0.0324,0.013523,0.002678,0.000431,0.014456
24888000,0.0324,0.013523,0.002678,0.000431,0.152669
24889000,0.0324,0.013523,0.002678,0.000431,0.012223
24890000,0.0324,0.013523,0.002678,0.000431,0.004701
24891000,0.0324,0.013523,0.002678,0.000431,0.008462
24892000,0.0324,0.013523,0.002678,0.000431,0.038432
24893000,0.0324,0.013523,0.002678,0.000431,0.004584
24894000,0.0324,0.013523,0.002678,0.000431,0.009167
24895000,0.0324,0.013523,0.002678,0.000431,0.015279
24896000,0.0324,0.013523,0.002678,0.000431,0.004701
24897000,0.0324,0.013523,0.002678,0.000431,0.004701
24898000,0.0324,0.013523,0.002678,0.000431,0.057354
24899000,0.0324,0.013523,0.002678,0.000431,0.004701
24900000,0.0324,0.013523,0.002678,0.000431,0.004701
24901000,0.0324,0.013523,0.002678,0.000431,0.019745
24902000,0.0324,0.013523,0.002678,0.000431,0.004584
24903000,0.0324,0.013523,0.002678,0.000431,0.012105
24904000,0.0324,0.013523,0.002678,0.000431,0.004701
24905000,0.0324,0.013523,0.002678,0.000431,0.012223
24906000,0.0324,0.013523,0.002678,0.000431,0.004701
24907000,0.0324,0.013523,0.002678,0.000431,0.004701
24908000,0.0324,0.013523,0.002678,0.000431,0.012223
24909000,0.0324,0.013523,0.002678,0.000431,0.032673
24910000,0.0324,0.013523,0.002678,0.000431,0.082035
24911000,0.0324,0.013523,0.002678,0.000431,0.004701
24912000,0.0324,0.013523,0.002678,0.000431,0.004701
24913000,0.0324,0.013523,0.002678,0.000431,0.004466
24914000,0.0324,0.013523,0.002678,0.000431,0.015984
24915000,0.0324,0.013523,0.002678,0.000431,0.008462
24916000,0.0324,0.013523,0.002678,0.000431,0.004701
24917000,0.0324,0.013523,0.002678,0.000431,0.004701
24918000,0.0324,0.013523,0.002678,0.000431,0.012223
24919000,0.0324,0.013523,0.002678,0.000431,0.004701
24920000,0.0324,0.013523,0.002678,0.000431,0.004701
24921000,0.0324,0.013523,0.002678,0.000431,0.012223
24922000,0.0324,0.013523,0.002678,0.000431,0.005876
24923000,0.0324,0.013523,0.002678,0.000431,0.048422
24924000,0.0324,0.013523,0.002678,0.000431,0.004701
24925000,0.0324,0.013523,0.002678,0.000431,0.004466
24926000,0.0324,0.013523,0.002678,0.000431,0.004701
24927000,0.0324,0.013523,0.002678,0.000431,0.019745
24928000,0.0324,0.013523,0.002678,0.000431,0.004701
24929000,0.0324,0.013523,0.002678,0.000431,0.004701
24930000,0.0324,0.013523,0.002678,0.000431,0.004701
24931000,0.0324,0.013523,0.002678,0.000431,0.110006
24932000,0.0324,0.013523,0.002678,0.000431,0.004701
24933000,0.0324,0.013523,0.002678,0.000431,0.004701
24934000,0.0324,0.013523,0.002678,0.000431,0.064876
24935000,0.0324,0.013523,0.002678,0.000431,0.004701
24936000,0.0324,0.013523,0.002678,0.000431,0.012223
24937000,0.0324,0.013523,0.002678,0.000431,0.004701
24938000,0.0324,0.013523,0.002678,0.000431,0.004701
24939000,0.0324,0.013523,0.002678,0.000431,0.004701
24940000,0.0324,0.013523,0.002678,0.000431,0.019040
24941000,0.0324,0.013523,0.002678,0.000431,0.012928
24942000,0.0324,0.013523,0.002678,0.000431,0.100369
24943000,0.0324,0.013523,0.002678,0.000431,0.028912
24944000,0.0324,0.013523,0.002678,0.000431,0.004701
24945000,0.0324,0.013523,0.002678,0.000431,0.004701
24946000,0.0324,0.013523,0.002678,0.000431,0.015984
24947000,0.0324,0.013523,0.002678,0.000431,0.008462
24948000,0.0324,0.013523,0.002678,0.000431,0.004701
24949000,0.0324,0.013523,0.002678,0.000431,0.004466
24950000,0.0324,0.013523,0.002678,0.000431,0.004701
24951000,0.0324,0.013523,0.002678,0.000431,0.012223
24952000,0.0324,0.013523,0.002678,0.000431,0.004701
24953000,0.0324,0.013523,0.002678,0.000431,0.011988
24954000,0.0324,0.013523,0.002678,0.000431,0.004701
24955000,0.0324,0.013523,0.002678,0.000431,0.008462
24956000,0.0324,0.013523,0.002678,0.000431,0.008462
24957000,0.0324,0.013523,0.002678,0.000431,0.004701
24958000,0.0324,0.013523,0.002678,0.000431,0.004701
24959000,0.0324,0.013523,0.002678,0.000431,0.038549
24960000,0.0324,0.013523,0.002678,0.000431,0.106010
24961000,0.0324,0.013523,0.002678,0.000431,0.004701
24962000,0.0324,0.013523,0.002678,0.000431,0.004701
24963000,0.0324,0.013523,0.002678,0.000431,0.004701
24964000,0.0324,0.013523,0.002678,0.000431,0.034788
24965000,0.0324,0.013523,0.002678,0.000431,0.004701
24966000,0.0324,0.013523,0.002678,0.000431,0.053945
24967000,0.0324,0.013523,0.002678,0.000431,0.037962
24968000,0.0324,0.013523,0.002678,0.000431,0.012223
24969000,0.0324,0.013523,0.002678,0.000431,0.004701
24970000,0.0324,0.013523,0.002678,0.000431,0.015279
24971000,0.0324,0.013523,0.002678,0.000431,0.076863
24972000,0.0324,0.013523,0.002678,0.000431,0.004701
24973000,0.0324,0.013523,0.002678,0.000431,0.042310
24974000,0.0324,0.013523,0.002678,0.000431,0.004701
24975000,0.0324,0.013523,0.002678,0.000431,0.004701
24976000,0.0324,0.013523,0.002678,0.000431,0.004701
24977000,0.0324,0.013523,0.002678,0.000431,0.004701
24978000,0.0324,0.013523,0.002678,0.000431,0.004701
24979000,0.0324,0.013523,0.002678,0.000431,0.004701
24980000,0.0324,0.013523,0.002678,0.000431,0.027267
24981000,0.0324,0.013523,0.002678,0.000431,0.042075
24982000,0.0324,0.013523,0.002678,0.000431,0.012223
24983000,0.0324,0.013523,0.002678,0.000431,0.004701
24984000,0.0324,0.013523,0.002678,0.000431,0.019745
24985000,0.0324,0.013523,0.002678,0.000431,0.005289
24986000,0.0324,0.013523,0.002678,0.000431,0.011635
24987000,0.0324,0.013523,0.002678,0.000431,0.004701
24988000,0.0324,0.013523,0.002678,0.000431,0.019745
24989000,0.0324,0.013523,0.002678,0.000431,0.004466
24990000,0.0324,0.013523,0.002678,0.000431,0.008462
24991000,0.0324,0.013523,0.002678,0.000431,0.008462
24992000,0.0324,0.013523,0.002678,0.000431,0.027267
24993000,0.0324,0.013523,0.002678,0.000431,0.004584
24994000,0.0324,0.013523,0.002678,0.000431,0.012105
24995000,0.0324,0.013523,0.002678,0.000431,0.004701
24996000,0.0324,0.013523,0.002678,0.000431,0.004701
24997000,0.0324,0.013523,0.002678,0.000431,0.057354
24998000,0.0324,0.013523,0.002678,0.000431,0.004701
24999000,0.0324,0.013523,0.002678,0.000431,0.004701
