Cycle,Area(mm^2),PeakDynamic(W),SubthresholdLeakage(W),GateLeakage(W),RunTimeDynamic(W)
25000000,0.0324,0.013523,0.002678,0.000431,0.004701
25001000,0.0324,0.013523,0.002678,0.000431,0.012223
25002000,0.0324,0.013523,0.002678,0.000431,0.004701
25003000,0.0324,0.013523,0.002678,0.000431,0.004701
25004000,0.0324,0.013523,0.002678,0.000431,0.102720
25005000,0.0324,0.013523,0.002678,0.000431,0.004701
25006000,0.0324,0.013523,0.002678,0.000431,0.012223
25007000,0.0324,0.013523,0.002678,0.000431,0.011988
25008000,0.0324,0.013523,0.002678,0.000431,0.004701
25009000,0.0324,0.013523,0.002678,0.000431,0.004701
25010000,0.0324,0.013523,0.002678,0.000431,0.015279
25011000,0.0324,0.013523,0.002678,0.000431,0.054533
25012000,0.0324,0.013523,0.002678,0.000431,0.102485
25013000,0.0324,0.013523,0.002678,0.000431,0.004701
25014000,0.0324,0.013523,0.002678,0.000431,0.012223
25015000,0.0324,0.013523,0.002678,0.000431,0.004701
25016000,0.0324,0.013523,0.002678,0.000431,0.004701
25017000,0.0324,0.013523,0.002678,0.000431,0.004701
25018000,0.0324,0.013523,0.002678,0.000431,0.004701
25019000,0.0324,0.013523,0.002678,0.000431,0.079919
25020000,0.0324,0.013523,0.002678,0.000431,0.009050
25021000,0.0324,0.013523,0.002678,0.000431,0.007757
25022000,0.0324,0.013523,0.002678,0.000431,0.004466
25023000,0.0324,0.013523,0.002678,0.000431,0.020685
25024000,0.0324,0.013523,0.002678,0.000431,0.004584
25025000,0.0324,0.013523,0.002678,0.000431,0.004701
25026000,0.0324,0.013523,0.002678,0.000431,0.004701
25027000,0.0324,0.013523,0.002678,0.000431,0.072397
25028000,0.0324,0.013523,0.002678,0.000431,0.004701
25029000,0.0324,0.013523,0.002678,0.000431,0.004701
25030000,0.0324,0.013523,0.002678,0.000431,0.004701
25031000,0.0324,0.013523,0.002678,0.000431,0.004701
25032000,0.0324,0.013523,0.002678,0.000431,0.034788
25033000,0.0324,0.013523,0.002678,0.000431,0.004701
25034000,0.0324,0.013523,0.002678,0.000431,0.019745
25035000,0.0324,0.013523,0.002678,0.000431,0.020097
25036000,0.0324,0.013523,0.002678,0.000431,0.027149
25037000,0.0324,0.013523,0.002678,0.000431,0.004701
25038000,0.0324,0.013523,0.002678,0.000431,0.009755
25039000,0.0324,0.013523,0.002678,0.000431,0.073690
25040000,0.0324,0.013523,0.002678,0.000431,0.064876
25041000,0.0324,0.013523,0.002678,0.000431,0.005641
25042000,0.0324,0.013523,0.002678,0.000431,0.004701
25043000,0.0324,0.013523,0.002678,0.000431,0.004701
25044000,0.0324,0.013523,0.002678,0.000431,0.004701
25045000,0.0324,0.013523,0.002678,0.000431,0.004701
25046000,0.0324,0.013523,0.002678,0.000431,0.121642
25047000,0.0324,0.013523,0.002678,0.000431,0.084503
25048000,0.0324,0.013523,0.002678,0.000431,0.042545
25049000,0.0324,0.013523,0.002678,0.000431,0.004701
25050000,0.0324,0.013523,0.002678,0.000431,0.004701
25051000,0.0324,0.013523,0.002678,0.000431,0.004701
25052000,0.0324,0.013523,0.002678,0.000431,0.066168
25053000,0.0324,0.013523,0.002678,0.000431,0.019862
25054000,0.0324,0.013523,0.002678,0.000431,0.012340
25055000,0.0324,0.013523,0.002678,0.000431,0.004819
25056000,0.0324,0.013523,0.002678,0.000431,0.004701
25057000,0.0324,0.013523,0.002678,0.000431,0.004701
25058000,0.0324,0.013523,0.002678,0.000431,0.022330
25059000,0.0324,0.013523,0.002678,0.000431,0.077334
25060000,0.0324,0.013523,0.002678,0.000431,0.047716
25061000,0.0324,0.013523,0.002678,0.000431,0.027149
25062000,0.0324,0.013523,0.002678,0.000431,0.004349
25063000,0.0324,0.013523,0.002678,0.000431,0.004584
25064000,0.0324,0.013523,0.002678,0.000431,0.004584
25065000,0.0324,0.013523,0.002678,0.000431,0.035964
25066000,0.0324,0.013523,0.002678,0.000431,0.004701
25067000,0.0324,0.013523,0.002678,0.000431,0.015984
25068000,0.0324,0.013523,0.002678,0.000431,0.015984
25069000,0.0324,0.013523,0.002678,0.000431,0.004701
25070000,0.0324,0.013523,0.002678,0.000431,0.004701
25071000,0.0324,0.013523,0.002678,0.000431,0.004701
25072000,0.0324,0.013523,0.002678,0.000431,0.019745
25073000,0.0324,0.013523,0.002678,0.000431,0.004701
25074000,0.0324,0.013523,0.002678,0.000431,0.004936
25075000,0.0324,0.013523,0.002678,0.000431,0.004701
25076000,0.0324,0.013523,0.002678,0.000431,0.004701
25077000,0.0324,0.013523,0.002678,0.000431,0.004701
25078000,0.0324,0.013523,0.002678,0.000431,0.076276
25079000,0.0324,0.013523,0.002678,0.000431,0.031145
25080000,0.0324,0.013523,0.002678,0.000431,0.068636
25081000,0.0324,0.013523,0.002678,0.000431,0.008462
25082000,0.0324,0.013523,0.002678,0.000431,0.004701
25083000,0.0324,0.013523,0.002678,0.000431,0.004701
25084000,0.0324,0.013523,0.002678,0.000431,0.035729
25085000,0.0324,0.013523,0.002678,0.000431,0.027267
25086000,0.0324,0.013523,0.002678,0.000431,0.013281
25087000,0.0324,0.013523,0.002678,0.000431,0.056296
25088000,0.0324,0.013523,0.002678,0.000431,0.004701
25089000,0.0324,0.013523,0.002678,0.000431,0.004701
25090000,0.0324,0.013523,0.002678,0.000431,0.004701
25091000,0.0324,0.013523,0.002678,0.000431,0.004701
25092000,0.0324,0.013523,0.002678,0.000431,0.042310
25093000,0.0324,0.013523,0.002678,0.000431,0.036081
25094000,0.0324,0.013523,0.002678,0.000431,0.010930
25095000,0.0324,0.013523,0.002678,0.000431,0.004701
25096000,0.0324,0.013523,0.002678,0.000431,0.004701
25097000,0.0324,0.013523,0.002678,0.000431,0.007992
25098000,0.0324,0.013523,0.002678,0.000431,0.031498
25099000,0.0324,0.013523,0.002678,0.000431,0.004701
25100000,0.0324,0.013523,0.002678,0.000431,0.012223
25101000,0.0324,0.013523,0.002678,0.000431,0.004701
25102000,0.0324,0.013523,0.002678,0.000431,0.004466
25103000,0.0324,0.013523,0.002678,0.000431,0.004584
25104000,0.0324,0.013523,0.002678,0.000431,0.012105
25105000,0.0324,0.013523,0.002678,0.000431,0.027267
25106000,0.0324,0.013523,0.002678,0.000431,0.046659
25107000,0.0324,0.013523,0.002678,0.000431,0.037021
25108000,0.0324,0.013523,0.002678,0.000431,0.004701
25109000,0.0324,0.013523,0.002678,0.000431,0.004701
25110000,0.0324,0.013523,0.002678,0.000431,0.004701
25111000,0.0324,0.013523,0.002678,0.000431,0.101192
25112000,0.0324,0.013523,0.002678,0.000431,0.035376
25113000,0.0324,0.013523,0.002678,0.000431,0.012223
25114000,0.0324,0.013523,0.002678,0.000431,0.004466
25115000,0.0324,0.013523,0.002678,0.000431,0.004701
25116000,0.0324,0.013523,0.002678,0.000431,0.004466
25117000,0.0324,0.013523,0.002678,0.000431,0.004701
25118000,0.0324,0.013523,0.002678,0.000431,0.012223
25119000,0.0324,0.013523,0.002678,0.000431,0.004701
25120000,0.0324,0.013523,0.002678,0.000431,0.004701
25121000,0.0324,0.013523,0.002678,0.000431,0.027502
25122000,0.0324,0.013523,0.002678,0.000431,0.004701
25123000,0.0324,0.013523,0.002678,0.000431,0.004701
25124000,0.0324,0.013523,0.002678,0.000431,0.004701
25125000,0.0324,0.013523,0.002678,0.000431,0.035023
25126000,0.0324,0.013523,0.002678,0.000431,0.005171
25127000,0.0324,0.013523,0.002678,0.000431,0.005171
25128000,0.0324,0.013523,0.002678,0.000431,0.004701
25129000,0.0324,0.013523,0.002678,0.000431,0.004701
25130000,0.0324,0.013523,0.002678,0.000431,0.049832
25131000,0.0324,0.013523,0.002678,0.000431,0.004701
25132000,0.0324,0.013523,0.002678,0.000431,0.061467
25133000,0.0324,0.013523,0.002678,0.000431,0.017629
25134000,0.0324,0.013523,0.002678,0.000431,0.007874
25135000,0.0324,0.013523,0.002678,0.000431,0.004701
25136000,0.0324,0.013523,0.002678,0.000431,0.004701
25137000,0.0324,0.013523,0.002678,0.000431,0.004701
25138000,0.0324,0.013523,0.002678,0.000431,0.041370
25139000,0.0324,0.013523,0.002678,0.000431,0.019745
25140000,0.0324,0.013523,0.002678,0.000431,0.027267
25141000,0.0324,0.013523,0.002678,0.000431,0.004701
25142000,0.0324,0.013523,0.002678,0.000431,0.004466
25143000,0.0324,0.013523,0.002678,0.000431,0.004701
25144000,0.0324,0.013523,0.002678,0.000431,0.004701
25145000,0.0324,0.013523,0.002678,0.000431,0.004701
25146000,0.0324,0.013523,0.002678,0.000431,0.026326
25147000,0.0324,0.013523,0.002678,0.000431,0.012223
25148000,0.0324,0.013523,0.002678,0.000431,0.027267
25149000,0.0324,0.013523,0.002678,0.000431,0.004701
25150000,0.0324,0.013523,0.002678,0.000431,0.004701
25151000,0.0324,0.013523,0.002678,0.000431,0.035023
25152000,0.0324,0.013523,0.002678,0.000431,0.004701
25153000,0.0324,0.013523,0.002678,0.000431,0.004701
25154000,0.0324,0.013523,0.002678,0.000431,0.019510
25155000,0.0324,0.013523,0.002678,0.000431,0.004584
25156000,0.0324,0.013523,0.002678,0.000431,0.004584
25157000,0.0324,0.013523,0.002678,0.000431,0.023976
25158000,0.0324,0.013523,0.002678,0.000431,0.016454
25159000,0.0324,0.013523,0.002678,0.000431,0.004701
25160000,0.0324,0.013523,0.002678,0.000431,0.004701
25161000,0.0324,0.013523,0.002678,0.000431,0.004701
25162000,0.0324,0.013523,0.002678,0.000431,0.004701
25163000,0.0324,0.013523,0.002678,0.000431,0.004701
25164000,0.0324,0.013523,0.002678,0.000431,0.019745
25165000,0.0324,0.013523,0.002678,0.000431,0.012223
25166000,0.0324,0.013523,0.002678,0.000431,0.004701
25167000,0.0324,0.013523,0.002678,0.000431,0.049832
25168000,0.0324,0.013523,0.002678,0.000431,0.004701
25169000,0.0324,0.013523,0.002678,0.000431,0.005876
25170000,0.0324,0.013523,0.002678,0.000431,0.042310
25171000,0.0324,0.013523,0.002678,0.000431,0.012458
25172000,0.0324,0.013523,0.002678,0.000431,0.004466
25173000,0.0324,0.013523,0.002678,0.000431,0.061937
25174000,0.0324,0.013523,0.002678,0.000431,0.037727
25175000,0.0324,0.013523,0.002678,0.000431,0.004701
25176000,0.0324,0.013523,0.002678,0.000431,0.019980
25177000,0.0324,0.013523,0.002678,0.000431,0.027267
25178000,0.0324,0.013523,0.002678,0.000431,0.004701
25179000,0.0324,0.013523,0.002678,0.000431,0.004701
25180000,0.0324,0.013523,0.002678,0.000431,0.012223
25181000,0.0324,0.013523,0.002678,0.000431,0.004701
25182000,0.0324,0.013523,0.002678,0.000431,0.004466
25183000,0.0324,0.013523,0.002678,0.000431,0.027267
25184000,0.0324,0.013523,0.002678,0.000431,0.026091
25185000,0.0324,0.013523,0.002678,0.000431,0.035023
25186000,0.0324,0.013523,0.002678,0.000431,0.047599
25187000,0.0324,0.013523,0.002678,0.000431,0.073690
25188000,0.0324,0.013523,0.002678,0.000431,0.004701
25189000,0.0324,0.013523,0.002678,0.000431,0.004701
25190000,0.0324,0.013523,0.002678,0.000431,0.004701
25191000,0.0324,0.013523,0.002678,0.000431,0.005759
25192000,0.0324,0.013523,0.002678,0.000431,0.048774
25193000,0.0324,0.013523,0.002678,0.000431,0.012105
25194000,0.0324,0.013523,0.002678,0.000431,0.004584
25195000,0.0324,0.013523,0.002678,0.000431,0.004701
25196000,0.0324,0.013523,0.002678,0.000431,0.004701
25197000,0.0324,0.013523,0.002678,0.000431,0.004701
25198000,0.0324,0.013523,0.002678,0.000431,0.004701
25199000,0.0324,0.013523,0.002678,0.000431,0.004701
25200000,0.0324,0.013523,0.002678,0.000431,0.012223
25201000,0.0324,0.013523,0.002678,0.000431,0.004701
25202000,0.0324,0.013523,0.002678,0.000431,0.019745
25203000,0.0324,0.013523,0.002678,0.000431,0.004701
25204000,0.0324,0.013523,0.002678,0.000431,0.004701
25205000,0.0324,0.013523,0.002678,0.000431,0.042545
25206000,0.0324,0.013523,0.002678,0.000431,0.079919
25207000,0.0324,0.013523,0.002678,0.000431,0.004701
25208000,0.0324,0.013523,0.002678,0.000431,0.004701
25209000,0.0324,0.013523,0.002678,0.000431,0.011988
25210000,0.0324,0.013523,0.002678,0.000431,0.004701
25211000,0.0324,0.013523,0.002678,0.000431,0.004701
25212000,0.0324,0.013523,0.002678,0.000431,0.007522
25213000,0.0324,0.013523,0.002678,0.000431,0.016924
25214000,0.0324,0.013523,0.002678,0.000431,0.004701
25215000,0.0324,0.013523,0.002678,0.000431,0.012223
25216000,0.0324,0.013523,0.002678,0.000431,0.004701
25217000,0.0324,0.013523,0.002678,0.000431,0.004701
25218000,0.0324,0.013523,0.002678,0.000431,0.019510
25219000,0.0324,0.013523,0.002678,0.000431,0.012223
25220000,0.0324,0.013523,0.002678,0.000431,0.004701
25221000,0.0324,0.013523,0.002678,0.000431,0.004701
25222000,0.0324,0.013523,0.002678,0.000431,0.004701
25223000,0.0324,0.013523,0.002678,0.000431,0.004701
25224000,0.0324,0.013523,0.002678,0.000431,0.004701
25225000,0.0324,0.013523,0.002678,0.000431,0.034788
25226000,0.0324,0.013523,0.002678,0.000431,0.012223
25227000,0.0324,0.013523,0.002678,0.000431,0.004466
25228000,0.0324,0.013523,0.002678,0.000431,0.027267
25229000,0.0324,0.013523,0.002678,0.000431,0.004701
25230000,0.0324,0.013523,0.002678,0.000431,0.004701
25231000,0.0324,0.013523,0.002678,0.000431,0.028677
25232000,0.0324,0.013523,0.002678,0.000431,0.042310
25233000,0.0324,0.013523,0.002678,0.000431,0.004701
25234000,0.0324,0.013523,0.002678,0.000431,0.004701
25235000,0.0324,0.013523,0.002678,0.000431,0.004701
25236000,0.0324,0.013523,0.002678,0.000431,0.004701
25237000,0.0324,0.013523,0.002678,0.000431,0.054063
25238000,0.0324,0.013523,0.002678,0.000431,0.026796
25239000,0.0324,0.013523,0.002678,0.000431,0.015984
25240000,0.0324,0.013523,0.002678,0.000431,0.004701
25241000,0.0324,0.013523,0.002678,0.000431,0.048539
25242000,0.0324,0.013523,0.002678,0.000431,0.013751
25243000,0.0324,0.013523,0.002678,0.000431,0.004701
25244000,0.0324,0.013523,0.002678,0.000431,0.042545
25245000,0.0324,0.013523,0.002678,0.000431,0.012223
25246000,0.0324,0.013523,0.002678,0.000431,0.004701
25247000,0.0324,0.013523,0.002678,0.000431,0.004701
25248000,0.0324,0.013523,0.002678,0.000431,0.012223
25249000,0.0324,0.013523,0.002678,0.000431,0.004466
25250000,0.0324,0.013523,0.002678,0.000431,0.011988
25251000,0.0324,0.013523,0.002678,0.000431,0.004701
25252000,0.0324,0.013523,0.002678,0.000431,0.019510
25253000,0.0324,0.013523,0.002678,0.000431,0.004701
25254000,0.0324,0.013523,0.002678,0.000431,0.058999
25255000,0.0324,0.013523,0.002678,0.000431,0.033143
25256000,0.0324,0.013523,0.002678,0.000431,0.004701
25257000,0.0324,0.013523,0.002678,0.000431,0.057354
25258000,0.0324,0.013523,0.002678,0.000431,0.012223
25259000,0.0324,0.013523,0.002678,0.000431,0.004701
25260000,0.0324,0.013523,0.002678,0.000431,0.004701
25261000,0.0324,0.013523,0.002678,0.000431,0.004701
25262000,0.0324,0.013523,0.002678,0.000431,0.004701
25263000,0.0324,0.013523,0.002678,0.000431,0.045483
25264000,0.0324,0.013523,0.002678,0.000431,0.015396
25265000,0.0324,0.013523,0.002678,0.000431,0.004701
25266000,0.0324,0.013523,0.002678,0.000431,0.004701
25267000,0.0324,0.013523,0.002678,0.000431,0.018099
25268000,0.0324,0.013523,0.002678,0.000431,0.028677
25269000,0.0324,0.013523,0.002678,0.000431,0.004701
25270000,0.0324,0.013523,0.002678,0.000431,0.064876
25271000,0.0324,0.013523,0.002678,0.000431,0.105893
25272000,0.0324,0.013523,0.002678,0.000431,0.031380
25273000,0.0324,0.013523,0.002678,0.000431,0.004701
25274000,0.0324,0.013523,0.002678,0.000431,0.004701
25275000,0.0324,0.013523,0.002678,0.000431,0.004701
25276000,0.0324,0.013523,0.002678,0.000431,0.004701
25277000,0.0324,0.013523,0.002678,0.000431,0.004701
25278000,0.0324,0.013523,0.002678,0.000431,0.012223
25279000,0.0324,0.013523,0.002678,0.000431,0.004701
25280000,0.0324,0.013523,0.002678,0.000431,0.018922
25281000,0.0324,0.013523,0.002678,0.000431,0.028089
25282000,0.0324,0.013523,0.002678,0.000431,0.004701
25283000,0.0324,0.013523,0.002678,0.000431,0.064876
25284000,0.0324,0.013523,0.002678,0.000431,0.004701
25285000,0.0324,0.013523,0.002678,0.000431,0.004701
25286000,0.0324,0.013523,0.002678,0.000431,0.004701
25287000,0.0324,0.013523,0.002678,0.000431,0.004701
25288000,0.0324,0.013523,0.002678,0.000431,0.004701
25289000,0.0324,0.013523,0.002678,0.000431,0.004466
25290000,0.0324,0.013523,0.002678,0.000431,0.004466
25291000,0.0324,0.013523,0.002678,0.000431,0.004701
25292000,0.0324,0.013523,0.002678,0.000431,0.004466
25293000,0.0324,0.013523,0.002678,0.000431,0.004701
25294000,0.0324,0.013523,0.002678,0.000431,0.004701
25295000,0.0324,0.013523,0.002678,0.000431,0.004701
25296000,0.0324,0.013523,0.002678,0.000431,0.037256
25297000,0.0324,0.013523,0.002678,0.000431,0.077451
25298000,0.0324,0.013523,0.002678,0.000431,0.004701
25299000,0.0324,0.013523,0.002678,0.000431,0.004701
25300000,0.0324,0.013523,0.002678,0.000431,0.019745
25301000,0.0324,0.013523,0.002678,0.000431,0.004701
25302000,0.0324,0.013523,0.002678,0.000431,0.004701
25303000,0.0324,0.013523,0.002678,0.000431,0.019627
25304000,0.0324,0.013523,0.002678,0.000431,0.072515
25305000,0.0324,0.013523,0.002678,0.000431,0.004701
25306000,0.0324,0.013523,0.002678,0.000431,0.004701
25307000,0.0324,0.013523,0.002678,0.000431,0.012105
25308000,0.0324,0.013523,0.002678,0.000431,0.004584
25309000,0.0324,0.013523,0.002678,0.000431,0.004701
25310000,0.0324,0.013523,0.002678,0.000431,0.049362
25311000,0.0324,0.013523,0.002678,0.000431,0.072867
25312000,0.0324,0.013523,0.002678,0.000431,0.004701
25313000,0.0324,0.013523,0.002678,0.000431,0.004701
25314000,0.0324,0.013523,0.002678,0.000431,0.004701
25315000,0.0324,0.013523,0.002678,0.000431,0.035023
25316000,0.0324,0.013523,0.002678,0.000431,0.109771
25317000,0.0324,0.013523,0.002678,0.000431,0.012223
25318000,0.0324,0.013523,0.002678,0.000431,0.004701
25319000,0.0324,0.013523,0.002678,0.000431,0.008462
25320000,0.0324,0.013523,0.002678,0.000431,0.014338
25321000,0.0324,0.013523,0.002678,0.000431,0.104130
25322000,0.0324,0.013523,0.002678,0.000431,0.016807
25323000,0.0324,0.013523,0.002678,0.000431,0.015161
25324000,0.0324,0.013523,0.002678,0.000431,0.004701
25325000,0.0324,0.013523,0.002678,0.000431,0.004701
25326000,0.0324,0.013523,0.002678,0.000431,0.004701
25327000,0.0324,0.013523,0.002678,0.000431,0.004701
25328000,0.0324,0.013523,0.002678,0.000431,0.038314
25329000,0.0324,0.013523,0.002678,0.000431,0.008462
25330000,0.0324,0.013523,0.002678,0.000431,0.027031
25331000,0.0324,0.013523,0.002678,0.000431,0.004701
25332000,0.0324,0.013523,0.002678,0.000431,0.004466
25333000,0.0324,0.013523,0.002678,0.000431,0.027267
25334000,0.0324,0.013523,0.002678,0.000431,0.004701
25335000,0.0324,0.013523,0.002678,0.000431,0.079919
25336000,0.0324,0.013523,0.002678,0.000431,0.012223
25337000,0.0324,0.013523,0.002678,0.000431,0.004701
25338000,0.0324,0.013523,0.002678,0.000431,0.004701
25339000,0.0324,0.013523,0.002678,0.000431,0.004701
25340000,0.0324,0.013523,0.002678,0.000431,0.012223
25341000,0.0324,0.013523,0.002678,0.000431,0.012105
25342000,0.0324,0.013523,0.002678,0.000431,0.049949
25343000,0.0324,0.013523,0.002678,0.000431,0.034788
25344000,0.0324,0.013523,0.002678,0.000431,0.004701
25345000,0.0324,0.013523,0.002678,0.000431,0.004701
25346000,0.0324,0.013523,0.002678,0.000431,0.012223
25347000,0.0324,0.013523,0.002678,0.000431,0.004584
25348000,0.0324,0.013523,0.002678,0.000431,0.069577
25349000,0.0324,0.013523,0.002678,0.000431,0.052535
25350000,0.0324,0.013523,0.002678,0.000431,0.019745
25351000,0.0324,0.013523,0.002678,0.000431,0.004701
25352000,0.0324,0.013523,0.002678,0.000431,0.004701
25353000,0.0324,0.013523,0.002678,0.000431,0.005876
25354000,0.0324,0.013523,0.002678,0.000431,0.004701
25355000,0.0324,0.013523,0.002678,0.000431,0.004701
25356000,0.0324,0.013523,0.002678,0.000431,0.042310
25357000,0.0324,0.013523,0.002678,0.000431,0.004701
25358000,0.0324,0.013523,0.002678,0.000431,0.012340
25359000,0.0324,0.013523,0.002678,0.000431,0.102132
25360000,0.0324,0.013523,0.002678,0.000431,0.057354
25361000,0.0324,0.013523,0.002678,0.000431,0.004701
25362000,0.0324,0.013523,0.002678,0.000431,0.015984
25363000,0.0324,0.013523,0.002678,0.000431,0.023506
25364000,0.0324,0.013523,0.002678,0.000431,0.004701
25365000,0.0324,0.013523,0.002678,0.000431,0.016336
25366000,0.0324,0.013523,0.002678,0.000431,0.015396
25367000,0.0324,0.013523,0.002678,0.000431,0.004701
25368000,0.0324,0.013523,0.002678,0.000431,0.004701
25369000,0.0324,0.013523,0.002678,0.000431,0.042075
25370000,0.0324,0.013523,0.002678,0.000431,0.004584
25371000,0.0324,0.013523,0.002678,0.000431,0.004584
25372000,0.0324,0.013523,0.002678,0.000431,0.072397
25373000,0.0324,0.013523,0.002678,0.000431,0.019745
25374000,0.0324,0.013523,0.002678,0.000431,0.004701
25375000,0.0324,0.013523,0.002678,0.000431,0.012223
25376000,0.0324,0.013523,0.002678,0.000431,0.034788
25377000,0.0324,0.013523,0.002678,0.000431,0.004701
25378000,0.0324,0.013523,0.002678,0.000431,0.004701
25379000,0.0324,0.013523,0.002678,0.000431,0.016219
25380000,0.0324,0.013523,0.002678,0.000431,0.008462
25381000,0.0324,0.013523,0.002678,0.000431,0.004701
25382000,0.0324,0.013523,0.002678,0.000431,0.012223
25383000,0.0324,0.013523,0.002678,0.000431,0.027267
25384000,0.0324,0.013523,0.002678,0.000431,0.004701
25385000,0.0324,0.013523,0.002678,0.000431,0.019745
25386000,0.0324,0.013523,0.002678,0.000431,0.034788
25387000,0.0324,0.013523,0.002678,0.000431,0.004584
25388000,0.0324,0.013523,0.002678,0.000431,0.004584
25389000,0.0324,0.013523,0.002678,0.000431,0.004701
25390000,0.0324,0.013523,0.002678,0.000431,0.004701
25391000,0.0324,0.013523,0.002678,0.000431,0.004701
25392000,0.0324,0.013523,0.002678,0.000431,0.004701
25393000,0.0324,0.013523,0.002678,0.000431,0.004701
25394000,0.0324,0.013523,0.002678,0.000431,0.004466
25395000,0.0324,0.013523,0.002678,0.000431,0.004701
25396000,0.0324,0.013523,0.002678,0.000431,0.057354
25397000,0.0324,0.013523,0.002678,0.000431,0.004701
25398000,0.0324,0.013523,0.002678,0.000431,0.004701
25399000,0.0324,0.013523,0.002678,0.000431,0.042310
25400000,0.0324,0.013523,0.002678,0.000431,0.004701
25401000,0.0324,0.013523,0.002678,0.000431,0.004701
25402000,0.0324,0.013523,0.002678,0.000431,0.023858
25403000,0.0324,0.013523,0.002678,0.000431,0.075806
25404000,0.0324,0.013523,0.002678,0.000431,0.004701
25405000,0.0324,0.013523,0.002678,0.000431,0.012223
25406000,0.0324,0.013523,0.002678,0.000431,0.049832
25407000,0.0324,0.013523,0.002678,0.000431,0.004701
25408000,0.0324,0.013523,0.002678,0.000431,0.004701
25409000,0.0324,0.013523,0.002678,0.000431,0.027149
25410000,0.0324,0.013523,0.002678,0.000431,0.004466
25411000,0.0324,0.013523,0.002678,0.000431,0.021273
25412000,0.0324,0.013523,0.002678,0.000431,0.081565
25413000,0.0324,0.013523,0.002678,0.000431,0.057471
25414000,0.0324,0.013523,0.002678,0.000431,0.015161
25415000,0.0324,0.013523,0.002678,0.000431,0.012223
25416000,0.0324,0.013523,0.002678,0.000431,0.087441
25417000,0.0324,0.013523,0.002678,0.000431,0.004701
25418000,0.0324,0.013523,0.002678,0.000431,0.004701
25419000,0.0324,0.013523,0.002678,0.000431,0.034788
25420000,0.0324,0.013523,0.002678,0.000431,0.034788
25421000,0.0324,0.013523,0.002678,0.000431,0.004584
25422000,0.0324,0.013523,0.002678,0.000431,0.012105
25423000,0.0324,0.013523,0.002678,0.000431,0.004701
25424000,0.0324,0.013523,0.002678,0.000431,0.004701
25425000,0.0324,0.013523,0.002678,0.000431,0.008462
25426000,0.0324,0.013523,0.002678,0.000431,0.008462
25427000,0.0324,0.013523,0.002678,0.000431,0.004701
25428000,0.0324,0.013523,0.002678,0.000431,0.008462
25429000,0.0324,0.013523,0.002678,0.000431,0.098724
25430000,0.0324,0.013523,0.002678,0.000431,0.004701
25431000,0.0324,0.013523,0.002678,0.000431,0.004701
25432000,0.0324,0.013523,0.002678,0.000431,0.004701
25433000,0.0324,0.013523,0.002678,0.000431,0.038902
25434000,0.0324,0.013523,0.002678,0.000431,0.008109
25435000,0.0324,0.013523,0.002678,0.000431,0.013398
25436000,0.0324,0.013523,0.002678,0.000431,0.018569
25437000,0.0324,0.013523,0.002678,0.000431,0.004701
25438000,0.0324,0.013523,0.002678,0.000431,0.004466
25439000,0.0324,0.013523,0.002678,0.000431,0.019745
25440000,0.0324,0.013523,0.002678,0.000431,0.012223
25441000,0.0324,0.013523,0.002678,0.000431,0.004701
25442000,0.0324,0.013523,0.002678,0.000431,0.034788
25443000,0.0324,0.013523,0.002678,0.000431,0.027267
25444000,0.0324,0.013523,0.002678,0.000431,0.004701
25445000,0.0324,0.013523,0.002678,0.000431,0.004701
25446000,0.0324,0.013523,0.002678,0.000431,0.043133
25447000,0.0324,0.013523,0.002678,0.000431,0.018922
25448000,0.0324,0.013523,0.002678,0.000431,0.004701
25449000,0.0324,0.013523,0.002678,0.000431,0.050067
25450000,0.0324,0.013523,0.002678,0.000431,0.004584
25451000,0.0324,0.013523,0.002678,0.000431,0.004584
25452000,0.0324,0.013523,0.002678,0.000431,0.009872
25453000,0.0324,0.013523,0.002678,0.000431,0.127401
25454000,0.0324,0.013523,0.002678,0.000431,0.004701
25455000,0.0324,0.013523,0.002678,0.000431,0.042310
25456000,0.0324,0.013523,0.002678,0.000431,0.085325
25457000,0.0324,0.013523,0.002678,0.000431,0.006817
25458000,0.0324,0.013523,0.002678,0.000431,0.004701
25459000,0.0324,0.013523,0.002678,0.000431,0.012223
25460000,0.0324,0.013523,0.002678,0.000431,0.004701
25461000,0.0324,0.013523,0.002678,0.000431,0.004701
25462000,0.0324,0.013523,0.002678,0.000431,0.027267
25463000,0.0324,0.013523,0.002678,0.000431,0.050067
25464000,0.0324,0.013523,0.002678,0.000431,0.004701
25465000,0.0324,0.013523,0.002678,0.000431,0.004701
25466000,0.0324,0.013523,0.002678,0.000431,0.095433
25467000,0.0324,0.013523,0.002678,0.000431,0.038432
25468000,0.0324,0.013523,0.002678,0.000431,0.045954
25469000,0.0324,0.013523,0.002678,0.000431,0.012223
25470000,0.0324,0.013523,0.002678,0.000431,0.047951
25471000,0.0324,0.013523,0.002678,0.000431,0.021860
25472000,0.0324,0.013523,0.002678,0.000431,0.012223
25473000,0.0324,0.013523,0.002678,0.000431,0.012223
25474000,0.0324,0.013523,0.002678,0.000431,0.004701
25475000,0.0324,0.013523,0.002678,0.000431,0.004701
25476000,0.0324,0.013523,0.002678,0.000431,0.004701
25477000,0.0324,0.013523,0.002678,0.000431,0.042310
25478000,0.0324,0.013523,0.002678,0.000431,0.021390
25479000,0.0324,0.013523,0.002678,0.000431,0.078274
25480000,0.0324,0.013523,0.002678,0.000431,0.018217
25481000,0.0324,0.013523,0.002678,0.000431,0.006229
25482000,0.0324,0.013523,0.002678,0.000431,0.004701
25483000,0.0324,0.013523,0.002678,0.000431,0.024798
25484000,0.0324,0.013523,0.002678,0.000431,0.106598
25485000,0.0324,0.013523,0.002678,0.000431,0.040430
25486000,0.0324,0.013523,0.002678,0.000431,0.012223
25487000,0.0324,0.013523,0.002678,0.000431,0.042545
25488000,0.0324,0.013523,0.002678,0.000431,0.004701
25489000,0.0324,0.013523,0.002678,0.000431,0.004466
25490000,0.0324,0.013523,0.002678,0.000431,0.006699
25491000,0.0324,0.013523,0.002678,0.000431,0.047599
25492000,0.0324,0.013523,0.002678,0.000431,0.012223
25493000,0.0324,0.013523,0.002678,0.000431,0.004701
25494000,0.0324,0.013523,0.002678,0.000431,0.004701
25495000,0.0324,0.013523,0.002678,0.000431,0.004701
25496000,0.0324,0.013523,0.002678,0.000431,0.004701
25497000,0.0324,0.013523,0.002678,0.000431,0.004701
25498000,0.0324,0.013523,0.002678,0.000431,0.053005
25499000,0.0324,0.013523,0.002678,0.000431,0.062172
25500000,0.0324,0.013523,0.002678,0.000431,0.004701
25501000,0.0324,0.013523,0.002678,0.000431,0.004466
25502000,0.0324,0.013523,0.002678,0.000431,0.004701
25503000,0.0324,0.013523,0.002678,0.000431,0.004701
25504000,0.0324,0.013523,0.002678,0.000431,0.004584
25505000,0.0324,0.013523,0.002678,0.000431,0.042428
25506000,0.0324,0.013523,0.002678,0.000431,0.078509
25507000,0.0324,0.013523,0.002678,0.000431,0.096608
25508000,0.0324,0.013523,0.002678,0.000431,0.050067
25509000,0.0324,0.013523,0.002678,0.000431,0.004701
25510000,0.0324,0.013523,0.002678,0.000431,0.004701
25511000,0.0324,0.013523,0.002678,0.000431,0.010225
25512000,0.0324,0.013523,0.002678,0.000431,0.044308
25513000,0.0324,0.013523,0.002678,0.000431,0.004701
25514000,0.0324,0.013523,0.002678,0.000431,0.004701
25515000,0.0324,0.013523,0.002678,0.000431,0.057589
25516000,0.0324,0.013523,0.002678,0.000431,0.004936
25517000,0.0324,0.013523,0.002678,0.000431,0.012223
25518000,0.0324,0.013523,0.002678,0.000431,0.056531
25519000,0.0324,0.013523,0.002678,0.000431,0.012811
25520000,0.0324,0.013523,0.002678,0.000431,0.018922
25521000,0.0324,0.013523,0.002678,0.000431,0.058412
25522000,0.0324,0.013523,0.002678,0.000431,0.004701
25523000,0.0324,0.013523,0.002678,0.000431,0.018334
25524000,0.0324,0.013523,0.002678,0.000431,0.013398
25525000,0.0324,0.013523,0.002678,0.000431,0.065111
25526000,0.0324,0.013523,0.002678,0.000431,0.019745
25527000,0.0324,0.013523,0.002678,0.000431,0.049832
25528000,0.0324,0.013523,0.002678,0.000431,0.004701
25529000,0.0324,0.013523,0.002678,0.000431,0.014456
25530000,0.0324,0.013523,0.002678,0.000431,0.009990
25531000,0.0324,0.013523,0.002678,0.000431,0.004701
25532000,0.0324,0.013523,0.002678,0.000431,0.091907
25533000,0.0324,0.013523,0.002678,0.000431,0.030322
25534000,0.0324,0.013523,0.002678,0.000431,0.011988
25535000,0.0324,0.013523,0.002678,0.000431,0.004701
25536000,0.0324,0.013523,0.002678,0.000431,0.057354
25537000,0.0324,0.013523,0.002678,0.000431,0.004701
25538000,0.0324,0.013523,0.002678,0.000431,0.027267
25539000,0.0324,0.013523,0.002678,0.000431,0.012223
25540000,0.0324,0.013523,0.002678,0.000431,0.019980
25541000,0.0324,0.013523,0.002678,0.000431,0.004701
25542000,0.0324,0.013523,0.002678,0.000431,0.019745
25543000,0.0324,0.013523,0.002678,0.000431,0.004701
25544000,0.0324,0.013523,0.002678,0.000431,0.004701
25545000,0.0324,0.013523,0.002678,0.000431,0.011988
25546000,0.0324,0.013523,0.002678,0.000431,0.102485
25547000,0.0324,0.013523,0.002678,0.000431,0.065111
25548000,0.0324,0.013523,0.002678,0.000431,0.004701
25549000,0.0324,0.013523,0.002678,0.000431,0.076511
25550000,0.0324,0.013523,0.002678,0.000431,0.008345
25551000,0.0324,0.013523,0.002678,0.000431,0.042310
25552000,0.0324,0.013523,0.002678,0.000431,0.012223
25553000,0.0324,0.013523,0.002678,0.000431,0.004701
25554000,0.0324,0.013523,0.002678,0.000431,0.004701
25555000,0.0324,0.013523,0.002678,0.000431,0.004701
25556000,0.0324,0.013523,0.002678,0.000431,0.011988
25557000,0.0324,0.013523,0.002678,0.000431,0.060057
25558000,0.0324,0.013523,0.002678,0.000431,0.009520
25559000,0.0324,0.013523,0.002678,0.000431,0.080154
25560000,0.0324,0.013523,0.002678,0.000431,0.042545
25561000,0.0324,0.013523,0.002678,0.000431,0.004701
25562000,0.0324,0.013523,0.002678,0.000431,0.012223
25563000,0.0324,0.013523,0.002678,0.000431,0.004701
25564000,0.0324,0.013523,0.002678,0.000431,0.050067
25565000,0.0324,0.013523,0.002678,0.000431,0.019862
25566000,0.0324,0.013523,0.002678,0.000431,0.004584
25567000,0.0324,0.013523,0.002678,0.000431,0.019745
25568000,0.0324,0.013523,0.002678,0.000431,0.004701
25569000,0.0324,0.013523,0.002678,0.000431,0.004701
25570000,0.0324,0.013523,0.002678,0.000431,0.012223
25571000,0.0324,0.013523,0.002678,0.000431,0.004701
25572000,0.0324,0.013523,0.002678,0.000431,0.042310
25573000,0.0324,0.013523,0.002678,0.000431,0.034671
25574000,0.0324,0.013523,0.002678,0.000431,0.034671
25575000,0.0324,0.013523,0.002678,0.000431,0.019980
25576000,0.0324,0.013523,0.002678,0.000431,0.004701
25577000,0.0324,0.013523,0.002678,0.000431,0.072397
25578000,0.0324,0.013523,0.002678,0.000431,0.004701
25579000,0.0324,0.013523,0.002678,0.000431,0.004701
25580000,0.0324,0.013523,0.002678,0.000431,0.012458
25581000,0.0324,0.013523,0.002678,0.000431,0.004701
25582000,0.0324,0.013523,0.002678,0.000431,0.019745
25583000,0.0324,0.013523,0.002678,0.000431,0.014926
25584000,0.0324,0.013523,0.002678,0.000431,0.009520
25585000,0.0324,0.013523,0.002678,0.000431,0.004701
25586000,0.0324,0.013523,0.002678,0.000431,0.004701
25587000,0.0324,0.013523,0.002678,0.000431,0.004701
25588000,0.0324,0.013523,0.002678,0.000431,0.004466
25589000,0.0324,0.013523,0.002678,0.000431,0.004701
25590000,0.0324,0.013523,0.002678,0.000431,0.034788
25591000,0.0324,0.013523,0.002678,0.000431,0.090614
25592000,0.0324,0.013523,0.002678,0.000431,0.069224
25593000,0.0324,0.013523,0.002678,0.000431,0.056884
25594000,0.0324,0.013523,0.002678,0.000431,0.133512
25595000,0.0324,0.013523,0.002678,0.000431,0.078979
25596000,0.0324,0.013523,0.002678,0.000431,0.015749
25597000,0.0324,0.013523,0.002678,0.000431,0.008462
25598000,0.0324,0.013523,0.002678,0.000431,0.004701
25599000,0.0324,0.013523,0.002678,0.000431,0.004701
25600000,0.0324,0.013523,0.002678,0.000431,0.019745
25601000,0.0324,0.013523,0.002678,0.000431,0.027267
25602000,0.0324,0.013523,0.002678,0.000431,0.004701
25603000,0.0324,0.013523,0.002678,0.000431,0.004701
25604000,0.0324,0.013523,0.002678,0.000431,0.015984
25605000,0.0324,0.013523,0.002678,0.000431,0.015984
25606000,0.0324,0.013523,0.002678,0.000431,0.004701
25607000,0.0324,0.013523,0.002678,0.000431,0.019745
25608000,0.0324,0.013523,0.002678,0.000431,0.042310
25609000,0.0324,0.013523,0.002678,0.000431,0.004701
25610000,0.0324,0.013523,0.002678,0.000431,0.015749
25611000,0.0324,0.013523,0.002678,0.000431,0.091202
25612000,0.0324,0.013523,0.002678,0.000431,0.004701
25613000,0.0324,0.013523,0.002678,0.000431,0.012458
25614000,0.0324,0.013523,0.002678,0.000431,0.035611
25615000,0.0324,0.013523,0.002678,0.000431,0.011400
25616000,0.0324,0.013523,0.002678,0.000431,0.004701
25617000,0.0324,0.013523,0.002678,0.000431,0.051125
25618000,0.0324,0.013523,0.002678,0.000431,0.049009
25619000,0.0324,0.013523,0.002678,0.000431,0.004701
25620000,0.0324,0.013523,0.002678,0.000431,0.013398
25621000,0.0324,0.013523,0.002678,0.000431,0.108596
25622000,0.0324,0.013523,0.002678,0.000431,0.004701
25623000,0.0324,0.013523,0.002678,0.000431,0.004701
25624000,0.0324,0.013523,0.002678,0.000431,0.034788
25625000,0.0324,0.013523,0.002678,0.000431,0.004701
25626000,0.0324,0.013523,0.002678,0.000431,0.004701
25627000,0.0324,0.013523,0.002678,0.000431,0.009990
25628000,0.0324,0.013523,0.002678,0.000431,0.006582
25629000,0.0324,0.013523,0.002678,0.000431,0.004584
25630000,0.0324,0.013523,0.002678,0.000431,0.004701
25631000,0.0324,0.013523,0.002678,0.000431,0.008462
25632000,0.0324,0.013523,0.002678,0.000431,0.015984
25633000,0.0324,0.013523,0.002678,0.000431,0.012223
25634000,0.0324,0.013523,0.002678,0.000431,0.079919
25635000,0.0324,0.013523,0.002678,0.000431,0.008227
25636000,0.0324,0.013523,0.002678,0.000431,0.045954
25637000,0.0324,0.013523,0.002678,0.000431,0.019627
25638000,0.0324,0.013523,0.002678,0.000431,0.004701
25639000,0.0324,0.013523,0.002678,0.000431,0.004701
25640000,0.0324,0.013523,0.002678,0.000431,0.063348
25641000,0.0324,0.013523,0.002678,0.000431,0.028794
25642000,0.0324,0.013523,0.002678,0.000431,0.004701
25643000,0.0324,0.013523,0.002678,0.000431,0.004701
25644000,0.0324,0.013523,0.002678,0.000431,0.004701
25645000,0.0324,0.013523,0.002678,0.000431,0.004701
25646000,0.0324,0.013523,0.002678,0.000431,0.023506
25647000,0.0324,0.013523,0.002678,0.000431,0.015984
25648000,0.0324,0.013523,0.002678,0.000431,0.004701
25649000,0.0324,0.013523,0.002678,0.000431,0.004701
25650000,0.0324,0.013523,0.002678,0.000431,0.004936
25651000,0.0324,0.013523,0.002678,0.000431,0.004701
25652000,0.0324,0.013523,0.002678,0.000431,0.004701
25653000,0.0324,0.013523,0.002678,0.000431,0.027267
25654000,0.0324,0.013523,0.002678,0.000431,0.004701
25655000,0.0324,0.013523,0.002678,0.000431,0.004701
25656000,0.0324,0.013523,0.002678,0.000431,0.053593
25657000,0.0324,0.013523,0.002678,0.000431,0.083445
25658000,0.0324,0.013523,0.002678,0.000431,0.004701
25659000,0.0324,0.013523,0.002678,0.000431,0.008462
25660000,0.0324,0.013523,0.002678,0.000431,0.019745
25661000,0.0324,0.013523,0.002678,0.000431,0.008227
25662000,0.0324,0.013523,0.002678,0.000431,0.022565
25663000,0.0324,0.013523,0.002678,0.000431,0.032203
25664000,0.0324,0.013523,0.002678,0.000431,0.004701
25665000,0.0324,0.013523,0.002678,0.000431,0.004701
25666000,0.0324,0.013523,0.002678,0.000431,0.004701
25667000,0.0324,0.013523,0.002678,0.000431,0.034788
25668000,0.0324,0.013523,0.002678,0.000431,0.004584
25669000,0.0324,0.013523,0.002678,0.000431,0.053475
25670000,0.0324,0.013523,0.002678,0.000431,0.083680
25671000,0.0324,0.013523,0.002678,0.000431,0.004701
25672000,0.0324,0.013523,0.002678,0.000431,0.040430
25673000,0.0324,0.013523,0.002678,0.000431,0.014103
25674000,0.0324,0.013523,0.002678,0.000431,0.012223
25675000,0.0324,0.013523,0.002678,0.000431,0.008462
25676000,0.0324,0.013523,0.002678,0.000431,0.008345
25677000,0.0324,0.013523,0.002678,0.000431,0.004584
25678000,0.0324,0.013523,0.002678,0.000431,0.004701
25679000,0.0324,0.013523,0.002678,0.000431,0.072632
25680000,0.0324,0.013523,0.002678,0.000431,0.004701
25681000,0.0324,0.013523,0.002678,0.000431,0.004701
25682000,0.0324,0.013523,0.002678,0.000431,0.004701
25683000,0.0324,0.013523,0.002678,0.000431,0.004701
25684000,0.0324,0.013523,0.002678,0.000431,0.004701
25685000,0.0324,0.013523,0.002678,0.000431,0.013281
25686000,0.0324,0.013523,0.002678,0.000431,0.071105
25687000,0.0324,0.013523,0.002678,0.000431,0.103425
25688000,0.0324,0.013523,0.002678,0.000431,0.044661
25689000,0.0324,0.013523,0.002678,0.000431,0.061115
25690000,0.0324,0.013523,0.002678,0.000431,0.004701
25691000,0.0324,0.013523,0.002678,0.000431,0.004701
25692000,0.0324,0.013523,0.002678,0.000431,0.012223
25693000,0.0324,0.013523,0.002678,0.000431,0.004701
25694000,0.0324,0.013523,0.002678,0.000431,0.019745
25695000,0.0324,0.013523,0.002678,0.000431,0.004466
25696000,0.0324,0.013523,0.002678,0.000431,0.004701
25697000,0.0324,0.013523,0.002678,0.000431,0.004701
25698000,0.0324,0.013523,0.002678,0.000431,0.006347
25699000,0.0324,0.013523,0.002678,0.000431,0.010578
25700000,0.0324,0.013523,0.002678,0.000431,0.004701
25701000,0.0324,0.013523,0.002678,0.000431,0.012223
25702000,0.0324,0.013523,0.002678,0.000431,0.012223
25703000,0.0324,0.013523,0.002678,0.000431,0.004701
25704000,0.0324,0.013523,0.002678,0.000431,0.004701
25705000,0.0324,0.013523,0.002678,0.000431,0.012223
25706000,0.0324,0.013523,0.002678,0.000431,0.004701
25707000,0.0324,0.013523,0.002678,0.000431,0.049832
25708000,0.0324,0.013523,0.002678,0.000431,0.118821
25709000,0.0324,0.013523,0.002678,0.000431,0.040782
25710000,0.0324,0.013523,0.002678,0.000431,0.004701
25711000,0.0324,0.013523,0.002678,0.000431,0.008462
25712000,0.0324,0.013523,0.002678,0.000431,0.008462
25713000,0.0324,0.013523,0.002678,0.000431,0.004701
25714000,0.0324,0.013523,0.002678,0.000431,0.004701
25715000,0.0324,0.013523,0.002678,0.000431,0.012223
25716000,0.0324,0.013523,0.002678,0.000431,0.004701
25717000,0.0324,0.013523,0.002678,0.000431,0.004466
25718000,0.0324,0.013523,0.002678,0.000431,0.004701
25719000,0.0324,0.013523,0.002678,0.000431,0.004701
25720000,0.0324,0.013523,0.002678,0.000431,0.034788
25721000,0.0324,0.013523,0.002678,0.000431,0.058294
25722000,0.0324,0.013523,0.002678,0.000431,0.123875
25723000,0.0324,0.013523,0.002678,0.000431,0.004701
25724000,0.0324,0.013523,0.002678,0.000431,0.004701
25725000,0.0324,0.013523,0.002678,0.000431,0.012105
25726000,0.0324,0.013523,0.002678,0.000431,0.004584
25727000,0.0324,0.013523,0.002678,0.000431,0.004701
25728000,0.0324,0.013523,0.002678,0.000431,0.057589
25729000,0.0324,0.013523,0.002678,0.000431,0.027031
25730000,0.0324,0.013523,0.002678,0.000431,0.004701
25731000,0.0324,0.013523,0.002678,0.000431,0.004701
25732000,0.0324,0.013523,0.002678,0.000431,0.004701
25733000,0.0324,0.013523,0.002678,0.000431,0.012223
25734000,0.0324,0.013523,0.002678,0.000431,0.019745
25735000,0.0324,0.013523,0.002678,0.000431,0.004936
25736000,0.0324,0.013523,0.002678,0.000431,0.004701
25737000,0.0324,0.013523,0.002678,0.000431,0.010695
25738000,0.0324,0.013523,0.002678,0.000431,0.028794
25739000,0.0324,0.013523,0.002678,0.000431,0.004701
25740000,0.0324,0.013523,0.002678,0.000431,0.012223
25741000,0.0324,0.013523,0.002678,0.000431,0.034788
25742000,0.0324,0.013523,0.002678,0.000431,0.004701
25743000,0.0324,0.013523,0.002678,0.000431,0.004701
25744000,0.0324,0.013523,0.002678,0.000431,0.004701
25745000,0.0324,0.013523,0.002678,0.000431,0.004701
25746000,0.0324,0.013523,0.002678,0.000431,0.012105
25747000,0.0324,0.013523,0.002678,0.000431,0.019862
25748000,0.0324,0.013523,0.002678,0.000431,0.004584
25749000,0.0324,0.013523,0.002678,0.000431,0.004584
25750000,0.0324,0.013523,0.002678,0.000431,0.004584
25751000,0.0324,0.013523,0.002678,0.000431,0.004584
25752000,0.0324,0.013523,0.002678,0.000431,0.004701
25753000,0.0324,0.013523,0.002678,0.000431,0.004701
25754000,0.0324,0.013523,0.002678,0.000431,0.063230
25755000,0.0324,0.013523,0.002678,0.000431,0.013868
25756000,0.0324,0.013523,0.002678,0.000431,0.004701
25757000,0.0324,0.013523,0.002678,0.000431,0.004584
25758000,0.0324,0.013523,0.002678,0.000431,0.012105
25759000,0.0324,0.013523,0.002678,0.000431,0.008462
25760000,0.0324,0.013523,0.002678,0.000431,0.031027
25761000,0.0324,0.013523,0.002678,0.000431,0.064876
25762000,0.0324,0.013523,0.002678,0.000431,0.004701
25763000,0.0324,0.013523,0.002678,0.000431,0.018805
25764000,0.0324,0.013523,0.002678,0.000431,0.028207
25765000,0.0324,0.013523,0.002678,0.000431,0.004701
25766000,0.0324,0.013523,0.002678,0.000431,0.004701
25767000,0.0324,0.013523,0.002678,0.000431,0.027267
25768000,0.0324,0.013523,0.002678,0.000431,0.004701
25769000,0.0324,0.013523,0.002678,0.000431,0.004701
25770000,0.0324,0.013523,0.002678,0.000431,0.064876
25771000,0.0324,0.013523,0.002678,0.000431,0.004701
25772000,0.0324,0.013523,0.002678,0.000431,0.019745
25773000,0.0324,0.013523,0.002678,0.000431,0.014456
25774000,0.0324,0.013523,0.002678,0.000431,0.092730
25775000,0.0324,0.013523,0.002678,0.000431,0.004701
25776000,0.0324,0.013523,0.002678,0.000431,0.004701
25777000,0.0324,0.013523,0.002678,0.000431,0.042310
25778000,0.0324,0.013523,0.002678,0.000431,0.004701
25779000,0.0324,0.013523,0.002678,0.000431,0.012223
25780000,0.0324,0.013523,0.002678,0.000431,0.019745
25781000,0.0324,0.013523,0.002678,0.000431,0.004701
25782000,0.0324,0.013523,0.002678,0.000431,0.004701
25783000,0.0324,0.013523,0.002678,0.000431,0.027267
25784000,0.0324,0.013523,0.002678,0.000431,0.019745
25785000,0.0324,0.013523,0.002678,0.000431,0.012223
25786000,0.0324,0.013523,0.002678,0.000431,0.008462
25787000,0.0324,0.013523,0.002678,0.000431,0.015984
25788000,0.0324,0.013523,0.002678,0.000431,0.004584
25789000,0.0324,0.013523,0.002678,0.000431,0.004584
25790000,0.0324,0.013523,0.002678,0.000431,0.004701
25791000,0.0324,0.013523,0.002678,0.000431,0.012223
25792000,0.0324,0.013523,0.002678,0.000431,0.004701
25793000,0.0324,0.013523,0.002678,0.000431,0.083563
25794000,0.0324,0.013523,0.002678,0.000431,0.016336
25795000,0.0324,0.013523,0.002678,0.000431,0.004701
25796000,0.0324,0.013523,0.002678,0.000431,0.004701
25797000,0.0324,0.013523,0.002678,0.000431,0.004584
25798000,0.0324,0.013523,0.002678,0.000431,0.004584
25799000,0.0324,0.013523,0.002678,0.000431,0.004466
25800000,0.0324,0.013523,0.002678,0.000431,0.019745
25801000,0.0324,0.013523,0.002678,0.000431,0.012223
25802000,0.0324,0.013523,0.002678,0.000431,0.004701
25803000,0.0324,0.013523,0.002678,0.000431,0.015984
25804000,0.0324,0.013523,0.002678,0.000431,0.015984
25805000,0.0324,0.013523,0.002678,0.000431,0.019745
25806000,0.0324,0.013523,0.002678,0.000431,0.011988
25807000,0.0324,0.013523,0.002678,0.000431,0.004701
25808000,0.0324,0.013523,0.002678,0.000431,0.004701
25809000,0.0324,0.013523,0.002678,0.000431,0.065111
25810000,0.0324,0.013523,0.002678,0.000431,0.004701
25811000,0.0324,0.013523,0.002678,0.000431,0.008462
25812000,0.0324,0.013523,0.002678,0.000431,0.061115
25813000,0.0324,0.013523,0.002678,0.000431,0.012223
25814000,0.0324,0.013523,0.002678,0.000431,0.004701
25815000,0.0324,0.013523,0.002678,0.000431,0.004701
25816000,0.0324,0.013523,0.002678,0.000431,0.027267
25817000,0.0324,0.013523,0.002678,0.000431,0.004701
25818000,0.0324,0.013523,0.002678,0.000431,0.004701
25819000,0.0324,0.013523,0.002678,0.000431,0.004701
25820000,0.0324,0.013523,0.002678,0.000431,0.057354
25821000,0.0324,0.013523,0.002678,0.000431,0.004701
25822000,0.0324,0.013523,0.002678,0.000431,0.012223
25823000,0.0324,0.013523,0.002678,0.000431,0.004701
25824000,0.0324,0.013523,0.002678,0.000431,0.004701
25825000,0.0324,0.013523,0.002678,0.000431,0.012223
25826000,0.0324,0.013523,0.002678,0.000431,0.004701
25827000,0.0324,0.013523,0.002678,0.000431,0.004701
25828000,0.0324,0.013523,0.002678,0.000431,0.004701
25829000,0.0324,0.013523,0.002678,0.000431,0.064876
25830000,0.0324,0.013523,0.002678,0.000431,0.004701
25831000,0.0324,0.013523,0.002678,0.000431,0.057119
25832000,0.0324,0.013523,0.002678,0.000431,0.004701
25833000,0.0324,0.013523,0.002678,0.000431,0.012223
25834000,0.0324,0.013523,0.002678,0.000431,0.004701
25835000,0.0324,0.013523,0.002678,0.000431,0.019745
25836000,0.0324,0.013523,0.002678,0.000431,0.004701
25837000,0.0324,0.013523,0.002678,0.000431,0.004701
25838000,0.0324,0.013523,0.002678,0.000431,0.008227
25839000,0.0324,0.013523,0.002678,0.000431,0.083445
25840000,0.0324,0.013523,0.002678,0.000431,0.004701
25841000,0.0324,0.013523,0.002678,0.000431,0.004701
25842000,0.0324,0.013523,0.002678,0.000431,0.004701
25843000,0.0324,0.013523,0.002678,0.000431,0.004701
25844000,0.0324,0.013523,0.002678,0.000431,0.049832
25845000,0.0324,0.013523,0.002678,0.000431,0.031615
25846000,0.0324,0.013523,0.002678,0.000431,0.045718
25847000,0.0324,0.013523,0.002678,0.000431,0.004701
25848000,0.0324,0.013523,0.002678,0.000431,0.015984
25849000,0.0324,0.013523,0.002678,0.000431,0.008462
25850000,0.0324,0.013523,0.002678,0.000431,0.004701
25851000,0.0324,0.013523,0.002678,0.000431,0.004701
25852000,0.0324,0.013523,0.002678,0.000431,0.027267
25853000,0.0324,0.013523,0.002678,0.000431,0.012223
25854000,0.0324,0.013523,0.002678,0.000431,0.004701
25855000,0.0324,0.013523,0.002678,0.000431,0.019745
25856000,0.0324,0.013523,0.002678,0.000431,0.004701
25857000,0.0324,0.013523,0.002678,0.000431,0.008580
25858000,0.0324,0.013523,0.002678,0.000431,0.045718
25859000,0.0324,0.013523,0.002678,0.000431,0.049832
25860000,0.0324,0.013523,0.002678,0.000431,0.004701
25861000,0.0324,0.013523,0.002678,0.000431,0.008462
25862000,0.0324,0.013523,0.002678,0.000431,0.008462
25863000,0.0324,0.013523,0.002678,0.000431,0.004701
25864000,0.0324,0.013523,0.002678,0.000431,0.019745
25865000,0.0324,0.013523,0.002678,0.000431,0.004701
25866000,0.0324,0.013523,0.002678,0.000431,0.019510
25867000,0.0324,0.013523,0.002678,0.000431,0.004701
25868000,0.0324,0.013523,0.002678,0.000431,0.012223
25869000,0.0324,0.013523,0.002678,0.000431,0.004701
25870000,0.0324,0.013523,0.002678,0.000431,0.042310
25871000,0.0324,0.013523,0.002678,0.000431,0.011988
25872000,0.0324,0.013523,0.002678,0.000431,0.027267
25873000,0.0324,0.013523,0.002678,0.000431,0.004701
25874000,0.0324,0.013523,0.002678,0.000431,0.004701
25875000,0.0324,0.013523,0.002678,0.000431,0.004701
25876000,0.0324,0.013523,0.002678,0.000431,0.004701
25877000,0.0324,0.013523,0.002678,0.000431,0.019745
25878000,0.0324,0.013523,0.002678,0.000431,0.004701
25879000,0.0324,0.013523,0.002678,0.000431,0.004584
25880000,0.0324,0.013523,0.002678,0.000431,0.004584
25881000,0.0324,0.013523,0.002678,0.000431,0.042310
25882000,0.0324,0.013523,0.002678,0.000431,0.004701
25883000,0.0324,0.013523,0.002678,0.000431,0.084385
25884000,0.0324,0.013523,0.002678,0.000431,0.011283
25885000,0.0324,0.013523,0.002678,0.000431,0.008462
25886000,0.0324,0.013523,0.002678,0.000431,0.004701
25887000,0.0324,0.013523,0.002678,0.000431,0.027502
25888000,0.0324,0.013523,0.002678,0.000431,0.034553
25889000,0.0324,0.013523,0.002678,0.000431,0.004701
25890000,0.0324,0.013523,0.002678,0.000431,0.004701
25891000,0.0324,0.013523,0.002678,0.000431,0.032085
25892000,0.0324,0.013523,0.002678,0.000431,0.022448
25893000,0.0324,0.013523,0.002678,0.000431,0.004701
25894000,0.0324,0.013523,0.002678,0.000431,0.004701
25895000,0.0324,0.013523,0.002678,0.000431,0.004701
25896000,0.0324,0.013523,0.002678,0.000431,0.019745
25897000,0.0324,0.013523,0.002678,0.000431,0.015866
25898000,0.0324,0.013523,0.002678,0.000431,0.098606
25899000,0.0324,0.013523,0.002678,0.000431,0.004701
25900000,0.0324,0.013523,0.002678,0.000431,0.004701
25901000,0.0324,0.013523,0.002678,0.000431,0.004701
25902000,0.0324,0.013523,0.002678,0.000431,0.004701
25903000,0.0324,0.013523,0.002678,0.000431,0.012223
25904000,0.0324,0.013523,0.002678,0.000431,0.019745
25905000,0.0324,0.013523,0.002678,0.000431,0.004701
25906000,0.0324,0.013523,0.002678,0.000431,0.004584
25907000,0.0324,0.013523,0.002678,0.000431,0.004584
25908000,0.0324,0.013523,0.002678,0.000431,0.004701
25909000,0.0324,0.013523,0.002678,0.000431,0.004701
25910000,0.0324,0.013523,0.002678,0.000431,0.006111
25911000,0.0324,0.013523,0.002678,0.000431,0.033378
25912000,0.0324,0.013523,0.002678,0.000431,0.004701
25913000,0.0324,0.013523,0.002678,0.000431,0.008462
25914000,0.0324,0.013523,0.002678,0.000431,0.008462
25915000,0.0324,0.013523,0.002678,0.000431,0.006347
25916000,0.0324,0.013523,0.002678,0.000431,0.010578
25917000,0.0324,0.013523,0.002678,0.000431,0.019745
25918000,0.0324,0.013523,0.002678,0.000431,0.004584
25919000,0.0324,0.013523,0.002678,0.000431,0.004466
25920000,0.0324,0.013523,0.002678,0.000431,0.004584
25921000,0.0324,0.013523,0.002678,0.000431,0.004701
25922000,0.0324,0.013523,0.002678,0.000431,0.012223
25923000,0.0324,0.013523,0.002678,0.000431,0.004701
25924000,0.0324,0.013523,0.002678,0.000431,0.004701
25925000,0.0324,0.013523,0.002678,0.000431,0.004701
25926000,0.0324,0.013523,0.002678,0.000431,0.004701
25927000,0.0324,0.013523,0.002678,0.000431,0.004701
25928000,0.0324,0.013523,0.002678,0.000431,0.004701
25929000,0.0324,0.013523,0.002678,0.000431,0.004701
25930000,0.0324,0.013523,0.002678,0.000431,0.012223
25931000,0.0324,0.013523,0.002678,0.000431,0.004701
25932000,0.0324,0.013523,0.002678,0.000431,0.004701
25933000,0.0324,0.013523,0.002678,0.000431,0.049832
25934000,0.0324,0.013523,0.002678,0.000431,0.004701
25935000,0.0324,0.013523,0.002678,0.000431,0.019745
25936000,0.0324,0.013523,0.002678,0.000431,0.008462
25937000,0.0324,0.013523,0.002678,0.000431,0.008462
25938000,0.0324,0.013523,0.002678,0.000431,0.004466
25939000,0.0324,0.013523,0.002678,0.000431,0.026796
25940000,0.0324,0.013523,0.002678,0.000431,0.042780
25941000,0.0324,0.013523,0.002678,0.000431,0.010930
25942000,0.0324,0.013523,0.002678,0.000431,0.028559
25943000,0.0324,0.013523,0.002678,0.000431,0.012223
25944000,0.0324,0.013523,0.002678,0.000431,0.042310
25945000,0.0324,0.013523,0.002678,0.000431,0.004701
25946000,0.0324,0.013523,0.002678,0.000431,0.004584
25947000,0.0324,0.013523,0.002678,0.000431,0.004584
25948000,0.0324,0.013523,0.002678,0.000431,0.004701
25949000,0.0324,0.013523,0.002678,0.000431,0.010342
25950000,0.0324,0.013523,0.002678,0.000431,0.044191
25951000,0.0324,0.013523,0.002678,0.000431,0.004701
25952000,0.0324,0.013523,0.002678,0.000431,0.004701
25953000,0.0324,0.013523,0.002678,0.000431,0.004701
25954000,0.0324,0.013523,0.002678,0.000431,0.014809
25955000,0.0324,0.013523,0.002678,0.000431,0.009637
25956000,0.0324,0.013523,0.002678,0.000431,0.008462
25957000,0.0324,0.013523,0.002678,0.000431,0.008462
25958000,0.0324,0.013523,0.002678,0.000431,0.004701
25959000,0.0324,0.013523,0.002678,0.000431,0.019745
25960000,0.0324,0.013523,0.002678,0.000431,0.011753
25961000,0.0324,0.013523,0.002678,0.000431,0.057354
25962000,0.0324,0.013523,0.002678,0.000431,0.004701
25963000,0.0324,0.013523,0.002678,0.000431,0.057354
25964000,0.0324,0.013523,0.002678,0.000431,0.004701
25965000,0.0324,0.013523,0.002678,0.000431,0.004701
25966000,0.0324,0.013523,0.002678,0.000431,0.019745
25967000,0.0324,0.013523,0.002678,0.000431,0.018805
25968000,0.0324,0.013523,0.002678,0.000431,0.028207
25969000,0.0324,0.013523,0.002678,0.000431,0.063935
25970000,0.0324,0.013523,0.002678,0.000431,0.020685
25971000,0.0324,0.013523,0.002678,0.000431,0.004701
25972000,0.0324,0.013523,0.002678,0.000431,0.004584
25973000,0.0324,0.013523,0.002678,0.000431,0.004584
25974000,0.0324,0.013523,0.002678,0.000431,0.012223
25975000,0.0324,0.013523,0.002678,0.000431,0.004701
25976000,0.0324,0.013523,0.002678,0.000431,0.027267
25977000,0.0324,0.013523,0.002678,0.000431,0.004701
25978000,0.0324,0.013523,0.002678,0.000431,0.004701
25979000,0.0324,0.013523,0.002678,0.000431,0.004701
25980000,0.0324,0.013523,0.002678,0.000431,0.004701
25981000,0.0324,0.013523,0.002678,0.000431,0.004701
25982000,0.0324,0.013523,0.002678,0.000431,0.039607
25983000,0.0324,0.013523,0.002678,0.000431,0.022448
25984000,0.0324,0.013523,0.002678,0.000431,0.004701
25985000,0.0324,0.013523,0.002678,0.000431,0.050772
25986000,0.0324,0.013523,0.002678,0.000431,0.018805
25987000,0.0324,0.013523,0.002678,0.000431,0.019510
25988000,0.0324,0.013523,0.002678,0.000431,0.004701
25989000,0.0324,0.013523,0.002678,0.000431,0.057354
25990000,0.0324,0.013523,0.002678,0.000431,0.004701
25991000,0.0324,0.013523,0.002678,0.000431,0.004701
25992000,0.0324,0.013523,0.002678,0.000431,0.004701
25993000,0.0324,0.013523,0.002678,0.000431,0.019745
25994000,0.0324,0.013523,0.002678,0.000431,0.004701
25995000,0.0324,0.013523,0.002678,0.000431,0.046894
25996000,0.0324,0.013523,0.002678,0.000431,0.060292
25997000,0.0324,0.013523,0.002678,0.000431,0.004701
25998000,0.0324,0.013523,0.002678,0.000431,0.027267
25999000,0.0324,0.013523,0.002678,0.000431,0.004349
