Cycle,Area(mm^2),PeakDynamic(W),SubthresholdLeakage(W),GateLeakage(W),RunTimeDynamic(W)
5000000,0.0324,0.013523,0.002678,0.000431,0.000353
5001000,0.0324,0.013523,0.002678,0.000431,0.000235
5002000,0.0324,0.013523,0.002678,0.000431,0.000353
5003000,0.0324,0.013523,0.002678,0.000431,0.000353
5004000,0.0324,0.013523,0.002678,0.000431,0.000235
5005000,0.0324,0.013523,0.002678,0.000431,0.000353
5006000,0.0324,0.013523,0.002678,0.000431,0.000470
5007000,0.0324,0.013523,0.002678,0.000431,0.000353
5008000,0.0324,0.013523,0.002678,0.000431,0.000235
5009000,0.0324,0.013523,0.002678,0.000431,0.000353
5010000,0.0324,0.013523,0.002678,0.000431,0.000353
5011000,0.0324,0.013523,0.002678,0.000431,0.000235
5012000,0.0324,0.013523,0.002678,0.000431,0.000353
5013000,0.0324,0.013523,0.002678,0.000431,0.000470
5014000,0.0324,0.013523,0.002678,0.000431,0.000353
5015000,0.0324,0.013523,0.002678,0.000431,0.000118
5016000,0.0324,0.013523,0.002678,0.000431,0.000470
5017000,0.0324,0.013523,0.002678,0.000431,0.000353
5018000,0.0324,0.013523,0.002678,0.000431,0.000235
5019000,0.0324,0.013523,0.002678,0.000431,0.000353
5020000,0.0324,0.013523,0.002678,0.000431,0.000470
5021000,0.0324,0.013523,0.002678,0.000431,0.000353
5022000,0.0324,0.013523,0.002678,0.000431,0.000118
5023000,0.0324,0.013523,0.002678,0.000431,0.000470
5024000,0.0324,0.013523,0.002678,0.000431,0.000353
5025000,0.0324,0.013523,0.002678,0.000431,0.000235
5026000,0.0324,0.013523,0.002678,0.000431,0.000353
5027000,0.0324,0.013523,0.002678,0.000431,0.000470
5028000,0.0324,0.013523,0.002678,0.000431,0.000353
5029000,0.0324,0.013523,0.002678,0.000431,0.000118
5030000,0.0324,0.013523,0.002678,0.000431,0.000470
5031000,0.0324,0.013523,0.002678,0.000431,0.000353
5032000,0.0324,0.013523,0.002678,0.000431,0.000235
5033000,0.0324,0.013523,0.002678,0.000431,0.000353
5034000,0.0324,0.013523,0.002678,0.000431,0.000470
5035000,0.0324,0.013523,0.002678,0.000431,0.000353
5036000,0.0324,0.013523,0.002678,0.000431,0.000118
5037000,0.0324,0.013523,0.002678,0.000431,0.000470
5038000,0.0324,0.013523,0.002678,0.000431,0.000353
5039000,0.0324,0.013523,0.002678,0.000431,0.000235
5040000,0.0324,0.013523,0.002678,0.000431,0.000353
5041000,0.0324,0.013523,0.002678,0.000431,0.000470
5042000,0.0324,0.013523,0.002678,0.000431,0.000235
5043000,0.0324,0.013523,0.002678,0.000431,0.000235
5044000,0.0324,0.013523,0.002678,0.000431,0.000470
5045000,0.0324,0.013523,0.002678,0.000431,0.000353
5046000,0.0324,0.013523,0.002678,0.000431,0.000235
5047000,0.0324,0.013523,0.002678,0.000431,0.000353
5048000,0.0324,0.013523,0.002678,0.000431,0.000470
5049000,0.0324,0.013523,0.002678,0.000431,0.000235
5050000,0.0324,0.013523,0.002678,0.000431,0.000235
5051000,0.0324,0.013523,0.002678,0.000431,0.000470
5052000,0.0324,0.013523,0.002678,0.000431,0.000353
5053000,0.0324,0.013523,0.002678,0.000431,0.000235
5054000,0.0324,0.013523,0.002678,0.000431,0.000353
5055000,0.0324,0.013523,0.002678,0.000431,0.000470
5056000,0.0324,0.013523,0.002678,0.000431,0.000235
5057000,0.0324,0.013523,0.002678,0.000431,0.000235
5058000,0.0324,0.013523,0.002678,0.000431,0.000470
5059000,0.0324,0.013523,0.002678,0.000431,0.000353
5060000,0.0324,0.013523,0.002678,0.000431,0.000235
5061000,0.0324,0.013523,0.002678,0.000431,0.000353
5062000,0.0324,0.013523,0.002678,0.000431,0.000470
5063000,0.0324,0.013523,0.002678,0.000431,0.000235
5064000,0.0324,0.013523,0.002678,0.000431,0.000235
5065000,0.0324,0.013523,0.002678,0.000431,0.000470
5066000,0.0324,0.013523,0.002678,0.000431,0.000353
5067000,0.0324,0.013523,0.002678,0.000431,0.000235
5068000,0.0324,0.013523,0.002678,0.000431,0.000353
5069000,0.0324,0.013523,0.002678,0.000431,0.000470
5070000,0.0324,0.013523,0.002678,0.000431,0.000235
5071000,0.0324,0.013523,0.002678,0.000431,0.000235
5072000,0.0324,0.013523,0.002678,0.000431,0.000470
5073000,0.0324,0.013523,0.002678,0.000431,0.000353
5074000,0.0324,0.013523,0.002678,0.000431,0.000235
5075000,0.0324,0.013523,0.002678,0.000431,0.000353
5076000,0.0324,0.013523,0.002678,0.000431,0.000470
5077000,0.0324,0.013523,0.002678,0.000431,0.000235
5078000,0.0324,0.013523,0.002678,0.000431,0.000235
5079000,0.0324,0.013523,0.002678,0.000431,0.000470
5080000,0.0324,0.013523,0.002678,0.000431,0.000353
5081000,0.0324,0.013523,0.002678,0.000431,0.000235
5082000,0.0324,0.013523,0.002678,0.000431,0.000353
5083000,0.0324,0.013523,0.002678,0.000431,0.000470
5084000,0.0324,0.013523,0.002678,0.000431,0.000118
5085000,0.0324,0.013523,0.002678,0.000431,0.000353
5086000,0.0324,0.013523,0.002678,0.000431,0.000470
5087000,0.0324,0.013523,0.002678,0.000431,0.000353
5088000,0.0324,0.013523,0.002678,0.000431,0.000235
5089000,0.0324,0.013523,0.002678,0.000431,0.000353
5090000,0.0324,0.013523,0.002678,0.000431,0.000470
5091000,0.0324,0.013523,0.002678,0.000431,0.000118
5092000,0.0324,0.013523,0.002678,0.000431,0.000353
5093000,0.0324,0.013523,0.002678,0.000431,0.000470
5094000,0.0324,0.013523,0.002678,0.000431,0.000353
5095000,0.0324,0.013523,0.002678,0.000431,0.000235
5096000,0.0324,0.013523,0.002678,0.000431,0.000353
5097000,0.0324,0.013523,0.002678,0.000431,0.000470
5098000,0.0324,0.013523,0.002678,0.000431,0.000118
5099000,0.0324,0.013523,0.002678,0.000431,0.000353
5100000,0.0324,0.013523,0.002678,0.000431,0.000470
5101000,0.0324,0.013523,0.002678,0.000431,0.000353
5102000,0.0324,0.013523,0.002678,0.000431,0.000235
5103000,0.0324,0.013523,0.002678,0.000431,0.000353
5104000,0.0324,0.013523,0.002678,0.000431,0.000353
5105000,0.0324,0.013523,0.002678,0.000431,0.000235
5106000,0.0324,0.013523,0.002678,0.000431,0.000353
5107000,0.0324,0.013523,0.002678,0.000431,0.000470
5108000,0.0324,0.013523,0.002678,0.000431,0.000353
5109000,0.0324,0.013523,0.002678,0.000431,0.000235
5110000,0.0324,0.013523,0.002678,0.000431,0.000353
5111000,0.0324,0.013523,0.002678,0.000431,0.000353
5112000,0.0324,0.013523,0.002678,0.000431,0.000235
5113000,0.0324,0.013523,0.002678,0.000431,0.000353
5114000,0.0324,0.013523,0.002678,0.000431,0.000470
5115000,0.0324,0.013523,0.002678,0.000431,0.000353
5116000,0.0324,0.013523,0.002678,0.000431,0.000235
5117000,0.0324,0.013523,0.002678,0.000431,0.000353
5118000,0.0324,0.013523,0.002678,0.000431,0.000353
5119000,0.0324,0.013523,0.002678,0.000431,0.000235
5120000,0.0324,0.013523,0.002678,0.000431,0.000353
5121000,0.0324,0.013523,0.002678,0.000431,0.000470
5122000,0.0324,0.013523,0.002678,0.000431,0.000353
5123000,0.0324,0.013523,0.002678,0.000431,0.000235
5124000,0.0324,0.013523,0.002678,0.000431,0.000353
5125000,0.0324,0.013523,0.002678,0.000431,0.000353
5126000,0.0324,0.013523,0.002678,0.000431,0.000235
5127000,0.0324,0.013523,0.002678,0.000431,0.000353
5128000,0.0324,0.013523,0.002678,0.000431,0.000470
5129000,0.0324,0.013523,0.002678,0.000431,0.000353
5130000,0.0324,0.013523,0.002678,0.000431,0.000235
5131000,0.0324,0.013523,0.002678,0.000431,0.000353
5132000,0.0324,0.013523,0.002678,0.000431,0.000353
5133000,0.0324,0.013523,0.002678,0.000431,0.000235
5134000,0.0324,0.013523,0.002678,0.000431,0.000353
5135000,0.0324,0.013523,0.002678,0.000431,0.000470
5136000,0.0324,0.013523,0.002678,0.000431,0.000353
5137000,0.0324,0.013523,0.002678,0.000431,0.000235
5138000,0.0324,0.013523,0.002678,0.000431,0.000353
5139000,0.0324,0.013523,0.002678,0.000431,0.000353
5140000,0.0324,0.013523,0.002678,0.000431,0.000235
5141000,0.0324,0.013523,0.002678,0.000431,0.000353
5142000,0.0324,0.013523,0.002678,0.000431,0.000470
5143000,0.0324,0.013523,0.002678,0.000431,0.000353
5144000,0.0324,0.013523,0.002678,0.000431,0.000235
5145000,0.0324,0.013523,0.002678,0.000431,0.000353
5146000,0.0324,0.013523,0.002678,0.000431,0.000353
5147000,0.0324,0.013523,0.002678,0.000431,0.000235
5148000,0.0324,0.013523,0.002678,0.000431,0.000353
5149000,0.0324,0.013523,0.002678,0.000431,0.000470
5150000,0.0324,0.013523,0.002678,0.000431,0.000353
5151000,0.0324,0.013523,0.002678,0.000431,0.000235
5152000,0.0324,0.013523,0.002678,0.000431,0.000353
5153000,0.0324,0.013523,0.002678,0.000431,0.000353
5154000,0.0324,0.013523,0.002678,0.000431,0.000235
5155000,0.0324,0.013523,0.002678,0.000431,0.000353
5156000,0.0324,0.013523,0.002678,0.000431,0.000470
5157000,0.0324,0.013523,0.002678,0.000431,0.000353
5158000,0.0324,0.013523,0.002678,0.000431,0.000118
5159000,0.0324,0.013523,0.002678,0.000431,0.000470
5160000,0.0324,0.013523,0.002678,0.000431,0.000353
5161000,0.0324,0.013523,0.002678,0.000431,0.000235
5162000,0.0324,0.013523,0.002678,0.000431,0.000353
5163000,0.0324,0.013523,0.002678,0.000431,0.000470
5164000,0.0324,0.013523,0.002678,0.000431,0.000353
5165000,0.0324,0.013523,0.002678,0.000431,0.000118
5166000,0.0324,0.013523,0.002678,0.000431,0.000470
5167000,0.0324,0.013523,0.002678,0.000431,0.000353
5168000,0.0324,0.013523,0.002678,0.000431,0.000235
5169000,0.0324,0.013523,0.002678,0.000431,0.000353
5170000,0.0324,0.013523,0.002678,0.000431,0.000470
5171000,0.0324,0.013523,0.002678,0.000431,0.000353
5172000,0.0324,0.013523,0.002678,0.000431,0.000118
5173000,0.0324,0.013523,0.002678,0.000431,0.000470
5174000,0.0324,0.013523,0.002678,0.000431,0.000353
5175000,0.0324,0.013523,0.002678,0.000431,0.000235
5176000,0.0324,0.013523,0.002678,0.000431,0.000353
5177000,0.0324,0.013523,0.002678,0.000431,0.000470
5178000,0.0324,0.013523,0.002678,0.000431,0.000353
5179000,0.0324,0.013523,0.002678,0.000431,0.000118
5180000,0.0324,0.013523,0.002678,0.000431,0.000470
5181000,0.0324,0.013523,0.002678,0.000431,0.000353
5182000,0.0324,0.013523,0.002678,0.000431,0.000235
5183000,0.0324,0.013523,0.002678,0.000431,0.000353
5184000,0.0324,0.013523,0.002678,0.000431,0.000470
5185000,0.0324,0.013523,0.002678,0.000431,0.000235
5186000,0.0324,0.013523,0.002678,0.000431,0.000235
5187000,0.0324,0.013523,0.002678,0.000431,0.000470
5188000,0.0324,0.013523,0.002678,0.000431,0.000353
5189000,0.0324,0.013523,0.002678,0.000431,0.000235
5190000,0.0324,0.013523,0.002678,0.000431,0.000353
5191000,0.0324,0.013523,0.002678,0.000431,0.000470
5192000,0.0324,0.013523,0.002678,0.000431,0.000235
5193000,0.0324,0.013523,0.002678,0.000431,0.000235
5194000,0.0324,0.013523,0.002678,0.000431,0.000470
5195000,0.0324,0.013523,0.002678,0.000431,0.000353
5196000,0.0324,0.013523,0.002678,0.000431,0.000235
5197000,0.0324,0.013523,0.002678,0.000431,0.000353
5198000,0.0324,0.013523,0.002678,0.000431,0.000470
5199000,0.0324,0.013523,0.002678,0.000431,0.000235
5200000,0.0324,0.013523,0.002678,0.000431,0.000235
5201000,0.0324,0.013523,0.002678,0.000431,0.000470
5202000,0.0324,0.013523,0.002678,0.000431,0.000353
5203000,0.0324,0.013523,0.002678,0.000431,0.000235
5204000,0.0324,0.013523,0.002678,0.000431,0.000353
5205000,0.0324,0.013523,0.002678,0.000431,0.000470
5206000,0.0324,0.013523,0.002678,0.000431,0.000235
5207000,0.0324,0.013523,0.002678,0.000431,0.000235
5208000,0.0324,0.013523,0.002678,0.000431,0.000470
5209000,0.0324,0.013523,0.002678,0.000431,0.000353
5210000,0.0324,0.013523,0.002678,0.000431,0.000235
5211000,0.0324,0.013523,0.002678,0.000431,0.000353
5212000,0.0324,0.013523,0.002678,0.000431,0.000470
5213000,0.0324,0.013523,0.002678,0.000431,0.000235
5214000,0.0324,0.013523,0.002678,0.000431,0.000235
5215000,0.0324,0.013523,0.002678,0.000431,0.000470
5216000,0.0324,0.013523,0.002678,0.000431,0.000353
5217000,0.0324,0.013523,0.002678,0.000431,0.000235
5218000,0.0324,0.013523,0.002678,0.000431,0.000353
5219000,0.0324,0.013523,0.002678,0.000431,0.000470
5220000,0.0324,0.013523,0.002678,0.000431,0.000118
5221000,0.0324,0.013523,0.002678,0.000431,0.000353
5222000,0.0324,0.013523,0.002678,0.000431,0.000470
5223000,0.0324,0.013523,0.002678,0.000431,0.000353
5224000,0.0324,0.013523,0.002678,0.000431,0.000235
5225000,0.0324,0.013523,0.002678,0.000431,0.000353
5226000,0.0324,0.013523,0.002678,0.000431,0.000470
5227000,0.0324,0.013523,0.002678,0.000431,0.000118
5228000,0.0324,0.013523,0.002678,0.000431,0.000353
5229000,0.0324,0.013523,0.002678,0.000431,0.000470
5230000,0.0324,0.013523,0.002678,0.000431,0.000353
5231000,0.0324,0.013523,0.002678,0.000431,0.000235
5232000,0.0324,0.013523,0.002678,0.000431,0.000353
5233000,0.0324,0.013523,0.002678,0.000431,0.000470
5234000,0.0324,0.013523,0.002678,0.000431,0.000118
5235000,0.0324,0.013523,0.002678,0.000431,0.000353
5236000,0.0324,0.013523,0.002678,0.000431,0.000470
5237000,0.0324,0.013523,0.002678,0.000431,0.000353
5238000,0.0324,0.013523,0.002678,0.000431,0.000235
5239000,0.0324,0.013523,0.002678,0.000431,0.000353
5240000,0.0324,0.013523,0.002678,0.000431,0.000470
5241000,0.0324,0.013523,0.002678,0.000431,0.000118
5242000,0.0324,0.013523,0.002678,0.000431,0.000353
5243000,0.0324,0.013523,0.002678,0.000431,0.000470
5244000,0.0324,0.013523,0.002678,0.000431,0.000353
5245000,0.0324,0.013523,0.002678,0.000431,0.000235
5246000,0.0324,0.013523,0.002678,0.000431,0.000353
5247000,0.0324,0.013523,0.002678,0.000431,0.000353
5248000,0.0324,0.013523,0.002678,0.000431,0.000235
5249000,0.0324,0.013523,0.002678,0.000431,0.000353
5250000,0.0324,0.013523,0.002678,0.000431,0.000470
5251000,0.0324,0.013523,0.002678,0.000431,0.000353
5252000,0.0324,0.013523,0.002678,0.000431,0.000235
5253000,0.0324,0.013523,0.002678,0.000431,0.000353
5254000,0.0324,0.013523,0.002678,0.000431,0.000353
5255000,0.0324,0.013523,0.002678,0.000431,0.000235
5256000,0.0324,0.013523,0.002678,0.000431,0.000353
5257000,0.0324,0.013523,0.002678,0.000431,0.000470
5258000,0.0324,0.013523,0.002678,0.000431,0.000353
5259000,0.0324,0.013523,0.002678,0.000431,0.000235
5260000,0.0324,0.013523,0.002678,0.000431,0.000353
5261000,0.0324,0.013523,0.002678,0.000431,0.000353
5262000,0.0324,0.013523,0.002678,0.000431,0.000235
5263000,0.0324,0.013523,0.002678,0.000431,0.000353
5264000,0.0324,0.013523,0.002678,0.000431,0.000470
5265000,0.0324,0.013523,0.002678,0.000431,0.000353
5266000,0.0324,0.013523,0.002678,0.000431,0.000235
5267000,0.0324,0.013523,0.002678,0.000431,0.000353
5268000,0.0324,0.013523,0.002678,0.000431,0.000353
5269000,0.0324,0.013523,0.002678,0.000431,0.000235
5270000,0.0324,0.013523,0.002678,0.000431,0.000353
5271000,0.0324,0.013523,0.002678,0.000431,0.000470
5272000,0.0324,0.013523,0.002678,0.000431,0.000353
5273000,0.0324,0.013523,0.002678,0.000431,0.000235
5274000,0.0324,0.013523,0.002678,0.000431,0.000353
5275000,0.0324,0.013523,0.002678,0.000431,0.000353
5276000,0.0324,0.013523,0.002678,0.000431,0.000235
5277000,0.0324,0.013523,0.002678,0.000431,0.000353
5278000,0.0324,0.013523,0.002678,0.000431,0.000470
5279000,0.0324,0.013523,0.002678,0.000431,0.000353
5280000,0.0324,0.013523,0.002678,0.000431,0.000235
5281000,0.0324,0.013523,0.002678,0.000431,0.000353
5282000,0.0324,0.013523,0.002678,0.000431,0.000353
5283000,0.0324,0.013523,0.002678,0.000431,0.000235
5284000,0.0324,0.013523,0.002678,0.000431,0.000353
5285000,0.0324,0.013523,0.002678,0.000431,0.000470
5286000,0.0324,0.013523,0.002678,0.000431,0.000353
5287000,0.0324,0.013523,0.002678,0.000431,0.000235
5288000,0.0324,0.013523,0.002678,0.000431,0.000353
5289000,0.0324,0.013523,0.002678,0.000431,0.000353
5290000,0.0324,0.013523,0.002678,0.000431,0.000235
5291000,0.0324,0.013523,0.002678,0.000431,0.000353
5292000,0.0324,0.013523,0.002678,0.000431,0.000470
5293000,0.0324,0.013523,0.002678,0.000431,0.000353
5294000,0.0324,0.013523,0.002678,0.000431,0.000235
5295000,0.0324,0.013523,0.002678,0.000431,0.000353
5296000,0.0324,0.013523,0.002678,0.000431,0.000353
5297000,0.0324,0.013523,0.002678,0.000431,0.000235
5298000,0.0324,0.013523,0.002678,0.000431,0.000353
5299000,0.0324,0.013523,0.002678,0.000431,0.000470
5300000,0.0324,0.013523,0.002678,0.000431,0.000353
5301000,0.0324,0.013523,0.002678,0.000431,0.000118
5302000,0.0324,0.013523,0.002678,0.000431,0.000470
5303000,0.0324,0.013523,0.002678,0.000431,0.000353
5304000,0.0324,0.013523,0.002678,0.000431,0.000235
5305000,0.0324,0.013523,0.002678,0.000431,0.000353
5306000,0.0324,0.013523,0.002678,0.000431,0.000470
5307000,0.0324,0.013523,0.002678,0.000431,0.000353
5308000,0.0324,0.013523,0.002678,0.000431,0.000118
5309000,0.0324,0.013523,0.002678,0.000431,0.000470
5310000,0.0324,0.013523,0.002678,0.000431,0.000353
5311000,0.0324,0.013523,0.002678,0.000431,0.000235
5312000,0.0324,0.013523,0.002678,0.000431,0.000353
5313000,0.0324,0.013523,0.002678,0.000431,0.000470
5314000,0.0324,0.013523,0.002678,0.000431,0.000353
5315000,0.0324,0.013523,0.002678,0.000431,0.000118
5316000,0.0324,0.013523,0.002678,0.000431,0.000470
5317000,0.0324,0.013523,0.002678,0.000431,0.000353
5318000,0.0324,0.013523,0.002678,0.000431,0.000235
5319000,0.0324,0.013523,0.002678,0.000431,0.000353
5320000,0.0324,0.013523,0.002678,0.000431,0.000470
5321000,0.0324,0.013523,0.002678,0.000431,0.000235
5322000,0.0324,0.013523,0.002678,0.000431,0.000235
5323000,0.0324,0.013523,0.002678,0.000431,0.000470
5324000,0.0324,0.013523,0.002678,0.000431,0.000353
5325000,0.0324,0.013523,0.002678,0.000431,0.000235
5326000,0.0324,0.013523,0.002678,0.000431,0.000353
5327000,0.0324,0.013523,0.002678,0.000431,0.000470
5328000,0.0324,0.013523,0.002678,0.000431,0.000235
5329000,0.0324,0.013523,0.002678,0.000431,0.000235
5330000,0.0324,0.013523,0.002678,0.000431,0.000470
5331000,0.0324,0.013523,0.002678,0.000431,0.000353
5332000,0.0324,0.013523,0.002678,0.000431,0.000235
5333000,0.0324,0.013523,0.002678,0.000431,0.000353
5334000,0.0324,0.013523,0.002678,0.000431,0.000470
5335000,0.0324,0.013523,0.002678,0.000431,0.000235
5336000,0.0324,0.013523,0.002678,0.000431,0.000235
5337000,0.0324,0.013523,0.002678,0.000431,0.000470
5338000,0.0324,0.013523,0.002678,0.000431,0.000353
5339000,0.0324,0.013523,0.002678,0.000431,0.000235
5340000,0.0324,0.013523,0.002678,0.000431,0.000353
5341000,0.0324,0.013523,0.002678,0.000431,0.000470
5342000,0.0324,0.013523,0.002678,0.000431,0.000235
5343000,0.0324,0.013523,0.002678,0.000431,0.000235
5344000,0.0324,0.013523,0.002678,0.000431,0.000470
5345000,0.0324,0.013523,0.002678,0.000431,0.000353
5346000,0.0324,0.013523,0.002678,0.000431,0.000235
5347000,0.0324,0.013523,0.002678,0.000431,0.000353
5348000,0.0324,0.013523,0.002678,0.000431,0.000470
5349000,0.0324,0.013523,0.002678,0.000431,0.000235
5350000,0.0324,0.013523,0.002678,0.000431,0.000235
5351000,0.0324,0.013523,0.002678,0.000431,0.000470
5352000,0.0324,0.013523,0.002678,0.000431,0.000353
5353000,0.0324,0.013523,0.002678,0.000431,0.000235
5354000,0.0324,0.013523,0.002678,0.000431,0.000353
5355000,0.0324,0.013523,0.002678,0.000431,0.000470
5356000,0.0324,0.013523,0.002678,0.000431,0.000235
5357000,0.0324,0.013523,0.002678,0.000431,0.000235
5358000,0.0324,0.013523,0.002678,0.000431,0.000470
5359000,0.0324,0.013523,0.002678,0.000431,0.000353
5360000,0.0324,0.013523,0.002678,0.000431,0.000235
5361000,0.0324,0.013523,0.002678,0.000431,0.000353
5362000,0.0324,0.013523,0.002678,0.000431,0.000470
5363000,0.0324,0.013523,0.002678,0.000431,0.000118
5364000,0.0324,0.013523,0.002678,0.000431,0.000353
5365000,0.0324,0.013523,0.002678,0.000431,0.000470
5366000,0.0324,0.013523,0.002678,0.000431,0.000353
5367000,0.0324,0.013523,0.002678,0.000431,0.000235
5368000,0.0324,0.013523,0.002678,0.000431,0.000353
5369000,0.0324,0.013523,0.002678,0.000431,0.000470
5370000,0.0324,0.013523,0.002678,0.000431,0.000118
5371000,0.0324,0.013523,0.002678,0.000431,0.000353
5372000,0.0324,0.013523,0.002678,0.000431,0.000470
5373000,0.0324,0.013523,0.002678,0.000431,0.000353
5374000,0.0324,0.013523,0.002678,0.000431,0.000235
5375000,0.0324,0.013523,0.002678,0.000431,0.000353
5376000,0.0324,0.013523,0.002678,0.000431,0.000470
5377000,0.0324,0.013523,0.002678,0.000431,0.000118
5378000,0.0324,0.013523,0.002678,0.000431,0.000353
5379000,0.0324,0.013523,0.002678,0.000431,0.000470
5380000,0.0324,0.013523,0.002678,0.000431,0.000353
5381000,0.0324,0.013523,0.002678,0.000431,0.000235
5382000,0.0324,0.013523,0.002678,0.000431,0.000353
5383000,0.0324,0.013523,0.002678,0.000431,0.000470
5384000,0.0324,0.013523,0.002678,0.000431,0.000118
5385000,0.0324,0.013523,0.002678,0.000431,0.000353
5386000,0.0324,0.013523,0.002678,0.000431,0.000470
5387000,0.0324,0.013523,0.002678,0.000431,0.000353
5388000,0.0324,0.013523,0.002678,0.000431,0.000235
5389000,0.0324,0.013523,0.002678,0.000431,0.000353
5390000,0.0324,0.013523,0.002678,0.000431,0.000353
5391000,0.0324,0.013523,0.002678,0.000431,0.000235
5392000,0.0324,0.013523,0.002678,0.000431,0.000353
5393000,0.0324,0.013523,0.002678,0.000431,0.000470
5394000,0.0324,0.013523,0.002678,0.000431,0.000353
5395000,0.0324,0.013523,0.002678,0.000431,0.000235
5396000,0.0324,0.013523,0.002678,0.000431,0.000353
5397000,0.0324,0.013523,0.002678,0.000431,0.000353
5398000,0.0324,0.013523,0.002678,0.000431,0.000235
5399000,0.0324,0.013523,0.002678,0.000431,0.000353
5400000,0.0324,0.013523,0.002678,0.000431,0.000470
5401000,0.0324,0.013523,0.002678,0.000431,0.000353
5402000,0.0324,0.013523,0.002678,0.000431,0.000235
5403000,0.0324,0.013523,0.002678,0.000431,0.000353
5404000,0.0324,0.013523,0.002678,0.000431,0.000353
5405000,0.0324,0.013523,0.002678,0.000431,0.000235
5406000,0.0324,0.013523,0.002678,0.000431,0.000353
5407000,0.0324,0.013523,0.002678,0.000431,0.000470
5408000,0.0324,0.013523,0.002678,0.000431,0.000353
5409000,0.0324,0.013523,0.002678,0.000431,0.000235
5410000,0.0324,0.013523,0.002678,0.000431,0.000353
5411000,0.0324,0.013523,0.002678,0.000431,0.000353
5412000,0.0324,0.013523,0.002678,0.000431,0.000235
5413000,0.0324,0.013523,0.002678,0.000431,0.000353
5414000,0.0324,0.013523,0.002678,0.000431,0.000470
5415000,0.0324,0.013523,0.002678,0.000431,0.000353
5416000,0.0324,0.013523,0.002678,0.000431,0.000235
5417000,0.0324,0.013523,0.002678,0.000431,0.000353
5418000,0.0324,0.013523,0.002678,0.000431,0.000353
5419000,0.0324,0.013523,0.002678,0.000431,0.000235
5420000,0.0324,0.013523,0.002678,0.000431,0.000353
5421000,0.0324,0.013523,0.002678,0.000431,0.000470
5422000,0.0324,0.013523,0.002678,0.000431,0.000353
5423000,0.0324,0.013523,0.002678,0.000431,0.000235
5424000,0.0324,0.013523,0.002678,0.000431,0.000353
5425000,0.0324,0.013523,0.002678,0.000431,0.000353
5426000,0.0324,0.013523,0.002678,0.000431,0.000235
5427000,0.0324,0.013523,0.002678,0.000431,0.000353
5428000,0.0324,0.013523,0.002678,0.000431,0.000470
5429000,0.0324,0.013523,0.002678,0.000431,0.000353
5430000,0.0324,0.013523,0.002678,0.000431,0.000235
5431000,0.0324,0.013523,0.002678,0.000431,0.000353
5432000,0.0324,0.013523,0.002678,0.000431,0.000353
5433000,0.0324,0.013523,0.002678,0.000431,0.000235
5434000,0.0324,0.013523,0.002678,0.000431,0.000353
5435000,0.0324,0.013523,0.002678,0.000431,0.000470
5436000,0.0324,0.013523,0.002678,0.000431,0.000353
5437000,0.0324,0.013523,0.002678,0.000431,0.000118
5438000,0.0324,0.013523,0.002678,0.000431,0.000470
5439000,0.0324,0.013523,0.002678,0.000431,0.000353
5440000,0.0324,0.013523,0.002678,0.000431,0.000235
5441000,0.0324,0.013523,0.002678,0.000431,0.000353
5442000,0.0324,0.013523,0.002678,0.000431,0.000470
5443000,0.0324,0.013523,0.002678,0.000431,0.000353
5444000,0.0324,0.013523,0.002678,0.000431,0.000118
5445000,0.0324,0.013523,0.002678,0.000431,0.000470
5446000,0.0324,0.013523,0.002678,0.000431,0.000353
5447000,0.0324,0.013523,0.002678,0.000431,0.000235
5448000,0.0324,0.013523,0.002678,0.000431,0.000353
5449000,0.0324,0.013523,0.002678,0.000431,0.000470
5450000,0.0324,0.013523,0.002678,0.000431,0.000353
5451000,0.0324,0.013523,0.002678,0.000431,0.000118
5452000,0.0324,0.013523,0.002678,0.000431,0.000470
5453000,0.0324,0.013523,0.002678,0.000431,0.000353
5454000,0.0324,0.013523,0.002678,0.000431,0.000235
5455000,0.0324,0.013523,0.002678,0.000431,0.000353
5456000,0.0324,0.013523,0.002678,0.000431,0.000470
5457000,0.0324,0.013523,0.002678,0.000431,0.000353
5458000,0.0324,0.013523,0.002678,0.000431,0.000118
5459000,0.0324,0.013523,0.002678,0.000431,0.000470
5460000,0.0324,0.013523,0.002678,0.000431,0.000353
5461000,0.0324,0.013523,0.002678,0.000431,0.000235
5462000,0.0324,0.013523,0.002678,0.000431,0.000353
5463000,0.0324,0.013523,0.002678,0.000431,0.000470
5464000,0.0324,0.013523,0.002678,0.000431,0.000235
5465000,0.0324,0.013523,0.002678,0.000431,0.000235
5466000,0.0324,0.013523,0.002678,0.000431,0.000470
5467000,0.0324,0.013523,0.002678,0.000431,0.000353
5468000,0.0324,0.013523,0.002678,0.000431,0.000235
5469000,0.0324,0.013523,0.002678,0.000431,0.000353
5470000,0.0324,0.013523,0.002678,0.000431,0.000470
5471000,0.0324,0.013523,0.002678,0.000431,0.000235
5472000,0.0324,0.013523,0.002678,0.000431,0.000235
5473000,0.0324,0.013523,0.002678,0.000431,0.000470
5474000,0.0324,0.013523,0.002678,0.000431,0.000353
5475000,0.0324,0.013523,0.002678,0.000431,0.000235
5476000,0.0324,0.013523,0.002678,0.000431,0.000353
5477000,0.0324,0.013523,0.002678,0.000431,0.000470
5478000,0.0324,0.013523,0.002678,0.000431,0.000235
5479000,0.0324,0.013523,0.002678,0.000431,0.000235
5480000,0.0324,0.013523,0.002678,0.000431,0.000470
5481000,0.0324,0.013523,0.002678,0.000431,0.000353
5482000,0.0324,0.013523,0.002678,0.000431,0.000235
5483000,0.0324,0.013523,0.002678,0.000431,0.000353
5484000,0.0324,0.013523,0.002678,0.000431,0.000470
5485000,0.0324,0.013523,0.002678,0.000431,0.000235
5486000,0.0324,0.013523,0.002678,0.000431,0.000235
5487000,0.0324,0.013523,0.002678,0.000431,0.000470
5488000,0.0324,0.013523,0.002678,0.000431,0.000353
5489000,0.0324,0.013523,0.002678,0.000431,0.000235
5490000,0.0324,0.013523,0.002678,0.000431,0.000353
5491000,0.0324,0.013523,0.002678,0.000431,0.000470
5492000,0.0324,0.013523,0.002678,0.000431,0.000235
5493000,0.0324,0.013523,0.002678,0.000431,0.000235
5494000,0.0324,0.013523,0.002678,0.000431,0.000470
5495000,0.0324,0.013523,0.002678,0.000431,0.000353
5496000,0.0324,0.013523,0.002678,0.000431,0.000235
5497000,0.0324,0.013523,0.002678,0.000431,0.000353
5498000,0.0324,0.013523,0.002678,0.000431,0.000470
5499000,0.0324,0.013523,0.002678,0.000431,0.000235
5500000,0.0324,0.013523,0.002678,0.000431,0.000235
5501000,0.0324,0.013523,0.002678,0.000431,0.000470
5502000,0.0324,0.013523,0.002678,0.000431,0.000353
5503000,0.0324,0.013523,0.002678,0.000431,0.000235
5504000,0.0324,0.013523,0.002678,0.000431,0.000353
5505000,0.0324,0.013523,0.002678,0.000431,0.000470
5506000,0.0324,0.013523,0.002678,0.000431,0.000118
5507000,0.0324,0.013523,0.002678,0.000431,0.000353
5508000,0.0324,0.013523,0.002678,0.000431,0.000470
5509000,0.0324,0.013523,0.002678,0.000431,0.000353
5510000,0.0324,0.013523,0.002678,0.000431,0.000235
5511000,0.0324,0.013523,0.002678,0.000431,0.000353
5512000,0.0324,0.013523,0.002678,0.000431,0.000470
5513000,0.0324,0.013523,0.002678,0.000431,0.000118
5514000,0.0324,0.013523,0.002678,0.000431,0.000353
5515000,0.0324,0.013523,0.002678,0.000431,0.000470
5516000,0.0324,0.013523,0.002678,0.000431,0.000353
5517000,0.0324,0.013523,0.002678,0.000431,0.000235
5518000,0.0324,0.013523,0.002678,0.000431,0.000353
5519000,0.0324,0.013523,0.002678,0.000431,0.000470
5520000,0.0324,0.013523,0.002678,0.000431,0.000118
5521000,0.0324,0.013523,0.002678,0.000431,0.000353
5522000,0.0324,0.013523,0.002678,0.000431,0.000470
5523000,0.0324,0.013523,0.002678,0.000431,0.000353
5524000,0.0324,0.013523,0.002678,0.000431,0.000235
5525000,0.0324,0.013523,0.002678,0.000431,0.000353
5526000,0.0324,0.013523,0.002678,0.000431,0.000353
5527000,0.0324,0.013523,0.002678,0.000431,0.000235
5528000,0.0324,0.013523,0.002678,0.000431,0.000353
5529000,0.0324,0.013523,0.002678,0.000431,0.000470
5530000,0.0324,0.013523,0.002678,0.000431,0.000353
5531000,0.0324,0.013523,0.002678,0.000431,0.000235
5532000,0.0324,0.013523,0.002678,0.000431,0.000353
5533000,0.0324,0.013523,0.002678,0.000431,0.000353
5534000,0.0324,0.013523,0.002678,0.000431,0.000235
5535000,0.0324,0.013523,0.002678,0.000431,0.000353
5536000,0.0324,0.013523,0.002678,0.000431,0.000470
5537000,0.0324,0.013523,0.002678,0.000431,0.000353
5538000,0.0324,0.013523,0.002678,0.000431,0.000235
5539000,0.0324,0.013523,0.002678,0.000431,0.000353
5540000,0.0324,0.013523,0.002678,0.000431,0.000353
5541000,0.0324,0.013523,0.002678,0.000431,0.000235
5542000,0.0324,0.013523,0.002678,0.000431,0.000353
5543000,0.0324,0.013523,0.002678,0.000431,0.000470
5544000,0.0324,0.013523,0.002678,0.000431,0.000353
5545000,0.0324,0.013523,0.002678,0.000431,0.000235
5546000,0.0324,0.013523,0.002678,0.000431,0.000353
5547000,0.0324,0.013523,0.002678,0.000431,0.000353
5548000,0.0324,0.013523,0.002678,0.000431,0.000235
5549000,0.0324,0.013523,0.002678,0.000431,0.000353
5550000,0.0324,0.013523,0.002678,0.000431,0.000470
5551000,0.0324,0.013523,0.002678,0.000431,0.000353
5552000,0.0324,0.013523,0.002678,0.000431,0.000235
5553000,0.0324,0.013523,0.002678,0.000431,0.000353
5554000,0.0324,0.013523,0.002678,0.000431,0.000353
5555000,0.0324,0.013523,0.002678,0.000431,0.000235
5556000,0.0324,0.013523,0.002678,0.000431,0.000353
5557000,0.0324,0.013523,0.002678,0.000431,0.000470
5558000,0.0324,0.013523,0.002678,0.000431,0.000353
5559000,0.0324,0.013523,0.002678,0.000431,0.000235
5560000,0.0324,0.013523,0.002678,0.000431,0.000353
5561000,0.0324,0.013523,0.002678,0.000431,0.000353
5562000,0.0324,0.013523,0.002678,0.000431,0.000235
5563000,0.0324,0.013523,0.002678,0.000431,0.000353
5564000,0.0324,0.013523,0.002678,0.000431,0.000470
5565000,0.0324,0.013523,0.002678,0.000431,0.000353
5566000,0.0324,0.013523,0.002678,0.000431,0.000235
5567000,0.0324,0.013523,0.002678,0.000431,0.000353
5568000,0.0324,0.013523,0.002678,0.000431,0.000353
5569000,0.0324,0.013523,0.002678,0.000431,0.000235
5570000,0.0324,0.013523,0.002678,0.000431,0.000353
5571000,0.0324,0.013523,0.002678,0.000431,0.000470
5572000,0.0324,0.013523,0.002678,0.000431,0.000353
5573000,0.0324,0.013523,0.002678,0.000431,0.000235
5574000,0.0324,0.013523,0.002678,0.000431,0.000353
5575000,0.0324,0.013523,0.002678,0.000431,0.000353
5576000,0.0324,0.013523,0.002678,0.000431,0.000235
5577000,0.0324,0.013523,0.002678,0.000431,0.000353
5578000,0.0324,0.013523,0.002678,0.000431,0.000470
5579000,0.0324,0.013523,0.002678,0.000431,0.000353
5580000,0.0324,0.013523,0.002678,0.000431,0.000118
5581000,0.0324,0.013523,0.002678,0.000431,0.000470
5582000,0.0324,0.013523,0.002678,0.000431,0.000353
5583000,0.0324,0.013523,0.002678,0.000431,0.000235
5584000,0.0324,0.013523,0.002678,0.000431,0.000353
5585000,0.0324,0.013523,0.002678,0.000431,0.000470
5586000,0.0324,0.013523,0.002678,0.000431,0.000353
5587000,0.0324,0.013523,0.002678,0.000431,0.000118
5588000,0.0324,0.013523,0.002678,0.000431,0.000470
5589000,0.0324,0.013523,0.002678,0.000431,0.000353
5590000,0.0324,0.013523,0.002678,0.000431,0.000235
5591000,0.0324,0.013523,0.002678,0.000431,0.000353
5592000,0.0324,0.013523,0.002678,0.000431,0.000470
5593000,0.0324,0.013523,0.002678,0.000431,0.000353
5594000,0.0324,0.013523,0.002678,0.000431,0.000118
5595000,0.0324,0.013523,0.002678,0.000431,0.000470
5596000,0.0324,0.013523,0.002678,0.000431,0.000353
5597000,0.0324,0.013523,0.002678,0.000431,0.000235
5598000,0.0324,0.013523,0.002678,0.000431,0.000353
5599000,0.0324,0.013523,0.002678,0.000431,0.000470
5600000,0.0324,0.013523,0.002678,0.000431,0.000235
5601000,0.0324,0.013523,0.002678,0.000431,0.000235
5602000,0.0324,0.013523,0.002678,0.000431,0.000470
5603000,0.0324,0.013523,0.002678,0.000431,0.000353
5604000,0.0324,0.013523,0.002678,0.000431,0.000235
5605000,0.0324,0.013523,0.002678,0.000431,0.000353
5606000,0.0324,0.013523,0.002678,0.000431,0.000470
5607000,0.0324,0.013523,0.002678,0.000431,0.000235
5608000,0.0324,0.013523,0.002678,0.000431,0.000235
5609000,0.0324,0.013523,0.002678,0.000431,0.000470
5610000,0.0324,0.013523,0.002678,0.000431,0.000353
5611000,0.0324,0.013523,0.002678,0.000431,0.000235
5612000,0.0324,0.013523,0.002678,0.000431,0.000353
5613000,0.0324,0.013523,0.002678,0.000431,0.000470
5614000,0.0324,0.013523,0.002678,0.000431,0.000235
5615000,0.0324,0.013523,0.002678,0.000431,0.000235
5616000,0.0324,0.013523,0.002678,0.000431,0.000470
5617000,0.0324,0.013523,0.002678,0.000431,0.000353
5618000,0.0324,0.013523,0.002678,0.000431,0.000235
5619000,0.0324,0.013523,0.002678,0.000431,0.000353
5620000,0.0324,0.013523,0.002678,0.000431,0.000470
5621000,0.0324,0.013523,0.002678,0.000431,0.000235
5622000,0.0324,0.013523,0.002678,0.000431,0.000235
5623000,0.0324,0.013523,0.002678,0.000431,0.000470
5624000,0.0324,0.013523,0.002678,0.000431,0.000353
5625000,0.0324,0.013523,0.002678,0.000431,0.000235
5626000,0.0324,0.013523,0.002678,0.000431,0.000353
5627000,0.0324,0.013523,0.002678,0.000431,0.000470
5628000,0.0324,0.013523,0.002678,0.000431,0.000235
5629000,0.0324,0.013523,0.002678,0.000431,0.000235
5630000,0.0324,0.013523,0.002678,0.000431,0.000470
5631000,0.0324,0.013523,0.002678,0.000431,0.000353
5632000,0.0324,0.013523,0.002678,0.000431,0.000235
5633000,0.0324,0.013523,0.002678,0.000431,0.000353
5634000,0.0324,0.013523,0.002678,0.000431,0.000470
5635000,0.0324,0.013523,0.002678,0.000431,0.000235
5636000,0.0324,0.013523,0.002678,0.000431,0.000235
5637000,0.0324,0.013523,0.002678,0.000431,0.000470
5638000,0.0324,0.013523,0.002678,0.000431,0.000353
5639000,0.0324,0.013523,0.002678,0.000431,0.000235
5640000,0.0324,0.013523,0.002678,0.000431,0.000353
5641000,0.0324,0.013523,0.002678,0.000431,0.000470
5642000,0.0324,0.013523,0.002678,0.000431,0.000118
5643000,0.0324,0.013523,0.002678,0.000431,0.000353
5644000,0.0324,0.013523,0.002678,0.000431,0.000470
5645000,0.0324,0.013523,0.002678,0.000431,0.000353
5646000,0.0324,0.013523,0.002678,0.000431,0.000235
5647000,0.0324,0.013523,0.002678,0.000431,0.000353
5648000,0.0324,0.013523,0.002678,0.000431,0.000470
5649000,0.0324,0.013523,0.002678,0.000431,0.000118
5650000,0.0324,0.013523,0.002678,0.000431,0.000353
5651000,0.0324,0.013523,0.002678,0.000431,0.000470
5652000,0.0324,0.013523,0.002678,0.000431,0.000353
5653000,0.0324,0.013523,0.002678,0.000431,0.000235
5654000,0.0324,0.013523,0.002678,0.000431,0.000353
5655000,0.0324,0.013523,0.002678,0.000431,0.000470
5656000,0.0324,0.013523,0.002678,0.000431,0.000118
5657000,0.0324,0.013523,0.002678,0.000431,0.000353
5658000,0.0324,0.013523,0.002678,0.000431,0.000470
5659000,0.0324,0.013523,0.002678,0.000431,0.000353
5660000,0.0324,0.013523,0.002678,0.000431,0.000235
5661000,0.0324,0.013523,0.002678,0.000431,0.000353
5662000,0.0324,0.013523,0.002678,0.000431,0.000470
5663000,0.0324,0.013523,0.002678,0.000431,0.000118
5664000,0.0324,0.013523,0.002678,0.000431,0.000353
5665000,0.0324,0.013523,0.002678,0.000431,0.000470
5666000,0.0324,0.013523,0.002678,0.000431,0.000353
5667000,0.0324,0.013523,0.002678,0.000431,0.000235
5668000,0.0324,0.013523,0.002678,0.000431,0.000353
5669000,0.0324,0.013523,0.002678,0.000431,0.000353
5670000,0.0324,0.013523,0.002678,0.000431,0.000235
5671000,0.0324,0.013523,0.002678,0.000431,0.000353
5672000,0.0324,0.013523,0.002678,0.000431,0.000470
5673000,0.0324,0.013523,0.002678,0.000431,0.000353
5674000,0.0324,0.013523,0.002678,0.000431,0.000235
5675000,0.0324,0.013523,0.002678,0.000431,0.000353
5676000,0.0324,0.013523,0.002678,0.000431,0.000353
5677000,0.0324,0.013523,0.002678,0.000431,0.000235
5678000,0.0324,0.013523,0.002678,0.000431,0.000353
5679000,0.0324,0.013523,0.002678,0.000431,0.000470
5680000,0.0324,0.013523,0.002678,0.000431,0.000353
5681000,0.0324,0.013523,0.002678,0.000431,0.000235
5682000,0.0324,0.013523,0.002678,0.000431,0.000353
5683000,0.0324,0.013523,0.002678,0.000431,0.000353
5684000,0.0324,0.013523,0.002678,0.000431,0.000235
5685000,0.0324,0.013523,0.002678,0.000431,0.000353
5686000,0.0324,0.013523,0.002678,0.000431,0.000470
5687000,0.0324,0.013523,0.002678,0.000431,0.000353
5688000,0.0324,0.013523,0.002678,0.000431,0.000235
5689000,0.0324,0.013523,0.002678,0.000431,0.000353
5690000,0.0324,0.013523,0.002678,0.000431,0.000353
5691000,0.0324,0.013523,0.002678,0.000431,0.000235
5692000,0.0324,0.013523,0.002678,0.000431,0.000353
5693000,0.0324,0.013523,0.002678,0.000431,0.000470
5694000,0.0324,0.013523,0.002678,0.000431,0.000353
5695000,0.0324,0.013523,0.002678,0.000431,0.000235
5696000,0.0324,0.013523,0.002678,0.000431,0.000353
5697000,0.0324,0.013523,0.002678,0.000431,0.000353
5698000,0.0324,0.013523,0.002678,0.000431,0.000235
5699000,0.0324,0.013523,0.002678,0.000431,0.000353
5700000,0.0324,0.013523,0.002678,0.000431,0.000470
5701000,0.0324,0.013523,0.002678,0.000431,0.000353
5702000,0.0324,0.013523,0.002678,0.000431,0.000235
5703000,0.0324,0.013523,0.002678,0.000431,0.000353
5704000,0.0324,0.013523,0.002678,0.000431,0.000353
5705000,0.0324,0.013523,0.002678,0.000431,0.000235
5706000,0.0324,0.013523,0.002678,0.000431,0.000353
5707000,0.0324,0.013523,0.002678,0.000431,0.000470
5708000,0.0324,0.013523,0.002678,0.000431,0.000353
5709000,0.0324,0.013523,0.002678,0.000431,0.000235
5710000,0.0324,0.013523,0.002678,0.000431,0.000353
5711000,0.0324,0.013523,0.002678,0.000431,0.000353
5712000,0.0324,0.013523,0.002678,0.000431,0.000235
5713000,0.0324,0.013523,0.002678,0.000431,0.000353
5714000,0.0324,0.013523,0.002678,0.000431,0.000470
5715000,0.0324,0.013523,0.002678,0.000431,0.000353
5716000,0.0324,0.013523,0.002678,0.000431,0.000118
5717000,0.0324,0.013523,0.002678,0.000431,0.000470
5718000,0.0324,0.013523,0.002678,0.000431,0.000353
5719000,0.0324,0.013523,0.002678,0.000431,0.000235
5720000,0.0324,0.013523,0.002678,0.000431,0.000353
5721000,0.0324,0.013523,0.002678,0.000431,0.000470
5722000,0.0324,0.013523,0.002678,0.000431,0.000353
5723000,0.0324,0.013523,0.002678,0.000431,0.000118
5724000,0.0324,0.013523,0.002678,0.000431,0.000470
5725000,0.0324,0.013523,0.002678,0.000431,0.000353
5726000,0.0324,0.013523,0.002678,0.000431,0.000235
5727000,0.0324,0.013523,0.002678,0.000431,0.000353
5728000,0.0324,0.013523,0.002678,0.000431,0.000470
5729000,0.0324,0.013523,0.002678,0.000431,0.000353
5730000,0.0324,0.013523,0.002678,0.000431,0.000118
5731000,0.0324,0.013523,0.002678,0.000431,0.000470
5732000,0.0324,0.013523,0.002678,0.000431,0.000353
5733000,0.0324,0.013523,0.002678,0.000431,0.000235
5734000,0.0324,0.013523,0.002678,0.000431,0.000353
5735000,0.0324,0.013523,0.002678,0.000431,0.000470
5736000,0.0324,0.013523,0.002678,0.000431,0.000353
5737000,0.0324,0.013523,0.002678,0.000431,0.000118
5738000,0.0324,0.013523,0.002678,0.000431,0.000470
5739000,0.0324,0.013523,0.002678,0.000431,0.000353
5740000,0.0324,0.013523,0.002678,0.000431,0.000235
5741000,0.0324,0.013523,0.002678,0.000431,0.000353
5742000,0.0324,0.013523,0.002678,0.000431,0.000470
5743000,0.0324,0.013523,0.002678,0.000431,0.000235
5744000,0.0324,0.013523,0.002678,0.000431,0.000235
5745000,0.0324,0.013523,0.002678,0.000431,0.000470
5746000,0.0324,0.013523,0.002678,0.000431,0.000353
5747000,0.0324,0.013523,0.002678,0.000431,0.000235
5748000,0.0324,0.013523,0.002678,0.000431,0.000353
5749000,0.0324,0.013523,0.002678,0.000431,0.000470
5750000,0.0324,0.013523,0.002678,0.000431,0.000235
5751000,0.0324,0.013523,0.002678,0.000431,0.000235
5752000,0.0324,0.013523,0.002678,0.000431,0.000470
5753000,0.0324,0.013523,0.002678,0.000431,0.000353
5754000,0.0324,0.013523,0.002678,0.000431,0.000235
5755000,0.0324,0.013523,0.002678,0.000431,0.000353
5756000,0.0324,0.013523,0.002678,0.000431,0.000470
5757000,0.0324,0.013523,0.002678,0.000431,0.000235
5758000,0.0324,0.013523,0.002678,0.000431,0.000235
5759000,0.0324,0.013523,0.002678,0.000431,0.000470
5760000,0.0324,0.013523,0.002678,0.000431,0.000353
5761000,0.0324,0.013523,0.002678,0.000431,0.000235
5762000,0.0324,0.013523,0.002678,0.000431,0.000353
5763000,0.0324,0.013523,0.002678,0.000431,0.000470
5764000,0.0324,0.013523,0.002678,0.000431,0.000235
5765000,0.0324,0.013523,0.002678,0.000431,0.000235
5766000,0.0324,0.013523,0.002678,0.000431,0.000470
5767000,0.0324,0.013523,0.002678,0.000431,0.000353
5768000,0.0324,0.013523,0.002678,0.000431,0.000235
5769000,0.0324,0.013523,0.002678,0.000431,0.000353
5770000,0.0324,0.013523,0.002678,0.000431,0.000470
5771000,0.0324,0.013523,0.002678,0.000431,0.000235
5772000,0.0324,0.013523,0.002678,0.000431,0.000235
5773000,0.0324,0.013523,0.002678,0.000431,0.000470
5774000,0.0324,0.013523,0.002678,0.000431,0.000353
5775000,0.0324,0.013523,0.002678,0.000431,0.000235
5776000,0.0324,0.013523,0.002678,0.000431,0.000353
5777000,0.0324,0.013523,0.002678,0.000431,0.000470
5778000,0.0324,0.013523,0.002678,0.000431,0.000235
5779000,0.0324,0.013523,0.002678,0.000431,0.000235
5780000,0.0324,0.013523,0.002678,0.000431,0.000470
5781000,0.0324,0.013523,0.002678,0.000431,0.000353
5782000,0.0324,0.013523,0.002678,0.000431,0.000235
5783000,0.0324,0.013523,0.002678,0.000431,0.000353
5784000,0.0324,0.013523,0.002678,0.000431,0.000470
5785000,0.0324,0.013523,0.002678,0.000431,0.000118
5786000,0.0324,0.013523,0.002678,0.000431,0.000353
5787000,0.0324,0.013523,0.002678,0.000431,0.000470
5788000,0.0324,0.013523,0.002678,0.000431,0.000353
5789000,0.0324,0.013523,0.002678,0.000431,0.000235
5790000,0.0324,0.013523,0.002678,0.000431,0.000353
5791000,0.0324,0.013523,0.002678,0.000431,0.000470
5792000,0.0324,0.013523,0.002678,0.000431,0.000118
5793000,0.0324,0.013523,0.002678,0.000431,0.000353
5794000,0.0324,0.013523,0.002678,0.000431,0.000470
5795000,0.0324,0.013523,0.002678,0.000431,0.000353
5796000,0.0324,0.013523,0.002678,0.000431,0.000235
5797000,0.0324,0.013523,0.002678,0.000431,0.000353
5798000,0.0324,0.013523,0.002678,0.000431,0.000470
5799000,0.0324,0.013523,0.002678,0.000431,0.000118
5800000,0.0324,0.013523,0.002678,0.000431,0.000353
5801000,0.0324,0.013523,0.002678,0.000431,0.000470
5802000,0.0324,0.013523,0.002678,0.000431,0.000353
5803000,0.0324,0.013523,0.002678,0.000431,0.000235
5804000,0.0324,0.013523,0.002678,0.000431,0.000353
5805000,0.0324,0.013523,0.002678,0.000431,0.000353
5806000,0.0324,0.013523,0.002678,0.000431,0.000235
5807000,0.0324,0.013523,0.002678,0.000431,0.000353
5808000,0.0324,0.013523,0.002678,0.000431,0.000470
5809000,0.0324,0.013523,0.002678,0.000431,0.000353
5810000,0.0324,0.013523,0.002678,0.000431,0.000235
5811000,0.0324,0.013523,0.002678,0.000431,0.000353
5812000,0.0324,0.013523,0.002678,0.000431,0.000353
5813000,0.0324,0.013523,0.002678,0.000431,0.000235
5814000,0.0324,0.013523,0.002678,0.000431,0.000353
5815000,0.0324,0.013523,0.002678,0.000431,0.000470
5816000,0.0324,0.013523,0.002678,0.000431,0.000353
5817000,0.0324,0.013523,0.002678,0.000431,0.000235
5818000,0.0324,0.013523,0.002678,0.000431,0.000353
5819000,0.0324,0.013523,0.002678,0.000431,0.000353
5820000,0.0324,0.013523,0.002678,0.000431,0.000235
5821000,0.0324,0.013523,0.002678,0.000431,0.000353
5822000,0.0324,0.013523,0.002678,0.000431,0.000470
5823000,0.0324,0.013523,0.002678,0.000431,0.000353
5824000,0.0324,0.013523,0.002678,0.000431,0.000235
5825000,0.0324,0.013523,0.002678,0.000431,0.000353
5826000,0.0324,0.013523,0.002678,0.000431,0.000353
5827000,0.0324,0.013523,0.002678,0.000431,0.000235
5828000,0.0324,0.013523,0.002678,0.000431,0.000353
5829000,0.0324,0.013523,0.002678,0.000431,0.000470
5830000,0.0324,0.013523,0.002678,0.000431,0.000353
5831000,0.0324,0.013523,0.002678,0.000431,0.000235
5832000,0.0324,0.013523,0.002678,0.000431,0.000353
5833000,0.0324,0.013523,0.002678,0.000431,0.000353
5834000,0.0324,0.013523,0.002678,0.000431,0.000235
5835000,0.0324,0.013523,0.002678,0.000431,0.000353
5836000,0.0324,0.013523,0.002678,0.000431,0.000470
5837000,0.0324,0.013523,0.002678,0.000431,0.000353
5838000,0.0324,0.013523,0.002678,0.000431,0.000235
5839000,0.0324,0.013523,0.002678,0.000431,0.000353
5840000,0.0324,0.013523,0.002678,0.000431,0.000353
5841000,0.0324,0.013523,0.002678,0.000431,0.000235
5842000,0.0324,0.013523,0.002678,0.000431,0.000353
5843000,0.0324,0.013523,0.002678,0.000431,0.000470
5844000,0.0324,0.013523,0.002678,0.000431,0.000353
5845000,0.0324,0.013523,0.002678,0.000431,0.000235
5846000,0.0324,0.013523,0.002678,0.000431,0.000353
5847000,0.0324,0.013523,0.002678,0.000431,0.000353
5848000,0.0324,0.013523,0.002678,0.000431,0.000235
5849000,0.0324,0.013523,0.002678,0.000431,0.000353
5850000,0.0324,0.013523,0.002678,0.000431,0.000470
5851000,0.0324,0.013523,0.002678,0.000431,0.000353
5852000,0.0324,0.013523,0.002678,0.000431,0.000235
5853000,0.0324,0.013523,0.002678,0.000431,0.000353
5854000,0.0324,0.013523,0.002678,0.000431,0.000353
5855000,0.0324,0.013523,0.002678,0.000431,0.000235
5856000,0.0324,0.013523,0.002678,0.000431,0.000353
5857000,0.0324,0.013523,0.002678,0.000431,0.000470
5858000,0.0324,0.013523,0.002678,0.000431,0.000353
5859000,0.0324,0.013523,0.002678,0.000431,0.000118
5860000,0.0324,0.013523,0.002678,0.000431,0.000470
5861000,0.0324,0.013523,0.002678,0.000431,0.000353
5862000,0.0324,0.013523,0.002678,0.000431,0.000235
5863000,0.0324,0.013523,0.002678,0.000431,0.000353
5864000,0.0324,0.013523,0.002678,0.000431,0.000470
5865000,0.0324,0.013523,0.002678,0.000431,0.000353
5866000,0.0324,0.013523,0.002678,0.000431,0.000118
5867000,0.0324,0.013523,0.002678,0.000431,0.000470
5868000,0.0324,0.013523,0.002678,0.000431,0.000353
5869000,0.0324,0.013523,0.002678,0.000431,0.000235
5870000,0.0324,0.013523,0.002678,0.000431,0.000353
5871000,0.0324,0.013523,0.002678,0.000431,0.000470
5872000,0.0324,0.013523,0.002678,0.000431,0.000353
5873000,0.0324,0.013523,0.002678,0.000431,0.000118
5874000,0.0324,0.013523,0.002678,0.000431,0.000470
5875000,0.0324,0.013523,0.002678,0.000431,0.000353
5876000,0.0324,0.013523,0.002678,0.000431,0.000235
5877000,0.0324,0.013523,0.002678,0.000431,0.000353
5878000,0.0324,0.013523,0.002678,0.000431,0.000470
5879000,0.0324,0.013523,0.002678,0.000431,0.000353
5880000,0.0324,0.013523,0.002678,0.000431,0.000118
5881000,0.0324,0.013523,0.002678,0.000431,0.000470
5882000,0.0324,0.013523,0.002678,0.000431,0.000353
5883000,0.0324,0.013523,0.002678,0.000431,0.000235
5884000,0.0324,0.013523,0.002678,0.000431,0.000353
5885000,0.0324,0.013523,0.002678,0.000431,0.000470
5886000,0.0324,0.013523,0.002678,0.000431,0.000235
5887000,0.0324,0.013523,0.002678,0.000431,0.000235
5888000,0.0324,0.013523,0.002678,0.000431,0.000470
5889000,0.0324,0.013523,0.002678,0.000431,0.000353
5890000,0.0324,0.013523,0.002678,0.000431,0.000235
5891000,0.0324,0.013523,0.002678,0.000431,0.000353
5892000,0.0324,0.013523,0.002678,0.000431,0.000470
5893000,0.0324,0.013523,0.002678,0.000431,0.000235
5894000,0.0324,0.013523,0.002678,0.000431,0.000235
5895000,0.0324,0.013523,0.002678,0.000431,0.000470
5896000,0.0324,0.013523,0.002678,0.000431,0.000353
5897000,0.0324,0.013523,0.002678,0.000431,0.000235
5898000,0.0324,0.013523,0.002678,0.000431,0.000353
5899000,0.0324,0.013523,0.002678,0.000431,0.000470
5900000,0.0324,0.013523,0.002678,0.000431,0.000235
5901000,0.0324,0.013523,0.002678,0.000431,0.000235
5902000,0.0324,0.013523,0.002678,0.000431,0.000470
5903000,0.0324,0.013523,0.002678,0.000431,0.000353
5904000,0.0324,0.013523,0.002678,0.000431,0.000235
5905000,0.0324,0.013523,0.002678,0.000431,0.000353
5906000,0.0324,0.013523,0.002678,0.000431,0.000470
5907000,0.0324,0.013523,0.002678,0.000431,0.000235
5908000,0.0324,0.013523,0.002678,0.000431,0.000235
5909000,0.0324,0.013523,0.002678,0.000431,0.000470
5910000,0.0324,0.013523,0.002678,0.000431,0.000353
5911000,0.0324,0.013523,0.002678,0.000431,0.000235
5912000,0.0324,0.013523,0.002678,0.000431,0.000353
5913000,0.0324,0.013523,0.002678,0.000431,0.000470
5914000,0.0324,0.013523,0.002678,0.000431,0.000235
5915000,0.0324,0.013523,0.002678,0.000431,0.000235
5916000,0.0324,0.013523,0.002678,0.000431,0.000470
5917000,0.0324,0.013523,0.002678,0.000431,0.000353
5918000,0.0324,0.013523,0.002678,0.000431,0.000235
5919000,0.0324,0.013523,0.002678,0.000431,0.000353
5920000,0.0324,0.013523,0.002678,0.000431,0.000470
5921000,0.0324,0.013523,0.002678,0.000431,0.000118
5922000,0.0324,0.013523,0.002678,0.000431,0.000353
5923000,0.0324,0.013523,0.002678,0.000431,0.000470
5924000,0.0324,0.013523,0.002678,0.000431,0.000353
5925000,0.0324,0.013523,0.002678,0.000431,0.000235
5926000,0.0324,0.013523,0.002678,0.000431,0.000353
5927000,0.0324,0.013523,0.002678,0.000431,0.000470
5928000,0.0324,0.013523,0.002678,0.000431,0.000118
5929000,0.0324,0.013523,0.002678,0.000431,0.000353
5930000,0.0324,0.013523,0.002678,0.000431,0.000470
5931000,0.0324,0.013523,0.002678,0.000431,0.000353
5932000,0.0324,0.013523,0.002678,0.000431,0.000235
5933000,0.0324,0.013523,0.002678,0.000431,0.000353
5934000,0.0324,0.013523,0.002678,0.000431,0.000470
5935000,0.0324,0.013523,0.002678,0.000431,0.000118
5936000,0.0324,0.013523,0.002678,0.000431,0.000353
5937000,0.0324,0.013523,0.002678,0.000431,0.000470
5938000,0.0324,0.013523,0.002678,0.000431,0.000353
5939000,0.0324,0.013523,0.002678,0.000431,0.000235
5940000,0.0324,0.013523,0.002678,0.000431,0.000353
5941000,0.0324,0.013523,0.002678,0.000431,0.000470
5942000,0.0324,0.013523,0.002678,0.000431,0.000118
5943000,0.0324,0.013523,0.002678,0.000431,0.000353
5944000,0.0324,0.013523,0.002678,0.000431,0.000470
5945000,0.0324,0.013523,0.002678,0.000431,0.000353
5946000,0.0324,0.013523,0.002678,0.000431,0.000235
5947000,0.0324,0.013523,0.002678,0.000431,0.000353
5948000,0.0324,0.013523,0.002678,0.000431,0.000353
5949000,0.0324,0.013523,0.002678,0.000431,0.000235
5950000,0.0324,0.013523,0.002678,0.000431,0.000353
5951000,0.0324,0.013523,0.002678,0.000431,0.000470
5952000,0.0324,0.013523,0.002678,0.000431,0.000353
5953000,0.0324,0.013523,0.002678,0.000431,0.000235
5954000,0.0324,0.013523,0.002678,0.000431,0.000353
5955000,0.0324,0.013523,0.002678,0.000431,0.000353
5956000,0.0324,0.013523,0.002678,0.000431,0.000235
5957000,0.0324,0.013523,0.002678,0.000431,0.000353
5958000,0.0324,0.013523,0.002678,0.000431,0.000470
5959000,0.0324,0.013523,0.002678,0.000431,0.000353
5960000,0.0324,0.013523,0.002678,0.000431,0.000235
5961000,0.0324,0.013523,0.002678,0.000431,0.000353
5962000,0.0324,0.013523,0.002678,0.000431,0.000353
5963000,0.0324,0.013523,0.002678,0.000431,0.000235
5964000,0.0324,0.013523,0.002678,0.000431,0.000353
5965000,0.0324,0.013523,0.002678,0.000431,0.000470
5966000,0.0324,0.013523,0.002678,0.000431,0.000353
5967000,0.0324,0.013523,0.002678,0.000431,0.000235
5968000,0.0324,0.013523,0.002678,0.000431,0.000353
5969000,0.0324,0.013523,0.002678,0.000431,0.000353
5970000,0.0324,0.013523,0.002678,0.000431,0.000235
5971000,0.0324,0.013523,0.002678,0.000431,0.000353
5972000,0.0324,0.013523,0.002678,0.000431,0.000470
5973000,0.0324,0.013523,0.002678,0.000431,0.000353
5974000,0.0324,0.013523,0.002678,0.000431,0.000235
5975000,0.0324,0.013523,0.002678,0.000431,0.000353
5976000,0.0324,0.013523,0.002678,0.000431,0.000353
5977000,0.0324,0.013523,0.002678,0.000431,0.000235
5978000,0.0324,0.013523,0.002678,0.000431,0.000353
5979000,0.0324,0.013523,0.002678,0.000431,0.000470
5980000,0.0324,0.013523,0.002678,0.000431,0.000353
5981000,0.0324,0.013523,0.002678,0.000431,0.000235
5982000,0.0324,0.013523,0.002678,0.000431,0.000353
5983000,0.0324,0.013523,0.002678,0.000431,0.000353
5984000,0.0324,0.013523,0.002678,0.000431,0.000235
5985000,0.0324,0.013523,0.002678,0.000431,0.000353
5986000,0.0324,0.013523,0.002678,0.000431,0.000470
5987000,0.0324,0.013523,0.002678,0.000431,0.000353
5988000,0.0324,0.013523,0.002678,0.000431,0.000235
5989000,0.0324,0.013523,0.002678,0.000431,0.000353
5990000,0.0324,0.013523,0.002678,0.000431,0.000353
5991000,0.0324,0.013523,0.002678,0.000431,0.000235
5992000,0.0324,0.013523,0.002678,0.000431,0.000353
5993000,0.0324,0.013523,0.002678,0.000431,0.000470
5994000,0.0324,0.013523,0.002678,0.000431,0.000353
5995000,0.0324,0.013523,0.002678,0.000431,0.000235
5996000,0.0324,0.013523,0.002678,0.000431,0.000353
5997000,0.0324,0.013523,0.002678,0.000431,0.000353
5998000,0.0324,0.013523,0.002678,0.000431,0.000235
5999000,0.0324,0.013523,0.002678,0.000431,0.000353
