Cycle,Area(mm^2),PeakDynamic(W),SubthresholdLeakage(W),GateLeakage(W),RunTimeDynamic(W)
37000000,0.0324,0.013523,0.002678,0.000431,0.000353
37001000,0.0324,0.013523,0.002678,0.000431,0.000235
37002000,0.0324,0.013523,0.002678,0.000431,0.000353
37003000,0.0324,0.013523,0.002678,0.000431,0.000353
37004000,0.0324,0.013523,0.002678,0.000431,0.000235
37005000,0.0324,0.013523,0.002678,0.000431,0.000353
37006000,0.0324,0.013523,0.002678,0.000431,0.000470
37007000,0.0324,0.013523,0.002678,0.000431,0.000353
37008000,0.0324,0.013523,0.002678,0.000431,0.000235
37009000,0.0324,0.013523,0.002678,0.000431,0.000353
37010000,0.0324,0.013523,0.002678,0.000431,0.000353
37011000,0.0324,0.013523,0.002678,0.000431,0.000235
37012000,0.0324,0.013523,0.002678,0.000431,0.000353
37013000,0.0324,0.013523,0.002678,0.000431,0.000470
37014000,0.0324,0.013523,0.002678,0.000431,0.000353
37015000,0.0324,0.013523,0.002678,0.000431,0.000235
37016000,0.0324,0.013523,0.002678,0.000431,0.000353
37017000,0.0324,0.013523,0.002678,0.000431,0.000353
37018000,0.0324,0.013523,0.002678,0.000431,0.000235
37019000,0.0324,0.013523,0.002678,0.000431,0.000353
37020000,0.0324,0.013523,0.002678,0.000431,0.000470
37021000,0.0324,0.013523,0.002678,0.000431,0.000353
37022000,0.0324,0.013523,0.002678,0.000431,0.000235
37023000,0.0324,0.013523,0.002678,0.000431,0.000353
37024000,0.0324,0.013523,0.002678,0.000431,0.000353
37025000,0.0324,0.013523,0.002678,0.000431,0.000235
37026000,0.0324,0.013523,0.002678,0.000431,0.000353
37027000,0.0324,0.013523,0.002678,0.000431,0.000470
37028000,0.0324,0.013523,0.002678,0.000431,0.000353
37029000,0.0324,0.013523,0.002678,0.000431,0.000235
37030000,0.0324,0.013523,0.002678,0.000431,0.000353
37031000,0.0324,0.013523,0.002678,0.000431,0.000353
37032000,0.0324,0.013523,0.002678,0.000431,0.000235
37033000,0.0324,0.013523,0.002678,0.000431,0.000353
37034000,0.0324,0.013523,0.002678,0.000431,0.000470
37035000,0.0324,0.013523,0.002678,0.000431,0.000353
37036000,0.0324,0.013523,0.002678,0.000431,0.000118
37037000,0.0324,0.013523,0.002678,0.000431,0.000470
37038000,0.0324,0.013523,0.002678,0.000431,0.000353
37039000,0.0324,0.013523,0.002678,0.000431,0.000235
37040000,0.0324,0.013523,0.002678,0.000431,0.000353
37041000,0.0324,0.013523,0.002678,0.000431,0.000470
37042000,0.0324,0.013523,0.002678,0.000431,0.000353
37043000,0.0324,0.013523,0.002678,0.000431,0.000118
37044000,0.0324,0.013523,0.002678,0.000431,0.000470
37045000,0.0324,0.013523,0.002678,0.000431,0.000353
37046000,0.0324,0.013523,0.002678,0.000431,0.000235
37047000,0.0324,0.013523,0.002678,0.000431,0.000353
37048000,0.0324,0.013523,0.002678,0.000431,0.000470
37049000,0.0324,0.013523,0.002678,0.000431,0.000353
37050000,0.0324,0.013523,0.002678,0.000431,0.000118
37051000,0.0324,0.013523,0.002678,0.000431,0.000470
37052000,0.0324,0.013523,0.002678,0.000431,0.000353
37053000,0.0324,0.013523,0.002678,0.000431,0.000235
37054000,0.0324,0.013523,0.002678,0.000431,0.000353
37055000,0.0324,0.013523,0.002678,0.000431,0.000470
37056000,0.0324,0.013523,0.002678,0.000431,0.000353
37057000,0.0324,0.013523,0.002678,0.000431,0.000118
37058000,0.0324,0.013523,0.002678,0.000431,0.000470
37059000,0.0324,0.013523,0.002678,0.000431,0.000353
37060000,0.0324,0.013523,0.002678,0.000431,0.000235
37061000,0.0324,0.013523,0.002678,0.000431,0.000353
37062000,0.0324,0.013523,0.002678,0.000431,0.000470
37063000,0.0324,0.013523,0.002678,0.000431,0.000235
37064000,0.0324,0.013523,0.002678,0.000431,0.000235
37065000,0.0324,0.013523,0.002678,0.000431,0.000470
37066000,0.0324,0.013523,0.002678,0.000431,0.000353
37067000,0.0324,0.013523,0.002678,0.000431,0.000235
37068000,0.0324,0.013523,0.002678,0.000431,0.000353
37069000,0.0324,0.013523,0.002678,0.000431,0.000470
37070000,0.0324,0.013523,0.002678,0.000431,0.000235
37071000,0.0324,0.013523,0.002678,0.000431,0.000235
37072000,0.0324,0.013523,0.002678,0.000431,0.000470
37073000,0.0324,0.013523,0.002678,0.000431,0.000353
37074000,0.0324,0.013523,0.002678,0.000431,0.000235
37075000,0.0324,0.013523,0.002678,0.000431,0.000353
37076000,0.0324,0.013523,0.002678,0.000431,0.000470
37077000,0.0324,0.013523,0.002678,0.000431,0.000235
37078000,0.0324,0.013523,0.002678,0.000431,0.000235
37079000,0.0324,0.013523,0.002678,0.000431,0.000470
37080000,0.0324,0.013523,0.002678,0.000431,0.000353
37081000,0.0324,0.013523,0.002678,0.000431,0.000235
37082000,0.0324,0.013523,0.002678,0.000431,0.000353
37083000,0.0324,0.013523,0.002678,0.000431,0.000470
37084000,0.0324,0.013523,0.002678,0.000431,0.000235
37085000,0.0324,0.013523,0.002678,0.000431,0.000235
37086000,0.0324,0.013523,0.002678,0.000431,0.000470
37087000,0.0324,0.013523,0.002678,0.000431,0.000353
37088000,0.0324,0.013523,0.002678,0.000431,0.000235
37089000,0.0324,0.013523,0.002678,0.000431,0.000353
37090000,0.0324,0.013523,0.002678,0.000431,0.000470
37091000,0.0324,0.013523,0.002678,0.000431,0.000235
37092000,0.0324,0.013523,0.002678,0.000431,0.000235
37093000,0.0324,0.013523,0.002678,0.000431,0.000470
37094000,0.0324,0.013523,0.002678,0.000431,0.000353
37095000,0.0324,0.013523,0.002678,0.000431,0.000235
37096000,0.0324,0.013523,0.002678,0.000431,0.000353
37097000,0.0324,0.013523,0.002678,0.000431,0.000470
37098000,0.0324,0.013523,0.002678,0.000431,0.000235
37099000,0.0324,0.013523,0.002678,0.000431,0.000235
37100000,0.0324,0.013523,0.002678,0.000431,0.000470
37101000,0.0324,0.013523,0.002678,0.000431,0.000353
37102000,0.0324,0.013523,0.002678,0.000431,0.000235
37103000,0.0324,0.013523,0.002678,0.000431,0.000353
37104000,0.0324,0.013523,0.002678,0.000431,0.000470
37105000,0.0324,0.013523,0.002678,0.000431,0.000118
37106000,0.0324,0.013523,0.002678,0.000431,0.000353
37107000,0.0324,0.013523,0.002678,0.000431,0.000470
37108000,0.0324,0.013523,0.002678,0.000431,0.000353
37109000,0.0324,0.013523,0.002678,0.000431,0.000235
37110000,0.0324,0.013523,0.002678,0.000431,0.000353
37111000,0.0324,0.013523,0.002678,0.000431,0.000470
37112000,0.0324,0.013523,0.002678,0.000431,0.000118
37113000,0.0324,0.013523,0.002678,0.000431,0.000353
37114000,0.0324,0.013523,0.002678,0.000431,0.000470
37115000,0.0324,0.013523,0.002678,0.000431,0.000353
37116000,0.0324,0.013523,0.002678,0.000431,0.000235
37117000,0.0324,0.013523,0.002678,0.000431,0.000353
37118000,0.0324,0.013523,0.002678,0.000431,0.000470
37119000,0.0324,0.013523,0.002678,0.000431,0.000118
37120000,0.0324,0.013523,0.002678,0.000431,0.000353
37121000,0.0324,0.013523,0.002678,0.000431,0.000470
37122000,0.0324,0.013523,0.002678,0.000431,0.000353
37123000,0.0324,0.013523,0.002678,0.000431,0.000235
37124000,0.0324,0.013523,0.002678,0.000431,0.000353
37125000,0.0324,0.013523,0.002678,0.000431,0.000353
37126000,0.0324,0.013523,0.002678,0.000431,0.000235
37127000,0.0324,0.013523,0.002678,0.000431,0.000353
37128000,0.0324,0.013523,0.002678,0.000431,0.000470
37129000,0.0324,0.013523,0.002678,0.000431,0.000353
37130000,0.0324,0.013523,0.002678,0.000431,0.000235
37131000,0.0324,0.013523,0.002678,0.000431,0.000353
37132000,0.0324,0.013523,0.002678,0.000431,0.000353
37133000,0.0324,0.013523,0.002678,0.000431,0.000235
37134000,0.0324,0.013523,0.002678,0.000431,0.000353
37135000,0.0324,0.013523,0.002678,0.000431,0.000470
37136000,0.0324,0.013523,0.002678,0.000431,0.000353
37137000,0.0324,0.013523,0.002678,0.000431,0.000235
37138000,0.0324,0.013523,0.002678,0.000431,0.000353
37139000,0.0324,0.013523,0.002678,0.000431,0.000353
37140000,0.0324,0.013523,0.002678,0.000431,0.000235
37141000,0.0324,0.013523,0.002678,0.000431,0.000353
37142000,0.0324,0.013523,0.002678,0.000431,0.000470
37143000,0.0324,0.013523,0.002678,0.000431,0.000353
37144000,0.0324,0.013523,0.002678,0.000431,0.000235
37145000,0.0324,0.013523,0.002678,0.000431,0.000353
37146000,0.0324,0.013523,0.002678,0.000431,0.000353
37147000,0.0324,0.013523,0.002678,0.000431,0.000235
37148000,0.0324,0.013523,0.002678,0.000431,0.000353
37149000,0.0324,0.013523,0.002678,0.000431,0.000470
37150000,0.0324,0.013523,0.002678,0.000431,0.000353
37151000,0.0324,0.013523,0.002678,0.000431,0.000235
37152000,0.0324,0.013523,0.002678,0.000431,0.000353
37153000,0.0324,0.013523,0.002678,0.000431,0.000353
37154000,0.0324,0.013523,0.002678,0.000431,0.000235
37155000,0.0324,0.013523,0.002678,0.000431,0.000353
37156000,0.0324,0.013523,0.002678,0.000431,0.000470
37157000,0.0324,0.013523,0.002678,0.000431,0.000353
37158000,0.0324,0.013523,0.002678,0.000431,0.000235
37159000,0.0324,0.013523,0.002678,0.000431,0.000353
37160000,0.0324,0.013523,0.002678,0.000431,0.000353
37161000,0.0324,0.013523,0.002678,0.000431,0.000235
37162000,0.0324,0.013523,0.002678,0.000431,0.000353
37163000,0.0324,0.013523,0.002678,0.000431,0.000470
37164000,0.0324,0.013523,0.002678,0.000431,0.000353
37165000,0.0324,0.013523,0.002678,0.000431,0.000235
37166000,0.0324,0.013523,0.002678,0.000431,0.000353
37167000,0.0324,0.013523,0.002678,0.000431,0.000353
37168000,0.0324,0.013523,0.002678,0.000431,0.000235
37169000,0.0324,0.013523,0.002678,0.000431,0.000353
37170000,0.0324,0.013523,0.002678,0.000431,0.000470
37171000,0.0324,0.013523,0.002678,0.000431,0.000353
37172000,0.0324,0.013523,0.002678,0.000431,0.000235
37173000,0.0324,0.013523,0.002678,0.000431,0.000353
37174000,0.0324,0.013523,0.002678,0.000431,0.000353
37175000,0.0324,0.013523,0.002678,0.000431,0.000235
37176000,0.0324,0.013523,0.002678,0.000431,0.000353
37177000,0.0324,0.013523,0.002678,0.000431,0.000470
37178000,0.0324,0.013523,0.002678,0.000431,0.000353
37179000,0.0324,0.013523,0.002678,0.000431,0.000118
37180000,0.0324,0.013523,0.002678,0.000431,0.000470
37181000,0.0324,0.013523,0.002678,0.000431,0.000353
37182000,0.0324,0.013523,0.002678,0.000431,0.000235
37183000,0.0324,0.013523,0.002678,0.000431,0.000353
37184000,0.0324,0.013523,0.002678,0.000431,0.000470
37185000,0.0324,0.013523,0.002678,0.000431,0.000353
37186000,0.0324,0.013523,0.002678,0.000431,0.000118
37187000,0.0324,0.013523,0.002678,0.000431,0.000470
37188000,0.0324,0.013523,0.002678,0.000431,0.000353
37189000,0.0324,0.013523,0.002678,0.000431,0.000235
37190000,0.0324,0.013523,0.002678,0.000431,0.000353
37191000,0.0324,0.013523,0.002678,0.000431,0.000470
37192000,0.0324,0.013523,0.002678,0.000431,0.000353
37193000,0.0324,0.013523,0.002678,0.000431,0.000118
37194000,0.0324,0.013523,0.002678,0.000431,0.000470
37195000,0.0324,0.013523,0.002678,0.000431,0.000353
37196000,0.0324,0.013523,0.002678,0.000431,0.000235
37197000,0.0324,0.013523,0.002678,0.000431,0.000353
37198000,0.0324,0.013523,0.002678,0.000431,0.000470
37199000,0.0324,0.013523,0.002678,0.000431,0.000353
37200000,0.0324,0.013523,0.002678,0.000431,0.000118
37201000,0.0324,0.013523,0.002678,0.000431,0.000470
37202000,0.0324,0.013523,0.002678,0.000431,0.000353
37203000,0.0324,0.013523,0.002678,0.000431,0.000235
37204000,0.0324,0.013523,0.002678,0.000431,0.000353
37205000,0.0324,0.013523,0.002678,0.000431,0.000470
37206000,0.0324,0.013523,0.002678,0.000431,0.000235
37207000,0.0324,0.013523,0.002678,0.000431,0.000235
37208000,0.0324,0.013523,0.002678,0.000431,0.000470
37209000,0.0324,0.013523,0.002678,0.000431,0.000353
37210000,0.0324,0.013523,0.002678,0.000431,0.000235
37211000,0.0324,0.013523,0.002678,0.000431,0.000353
37212000,0.0324,0.013523,0.002678,0.000431,0.000470
37213000,0.0324,0.013523,0.002678,0.000431,0.000235
37214000,0.0324,0.013523,0.002678,0.000431,0.000235
37215000,0.0324,0.013523,0.002678,0.000431,0.000470
37216000,0.0324,0.013523,0.002678,0.000431,0.000353
37217000,0.0324,0.013523,0.002678,0.000431,0.000235
37218000,0.0324,0.013523,0.002678,0.000431,0.000353
37219000,0.0324,0.013523,0.002678,0.000431,0.000470
37220000,0.0324,0.013523,0.002678,0.000431,0.000235
37221000,0.0324,0.013523,0.002678,0.000431,0.000235
37222000,0.0324,0.013523,0.002678,0.000431,0.000470
37223000,0.0324,0.013523,0.002678,0.000431,0.000353
37224000,0.0324,0.013523,0.002678,0.000431,0.000235
37225000,0.0324,0.013523,0.002678,0.000431,0.000353
37226000,0.0324,0.013523,0.002678,0.000431,0.000470
37227000,0.0324,0.013523,0.002678,0.000431,0.000235
37228000,0.0324,0.013523,0.002678,0.000431,0.000235
37229000,0.0324,0.013523,0.002678,0.000431,0.000470
37230000,0.0324,0.013523,0.002678,0.000431,0.000353
37231000,0.0324,0.013523,0.002678,0.000431,0.000235
37232000,0.0324,0.013523,0.002678,0.000431,0.000353
37233000,0.0324,0.013523,0.002678,0.000431,0.000470
37234000,0.0324,0.013523,0.002678,0.000431,0.000235
37235000,0.0324,0.013523,0.002678,0.000431,0.000235
37236000,0.0324,0.013523,0.002678,0.000431,0.000470
37237000,0.0324,0.013523,0.002678,0.000431,0.000353
37238000,0.0324,0.013523,0.002678,0.000431,0.000235
37239000,0.0324,0.013523,0.002678,0.000431,0.000353
37240000,0.0324,0.013523,0.002678,0.000431,0.000470
37241000,0.0324,0.013523,0.002678,0.000431,0.000118
37242000,0.0324,0.013523,0.002678,0.000431,0.000353
37243000,0.0324,0.013523,0.002678,0.000431,0.000470
37244000,0.0324,0.013523,0.002678,0.000431,0.000353
37245000,0.0324,0.013523,0.002678,0.000431,0.000235
37246000,0.0324,0.013523,0.002678,0.000431,0.000353
37247000,0.0324,0.013523,0.002678,0.000431,0.000470
37248000,0.0324,0.013523,0.002678,0.000431,0.000118
37249000,0.0324,0.013523,0.002678,0.000431,0.000353
37250000,0.0324,0.013523,0.002678,0.000431,0.000470
37251000,0.0324,0.013523,0.002678,0.000431,0.000353
37252000,0.0324,0.013523,0.002678,0.000431,0.000235
37253000,0.0324,0.013523,0.002678,0.000431,0.000353
37254000,0.0324,0.013523,0.002678,0.000431,0.000470
37255000,0.0324,0.013523,0.002678,0.000431,0.000118
37256000,0.0324,0.013523,0.002678,0.000431,0.000353
37257000,0.0324,0.013523,0.002678,0.000431,0.000470
37258000,0.0324,0.013523,0.002678,0.000431,0.000353
37259000,0.0324,0.013523,0.002678,0.000431,0.000235
37260000,0.0324,0.013523,0.002678,0.000431,0.000353
37261000,0.0324,0.013523,0.002678,0.000431,0.000470
37262000,0.0324,0.013523,0.002678,0.000431,0.000118
37263000,0.0324,0.013523,0.002678,0.000431,0.000353
37264000,0.0324,0.013523,0.002678,0.000431,0.000470
37265000,0.0324,0.013523,0.002678,0.000431,0.000353
37266000,0.0324,0.013523,0.002678,0.000431,0.000235
37267000,0.0324,0.013523,0.002678,0.000431,0.000353
37268000,0.0324,0.013523,0.002678,0.000431,0.000353
37269000,0.0324,0.013523,0.002678,0.000431,0.000235
37270000,0.0324,0.013523,0.002678,0.000431,0.000353
37271000,0.0324,0.013523,0.002678,0.000431,0.000470
37272000,0.0324,0.013523,0.002678,0.000431,0.000353
37273000,0.0324,0.013523,0.002678,0.000431,0.000235
37274000,0.0324,0.013523,0.002678,0.000431,0.000353
37275000,0.0324,0.013523,0.002678,0.000431,0.000353
37276000,0.0324,0.013523,0.002678,0.000431,0.000235
37277000,0.0324,0.013523,0.002678,0.000431,0.000353
37278000,0.0324,0.013523,0.002678,0.000431,0.000470
37279000,0.0324,0.013523,0.002678,0.000431,0.000353
37280000,0.0324,0.013523,0.002678,0.000431,0.000235
37281000,0.0324,0.013523,0.002678,0.000431,0.000353
37282000,0.0324,0.013523,0.002678,0.000431,0.000353
37283000,0.0324,0.013523,0.002678,0.000431,0.000235
37284000,0.0324,0.013523,0.002678,0.000431,0.000353
37285000,0.0324,0.013523,0.002678,0.000431,0.000470
37286000,0.0324,0.013523,0.002678,0.000431,0.000353
37287000,0.0324,0.013523,0.002678,0.000431,0.000235
37288000,0.0324,0.013523,0.002678,0.000431,0.000353
37289000,0.0324,0.013523,0.002678,0.000431,0.000353
37290000,0.0324,0.013523,0.002678,0.000431,0.000235
37291000,0.0324,0.013523,0.002678,0.000431,0.000353
37292000,0.0324,0.013523,0.002678,0.000431,0.000470
37293000,0.0324,0.013523,0.002678,0.000431,0.000353
37294000,0.0324,0.013523,0.002678,0.000431,0.000235
37295000,0.0324,0.013523,0.002678,0.000431,0.000353
37296000,0.0324,0.013523,0.002678,0.000431,0.000353
37297000,0.0324,0.013523,0.002678,0.000431,0.000235
37298000,0.0324,0.013523,0.002678,0.000431,0.000353
37299000,0.0324,0.013523,0.002678,0.000431,0.000470
37300000,0.0324,0.013523,0.002678,0.000431,0.000353
37301000,0.0324,0.013523,0.002678,0.000431,0.000235
37302000,0.0324,0.013523,0.002678,0.000431,0.000353
37303000,0.0324,0.013523,0.002678,0.000431,0.000353
37304000,0.0324,0.013523,0.002678,0.000431,0.000235
37305000,0.0324,0.013523,0.002678,0.000431,0.000353
37306000,0.0324,0.013523,0.002678,0.000431,0.000470
37307000,0.0324,0.013523,0.002678,0.000431,0.000353
37308000,0.0324,0.013523,0.002678,0.000431,0.000235
37309000,0.0324,0.013523,0.002678,0.000431,0.000353
37310000,0.0324,0.013523,0.002678,0.000431,0.000353
37311000,0.0324,0.013523,0.002678,0.000431,0.000235
37312000,0.0324,0.013523,0.002678,0.000431,0.000353
37313000,0.0324,0.013523,0.002678,0.000431,0.000470
37314000,0.0324,0.013523,0.002678,0.000431,0.000353
37315000,0.0324,0.013523,0.002678,0.000431,0.000235
37316000,0.0324,0.013523,0.002678,0.000431,0.000353
37317000,0.0324,0.013523,0.002678,0.000431,0.000353
37318000,0.0324,0.013523,0.002678,0.000431,0.000235
37319000,0.0324,0.013523,0.002678,0.000431,0.000353
37320000,0.0324,0.013523,0.002678,0.000431,0.000470
37321000,0.0324,0.013523,0.002678,0.000431,0.000353
37322000,0.0324,0.013523,0.002678,0.000431,0.000118
37323000,0.0324,0.013523,0.002678,0.000431,0.000470
37324000,0.0324,0.013523,0.002678,0.000431,0.000353
37325000,0.0324,0.013523,0.002678,0.000431,0.000235
37326000,0.0324,0.013523,0.002678,0.000431,0.000353
37327000,0.0324,0.013523,0.002678,0.000431,0.000470
37328000,0.0324,0.013523,0.002678,0.000431,0.000353
37329000,0.0324,0.013523,0.002678,0.000431,0.000118
37330000,0.0324,0.013523,0.002678,0.000431,0.000470
37331000,0.0324,0.013523,0.002678,0.000431,0.000353
37332000,0.0324,0.013523,0.002678,0.000431,0.000235
37333000,0.0324,0.013523,0.002678,0.000431,0.000353
37334000,0.0324,0.013523,0.002678,0.000431,0.000470
37335000,0.0324,0.013523,0.002678,0.000431,0.000353
37336000,0.0324,0.013523,0.002678,0.000431,0.000118
37337000,0.0324,0.013523,0.002678,0.000431,0.000470
37338000,0.0324,0.013523,0.002678,0.000431,0.000353
37339000,0.0324,0.013523,0.002678,0.000431,0.000235
37340000,0.0324,0.013523,0.002678,0.000431,0.000353
37341000,0.0324,0.013523,0.002678,0.000431,0.000470
37342000,0.0324,0.013523,0.002678,0.000431,0.000235
37343000,0.0324,0.013523,0.002678,0.000431,0.000235
37344000,0.0324,0.013523,0.002678,0.000431,0.000470
37345000,0.0324,0.013523,0.002678,0.000431,0.000353
37346000,0.0324,0.013523,0.002678,0.000431,0.000235
37347000,0.0324,0.013523,0.002678,0.000431,0.000353
37348000,0.0324,0.013523,0.002678,0.000431,0.000470
37349000,0.0324,0.013523,0.002678,0.000431,0.000235
37350000,0.0324,0.013523,0.002678,0.000431,0.000235
37351000,0.0324,0.013523,0.002678,0.000431,0.000470
37352000,0.0324,0.013523,0.002678,0.000431,0.000353
37353000,0.0324,0.013523,0.002678,0.000431,0.000235
37354000,0.0324,0.013523,0.002678,0.000431,0.000353
37355000,0.0324,0.013523,0.002678,0.000431,0.000470
37356000,0.0324,0.013523,0.002678,0.000431,0.000235
37357000,0.0324,0.013523,0.002678,0.000431,0.000235
37358000,0.0324,0.013523,0.002678,0.000431,0.000470
37359000,0.0324,0.013523,0.002678,0.000431,0.000353
37360000,0.0324,0.013523,0.002678,0.000431,0.000235
37361000,0.0324,0.013523,0.002678,0.000431,0.000353
37362000,0.0324,0.013523,0.002678,0.000431,0.000470
37363000,0.0324,0.013523,0.002678,0.000431,0.000235
37364000,0.0324,0.013523,0.002678,0.000431,0.000235
37365000,0.0324,0.013523,0.002678,0.000431,0.000470
37366000,0.0324,0.013523,0.002678,0.000431,0.000353
37367000,0.0324,0.013523,0.002678,0.000431,0.000235
37368000,0.0324,0.013523,0.002678,0.000431,0.000353
37369000,0.0324,0.013523,0.002678,0.000431,0.000470
37370000,0.0324,0.013523,0.002678,0.000431,0.000235
37371000,0.0324,0.013523,0.002678,0.000431,0.000235
37372000,0.0324,0.013523,0.002678,0.000431,0.000470
37373000,0.0324,0.013523,0.002678,0.000431,0.000353
37374000,0.0324,0.013523,0.002678,0.000431,0.000235
37375000,0.0324,0.013523,0.002678,0.000431,0.000353
37376000,0.0324,0.013523,0.002678,0.000431,0.000470
37377000,0.0324,0.013523,0.002678,0.000431,0.000235
37378000,0.0324,0.013523,0.002678,0.000431,0.000235
37379000,0.0324,0.013523,0.002678,0.000431,0.000470
37380000,0.0324,0.013523,0.002678,0.000431,0.000353
37381000,0.0324,0.013523,0.002678,0.000431,0.000235
37382000,0.0324,0.013523,0.002678,0.000431,0.000353
37383000,0.0324,0.013523,0.002678,0.000431,0.000470
37384000,0.0324,0.013523,0.002678,0.000431,0.000118
37385000,0.0324,0.013523,0.002678,0.000431,0.000353
37386000,0.0324,0.013523,0.002678,0.000431,0.000470
37387000,0.0324,0.013523,0.002678,0.000431,0.000353
37388000,0.0324,0.013523,0.002678,0.000431,0.000235
37389000,0.0324,0.013523,0.002678,0.000431,0.000353
37390000,0.0324,0.013523,0.002678,0.000431,0.000470
37391000,0.0324,0.013523,0.002678,0.000431,0.000118
37392000,0.0324,0.013523,0.002678,0.000431,0.000353
37393000,0.0324,0.013523,0.002678,0.000431,0.000470
37394000,0.0324,0.013523,0.002678,0.000431,0.000353
37395000,0.0324,0.013523,0.002678,0.000431,0.000235
37396000,0.0324,0.013523,0.002678,0.000431,0.000353
37397000,0.0324,0.013523,0.002678,0.000431,0.000470
37398000,0.0324,0.013523,0.002678,0.000431,0.000118
37399000,0.0324,0.013523,0.002678,0.000431,0.000353
37400000,0.0324,0.013523,0.002678,0.000431,0.000470
37401000,0.0324,0.013523,0.002678,0.000431,0.000353
37402000,0.0324,0.013523,0.002678,0.000431,0.000235
37403000,0.0324,0.013523,0.002678,0.000431,0.000353
37404000,0.0324,0.013523,0.002678,0.000431,0.000470
37405000,0.0324,0.013523,0.002678,0.000431,0.000118
37406000,0.0324,0.013523,0.002678,0.000431,0.000353
37407000,0.0324,0.013523,0.002678,0.000431,0.000470
37408000,0.0324,0.013523,0.002678,0.000431,0.000353
37409000,0.0324,0.013523,0.002678,0.000431,0.000235
37410000,0.0324,0.013523,0.002678,0.000431,0.000353
37411000,0.0324,0.013523,0.002678,0.000431,0.000353
37412000,0.0324,0.013523,0.002678,0.000431,0.000235
37413000,0.0324,0.013523,0.002678,0.000431,0.000353
37414000,0.0324,0.013523,0.002678,0.000431,0.000470
37415000,0.0324,0.013523,0.002678,0.000431,0.000353
37416000,0.0324,0.013523,0.002678,0.000431,0.000235
37417000,0.0324,0.013523,0.002678,0.000431,0.000353
37418000,0.0324,0.013523,0.002678,0.000431,0.000353
37419000,0.0324,0.013523,0.002678,0.000431,0.000235
37420000,0.0324,0.013523,0.002678,0.000431,0.000353
37421000,0.0324,0.013523,0.002678,0.000431,0.000470
37422000,0.0324,0.013523,0.002678,0.000431,0.000353
37423000,0.0324,0.013523,0.002678,0.000431,0.000235
37424000,0.0324,0.013523,0.002678,0.000431,0.000353
37425000,0.0324,0.013523,0.002678,0.000431,0.000353
37426000,0.0324,0.013523,0.002678,0.000431,0.000235
37427000,0.0324,0.013523,0.002678,0.000431,0.000353
37428000,0.0324,0.013523,0.002678,0.000431,0.000470
37429000,0.0324,0.013523,0.002678,0.000431,0.000353
37430000,0.0324,0.013523,0.002678,0.000431,0.000235
37431000,0.0324,0.013523,0.002678,0.000431,0.000353
37432000,0.0324,0.013523,0.002678,0.000431,0.000353
37433000,0.0324,0.013523,0.002678,0.000431,0.000235
37434000,0.0324,0.013523,0.002678,0.000431,0.000353
37435000,0.0324,0.013523,0.002678,0.000431,0.000470
37436000,0.0324,0.013523,0.002678,0.000431,0.000353
37437000,0.0324,0.013523,0.002678,0.000431,0.000235
37438000,0.0324,0.013523,0.002678,0.000431,0.000353
37439000,0.0324,0.013523,0.002678,0.000431,0.000353
37440000,0.0324,0.013523,0.002678,0.000431,0.000235
37441000,0.0324,0.013523,0.002678,0.000431,0.000353
37442000,0.0324,0.013523,0.002678,0.000431,0.000470
37443000,0.0324,0.013523,0.002678,0.000431,0.000353
37444000,0.0324,0.013523,0.002678,0.000431,0.000235
37445000,0.0324,0.013523,0.002678,0.000431,0.000353
37446000,0.0324,0.013523,0.002678,0.000431,0.000353
37447000,0.0324,0.013523,0.002678,0.000431,0.000235
37448000,0.0324,0.013523,0.002678,0.000431,0.000353
37449000,0.0324,0.013523,0.002678,0.000431,0.000470
37450000,0.0324,0.013523,0.002678,0.000431,0.000353
37451000,0.0324,0.013523,0.002678,0.000431,0.000235
37452000,0.0324,0.013523,0.002678,0.000431,0.000353
37453000,0.0324,0.013523,0.002678,0.000431,0.000353
37454000,0.0324,0.013523,0.002678,0.000431,0.000235
37455000,0.0324,0.013523,0.002678,0.000431,0.000353
37456000,0.0324,0.013523,0.002678,0.000431,0.000470
37457000,0.0324,0.013523,0.002678,0.000431,0.000353
37458000,0.0324,0.013523,0.002678,0.000431,0.000118
37459000,0.0324,0.013523,0.002678,0.000431,0.000470
37460000,0.0324,0.013523,0.002678,0.000431,0.000353
37461000,0.0324,0.013523,0.002678,0.000431,0.000235
37462000,0.0324,0.013523,0.002678,0.000431,0.000353
37463000,0.0324,0.013523,0.002678,0.000431,0.000470
37464000,0.0324,0.013523,0.002678,0.000431,0.000353
37465000,0.0324,0.013523,0.002678,0.000431,0.000118
37466000,0.0324,0.013523,0.002678,0.000431,0.000470
37467000,0.0324,0.013523,0.002678,0.000431,0.000353
37468000,0.0324,0.013523,0.002678,0.000431,0.000235
37469000,0.0324,0.013523,0.002678,0.000431,0.000353
37470000,0.0324,0.013523,0.002678,0.000431,0.000470
37471000,0.0324,0.013523,0.002678,0.000431,0.000353
37472000,0.0324,0.013523,0.002678,0.000431,0.000118
37473000,0.0324,0.013523,0.002678,0.000431,0.000470
37474000,0.0324,0.013523,0.002678,0.000431,0.000353
37475000,0.0324,0.013523,0.002678,0.000431,0.000235
37476000,0.0324,0.013523,0.002678,0.000431,0.000353
37477000,0.0324,0.013523,0.002678,0.000431,0.000470
37478000,0.0324,0.013523,0.002678,0.000431,0.000353
37479000,0.0324,0.013523,0.002678,0.000431,0.000118
37480000,0.0324,0.013523,0.002678,0.000431,0.000470
37481000,0.0324,0.013523,0.002678,0.000431,0.000353
37482000,0.0324,0.013523,0.002678,0.000431,0.000235
37483000,0.0324,0.013523,0.002678,0.000431,0.000353
37484000,0.0324,0.013523,0.002678,0.000431,0.000470
37485000,0.0324,0.013523,0.002678,0.000431,0.000235
37486000,0.0324,0.013523,0.002678,0.000431,0.000235
37487000,0.0324,0.013523,0.002678,0.000431,0.000470
37488000,0.0324,0.013523,0.002678,0.000431,0.000353
37489000,0.0324,0.013523,0.002678,0.000431,0.000235
37490000,0.0324,0.013523,0.002678,0.000431,0.000353
37491000,0.0324,0.013523,0.002678,0.000431,0.000470
37492000,0.0324,0.013523,0.002678,0.000431,0.000235
37493000,0.0324,0.013523,0.002678,0.000431,0.000235
37494000,0.0324,0.013523,0.002678,0.000431,0.000470
37495000,0.0324,0.013523,0.002678,0.000431,0.000353
37496000,0.0324,0.013523,0.002678,0.000431,0.000235
37497000,0.0324,0.013523,0.002678,0.000431,0.000353
37498000,0.0324,0.013523,0.002678,0.000431,0.000470
37499000,0.0324,0.013523,0.002678,0.000431,0.000235
37500000,0.0324,0.013523,0.002678,0.000431,0.000235
37501000,0.0324,0.013523,0.002678,0.000431,0.000470
37502000,0.0324,0.013523,0.002678,0.000431,0.000353
37503000,0.0324,0.013523,0.002678,0.000431,0.000235
37504000,0.0324,0.013523,0.002678,0.000431,0.000353
37505000,0.0324,0.013523,0.002678,0.000431,0.000470
37506000,0.0324,0.013523,0.002678,0.000431,0.000235
37507000,0.0324,0.013523,0.002678,0.000431,0.000235
37508000,0.0324,0.013523,0.002678,0.000431,0.000470
37509000,0.0324,0.013523,0.002678,0.000431,0.000353
37510000,0.0324,0.013523,0.002678,0.000431,0.000235
37511000,0.0324,0.013523,0.002678,0.000431,0.000353
37512000,0.0324,0.013523,0.002678,0.000431,0.000470
37513000,0.0324,0.013523,0.002678,0.000431,0.000235
37514000,0.0324,0.013523,0.002678,0.000431,0.000235
37515000,0.0324,0.013523,0.002678,0.000431,0.000470
37516000,0.0324,0.013523,0.002678,0.000431,0.000353
37517000,0.0324,0.013523,0.002678,0.000431,0.000235
37518000,0.0324,0.013523,0.002678,0.000431,0.000353
37519000,0.0324,0.013523,0.002678,0.000431,0.000470
37520000,0.0324,0.013523,0.002678,0.000431,0.000235
37521000,0.0324,0.013523,0.002678,0.000431,0.000235
37522000,0.0324,0.013523,0.002678,0.000431,0.000470
37523000,0.0324,0.013523,0.002678,0.000431,0.000353
37524000,0.0324,0.013523,0.002678,0.000431,0.000235
37525000,0.0324,0.013523,0.002678,0.000431,0.000353
37526000,0.0324,0.013523,0.002678,0.000431,0.000470
37527000,0.0324,0.013523,0.002678,0.000431,0.000118
37528000,0.0324,0.013523,0.002678,0.000431,0.000353
37529000,0.0324,0.013523,0.002678,0.000431,0.000470
37530000,0.0324,0.013523,0.002678,0.000431,0.000353
37531000,0.0324,0.013523,0.002678,0.000431,0.000235
37532000,0.0324,0.013523,0.002678,0.000431,0.000353
37533000,0.0324,0.013523,0.002678,0.000431,0.000470
37534000,0.0324,0.013523,0.002678,0.000431,0.000118
37535000,0.0324,0.013523,0.002678,0.000431,0.000353
37536000,0.0324,0.013523,0.002678,0.000431,0.000470
37537000,0.0324,0.013523,0.002678,0.000431,0.000353
37538000,0.0324,0.013523,0.002678,0.000431,0.000235
37539000,0.0324,0.013523,0.002678,0.000431,0.000353
37540000,0.0324,0.013523,0.002678,0.000431,0.000470
37541000,0.0324,0.013523,0.002678,0.000431,0.000118
37542000,0.0324,0.013523,0.002678,0.000431,0.000353
37543000,0.0324,0.013523,0.002678,0.000431,0.000470
37544000,0.0324,0.013523,0.002678,0.000431,0.000353
37545000,0.0324,0.013523,0.002678,0.000431,0.000235
37546000,0.0324,0.013523,0.002678,0.000431,0.000353
37547000,0.0324,0.013523,0.002678,0.000431,0.000353
37548000,0.0324,0.013523,0.002678,0.000431,0.000235
37549000,0.0324,0.013523,0.002678,0.000431,0.000353
37550000,0.0324,0.013523,0.002678,0.000431,0.000470
37551000,0.0324,0.013523,0.002678,0.000431,0.000353
37552000,0.0324,0.013523,0.002678,0.000431,0.000235
37553000,0.0324,0.013523,0.002678,0.000431,0.000353
37554000,0.0324,0.013523,0.002678,0.000431,0.000353
37555000,0.0324,0.013523,0.002678,0.000431,0.000235
37556000,0.0324,0.013523,0.002678,0.000431,0.000353
37557000,0.0324,0.013523,0.002678,0.000431,0.000470
37558000,0.0324,0.013523,0.002678,0.000431,0.000353
37559000,0.0324,0.013523,0.002678,0.000431,0.000235
37560000,0.0324,0.013523,0.002678,0.000431,0.000353
37561000,0.0324,0.013523,0.002678,0.000431,0.000353
37562000,0.0324,0.013523,0.002678,0.000431,0.000235
37563000,0.0324,0.013523,0.002678,0.000431,0.000353
37564000,0.0324,0.013523,0.002678,0.000431,0.000470
37565000,0.0324,0.013523,0.002678,0.000431,0.000353
37566000,0.0324,0.013523,0.002678,0.000431,0.000235
37567000,0.0324,0.013523,0.002678,0.000431,0.000353
37568000,0.0324,0.013523,0.002678,0.000431,0.000353
37569000,0.0324,0.013523,0.002678,0.000431,0.000235
37570000,0.0324,0.013523,0.002678,0.000431,0.000353
37571000,0.0324,0.013523,0.002678,0.000431,0.000470
37572000,0.0324,0.013523,0.002678,0.000431,0.000353
37573000,0.0324,0.013523,0.002678,0.000431,0.000235
37574000,0.0324,0.013523,0.002678,0.000431,0.000353
37575000,0.0324,0.013523,0.002678,0.000431,0.000353
37576000,0.0324,0.013523,0.002678,0.000431,0.000235
37577000,0.0324,0.013523,0.002678,0.000431,0.000353
37578000,0.0324,0.013523,0.002678,0.000431,0.000470
37579000,0.0324,0.013523,0.002678,0.000431,0.000353
37580000,0.0324,0.013523,0.002678,0.000431,0.000235
37581000,0.0324,0.013523,0.002678,0.000431,0.000353
37582000,0.0324,0.013523,0.002678,0.000431,0.000353
37583000,0.0324,0.013523,0.002678,0.000431,0.000235
37584000,0.0324,0.013523,0.002678,0.000431,0.000353
37585000,0.0324,0.013523,0.002678,0.000431,0.000470
37586000,0.0324,0.013523,0.002678,0.000431,0.000353
37587000,0.0324,0.013523,0.002678,0.000431,0.000235
37588000,0.0324,0.013523,0.002678,0.000431,0.000353
37589000,0.0324,0.013523,0.002678,0.000431,0.000353
37590000,0.0324,0.013523,0.002678,0.000431,0.000235
37591000,0.0324,0.013523,0.002678,0.000431,0.000353
37592000,0.0324,0.013523,0.002678,0.000431,0.000470
37593000,0.0324,0.013523,0.002678,0.000431,0.000353
37594000,0.0324,0.013523,0.002678,0.000431,0.000235
37595000,0.0324,0.013523,0.002678,0.000431,0.000353
37596000,0.0324,0.013523,0.002678,0.000431,0.000353
37597000,0.0324,0.013523,0.002678,0.000431,0.000235
37598000,0.0324,0.013523,0.002678,0.000431,0.000353
37599000,0.0324,0.013523,0.002678,0.000431,0.000470
37600000,0.0324,0.013523,0.002678,0.000431,0.000353
37601000,0.0324,0.013523,0.002678,0.000431,0.000118
37602000,0.0324,0.013523,0.002678,0.000431,0.000470
37603000,0.0324,0.013523,0.002678,0.000431,0.000353
37604000,0.0324,0.013523,0.002678,0.000431,0.000235
37605000,0.0324,0.013523,0.002678,0.000431,0.000353
37606000,0.0324,0.013523,0.002678,0.000431,0.000470
37607000,0.0324,0.013523,0.002678,0.000431,0.000353
37608000,0.0324,0.013523,0.002678,0.000431,0.000118
37609000,0.0324,0.013523,0.002678,0.000431,0.000470
37610000,0.0324,0.013523,0.002678,0.000431,0.000353
37611000,0.0324,0.013523,0.002678,0.000431,0.000235
37612000,0.0324,0.013523,0.002678,0.000431,0.000353
37613000,0.0324,0.013523,0.002678,0.000431,0.000470
37614000,0.0324,0.013523,0.002678,0.000431,0.000353
37615000,0.0324,0.013523,0.002678,0.000431,0.000118
37616000,0.0324,0.013523,0.002678,0.000431,0.000470
37617000,0.0324,0.013523,0.002678,0.000431,0.000353
37618000,0.0324,0.013523,0.002678,0.000431,0.000235
37619000,0.0324,0.013523,0.002678,0.000431,0.000353
37620000,0.0324,0.013523,0.002678,0.000431,0.000470
37621000,0.0324,0.013523,0.002678,0.000431,0.000235
37622000,0.0324,0.013523,0.002678,0.000431,0.000235
37623000,0.0324,0.013523,0.002678,0.000431,0.000470
37624000,0.0324,0.013523,0.002678,0.000431,0.000353
37625000,0.0324,0.013523,0.002678,0.000431,0.000235
37626000,0.0324,0.013523,0.002678,0.000431,0.000353
37627000,0.0324,0.013523,0.002678,0.000431,0.000470
37628000,0.0324,0.013523,0.002678,0.000431,0.000235
37629000,0.0324,0.013523,0.002678,0.000431,0.000235
37630000,0.0324,0.013523,0.002678,0.000431,0.000470
37631000,0.0324,0.013523,0.002678,0.000431,0.000353
37632000,0.0324,0.013523,0.002678,0.000431,0.000235
37633000,0.0324,0.013523,0.002678,0.000431,0.000353
37634000,0.0324,0.013523,0.002678,0.000431,0.000470
37635000,0.0324,0.013523,0.002678,0.000431,0.000235
37636000,0.0324,0.013523,0.002678,0.000431,0.000235
37637000,0.0324,0.013523,0.002678,0.000431,0.000470
37638000,0.0324,0.013523,0.002678,0.000431,0.000353
37639000,0.0324,0.013523,0.002678,0.000431,0.000235
37640000,0.0324,0.013523,0.002678,0.000431,0.000353
37641000,0.0324,0.013523,0.002678,0.000431,0.000470
37642000,0.0324,0.013523,0.002678,0.000431,0.000235
37643000,0.0324,0.013523,0.002678,0.000431,0.000235
37644000,0.0324,0.013523,0.002678,0.000431,0.000470
37645000,0.0324,0.013523,0.002678,0.000431,0.000353
37646000,0.0324,0.013523,0.002678,0.000431,0.000235
37647000,0.0324,0.013523,0.002678,0.000431,0.000353
37648000,0.0324,0.013523,0.002678,0.000431,0.000470
37649000,0.0324,0.013523,0.002678,0.000431,0.000235
37650000,0.0324,0.013523,0.002678,0.000431,0.000235
37651000,0.0324,0.013523,0.002678,0.000431,0.000470
37652000,0.0324,0.013523,0.002678,0.000431,0.000353
37653000,0.0324,0.013523,0.002678,0.000431,0.000235
37654000,0.0324,0.013523,0.002678,0.000431,0.000353
37655000,0.0324,0.013523,0.002678,0.000431,0.000470
37656000,0.0324,0.013523,0.002678,0.000431,0.000235
37657000,0.0324,0.013523,0.002678,0.000431,0.000235
37658000,0.0324,0.013523,0.002678,0.000431,0.000470
37659000,0.0324,0.013523,0.002678,0.000431,0.000353
37660000,0.0324,0.013523,0.002678,0.000431,0.000235
37661000,0.0324,0.013523,0.002678,0.000431,0.000353
37662000,0.0324,0.013523,0.002678,0.000431,0.000470
37663000,0.0324,0.013523,0.002678,0.000431,0.000118
37664000,0.0324,0.013523,0.002678,0.000431,0.000353
37665000,0.0324,0.013523,0.002678,0.000431,0.000470
37666000,0.0324,0.013523,0.002678,0.000431,0.000353
37667000,0.0324,0.013523,0.002678,0.000431,0.000235
37668000,0.0324,0.013523,0.002678,0.000431,0.000353
37669000,0.0324,0.013523,0.002678,0.000431,0.000470
37670000,0.0324,0.013523,0.002678,0.000431,0.000118
37671000,0.0324,0.013523,0.002678,0.000431,0.000353
37672000,0.0324,0.013523,0.002678,0.000431,0.000470
37673000,0.0324,0.013523,0.002678,0.000431,0.000353
37674000,0.0324,0.013523,0.002678,0.000431,0.000235
37675000,0.0324,0.013523,0.002678,0.000431,0.000353
37676000,0.0324,0.013523,0.002678,0.000431,0.000470
37677000,0.0324,0.013523,0.002678,0.000431,0.000118
37678000,0.0324,0.013523,0.002678,0.000431,0.000353
37679000,0.0324,0.013523,0.002678,0.000431,0.000470
37680000,0.0324,0.013523,0.002678,0.000431,0.000353
37681000,0.0324,0.013523,0.002678,0.000431,0.000235
37682000,0.0324,0.013523,0.002678,0.000431,0.000353
37683000,0.0324,0.013523,0.002678,0.000431,0.000470
37684000,0.0324,0.013523,0.002678,0.000431,0.000118
37685000,0.0324,0.013523,0.002678,0.000431,0.000353
37686000,0.0324,0.013523,0.002678,0.000431,0.000470
37687000,0.0324,0.013523,0.002678,0.000431,0.000353
37688000,0.0324,0.013523,0.002678,0.000431,0.000235
37689000,0.0324,0.013523,0.002678,0.000431,0.000353
37690000,0.0324,0.013523,0.002678,0.000431,0.000353
37691000,0.0324,0.013523,0.002678,0.000431,0.000235
37692000,0.0324,0.013523,0.002678,0.000431,0.000353
37693000,0.0324,0.013523,0.002678,0.000431,0.000470
37694000,0.0324,0.013523,0.002678,0.000431,0.000353
37695000,0.0324,0.013523,0.002678,0.000431,0.000235
37696000,0.0324,0.013523,0.002678,0.000431,0.000353
37697000,0.0324,0.013523,0.002678,0.000431,0.000353
37698000,0.0324,0.013523,0.002678,0.000431,0.000235
37699000,0.0324,0.013523,0.002678,0.000431,0.000353
37700000,0.0324,0.013523,0.002678,0.000431,0.000470
37701000,0.0324,0.013523,0.002678,0.000431,0.000353
37702000,0.0324,0.013523,0.002678,0.000431,0.000235
37703000,0.0324,0.013523,0.002678,0.000431,0.000353
37704000,0.0324,0.013523,0.002678,0.000431,0.000353
37705000,0.0324,0.013523,0.002678,0.000431,0.000235
37706000,0.0324,0.013523,0.002678,0.000431,0.000353
37707000,0.0324,0.013523,0.002678,0.000431,0.000470
37708000,0.0324,0.013523,0.002678,0.000431,0.000353
37709000,0.0324,0.013523,0.002678,0.000431,0.000235
37710000,0.0324,0.013523,0.002678,0.000431,0.000353
37711000,0.0324,0.013523,0.002678,0.000431,0.000353
37712000,0.0324,0.013523,0.002678,0.000431,0.000235
37713000,0.0324,0.013523,0.002678,0.000431,0.000353
37714000,0.0324,0.013523,0.002678,0.000431,0.000470
37715000,0.0324,0.013523,0.002678,0.000431,0.000353
37716000,0.0324,0.013523,0.002678,0.000431,0.000235
37717000,0.0324,0.013523,0.002678,0.000431,0.000353
37718000,0.0324,0.013523,0.002678,0.000431,0.000353
37719000,0.0324,0.013523,0.002678,0.000431,0.000235
37720000,0.0324,0.013523,0.002678,0.000431,0.000353
37721000,0.0324,0.013523,0.002678,0.000431,0.000470
37722000,0.0324,0.013523,0.002678,0.000431,0.000353
37723000,0.0324,0.013523,0.002678,0.000431,0.000235
37724000,0.0324,0.013523,0.002678,0.000431,0.000353
37725000,0.0324,0.013523,0.002678,0.000431,0.000353
37726000,0.0324,0.013523,0.002678,0.000431,0.000235
37727000,0.0324,0.013523,0.002678,0.000431,0.000353
37728000,0.0324,0.013523,0.002678,0.000431,0.000470
37729000,0.0324,0.013523,0.002678,0.000431,0.000353
37730000,0.0324,0.013523,0.002678,0.000431,0.000235
37731000,0.0324,0.013523,0.002678,0.000431,0.000353
37732000,0.0324,0.013523,0.002678,0.000431,0.000353
37733000,0.0324,0.013523,0.002678,0.000431,0.000235
37734000,0.0324,0.013523,0.002678,0.000431,0.000353
37735000,0.0324,0.013523,0.002678,0.000431,0.000470
37736000,0.0324,0.013523,0.002678,0.000431,0.000353
37737000,0.0324,0.013523,0.002678,0.000431,0.000118
37738000,0.0324,0.013523,0.002678,0.000431,0.000470
37739000,0.0324,0.013523,0.002678,0.000431,0.000353
37740000,0.0324,0.013523,0.002678,0.000431,0.000235
37741000,0.0324,0.013523,0.002678,0.000431,0.000353
37742000,0.0324,0.013523,0.002678,0.000431,0.000470
37743000,0.0324,0.013523,0.002678,0.000431,0.000353
37744000,0.0324,0.013523,0.002678,0.000431,0.000118
37745000,0.0324,0.013523,0.002678,0.000431,0.000470
37746000,0.0324,0.013523,0.002678,0.000431,0.000353
37747000,0.0324,0.013523,0.002678,0.000431,0.000235
37748000,0.0324,0.013523,0.002678,0.000431,0.000353
37749000,0.0324,0.013523,0.002678,0.000431,0.000470
37750000,0.0324,0.013523,0.002678,0.000431,0.000353
37751000,0.0324,0.013523,0.002678,0.000431,0.000118
37752000,0.0324,0.013523,0.002678,0.000431,0.000470
37753000,0.0324,0.013523,0.002678,0.000431,0.000353
37754000,0.0324,0.013523,0.002678,0.000431,0.000235
37755000,0.0324,0.013523,0.002678,0.000431,0.000353
37756000,0.0324,0.013523,0.002678,0.000431,0.000470
37757000,0.0324,0.013523,0.002678,0.000431,0.000353
37758000,0.0324,0.013523,0.002678,0.000431,0.000118
37759000,0.0324,0.013523,0.002678,0.000431,0.000470
37760000,0.0324,0.013523,0.002678,0.000431,0.000353
37761000,0.0324,0.013523,0.002678,0.000431,0.000235
37762000,0.0324,0.013523,0.002678,0.000431,0.000353
37763000,0.0324,0.013523,0.002678,0.000431,0.000470
37764000,0.0324,0.013523,0.002678,0.000431,0.000235
37765000,0.0324,0.013523,0.002678,0.000431,0.000235
37766000,0.0324,0.013523,0.002678,0.000431,0.000470
37767000,0.0324,0.013523,0.002678,0.000431,0.000353
37768000,0.0324,0.013523,0.002678,0.000431,0.000235
37769000,0.0324,0.013523,0.002678,0.000431,0.000353
37770000,0.0324,0.013523,0.002678,0.000431,0.000470
37771000,0.0324,0.013523,0.002678,0.000431,0.000235
37772000,0.0324,0.013523,0.002678,0.000431,0.000235
37773000,0.0324,0.013523,0.002678,0.000431,0.000470
37774000,0.0324,0.013523,0.002678,0.000431,0.000353
37775000,0.0324,0.013523,0.002678,0.000431,0.000235
37776000,0.0324,0.013523,0.002678,0.000431,0.000353
37777000,0.0324,0.013523,0.002678,0.000431,0.000470
37778000,0.0324,0.013523,0.002678,0.000431,0.000235
37779000,0.0324,0.013523,0.002678,0.000431,0.000235
37780000,0.0324,0.013523,0.002678,0.000431,0.000470
37781000,0.0324,0.013523,0.002678,0.000431,0.000353
37782000,0.0324,0.013523,0.002678,0.000431,0.000235
37783000,0.0324,0.013523,0.002678,0.000431,0.000353
37784000,0.0324,0.013523,0.002678,0.000431,0.000470
37785000,0.0324,0.013523,0.002678,0.000431,0.000235
37786000,0.0324,0.013523,0.002678,0.000431,0.000235
37787000,0.0324,0.013523,0.002678,0.000431,0.000470
37788000,0.0324,0.013523,0.002678,0.000431,0.000353
37789000,0.0324,0.013523,0.002678,0.000431,0.000235
37790000,0.0324,0.013523,0.002678,0.000431,0.000353
37791000,0.0324,0.013523,0.002678,0.000431,0.000470
37792000,0.0324,0.013523,0.002678,0.000431,0.000235
37793000,0.0324,0.013523,0.002678,0.000431,0.000235
37794000,0.0324,0.013523,0.002678,0.000431,0.000470
37795000,0.0324,0.013523,0.002678,0.000431,0.000353
37796000,0.0324,0.013523,0.002678,0.000431,0.000235
37797000,0.0324,0.013523,0.002678,0.000431,0.000353
37798000,0.0324,0.013523,0.002678,0.000431,0.000470
37799000,0.0324,0.013523,0.002678,0.000431,0.000235
37800000,0.0324,0.013523,0.002678,0.000431,0.000235
37801000,0.0324,0.013523,0.002678,0.000431,0.000470
37802000,0.0324,0.013523,0.002678,0.000431,0.000353
37803000,0.0324,0.013523,0.002678,0.000431,0.000235
37804000,0.0324,0.013523,0.002678,0.000431,0.000353
37805000,0.0324,0.013523,0.002678,0.000431,0.000470
37806000,0.0324,0.013523,0.002678,0.000431,0.000118
37807000,0.0324,0.013523,0.002678,0.000431,0.000353
37808000,0.0324,0.013523,0.002678,0.000431,0.000470
37809000,0.0324,0.013523,0.002678,0.000431,0.000353
37810000,0.0324,0.013523,0.002678,0.000431,0.000235
37811000,0.0324,0.013523,0.002678,0.000431,0.000353
37812000,0.0324,0.013523,0.002678,0.000431,0.000470
37813000,0.0324,0.013523,0.002678,0.000431,0.000118
37814000,0.0324,0.013523,0.002678,0.000431,0.000353
37815000,0.0324,0.013523,0.002678,0.000431,0.000470
37816000,0.0324,0.013523,0.002678,0.000431,0.000353
37817000,0.0324,0.013523,0.002678,0.000431,0.000235
37818000,0.0324,0.013523,0.002678,0.000431,0.000353
37819000,0.0324,0.013523,0.002678,0.000431,0.000470
37820000,0.0324,0.013523,0.002678,0.000431,0.000118
37821000,0.0324,0.013523,0.002678,0.000431,0.000353
37822000,0.0324,0.013523,0.002678,0.000431,0.000470
37823000,0.0324,0.013523,0.002678,0.000431,0.000353
37824000,0.0324,0.013523,0.002678,0.000431,0.000235
37825000,0.0324,0.013523,0.002678,0.000431,0.000353
37826000,0.0324,0.013523,0.002678,0.000431,0.000353
37827000,0.0324,0.013523,0.002678,0.000431,0.000235
37828000,0.0324,0.013523,0.002678,0.000431,0.000353
37829000,0.0324,0.013523,0.002678,0.000431,0.000470
37830000,0.0324,0.013523,0.002678,0.000431,0.000353
37831000,0.0324,0.013523,0.002678,0.000431,0.000235
37832000,0.0324,0.013523,0.002678,0.000431,0.000353
37833000,0.0324,0.013523,0.002678,0.000431,0.000353
37834000,0.0324,0.013523,0.002678,0.000431,0.000235
37835000,0.0324,0.013523,0.002678,0.000431,0.000353
37836000,0.0324,0.013523,0.002678,0.000431,0.000470
37837000,0.0324,0.013523,0.002678,0.000431,0.000353
37838000,0.0324,0.013523,0.002678,0.000431,0.000235
37839000,0.0324,0.013523,0.002678,0.000431,0.000353
37840000,0.0324,0.013523,0.002678,0.000431,0.000353
37841000,0.0324,0.013523,0.002678,0.000431,0.000235
37842000,0.0324,0.013523,0.002678,0.000431,0.000353
37843000,0.0324,0.013523,0.002678,0.000431,0.000470
37844000,0.0324,0.013523,0.002678,0.000431,0.000353
37845000,0.0324,0.013523,0.002678,0.000431,0.000235
37846000,0.0324,0.013523,0.002678,0.000431,0.000353
37847000,0.0324,0.013523,0.002678,0.000431,0.000353
37848000,0.0324,0.013523,0.002678,0.000431,0.000235
37849000,0.0324,0.013523,0.002678,0.000431,0.000353
37850000,0.0324,0.013523,0.002678,0.000431,0.000470
37851000,0.0324,0.013523,0.002678,0.000431,0.000353
37852000,0.0324,0.013523,0.002678,0.000431,0.000235
37853000,0.0324,0.013523,0.002678,0.000431,0.000353
37854000,0.0324,0.013523,0.002678,0.000431,0.000353
37855000,0.0324,0.013523,0.002678,0.000431,0.000235
37856000,0.0324,0.013523,0.002678,0.000431,0.000353
37857000,0.0324,0.013523,0.002678,0.000431,0.000470
37858000,0.0324,0.013523,0.002678,0.000431,0.000353
37859000,0.0324,0.013523,0.002678,0.000431,0.000235
37860000,0.0324,0.013523,0.002678,0.000431,0.000353
37861000,0.0324,0.013523,0.002678,0.000431,0.000353
37862000,0.0324,0.013523,0.002678,0.000431,0.000235
37863000,0.0324,0.013523,0.002678,0.000431,0.000353
37864000,0.0324,0.013523,0.002678,0.000431,0.000470
37865000,0.0324,0.013523,0.002678,0.000431,0.000353
37866000,0.0324,0.013523,0.002678,0.000431,0.000235
37867000,0.0324,0.013523,0.002678,0.000431,0.000353
37868000,0.0324,0.013523,0.002678,0.000431,0.000353
37869000,0.0324,0.013523,0.002678,0.000431,0.000235
37870000,0.0324,0.013523,0.002678,0.000431,0.000353
37871000,0.0324,0.013523,0.002678,0.000431,0.000470
37872000,0.0324,0.013523,0.002678,0.000431,0.000353
37873000,0.0324,0.013523,0.002678,0.000431,0.000235
37874000,0.0324,0.013523,0.002678,0.000431,0.000353
37875000,0.0324,0.013523,0.002678,0.000431,0.000353
37876000,0.0324,0.013523,0.002678,0.000431,0.000235
37877000,0.0324,0.013523,0.002678,0.000431,0.000353
37878000,0.0324,0.013523,0.002678,0.000431,0.000470
37879000,0.0324,0.013523,0.002678,0.000431,0.000353
37880000,0.0324,0.013523,0.002678,0.000431,0.000118
37881000,0.0324,0.013523,0.002678,0.000431,0.000470
37882000,0.0324,0.013523,0.002678,0.000431,0.000353
37883000,0.0324,0.013523,0.002678,0.000431,0.000235
37884000,0.0324,0.013523,0.002678,0.000431,0.000353
37885000,0.0324,0.013523,0.002678,0.000431,0.000470
37886000,0.0324,0.013523,0.002678,0.000431,0.000353
37887000,0.0324,0.013523,0.002678,0.000431,0.000118
37888000,0.0324,0.013523,0.002678,0.000431,0.000470
37889000,0.0324,0.013523,0.002678,0.000431,0.000353
37890000,0.0324,0.013523,0.002678,0.000431,0.000235
37891000,0.0324,0.013523,0.002678,0.000431,0.000353
37892000,0.0324,0.013523,0.002678,0.000431,0.000470
37893000,0.0324,0.013523,0.002678,0.000431,0.000353
37894000,0.0324,0.013523,0.002678,0.000431,0.000118
37895000,0.0324,0.013523,0.002678,0.000431,0.000470
37896000,0.0324,0.013523,0.002678,0.000431,0.000353
37897000,0.0324,0.013523,0.002678,0.000431,0.000235
37898000,0.0324,0.013523,0.002678,0.000431,0.000353
37899000,0.0324,0.013523,0.002678,0.000431,0.000470
37900000,0.0324,0.013523,0.002678,0.000431,0.000353
37901000,0.0324,0.013523,0.002678,0.000431,0.000118
37902000,0.0324,0.013523,0.002678,0.000431,0.000470
37903000,0.0324,0.013523,0.002678,0.000431,0.000353
37904000,0.0324,0.013523,0.002678,0.000431,0.000235
37905000,0.0324,0.013523,0.002678,0.000431,0.000353
37906000,0.0324,0.013523,0.002678,0.000431,0.000470
37907000,0.0324,0.013523,0.002678,0.000431,0.000235
37908000,0.0324,0.013523,0.002678,0.000431,0.000235
37909000,0.0324,0.013523,0.002678,0.000431,0.000470
37910000,0.0324,0.013523,0.002678,0.000431,0.000353
37911000,0.0324,0.013523,0.002678,0.000431,0.000235
37912000,0.0324,0.013523,0.002678,0.000431,0.000353
37913000,0.0324,0.013523,0.002678,0.000431,0.000470
37914000,0.0324,0.013523,0.002678,0.000431,0.000235
37915000,0.0324,0.013523,0.002678,0.000431,0.000235
37916000,0.0324,0.013523,0.002678,0.000431,0.000470
37917000,0.0324,0.013523,0.002678,0.000431,0.000353
37918000,0.0324,0.013523,0.002678,0.000431,0.000235
37919000,0.0324,0.013523,0.002678,0.000431,0.000353
37920000,0.0324,0.013523,0.002678,0.000431,0.000470
37921000,0.0324,0.013523,0.002678,0.000431,0.000235
37922000,0.0324,0.013523,0.002678,0.000431,0.000235
37923000,0.0324,0.013523,0.002678,0.000431,0.000470
37924000,0.0324,0.013523,0.002678,0.000431,0.000353
37925000,0.0324,0.013523,0.002678,0.000431,0.000235
37926000,0.0324,0.013523,0.002678,0.000431,0.000353
37927000,0.0324,0.013523,0.002678,0.000431,0.000470
37928000,0.0324,0.013523,0.002678,0.000431,0.000235
37929000,0.0324,0.013523,0.002678,0.000431,0.000235
37930000,0.0324,0.013523,0.002678,0.000431,0.000470
37931000,0.0324,0.013523,0.002678,0.000431,0.000353
37932000,0.0324,0.013523,0.002678,0.000431,0.000235
37933000,0.0324,0.013523,0.002678,0.000431,0.000353
37934000,0.0324,0.013523,0.002678,0.000431,0.000470
37935000,0.0324,0.013523,0.002678,0.000431,0.000235
37936000,0.0324,0.013523,0.002678,0.000431,0.000235
37937000,0.0324,0.013523,0.002678,0.000431,0.000470
37938000,0.0324,0.013523,0.002678,0.000431,0.000353
37939000,0.0324,0.013523,0.002678,0.000431,0.000235
37940000,0.0324,0.013523,0.002678,0.000431,0.000353
37941000,0.0324,0.013523,0.002678,0.000431,0.000470
37942000,0.0324,0.013523,0.002678,0.000431,0.000118
37943000,0.0324,0.013523,0.002678,0.000431,0.000353
37944000,0.0324,0.013523,0.002678,0.000431,0.000470
37945000,0.0324,0.013523,0.002678,0.000431,0.000353
37946000,0.0324,0.013523,0.002678,0.000431,0.000235
37947000,0.0324,0.013523,0.002678,0.000431,0.000353
37948000,0.0324,0.013523,0.002678,0.000431,0.000470
37949000,0.0324,0.013523,0.002678,0.000431,0.000118
37950000,0.0324,0.013523,0.002678,0.000431,0.000353
37951000,0.0324,0.013523,0.002678,0.000431,0.000470
37952000,0.0324,0.013523,0.002678,0.000431,0.000353
37953000,0.0324,0.013523,0.002678,0.000431,0.000235
37954000,0.0324,0.013523,0.002678,0.000431,0.000353
37955000,0.0324,0.013523,0.002678,0.000431,0.000470
37956000,0.0324,0.013523,0.002678,0.000431,0.000118
37957000,0.0324,0.013523,0.002678,0.000431,0.000353
37958000,0.0324,0.013523,0.002678,0.000431,0.000470
37959000,0.0324,0.013523,0.002678,0.000431,0.000353
37960000,0.0324,0.013523,0.002678,0.000431,0.000235
37961000,0.0324,0.013523,0.002678,0.000431,0.000353
37962000,0.0324,0.013523,0.002678,0.000431,0.000470
37963000,0.0324,0.013523,0.002678,0.000431,0.000118
37964000,0.0324,0.013523,0.002678,0.000431,0.000353
37965000,0.0324,0.013523,0.002678,0.000431,0.000470
37966000,0.0324,0.013523,0.002678,0.000431,0.000353
37967000,0.0324,0.013523,0.002678,0.000431,0.000235
37968000,0.0324,0.013523,0.002678,0.000431,0.000353
37969000,0.0324,0.013523,0.002678,0.000431,0.000353
37970000,0.0324,0.013523,0.002678,0.000431,0.000235
37971000,0.0324,0.013523,0.002678,0.000431,0.000353
37972000,0.0324,0.013523,0.002678,0.000431,0.000470
37973000,0.0324,0.013523,0.002678,0.000431,0.000353
37974000,0.0324,0.013523,0.002678,0.000431,0.000235
37975000,0.0324,0.013523,0.002678,0.000431,0.000353
37976000,0.0324,0.013523,0.002678,0.000431,0.000353
37977000,0.0324,0.013523,0.002678,0.000431,0.000235
37978000,0.0324,0.013523,0.002678,0.000431,0.000353
37979000,0.0324,0.013523,0.002678,0.000431,0.000470
37980000,0.0324,0.013523,0.002678,0.000431,0.000353
37981000,0.0324,0.013523,0.002678,0.000431,0.000235
37982000,0.0324,0.013523,0.002678,0.000431,0.000353
37983000,0.0324,0.013523,0.002678,0.000431,0.000353
37984000,0.0324,0.013523,0.002678,0.000431,0.000235
37985000,0.0324,0.013523,0.002678,0.000431,0.000353
37986000,0.0324,0.013523,0.002678,0.000431,0.000470
37987000,0.0324,0.013523,0.002678,0.000431,0.000353
37988000,0.0324,0.013523,0.002678,0.000431,0.000235
37989000,0.0324,0.013523,0.002678,0.000431,0.000353
37990000,0.0324,0.013523,0.002678,0.000431,0.000353
37991000,0.0324,0.013523,0.002678,0.000431,0.000235
37992000,0.0324,0.013523,0.002678,0.000431,0.000353
37993000,0.0324,0.013523,0.002678,0.000431,0.000470
37994000,0.0324,0.013523,0.002678,0.000431,0.000353
37995000,0.0324,0.013523,0.002678,0.000431,0.000235
37996000,0.0324,0.013523,0.002678,0.000431,0.000353
37997000,0.0324,0.013523,0.002678,0.000431,0.000353
37998000,0.0324,0.013523,0.002678,0.000431,0.000235
37999000,0.0324,0.013523,0.002678,0.000431,0.000353
