Cycle,Area(mm^2),PeakDynamic(W),SubthresholdLeakage(W),GateLeakage(W),RunTimeDynamic(W)
10000000,0.0324,0.013523,0.002678,0.000431,0.000353
10001000,0.0324,0.013523,0.002678,0.000431,0.000235
10002000,0.0324,0.013523,0.002678,0.000431,0.000353
10003000,0.0324,0.013523,0.002678,0.000431,0.000470
10004000,0.0324,0.013523,0.002678,0.000431,0.000118
10005000,0.0324,0.013523,0.002678,0.000431,0.000353
10006000,0.0324,0.013523,0.002678,0.000431,0.000470
10007000,0.0324,0.013523,0.002678,0.000431,0.000353
10008000,0.0324,0.013523,0.002678,0.000431,0.000235
10009000,0.0324,0.013523,0.002678,0.000431,0.000353
10010000,0.0324,0.013523,0.002678,0.000431,0.000470
10011000,0.0324,0.013523,0.002678,0.000431,0.000118
10012000,0.0324,0.013523,0.002678,0.000431,0.000353
10013000,0.0324,0.013523,0.002678,0.000431,0.000470
10014000,0.0324,0.013523,0.002678,0.000431,0.000353
10015000,0.0324,0.013523,0.002678,0.000431,0.000235
10016000,0.0324,0.013523,0.002678,0.000431,0.000353
10017000,0.0324,0.013523,0.002678,0.000431,0.000470
10018000,0.0324,0.013523,0.002678,0.000431,0.000118
10019000,0.0324,0.013523,0.002678,0.000431,0.000353
10020000,0.0324,0.013523,0.002678,0.000431,0.000470
10021000,0.0324,0.013523,0.002678,0.000431,0.000353
10022000,0.0324,0.013523,0.002678,0.000431,0.000235
10023000,0.0324,0.013523,0.002678,0.000431,0.000353
10024000,0.0324,0.013523,0.002678,0.000431,0.000470
10025000,0.0324,0.013523,0.002678,0.000431,0.000118
10026000,0.0324,0.013523,0.002678,0.000431,0.000353
10027000,0.0324,0.013523,0.002678,0.000431,0.000470
10028000,0.0324,0.013523,0.002678,0.000431,0.000353
10029000,0.0324,0.013523,0.002678,0.000431,0.000235
10030000,0.0324,0.013523,0.002678,0.000431,0.000353
10031000,0.0324,0.013523,0.002678,0.000431,0.000353
10032000,0.0324,0.013523,0.002678,0.000431,0.000235
10033000,0.0324,0.013523,0.002678,0.000431,0.000353
10034000,0.0324,0.013523,0.002678,0.000431,0.000470
10035000,0.0324,0.013523,0.002678,0.000431,0.000353
10036000,0.0324,0.013523,0.002678,0.000431,0.000235
10037000,0.0324,0.013523,0.002678,0.000431,0.000353
10038000,0.0324,0.013523,0.002678,0.000431,0.000353
10039000,0.0324,0.013523,0.002678,0.000431,0.000235
10040000,0.0324,0.013523,0.002678,0.000431,0.000353
10041000,0.0324,0.013523,0.002678,0.000431,0.000470
10042000,0.0324,0.013523,0.002678,0.000431,0.000353
10043000,0.0324,0.013523,0.002678,0.000431,0.000235
10044000,0.0324,0.013523,0.002678,0.000431,0.000353
10045000,0.0324,0.013523,0.002678,0.000431,0.000353
10046000,0.0324,0.013523,0.002678,0.000431,0.000235
10047000,0.0324,0.013523,0.002678,0.000431,0.000353
10048000,0.0324,0.013523,0.002678,0.000431,0.000470
10049000,0.0324,0.013523,0.002678,0.000431,0.000353
10050000,0.0324,0.013523,0.002678,0.000431,0.000235
10051000,0.0324,0.013523,0.002678,0.000431,0.000353
10052000,0.0324,0.013523,0.002678,0.000431,0.000353
10053000,0.0324,0.013523,0.002678,0.000431,0.000235
10054000,0.0324,0.013523,0.002678,0.000431,0.000353
10055000,0.0324,0.013523,0.002678,0.000431,0.000470
10056000,0.0324,0.013523,0.002678,0.000431,0.000353
10057000,0.0324,0.013523,0.002678,0.000431,0.000235
10058000,0.0324,0.013523,0.002678,0.000431,0.000353
10059000,0.0324,0.013523,0.002678,0.000431,0.000353
10060000,0.0324,0.013523,0.002678,0.000431,0.000235
10061000,0.0324,0.013523,0.002678,0.000431,0.000353
10062000,0.0324,0.013523,0.002678,0.000431,0.000470
10063000,0.0324,0.013523,0.002678,0.000431,0.000353
10064000,0.0324,0.013523,0.002678,0.000431,0.000235
10065000,0.0324,0.013523,0.002678,0.000431,0.000353
10066000,0.0324,0.013523,0.002678,0.000431,0.000353
10067000,0.0324,0.013523,0.002678,0.000431,0.000235
10068000,0.0324,0.013523,0.002678,0.000431,0.000353
10069000,0.0324,0.013523,0.002678,0.000431,0.000470
10070000,0.0324,0.013523,0.002678,0.000431,0.000353
10071000,0.0324,0.013523,0.002678,0.000431,0.000235
10072000,0.0324,0.013523,0.002678,0.000431,0.000353
10073000,0.0324,0.013523,0.002678,0.000431,0.000353
10074000,0.0324,0.013523,0.002678,0.000431,0.000235
10075000,0.0324,0.013523,0.002678,0.000431,0.000353
10076000,0.0324,0.013523,0.002678,0.000431,0.000470
10077000,0.0324,0.013523,0.002678,0.000431,0.000353
10078000,0.0324,0.013523,0.002678,0.000431,0.000235
10079000,0.0324,0.013523,0.002678,0.000431,0.000353
10080000,0.0324,0.013523,0.002678,0.000431,0.000353
10081000,0.0324,0.013523,0.002678,0.000431,0.000235
10082000,0.0324,0.013523,0.002678,0.000431,0.000353
10083000,0.0324,0.013523,0.002678,0.000431,0.000470
10084000,0.0324,0.013523,0.002678,0.000431,0.000353
10085000,0.0324,0.013523,0.002678,0.000431,0.000118
10086000,0.0324,0.013523,0.002678,0.000431,0.000470
10087000,0.0324,0.013523,0.002678,0.000431,0.000353
10088000,0.0324,0.013523,0.002678,0.000431,0.000235
10089000,0.0324,0.013523,0.002678,0.000431,0.000353
10090000,0.0324,0.013523,0.002678,0.000431,0.000470
10091000,0.0324,0.013523,0.002678,0.000431,0.000353
10092000,0.0324,0.013523,0.002678,0.000431,0.000118
10093000,0.0324,0.013523,0.002678,0.000431,0.000470
10094000,0.0324,0.013523,0.002678,0.000431,0.000353
10095000,0.0324,0.013523,0.002678,0.000431,0.000235
10096000,0.0324,0.013523,0.002678,0.000431,0.000353
10097000,0.0324,0.013523,0.002678,0.000431,0.000470
10098000,0.0324,0.013523,0.002678,0.000431,0.000353
10099000,0.0324,0.013523,0.002678,0.000431,0.000118
10100000,0.0324,0.013523,0.002678,0.000431,0.000470
10101000,0.0324,0.013523,0.002678,0.000431,0.000353
10102000,0.0324,0.013523,0.002678,0.000431,0.000235
10103000,0.0324,0.013523,0.002678,0.000431,0.000353
10104000,0.0324,0.013523,0.002678,0.000431,0.000470
10105000,0.0324,0.013523,0.002678,0.000431,0.000235
10106000,0.0324,0.013523,0.002678,0.000431,0.000235
10107000,0.0324,0.013523,0.002678,0.000431,0.000470
10108000,0.0324,0.013523,0.002678,0.000431,0.000353
10109000,0.0324,0.013523,0.002678,0.000431,0.000235
10110000,0.0324,0.013523,0.002678,0.000431,0.000353
10111000,0.0324,0.013523,0.002678,0.000431,0.000470
10112000,0.0324,0.013523,0.002678,0.000431,0.000235
10113000,0.0324,0.013523,0.002678,0.000431,0.000235
10114000,0.0324,0.013523,0.002678,0.000431,0.000470
10115000,0.0324,0.013523,0.002678,0.000431,0.000353
10116000,0.0324,0.013523,0.002678,0.000431,0.000235
10117000,0.0324,0.013523,0.002678,0.000431,0.000353
10118000,0.0324,0.013523,0.002678,0.000431,0.000470
10119000,0.0324,0.013523,0.002678,0.000431,0.000235
10120000,0.0324,0.013523,0.002678,0.000431,0.000235
10121000,0.0324,0.013523,0.002678,0.000431,0.000470
10122000,0.0324,0.013523,0.002678,0.000431,0.000353
10123000,0.0324,0.013523,0.002678,0.000431,0.000235
10124000,0.0324,0.013523,0.002678,0.000431,0.000353
10125000,0.0324,0.013523,0.002678,0.000431,0.000470
10126000,0.0324,0.013523,0.002678,0.000431,0.000235
10127000,0.0324,0.013523,0.002678,0.000431,0.000235
10128000,0.0324,0.013523,0.002678,0.000431,0.000470
10129000,0.0324,0.013523,0.002678,0.000431,0.000353
10130000,0.0324,0.013523,0.002678,0.000431,0.000235
10131000,0.0324,0.013523,0.002678,0.000431,0.000353
10132000,0.0324,0.013523,0.002678,0.000431,0.000470
10133000,0.0324,0.013523,0.002678,0.000431,0.000235
10134000,0.0324,0.013523,0.002678,0.000431,0.000235
10135000,0.0324,0.013523,0.002678,0.000431,0.000470
10136000,0.0324,0.013523,0.002678,0.000431,0.000353
10137000,0.0324,0.013523,0.002678,0.000431,0.000235
10138000,0.0324,0.013523,0.002678,0.000431,0.000353
10139000,0.0324,0.013523,0.002678,0.000431,0.000470
10140000,0.0324,0.013523,0.002678,0.000431,0.000235
10141000,0.0324,0.013523,0.002678,0.000431,0.000235
10142000,0.0324,0.013523,0.002678,0.000431,0.000470
10143000,0.0324,0.013523,0.002678,0.000431,0.000353
10144000,0.0324,0.013523,0.002678,0.000431,0.000235
10145000,0.0324,0.013523,0.002678,0.000431,0.000353
10146000,0.0324,0.013523,0.002678,0.000431,0.000470
10147000,0.0324,0.013523,0.002678,0.000431,0.000118
10148000,0.0324,0.013523,0.002678,0.000431,0.000353
10149000,0.0324,0.013523,0.002678,0.000431,0.000470
10150000,0.0324,0.013523,0.002678,0.000431,0.000353
10151000,0.0324,0.013523,0.002678,0.000431,0.000235
10152000,0.0324,0.013523,0.002678,0.000431,0.000353
10153000,0.0324,0.013523,0.002678,0.000431,0.000470
10154000,0.0324,0.013523,0.002678,0.000431,0.000118
10155000,0.0324,0.013523,0.002678,0.000431,0.000353
10156000,0.0324,0.013523,0.002678,0.000431,0.000470
10157000,0.0324,0.013523,0.002678,0.000431,0.000353
10158000,0.0324,0.013523,0.002678,0.000431,0.000235
10159000,0.0324,0.013523,0.002678,0.000431,0.000353
10160000,0.0324,0.013523,0.002678,0.000431,0.000470
10161000,0.0324,0.013523,0.002678,0.000431,0.000118
10162000,0.0324,0.013523,0.002678,0.000431,0.000353
10163000,0.0324,0.013523,0.002678,0.000431,0.000470
10164000,0.0324,0.013523,0.002678,0.000431,0.000353
10165000,0.0324,0.013523,0.002678,0.000431,0.000235
10166000,0.0324,0.013523,0.002678,0.000431,0.000353
10167000,0.0324,0.013523,0.002678,0.000431,0.000353
10168000,0.0324,0.013523,0.002678,0.000431,0.000235
10169000,0.0324,0.013523,0.002678,0.000431,0.000353
10170000,0.0324,0.013523,0.002678,0.000431,0.000470
10171000,0.0324,0.013523,0.002678,0.000431,0.000353
10172000,0.0324,0.013523,0.002678,0.000431,0.000235
10173000,0.0324,0.013523,0.002678,0.000431,0.000353
10174000,0.0324,0.013523,0.002678,0.000431,0.000353
10175000,0.0324,0.013523,0.002678,0.000431,0.000235
10176000,0.0324,0.013523,0.002678,0.000431,0.000353
10177000,0.0324,0.013523,0.002678,0.000431,0.000470
10178000,0.0324,0.013523,0.002678,0.000431,0.000353
10179000,0.0324,0.013523,0.002678,0.000431,0.000235
10180000,0.0324,0.013523,0.002678,0.000431,0.000353
10181000,0.0324,0.013523,0.002678,0.000431,0.000353
10182000,0.0324,0.013523,0.002678,0.000431,0.000235
10183000,0.0324,0.013523,0.002678,0.000431,0.000353
10184000,0.0324,0.013523,0.002678,0.000431,0.000470
10185000,0.0324,0.013523,0.002678,0.000431,0.000353
10186000,0.0324,0.013523,0.002678,0.000431,0.000235
10187000,0.0324,0.013523,0.002678,0.000431,0.000353
10188000,0.0324,0.013523,0.002678,0.000431,0.000353
10189000,0.0324,0.013523,0.002678,0.000431,0.000235
10190000,0.0324,0.013523,0.002678,0.000431,0.000353
10191000,0.0324,0.013523,0.002678,0.000431,0.000470
10192000,0.0324,0.013523,0.002678,0.000431,0.000353
10193000,0.0324,0.013523,0.002678,0.000431,0.000235
10194000,0.0324,0.013523,0.002678,0.000431,0.000353
10195000,0.0324,0.013523,0.002678,0.000431,0.000353
10196000,0.0324,0.013523,0.002678,0.000431,0.000235
10197000,0.0324,0.013523,0.002678,0.000431,0.000353
10198000,0.0324,0.013523,0.002678,0.000431,0.000470
10199000,0.0324,0.013523,0.002678,0.000431,0.000353
10200000,0.0324,0.013523,0.002678,0.000431,0.000235
10201000,0.0324,0.013523,0.002678,0.000431,0.000353
10202000,0.0324,0.013523,0.002678,0.000431,0.000353
10203000,0.0324,0.013523,0.002678,0.000431,0.000235
10204000,0.0324,0.013523,0.002678,0.000431,0.000353
10205000,0.0324,0.013523,0.002678,0.000431,0.000470
10206000,0.0324,0.013523,0.002678,0.000431,0.000353
10207000,0.0324,0.013523,0.002678,0.000431,0.000235
10208000,0.0324,0.013523,0.002678,0.000431,0.000353
10209000,0.0324,0.013523,0.002678,0.000431,0.000353
10210000,0.0324,0.013523,0.002678,0.000431,0.000235
10211000,0.0324,0.013523,0.002678,0.000431,0.000353
10212000,0.0324,0.013523,0.002678,0.000431,0.000470
10213000,0.0324,0.013523,0.002678,0.000431,0.000353
10214000,0.0324,0.013523,0.002678,0.000431,0.000235
10215000,0.0324,0.013523,0.002678,0.000431,0.000353
10216000,0.0324,0.013523,0.002678,0.000431,0.000353
10217000,0.0324,0.013523,0.002678,0.000431,0.000235
10218000,0.0324,0.013523,0.002678,0.000431,0.000353
10219000,0.0324,0.013523,0.002678,0.000431,0.000470
10220000,0.0324,0.013523,0.002678,0.000431,0.000353
10221000,0.0324,0.013523,0.002678,0.000431,0.000118
10222000,0.0324,0.013523,0.002678,0.000431,0.000470
10223000,0.0324,0.013523,0.002678,0.000431,0.000353
10224000,0.0324,0.013523,0.002678,0.000431,0.000235
10225000,0.0324,0.013523,0.002678,0.000431,0.000353
10226000,0.0324,0.013523,0.002678,0.000431,0.000470
10227000,0.0324,0.013523,0.002678,0.000431,0.000353
10228000,0.0324,0.013523,0.002678,0.000431,0.000118
10229000,0.0324,0.013523,0.002678,0.000431,0.000470
10230000,0.0324,0.013523,0.002678,0.000431,0.000353
10231000,0.0324,0.013523,0.002678,0.000431,0.000235
10232000,0.0324,0.013523,0.002678,0.000431,0.000353
10233000,0.0324,0.013523,0.002678,0.000431,0.000470
10234000,0.0324,0.013523,0.002678,0.000431,0.000353
10235000,0.0324,0.013523,0.002678,0.000431,0.000118
10236000,0.0324,0.013523,0.002678,0.000431,0.000470
10237000,0.0324,0.013523,0.002678,0.000431,0.000353
10238000,0.0324,0.013523,0.002678,0.000431,0.000235
10239000,0.0324,0.013523,0.002678,0.000431,0.000353
10240000,0.0324,0.013523,0.002678,0.000431,0.000470
10241000,0.0324,0.013523,0.002678,0.000431,0.000353
10242000,0.0324,0.013523,0.002678,0.000431,0.000118
10243000,0.0324,0.013523,0.002678,0.000431,0.000470
10244000,0.0324,0.013523,0.002678,0.000431,0.000353
10245000,0.0324,0.013523,0.002678,0.000431,0.000235
10246000,0.0324,0.013523,0.002678,0.000431,0.000353
10247000,0.0324,0.013523,0.002678,0.000431,0.000470
10248000,0.0324,0.013523,0.002678,0.000431,0.000235
10249000,0.0324,0.013523,0.002678,0.000431,0.000235
10250000,0.0324,0.013523,0.002678,0.000431,0.000470
10251000,0.0324,0.013523,0.002678,0.000431,0.000353
10252000,0.0324,0.013523,0.002678,0.000431,0.000235
10253000,0.0324,0.013523,0.002678,0.000431,0.000353
10254000,0.0324,0.013523,0.002678,0.000431,0.000470
10255000,0.0324,0.013523,0.002678,0.000431,0.000235
10256000,0.0324,0.013523,0.002678,0.000431,0.000235
10257000,0.0324,0.013523,0.002678,0.000431,0.000470
10258000,0.0324,0.013523,0.002678,0.000431,0.000353
10259000,0.0324,0.013523,0.002678,0.000431,0.000235
10260000,0.0324,0.013523,0.002678,0.000431,0.000353
10261000,0.0324,0.013523,0.002678,0.000431,0.000470
10262000,0.0324,0.013523,0.002678,0.000431,0.000235
10263000,0.0324,0.013523,0.002678,0.000431,0.000235
10264000,0.0324,0.013523,0.002678,0.000431,0.000470
10265000,0.0324,0.013523,0.002678,0.000431,0.000353
10266000,0.0324,0.013523,0.002678,0.000431,0.000235
10267000,0.0324,0.013523,0.002678,0.000431,0.000353
10268000,0.0324,0.013523,0.002678,0.000431,0.000470
10269000,0.0324,0.013523,0.002678,0.000431,0.000235
10270000,0.0324,0.013523,0.002678,0.000431,0.000235
10271000,0.0324,0.013523,0.002678,0.000431,0.000470
10272000,0.0324,0.013523,0.002678,0.000431,0.000353
10273000,0.0324,0.013523,0.002678,0.000431,0.000235
10274000,0.0324,0.013523,0.002678,0.000431,0.000353
10275000,0.0324,0.013523,0.002678,0.000431,0.000470
10276000,0.0324,0.013523,0.002678,0.000431,0.000235
10277000,0.0324,0.013523,0.002678,0.000431,0.000235
10278000,0.0324,0.013523,0.002678,0.000431,0.000470
10279000,0.0324,0.013523,0.002678,0.000431,0.000353
10280000,0.0324,0.013523,0.002678,0.000431,0.000235
10281000,0.0324,0.013523,0.002678,0.000431,0.000353
10282000,0.0324,0.013523,0.002678,0.000431,0.000470
10283000,0.0324,0.013523,0.002678,0.000431,0.000235
10284000,0.0324,0.013523,0.002678,0.000431,0.000235
10285000,0.0324,0.013523,0.002678,0.000431,0.000470
10286000,0.0324,0.013523,0.002678,0.000431,0.000353
10287000,0.0324,0.013523,0.002678,0.000431,0.000235
10288000,0.0324,0.013523,0.002678,0.000431,0.000353
10289000,0.0324,0.013523,0.002678,0.000431,0.000470
10290000,0.0324,0.013523,0.002678,0.000431,0.000118
10291000,0.0324,0.013523,0.002678,0.000431,0.000353
10292000,0.0324,0.013523,0.002678,0.000431,0.000470
10293000,0.0324,0.013523,0.002678,0.000431,0.000353
10294000,0.0324,0.013523,0.002678,0.000431,0.000235
10295000,0.0324,0.013523,0.002678,0.000431,0.000353
10296000,0.0324,0.013523,0.002678,0.000431,0.000470
10297000,0.0324,0.013523,0.002678,0.000431,0.000118
10298000,0.0324,0.013523,0.002678,0.000431,0.000353
10299000,0.0324,0.013523,0.002678,0.000431,0.000470
10300000,0.0324,0.013523,0.002678,0.000431,0.000353
10301000,0.0324,0.013523,0.002678,0.000431,0.000235
10302000,0.0324,0.013523,0.002678,0.000431,0.000353
10303000,0.0324,0.013523,0.002678,0.000431,0.000470
10304000,0.0324,0.013523,0.002678,0.000431,0.000118
10305000,0.0324,0.013523,0.002678,0.000431,0.000353
10306000,0.0324,0.013523,0.002678,0.000431,0.000470
10307000,0.0324,0.013523,0.002678,0.000431,0.000353
10308000,0.0324,0.013523,0.002678,0.000431,0.000235
10309000,0.0324,0.013523,0.002678,0.000431,0.000353
10310000,0.0324,0.013523,0.002678,0.000431,0.000353
10311000,0.0324,0.013523,0.002678,0.000431,0.000235
10312000,0.0324,0.013523,0.002678,0.000431,0.000353
10313000,0.0324,0.013523,0.002678,0.000431,0.000470
10314000,0.0324,0.013523,0.002678,0.000431,0.000353
10315000,0.0324,0.013523,0.002678,0.000431,0.000235
10316000,0.0324,0.013523,0.002678,0.000431,0.000353
10317000,0.0324,0.013523,0.002678,0.000431,0.000353
10318000,0.0324,0.013523,0.002678,0.000431,0.000235
10319000,0.0324,0.013523,0.002678,0.000431,0.000353
10320000,0.0324,0.013523,0.002678,0.000431,0.000470
10321000,0.0324,0.013523,0.002678,0.000431,0.000353
10322000,0.0324,0.013523,0.002678,0.000431,0.000235
10323000,0.0324,0.013523,0.002678,0.000431,0.000353
10324000,0.0324,0.013523,0.002678,0.000431,0.000353
10325000,0.0324,0.013523,0.002678,0.000431,0.000235
10326000,0.0324,0.013523,0.002678,0.000431,0.000353
10327000,0.0324,0.013523,0.002678,0.000431,0.000470
10328000,0.0324,0.013523,0.002678,0.000431,0.000353
10329000,0.0324,0.013523,0.002678,0.000431,0.000235
10330000,0.0324,0.013523,0.002678,0.000431,0.000353
10331000,0.0324,0.013523,0.002678,0.000431,0.000353
10332000,0.0324,0.013523,0.002678,0.000431,0.000235
10333000,0.0324,0.013523,0.002678,0.000431,0.000353
10334000,0.0324,0.013523,0.002678,0.000431,0.000470
10335000,0.0324,0.013523,0.002678,0.000431,0.000353
10336000,0.0324,0.013523,0.002678,0.000431,0.000235
10337000,0.0324,0.013523,0.002678,0.000431,0.000353
10338000,0.0324,0.013523,0.002678,0.000431,0.000353
10339000,0.0324,0.013523,0.002678,0.000431,0.000235
10340000,0.0324,0.013523,0.002678,0.000431,0.000353
10341000,0.0324,0.013523,0.002678,0.000431,0.000470
10342000,0.0324,0.013523,0.002678,0.000431,0.000353
10343000,0.0324,0.013523,0.002678,0.000431,0.000235
10344000,0.0324,0.013523,0.002678,0.000431,0.000353
10345000,0.0324,0.013523,0.002678,0.000431,0.000353
10346000,0.0324,0.013523,0.002678,0.000431,0.000235
10347000,0.0324,0.013523,0.002678,0.000431,0.000353
10348000,0.0324,0.013523,0.002678,0.000431,0.000470
10349000,0.0324,0.013523,0.002678,0.000431,0.000353
10350000,0.0324,0.013523,0.002678,0.000431,0.000235
10351000,0.0324,0.013523,0.002678,0.000431,0.000353
10352000,0.0324,0.013523,0.002678,0.000431,0.000353
10353000,0.0324,0.013523,0.002678,0.000431,0.000235
10354000,0.0324,0.013523,0.002678,0.000431,0.000353
10355000,0.0324,0.013523,0.002678,0.000431,0.000470
10356000,0.0324,0.013523,0.002678,0.000431,0.000353
10357000,0.0324,0.013523,0.002678,0.000431,0.000235
10358000,0.0324,0.013523,0.002678,0.000431,0.000353
10359000,0.0324,0.013523,0.002678,0.000431,0.000353
10360000,0.0324,0.013523,0.002678,0.000431,0.000235
10361000,0.0324,0.013523,0.002678,0.000431,0.000353
10362000,0.0324,0.013523,0.002678,0.000431,0.000470
10363000,0.0324,0.013523,0.002678,0.000431,0.000353
10364000,0.0324,0.013523,0.002678,0.000431,0.000118
10365000,0.0324,0.013523,0.002678,0.000431,0.000470
10366000,0.0324,0.013523,0.002678,0.000431,0.000353
10367000,0.0324,0.013523,0.002678,0.000431,0.000235
10368000,0.0324,0.013523,0.002678,0.000431,0.000353
10369000,0.0324,0.013523,0.002678,0.000431,0.000470
10370000,0.0324,0.013523,0.002678,0.000431,0.000353
10371000,0.0324,0.013523,0.002678,0.000431,0.000118
10372000,0.0324,0.013523,0.002678,0.000431,0.000470
10373000,0.0324,0.013523,0.002678,0.000431,0.000353
10374000,0.0324,0.013523,0.002678,0.000431,0.000235
10375000,0.0324,0.013523,0.002678,0.000431,0.000353
10376000,0.0324,0.013523,0.002678,0.000431,0.000470
10377000,0.0324,0.013523,0.002678,0.000431,0.000353
10378000,0.0324,0.013523,0.002678,0.000431,0.000118
10379000,0.0324,0.013523,0.002678,0.000431,0.000470
10380000,0.0324,0.013523,0.002678,0.000431,0.000353
10381000,0.0324,0.013523,0.002678,0.000431,0.000235
10382000,0.0324,0.013523,0.002678,0.000431,0.000353
10383000,0.0324,0.013523,0.002678,0.000431,0.000470
10384000,0.0324,0.013523,0.002678,0.000431,0.000235
10385000,0.0324,0.013523,0.002678,0.000431,0.000235
10386000,0.0324,0.013523,0.002678,0.000431,0.000470
10387000,0.0324,0.013523,0.002678,0.000431,0.000353
10388000,0.0324,0.013523,0.002678,0.000431,0.000235
10389000,0.0324,0.013523,0.002678,0.000431,0.000353
10390000,0.0324,0.013523,0.002678,0.000431,0.000470
10391000,0.0324,0.013523,0.002678,0.000431,0.000235
10392000,0.0324,0.013523,0.002678,0.000431,0.000235
10393000,0.0324,0.013523,0.002678,0.000431,0.000470
10394000,0.0324,0.013523,0.002678,0.000431,0.000353
10395000,0.0324,0.013523,0.002678,0.000431,0.000235
10396000,0.0324,0.013523,0.002678,0.000431,0.000353
10397000,0.0324,0.013523,0.002678,0.000431,0.000470
10398000,0.0324,0.013523,0.002678,0.000431,0.000235
10399000,0.0324,0.013523,0.002678,0.000431,0.000235
10400000,0.0324,0.013523,0.002678,0.000431,0.000470
10401000,0.0324,0.013523,0.002678,0.000431,0.000353
10402000,0.0324,0.013523,0.002678,0.000431,0.000235
10403000,0.0324,0.013523,0.002678,0.000431,0.000353
10404000,0.0324,0.013523,0.002678,0.000431,0.000470
10405000,0.0324,0.013523,0.002678,0.000431,0.000235
10406000,0.0324,0.013523,0.002678,0.000431,0.000235
10407000,0.0324,0.013523,0.002678,0.000431,0.000470
10408000,0.0324,0.013523,0.002678,0.000431,0.000353
10409000,0.0324,0.013523,0.002678,0.000431,0.000235
10410000,0.0324,0.013523,0.002678,0.000431,0.000353
10411000,0.0324,0.013523,0.002678,0.000431,0.000470
10412000,0.0324,0.013523,0.002678,0.000431,0.000235
10413000,0.0324,0.013523,0.002678,0.000431,0.000235
10414000,0.0324,0.013523,0.002678,0.000431,0.000470
10415000,0.0324,0.013523,0.002678,0.000431,0.000353
10416000,0.0324,0.013523,0.002678,0.000431,0.000235
10417000,0.0324,0.013523,0.002678,0.000431,0.000353
10418000,0.0324,0.013523,0.002678,0.000431,0.000470
10419000,0.0324,0.013523,0.002678,0.000431,0.000235
10420000,0.0324,0.013523,0.002678,0.000431,0.000235
10421000,0.0324,0.013523,0.002678,0.000431,0.000470
10422000,0.0324,0.013523,0.002678,0.000431,0.000353
10423000,0.0324,0.013523,0.002678,0.000431,0.000235
10424000,0.0324,0.013523,0.002678,0.000431,0.000353
10425000,0.0324,0.013523,0.002678,0.000431,0.000470
10426000,0.0324,0.013523,0.002678,0.000431,0.000118
10427000,0.0324,0.013523,0.002678,0.000431,0.000353
10428000,0.0324,0.013523,0.002678,0.000431,0.000470
10429000,0.0324,0.013523,0.002678,0.000431,0.000353
10430000,0.0324,0.013523,0.002678,0.000431,0.000235
10431000,0.0324,0.013523,0.002678,0.000431,0.000353
10432000,0.0324,0.013523,0.002678,0.000431,0.000470
10433000,0.0324,0.013523,0.002678,0.000431,0.000118
10434000,0.0324,0.013523,0.002678,0.000431,0.000353
10435000,0.0324,0.013523,0.002678,0.000431,0.000470
10436000,0.0324,0.013523,0.002678,0.000431,0.000353
10437000,0.0324,0.013523,0.002678,0.000431,0.000235
10438000,0.0324,0.013523,0.002678,0.000431,0.000353
10439000,0.0324,0.013523,0.002678,0.000431,0.000470
10440000,0.0324,0.013523,0.002678,0.000431,0.000118
10441000,0.0324,0.013523,0.002678,0.000431,0.000353
10442000,0.0324,0.013523,0.002678,0.000431,0.000470
10443000,0.0324,0.013523,0.002678,0.000431,0.000353
10444000,0.0324,0.013523,0.002678,0.000431,0.000235
10445000,0.0324,0.013523,0.002678,0.000431,0.000353
10446000,0.0324,0.013523,0.002678,0.000431,0.000470
10447000,0.0324,0.013523,0.002678,0.000431,0.000118
10448000,0.0324,0.013523,0.002678,0.000431,0.000353
10449000,0.0324,0.013523,0.002678,0.000431,0.000470
10450000,0.0324,0.013523,0.002678,0.000431,0.000353
10451000,0.0324,0.013523,0.002678,0.000431,0.000235
10452000,0.0324,0.013523,0.002678,0.000431,0.000353
10453000,0.0324,0.013523,0.002678,0.000431,0.000353
10454000,0.0324,0.013523,0.002678,0.000431,0.000235
10455000,0.0324,0.013523,0.002678,0.000431,0.000353
10456000,0.0324,0.013523,0.002678,0.000431,0.000470
10457000,0.0324,0.013523,0.002678,0.000431,0.000353
10458000,0.0324,0.013523,0.002678,0.000431,0.000235
10459000,0.0324,0.013523,0.002678,0.000431,0.000353
10460000,0.0324,0.013523,0.002678,0.000431,0.000353
10461000,0.0324,0.013523,0.002678,0.000431,0.000235
10462000,0.0324,0.013523,0.002678,0.000431,0.000353
10463000,0.0324,0.013523,0.002678,0.000431,0.000470
10464000,0.0324,0.013523,0.002678,0.000431,0.000353
10465000,0.0324,0.013523,0.002678,0.000431,0.000235
10466000,0.0324,0.013523,0.002678,0.000431,0.000353
10467000,0.0324,0.013523,0.002678,0.000431,0.000353
10468000,0.0324,0.013523,0.002678,0.000431,0.000235
10469000,0.0324,0.013523,0.002678,0.000431,0.000353
10470000,0.0324,0.013523,0.002678,0.000431,0.000470
10471000,0.0324,0.013523,0.002678,0.000431,0.000353
10472000,0.0324,0.013523,0.002678,0.000431,0.000235
10473000,0.0324,0.013523,0.002678,0.000431,0.000353
10474000,0.0324,0.013523,0.002678,0.000431,0.000353
10475000,0.0324,0.013523,0.002678,0.000431,0.000235
10476000,0.0324,0.013523,0.002678,0.000431,0.000353
10477000,0.0324,0.013523,0.002678,0.000431,0.000470
10478000,0.0324,0.013523,0.002678,0.000431,0.000353
10479000,0.0324,0.013523,0.002678,0.000431,0.000235
10480000,0.0324,0.013523,0.002678,0.000431,0.000353
10481000,0.0324,0.013523,0.002678,0.000431,0.000353
10482000,0.0324,0.013523,0.002678,0.000431,0.000235
10483000,0.0324,0.013523,0.002678,0.000431,0.000353
10484000,0.0324,0.013523,0.002678,0.000431,0.000470
10485000,0.0324,0.013523,0.002678,0.000431,0.000353
10486000,0.0324,0.013523,0.002678,0.000431,0.000235
10487000,0.0324,0.013523,0.002678,0.000431,0.000353
10488000,0.0324,0.013523,0.002678,0.000431,0.000353
10489000,0.0324,0.013523,0.002678,0.000431,0.000235
10490000,0.0324,0.013523,0.002678,0.000431,0.000353
10491000,0.0324,0.013523,0.002678,0.000431,0.000470
10492000,0.0324,0.013523,0.002678,0.000431,0.000353
10493000,0.0324,0.013523,0.002678,0.000431,0.000235
10494000,0.0324,0.013523,0.002678,0.000431,0.000353
10495000,0.0324,0.013523,0.002678,0.000431,0.000353
10496000,0.0324,0.013523,0.002678,0.000431,0.000235
10497000,0.0324,0.013523,0.002678,0.000431,0.000353
10498000,0.0324,0.013523,0.002678,0.000431,0.000470
10499000,0.0324,0.013523,0.002678,0.000431,0.000353
10500000,0.0324,0.013523,0.002678,0.000431,0.000118
10501000,0.0324,0.013523,0.002678,0.000431,0.000470
10502000,0.0324,0.013523,0.002678,0.000431,0.000353
10503000,0.0324,0.013523,0.002678,0.000431,0.000235
10504000,0.0324,0.013523,0.002678,0.000431,0.000353
10505000,0.0324,0.013523,0.002678,0.000431,0.000470
10506000,0.0324,0.013523,0.002678,0.000431,0.000353
10507000,0.0324,0.013523,0.002678,0.000431,0.000118
10508000,0.0324,0.013523,0.002678,0.000431,0.000470
10509000,0.0324,0.013523,0.002678,0.000431,0.000353
10510000,0.0324,0.013523,0.002678,0.000431,0.000235
10511000,0.0324,0.013523,0.002678,0.000431,0.000353
10512000,0.0324,0.013523,0.002678,0.000431,0.000470
10513000,0.0324,0.013523,0.002678,0.000431,0.000353
10514000,0.0324,0.013523,0.002678,0.000431,0.000118
10515000,0.0324,0.013523,0.002678,0.000431,0.000470
10516000,0.0324,0.013523,0.002678,0.000431,0.000353
10517000,0.0324,0.013523,0.002678,0.000431,0.000235
10518000,0.0324,0.013523,0.002678,0.000431,0.000353
10519000,0.0324,0.013523,0.002678,0.000431,0.000470
10520000,0.0324,0.013523,0.002678,0.000431,0.000353
10521000,0.0324,0.013523,0.002678,0.000431,0.000118
10522000,0.0324,0.013523,0.002678,0.000431,0.000470
10523000,0.0324,0.013523,0.002678,0.000431,0.000353
10524000,0.0324,0.013523,0.002678,0.000431,0.000235
10525000,0.0324,0.013523,0.002678,0.000431,0.000353
10526000,0.0324,0.013523,0.002678,0.000431,0.000470
10527000,0.0324,0.013523,0.002678,0.000431,0.000235
10528000,0.0324,0.013523,0.002678,0.000431,0.000235
10529000,0.0324,0.013523,0.002678,0.000431,0.000470
10530000,0.0324,0.013523,0.002678,0.000431,0.000353
10531000,0.0324,0.013523,0.002678,0.000431,0.000235
10532000,0.0324,0.013523,0.002678,0.000431,0.000353
10533000,0.0324,0.013523,0.002678,0.000431,0.000470
10534000,0.0324,0.013523,0.002678,0.000431,0.000235
10535000,0.0324,0.013523,0.002678,0.000431,0.000235
10536000,0.0324,0.013523,0.002678,0.000431,0.000470
10537000,0.0324,0.013523,0.002678,0.000431,0.000353
10538000,0.0324,0.013523,0.002678,0.000431,0.000235
10539000,0.0324,0.013523,0.002678,0.000431,0.000353
10540000,0.0324,0.013523,0.002678,0.000431,0.000470
10541000,0.0324,0.013523,0.002678,0.000431,0.000235
10542000,0.0324,0.013523,0.002678,0.000431,0.000235
10543000,0.0324,0.013523,0.002678,0.000431,0.000470
10544000,0.0324,0.013523,0.002678,0.000431,0.000353
10545000,0.0324,0.013523,0.002678,0.000431,0.000235
10546000,0.0324,0.013523,0.002678,0.000431,0.000353
10547000,0.0324,0.013523,0.002678,0.000431,0.000470
10548000,0.0324,0.013523,0.002678,0.000431,0.000235
10549000,0.0324,0.013523,0.002678,0.000431,0.000235
10550000,0.0324,0.013523,0.002678,0.000431,0.000470
10551000,0.0324,0.013523,0.002678,0.000431,0.000353
10552000,0.0324,0.013523,0.002678,0.000431,0.000235
10553000,0.0324,0.013523,0.002678,0.000431,0.000353
10554000,0.0324,0.013523,0.002678,0.000431,0.000470
10555000,0.0324,0.013523,0.002678,0.000431,0.000118
10556000,0.0324,0.013523,0.002678,0.000431,0.000353
10557000,0.0324,0.013523,0.002678,0.000431,0.000470
10558000,0.0324,0.013523,0.002678,0.000431,0.000353
10559000,0.0324,0.013523,0.002678,0.000431,0.000235
10560000,0.0324,0.013523,0.002678,0.000431,0.000353
10561000,0.0324,0.013523,0.002678,0.000431,0.000353
10562000,0.0324,0.013523,0.002678,0.000431,0.000235
10563000,0.0324,0.013523,0.002678,0.000431,0.000353
10564000,0.0324,0.013523,0.002678,0.000431,0.000470
10565000,0.0324,0.013523,0.002678,0.000431,0.000353
10566000,0.0324,0.013523,0.002678,0.000431,0.000235
10567000,0.0324,0.013523,0.002678,0.000431,0.000353
10568000,0.0324,0.013523,0.002678,0.000431,0.000353
10569000,0.0324,0.013523,0.002678,0.000431,0.000235
10570000,0.0324,0.013523,0.002678,0.000431,0.000353
10571000,0.0324,0.013523,0.002678,0.000431,0.000470
10572000,0.0324,0.013523,0.002678,0.000431,0.000353
10573000,0.0324,0.013523,0.002678,0.000431,0.000235
10574000,0.0324,0.013523,0.002678,0.000431,0.000353
10575000,0.0324,0.013523,0.002678,0.000431,0.000353
10576000,0.0324,0.013523,0.002678,0.000431,0.000235
10577000,0.0324,0.013523,0.002678,0.000431,0.000353
10578000,0.0324,0.013523,0.002678,0.000431,0.000470
10579000,0.0324,0.013523,0.002678,0.000431,0.000353
10580000,0.0324,0.013523,0.002678,0.000431,0.000118
10581000,0.0324,0.013523,0.002678,0.000431,0.000470
10582000,0.0324,0.013523,0.002678,0.000431,0.000353
10583000,0.0324,0.013523,0.002678,0.000431,0.000235
10584000,0.0324,0.013523,0.002678,0.000431,0.000353
10585000,0.0324,0.013523,0.002678,0.000431,0.000470
10586000,0.0324,0.013523,0.002678,0.000431,0.000235
10587000,0.0324,0.013523,0.002678,0.000431,0.000235
10588000,0.0324,0.013523,0.002678,0.000431,0.000470
10589000,0.0324,0.013523,0.002678,0.000431,0.000353
10590000,0.0324,0.013523,0.002678,0.000431,0.000235
10591000,0.0324,0.013523,0.002678,0.000431,0.000353
10592000,0.0324,0.013523,0.002678,0.000431,0.000470
10593000,0.0324,0.013523,0.002678,0.000431,0.000118
10594000,0.0324,0.013523,0.002678,0.000431,0.000353
10595000,0.0324,0.013523,0.002678,0.000431,0.000470
10596000,0.0324,0.013523,0.002678,0.000431,0.000353
10597000,0.0324,0.013523,0.002678,0.000431,0.000235
10598000,0.0324,0.013523,0.002678,0.000431,0.000353
10599000,0.0324,0.013523,0.002678,0.000431,0.000353
10600000,0.0324,0.013523,0.002678,0.000431,0.000235
10601000,0.0324,0.013523,0.002678,0.000431,0.000353
10602000,0.0324,0.013523,0.002678,0.000431,0.000470
10603000,0.0324,0.013523,0.002678,0.000431,0.000353
10604000,0.0324,0.013523,0.002678,0.000431,0.000235
10605000,0.0324,0.013523,0.002678,0.000431,0.000353
10606000,0.0324,0.013523,0.002678,0.000431,0.000353
10607000,0.0324,0.013523,0.002678,0.000431,0.000235
10608000,0.0324,0.013523,0.002678,0.000431,0.000353
10609000,0.0324,0.013523,0.002678,0.000431,0.000470
10610000,0.0324,0.013523,0.002678,0.000431,0.000353
10611000,0.0324,0.013523,0.002678,0.000431,0.000235
10612000,0.0324,0.013523,0.002678,0.000431,0.000353
10613000,0.0324,0.013523,0.002678,0.000431,0.000353
10614000,0.0324,0.013523,0.002678,0.000431,0.000235
10615000,0.0324,0.013523,0.002678,0.000431,0.000353
10616000,0.0324,0.013523,0.002678,0.000431,0.000470
10617000,0.0324,0.013523,0.002678,0.000431,0.000353
10618000,0.0324,0.013523,0.002678,0.000431,0.000118
10619000,0.0324,0.013523,0.002678,0.000431,0.000470
10620000,0.0324,0.013523,0.002678,0.000431,0.000353
10621000,0.0324,0.013523,0.002678,0.000431,0.000235
10622000,0.0324,0.013523,0.002678,0.000431,0.000353
10623000,0.0324,0.013523,0.002678,0.000431,0.000470
10624000,0.0324,0.013523,0.002678,0.000431,0.000235
10625000,0.0324,0.013523,0.002678,0.000431,0.000235
10626000,0.0324,0.013523,0.002678,0.000431,0.000470
10627000,0.0324,0.013523,0.002678,0.000431,0.000353
10628000,0.0324,0.013523,0.002678,0.000431,0.000235
10629000,0.0324,0.013523,0.002678,0.000431,0.000353
10630000,0.0324,0.013523,0.002678,0.000431,0.000470
10631000,0.0324,0.013523,0.002678,0.000431,0.000235
10632000,0.0324,0.013523,0.002678,0.000431,0.000235
10633000,0.0324,0.013523,0.002678,0.000431,0.000470
10634000,0.0324,0.013523,0.002678,0.000431,0.000353
10635000,0.0324,0.013523,0.002678,0.000431,0.000235
10636000,0.0324,0.013523,0.002678,0.000431,0.000353
10637000,0.0324,0.013523,0.002678,0.000431,0.000470
10638000,0.0324,0.013523,0.002678,0.000431,0.000118
10639000,0.0324,0.013523,0.002678,0.000431,0.000353
10640000,0.0324,0.013523,0.002678,0.000431,0.000470
10641000,0.0324,0.013523,0.002678,0.000431,0.000353
10642000,0.0324,0.013523,0.002678,0.000431,0.000235
10643000,0.0324,0.013523,0.002678,0.000431,0.000353
10644000,0.0324,0.013523,0.002678,0.000431,0.000353
10645000,0.0324,0.013523,0.002678,0.000431,0.000235
10646000,0.0324,0.013523,0.002678,0.000431,0.000353
10647000,0.0324,0.013523,0.002678,0.000431,0.000470
10648000,0.0324,0.013523,0.002678,0.000431,0.000353
10649000,0.0324,0.013523,0.002678,0.000431,0.000235
10650000,0.0324,0.013523,0.002678,0.000431,0.000353
10651000,0.0324,0.013523,0.002678,0.000431,0.000353
10652000,0.0324,0.013523,0.002678,0.000431,0.000235
10653000,0.0324,0.013523,0.002678,0.000431,0.000353
10654000,0.0324,0.013523,0.002678,0.000431,0.000470
10655000,0.0324,0.013523,0.002678,0.000431,0.000353
10656000,0.0324,0.013523,0.002678,0.000431,0.000235
10657000,0.0324,0.013523,0.002678,0.000431,0.000353
10658000,0.0324,0.013523,0.002678,0.000431,0.000353
10659000,0.0324,0.013523,0.002678,0.000431,0.000235
10660000,0.0324,0.013523,0.002678,0.000431,0.000353
10661000,0.0324,0.013523,0.002678,0.000431,0.000470
10662000,0.0324,0.013523,0.002678,0.000431,0.000353
10663000,0.0324,0.013523,0.002678,0.000431,0.000118
10664000,0.0324,0.013523,0.002678,0.000431,0.000470
10665000,0.0324,0.013523,0.002678,0.000431,0.000353
10666000,0.0324,0.013523,0.002678,0.000431,0.000235
10667000,0.0324,0.013523,0.002678,0.000431,0.000353
10668000,0.0324,0.013523,0.002678,0.000431,0.000470
10669000,0.0324,0.013523,0.002678,0.000431,0.000235
10670000,0.0324,0.013523,0.002678,0.000431,0.000235
10671000,0.0324,0.013523,0.002678,0.000431,0.000470
10672000,0.0324,0.013523,0.002678,0.000431,0.000353
10673000,0.0324,0.013523,0.002678,0.000431,0.000235
10674000,0.0324,0.013523,0.002678,0.000431,0.000353
10675000,0.0324,0.013523,0.002678,0.000431,0.000470
10676000,0.0324,0.013523,0.002678,0.000431,0.000235
10677000,0.0324,0.013523,0.002678,0.000431,0.000235
10678000,0.0324,0.013523,0.002678,0.000431,0.000470
10679000,0.0324,0.013523,0.002678,0.000431,0.000353
10680000,0.0324,0.013523,0.002678,0.000431,0.000235
10681000,0.0324,0.013523,0.002678,0.000431,0.000353
10682000,0.0324,0.013523,0.002678,0.000431,0.000470
10683000,0.0324,0.013523,0.002678,0.000431,0.000118
10684000,0.0324,0.013523,0.002678,0.000431,0.000353
10685000,0.0324,0.013523,0.002678,0.000431,0.000470
10686000,0.0324,0.013523,0.002678,0.000431,0.000353
10687000,0.0324,0.013523,0.002678,0.000431,0.000235
10688000,0.0324,0.013523,0.002678,0.000431,0.000353
10689000,0.0324,0.013523,0.002678,0.000431,0.000470
10690000,0.0324,0.013523,0.002678,0.000431,0.000118
10691000,0.0324,0.013523,0.002678,0.000431,0.000353
10692000,0.0324,0.013523,0.002678,0.000431,0.000470
10693000,0.0324,0.013523,0.002678,0.000431,0.000353
10694000,0.0324,0.013523,0.002678,0.000431,0.000235
10695000,0.0324,0.013523,0.002678,0.000431,0.000353
10696000,0.0324,0.013523,0.002678,0.000431,0.000470
10697000,0.0324,0.013523,0.002678,0.000431,0.000118
10698000,0.0324,0.013523,0.002678,0.000431,0.000353
10699000,0.0324,0.013523,0.002678,0.000431,0.000470
10700000,0.0324,0.013523,0.002678,0.000431,0.000353
10701000,0.0324,0.013523,0.002678,0.000431,0.000235
10702000,0.0324,0.013523,0.002678,0.000431,0.000353
10703000,0.0324,0.013523,0.002678,0.000431,0.000353
10704000,0.0324,0.013523,0.002678,0.000431,0.000235
10705000,0.0324,0.013523,0.002678,0.000431,0.000353
10706000,0.0324,0.013523,0.002678,0.000431,0.000470
10707000,0.0324,0.013523,0.002678,0.000431,0.000353
10708000,0.0324,0.013523,0.002678,0.000431,0.000235
10709000,0.0324,0.013523,0.002678,0.000431,0.000353
10710000,0.0324,0.013523,0.002678,0.000431,0.000353
10711000,0.0324,0.013523,0.002678,0.000431,0.000235
10712000,0.0324,0.013523,0.002678,0.000431,0.000353
10713000,0.0324,0.013523,0.002678,0.000431,0.000470
10714000,0.0324,0.013523,0.002678,0.000431,0.000353
10715000,0.0324,0.013523,0.002678,0.000431,0.000235
10716000,0.0324,0.013523,0.002678,0.000431,0.000353
10717000,0.0324,0.013523,0.002678,0.000431,0.000353
10718000,0.0324,0.013523,0.002678,0.000431,0.000235
10719000,0.0324,0.013523,0.002678,0.000431,0.000353
10720000,0.0324,0.013523,0.002678,0.000431,0.000470
10721000,0.0324,0.013523,0.002678,0.000431,0.000353
10722000,0.0324,0.013523,0.002678,0.000431,0.000235
10723000,0.0324,0.013523,0.002678,0.000431,0.000353
10724000,0.0324,0.013523,0.002678,0.000431,0.000353
10725000,0.0324,0.013523,0.002678,0.000431,0.000235
10726000,0.0324,0.013523,0.002678,0.000431,0.000353
10727000,0.0324,0.013523,0.002678,0.000431,0.000470
10728000,0.0324,0.013523,0.002678,0.000431,0.000353
10729000,0.0324,0.013523,0.002678,0.000431,0.000235
10730000,0.0324,0.013523,0.002678,0.000431,0.000353
10731000,0.0324,0.013523,0.002678,0.000431,0.000353
10732000,0.0324,0.013523,0.002678,0.000431,0.000235
10733000,0.0324,0.013523,0.002678,0.000431,0.000353
10734000,0.0324,0.013523,0.002678,0.000431,0.000470
10735000,0.0324,0.013523,0.002678,0.000431,0.000353
10736000,0.0324,0.013523,0.002678,0.000431,0.000235
10737000,0.0324,0.013523,0.002678,0.000431,0.000353
10738000,0.0324,0.013523,0.002678,0.000431,0.000353
10739000,0.0324,0.013523,0.002678,0.000431,0.000235
10740000,0.0324,0.013523,0.002678,0.000431,0.000353
10741000,0.0324,0.013523,0.002678,0.000431,0.000470
10742000,0.0324,0.013523,0.002678,0.000431,0.000353
10743000,0.0324,0.013523,0.002678,0.000431,0.000235
10744000,0.0324,0.013523,0.002678,0.000431,0.000353
10745000,0.0324,0.013523,0.002678,0.000431,0.000353
10746000,0.0324,0.013523,0.002678,0.000431,0.000235
10747000,0.0324,0.013523,0.002678,0.000431,0.000353
10748000,0.0324,0.013523,0.002678,0.000431,0.000470
10749000,0.0324,0.013523,0.002678,0.000431,0.000353
10750000,0.0324,0.013523,0.002678,0.000431,0.000118
10751000,0.0324,0.013523,0.002678,0.000431,0.000470
10752000,0.0324,0.013523,0.002678,0.000431,0.000353
10753000,0.0324,0.013523,0.002678,0.000431,0.000235
10754000,0.0324,0.013523,0.002678,0.000431,0.000353
10755000,0.0324,0.013523,0.002678,0.000431,0.000470
10756000,0.0324,0.013523,0.002678,0.000431,0.000353
10757000,0.0324,0.013523,0.002678,0.000431,0.000118
10758000,0.0324,0.013523,0.002678,0.000431,0.000470
10759000,0.0324,0.013523,0.002678,0.000431,0.000353
10760000,0.0324,0.013523,0.002678,0.000431,0.000235
10761000,0.0324,0.013523,0.002678,0.000431,0.000353
10762000,0.0324,0.013523,0.002678,0.000431,0.000470
10763000,0.0324,0.013523,0.002678,0.000431,0.000353
10764000,0.0324,0.013523,0.002678,0.000431,0.000118
10765000,0.0324,0.013523,0.002678,0.000431,0.000470
10766000,0.0324,0.013523,0.002678,0.000431,0.000353
10767000,0.0324,0.013523,0.002678,0.000431,0.000235
10768000,0.0324,0.013523,0.002678,0.000431,0.000353
10769000,0.0324,0.013523,0.002678,0.000431,0.000470
10770000,0.0324,0.013523,0.002678,0.000431,0.000353
10771000,0.0324,0.013523,0.002678,0.000431,0.000118
10772000,0.0324,0.013523,0.002678,0.000431,0.000470
10773000,0.0324,0.013523,0.002678,0.000431,0.000353
10774000,0.0324,0.013523,0.002678,0.000431,0.000235
10775000,0.0324,0.013523,0.002678,0.000431,0.000353
10776000,0.0324,0.013523,0.002678,0.000431,0.000470
10777000,0.0324,0.013523,0.002678,0.000431,0.000235
10778000,0.0324,0.013523,0.002678,0.000431,0.000235
10779000,0.0324,0.013523,0.002678,0.000431,0.000470
10780000,0.0324,0.013523,0.002678,0.000431,0.000353
10781000,0.0324,0.013523,0.002678,0.000431,0.000235
10782000,0.0324,0.013523,0.002678,0.000431,0.000353
10783000,0.0324,0.013523,0.002678,0.000431,0.000470
10784000,0.0324,0.013523,0.002678,0.000431,0.000235
10785000,0.0324,0.013523,0.002678,0.000431,0.000235
10786000,0.0324,0.013523,0.002678,0.000431,0.000470
10787000,0.0324,0.013523,0.002678,0.000431,0.000353
10788000,0.0324,0.013523,0.002678,0.000431,0.000235
10789000,0.0324,0.013523,0.002678,0.000431,0.000353
10790000,0.0324,0.013523,0.002678,0.000431,0.000470
10791000,0.0324,0.013523,0.002678,0.000431,0.000235
10792000,0.0324,0.013523,0.002678,0.000431,0.000235
10793000,0.0324,0.013523,0.002678,0.000431,0.000470
10794000,0.0324,0.013523,0.002678,0.000431,0.000353
10795000,0.0324,0.013523,0.002678,0.000431,0.000235
10796000,0.0324,0.013523,0.002678,0.000431,0.000353
10797000,0.0324,0.013523,0.002678,0.000431,0.000470
10798000,0.0324,0.013523,0.002678,0.000431,0.000235
10799000,0.0324,0.013523,0.002678,0.000431,0.000235
10800000,0.0324,0.013523,0.002678,0.000431,0.000470
10801000,0.0324,0.013523,0.002678,0.000431,0.000353
10802000,0.0324,0.013523,0.002678,0.000431,0.000235
10803000,0.0324,0.013523,0.002678,0.000431,0.000353
10804000,0.0324,0.013523,0.002678,0.000431,0.000470
10805000,0.0324,0.013523,0.002678,0.000431,0.000235
10806000,0.0324,0.013523,0.002678,0.000431,0.000235
10807000,0.0324,0.013523,0.002678,0.000431,0.000470
10808000,0.0324,0.013523,0.002678,0.000431,0.000353
10809000,0.0324,0.013523,0.002678,0.000431,0.000235
10810000,0.0324,0.013523,0.002678,0.000431,0.000353
10811000,0.0324,0.013523,0.002678,0.000431,0.000470
10812000,0.0324,0.013523,0.002678,0.000431,0.000235
10813000,0.0324,0.013523,0.002678,0.000431,0.000235
10814000,0.0324,0.013523,0.002678,0.000431,0.000470
10815000,0.0324,0.013523,0.002678,0.000431,0.000353
10816000,0.0324,0.013523,0.002678,0.000431,0.000235
10817000,0.0324,0.013523,0.002678,0.000431,0.000353
10818000,0.0324,0.013523,0.002678,0.000431,0.000470
10819000,0.0324,0.013523,0.002678,0.000431,0.000118
10820000,0.0324,0.013523,0.002678,0.000431,0.000353
10821000,0.0324,0.013523,0.002678,0.000431,0.000470
10822000,0.0324,0.013523,0.002678,0.000431,0.000353
10823000,0.0324,0.013523,0.002678,0.000431,0.000235
10824000,0.0324,0.013523,0.002678,0.000431,0.000353
10825000,0.0324,0.013523,0.002678,0.000431,0.000470
10826000,0.0324,0.013523,0.002678,0.000431,0.000118
10827000,0.0324,0.013523,0.002678,0.000431,0.000353
10828000,0.0324,0.013523,0.002678,0.000431,0.000470
10829000,0.0324,0.013523,0.002678,0.000431,0.000353
10830000,0.0324,0.013523,0.002678,0.000431,0.000235
10831000,0.0324,0.013523,0.002678,0.000431,0.000353
10832000,0.0324,0.013523,0.002678,0.000431,0.000353
10833000,0.0324,0.013523,0.002678,0.000431,0.000235
10834000,0.0324,0.013523,0.002678,0.000431,0.000353
10835000,0.0324,0.013523,0.002678,0.000431,0.000470
10836000,0.0324,0.013523,0.002678,0.000431,0.000353
10837000,0.0324,0.013523,0.002678,0.000431,0.000235
10838000,0.0324,0.013523,0.002678,0.000431,0.000353
10839000,0.0324,0.013523,0.002678,0.000431,0.000353
10840000,0.0324,0.013523,0.002678,0.000431,0.000235
10841000,0.0324,0.013523,0.002678,0.000431,0.000353
10842000,0.0324,0.013523,0.002678,0.000431,0.000470
10843000,0.0324,0.013523,0.002678,0.000431,0.000353
10844000,0.0324,0.013523,0.002678,0.000431,0.000235
10845000,0.0324,0.013523,0.002678,0.000431,0.000353
10846000,0.0324,0.013523,0.002678,0.000431,0.000353
10847000,0.0324,0.013523,0.002678,0.000431,0.000235
10848000,0.0324,0.013523,0.002678,0.000431,0.000353
10849000,0.0324,0.013523,0.002678,0.000431,0.000470
10850000,0.0324,0.013523,0.002678,0.000431,0.000235
10851000,0.0324,0.013523,0.002678,0.000431,0.000235
10852000,0.0324,0.013523,0.002678,0.000431,0.000470
10853000,0.0324,0.013523,0.002678,0.000431,0.000353
10854000,0.0324,0.013523,0.002678,0.000431,0.000235
10855000,0.0324,0.013523,0.002678,0.000431,0.000353
10856000,0.0324,0.013523,0.002678,0.000431,0.000470
10857000,0.0324,0.013523,0.002678,0.000431,0.000235
10858000,0.0324,0.013523,0.002678,0.000431,0.000235
10859000,0.0324,0.013523,0.002678,0.000431,0.000470
10860000,0.0324,0.013523,0.002678,0.000431,0.000353
10861000,0.0324,0.013523,0.002678,0.000431,0.000235
10862000,0.0324,0.013523,0.002678,0.000431,0.000353
10863000,0.0324,0.013523,0.002678,0.000431,0.000470
10864000,0.0324,0.013523,0.002678,0.000431,0.000118
10865000,0.0324,0.013523,0.002678,0.000431,0.000353
10866000,0.0324,0.013523,0.002678,0.000431,0.000470
10867000,0.0324,0.013523,0.002678,0.000431,0.000353
10868000,0.0324,0.013523,0.002678,0.000431,0.000235
10869000,0.0324,0.013523,0.002678,0.000431,0.000353
10870000,0.0324,0.013523,0.002678,0.000431,0.000470
10871000,0.0324,0.013523,0.002678,0.000431,0.000118
10872000,0.0324,0.013523,0.002678,0.000431,0.000353
10873000,0.0324,0.013523,0.002678,0.000431,0.000470
10874000,0.0324,0.013523,0.002678,0.000431,0.000353
10875000,0.0324,0.013523,0.002678,0.000431,0.000235
10876000,0.0324,0.013523,0.002678,0.000431,0.000353
10877000,0.0324,0.013523,0.002678,0.000431,0.000353
10878000,0.0324,0.013523,0.002678,0.000431,0.000235
10879000,0.0324,0.013523,0.002678,0.000431,0.000353
10880000,0.0324,0.013523,0.002678,0.000431,0.000470
10881000,0.0324,0.013523,0.002678,0.000431,0.000353
10882000,0.0324,0.013523,0.002678,0.000431,0.000235
10883000,0.0324,0.013523,0.002678,0.000431,0.000353
10884000,0.0324,0.013523,0.002678,0.000431,0.000353
10885000,0.0324,0.013523,0.002678,0.000431,0.000235
10886000,0.0324,0.013523,0.002678,0.000431,0.000353
10887000,0.0324,0.013523,0.002678,0.000431,0.000470
10888000,0.0324,0.013523,0.002678,0.000431,0.000353
10889000,0.0324,0.013523,0.002678,0.000431,0.000118
10890000,0.0324,0.013523,0.002678,0.000431,0.000470
10891000,0.0324,0.013523,0.002678,0.000431,0.000353
10892000,0.0324,0.013523,0.002678,0.000431,0.000235
10893000,0.0324,0.013523,0.002678,0.000431,0.000353
10894000,0.0324,0.013523,0.002678,0.000431,0.000470
10895000,0.0324,0.013523,0.002678,0.000431,0.000235
10896000,0.0324,0.013523,0.002678,0.000431,0.000235
10897000,0.0324,0.013523,0.002678,0.000431,0.000470
10898000,0.0324,0.013523,0.002678,0.000431,0.000353
10899000,0.0324,0.013523,0.002678,0.000431,0.000235
10900000,0.0324,0.013523,0.002678,0.000431,0.000353
10901000,0.0324,0.013523,0.002678,0.000431,0.000470
10902000,0.0324,0.013523,0.002678,0.000431,0.000235
10903000,0.0324,0.013523,0.002678,0.000431,0.000235
10904000,0.0324,0.013523,0.002678,0.000431,0.000470
10905000,0.0324,0.013523,0.002678,0.000431,0.000353
10906000,0.0324,0.013523,0.002678,0.000431,0.000235
10907000,0.0324,0.013523,0.002678,0.000431,0.000353
10908000,0.0324,0.013523,0.002678,0.000431,0.000470
10909000,0.0324,0.013523,0.002678,0.000431,0.000118
10910000,0.0324,0.013523,0.002678,0.000431,0.000353
10911000,0.0324,0.013523,0.002678,0.000431,0.000470
10912000,0.0324,0.013523,0.002678,0.000431,0.000353
10913000,0.0324,0.013523,0.002678,0.000431,0.000235
10914000,0.0324,0.013523,0.002678,0.000431,0.000353
10915000,0.0324,0.013523,0.002678,0.000431,0.000353
10916000,0.0324,0.013523,0.002678,0.000431,0.000235
10917000,0.0324,0.013523,0.002678,0.000431,0.000353
10918000,0.0324,0.013523,0.002678,0.000431,0.000470
10919000,0.0324,0.013523,0.002678,0.000431,0.000353
10920000,0.0324,0.013523,0.002678,0.000431,0.000235
10921000,0.0324,0.013523,0.002678,0.000431,0.000353
10922000,0.0324,0.013523,0.002678,0.000431,0.000353
10923000,0.0324,0.013523,0.002678,0.000431,0.000235
10924000,0.0324,0.013523,0.002678,0.000431,0.000353
10925000,0.0324,0.013523,0.002678,0.000431,0.000470
10926000,0.0324,0.013523,0.002678,0.000431,0.000353
10927000,0.0324,0.013523,0.002678,0.000431,0.000235
10928000,0.0324,0.013523,0.002678,0.000431,0.000353
10929000,0.0324,0.013523,0.002678,0.000431,0.000353
10930000,0.0324,0.013523,0.002678,0.000431,0.000235
10931000,0.0324,0.013523,0.002678,0.000431,0.000353
10932000,0.0324,0.013523,0.002678,0.000431,0.000470
10933000,0.0324,0.013523,0.002678,0.000431,0.000353
10934000,0.0324,0.013523,0.002678,0.000431,0.000118
10935000,0.0324,0.013523,0.002678,0.000431,0.000470
10936000,0.0324,0.013523,0.002678,0.000431,0.000353
10937000,0.0324,0.013523,0.002678,0.000431,0.000235
10938000,0.0324,0.013523,0.002678,0.000431,0.000353
10939000,0.0324,0.013523,0.002678,0.000431,0.000470
10940000,0.0324,0.013523,0.002678,0.000431,0.000235
10941000,0.0324,0.013523,0.002678,0.000431,0.000235
10942000,0.0324,0.013523,0.002678,0.000431,0.000470
10943000,0.0324,0.013523,0.002678,0.000431,0.000353
10944000,0.0324,0.013523,0.002678,0.000431,0.000235
10945000,0.0324,0.013523,0.002678,0.000431,0.000353
10946000,0.0324,0.013523,0.002678,0.000431,0.000470
10947000,0.0324,0.013523,0.002678,0.000431,0.000235
10948000,0.0324,0.013523,0.002678,0.000431,0.000235
10949000,0.0324,0.013523,0.002678,0.000431,0.000470
10950000,0.0324,0.013523,0.002678,0.000431,0.000353
10951000,0.0324,0.013523,0.002678,0.000431,0.000235
10952000,0.0324,0.013523,0.002678,0.000431,0.000353
10953000,0.0324,0.013523,0.002678,0.000431,0.000470
10954000,0.0324,0.013523,0.002678,0.000431,0.000118
10955000,0.0324,0.013523,0.002678,0.000431,0.000353
10956000,0.0324,0.013523,0.002678,0.000431,0.000470
10957000,0.0324,0.013523,0.002678,0.000431,0.000353
10958000,0.0324,0.013523,0.002678,0.000431,0.000235
10959000,0.0324,0.013523,0.002678,0.000431,0.000353
10960000,0.0324,0.013523,0.002678,0.000431,0.000353
10961000,0.0324,0.013523,0.002678,0.000431,0.000235
10962000,0.0324,0.013523,0.002678,0.000431,0.000353
10963000,0.0324,0.013523,0.002678,0.000431,0.000470
10964000,0.0324,0.013523,0.002678,0.000431,0.000353
10965000,0.0324,0.013523,0.002678,0.000431,0.000235
10966000,0.0324,0.013523,0.002678,0.000431,0.000353
10967000,0.0324,0.013523,0.002678,0.000431,0.000353
10968000,0.0324,0.013523,0.002678,0.000431,0.000235
10969000,0.0324,0.013523,0.002678,0.000431,0.000353
10970000,0.0324,0.013523,0.002678,0.000431,0.000470
10971000,0.0324,0.013523,0.002678,0.000431,0.000353
10972000,0.0324,0.013523,0.002678,0.000431,0.000235
10973000,0.0324,0.013523,0.002678,0.000431,0.000353
10974000,0.0324,0.013523,0.002678,0.000431,0.000353
10975000,0.0324,0.013523,0.002678,0.000431,0.000235
10976000,0.0324,0.013523,0.002678,0.000431,0.000353
10977000,0.0324,0.013523,0.002678,0.000431,0.000470
10978000,0.0324,0.013523,0.002678,0.000431,0.000353
10979000,0.0324,0.013523,0.002678,0.000431,0.000235
10980000,0.0324,0.013523,0.002678,0.000431,0.000353
10981000,0.0324,0.013523,0.002678,0.000431,0.000353
10982000,0.0324,0.013523,0.002678,0.000431,0.000235
10983000,0.0324,0.013523,0.002678,0.000431,0.000353
10984000,0.0324,0.013523,0.002678,0.000431,0.000470
10985000,0.0324,0.013523,0.002678,0.000431,0.000353
10986000,0.0324,0.013523,0.002678,0.000431,0.000235
10987000,0.0324,0.013523,0.002678,0.000431,0.000353
10988000,0.0324,0.013523,0.002678,0.000431,0.000353
10989000,0.0324,0.013523,0.002678,0.000431,0.000235
10990000,0.0324,0.013523,0.002678,0.000431,0.000353
10991000,0.0324,0.013523,0.002678,0.000431,0.000470
10992000,0.0324,0.013523,0.002678,0.000431,0.000353
10993000,0.0324,0.013523,0.002678,0.000431,0.000235
10994000,0.0324,0.013523,0.002678,0.000431,0.000353
10995000,0.0324,0.013523,0.002678,0.000431,0.000353
10996000,0.0324,0.013523,0.002678,0.000431,0.000235
10997000,0.0324,0.013523,0.002678,0.000431,0.000353
10998000,0.0324,0.013523,0.002678,0.000431,0.000470
10999000,0.0324,0.013523,0.002678,0.000431,0.000353
