Cycle,Area(mm^2),PeakDynamic(W),SubthresholdLeakage(W),GateLeakage(W),RunTimeDynamic(W)
11000000,0.0324,0.013523,0.002678,0.000431,0.000118
11001000,0.0324,0.013523,0.002678,0.000431,0.000470
11002000,0.0324,0.013523,0.002678,0.000431,0.000353
11003000,0.0324,0.013523,0.002678,0.000431,0.000235
11004000,0.0324,0.013523,0.002678,0.000431,0.000353
11005000,0.0324,0.013523,0.002678,0.000431,0.000470
11006000,0.0324,0.013523,0.002678,0.000431,0.000353
11007000,0.0324,0.013523,0.002678,0.000431,0.000118
11008000,0.0324,0.013523,0.002678,0.000431,0.000470
11009000,0.0324,0.013523,0.002678,0.000431,0.000353
11010000,0.0324,0.013523,0.002678,0.000431,0.000235
11011000,0.0324,0.013523,0.002678,0.000431,0.000353
11012000,0.0324,0.013523,0.002678,0.000431,0.000470
11013000,0.0324,0.013523,0.002678,0.000431,0.000353
11014000,0.0324,0.013523,0.002678,0.000431,0.000118
11015000,0.0324,0.013523,0.002678,0.000431,0.000470
11016000,0.0324,0.013523,0.002678,0.000431,0.000353
11017000,0.0324,0.013523,0.002678,0.000431,0.000235
11018000,0.0324,0.013523,0.002678,0.000431,0.000353
11019000,0.0324,0.013523,0.002678,0.000431,0.000470
11020000,0.0324,0.013523,0.002678,0.000431,0.000353
11021000,0.0324,0.013523,0.002678,0.000431,0.000118
11022000,0.0324,0.013523,0.002678,0.000431,0.000470
11023000,0.0324,0.013523,0.002678,0.000431,0.000353
11024000,0.0324,0.013523,0.002678,0.000431,0.000235
11025000,0.0324,0.013523,0.002678,0.000431,0.000353
11026000,0.0324,0.013523,0.002678,0.000431,0.000470
11027000,0.0324,0.013523,0.002678,0.000431,0.000235
11028000,0.0324,0.013523,0.002678,0.000431,0.000235
11029000,0.0324,0.013523,0.002678,0.000431,0.000470
11030000,0.0324,0.013523,0.002678,0.000431,0.000353
11031000,0.0324,0.013523,0.002678,0.000431,0.000235
11032000,0.0324,0.013523,0.002678,0.000431,0.000353
11033000,0.0324,0.013523,0.002678,0.000431,0.000470
11034000,0.0324,0.013523,0.002678,0.000431,0.000235
11035000,0.0324,0.013523,0.002678,0.000431,0.000235
11036000,0.0324,0.013523,0.002678,0.000431,0.000470
11037000,0.0324,0.013523,0.002678,0.000431,0.000353
11038000,0.0324,0.013523,0.002678,0.000431,0.000235
11039000,0.0324,0.013523,0.002678,0.000431,0.000353
11040000,0.0324,0.013523,0.002678,0.000431,0.000470
11041000,0.0324,0.013523,0.002678,0.000431,0.000235
11042000,0.0324,0.013523,0.002678,0.000431,0.000235
11043000,0.0324,0.013523,0.002678,0.000431,0.000470
11044000,0.0324,0.013523,0.002678,0.000431,0.000353
11045000,0.0324,0.013523,0.002678,0.000431,0.000235
11046000,0.0324,0.013523,0.002678,0.000431,0.000353
11047000,0.0324,0.013523,0.002678,0.000431,0.000470
11048000,0.0324,0.013523,0.002678,0.000431,0.000235
11049000,0.0324,0.013523,0.002678,0.000431,0.000235
11050000,0.0324,0.013523,0.002678,0.000431,0.000470
11051000,0.0324,0.013523,0.002678,0.000431,0.000353
11052000,0.0324,0.013523,0.002678,0.000431,0.000235
11053000,0.0324,0.013523,0.002678,0.000431,0.000353
11054000,0.0324,0.013523,0.002678,0.000431,0.000470
11055000,0.0324,0.013523,0.002678,0.000431,0.000235
11056000,0.0324,0.013523,0.002678,0.000431,0.000235
11057000,0.0324,0.013523,0.002678,0.000431,0.000470
11058000,0.0324,0.013523,0.002678,0.000431,0.000353
11059000,0.0324,0.013523,0.002678,0.000431,0.000235
11060000,0.0324,0.013523,0.002678,0.000431,0.000353
11061000,0.0324,0.013523,0.002678,0.000431,0.000470
11062000,0.0324,0.013523,0.002678,0.000431,0.000235
11063000,0.0324,0.013523,0.002678,0.000431,0.000235
11064000,0.0324,0.013523,0.002678,0.000431,0.000470
11065000,0.0324,0.013523,0.002678,0.000431,0.000353
11066000,0.0324,0.013523,0.002678,0.000431,0.000235
11067000,0.0324,0.013523,0.002678,0.000431,0.000353
11068000,0.0324,0.013523,0.002678,0.000431,0.000470
11069000,0.0324,0.013523,0.002678,0.000431,0.000118
11070000,0.0324,0.013523,0.002678,0.000431,0.000353
11071000,0.0324,0.013523,0.002678,0.000431,0.000470
11072000,0.0324,0.013523,0.002678,0.000431,0.000353
11073000,0.0324,0.013523,0.002678,0.000431,0.000235
11074000,0.0324,0.013523,0.002678,0.000431,0.000353
11075000,0.0324,0.013523,0.002678,0.000431,0.000470
11076000,0.0324,0.013523,0.002678,0.000431,0.000118
11077000,0.0324,0.013523,0.002678,0.000431,0.000353
11078000,0.0324,0.013523,0.002678,0.000431,0.000470
11079000,0.0324,0.013523,0.002678,0.000431,0.000353
11080000,0.0324,0.013523,0.002678,0.000431,0.000235
11081000,0.0324,0.013523,0.002678,0.000431,0.000353
11082000,0.0324,0.013523,0.002678,0.000431,0.000470
11083000,0.0324,0.013523,0.002678,0.000431,0.000118
11084000,0.0324,0.013523,0.002678,0.000431,0.000353
11085000,0.0324,0.013523,0.002678,0.000431,0.000470
11086000,0.0324,0.013523,0.002678,0.000431,0.000353
11087000,0.0324,0.013523,0.002678,0.000431,0.000235
11088000,0.0324,0.013523,0.002678,0.000431,0.000353
11089000,0.0324,0.013523,0.002678,0.000431,0.000353
11090000,0.0324,0.013523,0.002678,0.000431,0.000235
11091000,0.0324,0.013523,0.002678,0.000431,0.000353
11092000,0.0324,0.013523,0.002678,0.000431,0.000470
11093000,0.0324,0.013523,0.002678,0.000431,0.000353
11094000,0.0324,0.013523,0.002678,0.000431,0.000235
11095000,0.0324,0.013523,0.002678,0.000431,0.000353
11096000,0.0324,0.013523,0.002678,0.000431,0.000353
11097000,0.0324,0.013523,0.002678,0.000431,0.000235
11098000,0.0324,0.013523,0.002678,0.000431,0.000353
11099000,0.0324,0.013523,0.002678,0.000431,0.000470
11100000,0.0324,0.013523,0.002678,0.000431,0.000353
11101000,0.0324,0.013523,0.002678,0.000431,0.000235
11102000,0.0324,0.013523,0.002678,0.000431,0.000353
11103000,0.0324,0.013523,0.002678,0.000431,0.000353
11104000,0.0324,0.013523,0.002678,0.000431,0.000235
11105000,0.0324,0.013523,0.002678,0.000431,0.000353
11106000,0.0324,0.013523,0.002678,0.000431,0.000470
11107000,0.0324,0.013523,0.002678,0.000431,0.000353
11108000,0.0324,0.013523,0.002678,0.000431,0.000235
11109000,0.0324,0.013523,0.002678,0.000431,0.000353
11110000,0.0324,0.013523,0.002678,0.000431,0.000353
11111000,0.0324,0.013523,0.002678,0.000431,0.000235
11112000,0.0324,0.013523,0.002678,0.000431,0.000353
11113000,0.0324,0.013523,0.002678,0.000431,0.000470
11114000,0.0324,0.013523,0.002678,0.000431,0.000353
11115000,0.0324,0.013523,0.002678,0.000431,0.000235
11116000,0.0324,0.013523,0.002678,0.000431,0.000353
11117000,0.0324,0.013523,0.002678,0.000431,0.000353
11118000,0.0324,0.013523,0.002678,0.000431,0.000235
11119000,0.0324,0.013523,0.002678,0.000431,0.000353
11120000,0.0324,0.013523,0.002678,0.000431,0.000470
11121000,0.0324,0.013523,0.002678,0.000431,0.000353
11122000,0.0324,0.013523,0.002678,0.000431,0.000235
11123000,0.0324,0.013523,0.002678,0.000431,0.000353
11124000,0.0324,0.013523,0.002678,0.000431,0.000353
11125000,0.0324,0.013523,0.002678,0.000431,0.000235
11126000,0.0324,0.013523,0.002678,0.000431,0.000353
11127000,0.0324,0.013523,0.002678,0.000431,0.000470
11128000,0.0324,0.013523,0.002678,0.000431,0.000353
11129000,0.0324,0.013523,0.002678,0.000431,0.000235
11130000,0.0324,0.013523,0.002678,0.000431,0.000353
11131000,0.0324,0.013523,0.002678,0.000431,0.000353
11132000,0.0324,0.013523,0.002678,0.000431,0.000235
11133000,0.0324,0.013523,0.002678,0.000431,0.000353
11134000,0.0324,0.013523,0.002678,0.000431,0.000470
11135000,0.0324,0.013523,0.002678,0.000431,0.000353
11136000,0.0324,0.013523,0.002678,0.000431,0.000235
11137000,0.0324,0.013523,0.002678,0.000431,0.000353
11138000,0.0324,0.013523,0.002678,0.000431,0.000353
11139000,0.0324,0.013523,0.002678,0.000431,0.000235
11140000,0.0324,0.013523,0.002678,0.000431,0.000353
11141000,0.0324,0.013523,0.002678,0.000431,0.000470
11142000,0.0324,0.013523,0.002678,0.000431,0.000353
11143000,0.0324,0.013523,0.002678,0.000431,0.000118
11144000,0.0324,0.013523,0.002678,0.000431,0.000470
11145000,0.0324,0.013523,0.002678,0.000431,0.000353
11146000,0.0324,0.013523,0.002678,0.000431,0.000235
11147000,0.0324,0.013523,0.002678,0.000431,0.000353
11148000,0.0324,0.013523,0.002678,0.000431,0.000470
11149000,0.0324,0.013523,0.002678,0.000431,0.000353
11150000,0.0324,0.013523,0.002678,0.000431,0.000118
11151000,0.0324,0.013523,0.002678,0.000431,0.000470
11152000,0.0324,0.013523,0.002678,0.000431,0.000353
11153000,0.0324,0.013523,0.002678,0.000431,0.000235
11154000,0.0324,0.013523,0.002678,0.000431,0.000353
11155000,0.0324,0.013523,0.002678,0.000431,0.000470
11156000,0.0324,0.013523,0.002678,0.000431,0.000353
11157000,0.0324,0.013523,0.002678,0.000431,0.000118
11158000,0.0324,0.013523,0.002678,0.000431,0.000470
11159000,0.0324,0.013523,0.002678,0.000431,0.000353
11160000,0.0324,0.013523,0.002678,0.000431,0.000235
11161000,0.0324,0.013523,0.002678,0.000431,0.000353
11162000,0.0324,0.013523,0.002678,0.000431,0.000470
11163000,0.0324,0.013523,0.002678,0.000431,0.000235
11164000,0.0324,0.013523,0.002678,0.000431,0.000235
11165000,0.0324,0.013523,0.002678,0.000431,0.000470
11166000,0.0324,0.013523,0.002678,0.000431,0.000353
11167000,0.0324,0.013523,0.002678,0.000431,0.000235
11168000,0.0324,0.013523,0.002678,0.000431,0.000353
11169000,0.0324,0.013523,0.002678,0.000431,0.000470
11170000,0.0324,0.013523,0.002678,0.000431,0.000235
11171000,0.0324,0.013523,0.002678,0.000431,0.000235
11172000,0.0324,0.013523,0.002678,0.000431,0.000470
11173000,0.0324,0.013523,0.002678,0.000431,0.000353
11174000,0.0324,0.013523,0.002678,0.000431,0.000235
11175000,0.0324,0.013523,0.002678,0.000431,0.000353
11176000,0.0324,0.013523,0.002678,0.000431,0.000470
11177000,0.0324,0.013523,0.002678,0.000431,0.000235
11178000,0.0324,0.013523,0.002678,0.000431,0.000235
11179000,0.0324,0.013523,0.002678,0.000431,0.000470
11180000,0.0324,0.013523,0.002678,0.000431,0.000353
11181000,0.0324,0.013523,0.002678,0.000431,0.000235
11182000,0.0324,0.013523,0.002678,0.000431,0.000353
11183000,0.0324,0.013523,0.002678,0.000431,0.000470
11184000,0.0324,0.013523,0.002678,0.000431,0.000235
11185000,0.0324,0.013523,0.002678,0.000431,0.000235
11186000,0.0324,0.013523,0.002678,0.000431,0.000470
11187000,0.0324,0.013523,0.002678,0.000431,0.000353
11188000,0.0324,0.013523,0.002678,0.000431,0.000235
11189000,0.0324,0.013523,0.002678,0.000431,0.000353
11190000,0.0324,0.013523,0.002678,0.000431,0.000470
11191000,0.0324,0.013523,0.002678,0.000431,0.000235
11192000,0.0324,0.013523,0.002678,0.000431,0.000235
11193000,0.0324,0.013523,0.002678,0.000431,0.000470
11194000,0.0324,0.013523,0.002678,0.000431,0.000353
11195000,0.0324,0.013523,0.002678,0.000431,0.000235
11196000,0.0324,0.013523,0.002678,0.000431,0.000353
11197000,0.0324,0.013523,0.002678,0.000431,0.000470
11198000,0.0324,0.013523,0.002678,0.000431,0.000235
11199000,0.0324,0.013523,0.002678,0.000431,0.000235
11200000,0.0324,0.013523,0.002678,0.000431,0.000470
11201000,0.0324,0.013523,0.002678,0.000431,0.000353
11202000,0.0324,0.013523,0.002678,0.000431,0.000235
11203000,0.0324,0.013523,0.002678,0.000431,0.000353
11204000,0.0324,0.013523,0.002678,0.000431,0.000470
11205000,0.0324,0.013523,0.002678,0.000431,0.000118
11206000,0.0324,0.013523,0.002678,0.000431,0.000353
11207000,0.0324,0.013523,0.002678,0.000431,0.000470
11208000,0.0324,0.013523,0.002678,0.000431,0.000353
11209000,0.0324,0.013523,0.002678,0.000431,0.000235
11210000,0.0324,0.013523,0.002678,0.000431,0.000353
11211000,0.0324,0.013523,0.002678,0.000431,0.000470
11212000,0.0324,0.013523,0.002678,0.000431,0.000118
11213000,0.0324,0.013523,0.002678,0.000431,0.000353
11214000,0.0324,0.013523,0.002678,0.000431,0.000470
11215000,0.0324,0.013523,0.002678,0.000431,0.000353
11216000,0.0324,0.013523,0.002678,0.000431,0.000235
11217000,0.0324,0.013523,0.002678,0.000431,0.000353
11218000,0.0324,0.013523,0.002678,0.000431,0.000470
11219000,0.0324,0.013523,0.002678,0.000431,0.000118
11220000,0.0324,0.013523,0.002678,0.000431,0.000353
11221000,0.0324,0.013523,0.002678,0.000431,0.000470
11222000,0.0324,0.013523,0.002678,0.000431,0.000353
11223000,0.0324,0.013523,0.002678,0.000431,0.000235
11224000,0.0324,0.013523,0.002678,0.000431,0.000353
11225000,0.0324,0.013523,0.002678,0.000431,0.000470
11226000,0.0324,0.013523,0.002678,0.000431,0.000118
11227000,0.0324,0.013523,0.002678,0.000431,0.000353
11228000,0.0324,0.013523,0.002678,0.000431,0.000470
11229000,0.0324,0.013523,0.002678,0.000431,0.000353
11230000,0.0324,0.013523,0.002678,0.000431,0.000235
11231000,0.0324,0.013523,0.002678,0.000431,0.000353
11232000,0.0324,0.013523,0.002678,0.000431,0.000353
11233000,0.0324,0.013523,0.002678,0.000431,0.000235
11234000,0.0324,0.013523,0.002678,0.000431,0.000353
11235000,0.0324,0.013523,0.002678,0.000431,0.000470
11236000,0.0324,0.013523,0.002678,0.000431,0.000353
11237000,0.0324,0.013523,0.002678,0.000431,0.000235
11238000,0.0324,0.013523,0.002678,0.000431,0.000353
11239000,0.0324,0.013523,0.002678,0.000431,0.000353
11240000,0.0324,0.013523,0.002678,0.000431,0.000235
11241000,0.0324,0.013523,0.002678,0.000431,0.000353
11242000,0.0324,0.013523,0.002678,0.000431,0.000470
11243000,0.0324,0.013523,0.002678,0.000431,0.000353
11244000,0.0324,0.013523,0.002678,0.000431,0.000235
11245000,0.0324,0.013523,0.002678,0.000431,0.000353
11246000,0.0324,0.013523,0.002678,0.000431,0.000353
11247000,0.0324,0.013523,0.002678,0.000431,0.000235
11248000,0.0324,0.013523,0.002678,0.000431,0.000353
11249000,0.0324,0.013523,0.002678,0.000431,0.000470
11250000,0.0324,0.013523,0.002678,0.000431,0.000353
11251000,0.0324,0.013523,0.002678,0.000431,0.000235
11252000,0.0324,0.013523,0.002678,0.000431,0.000353
11253000,0.0324,0.013523,0.002678,0.000431,0.000353
11254000,0.0324,0.013523,0.002678,0.000431,0.000235
11255000,0.0324,0.013523,0.002678,0.000431,0.000353
11256000,0.0324,0.013523,0.002678,0.000431,0.000470
11257000,0.0324,0.013523,0.002678,0.000431,0.000353
11258000,0.0324,0.013523,0.002678,0.000431,0.000235
11259000,0.0324,0.013523,0.002678,0.000431,0.000353
11260000,0.0324,0.013523,0.002678,0.000431,0.000353
11261000,0.0324,0.013523,0.002678,0.000431,0.000235
11262000,0.0324,0.013523,0.002678,0.000431,0.000353
11263000,0.0324,0.013523,0.002678,0.000431,0.000470
11264000,0.0324,0.013523,0.002678,0.000431,0.000353
11265000,0.0324,0.013523,0.002678,0.000431,0.000235
11266000,0.0324,0.013523,0.002678,0.000431,0.000353
11267000,0.0324,0.013523,0.002678,0.000431,0.000353
11268000,0.0324,0.013523,0.002678,0.000431,0.000235
11269000,0.0324,0.013523,0.002678,0.000431,0.000353
11270000,0.0324,0.013523,0.002678,0.000431,0.000470
11271000,0.0324,0.013523,0.002678,0.000431,0.000353
11272000,0.0324,0.013523,0.002678,0.000431,0.000235
11273000,0.0324,0.013523,0.002678,0.000431,0.000353
11274000,0.0324,0.013523,0.002678,0.000431,0.000353
11275000,0.0324,0.013523,0.002678,0.000431,0.000235
11276000,0.0324,0.013523,0.002678,0.000431,0.000353
11277000,0.0324,0.013523,0.002678,0.000431,0.000470
11278000,0.0324,0.013523,0.002678,0.000431,0.000353
11279000,0.0324,0.013523,0.002678,0.000431,0.000118
11280000,0.0324,0.013523,0.002678,0.000431,0.000470
11281000,0.0324,0.013523,0.002678,0.000431,0.000353
11282000,0.0324,0.013523,0.002678,0.000431,0.000235
11283000,0.0324,0.013523,0.002678,0.000431,0.000353
11284000,0.0324,0.013523,0.002678,0.000431,0.000470
11285000,0.0324,0.013523,0.002678,0.000431,0.000353
11286000,0.0324,0.013523,0.002678,0.000431,0.000118
11287000,0.0324,0.013523,0.002678,0.000431,0.000470
11288000,0.0324,0.013523,0.002678,0.000431,0.000353
11289000,0.0324,0.013523,0.002678,0.000431,0.000235
11290000,0.0324,0.013523,0.002678,0.000431,0.000353
11291000,0.0324,0.013523,0.002678,0.000431,0.000470
11292000,0.0324,0.013523,0.002678,0.000431,0.000353
11293000,0.0324,0.013523,0.002678,0.000431,0.000118
11294000,0.0324,0.013523,0.002678,0.000431,0.000470
11295000,0.0324,0.013523,0.002678,0.000431,0.000353
11296000,0.0324,0.013523,0.002678,0.000431,0.000235
11297000,0.0324,0.013523,0.002678,0.000431,0.000353
11298000,0.0324,0.013523,0.002678,0.000431,0.000470
11299000,0.0324,0.013523,0.002678,0.000431,0.000353
11300000,0.0324,0.013523,0.002678,0.000431,0.000118
11301000,0.0324,0.013523,0.002678,0.000431,0.000470
11302000,0.0324,0.013523,0.002678,0.000431,0.000353
11303000,0.0324,0.013523,0.002678,0.000431,0.000235
11304000,0.0324,0.013523,0.002678,0.000431,0.000353
11305000,0.0324,0.013523,0.002678,0.000431,0.000470
11306000,0.0324,0.013523,0.002678,0.000431,0.000235
11307000,0.0324,0.013523,0.002678,0.000431,0.000235
11308000,0.0324,0.013523,0.002678,0.000431,0.000470
11309000,0.0324,0.013523,0.002678,0.000431,0.000353
11310000,0.0324,0.013523,0.002678,0.000431,0.000235
11311000,0.0324,0.013523,0.002678,0.000431,0.000353
11312000,0.0324,0.013523,0.002678,0.000431,0.000470
11313000,0.0324,0.013523,0.002678,0.000431,0.000235
11314000,0.0324,0.013523,0.002678,0.000431,0.000235
11315000,0.0324,0.013523,0.002678,0.000431,0.000470
11316000,0.0324,0.013523,0.002678,0.000431,0.000353
11317000,0.0324,0.013523,0.002678,0.000431,0.000235
11318000,0.0324,0.013523,0.002678,0.000431,0.000353
11319000,0.0324,0.013523,0.002678,0.000431,0.000470
11320000,0.0324,0.013523,0.002678,0.000431,0.000235
11321000,0.0324,0.013523,0.002678,0.000431,0.000235
11322000,0.0324,0.013523,0.002678,0.000431,0.000470
11323000,0.0324,0.013523,0.002678,0.000431,0.000353
11324000,0.0324,0.013523,0.002678,0.000431,0.000235
11325000,0.0324,0.013523,0.002678,0.000431,0.000353
11326000,0.0324,0.013523,0.002678,0.000431,0.000470
11327000,0.0324,0.013523,0.002678,0.000431,0.000235
11328000,0.0324,0.013523,0.002678,0.000431,0.000235
11329000,0.0324,0.013523,0.002678,0.000431,0.000470
11330000,0.0324,0.013523,0.002678,0.000431,0.000353
11331000,0.0324,0.013523,0.002678,0.000431,0.000235
11332000,0.0324,0.013523,0.002678,0.000431,0.000353
11333000,0.0324,0.013523,0.002678,0.000431,0.000470
11334000,0.0324,0.013523,0.002678,0.000431,0.000235
11335000,0.0324,0.013523,0.002678,0.000431,0.000235
11336000,0.0324,0.013523,0.002678,0.000431,0.000470
11337000,0.0324,0.013523,0.002678,0.000431,0.000353
11338000,0.0324,0.013523,0.002678,0.000431,0.000235
11339000,0.0324,0.013523,0.002678,0.000431,0.000353
11340000,0.0324,0.013523,0.002678,0.000431,0.000470
11341000,0.0324,0.013523,0.002678,0.000431,0.000235
11342000,0.0324,0.013523,0.002678,0.000431,0.000235
11343000,0.0324,0.013523,0.002678,0.000431,0.000470
11344000,0.0324,0.013523,0.002678,0.000431,0.000353
11345000,0.0324,0.013523,0.002678,0.000431,0.000235
11346000,0.0324,0.013523,0.002678,0.000431,0.000353
11347000,0.0324,0.013523,0.002678,0.000431,0.000470
11348000,0.0324,0.013523,0.002678,0.000431,0.000118
11349000,0.0324,0.013523,0.002678,0.000431,0.000353
11350000,0.0324,0.013523,0.002678,0.000431,0.000470
11351000,0.0324,0.013523,0.002678,0.000431,0.000353
11352000,0.0324,0.013523,0.002678,0.000431,0.000235
11353000,0.0324,0.013523,0.002678,0.000431,0.000353
11354000,0.0324,0.013523,0.002678,0.000431,0.000470
11355000,0.0324,0.013523,0.002678,0.000431,0.000118
11356000,0.0324,0.013523,0.002678,0.000431,0.000353
11357000,0.0324,0.013523,0.002678,0.000431,0.000470
11358000,0.0324,0.013523,0.002678,0.000431,0.000353
11359000,0.0324,0.013523,0.002678,0.000431,0.000235
11360000,0.0324,0.013523,0.002678,0.000431,0.000353
11361000,0.0324,0.013523,0.002678,0.000431,0.000470
11362000,0.0324,0.013523,0.002678,0.000431,0.000118
11363000,0.0324,0.013523,0.002678,0.000431,0.000353
11364000,0.0324,0.013523,0.002678,0.000431,0.000470
11365000,0.0324,0.013523,0.002678,0.000431,0.000353
11366000,0.0324,0.013523,0.002678,0.000431,0.000235
11367000,0.0324,0.013523,0.002678,0.000431,0.000353
11368000,0.0324,0.013523,0.002678,0.000431,0.000353
11369000,0.0324,0.013523,0.002678,0.000431,0.000235
11370000,0.0324,0.013523,0.002678,0.000431,0.000353
11371000,0.0324,0.013523,0.002678,0.000431,0.000470
11372000,0.0324,0.013523,0.002678,0.000431,0.000353
11373000,0.0324,0.013523,0.002678,0.000431,0.000235
11374000,0.0324,0.013523,0.002678,0.000431,0.000353
11375000,0.0324,0.013523,0.002678,0.000431,0.000353
11376000,0.0324,0.013523,0.002678,0.000431,0.000235
11377000,0.0324,0.013523,0.002678,0.000431,0.000353
11378000,0.0324,0.013523,0.002678,0.000431,0.000470
11379000,0.0324,0.013523,0.002678,0.000431,0.000353
11380000,0.0324,0.013523,0.002678,0.000431,0.000235
11381000,0.0324,0.013523,0.002678,0.000431,0.000353
11382000,0.0324,0.013523,0.002678,0.000431,0.000353
11383000,0.0324,0.013523,0.002678,0.000431,0.000235
11384000,0.0324,0.013523,0.002678,0.000431,0.000353
11385000,0.0324,0.013523,0.002678,0.000431,0.000470
11386000,0.0324,0.013523,0.002678,0.000431,0.000353
11387000,0.0324,0.013523,0.002678,0.000431,0.000235
11388000,0.0324,0.013523,0.002678,0.000431,0.000353
11389000,0.0324,0.013523,0.002678,0.000431,0.000353
11390000,0.0324,0.013523,0.002678,0.000431,0.000235
11391000,0.0324,0.013523,0.002678,0.000431,0.000353
11392000,0.0324,0.013523,0.002678,0.000431,0.000470
11393000,0.0324,0.013523,0.002678,0.000431,0.000353
11394000,0.0324,0.013523,0.002678,0.000431,0.000235
11395000,0.0324,0.013523,0.002678,0.000431,0.000353
11396000,0.0324,0.013523,0.002678,0.000431,0.000353
11397000,0.0324,0.013523,0.002678,0.000431,0.000235
11398000,0.0324,0.013523,0.002678,0.000431,0.000353
11399000,0.0324,0.013523,0.002678,0.000431,0.000470
11400000,0.0324,0.013523,0.002678,0.000431,0.000353
11401000,0.0324,0.013523,0.002678,0.000431,0.000235
11402000,0.0324,0.013523,0.002678,0.000431,0.000353
11403000,0.0324,0.013523,0.002678,0.000431,0.000353
11404000,0.0324,0.013523,0.002678,0.000431,0.000235
11405000,0.0324,0.013523,0.002678,0.000431,0.000353
11406000,0.0324,0.013523,0.002678,0.000431,0.000470
11407000,0.0324,0.013523,0.002678,0.000431,0.000353
11408000,0.0324,0.013523,0.002678,0.000431,0.000235
11409000,0.0324,0.013523,0.002678,0.000431,0.000353
11410000,0.0324,0.013523,0.002678,0.000431,0.000353
11411000,0.0324,0.013523,0.002678,0.000431,0.000235
11412000,0.0324,0.013523,0.002678,0.000431,0.000353
11413000,0.0324,0.013523,0.002678,0.000431,0.000470
11414000,0.0324,0.013523,0.002678,0.000431,0.000353
11415000,0.0324,0.013523,0.002678,0.000431,0.000235
11416000,0.0324,0.013523,0.002678,0.000431,0.000353
11417000,0.0324,0.013523,0.002678,0.000431,0.000353
11418000,0.0324,0.013523,0.002678,0.000431,0.000235
11419000,0.0324,0.013523,0.002678,0.000431,0.000353
11420000,0.0324,0.013523,0.002678,0.000431,0.000470
11421000,0.0324,0.013523,0.002678,0.000431,0.000353
11422000,0.0324,0.013523,0.002678,0.000431,0.000118
11423000,0.0324,0.013523,0.002678,0.000431,0.000470
11424000,0.0324,0.013523,0.002678,0.000431,0.000353
11425000,0.0324,0.013523,0.002678,0.000431,0.000235
11426000,0.0324,0.013523,0.002678,0.000431,0.000353
11427000,0.0324,0.013523,0.002678,0.000431,0.000470
11428000,0.0324,0.013523,0.002678,0.000431,0.000353
11429000,0.0324,0.013523,0.002678,0.000431,0.000118
11430000,0.0324,0.013523,0.002678,0.000431,0.000470
11431000,0.0324,0.013523,0.002678,0.000431,0.000353
11432000,0.0324,0.013523,0.002678,0.000431,0.000235
11433000,0.0324,0.013523,0.002678,0.000431,0.000353
11434000,0.0324,0.013523,0.002678,0.000431,0.000470
11435000,0.0324,0.013523,0.002678,0.000431,0.000353
11436000,0.0324,0.013523,0.002678,0.000431,0.000118
11437000,0.0324,0.013523,0.002678,0.000431,0.000470
11438000,0.0324,0.013523,0.002678,0.000431,0.000353
11439000,0.0324,0.013523,0.002678,0.000431,0.000235
11440000,0.0324,0.013523,0.002678,0.000431,0.000353
11441000,0.0324,0.013523,0.002678,0.000431,0.000470
11442000,0.0324,0.013523,0.002678,0.000431,0.000235
11443000,0.0324,0.013523,0.002678,0.000431,0.000235
11444000,0.0324,0.013523,0.002678,0.000431,0.000470
11445000,0.0324,0.013523,0.002678,0.000431,0.000353
11446000,0.0324,0.013523,0.002678,0.000431,0.000235
11447000,0.0324,0.013523,0.002678,0.000431,0.000353
11448000,0.0324,0.013523,0.002678,0.000431,0.000470
11449000,0.0324,0.013523,0.002678,0.000431,0.000235
11450000,0.0324,0.013523,0.002678,0.000431,0.000235
11451000,0.0324,0.013523,0.002678,0.000431,0.000470
11452000,0.0324,0.013523,0.002678,0.000431,0.000353
11453000,0.0324,0.013523,0.002678,0.000431,0.000235
11454000,0.0324,0.013523,0.002678,0.000431,0.000353
11455000,0.0324,0.013523,0.002678,0.000431,0.000470
11456000,0.0324,0.013523,0.002678,0.000431,0.000235
11457000,0.0324,0.013523,0.002678,0.000431,0.000235
11458000,0.0324,0.013523,0.002678,0.000431,0.000470
11459000,0.0324,0.013523,0.002678,0.000431,0.000353
11460000,0.0324,0.013523,0.002678,0.000431,0.000235
11461000,0.0324,0.013523,0.002678,0.000431,0.000353
11462000,0.0324,0.013523,0.002678,0.000431,0.000470
11463000,0.0324,0.013523,0.002678,0.000431,0.000235
11464000,0.0324,0.013523,0.002678,0.000431,0.000235
11465000,0.0324,0.013523,0.002678,0.000431,0.000470
11466000,0.0324,0.013523,0.002678,0.000431,0.000353
11467000,0.0324,0.013523,0.002678,0.000431,0.000235
11468000,0.0324,0.013523,0.002678,0.000431,0.000353
11469000,0.0324,0.013523,0.002678,0.000431,0.000470
11470000,0.0324,0.013523,0.002678,0.000431,0.000235
11471000,0.0324,0.013523,0.002678,0.000431,0.000235
11472000,0.0324,0.013523,0.002678,0.000431,0.000470
11473000,0.0324,0.013523,0.002678,0.000431,0.000353
11474000,0.0324,0.013523,0.002678,0.000431,0.000235
11475000,0.0324,0.013523,0.002678,0.000431,0.000353
11476000,0.0324,0.013523,0.002678,0.000431,0.000470
11477000,0.0324,0.013523,0.002678,0.000431,0.000235
11478000,0.0324,0.013523,0.002678,0.000431,0.000235
11479000,0.0324,0.013523,0.002678,0.000431,0.000470
11480000,0.0324,0.013523,0.002678,0.000431,0.000353
11481000,0.0324,0.013523,0.002678,0.000431,0.000235
11482000,0.0324,0.013523,0.002678,0.000431,0.000353
11483000,0.0324,0.013523,0.002678,0.000431,0.000470
11484000,0.0324,0.013523,0.002678,0.000431,0.000118
11485000,0.0324,0.013523,0.002678,0.000431,0.000353
11486000,0.0324,0.013523,0.002678,0.000431,0.000470
11487000,0.0324,0.013523,0.002678,0.000431,0.000353
11488000,0.0324,0.013523,0.002678,0.000431,0.000235
11489000,0.0324,0.013523,0.002678,0.000431,0.000353
11490000,0.0324,0.013523,0.002678,0.000431,0.000470
11491000,0.0324,0.013523,0.002678,0.000431,0.000118
11492000,0.0324,0.013523,0.002678,0.000431,0.000353
11493000,0.0324,0.013523,0.002678,0.000431,0.000470
11494000,0.0324,0.013523,0.002678,0.000431,0.000353
11495000,0.0324,0.013523,0.002678,0.000431,0.000235
11496000,0.0324,0.013523,0.002678,0.000431,0.000353
11497000,0.0324,0.013523,0.002678,0.000431,0.000470
11498000,0.0324,0.013523,0.002678,0.000431,0.000118
11499000,0.0324,0.013523,0.002678,0.000431,0.000353
11500000,0.0324,0.013523,0.002678,0.000431,0.000470
11501000,0.0324,0.013523,0.002678,0.000431,0.000353
11502000,0.0324,0.013523,0.002678,0.000431,0.000235
11503000,0.0324,0.013523,0.002678,0.000431,0.000353
11504000,0.0324,0.013523,0.002678,0.000431,0.000470
11505000,0.0324,0.013523,0.002678,0.000431,0.000118
11506000,0.0324,0.013523,0.002678,0.000431,0.000353
11507000,0.0324,0.013523,0.002678,0.000431,0.000470
11508000,0.0324,0.013523,0.002678,0.000431,0.000353
11509000,0.0324,0.013523,0.002678,0.000431,0.000235
11510000,0.0324,0.013523,0.002678,0.000431,0.000353
11511000,0.0324,0.013523,0.002678,0.000431,0.000353
11512000,0.0324,0.013523,0.002678,0.000431,0.000235
11513000,0.0324,0.013523,0.002678,0.000431,0.000353
11514000,0.0324,0.013523,0.002678,0.000431,0.000470
11515000,0.0324,0.013523,0.002678,0.000431,0.000353
11516000,0.0324,0.013523,0.002678,0.000431,0.000235
11517000,0.0324,0.013523,0.002678,0.000431,0.000353
11518000,0.0324,0.013523,0.002678,0.000431,0.000353
11519000,0.0324,0.013523,0.002678,0.000431,0.000235
11520000,0.0324,0.013523,0.002678,0.000431,0.000353
11521000,0.0324,0.013523,0.002678,0.000431,0.000470
11522000,0.0324,0.013523,0.002678,0.000431,0.000353
11523000,0.0324,0.013523,0.002678,0.000431,0.000235
11524000,0.0324,0.013523,0.002678,0.000431,0.000353
11525000,0.0324,0.013523,0.002678,0.000431,0.000353
11526000,0.0324,0.013523,0.002678,0.000431,0.000235
11527000,0.0324,0.013523,0.002678,0.000431,0.000353
11528000,0.0324,0.013523,0.002678,0.000431,0.000470
11529000,0.0324,0.013523,0.002678,0.000431,0.000353
11530000,0.0324,0.013523,0.002678,0.000431,0.000235
11531000,0.0324,0.013523,0.002678,0.000431,0.000353
11532000,0.0324,0.013523,0.002678,0.000431,0.000353
11533000,0.0324,0.013523,0.002678,0.000431,0.000235
11534000,0.0324,0.013523,0.002678,0.000431,0.000353
11535000,0.0324,0.013523,0.002678,0.000431,0.000470
11536000,0.0324,0.013523,0.002678,0.000431,0.000353
11537000,0.0324,0.013523,0.002678,0.000431,0.000235
11538000,0.0324,0.013523,0.002678,0.000431,0.000353
11539000,0.0324,0.013523,0.002678,0.000431,0.000353
11540000,0.0324,0.013523,0.002678,0.000431,0.000235
11541000,0.0324,0.013523,0.002678,0.000431,0.000353
11542000,0.0324,0.013523,0.002678,0.000431,0.000470
11543000,0.0324,0.013523,0.002678,0.000431,0.000353
11544000,0.0324,0.013523,0.002678,0.000431,0.000235
11545000,0.0324,0.013523,0.002678,0.000431,0.000353
11546000,0.0324,0.013523,0.002678,0.000431,0.000353
11547000,0.0324,0.013523,0.002678,0.000431,0.000235
11548000,0.0324,0.013523,0.002678,0.000431,0.000353
11549000,0.0324,0.013523,0.002678,0.000431,0.000470
11550000,0.0324,0.013523,0.002678,0.000431,0.000353
11551000,0.0324,0.013523,0.002678,0.000431,0.000235
11552000,0.0324,0.013523,0.002678,0.000431,0.000353
11553000,0.0324,0.013523,0.002678,0.000431,0.000353
11554000,0.0324,0.013523,0.002678,0.000431,0.000235
11555000,0.0324,0.013523,0.002678,0.000431,0.000353
11556000,0.0324,0.013523,0.002678,0.000431,0.000470
11557000,0.0324,0.013523,0.002678,0.000431,0.000353
11558000,0.0324,0.013523,0.002678,0.000431,0.000235
11559000,0.0324,0.013523,0.002678,0.000431,0.000353
11560000,0.0324,0.013523,0.002678,0.000431,0.000353
11561000,0.0324,0.013523,0.002678,0.000431,0.000235
11562000,0.0324,0.013523,0.002678,0.000431,0.000353
11563000,0.0324,0.013523,0.002678,0.000431,0.000470
11564000,0.0324,0.013523,0.002678,0.000431,0.000353
11565000,0.0324,0.013523,0.002678,0.000431,0.000118
11566000,0.0324,0.013523,0.002678,0.000431,0.000470
11567000,0.0324,0.013523,0.002678,0.000431,0.000353
11568000,0.0324,0.013523,0.002678,0.000431,0.000235
11569000,0.0324,0.013523,0.002678,0.000431,0.000353
11570000,0.0324,0.013523,0.002678,0.000431,0.000470
11571000,0.0324,0.013523,0.002678,0.000431,0.000353
11572000,0.0324,0.013523,0.002678,0.000431,0.000118
11573000,0.0324,0.013523,0.002678,0.000431,0.000470
11574000,0.0324,0.013523,0.002678,0.000431,0.000353
11575000,0.0324,0.013523,0.002678,0.000431,0.000235
11576000,0.0324,0.013523,0.002678,0.000431,0.000353
11577000,0.0324,0.013523,0.002678,0.000431,0.000470
11578000,0.0324,0.013523,0.002678,0.000431,0.000353
11579000,0.0324,0.013523,0.002678,0.000431,0.000118
11580000,0.0324,0.013523,0.002678,0.000431,0.000470
11581000,0.0324,0.013523,0.002678,0.000431,0.000353
11582000,0.0324,0.013523,0.002678,0.000431,0.000235
11583000,0.0324,0.013523,0.002678,0.000431,0.000353
11584000,0.0324,0.013523,0.002678,0.000431,0.000470
11585000,0.0324,0.013523,0.002678,0.000431,0.000235
11586000,0.0324,0.013523,0.002678,0.000431,0.000235
11587000,0.0324,0.013523,0.002678,0.000431,0.000470
11588000,0.0324,0.013523,0.002678,0.000431,0.000353
11589000,0.0324,0.013523,0.002678,0.000431,0.000235
11590000,0.0324,0.013523,0.002678,0.000431,0.000353
11591000,0.0324,0.013523,0.002678,0.000431,0.000470
11592000,0.0324,0.013523,0.002678,0.000431,0.000235
11593000,0.0324,0.013523,0.002678,0.000431,0.000235
11594000,0.0324,0.013523,0.002678,0.000431,0.000470
11595000,0.0324,0.013523,0.002678,0.000431,0.000353
11596000,0.0324,0.013523,0.002678,0.000431,0.000235
11597000,0.0324,0.013523,0.002678,0.000431,0.000353
11598000,0.0324,0.013523,0.002678,0.000431,0.000470
11599000,0.0324,0.013523,0.002678,0.000431,0.000235
11600000,0.0324,0.013523,0.002678,0.000431,0.000235
11601000,0.0324,0.013523,0.002678,0.000431,0.000470
11602000,0.0324,0.013523,0.002678,0.000431,0.000353
11603000,0.0324,0.013523,0.002678,0.000431,0.000235
11604000,0.0324,0.013523,0.002678,0.000431,0.000353
11605000,0.0324,0.013523,0.002678,0.000431,0.000470
11606000,0.0324,0.013523,0.002678,0.000431,0.000235
11607000,0.0324,0.013523,0.002678,0.000431,0.000235
11608000,0.0324,0.013523,0.002678,0.000431,0.000470
11609000,0.0324,0.013523,0.002678,0.000431,0.000353
11610000,0.0324,0.013523,0.002678,0.000431,0.000235
11611000,0.0324,0.013523,0.002678,0.000431,0.000353
11612000,0.0324,0.013523,0.002678,0.000431,0.000470
11613000,0.0324,0.013523,0.002678,0.000431,0.000235
11614000,0.0324,0.013523,0.002678,0.000431,0.000235
11615000,0.0324,0.013523,0.002678,0.000431,0.000470
11616000,0.0324,0.013523,0.002678,0.000431,0.000353
11617000,0.0324,0.013523,0.002678,0.000431,0.000235
11618000,0.0324,0.013523,0.002678,0.000431,0.000353
11619000,0.0324,0.013523,0.002678,0.000431,0.000470
11620000,0.0324,0.013523,0.002678,0.000431,0.000235
11621000,0.0324,0.013523,0.002678,0.000431,0.000235
11622000,0.0324,0.013523,0.002678,0.000431,0.000470
11623000,0.0324,0.013523,0.002678,0.000431,0.000353
11624000,0.0324,0.013523,0.002678,0.000431,0.000235
11625000,0.0324,0.013523,0.002678,0.000431,0.000353
11626000,0.0324,0.013523,0.002678,0.000431,0.000470
11627000,0.0324,0.013523,0.002678,0.000431,0.000118
11628000,0.0324,0.013523,0.002678,0.000431,0.000353
11629000,0.0324,0.013523,0.002678,0.000431,0.000470
11630000,0.0324,0.013523,0.002678,0.000431,0.000353
11631000,0.0324,0.013523,0.002678,0.000431,0.000235
11632000,0.0324,0.013523,0.002678,0.000431,0.000353
11633000,0.0324,0.013523,0.002678,0.000431,0.000470
11634000,0.0324,0.013523,0.002678,0.000431,0.000118
11635000,0.0324,0.013523,0.002678,0.000431,0.000353
11636000,0.0324,0.013523,0.002678,0.000431,0.000470
11637000,0.0324,0.013523,0.002678,0.000431,0.000353
11638000,0.0324,0.013523,0.002678,0.000431,0.000235
11639000,0.0324,0.013523,0.002678,0.000431,0.000353
11640000,0.0324,0.013523,0.002678,0.000431,0.000470
11641000,0.0324,0.013523,0.002678,0.000431,0.000118
11642000,0.0324,0.013523,0.002678,0.000431,0.000353
11643000,0.0324,0.013523,0.002678,0.000431,0.000470
11644000,0.0324,0.013523,0.002678,0.000431,0.000353
11645000,0.0324,0.013523,0.002678,0.000431,0.000235
11646000,0.0324,0.013523,0.002678,0.000431,0.000353
11647000,0.0324,0.013523,0.002678,0.000431,0.000353
11648000,0.0324,0.013523,0.002678,0.000431,0.000235
11649000,0.0324,0.013523,0.002678,0.000431,0.000353
11650000,0.0324,0.013523,0.002678,0.000431,0.000470
11651000,0.0324,0.013523,0.002678,0.000431,0.000353
11652000,0.0324,0.013523,0.002678,0.000431,0.000235
11653000,0.0324,0.013523,0.002678,0.000431,0.000353
11654000,0.0324,0.013523,0.002678,0.000431,0.000353
11655000,0.0324,0.013523,0.002678,0.000431,0.000235
11656000,0.0324,0.013523,0.002678,0.000431,0.000353
11657000,0.0324,0.013523,0.002678,0.000431,0.000470
11658000,0.0324,0.013523,0.002678,0.000431,0.000353
11659000,0.0324,0.013523,0.002678,0.000431,0.000235
11660000,0.0324,0.013523,0.002678,0.000431,0.000353
11661000,0.0324,0.013523,0.002678,0.000431,0.000353
11662000,0.0324,0.013523,0.002678,0.000431,0.000235
11663000,0.0324,0.013523,0.002678,0.000431,0.000353
11664000,0.0324,0.013523,0.002678,0.000431,0.000470
11665000,0.0324,0.013523,0.002678,0.000431,0.000353
11666000,0.0324,0.013523,0.002678,0.000431,0.000235
11667000,0.0324,0.013523,0.002678,0.000431,0.000353
11668000,0.0324,0.013523,0.002678,0.000431,0.000353
11669000,0.0324,0.013523,0.002678,0.000431,0.000235
11670000,0.0324,0.013523,0.002678,0.000431,0.000353
11671000,0.0324,0.013523,0.002678,0.000431,0.000470
11672000,0.0324,0.013523,0.002678,0.000431,0.000353
11673000,0.0324,0.013523,0.002678,0.000431,0.000235
11674000,0.0324,0.013523,0.002678,0.000431,0.000353
11675000,0.0324,0.013523,0.002678,0.000431,0.000353
11676000,0.0324,0.013523,0.002678,0.000431,0.000235
11677000,0.0324,0.013523,0.002678,0.000431,0.000353
11678000,0.0324,0.013523,0.002678,0.000431,0.000470
11679000,0.0324,0.013523,0.002678,0.000431,0.000353
11680000,0.0324,0.013523,0.002678,0.000431,0.000235
11681000,0.0324,0.013523,0.002678,0.000431,0.000353
11682000,0.0324,0.013523,0.002678,0.000431,0.000353
11683000,0.0324,0.013523,0.002678,0.000431,0.000235
11684000,0.0324,0.013523,0.002678,0.000431,0.000353
11685000,0.0324,0.013523,0.002678,0.000431,0.000470
11686000,0.0324,0.013523,0.002678,0.000431,0.000353
11687000,0.0324,0.013523,0.002678,0.000431,0.000235
11688000,0.0324,0.013523,0.002678,0.000431,0.000353
11689000,0.0324,0.013523,0.002678,0.000431,0.000353
11690000,0.0324,0.013523,0.002678,0.000431,0.000235
11691000,0.0324,0.013523,0.002678,0.000431,0.000353
11692000,0.0324,0.013523,0.002678,0.000431,0.000470
11693000,0.0324,0.013523,0.002678,0.000431,0.000353
11694000,0.0324,0.013523,0.002678,0.000431,0.000235
11695000,0.0324,0.013523,0.002678,0.000431,0.000353
11696000,0.0324,0.013523,0.002678,0.000431,0.000353
11697000,0.0324,0.013523,0.002678,0.000431,0.000235
11698000,0.0324,0.013523,0.002678,0.000431,0.000353
11699000,0.0324,0.013523,0.002678,0.000431,0.000470
11700000,0.0324,0.013523,0.002678,0.000431,0.000353
11701000,0.0324,0.013523,0.002678,0.000431,0.000118
11702000,0.0324,0.013523,0.002678,0.000431,0.000470
11703000,0.0324,0.013523,0.002678,0.000431,0.000353
11704000,0.0324,0.013523,0.002678,0.000431,0.000235
11705000,0.0324,0.013523,0.002678,0.000431,0.000353
11706000,0.0324,0.013523,0.002678,0.000431,0.000470
11707000,0.0324,0.013523,0.002678,0.000431,0.000353
11708000,0.0324,0.013523,0.002678,0.000431,0.000118
11709000,0.0324,0.013523,0.002678,0.000431,0.000470
11710000,0.0324,0.013523,0.002678,0.000431,0.000353
11711000,0.0324,0.013523,0.002678,0.000431,0.000235
11712000,0.0324,0.013523,0.002678,0.000431,0.000353
11713000,0.0324,0.013523,0.002678,0.000431,0.000470
11714000,0.0324,0.013523,0.002678,0.000431,0.000353
11715000,0.0324,0.013523,0.002678,0.000431,0.000118
11716000,0.0324,0.013523,0.002678,0.000431,0.000470
11717000,0.0324,0.013523,0.002678,0.000431,0.000353
11718000,0.0324,0.013523,0.002678,0.000431,0.000235
11719000,0.0324,0.013523,0.002678,0.000431,0.000353
11720000,0.0324,0.013523,0.002678,0.000431,0.000470
11721000,0.0324,0.013523,0.002678,0.000431,0.000353
11722000,0.0324,0.013523,0.002678,0.000431,0.000118
11723000,0.0324,0.013523,0.002678,0.000431,0.000470
11724000,0.0324,0.013523,0.002678,0.000431,0.000353
11725000,0.0324,0.013523,0.002678,0.000431,0.000235
11726000,0.0324,0.013523,0.002678,0.000431,0.000353
11727000,0.0324,0.013523,0.002678,0.000431,0.000470
11728000,0.0324,0.013523,0.002678,0.000431,0.000235
11729000,0.0324,0.013523,0.002678,0.000431,0.000235
11730000,0.0324,0.013523,0.002678,0.000431,0.000470
11731000,0.0324,0.013523,0.002678,0.000431,0.000353
11732000,0.0324,0.013523,0.002678,0.000431,0.000235
11733000,0.0324,0.013523,0.002678,0.000431,0.000353
11734000,0.0324,0.013523,0.002678,0.000431,0.000470
11735000,0.0324,0.013523,0.002678,0.000431,0.000235
11736000,0.0324,0.013523,0.002678,0.000431,0.000235
11737000,0.0324,0.013523,0.002678,0.000431,0.000470
11738000,0.0324,0.013523,0.002678,0.000431,0.000353
11739000,0.0324,0.013523,0.002678,0.000431,0.000235
11740000,0.0324,0.013523,0.002678,0.000431,0.000353
11741000,0.0324,0.013523,0.002678,0.000431,0.000470
11742000,0.0324,0.013523,0.002678,0.000431,0.000235
11743000,0.0324,0.013523,0.002678,0.000431,0.000235
11744000,0.0324,0.013523,0.002678,0.000431,0.000470
11745000,0.0324,0.013523,0.002678,0.000431,0.000353
11746000,0.0324,0.013523,0.002678,0.000431,0.000235
11747000,0.0324,0.013523,0.002678,0.000431,0.000353
11748000,0.0324,0.013523,0.002678,0.000431,0.000470
11749000,0.0324,0.013523,0.002678,0.000431,0.000235
11750000,0.0324,0.013523,0.002678,0.000431,0.000235
11751000,0.0324,0.013523,0.002678,0.000431,0.000470
11752000,0.0324,0.013523,0.002678,0.000431,0.000353
11753000,0.0324,0.013523,0.002678,0.000431,0.000235
11754000,0.0324,0.013523,0.002678,0.000431,0.000353
11755000,0.0324,0.013523,0.002678,0.000431,0.000470
11756000,0.0324,0.013523,0.002678,0.000431,0.000235
11757000,0.0324,0.013523,0.002678,0.000431,0.000235
11758000,0.0324,0.013523,0.002678,0.000431,0.000470
11759000,0.0324,0.013523,0.002678,0.000431,0.000353
11760000,0.0324,0.013523,0.002678,0.000431,0.000235
11761000,0.0324,0.013523,0.002678,0.000431,0.000353
11762000,0.0324,0.013523,0.002678,0.000431,0.000470
11763000,0.0324,0.013523,0.002678,0.000431,0.000235
11764000,0.0324,0.013523,0.002678,0.000431,0.000235
11765000,0.0324,0.013523,0.002678,0.000431,0.000470
11766000,0.0324,0.013523,0.002678,0.000431,0.000353
11767000,0.0324,0.013523,0.002678,0.000431,0.000235
11768000,0.0324,0.013523,0.002678,0.000431,0.000353
11769000,0.0324,0.013523,0.002678,0.000431,0.000470
11770000,0.0324,0.013523,0.002678,0.000431,0.000118
11771000,0.0324,0.013523,0.002678,0.000431,0.000353
11772000,0.0324,0.013523,0.002678,0.000431,0.000470
11773000,0.0324,0.013523,0.002678,0.000431,0.000353
11774000,0.0324,0.013523,0.002678,0.000431,0.000235
11775000,0.0324,0.013523,0.002678,0.000431,0.000353
11776000,0.0324,0.013523,0.002678,0.000431,0.000470
11777000,0.0324,0.013523,0.002678,0.000431,0.000118
11778000,0.0324,0.013523,0.002678,0.000431,0.000353
11779000,0.0324,0.013523,0.002678,0.000431,0.000470
11780000,0.0324,0.013523,0.002678,0.000431,0.000353
11781000,0.0324,0.013523,0.002678,0.000431,0.000235
11782000,0.0324,0.013523,0.002678,0.000431,0.000353
11783000,0.0324,0.013523,0.002678,0.000431,0.000470
11784000,0.0324,0.013523,0.002678,0.000431,0.000118
11785000,0.0324,0.013523,0.002678,0.000431,0.000353
11786000,0.0324,0.013523,0.002678,0.000431,0.000470
11787000,0.0324,0.013523,0.002678,0.000431,0.000353
11788000,0.0324,0.013523,0.002678,0.000431,0.000235
11789000,0.0324,0.013523,0.002678,0.000431,0.000353
11790000,0.0324,0.013523,0.002678,0.000431,0.000353
11791000,0.0324,0.013523,0.002678,0.000431,0.000235
11792000,0.0324,0.013523,0.002678,0.000431,0.000353
11793000,0.0324,0.013523,0.002678,0.000431,0.000470
11794000,0.0324,0.013523,0.002678,0.000431,0.000353
11795000,0.0324,0.013523,0.002678,0.000431,0.000235
11796000,0.0324,0.013523,0.002678,0.000431,0.000353
11797000,0.0324,0.013523,0.002678,0.000431,0.000353
11798000,0.0324,0.013523,0.002678,0.000431,0.000235
11799000,0.0324,0.013523,0.002678,0.000431,0.000353
11800000,0.0324,0.013523,0.002678,0.000431,0.000470
11801000,0.0324,0.013523,0.002678,0.000431,0.000353
11802000,0.0324,0.013523,0.002678,0.000431,0.000235
11803000,0.0324,0.013523,0.002678,0.000431,0.000353
11804000,0.0324,0.013523,0.002678,0.000431,0.000353
11805000,0.0324,0.013523,0.002678,0.000431,0.000235
11806000,0.0324,0.013523,0.002678,0.000431,0.000353
11807000,0.0324,0.013523,0.002678,0.000431,0.000470
11808000,0.0324,0.013523,0.002678,0.000431,0.000353
11809000,0.0324,0.013523,0.002678,0.000431,0.000235
11810000,0.0324,0.013523,0.002678,0.000431,0.000353
11811000,0.0324,0.013523,0.002678,0.000431,0.000353
11812000,0.0324,0.013523,0.002678,0.000431,0.000235
11813000,0.0324,0.013523,0.002678,0.000431,0.000353
11814000,0.0324,0.013523,0.002678,0.000431,0.000470
11815000,0.0324,0.013523,0.002678,0.000431,0.000353
11816000,0.0324,0.013523,0.002678,0.000431,0.000235
11817000,0.0324,0.013523,0.002678,0.000431,0.000353
11818000,0.0324,0.013523,0.002678,0.000431,0.000353
11819000,0.0324,0.013523,0.002678,0.000431,0.000235
11820000,0.0324,0.013523,0.002678,0.000431,0.000353
11821000,0.0324,0.013523,0.002678,0.000431,0.000470
11822000,0.0324,0.013523,0.002678,0.000431,0.000353
11823000,0.0324,0.013523,0.002678,0.000431,0.000235
11824000,0.0324,0.013523,0.002678,0.000431,0.000353
11825000,0.0324,0.013523,0.002678,0.000431,0.000353
11826000,0.0324,0.013523,0.002678,0.000431,0.000235
11827000,0.0324,0.013523,0.002678,0.000431,0.000353
11828000,0.0324,0.013523,0.002678,0.000431,0.000470
11829000,0.0324,0.013523,0.002678,0.000431,0.000353
11830000,0.0324,0.013523,0.002678,0.000431,0.000235
11831000,0.0324,0.013523,0.002678,0.000431,0.000353
11832000,0.0324,0.013523,0.002678,0.000431,0.000353
11833000,0.0324,0.013523,0.002678,0.000431,0.000235
11834000,0.0324,0.013523,0.002678,0.000431,0.000353
11835000,0.0324,0.013523,0.002678,0.000431,0.000470
11836000,0.0324,0.013523,0.002678,0.000431,0.000353
11837000,0.0324,0.013523,0.002678,0.000431,0.000235
11838000,0.0324,0.013523,0.002678,0.000431,0.000353
11839000,0.0324,0.013523,0.002678,0.000431,0.000353
11840000,0.0324,0.013523,0.002678,0.000431,0.000235
11841000,0.0324,0.013523,0.002678,0.000431,0.000353
11842000,0.0324,0.013523,0.002678,0.000431,0.000470
11843000,0.0324,0.013523,0.002678,0.000431,0.000353
11844000,0.0324,0.013523,0.002678,0.000431,0.000118
11845000,0.0324,0.013523,0.002678,0.000431,0.000470
11846000,0.0324,0.013523,0.002678,0.000431,0.000353
11847000,0.0324,0.013523,0.002678,0.000431,0.000235
11848000,0.0324,0.013523,0.002678,0.000431,0.000353
11849000,0.0324,0.013523,0.002678,0.000431,0.000470
11850000,0.0324,0.013523,0.002678,0.000431,0.000353
11851000,0.0324,0.013523,0.002678,0.000431,0.000118
11852000,0.0324,0.013523,0.002678,0.000431,0.000470
11853000,0.0324,0.013523,0.002678,0.000431,0.000353
11854000,0.0324,0.013523,0.002678,0.000431,0.000235
11855000,0.0324,0.013523,0.002678,0.000431,0.000353
11856000,0.0324,0.013523,0.002678,0.000431,0.000470
11857000,0.0324,0.013523,0.002678,0.000431,0.000353
11858000,0.0324,0.013523,0.002678,0.000431,0.000118
11859000,0.0324,0.013523,0.002678,0.000431,0.000470
11860000,0.0324,0.013523,0.002678,0.000431,0.000353
11861000,0.0324,0.013523,0.002678,0.000431,0.000235
11862000,0.0324,0.013523,0.002678,0.000431,0.000353
11863000,0.0324,0.013523,0.002678,0.000431,0.000470
11864000,0.0324,0.013523,0.002678,0.000431,0.000235
11865000,0.0324,0.013523,0.002678,0.000431,0.000235
11866000,0.0324,0.013523,0.002678,0.000431,0.000470
11867000,0.0324,0.013523,0.002678,0.000431,0.000353
11868000,0.0324,0.013523,0.002678,0.000431,0.000235
11869000,0.0324,0.013523,0.002678,0.000431,0.000353
11870000,0.0324,0.013523,0.002678,0.000431,0.000470
11871000,0.0324,0.013523,0.002678,0.000431,0.000235
11872000,0.0324,0.013523,0.002678,0.000431,0.000235
11873000,0.0324,0.013523,0.002678,0.000431,0.000470
11874000,0.0324,0.013523,0.002678,0.000431,0.000353
11875000,0.0324,0.013523,0.002678,0.000431,0.000235
11876000,0.0324,0.013523,0.002678,0.000431,0.000353
11877000,0.0324,0.013523,0.002678,0.000431,0.000470
11878000,0.0324,0.013523,0.002678,0.000431,0.000235
11879000,0.0324,0.013523,0.002678,0.000431,0.000235
11880000,0.0324,0.013523,0.002678,0.000431,0.000470
11881000,0.0324,0.013523,0.002678,0.000431,0.000353
11882000,0.0324,0.013523,0.002678,0.000431,0.000235
11883000,0.0324,0.013523,0.002678,0.000431,0.000353
11884000,0.0324,0.013523,0.002678,0.000431,0.000470
11885000,0.0324,0.013523,0.002678,0.000431,0.000235
11886000,0.0324,0.013523,0.002678,0.000431,0.000235
11887000,0.0324,0.013523,0.002678,0.000431,0.000470
11888000,0.0324,0.013523,0.002678,0.000431,0.000353
11889000,0.0324,0.013523,0.002678,0.000431,0.000235
11890000,0.0324,0.013523,0.002678,0.000431,0.000353
11891000,0.0324,0.013523,0.002678,0.000431,0.000470
11892000,0.0324,0.013523,0.002678,0.000431,0.000235
11893000,0.0324,0.013523,0.002678,0.000431,0.000235
11894000,0.0324,0.013523,0.002678,0.000431,0.000470
11895000,0.0324,0.013523,0.002678,0.000431,0.000353
11896000,0.0324,0.013523,0.002678,0.000431,0.000235
11897000,0.0324,0.013523,0.002678,0.000431,0.000353
11898000,0.0324,0.013523,0.002678,0.000431,0.000470
11899000,0.0324,0.013523,0.002678,0.000431,0.000235
11900000,0.0324,0.013523,0.002678,0.000431,0.000235
11901000,0.0324,0.013523,0.002678,0.000431,0.000470
11902000,0.0324,0.013523,0.002678,0.000431,0.000353
11903000,0.0324,0.013523,0.002678,0.000431,0.000235
11904000,0.0324,0.013523,0.002678,0.000431,0.000353
11905000,0.0324,0.013523,0.002678,0.000431,0.000470
11906000,0.0324,0.013523,0.002678,0.000431,0.000118
11907000,0.0324,0.013523,0.002678,0.000431,0.000353
11908000,0.0324,0.013523,0.002678,0.000431,0.000470
11909000,0.0324,0.013523,0.002678,0.000431,0.000353
11910000,0.0324,0.013523,0.002678,0.000431,0.000235
11911000,0.0324,0.013523,0.002678,0.000431,0.000353
11912000,0.0324,0.013523,0.002678,0.000431,0.000470
11913000,0.0324,0.013523,0.002678,0.000431,0.000118
11914000,0.0324,0.013523,0.002678,0.000431,0.000353
11915000,0.0324,0.013523,0.002678,0.000431,0.000470
11916000,0.0324,0.013523,0.002678,0.000431,0.000353
11917000,0.0324,0.013523,0.002678,0.000431,0.000235
11918000,0.0324,0.013523,0.002678,0.000431,0.000353
11919000,0.0324,0.013523,0.002678,0.000431,0.000470
11920000,0.0324,0.013523,0.002678,0.000431,0.000118
11921000,0.0324,0.013523,0.002678,0.000431,0.000353
11922000,0.0324,0.013523,0.002678,0.000431,0.000470
11923000,0.0324,0.013523,0.002678,0.000431,0.000353
11924000,0.0324,0.013523,0.002678,0.000431,0.000235
11925000,0.0324,0.013523,0.002678,0.000431,0.000353
11926000,0.0324,0.013523,0.002678,0.000431,0.000470
11927000,0.0324,0.013523,0.002678,0.000431,0.000118
11928000,0.0324,0.013523,0.002678,0.000431,0.000353
11929000,0.0324,0.013523,0.002678,0.000431,0.000470
11930000,0.0324,0.013523,0.002678,0.000431,0.000353
11931000,0.0324,0.013523,0.002678,0.000431,0.000235
11932000,0.0324,0.013523,0.002678,0.000431,0.000353
11933000,0.0324,0.013523,0.002678,0.000431,0.000353
11934000,0.0324,0.013523,0.002678,0.000431,0.000235
11935000,0.0324,0.013523,0.002678,0.000431,0.000353
11936000,0.0324,0.013523,0.002678,0.000431,0.000470
11937000,0.0324,0.013523,0.002678,0.000431,0.000353
11938000,0.0324,0.013523,0.002678,0.000431,0.000235
11939000,0.0324,0.013523,0.002678,0.000431,0.000353
11940000,0.0324,0.013523,0.002678,0.000431,0.000353
11941000,0.0324,0.013523,0.002678,0.000431,0.000235
11942000,0.0324,0.013523,0.002678,0.000431,0.000353
11943000,0.0324,0.013523,0.002678,0.000431,0.000470
11944000,0.0324,0.013523,0.002678,0.000431,0.000353
11945000,0.0324,0.013523,0.002678,0.000431,0.000235
11946000,0.0324,0.013523,0.002678,0.000431,0.000353
11947000,0.0324,0.013523,0.002678,0.000431,0.000353
11948000,0.0324,0.013523,0.002678,0.000431,0.000235
11949000,0.0324,0.013523,0.002678,0.000431,0.000353
11950000,0.0324,0.013523,0.002678,0.000431,0.000470
11951000,0.0324,0.013523,0.002678,0.000431,0.000353
11952000,0.0324,0.013523,0.002678,0.000431,0.000235
11953000,0.0324,0.013523,0.002678,0.000431,0.000353
11954000,0.0324,0.013523,0.002678,0.000431,0.000353
11955000,0.0324,0.013523,0.002678,0.000431,0.000235
11956000,0.0324,0.013523,0.002678,0.000431,0.000353
11957000,0.0324,0.013523,0.002678,0.000431,0.000470
11958000,0.0324,0.013523,0.002678,0.000431,0.000353
11959000,0.0324,0.013523,0.002678,0.000431,0.000235
11960000,0.0324,0.013523,0.002678,0.000431,0.000353
11961000,0.0324,0.013523,0.002678,0.000431,0.000353
11962000,0.0324,0.013523,0.002678,0.000431,0.000235
11963000,0.0324,0.013523,0.002678,0.000431,0.000353
11964000,0.0324,0.013523,0.002678,0.000431,0.000470
11965000,0.0324,0.013523,0.002678,0.000431,0.000353
11966000,0.0324,0.013523,0.002678,0.000431,0.000235
11967000,0.0324,0.013523,0.002678,0.000431,0.000353
11968000,0.0324,0.013523,0.002678,0.000431,0.000353
11969000,0.0324,0.013523,0.002678,0.000431,0.000235
11970000,0.0324,0.013523,0.002678,0.000431,0.000353
11971000,0.0324,0.013523,0.002678,0.000431,0.000470
11972000,0.0324,0.013523,0.002678,0.000431,0.000353
11973000,0.0324,0.013523,0.002678,0.000431,0.000235
11974000,0.0324,0.013523,0.002678,0.000431,0.000353
11975000,0.0324,0.013523,0.002678,0.000431,0.000353
11976000,0.0324,0.013523,0.002678,0.000431,0.000235
11977000,0.0324,0.013523,0.002678,0.000431,0.000353
11978000,0.0324,0.013523,0.002678,0.000431,0.000470
11979000,0.0324,0.013523,0.002678,0.000431,0.000353
11980000,0.0324,0.013523,0.002678,0.000431,0.000118
11981000,0.0324,0.013523,0.002678,0.000431,0.000470
11982000,0.0324,0.013523,0.002678,0.000431,0.000353
11983000,0.0324,0.013523,0.002678,0.000431,0.000235
11984000,0.0324,0.013523,0.002678,0.000431,0.000353
11985000,0.0324,0.013523,0.002678,0.000431,0.000470
11986000,0.0324,0.013523,0.002678,0.000431,0.000353
11987000,0.0324,0.013523,0.002678,0.000431,0.000118
11988000,0.0324,0.013523,0.002678,0.000431,0.000470
11989000,0.0324,0.013523,0.002678,0.000431,0.000353
11990000,0.0324,0.013523,0.002678,0.000431,0.000235
11991000,0.0324,0.013523,0.002678,0.000431,0.000353
11992000,0.0324,0.013523,0.002678,0.000431,0.000470
11993000,0.0324,0.013523,0.002678,0.000431,0.000353
11994000,0.0324,0.013523,0.002678,0.000431,0.000118
11995000,0.0324,0.013523,0.002678,0.000431,0.000470
11996000,0.0324,0.013523,0.002678,0.000431,0.000353
11997000,0.0324,0.013523,0.002678,0.000431,0.000235
11998000,0.0324,0.013523,0.002678,0.000431,0.000353
11999000,0.0324,0.013523,0.002678,0.000431,0.000470
