Cycle,Area(mm^2),PeakDynamic(W),SubthresholdLeakage(W),GateLeakage(W),RunTimeDynamic(W)
1000,0.0324,0.013523,0.002678,0.000431,0.000000
2000,0.0324,0.013523,0.002678,0.000431,0.000000
3000,0.0324,0.013523,0.002678,0.000431,0.000000
4000,0.0324,0.013523,0.002678,0.000431,0.000000
5000,0.0324,0.013523,0.002678,0.000431,0.000000
6000,0.0324,0.013523,0.002678,0.000431,1.746704
7000,0.0324,0.013523,0.002678,0.000431,1.298216
8000,0.0324,0.013523,0.002678,0.000431,1.901253
9000,0.0324,0.013523,0.002678,0.000431,1.020497
10000,0.0324,0.013523,0.002678,0.000431,0.918248
11000,0.0324,0.013523,0.002678,0.000431,1.414922
12000,0.0324,0.013523,0.002678,0.000431,1.266719
13000,0.0324,0.013523,0.002678,0.000431,1.295983
14000,0.0324,0.013523,0.002678,0.000431,1.217709
15000,0.0324,0.013523,0.002678,0.000431,1.413276
16000,0.0324,0.013523,0.002678,0.000431,1.347226
17000,0.0324,0.013523,0.002678,0.000431,1.256259
18000,0.0324,0.013523,0.002678,0.000431,1.378841
19000,0.0324,0.013523,0.002678,0.000431,1.411396
20000,0.0324,0.013523,0.002678,0.000431,1.418565
21000,0.0324,0.013523,0.002678,0.000431,1.548551
22000,0.0324,0.013523,0.002678,0.000431,1.695462
23000,0.0324,0.013523,0.002678,0.000431,1.527984
24000,0.0324,0.013523,0.002678,0.000431,1.445009
25000,0.0324,0.013523,0.002678,0.000431,1.525751
26000,0.0324,0.013523,0.002678,0.000431,1.678302
27000,0.0324,0.013523,0.002678,0.000431,1.487202
28000,0.0324,0.013523,0.002678,0.000431,1.534918
29000,0.0324,0.013523,0.002678,0.000431,1.592154
30000,0.0324,0.013523,0.002678,0.000431,1.551019
31000,0.0324,0.013523,0.002678,0.000431,1.497192
32000,0.0324,0.013523,0.002678,0.000431,1.549962
33000,0.0324,0.013523,0.002678,0.000431,1.580284
34000,0.0324,0.013523,0.002678,0.000431,1.572057
35000,0.0324,0.013523,0.002678,0.000431,1.741768
36000,0.0324,0.013523,0.002678,0.000431,1.578403
37000,0.0324,0.013523,0.002678,0.000431,1.704981
38000,0.0324,0.013523,0.002678,0.000431,1.708860
39000,0.0324,0.013523,0.002678,0.000431,1.765038
40000,0.0324,0.013523,0.002678,0.000431,1.801119
41000,0.0324,0.013523,0.002678,0.000431,1.625415
42000,0.0324,0.013523,0.002678,0.000431,1.709330
43000,0.0324,0.013523,0.002678,0.000431,1.618951
44000,0.0324,0.013523,0.002678,0.000431,1.649508
45000,0.0324,0.013523,0.002678,0.000431,1.578756
46000,0.0324,0.013523,0.002678,0.000431,1.795243
47000,0.0324,0.013523,0.002678,0.000431,1.610254
48000,0.0324,0.013523,0.002678,0.000431,1.502128
49000,0.0324,0.013523,0.002678,0.000431,1.759985
50000,0.0324,0.013523,0.002678,0.000431,1.696519
51000,0.0324,0.013523,0.002678,0.000431,1.471805
52000,0.0324,0.013523,0.002678,0.000431,1.798181
53000,0.0324,0.013523,0.002678,0.000431,1.974238
54000,0.0324,0.013523,0.002678,0.000431,1.680653
55000,0.0324,0.013523,0.002678,0.000431,1.644454
56000,0.0324,0.013523,0.002678,0.000431,1.821922
57000,0.0324,0.013523,0.002678,0.000431,1.574055
58000,0.0324,0.013523,0.002678,0.000431,1.551372
59000,0.0324,0.013523,0.002678,0.000431,1.965541
60000,0.0324,0.013523,0.002678,0.000431,1.465576
61000,0.0324,0.013523,0.002678,0.000431,1.477329
62000,0.0324,0.013523,0.002678,0.000431,1.813342
63000,0.0324,0.013523,0.002678,0.000431,1.744353
64000,0.0324,0.013523,0.002678,0.000431,1.790424
65000,0.0324,0.013523,0.002678,0.000431,1.645630
66000,0.0324,0.013523,0.002678,0.000431,2.072139
67000,0.0324,0.013523,0.002678,0.000431,1.387655
68000,0.0324,0.013523,0.002678,0.000431,1.110289
69000,0.0324,0.013523,0.002678,0.000431,0.099781
70000,0.0324,0.013523,0.002678,0.000431,0.006817
71000,0.0324,0.013523,0.002678,0.000431,0.005171
72000,0.0324,0.013523,0.002678,0.000431,0.005171
73000,0.0324,0.013523,0.002678,0.000431,0.002233
74000,0.0324,0.013523,0.002678,0.000431,0.002821
75000,0.0324,0.013523,0.002678,0.000431,0.003291
76000,0.0324,0.013523,0.002678,0.000431,0.001763
77000,0.0324,0.013523,0.002678,0.000431,0.001175
78000,0.0324,0.013523,0.002678,0.000431,0.001763
79000,0.0324,0.013523,0.002678,0.000431,0.001175
80000,0.0324,0.013523,0.002678,0.000431,0.001645
81000,0.0324,0.013523,0.002678,0.000431,0.001880
82000,0.0324,0.013523,0.002678,0.000431,0.001763
83000,0.0324,0.013523,0.002678,0.000431,0.001293
84000,0.0324,0.013523,0.002678,0.000431,0.001528
85000,0.0324,0.013523,0.002678,0.000431,0.001528
86000,0.0324,0.013523,0.002678,0.000431,0.002116
87000,0.0324,0.013523,0.002678,0.000431,0.000353
88000,0.0324,0.013523,0.002678,0.000431,0.000470
89000,0.0324,0.013523,0.002678,0.000431,0.000353
90000,0.0324,0.013523,0.002678,0.000431,0.000118
91000,0.0324,0.013523,0.002678,0.000431,0.000470
92000,0.0324,0.013523,0.002678,0.000431,0.000353
93000,0.0324,0.013523,0.002678,0.000431,0.000235
94000,0.0324,0.013523,0.002678,0.000431,0.000353
95000,0.0324,0.013523,0.002678,0.000431,0.000470
96000,0.0324,0.013523,0.002678,0.000431,0.000235
97000,0.0324,0.013523,0.002678,0.000431,0.000235
98000,0.0324,0.013523,0.002678,0.000431,0.000470
99000,0.0324,0.013523,0.002678,0.000431,0.000353
100000,0.0324,0.013523,0.002678,0.000431,0.000235
101000,0.0324,0.013523,0.002678,0.000431,0.000353
102000,0.0324,0.013523,0.002678,0.000431,0.000353
103000,0.0324,0.013523,0.002678,0.000431,0.000235
104000,0.0324,0.013523,0.002678,0.000431,0.000353
105000,0.0324,0.013523,0.002678,0.000431,0.000470
106000,0.0324,0.013523,0.002678,0.000431,0.000353
107000,0.0324,0.013523,0.002678,0.000431,0.000235
108000,0.0324,0.013523,0.002678,0.000431,0.000353
109000,0.0324,0.013523,0.002678,0.000431,0.000353
110000,0.0324,0.013523,0.002678,0.000431,0.000235
111000,0.0324,0.013523,0.002678,0.000431,0.000353
112000,0.0324,0.013523,0.002678,0.000431,0.000470
113000,0.0324,0.013523,0.002678,0.000431,0.000353
114000,0.0324,0.013523,0.002678,0.000431,0.000118
115000,0.0324,0.013523,0.002678,0.000431,0.000470
116000,0.0324,0.013523,0.002678,0.000431,0.000353
117000,0.0324,0.013523,0.002678,0.000431,0.000235
118000,0.0324,0.013523,0.002678,0.000431,0.000353
119000,0.0324,0.013523,0.002678,0.000431,0.000470
120000,0.0324,0.013523,0.002678,0.000431,0.000235
121000,0.0324,0.013523,0.002678,0.000431,0.000235
122000,0.0324,0.013523,0.002678,0.000431,0.000470
123000,0.0324,0.013523,0.002678,0.000431,0.000353
124000,0.0324,0.013523,0.002678,0.000431,0.000235
125000,0.0324,0.013523,0.002678,0.000431,0.000353
126000,0.0324,0.013523,0.002678,0.000431,0.000470
127000,0.0324,0.013523,0.002678,0.000431,0.000118
128000,0.0324,0.013523,0.002678,0.000431,0.000353
129000,0.0324,0.013523,0.002678,0.000431,0.000470
130000,0.0324,0.013523,0.002678,0.000431,0.000353
131000,0.0324,0.013523,0.002678,0.000431,0.000235
132000,0.0324,0.013523,0.002678,0.000431,0.000353
133000,0.0324,0.013523,0.002678,0.000431,0.000353
134000,0.0324,0.013523,0.002678,0.000431,0.000235
135000,0.0324,0.013523,0.002678,0.000431,0.000353
136000,0.0324,0.013523,0.002678,0.000431,0.000470
137000,0.0324,0.013523,0.002678,0.000431,0.000353
138000,0.0324,0.013523,0.002678,0.000431,0.000118
139000,0.0324,0.013523,0.002678,0.000431,0.000470
140000,0.0324,0.013523,0.002678,0.000431,0.000353
141000,0.0324,0.013523,0.002678,0.000431,0.000235
142000,0.0324,0.013523,0.002678,0.000431,0.000353
143000,0.0324,0.013523,0.002678,0.000431,0.000470
144000,0.0324,0.013523,0.002678,0.000431,0.000235
145000,0.0324,0.013523,0.002678,0.000431,0.000235
146000,0.0324,0.013523,0.002678,0.000431,0.000470
147000,0.0324,0.013523,0.002678,0.000431,0.000353
148000,0.0324,0.013523,0.002678,0.000431,0.000235
149000,0.0324,0.013523,0.002678,0.000431,0.000353
150000,0.0324,0.013523,0.002678,0.000431,0.000470
151000,0.0324,0.013523,0.002678,0.000431,0.000118
152000,0.0324,0.013523,0.002678,0.000431,0.000353
153000,0.0324,0.013523,0.002678,0.000431,0.000470
154000,0.0324,0.013523,0.002678,0.000431,0.000353
155000,0.0324,0.013523,0.002678,0.000431,0.000235
156000,0.0324,0.013523,0.002678,0.000431,0.000353
157000,0.0324,0.013523,0.002678,0.000431,0.000353
158000,0.0324,0.013523,0.002678,0.000431,0.000235
159000,0.0324,0.013523,0.002678,0.000431,0.000353
160000,0.0324,0.013523,0.002678,0.000431,0.000470
161000,0.0324,0.013523,0.002678,0.000431,0.000353
162000,0.0324,0.013523,0.002678,0.000431,0.000235
163000,0.0324,0.013523,0.002678,0.000431,0.000353
164000,0.0324,0.013523,0.002678,0.000431,0.000353
165000,0.0324,0.013523,0.002678,0.000431,0.000235
166000,0.0324,0.013523,0.002678,0.000431,0.000353
167000,0.0324,0.013523,0.002678,0.000431,0.000470
168000,0.0324,0.013523,0.002678,0.000431,0.000235
169000,0.0324,0.013523,0.002678,0.000431,0.000235
170000,0.0324,0.013523,0.002678,0.000431,0.000470
171000,0.0324,0.013523,0.002678,0.000431,0.000353
172000,0.0324,0.013523,0.002678,0.000431,0.000235
173000,0.0324,0.013523,0.002678,0.000431,0.000353
174000,0.0324,0.013523,0.002678,0.000431,0.000353
175000,0.0324,0.013523,0.002678,0.000431,0.000235
176000,0.0324,0.013523,0.002678,0.000431,0.000353
177000,0.0324,0.013523,0.002678,0.000431,0.000470
178000,0.0324,0.013523,0.002678,0.000431,0.000353
179000,0.0324,0.013523,0.002678,0.000431,0.000235
180000,0.0324,0.013523,0.002678,0.000431,0.000353
181000,0.0324,0.013523,0.002678,0.000431,0.000353
182000,0.0324,0.013523,0.002678,0.000431,0.000235
183000,0.0324,0.013523,0.002678,0.000431,0.000353
184000,0.0324,0.013523,0.002678,0.000431,0.000470
185000,0.0324,0.013523,0.002678,0.000431,0.000353
186000,0.0324,0.013523,0.002678,0.000431,0.000118
187000,0.0324,0.013523,0.002678,0.000431,0.000470
188000,0.0324,0.013523,0.002678,0.000431,0.000353
189000,0.0324,0.013523,0.002678,0.000431,0.000235
190000,0.0324,0.013523,0.002678,0.000431,0.000353
191000,0.0324,0.013523,0.002678,0.000431,0.000470
192000,0.0324,0.013523,0.002678,0.000431,0.000235
193000,0.0324,0.013523,0.002678,0.000431,0.000235
194000,0.0324,0.013523,0.002678,0.000431,0.000470
195000,0.0324,0.013523,0.002678,0.000431,0.000353
196000,0.0324,0.013523,0.002678,0.000431,0.000235
197000,0.0324,0.013523,0.002678,0.000431,0.000353
198000,0.0324,0.013523,0.002678,0.000431,0.000470
199000,0.0324,0.013523,0.002678,0.000431,0.000118
200000,0.0324,0.013523,0.002678,0.000431,0.000353
201000,0.0324,0.013523,0.002678,0.000431,0.000470
202000,0.0324,0.013523,0.002678,0.000431,0.000353
203000,0.0324,0.013523,0.002678,0.000431,0.000235
204000,0.0324,0.013523,0.002678,0.000431,0.000353
205000,0.0324,0.013523,0.002678,0.000431,0.000353
206000,0.0324,0.013523,0.002678,0.000431,0.000235
207000,0.0324,0.013523,0.002678,0.000431,0.000353
208000,0.0324,0.013523,0.002678,0.000431,0.000470
209000,0.0324,0.013523,0.002678,0.000431,0.000353
210000,0.0324,0.013523,0.002678,0.000431,0.000235
211000,0.0324,0.013523,0.002678,0.000431,0.000353
212000,0.0324,0.013523,0.002678,0.000431,0.000353
213000,0.0324,0.013523,0.002678,0.000431,0.000235
214000,0.0324,0.013523,0.002678,0.000431,0.000353
215000,0.0324,0.013523,0.002678,0.000431,0.000470
216000,0.0324,0.013523,0.002678,0.000431,0.000353
217000,0.0324,0.013523,0.002678,0.000431,0.000235
218000,0.0324,0.013523,0.002678,0.000431,0.000353
219000,0.0324,0.013523,0.002678,0.000431,0.000353
220000,0.0324,0.013523,0.002678,0.000431,0.000235
221000,0.0324,0.013523,0.002678,0.000431,0.000353
222000,0.0324,0.013523,0.002678,0.000431,0.000470
223000,0.0324,0.013523,0.002678,0.000431,0.000353
224000,0.0324,0.013523,0.002678,0.000431,0.000235
225000,0.0324,0.013523,0.002678,0.000431,0.000353
226000,0.0324,0.013523,0.002678,0.000431,0.000353
227000,0.0324,0.013523,0.002678,0.000431,0.000235
228000,0.0324,0.013523,0.002678,0.000431,0.000353
229000,0.0324,0.013523,0.002678,0.000431,0.000470
230000,0.0324,0.013523,0.002678,0.000431,0.000353
231000,0.0324,0.013523,0.002678,0.000431,0.000235
232000,0.0324,0.013523,0.002678,0.000431,0.000353
233000,0.0324,0.013523,0.002678,0.000431,0.000353
234000,0.0324,0.013523,0.002678,0.000431,0.000235
235000,0.0324,0.013523,0.002678,0.000431,0.000353
236000,0.0324,0.013523,0.002678,0.000431,0.000470
237000,0.0324,0.013523,0.002678,0.000431,0.000353
238000,0.0324,0.013523,0.002678,0.000431,0.000235
239000,0.0324,0.013523,0.002678,0.000431,0.000353
240000,0.0324,0.013523,0.002678,0.000431,0.000353
241000,0.0324,0.013523,0.002678,0.000431,0.000235
242000,0.0324,0.013523,0.002678,0.000431,0.000353
243000,0.0324,0.013523,0.002678,0.000431,0.000470
244000,0.0324,0.013523,0.002678,0.000431,0.000353
245000,0.0324,0.013523,0.002678,0.000431,0.000235
246000,0.0324,0.013523,0.002678,0.000431,0.000353
247000,0.0324,0.013523,0.002678,0.000431,0.000353
248000,0.0324,0.013523,0.002678,0.000431,0.000235
249000,0.0324,0.013523,0.002678,0.000431,0.000353
250000,0.0324,0.013523,0.002678,0.000431,0.000470
251000,0.0324,0.013523,0.002678,0.000431,0.000353
252000,0.0324,0.013523,0.002678,0.000431,0.000235
253000,0.0324,0.013523,0.002678,0.000431,0.000353
254000,0.0324,0.013523,0.002678,0.000431,0.000353
255000,0.0324,0.013523,0.002678,0.000431,0.000235
256000,0.0324,0.013523,0.002678,0.000431,0.000353
257000,0.0324,0.013523,0.002678,0.000431,0.000470
258000,0.0324,0.013523,0.002678,0.000431,0.000353
259000,0.0324,0.013523,0.002678,0.000431,0.000118
260000,0.0324,0.013523,0.002678,0.000431,0.000470
261000,0.0324,0.013523,0.002678,0.000431,0.000353
262000,0.0324,0.013523,0.002678,0.000431,0.000235
263000,0.0324,0.013523,0.002678,0.000431,0.000353
264000,0.0324,0.013523,0.002678,0.000431,0.000470
265000,0.0324,0.013523,0.002678,0.000431,0.000353
266000,0.0324,0.013523,0.002678,0.000431,0.000118
267000,0.0324,0.013523,0.002678,0.000431,0.000470
268000,0.0324,0.013523,0.002678,0.000431,0.000353
269000,0.0324,0.013523,0.002678,0.000431,0.000235
270000,0.0324,0.013523,0.002678,0.000431,0.000353
271000,0.0324,0.013523,0.002678,0.000431,0.000470
272000,0.0324,0.013523,0.002678,0.000431,0.000353
273000,0.0324,0.013523,0.002678,0.000431,0.000118
274000,0.0324,0.013523,0.002678,0.000431,0.000470
275000,0.0324,0.013523,0.002678,0.000431,0.000353
276000,0.0324,0.013523,0.002678,0.000431,0.000235
277000,0.0324,0.013523,0.002678,0.000431,0.000353
278000,0.0324,0.013523,0.002678,0.000431,0.000470
279000,0.0324,0.013523,0.002678,0.000431,0.000353
280000,0.0324,0.013523,0.002678,0.000431,0.000118
281000,0.0324,0.013523,0.002678,0.000431,0.000470
282000,0.0324,0.013523,0.002678,0.000431,0.000353
283000,0.0324,0.013523,0.002678,0.000431,0.000235
284000,0.0324,0.013523,0.002678,0.000431,0.000353
285000,0.0324,0.013523,0.002678,0.000431,0.000470
286000,0.0324,0.013523,0.002678,0.000431,0.000235
287000,0.0324,0.013523,0.002678,0.000431,0.000235
288000,0.0324,0.013523,0.002678,0.000431,0.000470
289000,0.0324,0.013523,0.002678,0.000431,0.000353
290000,0.0324,0.013523,0.002678,0.000431,0.000235
291000,0.0324,0.013523,0.002678,0.000431,0.000353
292000,0.0324,0.013523,0.002678,0.000431,0.000470
293000,0.0324,0.013523,0.002678,0.000431,0.000235
294000,0.0324,0.013523,0.002678,0.000431,0.000235
295000,0.0324,0.013523,0.002678,0.000431,0.000470
296000,0.0324,0.013523,0.002678,0.000431,0.000353
297000,0.0324,0.013523,0.002678,0.000431,0.000235
298000,0.0324,0.013523,0.002678,0.000431,0.000353
299000,0.0324,0.013523,0.002678,0.000431,0.000470
300000,0.0324,0.013523,0.002678,0.000431,0.000235
301000,0.0324,0.013523,0.002678,0.000431,0.000235
302000,0.0324,0.013523,0.002678,0.000431,0.000470
303000,0.0324,0.013523,0.002678,0.000431,0.000353
304000,0.0324,0.013523,0.002678,0.000431,0.000235
305000,0.0324,0.013523,0.002678,0.000431,0.000353
306000,0.0324,0.013523,0.002678,0.000431,0.000470
307000,0.0324,0.013523,0.002678,0.000431,0.000235
308000,0.0324,0.013523,0.002678,0.000431,0.000235
309000,0.0324,0.013523,0.002678,0.000431,0.000470
310000,0.0324,0.013523,0.002678,0.000431,0.000353
311000,0.0324,0.013523,0.002678,0.000431,0.000235
312000,0.0324,0.013523,0.002678,0.000431,0.000353
313000,0.0324,0.013523,0.002678,0.000431,0.000470
314000,0.0324,0.013523,0.002678,0.000431,0.000235
315000,0.0324,0.013523,0.002678,0.000431,0.000235
316000,0.0324,0.013523,0.002678,0.000431,0.000470
317000,0.0324,0.013523,0.002678,0.000431,0.000353
318000,0.0324,0.013523,0.002678,0.000431,0.000235
319000,0.0324,0.013523,0.002678,0.000431,0.000353
320000,0.0324,0.013523,0.002678,0.000431,0.000470
321000,0.0324,0.013523,0.002678,0.000431,0.000235
322000,0.0324,0.013523,0.002678,0.000431,0.000235
323000,0.0324,0.013523,0.002678,0.000431,0.000470
324000,0.0324,0.013523,0.002678,0.000431,0.000353
325000,0.0324,0.013523,0.002678,0.000431,0.000235
326000,0.0324,0.013523,0.002678,0.000431,0.000353
327000,0.0324,0.013523,0.002678,0.000431,0.000470
328000,0.0324,0.013523,0.002678,0.000431,0.000118
329000,0.0324,0.013523,0.002678,0.000431,0.000353
330000,0.0324,0.013523,0.002678,0.000431,0.000470
331000,0.0324,0.013523,0.002678,0.000431,0.000353
332000,0.0324,0.013523,0.002678,0.000431,0.000235
333000,0.0324,0.013523,0.002678,0.000431,0.000353
334000,0.0324,0.013523,0.002678,0.000431,0.000470
335000,0.0324,0.013523,0.002678,0.000431,0.000118
336000,0.0324,0.013523,0.002678,0.000431,0.000353
337000,0.0324,0.013523,0.002678,0.000431,0.000470
338000,0.0324,0.013523,0.002678,0.000431,0.000353
339000,0.0324,0.013523,0.002678,0.000431,0.000235
340000,0.0324,0.013523,0.002678,0.000431,0.000353
341000,0.0324,0.013523,0.002678,0.000431,0.000470
342000,0.0324,0.013523,0.002678,0.000431,0.000118
343000,0.0324,0.013523,0.002678,0.000431,0.000353
344000,0.0324,0.013523,0.002678,0.000431,0.000470
345000,0.0324,0.013523,0.002678,0.000431,0.000353
346000,0.0324,0.013523,0.002678,0.000431,0.000235
347000,0.0324,0.013523,0.002678,0.000431,0.000353
348000,0.0324,0.013523,0.002678,0.000431,0.000353
349000,0.0324,0.013523,0.002678,0.000431,0.000235
350000,0.0324,0.013523,0.002678,0.000431,0.000353
351000,0.0324,0.013523,0.002678,0.000431,0.000470
352000,0.0324,0.013523,0.002678,0.000431,0.000353
353000,0.0324,0.013523,0.002678,0.000431,0.000235
354000,0.0324,0.013523,0.002678,0.000431,0.000353
355000,0.0324,0.013523,0.002678,0.000431,0.000353
356000,0.0324,0.013523,0.002678,0.000431,0.000235
357000,0.0324,0.013523,0.002678,0.000431,0.000353
358000,0.0324,0.013523,0.002678,0.000431,0.000470
359000,0.0324,0.013523,0.002678,0.000431,0.000353
360000,0.0324,0.013523,0.002678,0.000431,0.000235
361000,0.0324,0.013523,0.002678,0.000431,0.000353
362000,0.0324,0.013523,0.002678,0.000431,0.000353
363000,0.0324,0.013523,0.002678,0.000431,0.000235
364000,0.0324,0.013523,0.002678,0.000431,0.000353
365000,0.0324,0.013523,0.002678,0.000431,0.000470
366000,0.0324,0.013523,0.002678,0.000431,0.000353
367000,0.0324,0.013523,0.002678,0.000431,0.000235
368000,0.0324,0.013523,0.002678,0.000431,0.000353
369000,0.0324,0.013523,0.002678,0.000431,0.000353
370000,0.0324,0.013523,0.002678,0.000431,0.000235
371000,0.0324,0.013523,0.002678,0.000431,0.000353
372000,0.0324,0.013523,0.002678,0.000431,0.000470
373000,0.0324,0.013523,0.002678,0.000431,0.000353
374000,0.0324,0.013523,0.002678,0.000431,0.000235
375000,0.0324,0.013523,0.002678,0.000431,0.000353
376000,0.0324,0.013523,0.002678,0.000431,0.000353
377000,0.0324,0.013523,0.002678,0.000431,0.000235
378000,0.0324,0.013523,0.002678,0.000431,0.000353
379000,0.0324,0.013523,0.002678,0.000431,0.000470
380000,0.0324,0.013523,0.002678,0.000431,0.000353
381000,0.0324,0.013523,0.002678,0.000431,0.000235
382000,0.0324,0.013523,0.002678,0.000431,0.000353
383000,0.0324,0.013523,0.002678,0.000431,0.000353
384000,0.0324,0.013523,0.002678,0.000431,0.000235
385000,0.0324,0.013523,0.002678,0.000431,0.000353
386000,0.0324,0.013523,0.002678,0.000431,0.000470
387000,0.0324,0.013523,0.002678,0.000431,0.000353
388000,0.0324,0.013523,0.002678,0.000431,0.000235
389000,0.0324,0.013523,0.002678,0.000431,0.000353
390000,0.0324,0.013523,0.002678,0.000431,0.000353
391000,0.0324,0.013523,0.002678,0.000431,0.000235
392000,0.0324,0.013523,0.002678,0.000431,0.000353
393000,0.0324,0.013523,0.002678,0.000431,0.000470
394000,0.0324,0.013523,0.002678,0.000431,0.000353
395000,0.0324,0.013523,0.002678,0.000431,0.000235
396000,0.0324,0.013523,0.002678,0.000431,0.000353
397000,0.0324,0.013523,0.002678,0.000431,0.000353
398000,0.0324,0.013523,0.002678,0.000431,0.000235
399000,0.0324,0.013523,0.002678,0.000431,0.000353
400000,0.0324,0.013523,0.002678,0.000431,0.000470
401000,0.0324,0.013523,0.002678,0.000431,0.000353
402000,0.0324,0.013523,0.002678,0.000431,0.000118
403000,0.0324,0.013523,0.002678,0.000431,0.000470
404000,0.0324,0.013523,0.002678,0.000431,0.000353
405000,0.0324,0.013523,0.002678,0.000431,0.000235
406000,0.0324,0.013523,0.002678,0.000431,0.000353
407000,0.0324,0.013523,0.002678,0.000431,0.000470
408000,0.0324,0.013523,0.002678,0.000431,0.000353
409000,0.0324,0.013523,0.002678,0.000431,0.000118
410000,0.0324,0.013523,0.002678,0.000431,0.000470
411000,0.0324,0.013523,0.002678,0.000431,0.000353
412000,0.0324,0.013523,0.002678,0.000431,0.000235
413000,0.0324,0.013523,0.002678,0.000431,0.000353
414000,0.0324,0.013523,0.002678,0.000431,0.000470
415000,0.0324,0.013523,0.002678,0.000431,0.000353
416000,0.0324,0.013523,0.002678,0.000431,0.000118
417000,0.0324,0.013523,0.002678,0.000431,0.000470
418000,0.0324,0.013523,0.002678,0.000431,0.000353
419000,0.0324,0.013523,0.002678,0.000431,0.000235
420000,0.0324,0.013523,0.002678,0.000431,0.000353
421000,0.0324,0.013523,0.002678,0.000431,0.000470
422000,0.0324,0.013523,0.002678,0.000431,0.000235
423000,0.0324,0.013523,0.002678,0.000431,0.000235
424000,0.0324,0.013523,0.002678,0.000431,0.000470
425000,0.0324,0.013523,0.002678,0.000431,0.000353
426000,0.0324,0.013523,0.002678,0.000431,0.000235
427000,0.0324,0.013523,0.002678,0.000431,0.000353
428000,0.0324,0.013523,0.002678,0.000431,0.000470
429000,0.0324,0.013523,0.002678,0.000431,0.000235
430000,0.0324,0.013523,0.002678,0.000431,0.000235
431000,0.0324,0.013523,0.002678,0.000431,0.000470
432000,0.0324,0.013523,0.002678,0.000431,0.000353
433000,0.0324,0.013523,0.002678,0.000431,0.000235
434000,0.0324,0.013523,0.002678,0.000431,0.000353
435000,0.0324,0.013523,0.002678,0.000431,0.000470
436000,0.0324,0.013523,0.002678,0.000431,0.000235
437000,0.0324,0.013523,0.002678,0.000431,0.000235
438000,0.0324,0.013523,0.002678,0.000431,0.000470
439000,0.0324,0.013523,0.002678,0.000431,0.000353
440000,0.0324,0.013523,0.002678,0.000431,0.000235
441000,0.0324,0.013523,0.002678,0.000431,0.000353
442000,0.0324,0.013523,0.002678,0.000431,0.000470
443000,0.0324,0.013523,0.002678,0.000431,0.000235
444000,0.0324,0.013523,0.002678,0.000431,0.000235
445000,0.0324,0.013523,0.002678,0.000431,0.000470
446000,0.0324,0.013523,0.002678,0.000431,0.000353
447000,0.0324,0.013523,0.002678,0.000431,0.000235
448000,0.0324,0.013523,0.002678,0.000431,0.000353
449000,0.0324,0.013523,0.002678,0.000431,0.000470
450000,0.0324,0.013523,0.002678,0.000431,0.000235
451000,0.0324,0.013523,0.002678,0.000431,0.000235
452000,0.0324,0.013523,0.002678,0.000431,0.000470
453000,0.0324,0.013523,0.002678,0.000431,0.000353
454000,0.0324,0.013523,0.002678,0.000431,0.000235
455000,0.0324,0.013523,0.002678,0.000431,0.000353
456000,0.0324,0.013523,0.002678,0.000431,0.000470
457000,0.0324,0.013523,0.002678,0.000431,0.000235
458000,0.0324,0.013523,0.002678,0.000431,0.000235
459000,0.0324,0.013523,0.002678,0.000431,0.000470
460000,0.0324,0.013523,0.002678,0.000431,0.000353
461000,0.0324,0.013523,0.002678,0.000431,0.000235
462000,0.0324,0.013523,0.002678,0.000431,0.000353
463000,0.0324,0.013523,0.002678,0.000431,0.000470
464000,0.0324,0.013523,0.002678,0.000431,0.000118
465000,0.0324,0.013523,0.002678,0.000431,0.000353
466000,0.0324,0.013523,0.002678,0.000431,0.000470
467000,0.0324,0.013523,0.002678,0.000431,0.000353
468000,0.0324,0.013523,0.002678,0.000431,0.000235
469000,0.0324,0.013523,0.002678,0.000431,0.000353
470000,0.0324,0.013523,0.002678,0.000431,0.000470
471000,0.0324,0.013523,0.002678,0.000431,0.000118
472000,0.0324,0.013523,0.002678,0.000431,0.000353
473000,0.0324,0.013523,0.002678,0.000431,0.000470
474000,0.0324,0.013523,0.002678,0.000431,0.000353
475000,0.0324,0.013523,0.002678,0.000431,0.000235
476000,0.0324,0.013523,0.002678,0.000431,0.000353
477000,0.0324,0.013523,0.002678,0.000431,0.000470
478000,0.0324,0.013523,0.002678,0.000431,0.000118
479000,0.0324,0.013523,0.002678,0.000431,0.000353
480000,0.0324,0.013523,0.002678,0.000431,0.000470
481000,0.0324,0.013523,0.002678,0.000431,0.000353
482000,0.0324,0.013523,0.002678,0.000431,0.000235
483000,0.0324,0.013523,0.002678,0.000431,0.000353
484000,0.0324,0.013523,0.002678,0.000431,0.000470
485000,0.0324,0.013523,0.002678,0.000431,0.000118
486000,0.0324,0.013523,0.002678,0.000431,0.000353
487000,0.0324,0.013523,0.002678,0.000431,0.000470
488000,0.0324,0.013523,0.002678,0.000431,0.000353
489000,0.0324,0.013523,0.002678,0.000431,0.000235
490000,0.0324,0.013523,0.002678,0.000431,0.000353
491000,0.0324,0.013523,0.002678,0.000431,0.000353
492000,0.0324,0.013523,0.002678,0.000431,0.000235
493000,0.0324,0.013523,0.002678,0.000431,0.000353
494000,0.0324,0.013523,0.002678,0.000431,0.000470
495000,0.0324,0.013523,0.002678,0.000431,0.000353
496000,0.0324,0.013523,0.002678,0.000431,0.000235
497000,0.0324,0.013523,0.002678,0.000431,0.000353
498000,0.0324,0.013523,0.002678,0.000431,0.000353
499000,0.0324,0.013523,0.002678,0.000431,0.000235
500000,0.0324,0.013523,0.002678,0.000431,0.000353
501000,0.0324,0.013523,0.002678,0.000431,0.000470
502000,0.0324,0.013523,0.002678,0.000431,0.000353
503000,0.0324,0.013523,0.002678,0.000431,0.000235
504000,0.0324,0.013523,0.002678,0.000431,0.000353
505000,0.0324,0.013523,0.002678,0.000431,0.000353
506000,0.0324,0.013523,0.002678,0.000431,0.000235
507000,0.0324,0.013523,0.002678,0.000431,0.000353
508000,0.0324,0.013523,0.002678,0.000431,0.000470
509000,0.0324,0.013523,0.002678,0.000431,0.000353
510000,0.0324,0.013523,0.002678,0.000431,0.000235
511000,0.0324,0.013523,0.002678,0.000431,0.000353
512000,0.0324,0.013523,0.002678,0.000431,0.000353
513000,0.0324,0.013523,0.002678,0.000431,0.000235
514000,0.0324,0.013523,0.002678,0.000431,0.000353
515000,0.0324,0.013523,0.002678,0.000431,0.000470
516000,0.0324,0.013523,0.002678,0.000431,0.000353
517000,0.0324,0.013523,0.002678,0.000431,0.000235
518000,0.0324,0.013523,0.002678,0.000431,0.000353
519000,0.0324,0.013523,0.002678,0.000431,0.000353
520000,0.0324,0.013523,0.002678,0.000431,0.000235
521000,0.0324,0.013523,0.002678,0.000431,0.000353
522000,0.0324,0.013523,0.002678,0.000431,0.000470
523000,0.0324,0.013523,0.002678,0.000431,0.000353
524000,0.0324,0.013523,0.002678,0.000431,0.000235
525000,0.0324,0.013523,0.002678,0.000431,0.000353
526000,0.0324,0.013523,0.002678,0.000431,0.000353
527000,0.0324,0.013523,0.002678,0.000431,0.000235
528000,0.0324,0.013523,0.002678,0.000431,0.000353
529000,0.0324,0.013523,0.002678,0.000431,0.000470
530000,0.0324,0.013523,0.002678,0.000431,0.000353
531000,0.0324,0.013523,0.002678,0.000431,0.000235
532000,0.0324,0.013523,0.002678,0.000431,0.000353
533000,0.0324,0.013523,0.002678,0.000431,0.000353
534000,0.0324,0.013523,0.002678,0.000431,0.000235
535000,0.0324,0.013523,0.002678,0.000431,0.000353
536000,0.0324,0.013523,0.002678,0.000431,0.000470
537000,0.0324,0.013523,0.002678,0.000431,0.000353
538000,0.0324,0.013523,0.002678,0.000431,0.000118
539000,0.0324,0.013523,0.002678,0.000431,0.000470
540000,0.0324,0.013523,0.002678,0.000431,0.000353
541000,0.0324,0.013523,0.002678,0.000431,0.000235
542000,0.0324,0.013523,0.002678,0.000431,0.000353
543000,0.0324,0.013523,0.002678,0.000431,0.000470
544000,0.0324,0.013523,0.002678,0.000431,0.000353
545000,0.0324,0.013523,0.002678,0.000431,0.000118
546000,0.0324,0.013523,0.002678,0.000431,0.000470
547000,0.0324,0.013523,0.002678,0.000431,0.000353
548000,0.0324,0.013523,0.002678,0.000431,0.000235
549000,0.0324,0.013523,0.002678,0.000431,0.000353
550000,0.0324,0.013523,0.002678,0.000431,0.000470
551000,0.0324,0.013523,0.002678,0.000431,0.000353
552000,0.0324,0.013523,0.002678,0.000431,0.000118
553000,0.0324,0.013523,0.002678,0.000431,0.000470
554000,0.0324,0.013523,0.002678,0.000431,0.000353
555000,0.0324,0.013523,0.002678,0.000431,0.000235
556000,0.0324,0.013523,0.002678,0.000431,0.000353
557000,0.0324,0.013523,0.002678,0.000431,0.000470
558000,0.0324,0.013523,0.002678,0.000431,0.000353
559000,0.0324,0.013523,0.002678,0.000431,0.000118
560000,0.0324,0.013523,0.002678,0.000431,0.000470
561000,0.0324,0.013523,0.002678,0.000431,0.000353
562000,0.0324,0.013523,0.002678,0.000431,0.000235
563000,0.0324,0.013523,0.002678,0.000431,0.000353
564000,0.0324,0.013523,0.002678,0.000431,0.000470
565000,0.0324,0.013523,0.002678,0.000431,0.000235
566000,0.0324,0.013523,0.002678,0.000431,0.000235
567000,0.0324,0.013523,0.002678,0.000431,0.000470
568000,0.0324,0.013523,0.002678,0.000431,0.000353
569000,0.0324,0.013523,0.002678,0.000431,0.000235
570000,0.0324,0.013523,0.002678,0.000431,0.000353
571000,0.0324,0.013523,0.002678,0.000431,0.000470
572000,0.0324,0.013523,0.002678,0.000431,0.000235
573000,0.0324,0.013523,0.002678,0.000431,0.000235
574000,0.0324,0.013523,0.002678,0.000431,0.000470
575000,0.0324,0.013523,0.002678,0.000431,0.000353
576000,0.0324,0.013523,0.002678,0.000431,0.000235
577000,0.0324,0.013523,0.002678,0.000431,0.000353
578000,0.0324,0.013523,0.002678,0.000431,0.000470
579000,0.0324,0.013523,0.002678,0.000431,0.000235
580000,0.0324,0.013523,0.002678,0.000431,0.000235
581000,0.0324,0.013523,0.002678,0.000431,0.000470
582000,0.0324,0.013523,0.002678,0.000431,0.000353
583000,0.0324,0.013523,0.002678,0.000431,0.000235
584000,0.0324,0.013523,0.002678,0.000431,0.000353
585000,0.0324,0.013523,0.002678,0.000431,0.000470
586000,0.0324,0.013523,0.002678,0.000431,0.000235
587000,0.0324,0.013523,0.002678,0.000431,0.000235
588000,0.0324,0.013523,0.002678,0.000431,0.000470
589000,0.0324,0.013523,0.002678,0.000431,0.000353
590000,0.0324,0.013523,0.002678,0.000431,0.000235
591000,0.0324,0.013523,0.002678,0.000431,0.000353
592000,0.0324,0.013523,0.002678,0.000431,0.000470
593000,0.0324,0.013523,0.002678,0.000431,0.000235
594000,0.0324,0.013523,0.002678,0.000431,0.000235
595000,0.0324,0.013523,0.002678,0.000431,0.000470
596000,0.0324,0.013523,0.002678,0.000431,0.000353
597000,0.0324,0.013523,0.002678,0.000431,0.000235
598000,0.0324,0.013523,0.002678,0.000431,0.000353
599000,0.0324,0.013523,0.002678,0.000431,0.000470
600000,0.0324,0.013523,0.002678,0.000431,0.000235
601000,0.0324,0.013523,0.002678,0.000431,0.000235
602000,0.0324,0.013523,0.002678,0.000431,0.000470
603000,0.0324,0.013523,0.002678,0.000431,0.000353
604000,0.0324,0.013523,0.002678,0.000431,0.000235
605000,0.0324,0.013523,0.002678,0.000431,0.000353
606000,0.0324,0.013523,0.002678,0.000431,0.000470
607000,0.0324,0.013523,0.002678,0.000431,0.000118
608000,0.0324,0.013523,0.002678,0.000431,0.000353
609000,0.0324,0.013523,0.002678,0.000431,0.000470
610000,0.0324,0.013523,0.002678,0.000431,0.000353
611000,0.0324,0.013523,0.002678,0.000431,0.000235
612000,0.0324,0.013523,0.002678,0.000431,0.000353
613000,0.0324,0.013523,0.002678,0.000431,0.000470
614000,0.0324,0.013523,0.002678,0.000431,0.000118
615000,0.0324,0.013523,0.002678,0.000431,0.000353
616000,0.0324,0.013523,0.002678,0.000431,0.000470
617000,0.0324,0.013523,0.002678,0.000431,0.000353
618000,0.0324,0.013523,0.002678,0.000431,0.000235
619000,0.0324,0.013523,0.002678,0.000431,0.000353
620000,0.0324,0.013523,0.002678,0.000431,0.000470
621000,0.0324,0.013523,0.002678,0.000431,0.000118
622000,0.0324,0.013523,0.002678,0.000431,0.000353
623000,0.0324,0.013523,0.002678,0.000431,0.000470
624000,0.0324,0.013523,0.002678,0.000431,0.000353
625000,0.0324,0.013523,0.002678,0.000431,0.000235
626000,0.0324,0.013523,0.002678,0.000431,0.000353
627000,0.0324,0.013523,0.002678,0.000431,0.000353
628000,0.0324,0.013523,0.002678,0.000431,0.000235
629000,0.0324,0.013523,0.002678,0.000431,0.000353
630000,0.0324,0.013523,0.002678,0.000431,0.000470
631000,0.0324,0.013523,0.002678,0.000431,0.000353
632000,0.0324,0.013523,0.002678,0.000431,0.000235
633000,0.0324,0.013523,0.002678,0.000431,0.000353
634000,0.0324,0.013523,0.002678,0.000431,0.000353
635000,0.0324,0.013523,0.002678,0.000431,0.000235
636000,0.0324,0.013523,0.002678,0.000431,0.000353
637000,0.0324,0.013523,0.002678,0.000431,0.000470
638000,0.0324,0.013523,0.002678,0.000431,0.000353
639000,0.0324,0.013523,0.002678,0.000431,0.000235
640000,0.0324,0.013523,0.002678,0.000431,0.000353
641000,0.0324,0.013523,0.002678,0.000431,0.000353
642000,0.0324,0.013523,0.002678,0.000431,0.000235
643000,0.0324,0.013523,0.002678,0.000431,0.000353
644000,0.0324,0.013523,0.002678,0.000431,0.000470
645000,0.0324,0.013523,0.002678,0.000431,0.000353
646000,0.0324,0.013523,0.002678,0.000431,0.000235
647000,0.0324,0.013523,0.002678,0.000431,0.000353
648000,0.0324,0.013523,0.002678,0.000431,0.000353
649000,0.0324,0.013523,0.002678,0.000431,0.000235
650000,0.0324,0.013523,0.002678,0.000431,0.000353
651000,0.0324,0.013523,0.002678,0.000431,0.000470
652000,0.0324,0.013523,0.002678,0.000431,0.000353
653000,0.0324,0.013523,0.002678,0.000431,0.000235
654000,0.0324,0.013523,0.002678,0.000431,0.000353
655000,0.0324,0.013523,0.002678,0.000431,0.000353
656000,0.0324,0.013523,0.002678,0.000431,0.000235
657000,0.0324,0.013523,0.002678,0.000431,0.000353
658000,0.0324,0.013523,0.002678,0.000431,0.000470
659000,0.0324,0.013523,0.002678,0.000431,0.000353
660000,0.0324,0.013523,0.002678,0.000431,0.000235
661000,0.0324,0.013523,0.002678,0.000431,0.000353
662000,0.0324,0.013523,0.002678,0.000431,0.000353
663000,0.0324,0.013523,0.002678,0.000431,0.000235
664000,0.0324,0.013523,0.002678,0.000431,0.000353
665000,0.0324,0.013523,0.002678,0.000431,0.000470
666000,0.0324,0.013523,0.002678,0.000431,0.000353
667000,0.0324,0.013523,0.002678,0.000431,0.000235
668000,0.0324,0.013523,0.002678,0.000431,0.000353
669000,0.0324,0.013523,0.002678,0.000431,0.000353
670000,0.0324,0.013523,0.002678,0.000431,0.000235
671000,0.0324,0.013523,0.002678,0.000431,0.000353
672000,0.0324,0.013523,0.002678,0.000431,0.000470
673000,0.0324,0.013523,0.002678,0.000431,0.000353
674000,0.0324,0.013523,0.002678,0.000431,0.000235
675000,0.0324,0.013523,0.002678,0.000431,0.000353
676000,0.0324,0.013523,0.002678,0.000431,0.000353
677000,0.0324,0.013523,0.002678,0.000431,0.000235
678000,0.0324,0.013523,0.002678,0.000431,0.000353
679000,0.0324,0.013523,0.002678,0.000431,0.000470
680000,0.0324,0.013523,0.002678,0.000431,0.000353
681000,0.0324,0.013523,0.002678,0.000431,0.000118
682000,0.0324,0.013523,0.002678,0.000431,0.000470
683000,0.0324,0.013523,0.002678,0.000431,0.000353
684000,0.0324,0.013523,0.002678,0.000431,0.000235
685000,0.0324,0.013523,0.002678,0.000431,0.000353
686000,0.0324,0.013523,0.002678,0.000431,0.000470
687000,0.0324,0.013523,0.002678,0.000431,0.000353
688000,0.0324,0.013523,0.002678,0.000431,0.000118
689000,0.0324,0.013523,0.002678,0.000431,0.000470
690000,0.0324,0.013523,0.002678,0.000431,0.000353
691000,0.0324,0.013523,0.002678,0.000431,0.000235
692000,0.0324,0.013523,0.002678,0.000431,0.000353
693000,0.0324,0.013523,0.002678,0.000431,0.000470
694000,0.0324,0.013523,0.002678,0.000431,0.000353
695000,0.0324,0.013523,0.002678,0.000431,0.000118
696000,0.0324,0.013523,0.002678,0.000431,0.000470
697000,0.0324,0.013523,0.002678,0.000431,0.000353
698000,0.0324,0.013523,0.002678,0.000431,0.000235
699000,0.0324,0.013523,0.002678,0.000431,0.000353
700000,0.0324,0.013523,0.002678,0.000431,0.000470
701000,0.0324,0.013523,0.002678,0.000431,0.000235
702000,0.0324,0.013523,0.002678,0.000431,0.000235
703000,0.0324,0.013523,0.002678,0.000431,0.000470
704000,0.0324,0.013523,0.002678,0.000431,0.000353
705000,0.0324,0.013523,0.002678,0.000431,0.000235
706000,0.0324,0.013523,0.002678,0.000431,0.000353
707000,0.0324,0.013523,0.002678,0.000431,0.000470
708000,0.0324,0.013523,0.002678,0.000431,0.000235
709000,0.0324,0.013523,0.002678,0.000431,0.000235
710000,0.0324,0.013523,0.002678,0.000431,0.000470
711000,0.0324,0.013523,0.002678,0.000431,0.000353
712000,0.0324,0.013523,0.002678,0.000431,0.000235
713000,0.0324,0.013523,0.002678,0.000431,0.000353
714000,0.0324,0.013523,0.002678,0.000431,0.000470
715000,0.0324,0.013523,0.002678,0.000431,0.000235
716000,0.0324,0.013523,0.002678,0.000431,0.000235
717000,0.0324,0.013523,0.002678,0.000431,0.000470
718000,0.0324,0.013523,0.002678,0.000431,0.000353
719000,0.0324,0.013523,0.002678,0.000431,0.000235
720000,0.0324,0.013523,0.002678,0.000431,0.000353
721000,0.0324,0.013523,0.002678,0.000431,0.000470
722000,0.0324,0.013523,0.002678,0.000431,0.000235
723000,0.0324,0.013523,0.002678,0.000431,0.000235
724000,0.0324,0.013523,0.002678,0.000431,0.000470
725000,0.0324,0.013523,0.002678,0.000431,0.000353
726000,0.0324,0.013523,0.002678,0.000431,0.000235
727000,0.0324,0.013523,0.002678,0.000431,0.000353
728000,0.0324,0.013523,0.002678,0.000431,0.000470
729000,0.0324,0.013523,0.002678,0.000431,0.000235
730000,0.0324,0.013523,0.002678,0.000431,0.000235
731000,0.0324,0.013523,0.002678,0.000431,0.000470
732000,0.0324,0.013523,0.002678,0.000431,0.000353
733000,0.0324,0.013523,0.002678,0.000431,0.000235
734000,0.0324,0.013523,0.002678,0.000431,0.000353
735000,0.0324,0.013523,0.002678,0.000431,0.000470
736000,0.0324,0.013523,0.002678,0.000431,0.000235
737000,0.0324,0.013523,0.002678,0.000431,0.000235
738000,0.0324,0.013523,0.002678,0.000431,0.000470
739000,0.0324,0.013523,0.002678,0.000431,0.000353
740000,0.0324,0.013523,0.002678,0.000431,0.000235
741000,0.0324,0.013523,0.002678,0.000431,0.000353
742000,0.0324,0.013523,0.002678,0.000431,0.000470
743000,0.0324,0.013523,0.002678,0.000431,0.000118
744000,0.0324,0.013523,0.002678,0.000431,0.000353
745000,0.0324,0.013523,0.002678,0.000431,0.000470
746000,0.0324,0.013523,0.002678,0.000431,0.000353
747000,0.0324,0.013523,0.002678,0.000431,0.000235
748000,0.0324,0.013523,0.002678,0.000431,0.000353
749000,0.0324,0.013523,0.002678,0.000431,0.000470
750000,0.0324,0.013523,0.002678,0.000431,0.000118
751000,0.0324,0.013523,0.002678,0.000431,0.000353
752000,0.0324,0.013523,0.002678,0.000431,0.000470
753000,0.0324,0.013523,0.002678,0.000431,0.000353
754000,0.0324,0.013523,0.002678,0.000431,0.000235
755000,0.0324,0.013523,0.002678,0.000431,0.000353
756000,0.0324,0.013523,0.002678,0.000431,0.000470
757000,0.0324,0.013523,0.002678,0.000431,0.000118
758000,0.0324,0.013523,0.002678,0.000431,0.000353
759000,0.0324,0.013523,0.002678,0.000431,0.000470
760000,0.0324,0.013523,0.002678,0.000431,0.000353
761000,0.0324,0.013523,0.002678,0.000431,0.000235
762000,0.0324,0.013523,0.002678,0.000431,0.000353
763000,0.0324,0.013523,0.002678,0.000431,0.000470
764000,0.0324,0.013523,0.002678,0.000431,0.000118
765000,0.0324,0.013523,0.002678,0.000431,0.000353
766000,0.0324,0.013523,0.002678,0.000431,0.000470
767000,0.0324,0.013523,0.002678,0.000431,0.000353
768000,0.0324,0.013523,0.002678,0.000431,0.000235
769000,0.0324,0.013523,0.002678,0.000431,0.000353
770000,0.0324,0.013523,0.002678,0.000431,0.000353
771000,0.0324,0.013523,0.002678,0.000431,0.000235
772000,0.0324,0.013523,0.002678,0.000431,0.000353
773000,0.0324,0.013523,0.002678,0.000431,0.000470
774000,0.0324,0.013523,0.002678,0.000431,0.000353
775000,0.0324,0.013523,0.002678,0.000431,0.000235
776000,0.0324,0.013523,0.002678,0.000431,0.000353
777000,0.0324,0.013523,0.002678,0.000431,0.000353
778000,0.0324,0.013523,0.002678,0.000431,0.000235
779000,0.0324,0.013523,0.002678,0.000431,0.000353
780000,0.0324,0.013523,0.002678,0.000431,0.000470
781000,0.0324,0.013523,0.002678,0.000431,0.000353
782000,0.0324,0.013523,0.002678,0.000431,0.000235
783000,0.0324,0.013523,0.002678,0.000431,0.000353
784000,0.0324,0.013523,0.002678,0.000431,0.000353
785000,0.0324,0.013523,0.002678,0.000431,0.000235
786000,0.0324,0.013523,0.002678,0.000431,0.000353
787000,0.0324,0.013523,0.002678,0.000431,0.000470
788000,0.0324,0.013523,0.002678,0.000431,0.000353
789000,0.0324,0.013523,0.002678,0.000431,0.000235
790000,0.0324,0.013523,0.002678,0.000431,0.000353
791000,0.0324,0.013523,0.002678,0.000431,0.000353
792000,0.0324,0.013523,0.002678,0.000431,0.000235
793000,0.0324,0.013523,0.002678,0.000431,0.000353
794000,0.0324,0.013523,0.002678,0.000431,0.000470
795000,0.0324,0.013523,0.002678,0.000431,0.000353
796000,0.0324,0.013523,0.002678,0.000431,0.000235
797000,0.0324,0.013523,0.002678,0.000431,0.000353
798000,0.0324,0.013523,0.002678,0.000431,0.000353
799000,0.0324,0.013523,0.002678,0.000431,0.000235
800000,0.0324,0.013523,0.002678,0.000431,0.000353
801000,0.0324,0.013523,0.002678,0.000431,0.000470
802000,0.0324,0.013523,0.002678,0.000431,0.000353
803000,0.0324,0.013523,0.002678,0.000431,0.000235
804000,0.0324,0.013523,0.002678,0.000431,0.000353
805000,0.0324,0.013523,0.002678,0.000431,0.000353
806000,0.0324,0.013523,0.002678,0.000431,0.000235
807000,0.0324,0.013523,0.002678,0.000431,0.000353
808000,0.0324,0.013523,0.002678,0.000431,0.000470
809000,0.0324,0.013523,0.002678,0.000431,0.000353
810000,0.0324,0.013523,0.002678,0.000431,0.000235
811000,0.0324,0.013523,0.002678,0.000431,0.000353
812000,0.0324,0.013523,0.002678,0.000431,0.000353
813000,0.0324,0.013523,0.002678,0.000431,0.000235
814000,0.0324,0.013523,0.002678,0.000431,0.000353
815000,0.0324,0.013523,0.002678,0.000431,0.000470
816000,0.0324,0.013523,0.002678,0.000431,0.000353
817000,0.0324,0.013523,0.002678,0.000431,0.000235
818000,0.0324,0.013523,0.002678,0.000431,0.000353
819000,0.0324,0.013523,0.002678,0.000431,0.000353
820000,0.0324,0.013523,0.002678,0.000431,0.000235
821000,0.0324,0.013523,0.002678,0.000431,0.000353
822000,0.0324,0.013523,0.002678,0.000431,0.000470
823000,0.0324,0.013523,0.002678,0.000431,0.000353
824000,0.0324,0.013523,0.002678,0.000431,0.000118
825000,0.0324,0.013523,0.002678,0.000431,0.000470
826000,0.0324,0.013523,0.002678,0.000431,0.000353
827000,0.0324,0.013523,0.002678,0.000431,0.000235
828000,0.0324,0.013523,0.002678,0.000431,0.000353
829000,0.0324,0.013523,0.002678,0.000431,0.000470
830000,0.0324,0.013523,0.002678,0.000431,0.000353
831000,0.0324,0.013523,0.002678,0.000431,0.000118
832000,0.0324,0.013523,0.002678,0.000431,0.000470
833000,0.0324,0.013523,0.002678,0.000431,0.000353
834000,0.0324,0.013523,0.002678,0.000431,0.000235
835000,0.0324,0.013523,0.002678,0.000431,0.000353
836000,0.0324,0.013523,0.002678,0.000431,0.000470
837000,0.0324,0.013523,0.002678,0.000431,0.000353
838000,0.0324,0.013523,0.002678,0.000431,0.000118
839000,0.0324,0.013523,0.002678,0.000431,0.000470
840000,0.0324,0.013523,0.002678,0.000431,0.000353
841000,0.0324,0.013523,0.002678,0.000431,0.000235
842000,0.0324,0.013523,0.002678,0.000431,0.000353
843000,0.0324,0.013523,0.002678,0.000431,0.000470
844000,0.0324,0.013523,0.002678,0.000431,0.000235
845000,0.0324,0.013523,0.002678,0.000431,0.000235
846000,0.0324,0.013523,0.002678,0.000431,0.000470
847000,0.0324,0.013523,0.002678,0.000431,0.000353
848000,0.0324,0.013523,0.002678,0.000431,0.000235
849000,0.0324,0.013523,0.002678,0.000431,0.000353
850000,0.0324,0.013523,0.002678,0.000431,0.000470
851000,0.0324,0.013523,0.002678,0.000431,0.000235
852000,0.0324,0.013523,0.002678,0.000431,0.000235
853000,0.0324,0.013523,0.002678,0.000431,0.000470
854000,0.0324,0.013523,0.002678,0.000431,0.000353
855000,0.0324,0.013523,0.002678,0.000431,0.000235
856000,0.0324,0.013523,0.002678,0.000431,0.000353
857000,0.0324,0.013523,0.002678,0.000431,0.000470
858000,0.0324,0.013523,0.002678,0.000431,0.000235
859000,0.0324,0.013523,0.002678,0.000431,0.000235
860000,0.0324,0.013523,0.002678,0.000431,0.000470
861000,0.0324,0.013523,0.002678,0.000431,0.000353
862000,0.0324,0.013523,0.002678,0.000431,0.000235
863000,0.0324,0.013523,0.002678,0.000431,0.000353
864000,0.0324,0.013523,0.002678,0.000431,0.000470
865000,0.0324,0.013523,0.002678,0.000431,0.000235
866000,0.0324,0.013523,0.002678,0.000431,0.000235
867000,0.0324,0.013523,0.002678,0.000431,0.000470
868000,0.0324,0.013523,0.002678,0.000431,0.000353
869000,0.0324,0.013523,0.002678,0.000431,0.000235
870000,0.0324,0.013523,0.002678,0.000431,0.000353
871000,0.0324,0.013523,0.002678,0.000431,0.000470
872000,0.0324,0.013523,0.002678,0.000431,0.000235
873000,0.0324,0.013523,0.002678,0.000431,0.000235
874000,0.0324,0.013523,0.002678,0.000431,0.000470
875000,0.0324,0.013523,0.002678,0.000431,0.000353
876000,0.0324,0.013523,0.002678,0.000431,0.000235
877000,0.0324,0.013523,0.002678,0.000431,0.000353
878000,0.0324,0.013523,0.002678,0.000431,0.000470
879000,0.0324,0.013523,0.002678,0.000431,0.000235
880000,0.0324,0.013523,0.002678,0.000431,0.000235
881000,0.0324,0.013523,0.002678,0.000431,0.000470
882000,0.0324,0.013523,0.002678,0.000431,0.000353
883000,0.0324,0.013523,0.002678,0.000431,0.000235
884000,0.0324,0.013523,0.002678,0.000431,0.000353
885000,0.0324,0.013523,0.002678,0.000431,0.000470
886000,0.0324,0.013523,0.002678,0.000431,0.000118
887000,0.0324,0.013523,0.002678,0.000431,0.000353
888000,0.0324,0.013523,0.002678,0.000431,0.000470
889000,0.0324,0.013523,0.002678,0.000431,0.000353
890000,0.0324,0.013523,0.002678,0.000431,0.000235
891000,0.0324,0.013523,0.002678,0.000431,0.000353
892000,0.0324,0.013523,0.002678,0.000431,0.000470
893000,0.0324,0.013523,0.002678,0.000431,0.000118
894000,0.0324,0.013523,0.002678,0.000431,0.000353
895000,0.0324,0.013523,0.002678,0.000431,0.000470
896000,0.0324,0.013523,0.002678,0.000431,0.000353
897000,0.0324,0.013523,0.002678,0.000431,0.000235
898000,0.0324,0.013523,0.002678,0.000431,0.000353
899000,0.0324,0.013523,0.002678,0.000431,0.000470
900000,0.0324,0.013523,0.002678,0.000431,0.000118
901000,0.0324,0.013523,0.002678,0.000431,0.000353
902000,0.0324,0.013523,0.002678,0.000431,0.000470
903000,0.0324,0.013523,0.002678,0.000431,0.000353
904000,0.0324,0.013523,0.002678,0.000431,0.000235
905000,0.0324,0.013523,0.002678,0.000431,0.000353
906000,0.0324,0.013523,0.002678,0.000431,0.000353
907000,0.0324,0.013523,0.002678,0.000431,0.000235
908000,0.0324,0.013523,0.002678,0.000431,0.000353
909000,0.0324,0.013523,0.002678,0.000431,0.000470
910000,0.0324,0.013523,0.002678,0.000431,0.000353
911000,0.0324,0.013523,0.002678,0.000431,0.000235
912000,0.0324,0.013523,0.002678,0.000431,0.000353
913000,0.0324,0.013523,0.002678,0.000431,0.000353
914000,0.0324,0.013523,0.002678,0.000431,0.000235
915000,0.0324,0.013523,0.002678,0.000431,0.000353
916000,0.0324,0.013523,0.002678,0.000431,0.000470
917000,0.0324,0.013523,0.002678,0.000431,0.000353
918000,0.0324,0.013523,0.002678,0.000431,0.000235
919000,0.0324,0.013523,0.002678,0.000431,0.000353
920000,0.0324,0.013523,0.002678,0.000431,0.000353
921000,0.0324,0.013523,0.002678,0.000431,0.000235
922000,0.0324,0.013523,0.002678,0.000431,0.000353
923000,0.0324,0.013523,0.002678,0.000431,0.000470
924000,0.0324,0.013523,0.002678,0.000431,0.000353
925000,0.0324,0.013523,0.002678,0.000431,0.000235
926000,0.0324,0.013523,0.002678,0.000431,0.000353
927000,0.0324,0.013523,0.002678,0.000431,0.000353
928000,0.0324,0.013523,0.002678,0.000431,0.000235
929000,0.0324,0.013523,0.002678,0.000431,0.000353
930000,0.0324,0.013523,0.002678,0.000431,0.000470
931000,0.0324,0.013523,0.002678,0.000431,0.000353
932000,0.0324,0.013523,0.002678,0.000431,0.000235
933000,0.0324,0.013523,0.002678,0.000431,0.000353
934000,0.0324,0.013523,0.002678,0.000431,0.000353
935000,0.0324,0.013523,0.002678,0.000431,0.000235
936000,0.0324,0.013523,0.002678,0.000431,0.000353
937000,0.0324,0.013523,0.002678,0.000431,0.000470
938000,0.0324,0.013523,0.002678,0.000431,0.000353
939000,0.0324,0.013523,0.002678,0.000431,0.000235
940000,0.0324,0.013523,0.002678,0.000431,0.000353
941000,0.0324,0.013523,0.002678,0.000431,0.000353
942000,0.0324,0.013523,0.002678,0.000431,0.000235
943000,0.0324,0.013523,0.002678,0.000431,0.000353
944000,0.0324,0.013523,0.002678,0.000431,0.000470
945000,0.0324,0.013523,0.002678,0.000431,0.000353
946000,0.0324,0.013523,0.002678,0.000431,0.000235
947000,0.0324,0.013523,0.002678,0.000431,0.000353
948000,0.0324,0.013523,0.002678,0.000431,0.000353
949000,0.0324,0.013523,0.002678,0.000431,0.000235
950000,0.0324,0.013523,0.002678,0.000431,0.000353
951000,0.0324,0.013523,0.002678,0.000431,0.000470
952000,0.0324,0.013523,0.002678,0.000431,0.000353
953000,0.0324,0.013523,0.002678,0.000431,0.000235
954000,0.0324,0.013523,0.002678,0.000431,0.000353
955000,0.0324,0.013523,0.002678,0.000431,0.000353
956000,0.0324,0.013523,0.002678,0.000431,0.000235
957000,0.0324,0.013523,0.002678,0.000431,0.000353
958000,0.0324,0.013523,0.002678,0.000431,0.000470
959000,0.0324,0.013523,0.002678,0.000431,0.000353
960000,0.0324,0.013523,0.002678,0.000431,0.000118
961000,0.0324,0.013523,0.002678,0.000431,0.000470
962000,0.0324,0.013523,0.002678,0.000431,0.000353
963000,0.0324,0.013523,0.002678,0.000431,0.000235
964000,0.0324,0.013523,0.002678,0.000431,0.000353
965000,0.0324,0.013523,0.002678,0.000431,0.000470
966000,0.0324,0.013523,0.002678,0.000431,0.000353
967000,0.0324,0.013523,0.002678,0.000431,0.000118
968000,0.0324,0.013523,0.002678,0.000431,0.000470
969000,0.0324,0.013523,0.002678,0.000431,0.000353
970000,0.0324,0.013523,0.002678,0.000431,0.000235
971000,0.0324,0.013523,0.002678,0.000431,0.000353
972000,0.0324,0.013523,0.002678,0.000431,0.000470
973000,0.0324,0.013523,0.002678,0.000431,0.000353
974000,0.0324,0.013523,0.002678,0.000431,0.000118
975000,0.0324,0.013523,0.002678,0.000431,0.000470
976000,0.0324,0.013523,0.002678,0.000431,0.000353
977000,0.0324,0.013523,0.002678,0.000431,0.000235
978000,0.0324,0.013523,0.002678,0.000431,0.000353
979000,0.0324,0.013523,0.002678,0.000431,0.000470
980000,0.0324,0.013523,0.002678,0.000431,0.000353
981000,0.0324,0.013523,0.002678,0.000431,0.000118
982000,0.0324,0.013523,0.002678,0.000431,0.000470
983000,0.0324,0.013523,0.002678,0.000431,0.000353
984000,0.0324,0.013523,0.002678,0.000431,0.000235
985000,0.0324,0.013523,0.002678,0.000431,0.000353
986000,0.0324,0.013523,0.002678,0.000431,0.000470
987000,0.0324,0.013523,0.002678,0.000431,0.000235
988000,0.0324,0.013523,0.002678,0.000431,0.000235
989000,0.0324,0.013523,0.002678,0.000431,0.000470
990000,0.0324,0.013523,0.002678,0.000431,0.000353
991000,0.0324,0.013523,0.002678,0.000431,0.000235
992000,0.0324,0.013523,0.002678,0.000431,0.000353
993000,0.0324,0.013523,0.002678,0.000431,0.000470
994000,0.0324,0.013523,0.002678,0.000431,0.000235
995000,0.0324,0.013523,0.002678,0.000431,0.000235
996000,0.0324,0.013523,0.002678,0.000431,0.000470
997000,0.0324,0.013523,0.002678,0.000431,0.000353
998000,0.0324,0.013523,0.002678,0.000431,0.000235
999000,0.0324,0.013523,0.002678,0.000431,0.000353
