Cycle,Area(mm^2),PeakDynamic(W),SubthresholdLeakage(W),GateLeakage(W),RunTimeDynamic(W)
30000000,0.0324,0.013523,0.002678,0.000431,0.000353
30001000,0.0324,0.013523,0.002678,0.000431,0.000470
30002000,0.0324,0.013523,0.002678,0.000431,0.000353
30003000,0.0324,0.013523,0.002678,0.000431,0.000118
30004000,0.0324,0.013523,0.002678,0.000431,0.000470
30005000,0.0324,0.013523,0.002678,0.000431,0.000353
30006000,0.0324,0.013523,0.002678,0.000431,0.000235
30007000,0.0324,0.013523,0.002678,0.000431,0.000353
30008000,0.0324,0.013523,0.002678,0.000431,0.000470
30009000,0.0324,0.013523,0.002678,0.000431,0.000353
30010000,0.0324,0.013523,0.002678,0.000431,0.000118
30011000,0.0324,0.013523,0.002678,0.000431,0.000470
30012000,0.0324,0.013523,0.002678,0.000431,0.000353
30013000,0.0324,0.013523,0.002678,0.000431,0.000235
30014000,0.0324,0.013523,0.002678,0.000431,0.000353
30015000,0.0324,0.013523,0.002678,0.000431,0.000470
30016000,0.0324,0.013523,0.002678,0.000431,0.000235
30017000,0.0324,0.013523,0.002678,0.000431,0.000235
30018000,0.0324,0.013523,0.002678,0.000431,0.000470
30019000,0.0324,0.013523,0.002678,0.000431,0.000353
30020000,0.0324,0.013523,0.002678,0.000431,0.000235
30021000,0.0324,0.013523,0.002678,0.000431,0.000353
30022000,0.0324,0.013523,0.002678,0.000431,0.000470
30023000,0.0324,0.013523,0.002678,0.000431,0.000118
30024000,0.0324,0.013523,0.002678,0.000431,0.000353
30025000,0.0324,0.013523,0.002678,0.000431,0.000470
30026000,0.0324,0.013523,0.002678,0.000431,0.000353
30027000,0.0324,0.013523,0.002678,0.000431,0.000235
30028000,0.0324,0.013523,0.002678,0.000431,0.000353
30029000,0.0324,0.013523,0.002678,0.000431,0.000353
30030000,0.0324,0.013523,0.002678,0.000431,0.000235
30031000,0.0324,0.013523,0.002678,0.000431,0.000353
30032000,0.0324,0.013523,0.002678,0.000431,0.000470
30033000,0.0324,0.013523,0.002678,0.000431,0.000353
30034000,0.0324,0.013523,0.002678,0.000431,0.000235
30035000,0.0324,0.013523,0.002678,0.000431,0.000353
30036000,0.0324,0.013523,0.002678,0.000431,0.000353
30037000,0.0324,0.013523,0.002678,0.000431,0.000235
30038000,0.0324,0.013523,0.002678,0.000431,0.000353
30039000,0.0324,0.013523,0.002678,0.000431,0.000470
30040000,0.0324,0.013523,0.002678,0.000431,0.000353
30041000,0.0324,0.013523,0.002678,0.000431,0.000235
30042000,0.0324,0.013523,0.002678,0.000431,0.000353
30043000,0.0324,0.013523,0.002678,0.000431,0.000353
30044000,0.0324,0.013523,0.002678,0.000431,0.000235
30045000,0.0324,0.013523,0.002678,0.000431,0.000353
30046000,0.0324,0.013523,0.002678,0.000431,0.000470
30047000,0.0324,0.013523,0.002678,0.000431,0.000353
30048000,0.0324,0.013523,0.002678,0.000431,0.000118
30049000,0.0324,0.013523,0.002678,0.000431,0.000470
30050000,0.0324,0.013523,0.002678,0.000431,0.000353
30051000,0.0324,0.013523,0.002678,0.000431,0.000235
30052000,0.0324,0.013523,0.002678,0.000431,0.000353
30053000,0.0324,0.013523,0.002678,0.000431,0.000470
30054000,0.0324,0.013523,0.002678,0.000431,0.000235
30055000,0.0324,0.013523,0.002678,0.000431,0.000235
30056000,0.0324,0.013523,0.002678,0.000431,0.000470
30057000,0.0324,0.013523,0.002678,0.000431,0.000353
30058000,0.0324,0.013523,0.002678,0.000431,0.000235
30059000,0.0324,0.013523,0.002678,0.000431,0.000353
30060000,0.0324,0.013523,0.002678,0.000431,0.000470
30061000,0.0324,0.013523,0.002678,0.000431,0.000235
30062000,0.0324,0.013523,0.002678,0.000431,0.000235
30063000,0.0324,0.013523,0.002678,0.000431,0.000470
30064000,0.0324,0.013523,0.002678,0.000431,0.000353
30065000,0.0324,0.013523,0.002678,0.000431,0.000235
30066000,0.0324,0.013523,0.002678,0.000431,0.000353
30067000,0.0324,0.013523,0.002678,0.000431,0.000470
30068000,0.0324,0.013523,0.002678,0.000431,0.000118
30069000,0.0324,0.013523,0.002678,0.000431,0.000353
30070000,0.0324,0.013523,0.002678,0.000431,0.000470
30071000,0.0324,0.013523,0.002678,0.000431,0.000353
30072000,0.0324,0.013523,0.002678,0.000431,0.000235
30073000,0.0324,0.013523,0.002678,0.000431,0.000353
30074000,0.0324,0.013523,0.002678,0.000431,0.000470
30075000,0.0324,0.013523,0.002678,0.000431,0.000118
30076000,0.0324,0.013523,0.002678,0.000431,0.000353
30077000,0.0324,0.013523,0.002678,0.000431,0.000470
30078000,0.0324,0.013523,0.002678,0.000431,0.000353
30079000,0.0324,0.013523,0.002678,0.000431,0.000235
30080000,0.0324,0.013523,0.002678,0.000431,0.000353
30081000,0.0324,0.013523,0.002678,0.000431,0.000353
30082000,0.0324,0.013523,0.002678,0.000431,0.000235
30083000,0.0324,0.013523,0.002678,0.000431,0.000353
30084000,0.0324,0.013523,0.002678,0.000431,0.000470
30085000,0.0324,0.013523,0.002678,0.000431,0.000353
30086000,0.0324,0.013523,0.002678,0.000431,0.000235
30087000,0.0324,0.013523,0.002678,0.000431,0.000353
30088000,0.0324,0.013523,0.002678,0.000431,0.000353
30089000,0.0324,0.013523,0.002678,0.000431,0.000235
30090000,0.0324,0.013523,0.002678,0.000431,0.000353
30091000,0.0324,0.013523,0.002678,0.000431,0.000470
30092000,0.0324,0.013523,0.002678,0.000431,0.000353
30093000,0.0324,0.013523,0.002678,0.000431,0.000235
30094000,0.0324,0.013523,0.002678,0.000431,0.000353
30095000,0.0324,0.013523,0.002678,0.000431,0.000353
30096000,0.0324,0.013523,0.002678,0.000431,0.000235
30097000,0.0324,0.013523,0.002678,0.000431,0.000353
30098000,0.0324,0.013523,0.002678,0.000431,0.000470
30099000,0.0324,0.013523,0.002678,0.000431,0.000353
30100000,0.0324,0.013523,0.002678,0.000431,0.000235
30101000,0.0324,0.013523,0.002678,0.000431,0.000353
30102000,0.0324,0.013523,0.002678,0.000431,0.000353
30103000,0.0324,0.013523,0.002678,0.000431,0.000235
30104000,0.0324,0.013523,0.002678,0.000431,0.000353
30105000,0.0324,0.013523,0.002678,0.000431,0.000470
30106000,0.0324,0.013523,0.002678,0.000431,0.000353
30107000,0.0324,0.013523,0.002678,0.000431,0.000235
30108000,0.0324,0.013523,0.002678,0.000431,0.000353
30109000,0.0324,0.013523,0.002678,0.000431,0.000353
30110000,0.0324,0.013523,0.002678,0.000431,0.000235
30111000,0.0324,0.013523,0.002678,0.000431,0.000353
30112000,0.0324,0.013523,0.002678,0.000431,0.000470
30113000,0.0324,0.013523,0.002678,0.000431,0.000353
30114000,0.0324,0.013523,0.002678,0.000431,0.000235
30115000,0.0324,0.013523,0.002678,0.000431,0.000353
30116000,0.0324,0.013523,0.002678,0.000431,0.000353
30117000,0.0324,0.013523,0.002678,0.000431,0.000235
30118000,0.0324,0.013523,0.002678,0.000431,0.000353
30119000,0.0324,0.013523,0.002678,0.000431,0.000470
30120000,0.0324,0.013523,0.002678,0.000431,0.000353
30121000,0.0324,0.013523,0.002678,0.000431,0.000235
30122000,0.0324,0.013523,0.002678,0.000431,0.000353
30123000,0.0324,0.013523,0.002678,0.000431,0.000353
30124000,0.0324,0.013523,0.002678,0.000431,0.000235
30125000,0.0324,0.013523,0.002678,0.000431,0.000353
30126000,0.0324,0.013523,0.002678,0.000431,0.000470
30127000,0.0324,0.013523,0.002678,0.000431,0.000353
30128000,0.0324,0.013523,0.002678,0.000431,0.000118
30129000,0.0324,0.013523,0.002678,0.000431,0.000470
30130000,0.0324,0.013523,0.002678,0.000431,0.000353
30131000,0.0324,0.013523,0.002678,0.000431,0.000235
30132000,0.0324,0.013523,0.002678,0.000431,0.000353
30133000,0.0324,0.013523,0.002678,0.000431,0.000470
30134000,0.0324,0.013523,0.002678,0.000431,0.000353
30135000,0.0324,0.013523,0.002678,0.000431,0.000118
30136000,0.0324,0.013523,0.002678,0.000431,0.000470
30137000,0.0324,0.013523,0.002678,0.000431,0.000353
30138000,0.0324,0.013523,0.002678,0.000431,0.000235
30139000,0.0324,0.013523,0.002678,0.000431,0.000353
30140000,0.0324,0.013523,0.002678,0.000431,0.000470
30141000,0.0324,0.013523,0.002678,0.000431,0.000353
30142000,0.0324,0.013523,0.002678,0.000431,0.000118
30143000,0.0324,0.013523,0.002678,0.000431,0.000470
30144000,0.0324,0.013523,0.002678,0.000431,0.000353
30145000,0.0324,0.013523,0.002678,0.000431,0.000235
30146000,0.0324,0.013523,0.002678,0.000431,0.000353
30147000,0.0324,0.013523,0.002678,0.000431,0.000470
30148000,0.0324,0.013523,0.002678,0.000431,0.000353
30149000,0.0324,0.013523,0.002678,0.000431,0.000118
30150000,0.0324,0.013523,0.002678,0.000431,0.000470
30151000,0.0324,0.013523,0.002678,0.000431,0.000353
30152000,0.0324,0.013523,0.002678,0.000431,0.000235
30153000,0.0324,0.013523,0.002678,0.000431,0.000353
30154000,0.0324,0.013523,0.002678,0.000431,0.000470
30155000,0.0324,0.013523,0.002678,0.000431,0.000235
30156000,0.0324,0.013523,0.002678,0.000431,0.000235
30157000,0.0324,0.013523,0.002678,0.000431,0.000470
30158000,0.0324,0.013523,0.002678,0.000431,0.000353
30159000,0.0324,0.013523,0.002678,0.000431,0.000235
30160000,0.0324,0.013523,0.002678,0.000431,0.000353
30161000,0.0324,0.013523,0.002678,0.000431,0.000470
30162000,0.0324,0.013523,0.002678,0.000431,0.000235
30163000,0.0324,0.013523,0.002678,0.000431,0.000235
30164000,0.0324,0.013523,0.002678,0.000431,0.000470
30165000,0.0324,0.013523,0.002678,0.000431,0.000353
30166000,0.0324,0.013523,0.002678,0.000431,0.000235
30167000,0.0324,0.013523,0.002678,0.000431,0.000353
30168000,0.0324,0.013523,0.002678,0.000431,0.000470
30169000,0.0324,0.013523,0.002678,0.000431,0.000235
30170000,0.0324,0.013523,0.002678,0.000431,0.000235
30171000,0.0324,0.013523,0.002678,0.000431,0.000470
30172000,0.0324,0.013523,0.002678,0.000431,0.000353
30173000,0.0324,0.013523,0.002678,0.000431,0.000235
30174000,0.0324,0.013523,0.002678,0.000431,0.000353
30175000,0.0324,0.013523,0.002678,0.000431,0.000470
30176000,0.0324,0.013523,0.002678,0.000431,0.000235
30177000,0.0324,0.013523,0.002678,0.000431,0.000235
30178000,0.0324,0.013523,0.002678,0.000431,0.000470
30179000,0.0324,0.013523,0.002678,0.000431,0.000353
30180000,0.0324,0.013523,0.002678,0.000431,0.000235
30181000,0.0324,0.013523,0.002678,0.000431,0.000353
30182000,0.0324,0.013523,0.002678,0.000431,0.000470
30183000,0.0324,0.013523,0.002678,0.000431,0.000235
30184000,0.0324,0.013523,0.002678,0.000431,0.000235
30185000,0.0324,0.013523,0.002678,0.000431,0.000470
30186000,0.0324,0.013523,0.002678,0.000431,0.000353
30187000,0.0324,0.013523,0.002678,0.000431,0.000235
30188000,0.0324,0.013523,0.002678,0.000431,0.000353
30189000,0.0324,0.013523,0.002678,0.000431,0.000470
30190000,0.0324,0.013523,0.002678,0.000431,0.000235
30191000,0.0324,0.013523,0.002678,0.000431,0.000235
30192000,0.0324,0.013523,0.002678,0.000431,0.000470
30193000,0.0324,0.013523,0.002678,0.000431,0.000353
30194000,0.0324,0.013523,0.002678,0.000431,0.000235
30195000,0.0324,0.013523,0.002678,0.000431,0.000353
30196000,0.0324,0.013523,0.002678,0.000431,0.000470
30197000,0.0324,0.013523,0.002678,0.000431,0.000118
30198000,0.0324,0.013523,0.002678,0.000431,0.000353
30199000,0.0324,0.013523,0.002678,0.000431,0.000470
30200000,0.0324,0.013523,0.002678,0.000431,0.000353
30201000,0.0324,0.013523,0.002678,0.000431,0.000235
30202000,0.0324,0.013523,0.002678,0.000431,0.000353
30203000,0.0324,0.013523,0.002678,0.000431,0.000470
30204000,0.0324,0.013523,0.002678,0.000431,0.000118
30205000,0.0324,0.013523,0.002678,0.000431,0.000353
30206000,0.0324,0.013523,0.002678,0.000431,0.000470
30207000,0.0324,0.013523,0.002678,0.000431,0.000353
30208000,0.0324,0.013523,0.002678,0.000431,0.000235
30209000,0.0324,0.013523,0.002678,0.000431,0.000353
30210000,0.0324,0.013523,0.002678,0.000431,0.000470
30211000,0.0324,0.013523,0.002678,0.000431,0.000118
30212000,0.0324,0.013523,0.002678,0.000431,0.000353
30213000,0.0324,0.013523,0.002678,0.000431,0.000470
30214000,0.0324,0.013523,0.002678,0.000431,0.000353
30215000,0.0324,0.013523,0.002678,0.000431,0.000235
30216000,0.0324,0.013523,0.002678,0.000431,0.000353
30217000,0.0324,0.013523,0.002678,0.000431,0.000353
30218000,0.0324,0.013523,0.002678,0.000431,0.000235
30219000,0.0324,0.013523,0.002678,0.000431,0.000353
30220000,0.0324,0.013523,0.002678,0.000431,0.000470
30221000,0.0324,0.013523,0.002678,0.000431,0.000353
30222000,0.0324,0.013523,0.002678,0.000431,0.000235
30223000,0.0324,0.013523,0.002678,0.000431,0.000353
30224000,0.0324,0.013523,0.002678,0.000431,0.000353
30225000,0.0324,0.013523,0.002678,0.000431,0.000235
30226000,0.0324,0.013523,0.002678,0.000431,0.000353
30227000,0.0324,0.013523,0.002678,0.000431,0.000470
30228000,0.0324,0.013523,0.002678,0.000431,0.000353
30229000,0.0324,0.013523,0.002678,0.000431,0.000235
30230000,0.0324,0.013523,0.002678,0.000431,0.000353
30231000,0.0324,0.013523,0.002678,0.000431,0.000353
30232000,0.0324,0.013523,0.002678,0.000431,0.000235
30233000,0.0324,0.013523,0.002678,0.000431,0.000353
30234000,0.0324,0.013523,0.002678,0.000431,0.000470
30235000,0.0324,0.013523,0.002678,0.000431,0.000353
30236000,0.0324,0.013523,0.002678,0.000431,0.000118
30237000,0.0324,0.013523,0.002678,0.000431,0.000470
30238000,0.0324,0.013523,0.002678,0.000431,0.000353
30239000,0.0324,0.013523,0.002678,0.000431,0.000235
30240000,0.0324,0.013523,0.002678,0.000431,0.000353
30241000,0.0324,0.013523,0.002678,0.000431,0.000470
30242000,0.0324,0.013523,0.002678,0.000431,0.000235
30243000,0.0324,0.013523,0.002678,0.000431,0.000235
30244000,0.0324,0.013523,0.002678,0.000431,0.000470
30245000,0.0324,0.013523,0.002678,0.000431,0.000353
30246000,0.0324,0.013523,0.002678,0.000431,0.000235
30247000,0.0324,0.013523,0.002678,0.000431,0.000353
30248000,0.0324,0.013523,0.002678,0.000431,0.000470
30249000,0.0324,0.013523,0.002678,0.000431,0.000235
30250000,0.0324,0.013523,0.002678,0.000431,0.000235
30251000,0.0324,0.013523,0.002678,0.000431,0.000470
30252000,0.0324,0.013523,0.002678,0.000431,0.000353
30253000,0.0324,0.013523,0.002678,0.000431,0.000235
30254000,0.0324,0.013523,0.002678,0.000431,0.000353
30255000,0.0324,0.013523,0.002678,0.000431,0.000470
30256000,0.0324,0.013523,0.002678,0.000431,0.000118
30257000,0.0324,0.013523,0.002678,0.000431,0.000353
30258000,0.0324,0.013523,0.002678,0.000431,0.000470
30259000,0.0324,0.013523,0.002678,0.000431,0.000353
30260000,0.0324,0.013523,0.002678,0.000431,0.000235
30261000,0.0324,0.013523,0.002678,0.000431,0.000353
30262000,0.0324,0.013523,0.002678,0.000431,0.000353
30263000,0.0324,0.013523,0.002678,0.000431,0.000235
30264000,0.0324,0.013523,0.002678,0.000431,0.000353
30265000,0.0324,0.013523,0.002678,0.000431,0.000470
30266000,0.0324,0.013523,0.002678,0.000431,0.000353
30267000,0.0324,0.013523,0.002678,0.000431,0.000235
30268000,0.0324,0.013523,0.002678,0.000431,0.000353
30269000,0.0324,0.013523,0.002678,0.000431,0.000353
30270000,0.0324,0.013523,0.002678,0.000431,0.000235
30271000,0.0324,0.013523,0.002678,0.000431,0.000353
30272000,0.0324,0.013523,0.002678,0.000431,0.000470
30273000,0.0324,0.013523,0.002678,0.000431,0.000353
30274000,0.0324,0.013523,0.002678,0.000431,0.000235
30275000,0.0324,0.013523,0.002678,0.000431,0.000353
30276000,0.0324,0.013523,0.002678,0.000431,0.000353
30277000,0.0324,0.013523,0.002678,0.000431,0.000235
30278000,0.0324,0.013523,0.002678,0.000431,0.000353
30279000,0.0324,0.013523,0.002678,0.000431,0.000470
30280000,0.0324,0.013523,0.002678,0.000431,0.000235
30281000,0.0324,0.013523,0.002678,0.000431,0.000235
30282000,0.0324,0.013523,0.002678,0.000431,0.000470
30283000,0.0324,0.013523,0.002678,0.000431,0.000353
30284000,0.0324,0.013523,0.002678,0.000431,0.000235
30285000,0.0324,0.013523,0.002678,0.000431,0.000353
30286000,0.0324,0.013523,0.002678,0.000431,0.000470
30287000,0.0324,0.013523,0.002678,0.000431,0.000235
30288000,0.0324,0.013523,0.002678,0.000431,0.000235
30289000,0.0324,0.013523,0.002678,0.000431,0.000470
30290000,0.0324,0.013523,0.002678,0.000431,0.000353
30291000,0.0324,0.013523,0.002678,0.000431,0.000235
30292000,0.0324,0.013523,0.002678,0.000431,0.000353
30293000,0.0324,0.013523,0.002678,0.000431,0.000470
30294000,0.0324,0.013523,0.002678,0.000431,0.000118
30295000,0.0324,0.013523,0.002678,0.000431,0.000353
30296000,0.0324,0.013523,0.002678,0.000431,0.000470
30297000,0.0324,0.013523,0.002678,0.000431,0.000353
30298000,0.0324,0.013523,0.002678,0.000431,0.000235
30299000,0.0324,0.013523,0.002678,0.000431,0.000353
30300000,0.0324,0.013523,0.002678,0.000431,0.000470
30301000,0.0324,0.013523,0.002678,0.000431,0.000118
30302000,0.0324,0.013523,0.002678,0.000431,0.000353
30303000,0.0324,0.013523,0.002678,0.000431,0.000470
30304000,0.0324,0.013523,0.002678,0.000431,0.000353
30305000,0.0324,0.013523,0.002678,0.000431,0.000235
30306000,0.0324,0.013523,0.002678,0.000431,0.000353
30307000,0.0324,0.013523,0.002678,0.000431,0.000353
30308000,0.0324,0.013523,0.002678,0.000431,0.000235
30309000,0.0324,0.013523,0.002678,0.000431,0.000353
30310000,0.0324,0.013523,0.002678,0.000431,0.000470
30311000,0.0324,0.013523,0.002678,0.000431,0.000353
30312000,0.0324,0.013523,0.002678,0.000431,0.000235
30313000,0.0324,0.013523,0.002678,0.000431,0.000353
30314000,0.0324,0.013523,0.002678,0.000431,0.000353
30315000,0.0324,0.013523,0.002678,0.000431,0.000235
30316000,0.0324,0.013523,0.002678,0.000431,0.000353
30317000,0.0324,0.013523,0.002678,0.000431,0.000470
30318000,0.0324,0.013523,0.002678,0.000431,0.000353
30319000,0.0324,0.013523,0.002678,0.000431,0.000118
30320000,0.0324,0.013523,0.002678,0.000431,0.000470
30321000,0.0324,0.013523,0.002678,0.000431,0.000353
30322000,0.0324,0.013523,0.002678,0.000431,0.000235
30323000,0.0324,0.013523,0.002678,0.000431,0.000353
30324000,0.0324,0.013523,0.002678,0.000431,0.000470
30325000,0.0324,0.013523,0.002678,0.000431,0.000235
30326000,0.0324,0.013523,0.002678,0.000431,0.000235
30327000,0.0324,0.013523,0.002678,0.000431,0.000470
30328000,0.0324,0.013523,0.002678,0.000431,0.000353
30329000,0.0324,0.013523,0.002678,0.000431,0.000235
30330000,0.0324,0.013523,0.002678,0.000431,0.000353
30331000,0.0324,0.013523,0.002678,0.000431,0.000470
30332000,0.0324,0.013523,0.002678,0.000431,0.000235
30333000,0.0324,0.013523,0.002678,0.000431,0.000235
30334000,0.0324,0.013523,0.002678,0.000431,0.000470
30335000,0.0324,0.013523,0.002678,0.000431,0.000353
30336000,0.0324,0.013523,0.002678,0.000431,0.000235
30337000,0.0324,0.013523,0.002678,0.000431,0.000353
30338000,0.0324,0.013523,0.002678,0.000431,0.000470
30339000,0.0324,0.013523,0.002678,0.000431,0.000118
30340000,0.0324,0.013523,0.002678,0.000431,0.000353
30341000,0.0324,0.013523,0.002678,0.000431,0.000470
30342000,0.0324,0.013523,0.002678,0.000431,0.000353
30343000,0.0324,0.013523,0.002678,0.000431,0.000235
30344000,0.0324,0.013523,0.002678,0.000431,0.000353
30345000,0.0324,0.013523,0.002678,0.000431,0.000353
30346000,0.0324,0.013523,0.002678,0.000431,0.000235
30347000,0.0324,0.013523,0.002678,0.000431,0.000353
30348000,0.0324,0.013523,0.002678,0.000431,0.000470
30349000,0.0324,0.013523,0.002678,0.000431,0.000353
30350000,0.0324,0.013523,0.002678,0.000431,0.000235
30351000,0.0324,0.013523,0.002678,0.000431,0.000353
30352000,0.0324,0.013523,0.002678,0.000431,0.000353
30353000,0.0324,0.013523,0.002678,0.000431,0.000235
30354000,0.0324,0.013523,0.002678,0.000431,0.000353
30355000,0.0324,0.013523,0.002678,0.000431,0.000470
30356000,0.0324,0.013523,0.002678,0.000431,0.000353
30357000,0.0324,0.013523,0.002678,0.000431,0.000235
30358000,0.0324,0.013523,0.002678,0.000431,0.000353
30359000,0.0324,0.013523,0.002678,0.000431,0.000353
30360000,0.0324,0.013523,0.002678,0.000431,0.000235
30361000,0.0324,0.013523,0.002678,0.000431,0.000353
30362000,0.0324,0.013523,0.002678,0.000431,0.000470
30363000,0.0324,0.013523,0.002678,0.000431,0.000353
30364000,0.0324,0.013523,0.002678,0.000431,0.000235
30365000,0.0324,0.013523,0.002678,0.000431,0.000353
30366000,0.0324,0.013523,0.002678,0.000431,0.000353
30367000,0.0324,0.013523,0.002678,0.000431,0.000235
30368000,0.0324,0.013523,0.002678,0.000431,0.000353
30369000,0.0324,0.013523,0.002678,0.000431,0.000470
30370000,0.0324,0.013523,0.002678,0.000431,0.000353
30371000,0.0324,0.013523,0.002678,0.000431,0.000235
30372000,0.0324,0.013523,0.002678,0.000431,0.000353
30373000,0.0324,0.013523,0.002678,0.000431,0.000353
30374000,0.0324,0.013523,0.002678,0.000431,0.000235
30375000,0.0324,0.013523,0.002678,0.000431,0.000353
30376000,0.0324,0.013523,0.002678,0.000431,0.000470
30377000,0.0324,0.013523,0.002678,0.000431,0.000353
30378000,0.0324,0.013523,0.002678,0.000431,0.000118
30379000,0.0324,0.013523,0.002678,0.000431,0.000470
30380000,0.0324,0.013523,0.002678,0.000431,0.000353
30381000,0.0324,0.013523,0.002678,0.000431,0.000235
30382000,0.0324,0.013523,0.002678,0.000431,0.000353
30383000,0.0324,0.013523,0.002678,0.000431,0.000470
30384000,0.0324,0.013523,0.002678,0.000431,0.000353
30385000,0.0324,0.013523,0.002678,0.000431,0.000118
30386000,0.0324,0.013523,0.002678,0.000431,0.000470
30387000,0.0324,0.013523,0.002678,0.000431,0.000353
30388000,0.0324,0.013523,0.002678,0.000431,0.000235
30389000,0.0324,0.013523,0.002678,0.000431,0.000353
30390000,0.0324,0.013523,0.002678,0.000431,0.000470
30391000,0.0324,0.013523,0.002678,0.000431,0.000353
30392000,0.0324,0.013523,0.002678,0.000431,0.000118
30393000,0.0324,0.013523,0.002678,0.000431,0.000470
30394000,0.0324,0.013523,0.002678,0.000431,0.000353
30395000,0.0324,0.013523,0.002678,0.000431,0.000235
30396000,0.0324,0.013523,0.002678,0.000431,0.000353
30397000,0.0324,0.013523,0.002678,0.000431,0.000470
30398000,0.0324,0.013523,0.002678,0.000431,0.000353
30399000,0.0324,0.013523,0.002678,0.000431,0.000118
30400000,0.0324,0.013523,0.002678,0.000431,0.000470
30401000,0.0324,0.013523,0.002678,0.000431,0.000353
30402000,0.0324,0.013523,0.002678,0.000431,0.000235
30403000,0.0324,0.013523,0.002678,0.000431,0.000353
30404000,0.0324,0.013523,0.002678,0.000431,0.000470
30405000,0.0324,0.013523,0.002678,0.000431,0.000235
30406000,0.0324,0.013523,0.002678,0.000431,0.000235
30407000,0.0324,0.013523,0.002678,0.000431,0.000470
30408000,0.0324,0.013523,0.002678,0.000431,0.000353
30409000,0.0324,0.013523,0.002678,0.000431,0.000235
30410000,0.0324,0.013523,0.002678,0.000431,0.000353
30411000,0.0324,0.013523,0.002678,0.000431,0.000470
30412000,0.0324,0.013523,0.002678,0.000431,0.000235
30413000,0.0324,0.013523,0.002678,0.000431,0.000235
30414000,0.0324,0.013523,0.002678,0.000431,0.000470
30415000,0.0324,0.013523,0.002678,0.000431,0.000353
30416000,0.0324,0.013523,0.002678,0.000431,0.000235
30417000,0.0324,0.013523,0.002678,0.000431,0.000353
30418000,0.0324,0.013523,0.002678,0.000431,0.000470
30419000,0.0324,0.013523,0.002678,0.000431,0.000235
30420000,0.0324,0.013523,0.002678,0.000431,0.000235
30421000,0.0324,0.013523,0.002678,0.000431,0.000470
30422000,0.0324,0.013523,0.002678,0.000431,0.000353
30423000,0.0324,0.013523,0.002678,0.000431,0.000235
30424000,0.0324,0.013523,0.002678,0.000431,0.000353
30425000,0.0324,0.013523,0.002678,0.000431,0.000470
30426000,0.0324,0.013523,0.002678,0.000431,0.000235
30427000,0.0324,0.013523,0.002678,0.000431,0.000235
30428000,0.0324,0.013523,0.002678,0.000431,0.000470
30429000,0.0324,0.013523,0.002678,0.000431,0.000353
30430000,0.0324,0.013523,0.002678,0.000431,0.000235
30431000,0.0324,0.013523,0.002678,0.000431,0.000353
30432000,0.0324,0.013523,0.002678,0.000431,0.000470
30433000,0.0324,0.013523,0.002678,0.000431,0.000235
30434000,0.0324,0.013523,0.002678,0.000431,0.000235
30435000,0.0324,0.013523,0.002678,0.000431,0.000470
30436000,0.0324,0.013523,0.002678,0.000431,0.000353
30437000,0.0324,0.013523,0.002678,0.000431,0.000235
30438000,0.0324,0.013523,0.002678,0.000431,0.000353
30439000,0.0324,0.013523,0.002678,0.000431,0.000470
30440000,0.0324,0.013523,0.002678,0.000431,0.000235
30441000,0.0324,0.013523,0.002678,0.000431,0.000235
30442000,0.0324,0.013523,0.002678,0.000431,0.000470
30443000,0.0324,0.013523,0.002678,0.000431,0.000353
30444000,0.0324,0.013523,0.002678,0.000431,0.000235
30445000,0.0324,0.013523,0.002678,0.000431,0.000353
30446000,0.0324,0.013523,0.002678,0.000431,0.000470
30447000,0.0324,0.013523,0.002678,0.000431,0.000118
30448000,0.0324,0.013523,0.002678,0.000431,0.000353
30449000,0.0324,0.013523,0.002678,0.000431,0.000470
30450000,0.0324,0.013523,0.002678,0.000431,0.000353
30451000,0.0324,0.013523,0.002678,0.000431,0.000235
30452000,0.0324,0.013523,0.002678,0.000431,0.000353
30453000,0.0324,0.013523,0.002678,0.000431,0.000470
30454000,0.0324,0.013523,0.002678,0.000431,0.000118
30455000,0.0324,0.013523,0.002678,0.000431,0.000353
30456000,0.0324,0.013523,0.002678,0.000431,0.000470
30457000,0.0324,0.013523,0.002678,0.000431,0.000353
30458000,0.0324,0.013523,0.002678,0.000431,0.000235
30459000,0.0324,0.013523,0.002678,0.000431,0.000353
30460000,0.0324,0.013523,0.002678,0.000431,0.000470
30461000,0.0324,0.013523,0.002678,0.000431,0.000118
30462000,0.0324,0.013523,0.002678,0.000431,0.000353
30463000,0.0324,0.013523,0.002678,0.000431,0.000470
30464000,0.0324,0.013523,0.002678,0.000431,0.000353
30465000,0.0324,0.013523,0.002678,0.000431,0.000235
30466000,0.0324,0.013523,0.002678,0.000431,0.000353
30467000,0.0324,0.013523,0.002678,0.000431,0.000353
30468000,0.0324,0.013523,0.002678,0.000431,0.000235
30469000,0.0324,0.013523,0.002678,0.000431,0.000353
30470000,0.0324,0.013523,0.002678,0.000431,0.000470
30471000,0.0324,0.013523,0.002678,0.000431,0.000353
30472000,0.0324,0.013523,0.002678,0.000431,0.000235
30473000,0.0324,0.013523,0.002678,0.000431,0.000353
30474000,0.0324,0.013523,0.002678,0.000431,0.000353
30475000,0.0324,0.013523,0.002678,0.000431,0.000235
30476000,0.0324,0.013523,0.002678,0.000431,0.000353
30477000,0.0324,0.013523,0.002678,0.000431,0.000470
30478000,0.0324,0.013523,0.002678,0.000431,0.000353
30479000,0.0324,0.013523,0.002678,0.000431,0.000235
30480000,0.0324,0.013523,0.002678,0.000431,0.000353
30481000,0.0324,0.013523,0.002678,0.000431,0.000353
30482000,0.0324,0.013523,0.002678,0.000431,0.000235
30483000,0.0324,0.013523,0.002678,0.000431,0.000353
30484000,0.0324,0.013523,0.002678,0.000431,0.000470
30485000,0.0324,0.013523,0.002678,0.000431,0.000353
30486000,0.0324,0.013523,0.002678,0.000431,0.000235
30487000,0.0324,0.013523,0.002678,0.000431,0.000353
30488000,0.0324,0.013523,0.002678,0.000431,0.000353
30489000,0.0324,0.013523,0.002678,0.000431,0.000235
30490000,0.0324,0.013523,0.002678,0.000431,0.000353
30491000,0.0324,0.013523,0.002678,0.000431,0.000470
30492000,0.0324,0.013523,0.002678,0.000431,0.000353
30493000,0.0324,0.013523,0.002678,0.000431,0.000235
30494000,0.0324,0.013523,0.002678,0.000431,0.000353
30495000,0.0324,0.013523,0.002678,0.000431,0.000353
30496000,0.0324,0.013523,0.002678,0.000431,0.000235
30497000,0.0324,0.013523,0.002678,0.000431,0.000353
30498000,0.0324,0.013523,0.002678,0.000431,0.000470
30499000,0.0324,0.013523,0.002678,0.000431,0.000353
30500000,0.0324,0.013523,0.002678,0.000431,0.000235
30501000,0.0324,0.013523,0.002678,0.000431,0.000353
30502000,0.0324,0.013523,0.002678,0.000431,0.000353
30503000,0.0324,0.013523,0.002678,0.000431,0.000235
30504000,0.0324,0.013523,0.002678,0.000431,0.000353
30505000,0.0324,0.013523,0.002678,0.000431,0.000470
30506000,0.0324,0.013523,0.002678,0.000431,0.000353
30507000,0.0324,0.013523,0.002678,0.000431,0.000235
30508000,0.0324,0.013523,0.002678,0.000431,0.000353
30509000,0.0324,0.013523,0.002678,0.000431,0.000353
30510000,0.0324,0.013523,0.002678,0.000431,0.000235
30511000,0.0324,0.013523,0.002678,0.000431,0.000353
30512000,0.0324,0.013523,0.002678,0.000431,0.000470
30513000,0.0324,0.013523,0.002678,0.000431,0.000353
30514000,0.0324,0.013523,0.002678,0.000431,0.000235
30515000,0.0324,0.013523,0.002678,0.000431,0.000353
30516000,0.0324,0.013523,0.002678,0.000431,0.000353
30517000,0.0324,0.013523,0.002678,0.000431,0.000235
30518000,0.0324,0.013523,0.002678,0.000431,0.000353
30519000,0.0324,0.013523,0.002678,0.000431,0.000470
30520000,0.0324,0.013523,0.002678,0.000431,0.000353
30521000,0.0324,0.013523,0.002678,0.000431,0.000118
30522000,0.0324,0.013523,0.002678,0.000431,0.000470
30523000,0.0324,0.013523,0.002678,0.000431,0.000353
30524000,0.0324,0.013523,0.002678,0.000431,0.000235
30525000,0.0324,0.013523,0.002678,0.000431,0.000353
30526000,0.0324,0.013523,0.002678,0.000431,0.000470
30527000,0.0324,0.013523,0.002678,0.000431,0.000353
30528000,0.0324,0.013523,0.002678,0.000431,0.000118
30529000,0.0324,0.013523,0.002678,0.000431,0.000470
30530000,0.0324,0.013523,0.002678,0.000431,0.000353
30531000,0.0324,0.013523,0.002678,0.000431,0.000235
30532000,0.0324,0.013523,0.002678,0.000431,0.000353
30533000,0.0324,0.013523,0.002678,0.000431,0.000470
30534000,0.0324,0.013523,0.002678,0.000431,0.000353
30535000,0.0324,0.013523,0.002678,0.000431,0.000118
30536000,0.0324,0.013523,0.002678,0.000431,0.000470
30537000,0.0324,0.013523,0.002678,0.000431,0.000353
30538000,0.0324,0.013523,0.002678,0.000431,0.000235
30539000,0.0324,0.013523,0.002678,0.000431,0.000353
30540000,0.0324,0.013523,0.002678,0.000431,0.000470
30541000,0.0324,0.013523,0.002678,0.000431,0.000235
30542000,0.0324,0.013523,0.002678,0.000431,0.000235
30543000,0.0324,0.013523,0.002678,0.000431,0.000470
30544000,0.0324,0.013523,0.002678,0.000431,0.000353
30545000,0.0324,0.013523,0.002678,0.000431,0.000235
30546000,0.0324,0.013523,0.002678,0.000431,0.000353
30547000,0.0324,0.013523,0.002678,0.000431,0.000470
30548000,0.0324,0.013523,0.002678,0.000431,0.000235
30549000,0.0324,0.013523,0.002678,0.000431,0.000235
30550000,0.0324,0.013523,0.002678,0.000431,0.000470
30551000,0.0324,0.013523,0.002678,0.000431,0.000353
30552000,0.0324,0.013523,0.002678,0.000431,0.000235
30553000,0.0324,0.013523,0.002678,0.000431,0.000353
30554000,0.0324,0.013523,0.002678,0.000431,0.000470
30555000,0.0324,0.013523,0.002678,0.000431,0.000235
30556000,0.0324,0.013523,0.002678,0.000431,0.000235
30557000,0.0324,0.013523,0.002678,0.000431,0.000470
30558000,0.0324,0.013523,0.002678,0.000431,0.000353
30559000,0.0324,0.013523,0.002678,0.000431,0.000235
30560000,0.0324,0.013523,0.002678,0.000431,0.000353
30561000,0.0324,0.013523,0.002678,0.000431,0.000470
30562000,0.0324,0.013523,0.002678,0.000431,0.000235
30563000,0.0324,0.013523,0.002678,0.000431,0.000235
30564000,0.0324,0.013523,0.002678,0.000431,0.000470
30565000,0.0324,0.013523,0.002678,0.000431,0.000353
30566000,0.0324,0.013523,0.002678,0.000431,0.000235
30567000,0.0324,0.013523,0.002678,0.000431,0.000353
30568000,0.0324,0.013523,0.002678,0.000431,0.000470
30569000,0.0324,0.013523,0.002678,0.000431,0.000235
30570000,0.0324,0.013523,0.002678,0.000431,0.000235
30571000,0.0324,0.013523,0.002678,0.000431,0.000470
30572000,0.0324,0.013523,0.002678,0.000431,0.000353
30573000,0.0324,0.013523,0.002678,0.000431,0.000235
30574000,0.0324,0.013523,0.002678,0.000431,0.000353
30575000,0.0324,0.013523,0.002678,0.000431,0.000470
30576000,0.0324,0.013523,0.002678,0.000431,0.000235
30577000,0.0324,0.013523,0.002678,0.000431,0.000235
30578000,0.0324,0.013523,0.002678,0.000431,0.000470
30579000,0.0324,0.013523,0.002678,0.000431,0.000353
30580000,0.0324,0.013523,0.002678,0.000431,0.000235
30581000,0.0324,0.013523,0.002678,0.000431,0.000353
30582000,0.0324,0.013523,0.002678,0.000431,0.000470
30583000,0.0324,0.013523,0.002678,0.000431,0.000118
30584000,0.0324,0.013523,0.002678,0.000431,0.000353
30585000,0.0324,0.013523,0.002678,0.000431,0.000470
30586000,0.0324,0.013523,0.002678,0.000431,0.000353
30587000,0.0324,0.013523,0.002678,0.000431,0.000235
30588000,0.0324,0.013523,0.002678,0.000431,0.000353
30589000,0.0324,0.013523,0.002678,0.000431,0.000470
30590000,0.0324,0.013523,0.002678,0.000431,0.000118
30591000,0.0324,0.013523,0.002678,0.000431,0.000353
30592000,0.0324,0.013523,0.002678,0.000431,0.000470
30593000,0.0324,0.013523,0.002678,0.000431,0.000353
30594000,0.0324,0.013523,0.002678,0.000431,0.000235
30595000,0.0324,0.013523,0.002678,0.000431,0.000353
30596000,0.0324,0.013523,0.002678,0.000431,0.000470
30597000,0.0324,0.013523,0.002678,0.000431,0.000118
30598000,0.0324,0.013523,0.002678,0.000431,0.000353
30599000,0.0324,0.013523,0.002678,0.000431,0.000470
30600000,0.0324,0.013523,0.002678,0.000431,0.000353
30601000,0.0324,0.013523,0.002678,0.000431,0.000235
30602000,0.0324,0.013523,0.002678,0.000431,0.000353
30603000,0.0324,0.013523,0.002678,0.000431,0.000470
30604000,0.0324,0.013523,0.002678,0.000431,0.000118
30605000,0.0324,0.013523,0.002678,0.000431,0.000353
30606000,0.0324,0.013523,0.002678,0.000431,0.000470
30607000,0.0324,0.013523,0.002678,0.000431,0.000353
30608000,0.0324,0.013523,0.002678,0.000431,0.000235
30609000,0.0324,0.013523,0.002678,0.000431,0.000353
30610000,0.0324,0.013523,0.002678,0.000431,0.000353
30611000,0.0324,0.013523,0.002678,0.000431,0.000235
30612000,0.0324,0.013523,0.002678,0.000431,0.000353
30613000,0.0324,0.013523,0.002678,0.000431,0.000470
30614000,0.0324,0.013523,0.002678,0.000431,0.000353
30615000,0.0324,0.013523,0.002678,0.000431,0.000235
30616000,0.0324,0.013523,0.002678,0.000431,0.000353
30617000,0.0324,0.013523,0.002678,0.000431,0.000353
30618000,0.0324,0.013523,0.002678,0.000431,0.000235
30619000,0.0324,0.013523,0.002678,0.000431,0.000353
30620000,0.0324,0.013523,0.002678,0.000431,0.000470
30621000,0.0324,0.013523,0.002678,0.000431,0.000353
30622000,0.0324,0.013523,0.002678,0.000431,0.000235
30623000,0.0324,0.013523,0.002678,0.000431,0.000353
30624000,0.0324,0.013523,0.002678,0.000431,0.000353
30625000,0.0324,0.013523,0.002678,0.000431,0.000235
30626000,0.0324,0.013523,0.002678,0.000431,0.000353
30627000,0.0324,0.013523,0.002678,0.000431,0.000470
30628000,0.0324,0.013523,0.002678,0.000431,0.000353
30629000,0.0324,0.013523,0.002678,0.000431,0.000235
30630000,0.0324,0.013523,0.002678,0.000431,0.000353
30631000,0.0324,0.013523,0.002678,0.000431,0.000353
30632000,0.0324,0.013523,0.002678,0.000431,0.000235
30633000,0.0324,0.013523,0.002678,0.000431,0.000353
30634000,0.0324,0.013523,0.002678,0.000431,0.000470
30635000,0.0324,0.013523,0.002678,0.000431,0.000353
30636000,0.0324,0.013523,0.002678,0.000431,0.000235
30637000,0.0324,0.013523,0.002678,0.000431,0.000353
30638000,0.0324,0.013523,0.002678,0.000431,0.000353
30639000,0.0324,0.013523,0.002678,0.000431,0.000235
30640000,0.0324,0.013523,0.002678,0.000431,0.000353
30641000,0.0324,0.013523,0.002678,0.000431,0.000470
30642000,0.0324,0.013523,0.002678,0.000431,0.000353
30643000,0.0324,0.013523,0.002678,0.000431,0.000235
30644000,0.0324,0.013523,0.002678,0.000431,0.000353
30645000,0.0324,0.013523,0.002678,0.000431,0.000353
30646000,0.0324,0.013523,0.002678,0.000431,0.000235
30647000,0.0324,0.013523,0.002678,0.000431,0.000353
30648000,0.0324,0.013523,0.002678,0.000431,0.000470
30649000,0.0324,0.013523,0.002678,0.000431,0.000353
30650000,0.0324,0.013523,0.002678,0.000431,0.000235
30651000,0.0324,0.013523,0.002678,0.000431,0.000353
30652000,0.0324,0.013523,0.002678,0.000431,0.000353
30653000,0.0324,0.013523,0.002678,0.000431,0.000235
30654000,0.0324,0.013523,0.002678,0.000431,0.000353
30655000,0.0324,0.013523,0.002678,0.000431,0.000470
30656000,0.0324,0.013523,0.002678,0.000431,0.000353
30657000,0.0324,0.013523,0.002678,0.000431,0.000118
30658000,0.0324,0.013523,0.002678,0.000431,0.000470
30659000,0.0324,0.013523,0.002678,0.000431,0.000353
30660000,0.0324,0.013523,0.002678,0.000431,0.000235
30661000,0.0324,0.013523,0.002678,0.000431,0.000353
30662000,0.0324,0.013523,0.002678,0.000431,0.000470
30663000,0.0324,0.013523,0.002678,0.000431,0.000353
30664000,0.0324,0.013523,0.002678,0.000431,0.000118
30665000,0.0324,0.013523,0.002678,0.000431,0.000470
30666000,0.0324,0.013523,0.002678,0.000431,0.000353
30667000,0.0324,0.013523,0.002678,0.000431,0.000235
30668000,0.0324,0.013523,0.002678,0.000431,0.000353
30669000,0.0324,0.013523,0.002678,0.000431,0.000470
30670000,0.0324,0.013523,0.002678,0.000431,0.000353
30671000,0.0324,0.013523,0.002678,0.000431,0.000118
30672000,0.0324,0.013523,0.002678,0.000431,0.000470
30673000,0.0324,0.013523,0.002678,0.000431,0.000353
30674000,0.0324,0.013523,0.002678,0.000431,0.000235
30675000,0.0324,0.013523,0.002678,0.000431,0.000353
30676000,0.0324,0.013523,0.002678,0.000431,0.000470
30677000,0.0324,0.013523,0.002678,0.000431,0.000353
30678000,0.0324,0.013523,0.002678,0.000431,0.000118
30679000,0.0324,0.013523,0.002678,0.000431,0.000470
30680000,0.0324,0.013523,0.002678,0.000431,0.000353
30681000,0.0324,0.013523,0.002678,0.000431,0.000235
30682000,0.0324,0.013523,0.002678,0.000431,0.000353
30683000,0.0324,0.013523,0.002678,0.000431,0.000470
30684000,0.0324,0.013523,0.002678,0.000431,0.000235
30685000,0.0324,0.013523,0.002678,0.000431,0.000235
30686000,0.0324,0.013523,0.002678,0.000431,0.000470
30687000,0.0324,0.013523,0.002678,0.000431,0.000353
30688000,0.0324,0.013523,0.002678,0.000431,0.000235
30689000,0.0324,0.013523,0.002678,0.000431,0.000353
30690000,0.0324,0.013523,0.002678,0.000431,0.000470
30691000,0.0324,0.013523,0.002678,0.000431,0.000235
30692000,0.0324,0.013523,0.002678,0.000431,0.000235
30693000,0.0324,0.013523,0.002678,0.000431,0.000470
30694000,0.0324,0.013523,0.002678,0.000431,0.000353
30695000,0.0324,0.013523,0.002678,0.000431,0.000235
30696000,0.0324,0.013523,0.002678,0.000431,0.000353
30697000,0.0324,0.013523,0.002678,0.000431,0.000470
30698000,0.0324,0.013523,0.002678,0.000431,0.000235
30699000,0.0324,0.013523,0.002678,0.000431,0.000235
30700000,0.0324,0.013523,0.002678,0.000431,0.000470
30701000,0.0324,0.013523,0.002678,0.000431,0.000353
30702000,0.0324,0.013523,0.002678,0.000431,0.000235
30703000,0.0324,0.013523,0.002678,0.000431,0.000353
30704000,0.0324,0.013523,0.002678,0.000431,0.000470
30705000,0.0324,0.013523,0.002678,0.000431,0.000235
30706000,0.0324,0.013523,0.002678,0.000431,0.000235
30707000,0.0324,0.013523,0.002678,0.000431,0.000470
30708000,0.0324,0.013523,0.002678,0.000431,0.000353
30709000,0.0324,0.013523,0.002678,0.000431,0.000235
30710000,0.0324,0.013523,0.002678,0.000431,0.000353
30711000,0.0324,0.013523,0.002678,0.000431,0.000470
30712000,0.0324,0.013523,0.002678,0.000431,0.000235
30713000,0.0324,0.013523,0.002678,0.000431,0.000235
30714000,0.0324,0.013523,0.002678,0.000431,0.000470
30715000,0.0324,0.013523,0.002678,0.000431,0.000353
30716000,0.0324,0.013523,0.002678,0.000431,0.000235
30717000,0.0324,0.013523,0.002678,0.000431,0.000353
30718000,0.0324,0.013523,0.002678,0.000431,0.000470
30719000,0.0324,0.013523,0.002678,0.000431,0.000235
30720000,0.0324,0.013523,0.002678,0.000431,0.000235
30721000,0.0324,0.013523,0.002678,0.000431,0.000470
30722000,0.0324,0.013523,0.002678,0.000431,0.000353
30723000,0.0324,0.013523,0.002678,0.000431,0.000235
30724000,0.0324,0.013523,0.002678,0.000431,0.000353
30725000,0.0324,0.013523,0.002678,0.000431,0.000470
30726000,0.0324,0.013523,0.002678,0.000431,0.000118
30727000,0.0324,0.013523,0.002678,0.000431,0.000353
30728000,0.0324,0.013523,0.002678,0.000431,0.000470
30729000,0.0324,0.013523,0.002678,0.000431,0.000353
30730000,0.0324,0.013523,0.002678,0.000431,0.000235
30731000,0.0324,0.013523,0.002678,0.000431,0.000353
30732000,0.0324,0.013523,0.002678,0.000431,0.000470
30733000,0.0324,0.013523,0.002678,0.000431,0.000118
30734000,0.0324,0.013523,0.002678,0.000431,0.000353
30735000,0.0324,0.013523,0.002678,0.000431,0.000470
30736000,0.0324,0.013523,0.002678,0.000431,0.000353
30737000,0.0324,0.013523,0.002678,0.000431,0.000235
30738000,0.0324,0.013523,0.002678,0.000431,0.000353
30739000,0.0324,0.013523,0.002678,0.000431,0.000470
30740000,0.0324,0.013523,0.002678,0.000431,0.000118
30741000,0.0324,0.013523,0.002678,0.000431,0.000353
30742000,0.0324,0.013523,0.002678,0.000431,0.000470
30743000,0.0324,0.013523,0.002678,0.000431,0.000353
30744000,0.0324,0.013523,0.002678,0.000431,0.000235
30745000,0.0324,0.013523,0.002678,0.000431,0.000353
30746000,0.0324,0.013523,0.002678,0.000431,0.000353
30747000,0.0324,0.013523,0.002678,0.000431,0.000235
30748000,0.0324,0.013523,0.002678,0.000431,0.000353
30749000,0.0324,0.013523,0.002678,0.000431,0.000470
30750000,0.0324,0.013523,0.002678,0.000431,0.000353
30751000,0.0324,0.013523,0.002678,0.000431,0.000235
30752000,0.0324,0.013523,0.002678,0.000431,0.000353
30753000,0.0324,0.013523,0.002678,0.000431,0.000353
30754000,0.0324,0.013523,0.002678,0.000431,0.000235
30755000,0.0324,0.013523,0.002678,0.000431,0.000353
30756000,0.0324,0.013523,0.002678,0.000431,0.000470
30757000,0.0324,0.013523,0.002678,0.000431,0.000353
30758000,0.0324,0.013523,0.002678,0.000431,0.000235
30759000,0.0324,0.013523,0.002678,0.000431,0.000353
30760000,0.0324,0.013523,0.002678,0.000431,0.000353
30761000,0.0324,0.013523,0.002678,0.000431,0.000235
30762000,0.0324,0.013523,0.002678,0.000431,0.000353
30763000,0.0324,0.013523,0.002678,0.000431,0.000470
30764000,0.0324,0.013523,0.002678,0.000431,0.000353
30765000,0.0324,0.013523,0.002678,0.000431,0.000235
30766000,0.0324,0.013523,0.002678,0.000431,0.000353
30767000,0.0324,0.013523,0.002678,0.000431,0.000353
30768000,0.0324,0.013523,0.002678,0.000431,0.000235
30769000,0.0324,0.013523,0.002678,0.000431,0.000353
30770000,0.0324,0.013523,0.002678,0.000431,0.000470
30771000,0.0324,0.013523,0.002678,0.000431,0.000353
30772000,0.0324,0.013523,0.002678,0.000431,0.000235
30773000,0.0324,0.013523,0.002678,0.000431,0.000353
30774000,0.0324,0.013523,0.002678,0.000431,0.000353
30775000,0.0324,0.013523,0.002678,0.000431,0.000235
30776000,0.0324,0.013523,0.002678,0.000431,0.000353
30777000,0.0324,0.013523,0.002678,0.000431,0.000470
30778000,0.0324,0.013523,0.002678,0.000431,0.000353
30779000,0.0324,0.013523,0.002678,0.000431,0.000235
30780000,0.0324,0.013523,0.002678,0.000431,0.000353
30781000,0.0324,0.013523,0.002678,0.000431,0.000353
30782000,0.0324,0.013523,0.002678,0.000431,0.000235
30783000,0.0324,0.013523,0.002678,0.000431,0.000353
30784000,0.0324,0.013523,0.002678,0.000431,0.000470
30785000,0.0324,0.013523,0.002678,0.000431,0.000353
30786000,0.0324,0.013523,0.002678,0.000431,0.000235
30787000,0.0324,0.013523,0.002678,0.000431,0.000353
30788000,0.0324,0.013523,0.002678,0.000431,0.000353
30789000,0.0324,0.013523,0.002678,0.000431,0.000235
30790000,0.0324,0.013523,0.002678,0.000431,0.000353
30791000,0.0324,0.013523,0.002678,0.000431,0.000470
30792000,0.0324,0.013523,0.002678,0.000431,0.000353
30793000,0.0324,0.013523,0.002678,0.000431,0.000235
30794000,0.0324,0.013523,0.002678,0.000431,0.000353
30795000,0.0324,0.013523,0.002678,0.000431,0.000353
30796000,0.0324,0.013523,0.002678,0.000431,0.000235
30797000,0.0324,0.013523,0.002678,0.000431,0.000353
30798000,0.0324,0.013523,0.002678,0.000431,0.000470
30799000,0.0324,0.013523,0.002678,0.000431,0.000353
30800000,0.0324,0.013523,0.002678,0.000431,0.000118
30801000,0.0324,0.013523,0.002678,0.000431,0.000470
30802000,0.0324,0.013523,0.002678,0.000431,0.000353
30803000,0.0324,0.013523,0.002678,0.000431,0.000235
30804000,0.0324,0.013523,0.002678,0.000431,0.000353
30805000,0.0324,0.013523,0.002678,0.000431,0.000470
30806000,0.0324,0.013523,0.002678,0.000431,0.000353
30807000,0.0324,0.013523,0.002678,0.000431,0.000118
30808000,0.0324,0.013523,0.002678,0.000431,0.000470
30809000,0.0324,0.013523,0.002678,0.000431,0.000353
30810000,0.0324,0.013523,0.002678,0.000431,0.000235
30811000,0.0324,0.013523,0.002678,0.000431,0.000353
30812000,0.0324,0.013523,0.002678,0.000431,0.000470
30813000,0.0324,0.013523,0.002678,0.000431,0.000353
30814000,0.0324,0.013523,0.002678,0.000431,0.000118
30815000,0.0324,0.013523,0.002678,0.000431,0.000470
30816000,0.0324,0.013523,0.002678,0.000431,0.000353
30817000,0.0324,0.013523,0.002678,0.000431,0.000235
30818000,0.0324,0.013523,0.002678,0.000431,0.000353
30819000,0.0324,0.013523,0.002678,0.000431,0.000470
30820000,0.0324,0.013523,0.002678,0.000431,0.000353
30821000,0.0324,0.013523,0.002678,0.000431,0.000118
30822000,0.0324,0.013523,0.002678,0.000431,0.000470
30823000,0.0324,0.013523,0.002678,0.000431,0.000353
30824000,0.0324,0.013523,0.002678,0.000431,0.000235
30825000,0.0324,0.013523,0.002678,0.000431,0.000353
30826000,0.0324,0.013523,0.002678,0.000431,0.000470
30827000,0.0324,0.013523,0.002678,0.000431,0.000235
30828000,0.0324,0.013523,0.002678,0.000431,0.000235
30829000,0.0324,0.013523,0.002678,0.000431,0.000470
30830000,0.0324,0.013523,0.002678,0.000431,0.000353
30831000,0.0324,0.013523,0.002678,0.000431,0.000235
30832000,0.0324,0.013523,0.002678,0.000431,0.000353
30833000,0.0324,0.013523,0.002678,0.000431,0.000470
30834000,0.0324,0.013523,0.002678,0.000431,0.000235
30835000,0.0324,0.013523,0.002678,0.000431,0.000235
30836000,0.0324,0.013523,0.002678,0.000431,0.000470
30837000,0.0324,0.013523,0.002678,0.000431,0.000353
30838000,0.0324,0.013523,0.002678,0.000431,0.000235
30839000,0.0324,0.013523,0.002678,0.000431,0.000353
30840000,0.0324,0.013523,0.002678,0.000431,0.000470
30841000,0.0324,0.013523,0.002678,0.000431,0.000235
30842000,0.0324,0.013523,0.002678,0.000431,0.000235
30843000,0.0324,0.013523,0.002678,0.000431,0.000470
30844000,0.0324,0.013523,0.002678,0.000431,0.000353
30845000,0.0324,0.013523,0.002678,0.000431,0.000235
30846000,0.0324,0.013523,0.002678,0.000431,0.000353
30847000,0.0324,0.013523,0.002678,0.000431,0.000470
30848000,0.0324,0.013523,0.002678,0.000431,0.000235
30849000,0.0324,0.013523,0.002678,0.000431,0.000235
30850000,0.0324,0.013523,0.002678,0.000431,0.000470
30851000,0.0324,0.013523,0.002678,0.000431,0.000353
30852000,0.0324,0.013523,0.002678,0.000431,0.000235
30853000,0.0324,0.013523,0.002678,0.000431,0.000353
30854000,0.0324,0.013523,0.002678,0.000431,0.000470
30855000,0.0324,0.013523,0.002678,0.000431,0.000235
30856000,0.0324,0.013523,0.002678,0.000431,0.000235
30857000,0.0324,0.013523,0.002678,0.000431,0.000470
30858000,0.0324,0.013523,0.002678,0.000431,0.000353
30859000,0.0324,0.013523,0.002678,0.000431,0.000235
30860000,0.0324,0.013523,0.002678,0.000431,0.000353
30861000,0.0324,0.013523,0.002678,0.000431,0.000470
30862000,0.0324,0.013523,0.002678,0.000431,0.000118
30863000,0.0324,0.013523,0.002678,0.000431,0.000353
30864000,0.0324,0.013523,0.002678,0.000431,0.000470
30865000,0.0324,0.013523,0.002678,0.000431,0.000353
30866000,0.0324,0.013523,0.002678,0.000431,0.000235
30867000,0.0324,0.013523,0.002678,0.000431,0.000353
30868000,0.0324,0.013523,0.002678,0.000431,0.000470
30869000,0.0324,0.013523,0.002678,0.000431,0.000118
30870000,0.0324,0.013523,0.002678,0.000431,0.000353
30871000,0.0324,0.013523,0.002678,0.000431,0.000470
30872000,0.0324,0.013523,0.002678,0.000431,0.000353
30873000,0.0324,0.013523,0.002678,0.000431,0.000235
30874000,0.0324,0.013523,0.002678,0.000431,0.000353
30875000,0.0324,0.013523,0.002678,0.000431,0.000470
30876000,0.0324,0.013523,0.002678,0.000431,0.000118
30877000,0.0324,0.013523,0.002678,0.000431,0.000353
30878000,0.0324,0.013523,0.002678,0.000431,0.000470
30879000,0.0324,0.013523,0.002678,0.000431,0.000353
30880000,0.0324,0.013523,0.002678,0.000431,0.000235
30881000,0.0324,0.013523,0.002678,0.000431,0.000353
30882000,0.0324,0.013523,0.002678,0.000431,0.000470
30883000,0.0324,0.013523,0.002678,0.000431,0.000118
30884000,0.0324,0.013523,0.002678,0.000431,0.000353
30885000,0.0324,0.013523,0.002678,0.000431,0.000470
30886000,0.0324,0.013523,0.002678,0.000431,0.000353
30887000,0.0324,0.013523,0.002678,0.000431,0.000235
30888000,0.0324,0.013523,0.002678,0.000431,0.000353
30889000,0.0324,0.013523,0.002678,0.000431,0.000353
30890000,0.0324,0.013523,0.002678,0.000431,0.000235
30891000,0.0324,0.013523,0.002678,0.000431,0.000353
30892000,0.0324,0.013523,0.002678,0.000431,0.000470
30893000,0.0324,0.013523,0.002678,0.000431,0.000353
30894000,0.0324,0.013523,0.002678,0.000431,0.000235
30895000,0.0324,0.013523,0.002678,0.000431,0.000353
30896000,0.0324,0.013523,0.002678,0.000431,0.000353
30897000,0.0324,0.013523,0.002678,0.000431,0.000235
30898000,0.0324,0.013523,0.002678,0.000431,0.000353
30899000,0.0324,0.013523,0.002678,0.000431,0.000470
30900000,0.0324,0.013523,0.002678,0.000431,0.000353
30901000,0.0324,0.013523,0.002678,0.000431,0.000235
30902000,0.0324,0.013523,0.002678,0.000431,0.000353
30903000,0.0324,0.013523,0.002678,0.000431,0.000353
30904000,0.0324,0.013523,0.002678,0.000431,0.000235
30905000,0.0324,0.013523,0.002678,0.000431,0.000353
30906000,0.0324,0.013523,0.002678,0.000431,0.000470
30907000,0.0324,0.013523,0.002678,0.000431,0.000353
30908000,0.0324,0.013523,0.002678,0.000431,0.000235
30909000,0.0324,0.013523,0.002678,0.000431,0.000353
30910000,0.0324,0.013523,0.002678,0.000431,0.000353
30911000,0.0324,0.013523,0.002678,0.000431,0.000235
30912000,0.0324,0.013523,0.002678,0.000431,0.000353
30913000,0.0324,0.013523,0.002678,0.000431,0.000470
30914000,0.0324,0.013523,0.002678,0.000431,0.000353
30915000,0.0324,0.013523,0.002678,0.000431,0.000235
30916000,0.0324,0.013523,0.002678,0.000431,0.000353
30917000,0.0324,0.013523,0.002678,0.000431,0.000353
30918000,0.0324,0.013523,0.002678,0.000431,0.000235
30919000,0.0324,0.013523,0.002678,0.000431,0.000353
30920000,0.0324,0.013523,0.002678,0.000431,0.000470
30921000,0.0324,0.013523,0.002678,0.000431,0.000353
30922000,0.0324,0.013523,0.002678,0.000431,0.000235
30923000,0.0324,0.013523,0.002678,0.000431,0.000353
30924000,0.0324,0.013523,0.002678,0.000431,0.000353
30925000,0.0324,0.013523,0.002678,0.000431,0.000235
30926000,0.0324,0.013523,0.002678,0.000431,0.000353
30927000,0.0324,0.013523,0.002678,0.000431,0.000470
30928000,0.0324,0.013523,0.002678,0.000431,0.000353
30929000,0.0324,0.013523,0.002678,0.000431,0.000235
30930000,0.0324,0.013523,0.002678,0.000431,0.000353
30931000,0.0324,0.013523,0.002678,0.000431,0.000353
30932000,0.0324,0.013523,0.002678,0.000431,0.000235
30933000,0.0324,0.013523,0.002678,0.000431,0.000353
30934000,0.0324,0.013523,0.002678,0.000431,0.000470
30935000,0.0324,0.013523,0.002678,0.000431,0.000353
30936000,0.0324,0.013523,0.002678,0.000431,0.000235
30937000,0.0324,0.013523,0.002678,0.000431,0.000353
30938000,0.0324,0.013523,0.002678,0.000431,0.000353
30939000,0.0324,0.013523,0.002678,0.000431,0.000235
30940000,0.0324,0.013523,0.002678,0.000431,0.000353
30941000,0.0324,0.013523,0.002678,0.000431,0.000470
30942000,0.0324,0.013523,0.002678,0.000431,0.000353
30943000,0.0324,0.013523,0.002678,0.000431,0.000118
30944000,0.0324,0.013523,0.002678,0.000431,0.000470
30945000,0.0324,0.013523,0.002678,0.000431,0.000353
30946000,0.0324,0.013523,0.002678,0.000431,0.000235
30947000,0.0324,0.013523,0.002678,0.000431,0.000353
30948000,0.0324,0.013523,0.002678,0.000431,0.000470
30949000,0.0324,0.013523,0.002678,0.000431,0.000353
30950000,0.0324,0.013523,0.002678,0.000431,0.000118
30951000,0.0324,0.013523,0.002678,0.000431,0.000470
30952000,0.0324,0.013523,0.002678,0.000431,0.000353
30953000,0.0324,0.013523,0.002678,0.000431,0.000235
30954000,0.0324,0.013523,0.002678,0.000431,0.000353
30955000,0.0324,0.013523,0.002678,0.000431,0.000470
30956000,0.0324,0.013523,0.002678,0.000431,0.000353
30957000,0.0324,0.013523,0.002678,0.000431,0.000118
30958000,0.0324,0.013523,0.002678,0.000431,0.000470
30959000,0.0324,0.013523,0.002678,0.000431,0.000353
30960000,0.0324,0.013523,0.002678,0.000431,0.000235
30961000,0.0324,0.013523,0.002678,0.000431,0.000353
30962000,0.0324,0.013523,0.002678,0.000431,0.000470
30963000,0.0324,0.013523,0.002678,0.000431,0.000235
30964000,0.0324,0.013523,0.002678,0.000431,0.000235
30965000,0.0324,0.013523,0.002678,0.000431,0.000470
30966000,0.0324,0.013523,0.002678,0.000431,0.000353
30967000,0.0324,0.013523,0.002678,0.000431,0.000235
30968000,0.0324,0.013523,0.002678,0.000431,0.000353
30969000,0.0324,0.013523,0.002678,0.000431,0.000470
30970000,0.0324,0.013523,0.002678,0.000431,0.000235
30971000,0.0324,0.013523,0.002678,0.000431,0.000235
30972000,0.0324,0.013523,0.002678,0.000431,0.000470
30973000,0.0324,0.013523,0.002678,0.000431,0.000353
30974000,0.0324,0.013523,0.002678,0.000431,0.000235
30975000,0.0324,0.013523,0.002678,0.000431,0.000353
30976000,0.0324,0.013523,0.002678,0.000431,0.000470
30977000,0.0324,0.013523,0.002678,0.000431,0.000235
30978000,0.0324,0.013523,0.002678,0.000431,0.000235
30979000,0.0324,0.013523,0.002678,0.000431,0.000470
30980000,0.0324,0.013523,0.002678,0.000431,0.000353
30981000,0.0324,0.013523,0.002678,0.000431,0.000235
30982000,0.0324,0.013523,0.002678,0.000431,0.000353
30983000,0.0324,0.013523,0.002678,0.000431,0.000470
30984000,0.0324,0.013523,0.002678,0.000431,0.000235
30985000,0.0324,0.013523,0.002678,0.000431,0.000235
30986000,0.0324,0.013523,0.002678,0.000431,0.000470
30987000,0.0324,0.013523,0.002678,0.000431,0.000353
30988000,0.0324,0.013523,0.002678,0.000431,0.000235
30989000,0.0324,0.013523,0.002678,0.000431,0.000353
30990000,0.0324,0.013523,0.002678,0.000431,0.000470
30991000,0.0324,0.013523,0.002678,0.000431,0.000235
30992000,0.0324,0.013523,0.002678,0.000431,0.000235
30993000,0.0324,0.013523,0.002678,0.000431,0.000470
30994000,0.0324,0.013523,0.002678,0.000431,0.000353
30995000,0.0324,0.013523,0.002678,0.000431,0.000235
30996000,0.0324,0.013523,0.002678,0.000431,0.000353
30997000,0.0324,0.013523,0.002678,0.000431,0.000470
30998000,0.0324,0.013523,0.002678,0.000431,0.000235
30999000,0.0324,0.013523,0.002678,0.000431,0.000235
