Cycle,Area(mm^2),PeakDynamic(W),SubthresholdLeakage(W),GateLeakage(W),RunTimeDynamic(W)
36000000,0.0324,0.013523,0.002678,0.000431,0.000353
36001000,0.0324,0.013523,0.002678,0.000431,0.000353
36002000,0.0324,0.013523,0.002678,0.000431,0.000235
36003000,0.0324,0.013523,0.002678,0.000431,0.000353
36004000,0.0324,0.013523,0.002678,0.000431,0.000470
36005000,0.0324,0.013523,0.002678,0.000431,0.000353
36006000,0.0324,0.013523,0.002678,0.000431,0.000118
36007000,0.0324,0.013523,0.002678,0.000431,0.000470
36008000,0.0324,0.013523,0.002678,0.000431,0.000353
36009000,0.0324,0.013523,0.002678,0.000431,0.000235
36010000,0.0324,0.013523,0.002678,0.000431,0.000353
36011000,0.0324,0.013523,0.002678,0.000431,0.000470
36012000,0.0324,0.013523,0.002678,0.000431,0.000353
36013000,0.0324,0.013523,0.002678,0.000431,0.000118
36014000,0.0324,0.013523,0.002678,0.000431,0.000470
36015000,0.0324,0.013523,0.002678,0.000431,0.000353
36016000,0.0324,0.013523,0.002678,0.000431,0.000235
36017000,0.0324,0.013523,0.002678,0.000431,0.000353
36018000,0.0324,0.013523,0.002678,0.000431,0.000470
36019000,0.0324,0.013523,0.002678,0.000431,0.000353
36020000,0.0324,0.013523,0.002678,0.000431,0.000118
36021000,0.0324,0.013523,0.002678,0.000431,0.000470
36022000,0.0324,0.013523,0.002678,0.000431,0.000353
36023000,0.0324,0.013523,0.002678,0.000431,0.000235
36024000,0.0324,0.013523,0.002678,0.000431,0.000353
36025000,0.0324,0.013523,0.002678,0.000431,0.000470
36026000,0.0324,0.013523,0.002678,0.000431,0.000235
36027000,0.0324,0.013523,0.002678,0.000431,0.000235
36028000,0.0324,0.013523,0.002678,0.000431,0.000470
36029000,0.0324,0.013523,0.002678,0.000431,0.000353
36030000,0.0324,0.013523,0.002678,0.000431,0.000235
36031000,0.0324,0.013523,0.002678,0.000431,0.000353
36032000,0.0324,0.013523,0.002678,0.000431,0.000470
36033000,0.0324,0.013523,0.002678,0.000431,0.000235
36034000,0.0324,0.013523,0.002678,0.000431,0.000235
36035000,0.0324,0.013523,0.002678,0.000431,0.000470
36036000,0.0324,0.013523,0.002678,0.000431,0.000353
36037000,0.0324,0.013523,0.002678,0.000431,0.000235
36038000,0.0324,0.013523,0.002678,0.000431,0.000353
36039000,0.0324,0.013523,0.002678,0.000431,0.000470
36040000,0.0324,0.013523,0.002678,0.000431,0.000235
36041000,0.0324,0.013523,0.002678,0.000431,0.000235
36042000,0.0324,0.013523,0.002678,0.000431,0.000470
36043000,0.0324,0.013523,0.002678,0.000431,0.000353
36044000,0.0324,0.013523,0.002678,0.000431,0.000235
36045000,0.0324,0.013523,0.002678,0.000431,0.000353
36046000,0.0324,0.013523,0.002678,0.000431,0.000470
36047000,0.0324,0.013523,0.002678,0.000431,0.000235
36048000,0.0324,0.013523,0.002678,0.000431,0.000235
36049000,0.0324,0.013523,0.002678,0.000431,0.000470
36050000,0.0324,0.013523,0.002678,0.000431,0.000353
36051000,0.0324,0.013523,0.002678,0.000431,0.000235
36052000,0.0324,0.013523,0.002678,0.000431,0.000353
36053000,0.0324,0.013523,0.002678,0.000431,0.000470
36054000,0.0324,0.013523,0.002678,0.000431,0.000235
36055000,0.0324,0.013523,0.002678,0.000431,0.000235
36056000,0.0324,0.013523,0.002678,0.000431,0.000470
36057000,0.0324,0.013523,0.002678,0.000431,0.000353
36058000,0.0324,0.013523,0.002678,0.000431,0.000235
36059000,0.0324,0.013523,0.002678,0.000431,0.000353
36060000,0.0324,0.013523,0.002678,0.000431,0.000470
36061000,0.0324,0.013523,0.002678,0.000431,0.000235
36062000,0.0324,0.013523,0.002678,0.000431,0.000235
36063000,0.0324,0.013523,0.002678,0.000431,0.000470
36064000,0.0324,0.013523,0.002678,0.000431,0.000353
36065000,0.0324,0.013523,0.002678,0.000431,0.000235
36066000,0.0324,0.013523,0.002678,0.000431,0.000353
36067000,0.0324,0.013523,0.002678,0.000431,0.000470
36068000,0.0324,0.013523,0.002678,0.000431,0.000118
36069000,0.0324,0.013523,0.002678,0.000431,0.000353
36070000,0.0324,0.013523,0.002678,0.000431,0.000470
36071000,0.0324,0.013523,0.002678,0.000431,0.000353
36072000,0.0324,0.013523,0.002678,0.000431,0.000235
36073000,0.0324,0.013523,0.002678,0.000431,0.000353
36074000,0.0324,0.013523,0.002678,0.000431,0.000470
36075000,0.0324,0.013523,0.002678,0.000431,0.000118
36076000,0.0324,0.013523,0.002678,0.000431,0.000353
36077000,0.0324,0.013523,0.002678,0.000431,0.000470
36078000,0.0324,0.013523,0.002678,0.000431,0.000353
36079000,0.0324,0.013523,0.002678,0.000431,0.000235
36080000,0.0324,0.013523,0.002678,0.000431,0.000353
36081000,0.0324,0.013523,0.002678,0.000431,0.000470
36082000,0.0324,0.013523,0.002678,0.000431,0.000118
36083000,0.0324,0.013523,0.002678,0.000431,0.000353
36084000,0.0324,0.013523,0.002678,0.000431,0.000470
36085000,0.0324,0.013523,0.002678,0.000431,0.000353
36086000,0.0324,0.013523,0.002678,0.000431,0.000235
36087000,0.0324,0.013523,0.002678,0.000431,0.000353
36088000,0.0324,0.013523,0.002678,0.000431,0.000470
36089000,0.0324,0.013523,0.002678,0.000431,0.000118
36090000,0.0324,0.013523,0.002678,0.000431,0.000353
36091000,0.0324,0.013523,0.002678,0.000431,0.000470
36092000,0.0324,0.013523,0.002678,0.000431,0.000353
36093000,0.0324,0.013523,0.002678,0.000431,0.000235
36094000,0.0324,0.013523,0.002678,0.000431,0.000353
36095000,0.0324,0.013523,0.002678,0.000431,0.000353
36096000,0.0324,0.013523,0.002678,0.000431,0.000235
36097000,0.0324,0.013523,0.002678,0.000431,0.000353
36098000,0.0324,0.013523,0.002678,0.000431,0.000470
36099000,0.0324,0.013523,0.002678,0.000431,0.000353
36100000,0.0324,0.013523,0.002678,0.000431,0.000235
36101000,0.0324,0.013523,0.002678,0.000431,0.000353
36102000,0.0324,0.013523,0.002678,0.000431,0.000353
36103000,0.0324,0.013523,0.002678,0.000431,0.000235
36104000,0.0324,0.013523,0.002678,0.000431,0.000353
36105000,0.0324,0.013523,0.002678,0.000431,0.000470
36106000,0.0324,0.013523,0.002678,0.000431,0.000353
36107000,0.0324,0.013523,0.002678,0.000431,0.000235
36108000,0.0324,0.013523,0.002678,0.000431,0.000353
36109000,0.0324,0.013523,0.002678,0.000431,0.000353
36110000,0.0324,0.013523,0.002678,0.000431,0.000235
36111000,0.0324,0.013523,0.002678,0.000431,0.000353
36112000,0.0324,0.013523,0.002678,0.000431,0.000470
36113000,0.0324,0.013523,0.002678,0.000431,0.000353
36114000,0.0324,0.013523,0.002678,0.000431,0.000235
36115000,0.0324,0.013523,0.002678,0.000431,0.000353
36116000,0.0324,0.013523,0.002678,0.000431,0.000353
36117000,0.0324,0.013523,0.002678,0.000431,0.000235
36118000,0.0324,0.013523,0.002678,0.000431,0.000353
36119000,0.0324,0.013523,0.002678,0.000431,0.000470
36120000,0.0324,0.013523,0.002678,0.000431,0.000353
36121000,0.0324,0.013523,0.002678,0.000431,0.000235
36122000,0.0324,0.013523,0.002678,0.000431,0.000353
36123000,0.0324,0.013523,0.002678,0.000431,0.000353
36124000,0.0324,0.013523,0.002678,0.000431,0.000235
36125000,0.0324,0.013523,0.002678,0.000431,0.000353
36126000,0.0324,0.013523,0.002678,0.000431,0.000470
36127000,0.0324,0.013523,0.002678,0.000431,0.000353
36128000,0.0324,0.013523,0.002678,0.000431,0.000235
36129000,0.0324,0.013523,0.002678,0.000431,0.000353
36130000,0.0324,0.013523,0.002678,0.000431,0.000353
36131000,0.0324,0.013523,0.002678,0.000431,0.000235
36132000,0.0324,0.013523,0.002678,0.000431,0.000353
36133000,0.0324,0.013523,0.002678,0.000431,0.000470
36134000,0.0324,0.013523,0.002678,0.000431,0.000353
36135000,0.0324,0.013523,0.002678,0.000431,0.000235
36136000,0.0324,0.013523,0.002678,0.000431,0.000353
36137000,0.0324,0.013523,0.002678,0.000431,0.000353
36138000,0.0324,0.013523,0.002678,0.000431,0.000235
36139000,0.0324,0.013523,0.002678,0.000431,0.000353
36140000,0.0324,0.013523,0.002678,0.000431,0.000470
36141000,0.0324,0.013523,0.002678,0.000431,0.000353
36142000,0.0324,0.013523,0.002678,0.000431,0.000118
36143000,0.0324,0.013523,0.002678,0.000431,0.000470
36144000,0.0324,0.013523,0.002678,0.000431,0.000353
36145000,0.0324,0.013523,0.002678,0.000431,0.000235
36146000,0.0324,0.013523,0.002678,0.000431,0.000353
36147000,0.0324,0.013523,0.002678,0.000431,0.000470
36148000,0.0324,0.013523,0.002678,0.000431,0.000353
36149000,0.0324,0.013523,0.002678,0.000431,0.000118
36150000,0.0324,0.013523,0.002678,0.000431,0.000470
36151000,0.0324,0.013523,0.002678,0.000431,0.000353
36152000,0.0324,0.013523,0.002678,0.000431,0.000235
36153000,0.0324,0.013523,0.002678,0.000431,0.000353
36154000,0.0324,0.013523,0.002678,0.000431,0.000470
36155000,0.0324,0.013523,0.002678,0.000431,0.000353
36156000,0.0324,0.013523,0.002678,0.000431,0.000118
36157000,0.0324,0.013523,0.002678,0.000431,0.000470
36158000,0.0324,0.013523,0.002678,0.000431,0.000353
36159000,0.0324,0.013523,0.002678,0.000431,0.000235
36160000,0.0324,0.013523,0.002678,0.000431,0.000353
36161000,0.0324,0.013523,0.002678,0.000431,0.000470
36162000,0.0324,0.013523,0.002678,0.000431,0.000353
36163000,0.0324,0.013523,0.002678,0.000431,0.000118
36164000,0.0324,0.013523,0.002678,0.000431,0.000470
36165000,0.0324,0.013523,0.002678,0.000431,0.000353
36166000,0.0324,0.013523,0.002678,0.000431,0.000235
36167000,0.0324,0.013523,0.002678,0.000431,0.000353
36168000,0.0324,0.013523,0.002678,0.000431,0.000470
36169000,0.0324,0.013523,0.002678,0.000431,0.000235
36170000,0.0324,0.013523,0.002678,0.000431,0.000235
36171000,0.0324,0.013523,0.002678,0.000431,0.000470
36172000,0.0324,0.013523,0.002678,0.000431,0.000353
36173000,0.0324,0.013523,0.002678,0.000431,0.000235
36174000,0.0324,0.013523,0.002678,0.000431,0.000353
36175000,0.0324,0.013523,0.002678,0.000431,0.000470
36176000,0.0324,0.013523,0.002678,0.000431,0.000235
36177000,0.0324,0.013523,0.002678,0.000431,0.000235
36178000,0.0324,0.013523,0.002678,0.000431,0.000470
36179000,0.0324,0.013523,0.002678,0.000431,0.000353
36180000,0.0324,0.013523,0.002678,0.000431,0.000235
36181000,0.0324,0.013523,0.002678,0.000431,0.000353
36182000,0.0324,0.013523,0.002678,0.000431,0.000470
36183000,0.0324,0.013523,0.002678,0.000431,0.000235
36184000,0.0324,0.013523,0.002678,0.000431,0.000235
36185000,0.0324,0.013523,0.002678,0.000431,0.000470
36186000,0.0324,0.013523,0.002678,0.000431,0.000353
36187000,0.0324,0.013523,0.002678,0.000431,0.000235
36188000,0.0324,0.013523,0.002678,0.000431,0.000353
36189000,0.0324,0.013523,0.002678,0.000431,0.000470
36190000,0.0324,0.013523,0.002678,0.000431,0.000235
36191000,0.0324,0.013523,0.002678,0.000431,0.000235
36192000,0.0324,0.013523,0.002678,0.000431,0.000470
36193000,0.0324,0.013523,0.002678,0.000431,0.000353
36194000,0.0324,0.013523,0.002678,0.000431,0.000235
36195000,0.0324,0.013523,0.002678,0.000431,0.000353
36196000,0.0324,0.013523,0.002678,0.000431,0.000470
36197000,0.0324,0.013523,0.002678,0.000431,0.000235
36198000,0.0324,0.013523,0.002678,0.000431,0.000235
36199000,0.0324,0.013523,0.002678,0.000431,0.000470
36200000,0.0324,0.013523,0.002678,0.000431,0.000353
36201000,0.0324,0.013523,0.002678,0.000431,0.000235
36202000,0.0324,0.013523,0.002678,0.000431,0.000353
36203000,0.0324,0.013523,0.002678,0.000431,0.000470
36204000,0.0324,0.013523,0.002678,0.000431,0.000235
36205000,0.0324,0.013523,0.002678,0.000431,0.000235
36206000,0.0324,0.013523,0.002678,0.000431,0.000470
36207000,0.0324,0.013523,0.002678,0.000431,0.000353
36208000,0.0324,0.013523,0.002678,0.000431,0.000235
36209000,0.0324,0.013523,0.002678,0.000431,0.000353
36210000,0.0324,0.013523,0.002678,0.000431,0.000470
36211000,0.0324,0.013523,0.002678,0.000431,0.000118
36212000,0.0324,0.013523,0.002678,0.000431,0.000353
36213000,0.0324,0.013523,0.002678,0.000431,0.000470
36214000,0.0324,0.013523,0.002678,0.000431,0.000353
36215000,0.0324,0.013523,0.002678,0.000431,0.000235
36216000,0.0324,0.013523,0.002678,0.000431,0.000353
36217000,0.0324,0.013523,0.002678,0.000431,0.000470
36218000,0.0324,0.013523,0.002678,0.000431,0.000118
36219000,0.0324,0.013523,0.002678,0.000431,0.000353
36220000,0.0324,0.013523,0.002678,0.000431,0.000470
36221000,0.0324,0.013523,0.002678,0.000431,0.000353
36222000,0.0324,0.013523,0.002678,0.000431,0.000235
36223000,0.0324,0.013523,0.002678,0.000431,0.000353
36224000,0.0324,0.013523,0.002678,0.000431,0.000470
36225000,0.0324,0.013523,0.002678,0.000431,0.000118
36226000,0.0324,0.013523,0.002678,0.000431,0.000353
36227000,0.0324,0.013523,0.002678,0.000431,0.000470
36228000,0.0324,0.013523,0.002678,0.000431,0.000353
36229000,0.0324,0.013523,0.002678,0.000431,0.000235
36230000,0.0324,0.013523,0.002678,0.000431,0.000353
36231000,0.0324,0.013523,0.002678,0.000431,0.000353
36232000,0.0324,0.013523,0.002678,0.000431,0.000235
36233000,0.0324,0.013523,0.002678,0.000431,0.000353
36234000,0.0324,0.013523,0.002678,0.000431,0.000470
36235000,0.0324,0.013523,0.002678,0.000431,0.000353
36236000,0.0324,0.013523,0.002678,0.000431,0.000235
36237000,0.0324,0.013523,0.002678,0.000431,0.000353
36238000,0.0324,0.013523,0.002678,0.000431,0.000353
36239000,0.0324,0.013523,0.002678,0.000431,0.000235
36240000,0.0324,0.013523,0.002678,0.000431,0.000353
36241000,0.0324,0.013523,0.002678,0.000431,0.000470
36242000,0.0324,0.013523,0.002678,0.000431,0.000353
36243000,0.0324,0.013523,0.002678,0.000431,0.000235
36244000,0.0324,0.013523,0.002678,0.000431,0.000353
36245000,0.0324,0.013523,0.002678,0.000431,0.000353
36246000,0.0324,0.013523,0.002678,0.000431,0.000235
36247000,0.0324,0.013523,0.002678,0.000431,0.000353
36248000,0.0324,0.013523,0.002678,0.000431,0.000470
36249000,0.0324,0.013523,0.002678,0.000431,0.000353
36250000,0.0324,0.013523,0.002678,0.000431,0.000235
36251000,0.0324,0.013523,0.002678,0.000431,0.000353
36252000,0.0324,0.013523,0.002678,0.000431,0.000353
36253000,0.0324,0.013523,0.002678,0.000431,0.000235
36254000,0.0324,0.013523,0.002678,0.000431,0.000353
36255000,0.0324,0.013523,0.002678,0.000431,0.000470
36256000,0.0324,0.013523,0.002678,0.000431,0.000353
36257000,0.0324,0.013523,0.002678,0.000431,0.000235
36258000,0.0324,0.013523,0.002678,0.000431,0.000353
36259000,0.0324,0.013523,0.002678,0.000431,0.000353
36260000,0.0324,0.013523,0.002678,0.000431,0.000235
36261000,0.0324,0.013523,0.002678,0.000431,0.000353
36262000,0.0324,0.013523,0.002678,0.000431,0.000470
36263000,0.0324,0.013523,0.002678,0.000431,0.000353
36264000,0.0324,0.013523,0.002678,0.000431,0.000235
36265000,0.0324,0.013523,0.002678,0.000431,0.000353
36266000,0.0324,0.013523,0.002678,0.000431,0.000353
36267000,0.0324,0.013523,0.002678,0.000431,0.000235
36268000,0.0324,0.013523,0.002678,0.000431,0.000353
36269000,0.0324,0.013523,0.002678,0.000431,0.000470
36270000,0.0324,0.013523,0.002678,0.000431,0.000353
36271000,0.0324,0.013523,0.002678,0.000431,0.000235
36272000,0.0324,0.013523,0.002678,0.000431,0.000353
36273000,0.0324,0.013523,0.002678,0.000431,0.000353
36274000,0.0324,0.013523,0.002678,0.000431,0.000235
36275000,0.0324,0.013523,0.002678,0.000431,0.000353
36276000,0.0324,0.013523,0.002678,0.000431,0.000470
36277000,0.0324,0.013523,0.002678,0.000431,0.000353
36278000,0.0324,0.013523,0.002678,0.000431,0.000235
36279000,0.0324,0.013523,0.002678,0.000431,0.000353
36280000,0.0324,0.013523,0.002678,0.000431,0.000353
36281000,0.0324,0.013523,0.002678,0.000431,0.000235
36282000,0.0324,0.013523,0.002678,0.000431,0.000353
36283000,0.0324,0.013523,0.002678,0.000431,0.000470
36284000,0.0324,0.013523,0.002678,0.000431,0.000353
36285000,0.0324,0.013523,0.002678,0.000431,0.000118
36286000,0.0324,0.013523,0.002678,0.000431,0.000470
36287000,0.0324,0.013523,0.002678,0.000431,0.000353
36288000,0.0324,0.013523,0.002678,0.000431,0.000235
36289000,0.0324,0.013523,0.002678,0.000431,0.000353
36290000,0.0324,0.013523,0.002678,0.000431,0.000470
36291000,0.0324,0.013523,0.002678,0.000431,0.000353
36292000,0.0324,0.013523,0.002678,0.000431,0.000118
36293000,0.0324,0.013523,0.002678,0.000431,0.000470
36294000,0.0324,0.013523,0.002678,0.000431,0.000353
36295000,0.0324,0.013523,0.002678,0.000431,0.000235
36296000,0.0324,0.013523,0.002678,0.000431,0.000353
36297000,0.0324,0.013523,0.002678,0.000431,0.000470
36298000,0.0324,0.013523,0.002678,0.000431,0.000353
36299000,0.0324,0.013523,0.002678,0.000431,0.000118
36300000,0.0324,0.013523,0.002678,0.000431,0.000470
36301000,0.0324,0.013523,0.002678,0.000431,0.000353
36302000,0.0324,0.013523,0.002678,0.000431,0.000235
36303000,0.0324,0.013523,0.002678,0.000431,0.000353
36304000,0.0324,0.013523,0.002678,0.000431,0.000470
36305000,0.0324,0.013523,0.002678,0.000431,0.000235
36306000,0.0324,0.013523,0.002678,0.000431,0.000235
36307000,0.0324,0.013523,0.002678,0.000431,0.000470
36308000,0.0324,0.013523,0.002678,0.000431,0.000353
36309000,0.0324,0.013523,0.002678,0.000431,0.000235
36310000,0.0324,0.013523,0.002678,0.000431,0.000353
36311000,0.0324,0.013523,0.002678,0.000431,0.000470
36312000,0.0324,0.013523,0.002678,0.000431,0.000235
36313000,0.0324,0.013523,0.002678,0.000431,0.000235
36314000,0.0324,0.013523,0.002678,0.000431,0.000470
36315000,0.0324,0.013523,0.002678,0.000431,0.000353
36316000,0.0324,0.013523,0.002678,0.000431,0.000235
36317000,0.0324,0.013523,0.002678,0.000431,0.000353
36318000,0.0324,0.013523,0.002678,0.000431,0.000470
36319000,0.0324,0.013523,0.002678,0.000431,0.000235
36320000,0.0324,0.013523,0.002678,0.000431,0.000235
36321000,0.0324,0.013523,0.002678,0.000431,0.000470
36322000,0.0324,0.013523,0.002678,0.000431,0.000353
36323000,0.0324,0.013523,0.002678,0.000431,0.000235
36324000,0.0324,0.013523,0.002678,0.000431,0.000353
36325000,0.0324,0.013523,0.002678,0.000431,0.000470
36326000,0.0324,0.013523,0.002678,0.000431,0.000235
36327000,0.0324,0.013523,0.002678,0.000431,0.000235
36328000,0.0324,0.013523,0.002678,0.000431,0.000470
36329000,0.0324,0.013523,0.002678,0.000431,0.000353
36330000,0.0324,0.013523,0.002678,0.000431,0.000235
36331000,0.0324,0.013523,0.002678,0.000431,0.000353
36332000,0.0324,0.013523,0.002678,0.000431,0.000470
36333000,0.0324,0.013523,0.002678,0.000431,0.000235
36334000,0.0324,0.013523,0.002678,0.000431,0.000235
36335000,0.0324,0.013523,0.002678,0.000431,0.000470
36336000,0.0324,0.013523,0.002678,0.000431,0.000353
36337000,0.0324,0.013523,0.002678,0.000431,0.000235
36338000,0.0324,0.013523,0.002678,0.000431,0.000353
36339000,0.0324,0.013523,0.002678,0.000431,0.000470
36340000,0.0324,0.013523,0.002678,0.000431,0.000235
36341000,0.0324,0.013523,0.002678,0.000431,0.000235
36342000,0.0324,0.013523,0.002678,0.000431,0.000470
36343000,0.0324,0.013523,0.002678,0.000431,0.000353
36344000,0.0324,0.013523,0.002678,0.000431,0.000235
36345000,0.0324,0.013523,0.002678,0.000431,0.000353
36346000,0.0324,0.013523,0.002678,0.000431,0.000470
36347000,0.0324,0.013523,0.002678,0.000431,0.000118
36348000,0.0324,0.013523,0.002678,0.000431,0.000353
36349000,0.0324,0.013523,0.002678,0.000431,0.000470
36350000,0.0324,0.013523,0.002678,0.000431,0.000353
36351000,0.0324,0.013523,0.002678,0.000431,0.000235
36352000,0.0324,0.013523,0.002678,0.000431,0.000353
36353000,0.0324,0.013523,0.002678,0.000431,0.000470
36354000,0.0324,0.013523,0.002678,0.000431,0.000118
36355000,0.0324,0.013523,0.002678,0.000431,0.000353
36356000,0.0324,0.013523,0.002678,0.000431,0.000470
36357000,0.0324,0.013523,0.002678,0.000431,0.000353
36358000,0.0324,0.013523,0.002678,0.000431,0.000235
36359000,0.0324,0.013523,0.002678,0.000431,0.000353
36360000,0.0324,0.013523,0.002678,0.000431,0.000470
36361000,0.0324,0.013523,0.002678,0.000431,0.000118
36362000,0.0324,0.013523,0.002678,0.000431,0.000353
36363000,0.0324,0.013523,0.002678,0.000431,0.000470
36364000,0.0324,0.013523,0.002678,0.000431,0.000353
36365000,0.0324,0.013523,0.002678,0.000431,0.000235
36366000,0.0324,0.013523,0.002678,0.000431,0.000353
36367000,0.0324,0.013523,0.002678,0.000431,0.000470
36368000,0.0324,0.013523,0.002678,0.000431,0.000118
36369000,0.0324,0.013523,0.002678,0.000431,0.000353
36370000,0.0324,0.013523,0.002678,0.000431,0.000470
36371000,0.0324,0.013523,0.002678,0.000431,0.000353
36372000,0.0324,0.013523,0.002678,0.000431,0.000235
36373000,0.0324,0.013523,0.002678,0.000431,0.000353
36374000,0.0324,0.013523,0.002678,0.000431,0.000353
36375000,0.0324,0.013523,0.002678,0.000431,0.000235
36376000,0.0324,0.013523,0.002678,0.000431,0.000353
36377000,0.0324,0.013523,0.002678,0.000431,0.000470
36378000,0.0324,0.013523,0.002678,0.000431,0.000353
36379000,0.0324,0.013523,0.002678,0.000431,0.000235
36380000,0.0324,0.013523,0.002678,0.000431,0.000353
36381000,0.0324,0.013523,0.002678,0.000431,0.000353
36382000,0.0324,0.013523,0.002678,0.000431,0.000235
36383000,0.0324,0.013523,0.002678,0.000431,0.000353
36384000,0.0324,0.013523,0.002678,0.000431,0.000470
36385000,0.0324,0.013523,0.002678,0.000431,0.000353
36386000,0.0324,0.013523,0.002678,0.000431,0.000235
36387000,0.0324,0.013523,0.002678,0.000431,0.000353
36388000,0.0324,0.013523,0.002678,0.000431,0.000353
36389000,0.0324,0.013523,0.002678,0.000431,0.000235
36390000,0.0324,0.013523,0.002678,0.000431,0.000353
36391000,0.0324,0.013523,0.002678,0.000431,0.000470
36392000,0.0324,0.013523,0.002678,0.000431,0.000353
36393000,0.0324,0.013523,0.002678,0.000431,0.000235
36394000,0.0324,0.013523,0.002678,0.000431,0.000353
36395000,0.0324,0.013523,0.002678,0.000431,0.000353
36396000,0.0324,0.013523,0.002678,0.000431,0.000235
36397000,0.0324,0.013523,0.002678,0.000431,0.000353
36398000,0.0324,0.013523,0.002678,0.000431,0.000470
36399000,0.0324,0.013523,0.002678,0.000431,0.000353
36400000,0.0324,0.013523,0.002678,0.000431,0.000235
36401000,0.0324,0.013523,0.002678,0.000431,0.000353
36402000,0.0324,0.013523,0.002678,0.000431,0.000353
36403000,0.0324,0.013523,0.002678,0.000431,0.000235
36404000,0.0324,0.013523,0.002678,0.000431,0.000353
36405000,0.0324,0.013523,0.002678,0.000431,0.000470
36406000,0.0324,0.013523,0.002678,0.000431,0.000353
36407000,0.0324,0.013523,0.002678,0.000431,0.000118
36408000,0.0324,0.013523,0.002678,0.000431,0.000470
36409000,0.0324,0.013523,0.002678,0.000431,0.000353
36410000,0.0324,0.013523,0.002678,0.000431,0.000235
36411000,0.0324,0.013523,0.002678,0.000431,0.000353
36412000,0.0324,0.013523,0.002678,0.000431,0.000470
36413000,0.0324,0.013523,0.002678,0.000431,0.000235
36414000,0.0324,0.013523,0.002678,0.000431,0.000235
36415000,0.0324,0.013523,0.002678,0.000431,0.000470
36416000,0.0324,0.013523,0.002678,0.000431,0.000353
36417000,0.0324,0.013523,0.002678,0.000431,0.000235
36418000,0.0324,0.013523,0.002678,0.000431,0.000353
36419000,0.0324,0.013523,0.002678,0.000431,0.000470
36420000,0.0324,0.013523,0.002678,0.000431,0.000235
36421000,0.0324,0.013523,0.002678,0.000431,0.000235
36422000,0.0324,0.013523,0.002678,0.000431,0.000470
36423000,0.0324,0.013523,0.002678,0.000431,0.000353
36424000,0.0324,0.013523,0.002678,0.000431,0.000235
36425000,0.0324,0.013523,0.002678,0.000431,0.000353
36426000,0.0324,0.013523,0.002678,0.000431,0.000470
36427000,0.0324,0.013523,0.002678,0.000431,0.000118
36428000,0.0324,0.013523,0.002678,0.000431,0.000353
36429000,0.0324,0.013523,0.002678,0.000431,0.000470
36430000,0.0324,0.013523,0.002678,0.000431,0.000353
36431000,0.0324,0.013523,0.002678,0.000431,0.000235
36432000,0.0324,0.013523,0.002678,0.000431,0.000353
36433000,0.0324,0.013523,0.002678,0.000431,0.000353
36434000,0.0324,0.013523,0.002678,0.000431,0.000235
36435000,0.0324,0.013523,0.002678,0.000431,0.000353
36436000,0.0324,0.013523,0.002678,0.000431,0.000470
36437000,0.0324,0.013523,0.002678,0.000431,0.000353
36438000,0.0324,0.013523,0.002678,0.000431,0.000235
36439000,0.0324,0.013523,0.002678,0.000431,0.000353
36440000,0.0324,0.013523,0.002678,0.000431,0.000353
36441000,0.0324,0.013523,0.002678,0.000431,0.000235
36442000,0.0324,0.013523,0.002678,0.000431,0.000353
36443000,0.0324,0.013523,0.002678,0.000431,0.000470
36444000,0.0324,0.013523,0.002678,0.000431,0.000353
36445000,0.0324,0.013523,0.002678,0.000431,0.000235
36446000,0.0324,0.013523,0.002678,0.000431,0.000353
36447000,0.0324,0.013523,0.002678,0.000431,0.000353
36448000,0.0324,0.013523,0.002678,0.000431,0.000235
36449000,0.0324,0.013523,0.002678,0.000431,0.000353
36450000,0.0324,0.013523,0.002678,0.000431,0.000470
36451000,0.0324,0.013523,0.002678,0.000431,0.000353
36452000,0.0324,0.013523,0.002678,0.000431,0.000118
36453000,0.0324,0.013523,0.002678,0.000431,0.000470
36454000,0.0324,0.013523,0.002678,0.000431,0.000353
36455000,0.0324,0.013523,0.002678,0.000431,0.000235
36456000,0.0324,0.013523,0.002678,0.000431,0.000353
36457000,0.0324,0.013523,0.002678,0.000431,0.000470
36458000,0.0324,0.013523,0.002678,0.000431,0.000235
36459000,0.0324,0.013523,0.002678,0.000431,0.000235
36460000,0.0324,0.013523,0.002678,0.000431,0.000470
36461000,0.0324,0.013523,0.002678,0.000431,0.000353
36462000,0.0324,0.013523,0.002678,0.000431,0.000235
36463000,0.0324,0.013523,0.002678,0.000431,0.000353
36464000,0.0324,0.013523,0.002678,0.000431,0.000470
36465000,0.0324,0.013523,0.002678,0.000431,0.000235
36466000,0.0324,0.013523,0.002678,0.000431,0.000235
36467000,0.0324,0.013523,0.002678,0.000431,0.000470
36468000,0.0324,0.013523,0.002678,0.000431,0.000353
36469000,0.0324,0.013523,0.002678,0.000431,0.000235
36470000,0.0324,0.013523,0.002678,0.000431,0.000353
36471000,0.0324,0.013523,0.002678,0.000431,0.000470
36472000,0.0324,0.013523,0.002678,0.000431,0.000118
36473000,0.0324,0.013523,0.002678,0.000431,0.000353
36474000,0.0324,0.013523,0.002678,0.000431,0.000470
36475000,0.0324,0.013523,0.002678,0.000431,0.000353
36476000,0.0324,0.013523,0.002678,0.000431,0.000235
36477000,0.0324,0.013523,0.002678,0.000431,0.000353
36478000,0.0324,0.013523,0.002678,0.000431,0.000353
36479000,0.0324,0.013523,0.002678,0.000431,0.000235
36480000,0.0324,0.013523,0.002678,0.000431,0.000353
36481000,0.0324,0.013523,0.002678,0.000431,0.000470
36482000,0.0324,0.013523,0.002678,0.000431,0.000353
36483000,0.0324,0.013523,0.002678,0.000431,0.000235
36484000,0.0324,0.013523,0.002678,0.000431,0.000353
36485000,0.0324,0.013523,0.002678,0.000431,0.000353
36486000,0.0324,0.013523,0.002678,0.000431,0.000235
36487000,0.0324,0.013523,0.002678,0.000431,0.000353
36488000,0.0324,0.013523,0.002678,0.000431,0.000470
36489000,0.0324,0.013523,0.002678,0.000431,0.000353
36490000,0.0324,0.013523,0.002678,0.000431,0.000235
36491000,0.0324,0.013523,0.002678,0.000431,0.000353
36492000,0.0324,0.013523,0.002678,0.000431,0.000353
36493000,0.0324,0.013523,0.002678,0.000431,0.000235
36494000,0.0324,0.013523,0.002678,0.000431,0.000353
36495000,0.0324,0.013523,0.002678,0.000431,0.000470
36496000,0.0324,0.013523,0.002678,0.000431,0.000353
36497000,0.0324,0.013523,0.002678,0.000431,0.000118
36498000,0.0324,0.013523,0.002678,0.000431,0.000470
36499000,0.0324,0.013523,0.002678,0.000431,0.000353
36500000,0.0324,0.013523,0.002678,0.000431,0.000235
36501000,0.0324,0.013523,0.002678,0.000431,0.000353
36502000,0.0324,0.013523,0.002678,0.000431,0.000470
36503000,0.0324,0.013523,0.002678,0.000431,0.000235
36504000,0.0324,0.013523,0.002678,0.000431,0.000235
36505000,0.0324,0.013523,0.002678,0.000431,0.000470
36506000,0.0324,0.013523,0.002678,0.000431,0.000353
36507000,0.0324,0.013523,0.002678,0.000431,0.000235
36508000,0.0324,0.013523,0.002678,0.000431,0.000353
36509000,0.0324,0.013523,0.002678,0.000431,0.000470
36510000,0.0324,0.013523,0.002678,0.000431,0.000118
36511000,0.0324,0.013523,0.002678,0.000431,0.000353
36512000,0.0324,0.013523,0.002678,0.000431,0.000470
36513000,0.0324,0.013523,0.002678,0.000431,0.000353
36514000,0.0324,0.013523,0.002678,0.000431,0.000235
36515000,0.0324,0.013523,0.002678,0.000431,0.000353
36516000,0.0324,0.013523,0.002678,0.000431,0.000470
36517000,0.0324,0.013523,0.002678,0.000431,0.000118
36518000,0.0324,0.013523,0.002678,0.000431,0.000353
36519000,0.0324,0.013523,0.002678,0.000431,0.000470
36520000,0.0324,0.013523,0.002678,0.000431,0.000353
36521000,0.0324,0.013523,0.002678,0.000431,0.000235
36522000,0.0324,0.013523,0.002678,0.000431,0.000353
36523000,0.0324,0.013523,0.002678,0.000431,0.000353
36524000,0.0324,0.013523,0.002678,0.000431,0.000235
36525000,0.0324,0.013523,0.002678,0.000431,0.000353
36526000,0.0324,0.013523,0.002678,0.000431,0.000470
36527000,0.0324,0.013523,0.002678,0.000431,0.000353
36528000,0.0324,0.013523,0.002678,0.000431,0.000235
36529000,0.0324,0.013523,0.002678,0.000431,0.000353
36530000,0.0324,0.013523,0.002678,0.000431,0.000353
36531000,0.0324,0.013523,0.002678,0.000431,0.000235
36532000,0.0324,0.013523,0.002678,0.000431,0.000353
36533000,0.0324,0.013523,0.002678,0.000431,0.000470
36534000,0.0324,0.013523,0.002678,0.000431,0.000353
36535000,0.0324,0.013523,0.002678,0.000431,0.000118
36536000,0.0324,0.013523,0.002678,0.000431,0.000470
36537000,0.0324,0.013523,0.002678,0.000431,0.000353
36538000,0.0324,0.013523,0.002678,0.000431,0.000235
36539000,0.0324,0.013523,0.002678,0.000431,0.000353
36540000,0.0324,0.013523,0.002678,0.000431,0.000470
36541000,0.0324,0.013523,0.002678,0.000431,0.000353
36542000,0.0324,0.013523,0.002678,0.000431,0.000118
36543000,0.0324,0.013523,0.002678,0.000431,0.000470
36544000,0.0324,0.013523,0.002678,0.000431,0.000353
36545000,0.0324,0.013523,0.002678,0.000431,0.000235
36546000,0.0324,0.013523,0.002678,0.000431,0.000353
36547000,0.0324,0.013523,0.002678,0.000431,0.000470
36548000,0.0324,0.013523,0.002678,0.000431,0.000353
36549000,0.0324,0.013523,0.002678,0.000431,0.000118
36550000,0.0324,0.013523,0.002678,0.000431,0.000470
36551000,0.0324,0.013523,0.002678,0.000431,0.000353
36552000,0.0324,0.013523,0.002678,0.000431,0.000235
36553000,0.0324,0.013523,0.002678,0.000431,0.000353
36554000,0.0324,0.013523,0.002678,0.000431,0.000470
36555000,0.0324,0.013523,0.002678,0.000431,0.000235
36556000,0.0324,0.013523,0.002678,0.000431,0.000235
36557000,0.0324,0.013523,0.002678,0.000431,0.000470
36558000,0.0324,0.013523,0.002678,0.000431,0.000353
36559000,0.0324,0.013523,0.002678,0.000431,0.000235
36560000,0.0324,0.013523,0.002678,0.000431,0.000353
36561000,0.0324,0.013523,0.002678,0.000431,0.000470
36562000,0.0324,0.013523,0.002678,0.000431,0.000235
36563000,0.0324,0.013523,0.002678,0.000431,0.000235
36564000,0.0324,0.013523,0.002678,0.000431,0.000470
36565000,0.0324,0.013523,0.002678,0.000431,0.000353
36566000,0.0324,0.013523,0.002678,0.000431,0.000235
36567000,0.0324,0.013523,0.002678,0.000431,0.000353
36568000,0.0324,0.013523,0.002678,0.000431,0.000470
36569000,0.0324,0.013523,0.002678,0.000431,0.000235
36570000,0.0324,0.013523,0.002678,0.000431,0.000235
36571000,0.0324,0.013523,0.002678,0.000431,0.000470
36572000,0.0324,0.013523,0.002678,0.000431,0.000353
36573000,0.0324,0.013523,0.002678,0.000431,0.000235
36574000,0.0324,0.013523,0.002678,0.000431,0.000353
36575000,0.0324,0.013523,0.002678,0.000431,0.000470
36576000,0.0324,0.013523,0.002678,0.000431,0.000118
36577000,0.0324,0.013523,0.002678,0.000431,0.000353
36578000,0.0324,0.013523,0.002678,0.000431,0.000470
36579000,0.0324,0.013523,0.002678,0.000431,0.000353
36580000,0.0324,0.013523,0.002678,0.000431,0.000235
36581000,0.0324,0.013523,0.002678,0.000431,0.000353
36582000,0.0324,0.013523,0.002678,0.000431,0.000470
36583000,0.0324,0.013523,0.002678,0.000431,0.000118
36584000,0.0324,0.013523,0.002678,0.000431,0.000353
36585000,0.0324,0.013523,0.002678,0.000431,0.000470
36586000,0.0324,0.013523,0.002678,0.000431,0.000353
36587000,0.0324,0.013523,0.002678,0.000431,0.000235
36588000,0.0324,0.013523,0.002678,0.000431,0.000353
36589000,0.0324,0.013523,0.002678,0.000431,0.000470
36590000,0.0324,0.013523,0.002678,0.000431,0.000118
36591000,0.0324,0.013523,0.002678,0.000431,0.000353
36592000,0.0324,0.013523,0.002678,0.000431,0.000470
36593000,0.0324,0.013523,0.002678,0.000431,0.000353
36594000,0.0324,0.013523,0.002678,0.000431,0.000235
36595000,0.0324,0.013523,0.002678,0.000431,0.000353
36596000,0.0324,0.013523,0.002678,0.000431,0.000353
36597000,0.0324,0.013523,0.002678,0.000431,0.000235
36598000,0.0324,0.013523,0.002678,0.000431,0.000353
36599000,0.0324,0.013523,0.002678,0.000431,0.000470
36600000,0.0324,0.013523,0.002678,0.000431,0.000353
36601000,0.0324,0.013523,0.002678,0.000431,0.000235
36602000,0.0324,0.013523,0.002678,0.000431,0.000353
36603000,0.0324,0.013523,0.002678,0.000431,0.000353
36604000,0.0324,0.013523,0.002678,0.000431,0.000235
36605000,0.0324,0.013523,0.002678,0.000431,0.000353
36606000,0.0324,0.013523,0.002678,0.000431,0.000470
36607000,0.0324,0.013523,0.002678,0.000431,0.000353
36608000,0.0324,0.013523,0.002678,0.000431,0.000235
36609000,0.0324,0.013523,0.002678,0.000431,0.000353
36610000,0.0324,0.013523,0.002678,0.000431,0.000353
36611000,0.0324,0.013523,0.002678,0.000431,0.000235
36612000,0.0324,0.013523,0.002678,0.000431,0.000353
36613000,0.0324,0.013523,0.002678,0.000431,0.000470
36614000,0.0324,0.013523,0.002678,0.000431,0.000353
36615000,0.0324,0.013523,0.002678,0.000431,0.000235
36616000,0.0324,0.013523,0.002678,0.000431,0.000353
36617000,0.0324,0.013523,0.002678,0.000431,0.000353
36618000,0.0324,0.013523,0.002678,0.000431,0.000235
36619000,0.0324,0.013523,0.002678,0.000431,0.000353
36620000,0.0324,0.013523,0.002678,0.000431,0.000470
36621000,0.0324,0.013523,0.002678,0.000431,0.000353
36622000,0.0324,0.013523,0.002678,0.000431,0.000235
36623000,0.0324,0.013523,0.002678,0.000431,0.000353
36624000,0.0324,0.013523,0.002678,0.000431,0.000353
36625000,0.0324,0.013523,0.002678,0.000431,0.000235
36626000,0.0324,0.013523,0.002678,0.000431,0.000353
36627000,0.0324,0.013523,0.002678,0.000431,0.000470
36628000,0.0324,0.013523,0.002678,0.000431,0.000353
36629000,0.0324,0.013523,0.002678,0.000431,0.000235
36630000,0.0324,0.013523,0.002678,0.000431,0.000353
36631000,0.0324,0.013523,0.002678,0.000431,0.000353
36632000,0.0324,0.013523,0.002678,0.000431,0.000235
36633000,0.0324,0.013523,0.002678,0.000431,0.000353
36634000,0.0324,0.013523,0.002678,0.000431,0.000470
36635000,0.0324,0.013523,0.002678,0.000431,0.000353
36636000,0.0324,0.013523,0.002678,0.000431,0.000235
36637000,0.0324,0.013523,0.002678,0.000431,0.000353
36638000,0.0324,0.013523,0.002678,0.000431,0.000353
36639000,0.0324,0.013523,0.002678,0.000431,0.000235
36640000,0.0324,0.013523,0.002678,0.000431,0.000353
36641000,0.0324,0.013523,0.002678,0.000431,0.000470
36642000,0.0324,0.013523,0.002678,0.000431,0.000353
36643000,0.0324,0.013523,0.002678,0.000431,0.000235
36644000,0.0324,0.013523,0.002678,0.000431,0.000353
36645000,0.0324,0.013523,0.002678,0.000431,0.000353
36646000,0.0324,0.013523,0.002678,0.000431,0.000235
36647000,0.0324,0.013523,0.002678,0.000431,0.000353
36648000,0.0324,0.013523,0.002678,0.000431,0.000470
36649000,0.0324,0.013523,0.002678,0.000431,0.000353
36650000,0.0324,0.013523,0.002678,0.000431,0.000118
36651000,0.0324,0.013523,0.002678,0.000431,0.000470
36652000,0.0324,0.013523,0.002678,0.000431,0.000353
36653000,0.0324,0.013523,0.002678,0.000431,0.000235
36654000,0.0324,0.013523,0.002678,0.000431,0.000353
36655000,0.0324,0.013523,0.002678,0.000431,0.000470
36656000,0.0324,0.013523,0.002678,0.000431,0.000353
36657000,0.0324,0.013523,0.002678,0.000431,0.000118
36658000,0.0324,0.013523,0.002678,0.000431,0.000470
36659000,0.0324,0.013523,0.002678,0.000431,0.000353
36660000,0.0324,0.013523,0.002678,0.000431,0.000235
36661000,0.0324,0.013523,0.002678,0.000431,0.000353
36662000,0.0324,0.013523,0.002678,0.000431,0.000470
36663000,0.0324,0.013523,0.002678,0.000431,0.000353
36664000,0.0324,0.013523,0.002678,0.000431,0.000118
36665000,0.0324,0.013523,0.002678,0.000431,0.000470
36666000,0.0324,0.013523,0.002678,0.000431,0.000353
36667000,0.0324,0.013523,0.002678,0.000431,0.000235
36668000,0.0324,0.013523,0.002678,0.000431,0.000353
36669000,0.0324,0.013523,0.002678,0.000431,0.000470
36670000,0.0324,0.013523,0.002678,0.000431,0.000235
36671000,0.0324,0.013523,0.002678,0.000431,0.000235
36672000,0.0324,0.013523,0.002678,0.000431,0.000470
36673000,0.0324,0.013523,0.002678,0.000431,0.000353
36674000,0.0324,0.013523,0.002678,0.000431,0.000235
36675000,0.0324,0.013523,0.002678,0.000431,0.000353
36676000,0.0324,0.013523,0.002678,0.000431,0.000470
36677000,0.0324,0.013523,0.002678,0.000431,0.000235
36678000,0.0324,0.013523,0.002678,0.000431,0.000235
36679000,0.0324,0.013523,0.002678,0.000431,0.000470
36680000,0.0324,0.013523,0.002678,0.000431,0.000353
36681000,0.0324,0.013523,0.002678,0.000431,0.000235
36682000,0.0324,0.013523,0.002678,0.000431,0.000353
36683000,0.0324,0.013523,0.002678,0.000431,0.000470
36684000,0.0324,0.013523,0.002678,0.000431,0.000235
36685000,0.0324,0.013523,0.002678,0.000431,0.000235
36686000,0.0324,0.013523,0.002678,0.000431,0.000470
36687000,0.0324,0.013523,0.002678,0.000431,0.000353
36688000,0.0324,0.013523,0.002678,0.000431,0.000235
36689000,0.0324,0.013523,0.002678,0.000431,0.000353
36690000,0.0324,0.013523,0.002678,0.000431,0.000470
36691000,0.0324,0.013523,0.002678,0.000431,0.000118
36692000,0.0324,0.013523,0.002678,0.000431,0.000353
36693000,0.0324,0.013523,0.002678,0.000431,0.000470
36694000,0.0324,0.013523,0.002678,0.000431,0.000353
36695000,0.0324,0.013523,0.002678,0.000431,0.000235
36696000,0.0324,0.013523,0.002678,0.000431,0.000353
36697000,0.0324,0.013523,0.002678,0.000431,0.000353
36698000,0.0324,0.013523,0.002678,0.000431,0.000235
36699000,0.0324,0.013523,0.002678,0.000431,0.000353
36700000,0.0324,0.013523,0.002678,0.000431,0.000470
36701000,0.0324,0.013523,0.002678,0.000431,0.000353
36702000,0.0324,0.013523,0.002678,0.000431,0.000235
36703000,0.0324,0.013523,0.002678,0.000431,0.000353
36704000,0.0324,0.013523,0.002678,0.000431,0.000353
36705000,0.0324,0.013523,0.002678,0.000431,0.000235
36706000,0.0324,0.013523,0.002678,0.000431,0.000353
36707000,0.0324,0.013523,0.002678,0.000431,0.000470
36708000,0.0324,0.013523,0.002678,0.000431,0.000353
36709000,0.0324,0.013523,0.002678,0.000431,0.000235
36710000,0.0324,0.013523,0.002678,0.000431,0.000353
36711000,0.0324,0.013523,0.002678,0.000431,0.000353
36712000,0.0324,0.013523,0.002678,0.000431,0.000235
36713000,0.0324,0.013523,0.002678,0.000431,0.000353
36714000,0.0324,0.013523,0.002678,0.000431,0.000470
36715000,0.0324,0.013523,0.002678,0.000431,0.000353
36716000,0.0324,0.013523,0.002678,0.000431,0.000118
36717000,0.0324,0.013523,0.002678,0.000431,0.000470
36718000,0.0324,0.013523,0.002678,0.000431,0.000353
36719000,0.0324,0.013523,0.002678,0.000431,0.000235
36720000,0.0324,0.013523,0.002678,0.000431,0.000353
36721000,0.0324,0.013523,0.002678,0.000431,0.000470
36722000,0.0324,0.013523,0.002678,0.000431,0.000235
36723000,0.0324,0.013523,0.002678,0.000431,0.000235
36724000,0.0324,0.013523,0.002678,0.000431,0.000470
36725000,0.0324,0.013523,0.002678,0.000431,0.000353
36726000,0.0324,0.013523,0.002678,0.000431,0.000235
36727000,0.0324,0.013523,0.002678,0.000431,0.000353
36728000,0.0324,0.013523,0.002678,0.000431,0.000470
36729000,0.0324,0.013523,0.002678,0.000431,0.000235
36730000,0.0324,0.013523,0.002678,0.000431,0.000235
36731000,0.0324,0.013523,0.002678,0.000431,0.000470
36732000,0.0324,0.013523,0.002678,0.000431,0.000353
36733000,0.0324,0.013523,0.002678,0.000431,0.000235
36734000,0.0324,0.013523,0.002678,0.000431,0.000353
36735000,0.0324,0.013523,0.002678,0.000431,0.000470
36736000,0.0324,0.013523,0.002678,0.000431,0.000118
36737000,0.0324,0.013523,0.002678,0.000431,0.000353
36738000,0.0324,0.013523,0.002678,0.000431,0.000470
36739000,0.0324,0.013523,0.002678,0.000431,0.000353
36740000,0.0324,0.013523,0.002678,0.000431,0.000235
36741000,0.0324,0.013523,0.002678,0.000431,0.000353
36742000,0.0324,0.013523,0.002678,0.000431,0.000353
36743000,0.0324,0.013523,0.002678,0.000431,0.000235
36744000,0.0324,0.013523,0.002678,0.000431,0.000353
36745000,0.0324,0.013523,0.002678,0.000431,0.000470
36746000,0.0324,0.013523,0.002678,0.000431,0.000353
36747000,0.0324,0.013523,0.002678,0.000431,0.000235
36748000,0.0324,0.013523,0.002678,0.000431,0.000353
36749000,0.0324,0.013523,0.002678,0.000431,0.000353
36750000,0.0324,0.013523,0.002678,0.000431,0.000235
36751000,0.0324,0.013523,0.002678,0.000431,0.000353
36752000,0.0324,0.013523,0.002678,0.000431,0.000470
36753000,0.0324,0.013523,0.002678,0.000431,0.000353
36754000,0.0324,0.013523,0.002678,0.000431,0.000235
36755000,0.0324,0.013523,0.002678,0.000431,0.000353
36756000,0.0324,0.013523,0.002678,0.000431,0.000353
36757000,0.0324,0.013523,0.002678,0.000431,0.000235
36758000,0.0324,0.013523,0.002678,0.000431,0.000353
36759000,0.0324,0.013523,0.002678,0.000431,0.000470
36760000,0.0324,0.013523,0.002678,0.000431,0.000235
36761000,0.0324,0.013523,0.002678,0.000431,0.000235
36762000,0.0324,0.013523,0.002678,0.000431,0.000470
36763000,0.0324,0.013523,0.002678,0.000431,0.000353
36764000,0.0324,0.013523,0.002678,0.000431,0.000235
36765000,0.0324,0.013523,0.002678,0.000431,0.000353
36766000,0.0324,0.013523,0.002678,0.000431,0.000470
36767000,0.0324,0.013523,0.002678,0.000431,0.000235
36768000,0.0324,0.013523,0.002678,0.000431,0.000235
36769000,0.0324,0.013523,0.002678,0.000431,0.000470
36770000,0.0324,0.013523,0.002678,0.000431,0.000353
36771000,0.0324,0.013523,0.002678,0.000431,0.000235
36772000,0.0324,0.013523,0.002678,0.000431,0.000353
36773000,0.0324,0.013523,0.002678,0.000431,0.000470
36774000,0.0324,0.013523,0.002678,0.000431,0.000118
36775000,0.0324,0.013523,0.002678,0.000431,0.000353
36776000,0.0324,0.013523,0.002678,0.000431,0.000470
36777000,0.0324,0.013523,0.002678,0.000431,0.000353
36778000,0.0324,0.013523,0.002678,0.000431,0.000235
36779000,0.0324,0.013523,0.002678,0.000431,0.000353
36780000,0.0324,0.013523,0.002678,0.000431,0.000470
36781000,0.0324,0.013523,0.002678,0.000431,0.000118
36782000,0.0324,0.013523,0.002678,0.000431,0.000353
36783000,0.0324,0.013523,0.002678,0.000431,0.000470
36784000,0.0324,0.013523,0.002678,0.000431,0.000353
36785000,0.0324,0.013523,0.002678,0.000431,0.000235
36786000,0.0324,0.013523,0.002678,0.000431,0.000353
36787000,0.0324,0.013523,0.002678,0.000431,0.000353
36788000,0.0324,0.013523,0.002678,0.000431,0.000235
36789000,0.0324,0.013523,0.002678,0.000431,0.000353
36790000,0.0324,0.013523,0.002678,0.000431,0.000470
36791000,0.0324,0.013523,0.002678,0.000431,0.000353
36792000,0.0324,0.013523,0.002678,0.000431,0.000235
36793000,0.0324,0.013523,0.002678,0.000431,0.000353
36794000,0.0324,0.013523,0.002678,0.000431,0.000353
36795000,0.0324,0.013523,0.002678,0.000431,0.000235
36796000,0.0324,0.013523,0.002678,0.000431,0.000353
36797000,0.0324,0.013523,0.002678,0.000431,0.000470
36798000,0.0324,0.013523,0.002678,0.000431,0.000353
36799000,0.0324,0.013523,0.002678,0.000431,0.000118
36800000,0.0324,0.013523,0.002678,0.000431,0.000470
36801000,0.0324,0.013523,0.002678,0.000431,0.000353
36802000,0.0324,0.013523,0.002678,0.000431,0.000235
36803000,0.0324,0.013523,0.002678,0.000431,0.000353
36804000,0.0324,0.013523,0.002678,0.000431,0.000470
36805000,0.0324,0.013523,0.002678,0.000431,0.000235
36806000,0.0324,0.013523,0.002678,0.000431,0.000235
36807000,0.0324,0.013523,0.002678,0.000431,0.000470
36808000,0.0324,0.013523,0.002678,0.000431,0.000353
36809000,0.0324,0.013523,0.002678,0.000431,0.000235
36810000,0.0324,0.013523,0.002678,0.000431,0.000353
36811000,0.0324,0.013523,0.002678,0.000431,0.000470
36812000,0.0324,0.013523,0.002678,0.000431,0.000235
36813000,0.0324,0.013523,0.002678,0.000431,0.000235
36814000,0.0324,0.013523,0.002678,0.000431,0.000470
36815000,0.0324,0.013523,0.002678,0.000431,0.000353
36816000,0.0324,0.013523,0.002678,0.000431,0.000235
36817000,0.0324,0.013523,0.002678,0.000431,0.000353
36818000,0.0324,0.013523,0.002678,0.000431,0.000470
36819000,0.0324,0.013523,0.002678,0.000431,0.000235
36820000,0.0324,0.013523,0.002678,0.000431,0.000235
36821000,0.0324,0.013523,0.002678,0.000431,0.000470
36822000,0.0324,0.013523,0.002678,0.000431,0.000353
36823000,0.0324,0.013523,0.002678,0.000431,0.000235
36824000,0.0324,0.013523,0.002678,0.000431,0.000353
36825000,0.0324,0.013523,0.002678,0.000431,0.000470
36826000,0.0324,0.013523,0.002678,0.000431,0.000118
36827000,0.0324,0.013523,0.002678,0.000431,0.000353
36828000,0.0324,0.013523,0.002678,0.000431,0.000470
36829000,0.0324,0.013523,0.002678,0.000431,0.000353
36830000,0.0324,0.013523,0.002678,0.000431,0.000235
36831000,0.0324,0.013523,0.002678,0.000431,0.000353
36832000,0.0324,0.013523,0.002678,0.000431,0.000470
36833000,0.0324,0.013523,0.002678,0.000431,0.000118
36834000,0.0324,0.013523,0.002678,0.000431,0.000353
36835000,0.0324,0.013523,0.002678,0.000431,0.000470
36836000,0.0324,0.013523,0.002678,0.000431,0.000353
36837000,0.0324,0.013523,0.002678,0.000431,0.000235
36838000,0.0324,0.013523,0.002678,0.000431,0.000353
36839000,0.0324,0.013523,0.002678,0.000431,0.000470
36840000,0.0324,0.013523,0.002678,0.000431,0.000118
36841000,0.0324,0.013523,0.002678,0.000431,0.000353
36842000,0.0324,0.013523,0.002678,0.000431,0.000470
36843000,0.0324,0.013523,0.002678,0.000431,0.000353
36844000,0.0324,0.013523,0.002678,0.000431,0.000235
36845000,0.0324,0.013523,0.002678,0.000431,0.000353
36846000,0.0324,0.013523,0.002678,0.000431,0.000353
36847000,0.0324,0.013523,0.002678,0.000431,0.000235
36848000,0.0324,0.013523,0.002678,0.000431,0.000353
36849000,0.0324,0.013523,0.002678,0.000431,0.000470
36850000,0.0324,0.013523,0.002678,0.000431,0.000353
36851000,0.0324,0.013523,0.002678,0.000431,0.000235
36852000,0.0324,0.013523,0.002678,0.000431,0.000353
36853000,0.0324,0.013523,0.002678,0.000431,0.000353
36854000,0.0324,0.013523,0.002678,0.000431,0.000235
36855000,0.0324,0.013523,0.002678,0.000431,0.000353
36856000,0.0324,0.013523,0.002678,0.000431,0.000470
36857000,0.0324,0.013523,0.002678,0.000431,0.000353
36858000,0.0324,0.013523,0.002678,0.000431,0.000235
36859000,0.0324,0.013523,0.002678,0.000431,0.000353
36860000,0.0324,0.013523,0.002678,0.000431,0.000353
36861000,0.0324,0.013523,0.002678,0.000431,0.000235
36862000,0.0324,0.013523,0.002678,0.000431,0.000353
36863000,0.0324,0.013523,0.002678,0.000431,0.000470
36864000,0.0324,0.013523,0.002678,0.000431,0.000353
36865000,0.0324,0.013523,0.002678,0.000431,0.000235
36866000,0.0324,0.013523,0.002678,0.000431,0.000353
36867000,0.0324,0.013523,0.002678,0.000431,0.000353
36868000,0.0324,0.013523,0.002678,0.000431,0.000235
36869000,0.0324,0.013523,0.002678,0.000431,0.000353
36870000,0.0324,0.013523,0.002678,0.000431,0.000470
36871000,0.0324,0.013523,0.002678,0.000431,0.000353
36872000,0.0324,0.013523,0.002678,0.000431,0.000235
36873000,0.0324,0.013523,0.002678,0.000431,0.000353
36874000,0.0324,0.013523,0.002678,0.000431,0.000353
36875000,0.0324,0.013523,0.002678,0.000431,0.000235
36876000,0.0324,0.013523,0.002678,0.000431,0.000353
36877000,0.0324,0.013523,0.002678,0.000431,0.000470
36878000,0.0324,0.013523,0.002678,0.000431,0.000353
36879000,0.0324,0.013523,0.002678,0.000431,0.000235
36880000,0.0324,0.013523,0.002678,0.000431,0.000353
36881000,0.0324,0.013523,0.002678,0.000431,0.000353
36882000,0.0324,0.013523,0.002678,0.000431,0.000235
36883000,0.0324,0.013523,0.002678,0.000431,0.000353
36884000,0.0324,0.013523,0.002678,0.000431,0.000470
36885000,0.0324,0.013523,0.002678,0.000431,0.000353
36886000,0.0324,0.013523,0.002678,0.000431,0.000235
36887000,0.0324,0.013523,0.002678,0.000431,0.000353
36888000,0.0324,0.013523,0.002678,0.000431,0.000353
36889000,0.0324,0.013523,0.002678,0.000431,0.000235
36890000,0.0324,0.013523,0.002678,0.000431,0.000353
36891000,0.0324,0.013523,0.002678,0.000431,0.000470
36892000,0.0324,0.013523,0.002678,0.000431,0.000353
36893000,0.0324,0.013523,0.002678,0.000431,0.000235
36894000,0.0324,0.013523,0.002678,0.000431,0.000353
36895000,0.0324,0.013523,0.002678,0.000431,0.000353
36896000,0.0324,0.013523,0.002678,0.000431,0.000235
36897000,0.0324,0.013523,0.002678,0.000431,0.000353
36898000,0.0324,0.013523,0.002678,0.000431,0.000470
36899000,0.0324,0.013523,0.002678,0.000431,0.000353
36900000,0.0324,0.013523,0.002678,0.000431,0.000118
36901000,0.0324,0.013523,0.002678,0.000431,0.000470
36902000,0.0324,0.013523,0.002678,0.000431,0.000353
36903000,0.0324,0.013523,0.002678,0.000431,0.000235
36904000,0.0324,0.013523,0.002678,0.000431,0.000353
36905000,0.0324,0.013523,0.002678,0.000431,0.000470
36906000,0.0324,0.013523,0.002678,0.000431,0.000353
36907000,0.0324,0.013523,0.002678,0.000431,0.000118
36908000,0.0324,0.013523,0.002678,0.000431,0.000470
36909000,0.0324,0.013523,0.002678,0.000431,0.000353
36910000,0.0324,0.013523,0.002678,0.000431,0.000235
36911000,0.0324,0.013523,0.002678,0.000431,0.000353
36912000,0.0324,0.013523,0.002678,0.000431,0.000470
36913000,0.0324,0.013523,0.002678,0.000431,0.000353
36914000,0.0324,0.013523,0.002678,0.000431,0.000118
36915000,0.0324,0.013523,0.002678,0.000431,0.000470
36916000,0.0324,0.013523,0.002678,0.000431,0.000353
36917000,0.0324,0.013523,0.002678,0.000431,0.000235
36918000,0.0324,0.013523,0.002678,0.000431,0.000353
36919000,0.0324,0.013523,0.002678,0.000431,0.000470
36920000,0.0324,0.013523,0.002678,0.000431,0.000235
36921000,0.0324,0.013523,0.002678,0.000431,0.000235
36922000,0.0324,0.013523,0.002678,0.000431,0.000470
36923000,0.0324,0.013523,0.002678,0.000431,0.000353
36924000,0.0324,0.013523,0.002678,0.000431,0.000235
36925000,0.0324,0.013523,0.002678,0.000431,0.000353
36926000,0.0324,0.013523,0.002678,0.000431,0.000470
36927000,0.0324,0.013523,0.002678,0.000431,0.000235
36928000,0.0324,0.013523,0.002678,0.000431,0.000235
36929000,0.0324,0.013523,0.002678,0.000431,0.000470
36930000,0.0324,0.013523,0.002678,0.000431,0.000353
36931000,0.0324,0.013523,0.002678,0.000431,0.000235
36932000,0.0324,0.013523,0.002678,0.000431,0.000353
36933000,0.0324,0.013523,0.002678,0.000431,0.000470
36934000,0.0324,0.013523,0.002678,0.000431,0.000235
36935000,0.0324,0.013523,0.002678,0.000431,0.000235
36936000,0.0324,0.013523,0.002678,0.000431,0.000470
36937000,0.0324,0.013523,0.002678,0.000431,0.000353
36938000,0.0324,0.013523,0.002678,0.000431,0.000235
36939000,0.0324,0.013523,0.002678,0.000431,0.000353
36940000,0.0324,0.013523,0.002678,0.000431,0.000470
36941000,0.0324,0.013523,0.002678,0.000431,0.000235
36942000,0.0324,0.013523,0.002678,0.000431,0.000235
36943000,0.0324,0.013523,0.002678,0.000431,0.000470
36944000,0.0324,0.013523,0.002678,0.000431,0.000353
36945000,0.0324,0.013523,0.002678,0.000431,0.000235
36946000,0.0324,0.013523,0.002678,0.000431,0.000353
36947000,0.0324,0.013523,0.002678,0.000431,0.000470
36948000,0.0324,0.013523,0.002678,0.000431,0.000235
36949000,0.0324,0.013523,0.002678,0.000431,0.000235
36950000,0.0324,0.013523,0.002678,0.000431,0.000470
36951000,0.0324,0.013523,0.002678,0.000431,0.000353
36952000,0.0324,0.013523,0.002678,0.000431,0.000235
36953000,0.0324,0.013523,0.002678,0.000431,0.000353
36954000,0.0324,0.013523,0.002678,0.000431,0.000470
36955000,0.0324,0.013523,0.002678,0.000431,0.000235
36956000,0.0324,0.013523,0.002678,0.000431,0.000235
36957000,0.0324,0.013523,0.002678,0.000431,0.000470
36958000,0.0324,0.013523,0.002678,0.000431,0.000353
36959000,0.0324,0.013523,0.002678,0.000431,0.000235
36960000,0.0324,0.013523,0.002678,0.000431,0.000353
36961000,0.0324,0.013523,0.002678,0.000431,0.000470
36962000,0.0324,0.013523,0.002678,0.000431,0.000118
36963000,0.0324,0.013523,0.002678,0.000431,0.000353
36964000,0.0324,0.013523,0.002678,0.000431,0.000470
36965000,0.0324,0.013523,0.002678,0.000431,0.000353
36966000,0.0324,0.013523,0.002678,0.000431,0.000235
36967000,0.0324,0.013523,0.002678,0.000431,0.000353
36968000,0.0324,0.013523,0.002678,0.000431,0.000470
36969000,0.0324,0.013523,0.002678,0.000431,0.000118
36970000,0.0324,0.013523,0.002678,0.000431,0.000353
36971000,0.0324,0.013523,0.002678,0.000431,0.000470
36972000,0.0324,0.013523,0.002678,0.000431,0.000353
36973000,0.0324,0.013523,0.002678,0.000431,0.000235
36974000,0.0324,0.013523,0.002678,0.000431,0.000353
36975000,0.0324,0.013523,0.002678,0.000431,0.000470
36976000,0.0324,0.013523,0.002678,0.000431,0.000118
36977000,0.0324,0.013523,0.002678,0.000431,0.000353
36978000,0.0324,0.013523,0.002678,0.000431,0.000470
36979000,0.0324,0.013523,0.002678,0.000431,0.000353
36980000,0.0324,0.013523,0.002678,0.000431,0.000235
36981000,0.0324,0.013523,0.002678,0.000431,0.000353
36982000,0.0324,0.013523,0.002678,0.000431,0.000470
36983000,0.0324,0.013523,0.002678,0.000431,0.000118
36984000,0.0324,0.013523,0.002678,0.000431,0.000353
36985000,0.0324,0.013523,0.002678,0.000431,0.000470
36986000,0.0324,0.013523,0.002678,0.000431,0.000353
36987000,0.0324,0.013523,0.002678,0.000431,0.000235
36988000,0.0324,0.013523,0.002678,0.000431,0.000353
36989000,0.0324,0.013523,0.002678,0.000431,0.000353
36990000,0.0324,0.013523,0.002678,0.000431,0.000235
36991000,0.0324,0.013523,0.002678,0.000431,0.000353
36992000,0.0324,0.013523,0.002678,0.000431,0.000470
36993000,0.0324,0.013523,0.002678,0.000431,0.000353
36994000,0.0324,0.013523,0.002678,0.000431,0.000235
36995000,0.0324,0.013523,0.002678,0.000431,0.000353
36996000,0.0324,0.013523,0.002678,0.000431,0.000353
36997000,0.0324,0.013523,0.002678,0.000431,0.000235
36998000,0.0324,0.013523,0.002678,0.000431,0.000353
36999000,0.0324,0.013523,0.002678,0.000431,0.000470
