Cycle,Area(mm^2),PeakDynamic(W),SubthresholdLeakage(W),GateLeakage(W),RunTimeDynamic(W)
27000000,0.0324,0.013523,0.002678,0.000431,0.000353
27001000,0.0324,0.013523,0.002678,0.000431,0.000470
27002000,0.0324,0.013523,0.002678,0.000431,0.000353
27003000,0.0324,0.013523,0.002678,0.000431,0.000118
27004000,0.0324,0.013523,0.002678,0.000431,0.000470
27005000,0.0324,0.013523,0.002678,0.000431,0.000353
27006000,0.0324,0.013523,0.002678,0.000431,0.000235
27007000,0.0324,0.013523,0.002678,0.000431,0.000353
27008000,0.0324,0.013523,0.002678,0.000431,0.000470
27009000,0.0324,0.013523,0.002678,0.000431,0.000353
27010000,0.0324,0.013523,0.002678,0.000431,0.000118
27011000,0.0324,0.013523,0.002678,0.000431,0.000470
27012000,0.0324,0.013523,0.002678,0.000431,0.000353
27013000,0.0324,0.013523,0.002678,0.000431,0.000235
27014000,0.0324,0.013523,0.002678,0.000431,0.000353
27015000,0.0324,0.013523,0.002678,0.000431,0.000470
27016000,0.0324,0.013523,0.002678,0.000431,0.000353
27017000,0.0324,0.013523,0.002678,0.000431,0.000118
27018000,0.0324,0.013523,0.002678,0.000431,0.000470
27019000,0.0324,0.013523,0.002678,0.000431,0.000353
27020000,0.0324,0.013523,0.002678,0.000431,0.000235
27021000,0.0324,0.013523,0.002678,0.000431,0.000353
27022000,0.0324,0.013523,0.002678,0.000431,0.000470
27023000,0.0324,0.013523,0.002678,0.000431,0.000235
27024000,0.0324,0.013523,0.002678,0.000431,0.000235
27025000,0.0324,0.013523,0.002678,0.000431,0.000470
27026000,0.0324,0.013523,0.002678,0.000431,0.000353
27027000,0.0324,0.013523,0.002678,0.000431,0.000235
27028000,0.0324,0.013523,0.002678,0.000431,0.000353
27029000,0.0324,0.013523,0.002678,0.000431,0.000470
27030000,0.0324,0.013523,0.002678,0.000431,0.000235
27031000,0.0324,0.013523,0.002678,0.000431,0.000235
27032000,0.0324,0.013523,0.002678,0.000431,0.000470
27033000,0.0324,0.013523,0.002678,0.000431,0.000353
27034000,0.0324,0.013523,0.002678,0.000431,0.000235
27035000,0.0324,0.013523,0.002678,0.000431,0.000353
27036000,0.0324,0.013523,0.002678,0.000431,0.000470
27037000,0.0324,0.013523,0.002678,0.000431,0.000235
27038000,0.0324,0.013523,0.002678,0.000431,0.000235
27039000,0.0324,0.013523,0.002678,0.000431,0.000470
27040000,0.0324,0.013523,0.002678,0.000431,0.000353
27041000,0.0324,0.013523,0.002678,0.000431,0.000235
27042000,0.0324,0.013523,0.002678,0.000431,0.000353
27043000,0.0324,0.013523,0.002678,0.000431,0.000470
27044000,0.0324,0.013523,0.002678,0.000431,0.000235
27045000,0.0324,0.013523,0.002678,0.000431,0.000235
27046000,0.0324,0.013523,0.002678,0.000431,0.000470
27047000,0.0324,0.013523,0.002678,0.000431,0.000353
27048000,0.0324,0.013523,0.002678,0.000431,0.000235
27049000,0.0324,0.013523,0.002678,0.000431,0.000353
27050000,0.0324,0.013523,0.002678,0.000431,0.000470
27051000,0.0324,0.013523,0.002678,0.000431,0.000235
27052000,0.0324,0.013523,0.002678,0.000431,0.000235
27053000,0.0324,0.013523,0.002678,0.000431,0.000470
27054000,0.0324,0.013523,0.002678,0.000431,0.000353
27055000,0.0324,0.013523,0.002678,0.000431,0.000235
27056000,0.0324,0.013523,0.002678,0.000431,0.000353
27057000,0.0324,0.013523,0.002678,0.000431,0.000470
27058000,0.0324,0.013523,0.002678,0.000431,0.000235
27059000,0.0324,0.013523,0.002678,0.000431,0.000235
27060000,0.0324,0.013523,0.002678,0.000431,0.000470
27061000,0.0324,0.013523,0.002678,0.000431,0.000353
27062000,0.0324,0.013523,0.002678,0.000431,0.000235
27063000,0.0324,0.013523,0.002678,0.000431,0.000353
27064000,0.0324,0.013523,0.002678,0.000431,0.000470
27065000,0.0324,0.013523,0.002678,0.000431,0.000118
27066000,0.0324,0.013523,0.002678,0.000431,0.000353
27067000,0.0324,0.013523,0.002678,0.000431,0.000470
27068000,0.0324,0.013523,0.002678,0.000431,0.000353
27069000,0.0324,0.013523,0.002678,0.000431,0.000235
27070000,0.0324,0.013523,0.002678,0.000431,0.000353
27071000,0.0324,0.013523,0.002678,0.000431,0.000470
27072000,0.0324,0.013523,0.002678,0.000431,0.000118
27073000,0.0324,0.013523,0.002678,0.000431,0.000353
27074000,0.0324,0.013523,0.002678,0.000431,0.000470
27075000,0.0324,0.013523,0.002678,0.000431,0.000353
27076000,0.0324,0.013523,0.002678,0.000431,0.000235
27077000,0.0324,0.013523,0.002678,0.000431,0.000353
27078000,0.0324,0.013523,0.002678,0.000431,0.000470
27079000,0.0324,0.013523,0.002678,0.000431,0.000118
27080000,0.0324,0.013523,0.002678,0.000431,0.000353
27081000,0.0324,0.013523,0.002678,0.000431,0.000470
27082000,0.0324,0.013523,0.002678,0.000431,0.000353
27083000,0.0324,0.013523,0.002678,0.000431,0.000235
27084000,0.0324,0.013523,0.002678,0.000431,0.000353
27085000,0.0324,0.013523,0.002678,0.000431,0.000353
27086000,0.0324,0.013523,0.002678,0.000431,0.000235
27087000,0.0324,0.013523,0.002678,0.000431,0.000353
27088000,0.0324,0.013523,0.002678,0.000431,0.000470
27089000,0.0324,0.013523,0.002678,0.000431,0.000353
27090000,0.0324,0.013523,0.002678,0.000431,0.000235
27091000,0.0324,0.013523,0.002678,0.000431,0.000353
27092000,0.0324,0.013523,0.002678,0.000431,0.000353
27093000,0.0324,0.013523,0.002678,0.000431,0.000235
27094000,0.0324,0.013523,0.002678,0.000431,0.000353
27095000,0.0324,0.013523,0.002678,0.000431,0.000470
27096000,0.0324,0.013523,0.002678,0.000431,0.000353
27097000,0.0324,0.013523,0.002678,0.000431,0.000235
27098000,0.0324,0.013523,0.002678,0.000431,0.000353
27099000,0.0324,0.013523,0.002678,0.000431,0.000353
27100000,0.0324,0.013523,0.002678,0.000431,0.000235
27101000,0.0324,0.013523,0.002678,0.000431,0.000353
27102000,0.0324,0.013523,0.002678,0.000431,0.000470
27103000,0.0324,0.013523,0.002678,0.000431,0.000353
27104000,0.0324,0.013523,0.002678,0.000431,0.000235
27105000,0.0324,0.013523,0.002678,0.000431,0.000353
27106000,0.0324,0.013523,0.002678,0.000431,0.000353
27107000,0.0324,0.013523,0.002678,0.000431,0.000235
27108000,0.0324,0.013523,0.002678,0.000431,0.000353
27109000,0.0324,0.013523,0.002678,0.000431,0.000470
27110000,0.0324,0.013523,0.002678,0.000431,0.000353
27111000,0.0324,0.013523,0.002678,0.000431,0.000235
27112000,0.0324,0.013523,0.002678,0.000431,0.000353
27113000,0.0324,0.013523,0.002678,0.000431,0.000353
27114000,0.0324,0.013523,0.002678,0.000431,0.000235
27115000,0.0324,0.013523,0.002678,0.000431,0.000353
27116000,0.0324,0.013523,0.002678,0.000431,0.000470
27117000,0.0324,0.013523,0.002678,0.000431,0.000353
27118000,0.0324,0.013523,0.002678,0.000431,0.000235
27119000,0.0324,0.013523,0.002678,0.000431,0.000353
27120000,0.0324,0.013523,0.002678,0.000431,0.000353
27121000,0.0324,0.013523,0.002678,0.000431,0.000235
27122000,0.0324,0.013523,0.002678,0.000431,0.000353
27123000,0.0324,0.013523,0.002678,0.000431,0.000470
27124000,0.0324,0.013523,0.002678,0.000431,0.000353
27125000,0.0324,0.013523,0.002678,0.000431,0.000235
27126000,0.0324,0.013523,0.002678,0.000431,0.000353
27127000,0.0324,0.013523,0.002678,0.000431,0.000353
27128000,0.0324,0.013523,0.002678,0.000431,0.000235
27129000,0.0324,0.013523,0.002678,0.000431,0.000353
27130000,0.0324,0.013523,0.002678,0.000431,0.000470
27131000,0.0324,0.013523,0.002678,0.000431,0.000353
27132000,0.0324,0.013523,0.002678,0.000431,0.000235
27133000,0.0324,0.013523,0.002678,0.000431,0.000353
27134000,0.0324,0.013523,0.002678,0.000431,0.000353
27135000,0.0324,0.013523,0.002678,0.000431,0.000235
27136000,0.0324,0.013523,0.002678,0.000431,0.000353
27137000,0.0324,0.013523,0.002678,0.000431,0.000470
27138000,0.0324,0.013523,0.002678,0.000431,0.000353
27139000,0.0324,0.013523,0.002678,0.000431,0.000118
27140000,0.0324,0.013523,0.002678,0.000431,0.000470
27141000,0.0324,0.013523,0.002678,0.000431,0.000353
27142000,0.0324,0.013523,0.002678,0.000431,0.000235
27143000,0.0324,0.013523,0.002678,0.000431,0.000353
27144000,0.0324,0.013523,0.002678,0.000431,0.000470
27145000,0.0324,0.013523,0.002678,0.000431,0.000353
27146000,0.0324,0.013523,0.002678,0.000431,0.000118
27147000,0.0324,0.013523,0.002678,0.000431,0.000470
27148000,0.0324,0.013523,0.002678,0.000431,0.000353
27149000,0.0324,0.013523,0.002678,0.000431,0.000235
27150000,0.0324,0.013523,0.002678,0.000431,0.000353
27151000,0.0324,0.013523,0.002678,0.000431,0.000470
27152000,0.0324,0.013523,0.002678,0.000431,0.000353
27153000,0.0324,0.013523,0.002678,0.000431,0.000118
27154000,0.0324,0.013523,0.002678,0.000431,0.000470
27155000,0.0324,0.013523,0.002678,0.000431,0.000353
27156000,0.0324,0.013523,0.002678,0.000431,0.000235
27157000,0.0324,0.013523,0.002678,0.000431,0.000353
27158000,0.0324,0.013523,0.002678,0.000431,0.000470
27159000,0.0324,0.013523,0.002678,0.000431,0.000235
27160000,0.0324,0.013523,0.002678,0.000431,0.000235
27161000,0.0324,0.013523,0.002678,0.000431,0.000470
27162000,0.0324,0.013523,0.002678,0.000431,0.000353
27163000,0.0324,0.013523,0.002678,0.000431,0.000235
27164000,0.0324,0.013523,0.002678,0.000431,0.000353
27165000,0.0324,0.013523,0.002678,0.000431,0.000470
27166000,0.0324,0.013523,0.002678,0.000431,0.000235
27167000,0.0324,0.013523,0.002678,0.000431,0.000235
27168000,0.0324,0.013523,0.002678,0.000431,0.000470
27169000,0.0324,0.013523,0.002678,0.000431,0.000353
27170000,0.0324,0.013523,0.002678,0.000431,0.000235
27171000,0.0324,0.013523,0.002678,0.000431,0.000353
27172000,0.0324,0.013523,0.002678,0.000431,0.000470
27173000,0.0324,0.013523,0.002678,0.000431,0.000235
27174000,0.0324,0.013523,0.002678,0.000431,0.000235
27175000,0.0324,0.013523,0.002678,0.000431,0.000470
27176000,0.0324,0.013523,0.002678,0.000431,0.000353
27177000,0.0324,0.013523,0.002678,0.000431,0.000235
27178000,0.0324,0.013523,0.002678,0.000431,0.000353
27179000,0.0324,0.013523,0.002678,0.000431,0.000470
27180000,0.0324,0.013523,0.002678,0.000431,0.000235
27181000,0.0324,0.013523,0.002678,0.000431,0.000235
27182000,0.0324,0.013523,0.002678,0.000431,0.000470
27183000,0.0324,0.013523,0.002678,0.000431,0.000353
27184000,0.0324,0.013523,0.002678,0.000431,0.000235
27185000,0.0324,0.013523,0.002678,0.000431,0.000353
27186000,0.0324,0.013523,0.002678,0.000431,0.000470
27187000,0.0324,0.013523,0.002678,0.000431,0.000235
27188000,0.0324,0.013523,0.002678,0.000431,0.000235
27189000,0.0324,0.013523,0.002678,0.000431,0.000470
27190000,0.0324,0.013523,0.002678,0.000431,0.000353
27191000,0.0324,0.013523,0.002678,0.000431,0.000235
27192000,0.0324,0.013523,0.002678,0.000431,0.000353
27193000,0.0324,0.013523,0.002678,0.000431,0.000470
27194000,0.0324,0.013523,0.002678,0.000431,0.000235
27195000,0.0324,0.013523,0.002678,0.000431,0.000235
27196000,0.0324,0.013523,0.002678,0.000431,0.000470
27197000,0.0324,0.013523,0.002678,0.000431,0.000353
27198000,0.0324,0.013523,0.002678,0.000431,0.000235
27199000,0.0324,0.013523,0.002678,0.000431,0.000353
27200000,0.0324,0.013523,0.002678,0.000431,0.000470
27201000,0.0324,0.013523,0.002678,0.000431,0.000118
27202000,0.0324,0.013523,0.002678,0.000431,0.000353
27203000,0.0324,0.013523,0.002678,0.000431,0.000470
27204000,0.0324,0.013523,0.002678,0.000431,0.000353
27205000,0.0324,0.013523,0.002678,0.000431,0.000235
27206000,0.0324,0.013523,0.002678,0.000431,0.000353
27207000,0.0324,0.013523,0.002678,0.000431,0.000470
27208000,0.0324,0.013523,0.002678,0.000431,0.000118
27209000,0.0324,0.013523,0.002678,0.000431,0.000353
27210000,0.0324,0.013523,0.002678,0.000431,0.000470
27211000,0.0324,0.013523,0.002678,0.000431,0.000353
27212000,0.0324,0.013523,0.002678,0.000431,0.000235
27213000,0.0324,0.013523,0.002678,0.000431,0.000353
27214000,0.0324,0.013523,0.002678,0.000431,0.000470
27215000,0.0324,0.013523,0.002678,0.000431,0.000118
27216000,0.0324,0.013523,0.002678,0.000431,0.000353
27217000,0.0324,0.013523,0.002678,0.000431,0.000470
27218000,0.0324,0.013523,0.002678,0.000431,0.000353
27219000,0.0324,0.013523,0.002678,0.000431,0.000235
27220000,0.0324,0.013523,0.002678,0.000431,0.000353
27221000,0.0324,0.013523,0.002678,0.000431,0.000470
27222000,0.0324,0.013523,0.002678,0.000431,0.000118
27223000,0.0324,0.013523,0.002678,0.000431,0.000353
27224000,0.0324,0.013523,0.002678,0.000431,0.000470
27225000,0.0324,0.013523,0.002678,0.000431,0.000353
27226000,0.0324,0.013523,0.002678,0.000431,0.000235
27227000,0.0324,0.013523,0.002678,0.000431,0.000353
27228000,0.0324,0.013523,0.002678,0.000431,0.000353
27229000,0.0324,0.013523,0.002678,0.000431,0.000235
27230000,0.0324,0.013523,0.002678,0.000431,0.000353
27231000,0.0324,0.013523,0.002678,0.000431,0.000470
27232000,0.0324,0.013523,0.002678,0.000431,0.000353
27233000,0.0324,0.013523,0.002678,0.000431,0.000235
27234000,0.0324,0.013523,0.002678,0.000431,0.000353
27235000,0.0324,0.013523,0.002678,0.000431,0.000353
27236000,0.0324,0.013523,0.002678,0.000431,0.000235
27237000,0.0324,0.013523,0.002678,0.000431,0.000353
27238000,0.0324,0.013523,0.002678,0.000431,0.000470
27239000,0.0324,0.013523,0.002678,0.000431,0.000353
27240000,0.0324,0.013523,0.002678,0.000431,0.000235
27241000,0.0324,0.013523,0.002678,0.000431,0.000353
27242000,0.0324,0.013523,0.002678,0.000431,0.000353
27243000,0.0324,0.013523,0.002678,0.000431,0.000235
27244000,0.0324,0.013523,0.002678,0.000431,0.000353
27245000,0.0324,0.013523,0.002678,0.000431,0.000470
27246000,0.0324,0.013523,0.002678,0.000431,0.000353
27247000,0.0324,0.013523,0.002678,0.000431,0.000235
27248000,0.0324,0.013523,0.002678,0.000431,0.000353
27249000,0.0324,0.013523,0.002678,0.000431,0.000353
27250000,0.0324,0.013523,0.002678,0.000431,0.000235
27251000,0.0324,0.013523,0.002678,0.000431,0.000353
27252000,0.0324,0.013523,0.002678,0.000431,0.000470
27253000,0.0324,0.013523,0.002678,0.000431,0.000353
27254000,0.0324,0.013523,0.002678,0.000431,0.000235
27255000,0.0324,0.013523,0.002678,0.000431,0.000353
27256000,0.0324,0.013523,0.002678,0.000431,0.000353
27257000,0.0324,0.013523,0.002678,0.000431,0.000235
27258000,0.0324,0.013523,0.002678,0.000431,0.000353
27259000,0.0324,0.013523,0.002678,0.000431,0.000470
27260000,0.0324,0.013523,0.002678,0.000431,0.000353
27261000,0.0324,0.013523,0.002678,0.000431,0.000235
27262000,0.0324,0.013523,0.002678,0.000431,0.000353
27263000,0.0324,0.013523,0.002678,0.000431,0.000353
27264000,0.0324,0.013523,0.002678,0.000431,0.000235
27265000,0.0324,0.013523,0.002678,0.000431,0.000353
27266000,0.0324,0.013523,0.002678,0.000431,0.000470
27267000,0.0324,0.013523,0.002678,0.000431,0.000353
27268000,0.0324,0.013523,0.002678,0.000431,0.000235
27269000,0.0324,0.013523,0.002678,0.000431,0.000353
27270000,0.0324,0.013523,0.002678,0.000431,0.000353
27271000,0.0324,0.013523,0.002678,0.000431,0.000235
27272000,0.0324,0.013523,0.002678,0.000431,0.000353
27273000,0.0324,0.013523,0.002678,0.000431,0.000470
27274000,0.0324,0.013523,0.002678,0.000431,0.000353
27275000,0.0324,0.013523,0.002678,0.000431,0.000235
27276000,0.0324,0.013523,0.002678,0.000431,0.000353
27277000,0.0324,0.013523,0.002678,0.000431,0.000353
27278000,0.0324,0.013523,0.002678,0.000431,0.000235
27279000,0.0324,0.013523,0.002678,0.000431,0.000353
27280000,0.0324,0.013523,0.002678,0.000431,0.000470
27281000,0.0324,0.013523,0.002678,0.000431,0.000353
27282000,0.0324,0.013523,0.002678,0.000431,0.000118
27283000,0.0324,0.013523,0.002678,0.000431,0.000470
27284000,0.0324,0.013523,0.002678,0.000431,0.000353
27285000,0.0324,0.013523,0.002678,0.000431,0.000235
27286000,0.0324,0.013523,0.002678,0.000431,0.000353
27287000,0.0324,0.013523,0.002678,0.000431,0.000470
27288000,0.0324,0.013523,0.002678,0.000431,0.000353
27289000,0.0324,0.013523,0.002678,0.000431,0.000118
27290000,0.0324,0.013523,0.002678,0.000431,0.000470
27291000,0.0324,0.013523,0.002678,0.000431,0.000353
27292000,0.0324,0.013523,0.002678,0.000431,0.000235
27293000,0.0324,0.013523,0.002678,0.000431,0.000353
27294000,0.0324,0.013523,0.002678,0.000431,0.000470
27295000,0.0324,0.013523,0.002678,0.000431,0.000353
27296000,0.0324,0.013523,0.002678,0.000431,0.000118
27297000,0.0324,0.013523,0.002678,0.000431,0.000470
27298000,0.0324,0.013523,0.002678,0.000431,0.000353
27299000,0.0324,0.013523,0.002678,0.000431,0.000235
27300000,0.0324,0.013523,0.002678,0.000431,0.000353
27301000,0.0324,0.013523,0.002678,0.000431,0.000470
27302000,0.0324,0.013523,0.002678,0.000431,0.000235
27303000,0.0324,0.013523,0.002678,0.000431,0.000235
27304000,0.0324,0.013523,0.002678,0.000431,0.000470
27305000,0.0324,0.013523,0.002678,0.000431,0.000353
27306000,0.0324,0.013523,0.002678,0.000431,0.000235
27307000,0.0324,0.013523,0.002678,0.000431,0.000353
27308000,0.0324,0.013523,0.002678,0.000431,0.000470
27309000,0.0324,0.013523,0.002678,0.000431,0.000235
27310000,0.0324,0.013523,0.002678,0.000431,0.000235
27311000,0.0324,0.013523,0.002678,0.000431,0.000470
27312000,0.0324,0.013523,0.002678,0.000431,0.000353
27313000,0.0324,0.013523,0.002678,0.000431,0.000235
27314000,0.0324,0.013523,0.002678,0.000431,0.000353
27315000,0.0324,0.013523,0.002678,0.000431,0.000470
27316000,0.0324,0.013523,0.002678,0.000431,0.000235
27317000,0.0324,0.013523,0.002678,0.000431,0.000235
27318000,0.0324,0.013523,0.002678,0.000431,0.000470
27319000,0.0324,0.013523,0.002678,0.000431,0.000353
27320000,0.0324,0.013523,0.002678,0.000431,0.000235
27321000,0.0324,0.013523,0.002678,0.000431,0.000353
27322000,0.0324,0.013523,0.002678,0.000431,0.000470
27323000,0.0324,0.013523,0.002678,0.000431,0.000235
27324000,0.0324,0.013523,0.002678,0.000431,0.000235
27325000,0.0324,0.013523,0.002678,0.000431,0.000470
27326000,0.0324,0.013523,0.002678,0.000431,0.000353
27327000,0.0324,0.013523,0.002678,0.000431,0.000235
27328000,0.0324,0.013523,0.002678,0.000431,0.000353
27329000,0.0324,0.013523,0.002678,0.000431,0.000470
27330000,0.0324,0.013523,0.002678,0.000431,0.000235
27331000,0.0324,0.013523,0.002678,0.000431,0.000235
27332000,0.0324,0.013523,0.002678,0.000431,0.000470
27333000,0.0324,0.013523,0.002678,0.000431,0.000353
27334000,0.0324,0.013523,0.002678,0.000431,0.000235
27335000,0.0324,0.013523,0.002678,0.000431,0.000353
27336000,0.0324,0.013523,0.002678,0.000431,0.000470
27337000,0.0324,0.013523,0.002678,0.000431,0.000235
27338000,0.0324,0.013523,0.002678,0.000431,0.000235
27339000,0.0324,0.013523,0.002678,0.000431,0.000470
27340000,0.0324,0.013523,0.002678,0.000431,0.000353
27341000,0.0324,0.013523,0.002678,0.000431,0.000235
27342000,0.0324,0.013523,0.002678,0.000431,0.000353
27343000,0.0324,0.013523,0.002678,0.000431,0.000470
27344000,0.0324,0.013523,0.002678,0.000431,0.000118
27345000,0.0324,0.013523,0.002678,0.000431,0.000353
27346000,0.0324,0.013523,0.002678,0.000431,0.000470
27347000,0.0324,0.013523,0.002678,0.000431,0.000353
27348000,0.0324,0.013523,0.002678,0.000431,0.000235
27349000,0.0324,0.013523,0.002678,0.000431,0.000353
27350000,0.0324,0.013523,0.002678,0.000431,0.000470
27351000,0.0324,0.013523,0.002678,0.000431,0.000118
27352000,0.0324,0.013523,0.002678,0.000431,0.000353
27353000,0.0324,0.013523,0.002678,0.000431,0.000470
27354000,0.0324,0.013523,0.002678,0.000431,0.000353
27355000,0.0324,0.013523,0.002678,0.000431,0.000235
27356000,0.0324,0.013523,0.002678,0.000431,0.000353
27357000,0.0324,0.013523,0.002678,0.000431,0.000470
27358000,0.0324,0.013523,0.002678,0.000431,0.000118
27359000,0.0324,0.013523,0.002678,0.000431,0.000353
27360000,0.0324,0.013523,0.002678,0.000431,0.000470
27361000,0.0324,0.013523,0.002678,0.000431,0.000353
27362000,0.0324,0.013523,0.002678,0.000431,0.000235
27363000,0.0324,0.013523,0.002678,0.000431,0.000353
27364000,0.0324,0.013523,0.002678,0.000431,0.000353
27365000,0.0324,0.013523,0.002678,0.000431,0.000235
27366000,0.0324,0.013523,0.002678,0.000431,0.000353
27367000,0.0324,0.013523,0.002678,0.000431,0.000470
27368000,0.0324,0.013523,0.002678,0.000431,0.000353
27369000,0.0324,0.013523,0.002678,0.000431,0.000235
27370000,0.0324,0.013523,0.002678,0.000431,0.000353
27371000,0.0324,0.013523,0.002678,0.000431,0.000353
27372000,0.0324,0.013523,0.002678,0.000431,0.000235
27373000,0.0324,0.013523,0.002678,0.000431,0.000353
27374000,0.0324,0.013523,0.002678,0.000431,0.000470
27375000,0.0324,0.013523,0.002678,0.000431,0.000353
27376000,0.0324,0.013523,0.002678,0.000431,0.000235
27377000,0.0324,0.013523,0.002678,0.000431,0.000353
27378000,0.0324,0.013523,0.002678,0.000431,0.000353
27379000,0.0324,0.013523,0.002678,0.000431,0.000235
27380000,0.0324,0.013523,0.002678,0.000431,0.000353
27381000,0.0324,0.013523,0.002678,0.000431,0.000470
27382000,0.0324,0.013523,0.002678,0.000431,0.000353
27383000,0.0324,0.013523,0.002678,0.000431,0.000235
27384000,0.0324,0.013523,0.002678,0.000431,0.000353
27385000,0.0324,0.013523,0.002678,0.000431,0.000353
27386000,0.0324,0.013523,0.002678,0.000431,0.000235
27387000,0.0324,0.013523,0.002678,0.000431,0.000353
27388000,0.0324,0.013523,0.002678,0.000431,0.000470
27389000,0.0324,0.013523,0.002678,0.000431,0.000353
27390000,0.0324,0.013523,0.002678,0.000431,0.000235
27391000,0.0324,0.013523,0.002678,0.000431,0.000353
27392000,0.0324,0.013523,0.002678,0.000431,0.000353
27393000,0.0324,0.013523,0.002678,0.000431,0.000235
27394000,0.0324,0.013523,0.002678,0.000431,0.000353
27395000,0.0324,0.013523,0.002678,0.000431,0.000470
27396000,0.0324,0.013523,0.002678,0.000431,0.000353
27397000,0.0324,0.013523,0.002678,0.000431,0.000235
27398000,0.0324,0.013523,0.002678,0.000431,0.000353
27399000,0.0324,0.013523,0.002678,0.000431,0.000353
27400000,0.0324,0.013523,0.002678,0.000431,0.000235
27401000,0.0324,0.013523,0.002678,0.000431,0.000353
27402000,0.0324,0.013523,0.002678,0.000431,0.000470
27403000,0.0324,0.013523,0.002678,0.000431,0.000353
27404000,0.0324,0.013523,0.002678,0.000431,0.000235
27405000,0.0324,0.013523,0.002678,0.000431,0.000353
27406000,0.0324,0.013523,0.002678,0.000431,0.000353
27407000,0.0324,0.013523,0.002678,0.000431,0.000235
27408000,0.0324,0.013523,0.002678,0.000431,0.000353
27409000,0.0324,0.013523,0.002678,0.000431,0.000470
27410000,0.0324,0.013523,0.002678,0.000431,0.000353
27411000,0.0324,0.013523,0.002678,0.000431,0.000235
27412000,0.0324,0.013523,0.002678,0.000431,0.000353
27413000,0.0324,0.013523,0.002678,0.000431,0.000353
27414000,0.0324,0.013523,0.002678,0.000431,0.000235
27415000,0.0324,0.013523,0.002678,0.000431,0.000353
27416000,0.0324,0.013523,0.002678,0.000431,0.000470
27417000,0.0324,0.013523,0.002678,0.000431,0.000353
27418000,0.0324,0.013523,0.002678,0.000431,0.000118
27419000,0.0324,0.013523,0.002678,0.000431,0.000470
27420000,0.0324,0.013523,0.002678,0.000431,0.000353
27421000,0.0324,0.013523,0.002678,0.000431,0.000235
27422000,0.0324,0.013523,0.002678,0.000431,0.000353
27423000,0.0324,0.013523,0.002678,0.000431,0.000470
27424000,0.0324,0.013523,0.002678,0.000431,0.000353
27425000,0.0324,0.013523,0.002678,0.000431,0.000118
27426000,0.0324,0.013523,0.002678,0.000431,0.000470
27427000,0.0324,0.013523,0.002678,0.000431,0.000353
27428000,0.0324,0.013523,0.002678,0.000431,0.000235
27429000,0.0324,0.013523,0.002678,0.000431,0.000353
27430000,0.0324,0.013523,0.002678,0.000431,0.000470
27431000,0.0324,0.013523,0.002678,0.000431,0.000353
27432000,0.0324,0.013523,0.002678,0.000431,0.000118
27433000,0.0324,0.013523,0.002678,0.000431,0.000470
27434000,0.0324,0.013523,0.002678,0.000431,0.000353
27435000,0.0324,0.013523,0.002678,0.000431,0.000235
27436000,0.0324,0.013523,0.002678,0.000431,0.000353
27437000,0.0324,0.013523,0.002678,0.000431,0.000470
27438000,0.0324,0.013523,0.002678,0.000431,0.000353
27439000,0.0324,0.013523,0.002678,0.000431,0.000118
27440000,0.0324,0.013523,0.002678,0.000431,0.000470
27441000,0.0324,0.013523,0.002678,0.000431,0.000353
27442000,0.0324,0.013523,0.002678,0.000431,0.000235
27443000,0.0324,0.013523,0.002678,0.000431,0.000353
27444000,0.0324,0.013523,0.002678,0.000431,0.000470
27445000,0.0324,0.013523,0.002678,0.000431,0.000235
27446000,0.0324,0.013523,0.002678,0.000431,0.000235
27447000,0.0324,0.013523,0.002678,0.000431,0.000470
27448000,0.0324,0.013523,0.002678,0.000431,0.000353
27449000,0.0324,0.013523,0.002678,0.000431,0.000235
27450000,0.0324,0.013523,0.002678,0.000431,0.000353
27451000,0.0324,0.013523,0.002678,0.000431,0.000470
27452000,0.0324,0.013523,0.002678,0.000431,0.000235
27453000,0.0324,0.013523,0.002678,0.000431,0.000235
27454000,0.0324,0.013523,0.002678,0.000431,0.000470
27455000,0.0324,0.013523,0.002678,0.000431,0.000353
27456000,0.0324,0.013523,0.002678,0.000431,0.000235
27457000,0.0324,0.013523,0.002678,0.000431,0.000353
27458000,0.0324,0.013523,0.002678,0.000431,0.000470
27459000,0.0324,0.013523,0.002678,0.000431,0.000235
27460000,0.0324,0.013523,0.002678,0.000431,0.000235
27461000,0.0324,0.013523,0.002678,0.000431,0.000470
27462000,0.0324,0.013523,0.002678,0.000431,0.000353
27463000,0.0324,0.013523,0.002678,0.000431,0.000235
27464000,0.0324,0.013523,0.002678,0.000431,0.000353
27465000,0.0324,0.013523,0.002678,0.000431,0.000470
27466000,0.0324,0.013523,0.002678,0.000431,0.000235
27467000,0.0324,0.013523,0.002678,0.000431,0.000235
27468000,0.0324,0.013523,0.002678,0.000431,0.000470
27469000,0.0324,0.013523,0.002678,0.000431,0.000353
27470000,0.0324,0.013523,0.002678,0.000431,0.000235
27471000,0.0324,0.013523,0.002678,0.000431,0.000353
27472000,0.0324,0.013523,0.002678,0.000431,0.000470
27473000,0.0324,0.013523,0.002678,0.000431,0.000235
27474000,0.0324,0.013523,0.002678,0.000431,0.000235
27475000,0.0324,0.013523,0.002678,0.000431,0.000470
27476000,0.0324,0.013523,0.002678,0.000431,0.000353
27477000,0.0324,0.013523,0.002678,0.000431,0.000235
27478000,0.0324,0.013523,0.002678,0.000431,0.000353
27479000,0.0324,0.013523,0.002678,0.000431,0.000470
27480000,0.0324,0.013523,0.002678,0.000431,0.000235
27481000,0.0324,0.013523,0.002678,0.000431,0.000235
27482000,0.0324,0.013523,0.002678,0.000431,0.000470
27483000,0.0324,0.013523,0.002678,0.000431,0.000353
27484000,0.0324,0.013523,0.002678,0.000431,0.000235
27485000,0.0324,0.013523,0.002678,0.000431,0.000353
27486000,0.0324,0.013523,0.002678,0.000431,0.000470
27487000,0.0324,0.013523,0.002678,0.000431,0.000118
27488000,0.0324,0.013523,0.002678,0.000431,0.000353
27489000,0.0324,0.013523,0.002678,0.000431,0.000470
27490000,0.0324,0.013523,0.002678,0.000431,0.000353
27491000,0.0324,0.013523,0.002678,0.000431,0.000235
27492000,0.0324,0.013523,0.002678,0.000431,0.000353
27493000,0.0324,0.013523,0.002678,0.000431,0.000470
27494000,0.0324,0.013523,0.002678,0.000431,0.000118
27495000,0.0324,0.013523,0.002678,0.000431,0.000353
27496000,0.0324,0.013523,0.002678,0.000431,0.000470
27497000,0.0324,0.013523,0.002678,0.000431,0.000353
27498000,0.0324,0.013523,0.002678,0.000431,0.000235
27499000,0.0324,0.013523,0.002678,0.000431,0.000353
27500000,0.0324,0.013523,0.002678,0.000431,0.000470
27501000,0.0324,0.013523,0.002678,0.000431,0.000118
27502000,0.0324,0.013523,0.002678,0.000431,0.000353
27503000,0.0324,0.013523,0.002678,0.000431,0.000470
27504000,0.0324,0.013523,0.002678,0.000431,0.000353
27505000,0.0324,0.013523,0.002678,0.000431,0.000235
27506000,0.0324,0.013523,0.002678,0.000431,0.000353
27507000,0.0324,0.013523,0.002678,0.000431,0.000353
27508000,0.0324,0.013523,0.002678,0.000431,0.000235
27509000,0.0324,0.013523,0.002678,0.000431,0.000353
27510000,0.0324,0.013523,0.002678,0.000431,0.000470
27511000,0.0324,0.013523,0.002678,0.000431,0.000353
27512000,0.0324,0.013523,0.002678,0.000431,0.000235
27513000,0.0324,0.013523,0.002678,0.000431,0.000353
27514000,0.0324,0.013523,0.002678,0.000431,0.000353
27515000,0.0324,0.013523,0.002678,0.000431,0.000235
27516000,0.0324,0.013523,0.002678,0.000431,0.000353
27517000,0.0324,0.013523,0.002678,0.000431,0.000470
27518000,0.0324,0.013523,0.002678,0.000431,0.000353
27519000,0.0324,0.013523,0.002678,0.000431,0.000235
27520000,0.0324,0.013523,0.002678,0.000431,0.000353
27521000,0.0324,0.013523,0.002678,0.000431,0.000353
27522000,0.0324,0.013523,0.002678,0.000431,0.000235
27523000,0.0324,0.013523,0.002678,0.000431,0.000353
27524000,0.0324,0.013523,0.002678,0.000431,0.000470
27525000,0.0324,0.013523,0.002678,0.000431,0.000353
27526000,0.0324,0.013523,0.002678,0.000431,0.000235
27527000,0.0324,0.013523,0.002678,0.000431,0.000353
27528000,0.0324,0.013523,0.002678,0.000431,0.000353
27529000,0.0324,0.013523,0.002678,0.000431,0.000235
27530000,0.0324,0.013523,0.002678,0.000431,0.000353
27531000,0.0324,0.013523,0.002678,0.000431,0.000470
27532000,0.0324,0.013523,0.002678,0.000431,0.000353
27533000,0.0324,0.013523,0.002678,0.000431,0.000235
27534000,0.0324,0.013523,0.002678,0.000431,0.000353
27535000,0.0324,0.013523,0.002678,0.000431,0.000353
27536000,0.0324,0.013523,0.002678,0.000431,0.000235
27537000,0.0324,0.013523,0.002678,0.000431,0.000353
27538000,0.0324,0.013523,0.002678,0.000431,0.000470
27539000,0.0324,0.013523,0.002678,0.000431,0.000353
27540000,0.0324,0.013523,0.002678,0.000431,0.000235
27541000,0.0324,0.013523,0.002678,0.000431,0.000353
27542000,0.0324,0.013523,0.002678,0.000431,0.000353
27543000,0.0324,0.013523,0.002678,0.000431,0.000235
27544000,0.0324,0.013523,0.002678,0.000431,0.000353
27545000,0.0324,0.013523,0.002678,0.000431,0.000470
27546000,0.0324,0.013523,0.002678,0.000431,0.000353
27547000,0.0324,0.013523,0.002678,0.000431,0.000235
27548000,0.0324,0.013523,0.002678,0.000431,0.000353
27549000,0.0324,0.013523,0.002678,0.000431,0.000353
27550000,0.0324,0.013523,0.002678,0.000431,0.000235
27551000,0.0324,0.013523,0.002678,0.000431,0.000353
27552000,0.0324,0.013523,0.002678,0.000431,0.000470
27553000,0.0324,0.013523,0.002678,0.000431,0.000353
27554000,0.0324,0.013523,0.002678,0.000431,0.000235
27555000,0.0324,0.013523,0.002678,0.000431,0.000353
27556000,0.0324,0.013523,0.002678,0.000431,0.000353
27557000,0.0324,0.013523,0.002678,0.000431,0.000235
27558000,0.0324,0.013523,0.002678,0.000431,0.000353
27559000,0.0324,0.013523,0.002678,0.000431,0.000470
27560000,0.0324,0.013523,0.002678,0.000431,0.000353
27561000,0.0324,0.013523,0.002678,0.000431,0.000118
27562000,0.0324,0.013523,0.002678,0.000431,0.000470
27563000,0.0324,0.013523,0.002678,0.000431,0.000353
27564000,0.0324,0.013523,0.002678,0.000431,0.000235
27565000,0.0324,0.013523,0.002678,0.000431,0.000353
27566000,0.0324,0.013523,0.002678,0.000431,0.000470
27567000,0.0324,0.013523,0.002678,0.000431,0.000353
27568000,0.0324,0.013523,0.002678,0.000431,0.000118
27569000,0.0324,0.013523,0.002678,0.000431,0.000470
27570000,0.0324,0.013523,0.002678,0.000431,0.000353
27571000,0.0324,0.013523,0.002678,0.000431,0.000235
27572000,0.0324,0.013523,0.002678,0.000431,0.000353
27573000,0.0324,0.013523,0.002678,0.000431,0.000470
27574000,0.0324,0.013523,0.002678,0.000431,0.000353
27575000,0.0324,0.013523,0.002678,0.000431,0.000118
27576000,0.0324,0.013523,0.002678,0.000431,0.000470
27577000,0.0324,0.013523,0.002678,0.000431,0.000353
27578000,0.0324,0.013523,0.002678,0.000431,0.000235
27579000,0.0324,0.013523,0.002678,0.000431,0.000353
27580000,0.0324,0.013523,0.002678,0.000431,0.000470
27581000,0.0324,0.013523,0.002678,0.000431,0.000235
27582000,0.0324,0.013523,0.002678,0.000431,0.000235
27583000,0.0324,0.013523,0.002678,0.000431,0.000470
27584000,0.0324,0.013523,0.002678,0.000431,0.000353
27585000,0.0324,0.013523,0.002678,0.000431,0.000235
27586000,0.0324,0.013523,0.002678,0.000431,0.000353
27587000,0.0324,0.013523,0.002678,0.000431,0.000470
27588000,0.0324,0.013523,0.002678,0.000431,0.000235
27589000,0.0324,0.013523,0.002678,0.000431,0.000235
27590000,0.0324,0.013523,0.002678,0.000431,0.000470
27591000,0.0324,0.013523,0.002678,0.000431,0.000353
27592000,0.0324,0.013523,0.002678,0.000431,0.000235
27593000,0.0324,0.013523,0.002678,0.000431,0.000353
27594000,0.0324,0.013523,0.002678,0.000431,0.000470
27595000,0.0324,0.013523,0.002678,0.000431,0.000235
27596000,0.0324,0.013523,0.002678,0.000431,0.000235
27597000,0.0324,0.013523,0.002678,0.000431,0.000470
27598000,0.0324,0.013523,0.002678,0.000431,0.000353
27599000,0.0324,0.013523,0.002678,0.000431,0.000235
27600000,0.0324,0.013523,0.002678,0.000431,0.000353
27601000,0.0324,0.013523,0.002678,0.000431,0.000470
27602000,0.0324,0.013523,0.002678,0.000431,0.000235
27603000,0.0324,0.013523,0.002678,0.000431,0.000235
27604000,0.0324,0.013523,0.002678,0.000431,0.000470
27605000,0.0324,0.013523,0.002678,0.000431,0.000353
27606000,0.0324,0.013523,0.002678,0.000431,0.000235
27607000,0.0324,0.013523,0.002678,0.000431,0.000353
27608000,0.0324,0.013523,0.002678,0.000431,0.000470
27609000,0.0324,0.013523,0.002678,0.000431,0.000235
27610000,0.0324,0.013523,0.002678,0.000431,0.000235
27611000,0.0324,0.013523,0.002678,0.000431,0.000470
27612000,0.0324,0.013523,0.002678,0.000431,0.000353
27613000,0.0324,0.013523,0.002678,0.000431,0.000235
27614000,0.0324,0.013523,0.002678,0.000431,0.000353
27615000,0.0324,0.013523,0.002678,0.000431,0.000470
27616000,0.0324,0.013523,0.002678,0.000431,0.000235
27617000,0.0324,0.013523,0.002678,0.000431,0.000235
27618000,0.0324,0.013523,0.002678,0.000431,0.000470
27619000,0.0324,0.013523,0.002678,0.000431,0.000353
27620000,0.0324,0.013523,0.002678,0.000431,0.000235
27621000,0.0324,0.013523,0.002678,0.000431,0.000353
27622000,0.0324,0.013523,0.002678,0.000431,0.000470
27623000,0.0324,0.013523,0.002678,0.000431,0.000118
27624000,0.0324,0.013523,0.002678,0.000431,0.000353
27625000,0.0324,0.013523,0.002678,0.000431,0.000470
27626000,0.0324,0.013523,0.002678,0.000431,0.000353
27627000,0.0324,0.013523,0.002678,0.000431,0.000235
27628000,0.0324,0.013523,0.002678,0.000431,0.000353
27629000,0.0324,0.013523,0.002678,0.000431,0.000470
27630000,0.0324,0.013523,0.002678,0.000431,0.000118
27631000,0.0324,0.013523,0.002678,0.000431,0.000353
27632000,0.0324,0.013523,0.002678,0.000431,0.000470
27633000,0.0324,0.013523,0.002678,0.000431,0.000353
27634000,0.0324,0.013523,0.002678,0.000431,0.000235
27635000,0.0324,0.013523,0.002678,0.000431,0.000353
27636000,0.0324,0.013523,0.002678,0.000431,0.000470
27637000,0.0324,0.013523,0.002678,0.000431,0.000118
27638000,0.0324,0.013523,0.002678,0.000431,0.000353
27639000,0.0324,0.013523,0.002678,0.000431,0.000470
27640000,0.0324,0.013523,0.002678,0.000431,0.000353
27641000,0.0324,0.013523,0.002678,0.000431,0.000235
27642000,0.0324,0.013523,0.002678,0.000431,0.000353
27643000,0.0324,0.013523,0.002678,0.000431,0.000470
27644000,0.0324,0.013523,0.002678,0.000431,0.000118
27645000,0.0324,0.013523,0.002678,0.000431,0.000353
27646000,0.0324,0.013523,0.002678,0.000431,0.000470
27647000,0.0324,0.013523,0.002678,0.000431,0.000353
27648000,0.0324,0.013523,0.002678,0.000431,0.000235
27649000,0.0324,0.013523,0.002678,0.000431,0.000353
27650000,0.0324,0.013523,0.002678,0.000431,0.000353
27651000,0.0324,0.013523,0.002678,0.000431,0.000235
27652000,0.0324,0.013523,0.002678,0.000431,0.000353
27653000,0.0324,0.013523,0.002678,0.000431,0.000470
27654000,0.0324,0.013523,0.002678,0.000431,0.000353
27655000,0.0324,0.013523,0.002678,0.000431,0.000235
27656000,0.0324,0.013523,0.002678,0.000431,0.000353
27657000,0.0324,0.013523,0.002678,0.000431,0.000353
27658000,0.0324,0.013523,0.002678,0.000431,0.000235
27659000,0.0324,0.013523,0.002678,0.000431,0.000353
27660000,0.0324,0.013523,0.002678,0.000431,0.000470
27661000,0.0324,0.013523,0.002678,0.000431,0.000353
27662000,0.0324,0.013523,0.002678,0.000431,0.000235
27663000,0.0324,0.013523,0.002678,0.000431,0.000353
27664000,0.0324,0.013523,0.002678,0.000431,0.000353
27665000,0.0324,0.013523,0.002678,0.000431,0.000235
27666000,0.0324,0.013523,0.002678,0.000431,0.000353
27667000,0.0324,0.013523,0.002678,0.000431,0.000470
27668000,0.0324,0.013523,0.002678,0.000431,0.000353
27669000,0.0324,0.013523,0.002678,0.000431,0.000235
27670000,0.0324,0.013523,0.002678,0.000431,0.000353
27671000,0.0324,0.013523,0.002678,0.000431,0.000353
27672000,0.0324,0.013523,0.002678,0.000431,0.000235
27673000,0.0324,0.013523,0.002678,0.000431,0.000353
27674000,0.0324,0.013523,0.002678,0.000431,0.000470
27675000,0.0324,0.013523,0.002678,0.000431,0.000353
27676000,0.0324,0.013523,0.002678,0.000431,0.000235
27677000,0.0324,0.013523,0.002678,0.000431,0.000353
27678000,0.0324,0.013523,0.002678,0.000431,0.000353
27679000,0.0324,0.013523,0.002678,0.000431,0.000235
27680000,0.0324,0.013523,0.002678,0.000431,0.000353
27681000,0.0324,0.013523,0.002678,0.000431,0.000470
27682000,0.0324,0.013523,0.002678,0.000431,0.000353
27683000,0.0324,0.013523,0.002678,0.000431,0.000235
27684000,0.0324,0.013523,0.002678,0.000431,0.000353
27685000,0.0324,0.013523,0.002678,0.000431,0.000353
27686000,0.0324,0.013523,0.002678,0.000431,0.000235
27687000,0.0324,0.013523,0.002678,0.000431,0.000353
27688000,0.0324,0.013523,0.002678,0.000431,0.000470
27689000,0.0324,0.013523,0.002678,0.000431,0.000353
27690000,0.0324,0.013523,0.002678,0.000431,0.000235
27691000,0.0324,0.013523,0.002678,0.000431,0.000353
27692000,0.0324,0.013523,0.002678,0.000431,0.000353
27693000,0.0324,0.013523,0.002678,0.000431,0.000235
27694000,0.0324,0.013523,0.002678,0.000431,0.000353
27695000,0.0324,0.013523,0.002678,0.000431,0.000470
27696000,0.0324,0.013523,0.002678,0.000431,0.000353
27697000,0.0324,0.013523,0.002678,0.000431,0.000118
27698000,0.0324,0.013523,0.002678,0.000431,0.000470
27699000,0.0324,0.013523,0.002678,0.000431,0.000353
27700000,0.0324,0.013523,0.002678,0.000431,0.000235
27701000,0.0324,0.013523,0.002678,0.000431,0.000353
27702000,0.0324,0.013523,0.002678,0.000431,0.000470
27703000,0.0324,0.013523,0.002678,0.000431,0.000353
27704000,0.0324,0.013523,0.002678,0.000431,0.000118
27705000,0.0324,0.013523,0.002678,0.000431,0.000470
27706000,0.0324,0.013523,0.002678,0.000431,0.000353
27707000,0.0324,0.013523,0.002678,0.000431,0.000235
27708000,0.0324,0.013523,0.002678,0.000431,0.000353
27709000,0.0324,0.013523,0.002678,0.000431,0.000470
27710000,0.0324,0.013523,0.002678,0.000431,0.000353
27711000,0.0324,0.013523,0.002678,0.000431,0.000118
27712000,0.0324,0.013523,0.002678,0.000431,0.000470
27713000,0.0324,0.013523,0.002678,0.000431,0.000353
27714000,0.0324,0.013523,0.002678,0.000431,0.000235
27715000,0.0324,0.013523,0.002678,0.000431,0.000353
27716000,0.0324,0.013523,0.002678,0.000431,0.000470
27717000,0.0324,0.013523,0.002678,0.000431,0.000353
27718000,0.0324,0.013523,0.002678,0.000431,0.000118
27719000,0.0324,0.013523,0.002678,0.000431,0.000470
27720000,0.0324,0.013523,0.002678,0.000431,0.000353
27721000,0.0324,0.013523,0.002678,0.000431,0.000235
27722000,0.0324,0.013523,0.002678,0.000431,0.000353
27723000,0.0324,0.013523,0.002678,0.000431,0.000470
27724000,0.0324,0.013523,0.002678,0.000431,0.000235
27725000,0.0324,0.013523,0.002678,0.000431,0.000235
27726000,0.0324,0.013523,0.002678,0.000431,0.000470
27727000,0.0324,0.013523,0.002678,0.000431,0.000353
27728000,0.0324,0.013523,0.002678,0.000431,0.000235
27729000,0.0324,0.013523,0.002678,0.000431,0.000353
27730000,0.0324,0.013523,0.002678,0.000431,0.000470
27731000,0.0324,0.013523,0.002678,0.000431,0.000235
27732000,0.0324,0.013523,0.002678,0.000431,0.000235
27733000,0.0324,0.013523,0.002678,0.000431,0.000470
27734000,0.0324,0.013523,0.002678,0.000431,0.000353
27735000,0.0324,0.013523,0.002678,0.000431,0.000235
27736000,0.0324,0.013523,0.002678,0.000431,0.000353
27737000,0.0324,0.013523,0.002678,0.000431,0.000470
27738000,0.0324,0.013523,0.002678,0.000431,0.000235
27739000,0.0324,0.013523,0.002678,0.000431,0.000235
27740000,0.0324,0.013523,0.002678,0.000431,0.000470
27741000,0.0324,0.013523,0.002678,0.000431,0.000353
27742000,0.0324,0.013523,0.002678,0.000431,0.000235
27743000,0.0324,0.013523,0.002678,0.000431,0.000353
27744000,0.0324,0.013523,0.002678,0.000431,0.000470
27745000,0.0324,0.013523,0.002678,0.000431,0.000235
27746000,0.0324,0.013523,0.002678,0.000431,0.000235
27747000,0.0324,0.013523,0.002678,0.000431,0.000470
27748000,0.0324,0.013523,0.002678,0.000431,0.000353
27749000,0.0324,0.013523,0.002678,0.000431,0.000235
27750000,0.0324,0.013523,0.002678,0.000431,0.000353
27751000,0.0324,0.013523,0.002678,0.000431,0.000470
27752000,0.0324,0.013523,0.002678,0.000431,0.000235
27753000,0.0324,0.013523,0.002678,0.000431,0.000235
27754000,0.0324,0.013523,0.002678,0.000431,0.000470
27755000,0.0324,0.013523,0.002678,0.000431,0.000353
27756000,0.0324,0.013523,0.002678,0.000431,0.000235
27757000,0.0324,0.013523,0.002678,0.000431,0.000353
27758000,0.0324,0.013523,0.002678,0.000431,0.000470
27759000,0.0324,0.013523,0.002678,0.000431,0.000235
27760000,0.0324,0.013523,0.002678,0.000431,0.000235
27761000,0.0324,0.013523,0.002678,0.000431,0.000470
27762000,0.0324,0.013523,0.002678,0.000431,0.000353
27763000,0.0324,0.013523,0.002678,0.000431,0.000235
27764000,0.0324,0.013523,0.002678,0.000431,0.000353
27765000,0.0324,0.013523,0.002678,0.000431,0.000470
27766000,0.0324,0.013523,0.002678,0.000431,0.000118
27767000,0.0324,0.013523,0.002678,0.000431,0.000353
27768000,0.0324,0.013523,0.002678,0.000431,0.000470
27769000,0.0324,0.013523,0.002678,0.000431,0.000353
27770000,0.0324,0.013523,0.002678,0.000431,0.000235
27771000,0.0324,0.013523,0.002678,0.000431,0.000353
27772000,0.0324,0.013523,0.002678,0.000431,0.000470
27773000,0.0324,0.013523,0.002678,0.000431,0.000118
27774000,0.0324,0.013523,0.002678,0.000431,0.000353
27775000,0.0324,0.013523,0.002678,0.000431,0.000470
27776000,0.0324,0.013523,0.002678,0.000431,0.000353
27777000,0.0324,0.013523,0.002678,0.000431,0.000235
27778000,0.0324,0.013523,0.002678,0.000431,0.000353
27779000,0.0324,0.013523,0.002678,0.000431,0.000470
27780000,0.0324,0.013523,0.002678,0.000431,0.000118
27781000,0.0324,0.013523,0.002678,0.000431,0.000353
27782000,0.0324,0.013523,0.002678,0.000431,0.000470
27783000,0.0324,0.013523,0.002678,0.000431,0.000353
27784000,0.0324,0.013523,0.002678,0.000431,0.000235
27785000,0.0324,0.013523,0.002678,0.000431,0.000353
27786000,0.0324,0.013523,0.002678,0.000431,0.000353
27787000,0.0324,0.013523,0.002678,0.000431,0.000235
27788000,0.0324,0.013523,0.002678,0.000431,0.000353
27789000,0.0324,0.013523,0.002678,0.000431,0.000470
27790000,0.0324,0.013523,0.002678,0.000431,0.000353
27791000,0.0324,0.013523,0.002678,0.000431,0.000235
27792000,0.0324,0.013523,0.002678,0.000431,0.000353
27793000,0.0324,0.013523,0.002678,0.000431,0.000353
27794000,0.0324,0.013523,0.002678,0.000431,0.000235
27795000,0.0324,0.013523,0.002678,0.000431,0.000353
27796000,0.0324,0.013523,0.002678,0.000431,0.000470
27797000,0.0324,0.013523,0.002678,0.000431,0.000353
27798000,0.0324,0.013523,0.002678,0.000431,0.000118
27799000,0.0324,0.013523,0.002678,0.000431,0.000470
27800000,0.0324,0.013523,0.002678,0.000431,0.000353
27801000,0.0324,0.013523,0.002678,0.000431,0.000235
27802000,0.0324,0.013523,0.002678,0.000431,0.000353
27803000,0.0324,0.013523,0.002678,0.000431,0.000470
27804000,0.0324,0.013523,0.002678,0.000431,0.000353
27805000,0.0324,0.013523,0.002678,0.000431,0.000118
27806000,0.0324,0.013523,0.002678,0.000431,0.000470
27807000,0.0324,0.013523,0.002678,0.000431,0.000353
27808000,0.0324,0.013523,0.002678,0.000431,0.000235
27809000,0.0324,0.013523,0.002678,0.000431,0.000353
27810000,0.0324,0.013523,0.002678,0.000431,0.000470
27811000,0.0324,0.013523,0.002678,0.000431,0.000235
27812000,0.0324,0.013523,0.002678,0.000431,0.000235
27813000,0.0324,0.013523,0.002678,0.000431,0.000470
27814000,0.0324,0.013523,0.002678,0.000431,0.000353
27815000,0.0324,0.013523,0.002678,0.000431,0.000235
27816000,0.0324,0.013523,0.002678,0.000431,0.000353
27817000,0.0324,0.013523,0.002678,0.000431,0.000470
27818000,0.0324,0.013523,0.002678,0.000431,0.000118
27819000,0.0324,0.013523,0.002678,0.000431,0.000353
27820000,0.0324,0.013523,0.002678,0.000431,0.000470
27821000,0.0324,0.013523,0.002678,0.000431,0.000353
27822000,0.0324,0.013523,0.002678,0.000431,0.000235
27823000,0.0324,0.013523,0.002678,0.000431,0.000353
27824000,0.0324,0.013523,0.002678,0.000431,0.000353
27825000,0.0324,0.013523,0.002678,0.000431,0.000235
27826000,0.0324,0.013523,0.002678,0.000431,0.000353
27827000,0.0324,0.013523,0.002678,0.000431,0.000470
27828000,0.0324,0.013523,0.002678,0.000431,0.000353
27829000,0.0324,0.013523,0.002678,0.000431,0.000235
27830000,0.0324,0.013523,0.002678,0.000431,0.000353
27831000,0.0324,0.013523,0.002678,0.000431,0.000353
27832000,0.0324,0.013523,0.002678,0.000431,0.000235
27833000,0.0324,0.013523,0.002678,0.000431,0.000353
27834000,0.0324,0.013523,0.002678,0.000431,0.000470
27835000,0.0324,0.013523,0.002678,0.000431,0.000353
27836000,0.0324,0.013523,0.002678,0.000431,0.000235
27837000,0.0324,0.013523,0.002678,0.000431,0.000353
27838000,0.0324,0.013523,0.002678,0.000431,0.000353
27839000,0.0324,0.013523,0.002678,0.000431,0.000235
27840000,0.0324,0.013523,0.002678,0.000431,0.000353
27841000,0.0324,0.013523,0.002678,0.000431,0.000470
27842000,0.0324,0.013523,0.002678,0.000431,0.000353
27843000,0.0324,0.013523,0.002678,0.000431,0.000118
27844000,0.0324,0.013523,0.002678,0.000431,0.000470
27845000,0.0324,0.013523,0.002678,0.000431,0.000353
27846000,0.0324,0.013523,0.002678,0.000431,0.000235
27847000,0.0324,0.013523,0.002678,0.000431,0.000353
27848000,0.0324,0.013523,0.002678,0.000431,0.000470
27849000,0.0324,0.013523,0.002678,0.000431,0.000235
27850000,0.0324,0.013523,0.002678,0.000431,0.000235
27851000,0.0324,0.013523,0.002678,0.000431,0.000470
27852000,0.0324,0.013523,0.002678,0.000431,0.000353
27853000,0.0324,0.013523,0.002678,0.000431,0.000235
27854000,0.0324,0.013523,0.002678,0.000431,0.000353
27855000,0.0324,0.013523,0.002678,0.000431,0.000470
27856000,0.0324,0.013523,0.002678,0.000431,0.000235
27857000,0.0324,0.013523,0.002678,0.000431,0.000235
27858000,0.0324,0.013523,0.002678,0.000431,0.000470
27859000,0.0324,0.013523,0.002678,0.000431,0.000353
27860000,0.0324,0.013523,0.002678,0.000431,0.000235
27861000,0.0324,0.013523,0.002678,0.000431,0.000353
27862000,0.0324,0.013523,0.002678,0.000431,0.000470
27863000,0.0324,0.013523,0.002678,0.000431,0.000118
27864000,0.0324,0.013523,0.002678,0.000431,0.000353
27865000,0.0324,0.013523,0.002678,0.000431,0.000470
27866000,0.0324,0.013523,0.002678,0.000431,0.000353
27867000,0.0324,0.013523,0.002678,0.000431,0.000235
27868000,0.0324,0.013523,0.002678,0.000431,0.000353
27869000,0.0324,0.013523,0.002678,0.000431,0.000353
27870000,0.0324,0.013523,0.002678,0.000431,0.000235
27871000,0.0324,0.013523,0.002678,0.000431,0.000353
27872000,0.0324,0.013523,0.002678,0.000431,0.000470
27873000,0.0324,0.013523,0.002678,0.000431,0.000353
27874000,0.0324,0.013523,0.002678,0.000431,0.000235
27875000,0.0324,0.013523,0.002678,0.000431,0.000353
27876000,0.0324,0.013523,0.002678,0.000431,0.000353
27877000,0.0324,0.013523,0.002678,0.000431,0.000235
27878000,0.0324,0.013523,0.002678,0.000431,0.000353
27879000,0.0324,0.013523,0.002678,0.000431,0.000470
27880000,0.0324,0.013523,0.002678,0.000431,0.000353
27881000,0.0324,0.013523,0.002678,0.000431,0.000235
27882000,0.0324,0.013523,0.002678,0.000431,0.000353
27883000,0.0324,0.013523,0.002678,0.000431,0.000353
27884000,0.0324,0.013523,0.002678,0.000431,0.000235
27885000,0.0324,0.013523,0.002678,0.000431,0.000353
27886000,0.0324,0.013523,0.002678,0.000431,0.000470
27887000,0.0324,0.013523,0.002678,0.000431,0.000353
27888000,0.0324,0.013523,0.002678,0.000431,0.000118
27889000,0.0324,0.013523,0.002678,0.000431,0.000470
27890000,0.0324,0.013523,0.002678,0.000431,0.000353
27891000,0.0324,0.013523,0.002678,0.000431,0.000235
27892000,0.0324,0.013523,0.002678,0.000431,0.000353
27893000,0.0324,0.013523,0.002678,0.000431,0.000470
27894000,0.0324,0.013523,0.002678,0.000431,0.000235
27895000,0.0324,0.013523,0.002678,0.000431,0.000235
27896000,0.0324,0.013523,0.002678,0.000431,0.000470
27897000,0.0324,0.013523,0.002678,0.000431,0.000353
27898000,0.0324,0.013523,0.002678,0.000431,0.000235
27899000,0.0324,0.013523,0.002678,0.000431,0.000353
27900000,0.0324,0.013523,0.002678,0.000431,0.000470
27901000,0.0324,0.013523,0.002678,0.000431,0.000235
27902000,0.0324,0.013523,0.002678,0.000431,0.000235
27903000,0.0324,0.013523,0.002678,0.000431,0.000470
27904000,0.0324,0.013523,0.002678,0.000431,0.000353
27905000,0.0324,0.013523,0.002678,0.000431,0.000235
27906000,0.0324,0.013523,0.002678,0.000431,0.000353
27907000,0.0324,0.013523,0.002678,0.000431,0.000353
27908000,0.0324,0.013523,0.002678,0.000431,0.000235
27909000,0.0324,0.013523,0.002678,0.000431,0.000353
27910000,0.0324,0.013523,0.002678,0.000431,0.000470
27911000,0.0324,0.013523,0.002678,0.000431,0.000353
27912000,0.0324,0.013523,0.002678,0.000431,0.000235
27913000,0.0324,0.013523,0.002678,0.000431,0.000353
27914000,0.0324,0.013523,0.002678,0.000431,0.000353
27915000,0.0324,0.013523,0.002678,0.000431,0.000235
27916000,0.0324,0.013523,0.002678,0.000431,0.000353
27917000,0.0324,0.013523,0.002678,0.000431,0.000470
27918000,0.0324,0.013523,0.002678,0.000431,0.000353
27919000,0.0324,0.013523,0.002678,0.000431,0.000235
27920000,0.0324,0.013523,0.002678,0.000431,0.000353
27921000,0.0324,0.013523,0.002678,0.000431,0.000353
27922000,0.0324,0.013523,0.002678,0.000431,0.000235
27923000,0.0324,0.013523,0.002678,0.000431,0.000353
27924000,0.0324,0.013523,0.002678,0.000431,0.000470
27925000,0.0324,0.013523,0.002678,0.000431,0.000353
27926000,0.0324,0.013523,0.002678,0.000431,0.000235
27927000,0.0324,0.013523,0.002678,0.000431,0.000353
27928000,0.0324,0.013523,0.002678,0.000431,0.000353
27929000,0.0324,0.013523,0.002678,0.000431,0.000235
27930000,0.0324,0.013523,0.002678,0.000431,0.000353
27931000,0.0324,0.013523,0.002678,0.000431,0.000470
27932000,0.0324,0.013523,0.002678,0.000431,0.000353
27933000,0.0324,0.013523,0.002678,0.000431,0.000235
27934000,0.0324,0.013523,0.002678,0.000431,0.000353
27935000,0.0324,0.013523,0.002678,0.000431,0.000353
27936000,0.0324,0.013523,0.002678,0.000431,0.000235
27937000,0.0324,0.013523,0.002678,0.000431,0.000353
27938000,0.0324,0.013523,0.002678,0.000431,0.000470
27939000,0.0324,0.013523,0.002678,0.000431,0.000353
27940000,0.0324,0.013523,0.002678,0.000431,0.000235
27941000,0.0324,0.013523,0.002678,0.000431,0.000353
27942000,0.0324,0.013523,0.002678,0.000431,0.000353
27943000,0.0324,0.013523,0.002678,0.000431,0.000235
27944000,0.0324,0.013523,0.002678,0.000431,0.000353
27945000,0.0324,0.013523,0.002678,0.000431,0.000470
27946000,0.0324,0.013523,0.002678,0.000431,0.000353
27947000,0.0324,0.013523,0.002678,0.000431,0.000118
27948000,0.0324,0.013523,0.002678,0.000431,0.000470
27949000,0.0324,0.013523,0.002678,0.000431,0.000353
27950000,0.0324,0.013523,0.002678,0.000431,0.000235
27951000,0.0324,0.013523,0.002678,0.000431,0.000353
27952000,0.0324,0.013523,0.002678,0.000431,0.000470
27953000,0.0324,0.013523,0.002678,0.000431,0.000353
27954000,0.0324,0.013523,0.002678,0.000431,0.000118
27955000,0.0324,0.013523,0.002678,0.000431,0.000470
27956000,0.0324,0.013523,0.002678,0.000431,0.000353
27957000,0.0324,0.013523,0.002678,0.000431,0.000235
27958000,0.0324,0.013523,0.002678,0.000431,0.000353
27959000,0.0324,0.013523,0.002678,0.000431,0.000470
27960000,0.0324,0.013523,0.002678,0.000431,0.000353
27961000,0.0324,0.013523,0.002678,0.000431,0.000118
27962000,0.0324,0.013523,0.002678,0.000431,0.000470
27963000,0.0324,0.013523,0.002678,0.000431,0.000353
27964000,0.0324,0.013523,0.002678,0.000431,0.000235
27965000,0.0324,0.013523,0.002678,0.000431,0.000353
27966000,0.0324,0.013523,0.002678,0.000431,0.000470
27967000,0.0324,0.013523,0.002678,0.000431,0.000353
27968000,0.0324,0.013523,0.002678,0.000431,0.000118
27969000,0.0324,0.013523,0.002678,0.000431,0.000470
27970000,0.0324,0.013523,0.002678,0.000431,0.000353
27971000,0.0324,0.013523,0.002678,0.000431,0.000235
27972000,0.0324,0.013523,0.002678,0.000431,0.000353
27973000,0.0324,0.013523,0.002678,0.000431,0.000470
27974000,0.0324,0.013523,0.002678,0.000431,0.000235
27975000,0.0324,0.013523,0.002678,0.000431,0.000235
27976000,0.0324,0.013523,0.002678,0.000431,0.000470
27977000,0.0324,0.013523,0.002678,0.000431,0.000353
27978000,0.0324,0.013523,0.002678,0.000431,0.000235
27979000,0.0324,0.013523,0.002678,0.000431,0.000353
27980000,0.0324,0.013523,0.002678,0.000431,0.000470
27981000,0.0324,0.013523,0.002678,0.000431,0.000235
27982000,0.0324,0.013523,0.002678,0.000431,0.000235
27983000,0.0324,0.013523,0.002678,0.000431,0.000470
27984000,0.0324,0.013523,0.002678,0.000431,0.000353
27985000,0.0324,0.013523,0.002678,0.000431,0.000235
27986000,0.0324,0.013523,0.002678,0.000431,0.000353
27987000,0.0324,0.013523,0.002678,0.000431,0.000470
27988000,0.0324,0.013523,0.002678,0.000431,0.000235
27989000,0.0324,0.013523,0.002678,0.000431,0.000235
27990000,0.0324,0.013523,0.002678,0.000431,0.000470
27991000,0.0324,0.013523,0.002678,0.000431,0.000353
27992000,0.0324,0.013523,0.002678,0.000431,0.000235
27993000,0.0324,0.013523,0.002678,0.000431,0.000353
27994000,0.0324,0.013523,0.002678,0.000431,0.000470
27995000,0.0324,0.013523,0.002678,0.000431,0.000235
27996000,0.0324,0.013523,0.002678,0.000431,0.000235
27997000,0.0324,0.013523,0.002678,0.000431,0.000470
27998000,0.0324,0.013523,0.002678,0.000431,0.000353
27999000,0.0324,0.013523,0.002678,0.000431,0.000235
