Cycle,Area(mm^2),PeakDynamic(W),SubthresholdLeakage(W),GateLeakage(W),RunTimeDynamic(W)
26000000,0.0324,0.013523,0.002678,0.000431,0.000470
26001000,0.0324,0.013523,0.002678,0.000431,0.000353
26002000,0.0324,0.013523,0.002678,0.000431,0.000235
26003000,0.0324,0.013523,0.002678,0.000431,0.000353
26004000,0.0324,0.013523,0.002678,0.000431,0.000470
26005000,0.0324,0.013523,0.002678,0.000431,0.000235
26006000,0.0324,0.013523,0.002678,0.000431,0.000235
26007000,0.0324,0.013523,0.002678,0.000431,0.000470
26008000,0.0324,0.013523,0.002678,0.000431,0.000353
26009000,0.0324,0.013523,0.002678,0.000431,0.000235
26010000,0.0324,0.013523,0.002678,0.000431,0.000353
26011000,0.0324,0.013523,0.002678,0.000431,0.000470
26012000,0.0324,0.013523,0.002678,0.000431,0.000118
26013000,0.0324,0.013523,0.002678,0.000431,0.000353
26014000,0.0324,0.013523,0.002678,0.000431,0.000470
26015000,0.0324,0.013523,0.002678,0.000431,0.000353
26016000,0.0324,0.013523,0.002678,0.000431,0.000235
26017000,0.0324,0.013523,0.002678,0.000431,0.000353
26018000,0.0324,0.013523,0.002678,0.000431,0.000353
26019000,0.0324,0.013523,0.002678,0.000431,0.000235
26020000,0.0324,0.013523,0.002678,0.000431,0.000353
26021000,0.0324,0.013523,0.002678,0.000431,0.000470
26022000,0.0324,0.013523,0.002678,0.000431,0.000353
26023000,0.0324,0.013523,0.002678,0.000431,0.000235
26024000,0.0324,0.013523,0.002678,0.000431,0.000353
26025000,0.0324,0.013523,0.002678,0.000431,0.000353
26026000,0.0324,0.013523,0.002678,0.000431,0.000235
26027000,0.0324,0.013523,0.002678,0.000431,0.000353
26028000,0.0324,0.013523,0.002678,0.000431,0.000470
26029000,0.0324,0.013523,0.002678,0.000431,0.000353
26030000,0.0324,0.013523,0.002678,0.000431,0.000235
26031000,0.0324,0.013523,0.002678,0.000431,0.000353
26032000,0.0324,0.013523,0.002678,0.000431,0.000353
26033000,0.0324,0.013523,0.002678,0.000431,0.000235
26034000,0.0324,0.013523,0.002678,0.000431,0.000353
26035000,0.0324,0.013523,0.002678,0.000431,0.000470
26036000,0.0324,0.013523,0.002678,0.000431,0.000353
26037000,0.0324,0.013523,0.002678,0.000431,0.000118
26038000,0.0324,0.013523,0.002678,0.000431,0.000470
26039000,0.0324,0.013523,0.002678,0.000431,0.000353
26040000,0.0324,0.013523,0.002678,0.000431,0.000235
26041000,0.0324,0.013523,0.002678,0.000431,0.000353
26042000,0.0324,0.013523,0.002678,0.000431,0.000470
26043000,0.0324,0.013523,0.002678,0.000431,0.000235
26044000,0.0324,0.013523,0.002678,0.000431,0.000235
26045000,0.0324,0.013523,0.002678,0.000431,0.000470
26046000,0.0324,0.013523,0.002678,0.000431,0.000353
26047000,0.0324,0.013523,0.002678,0.000431,0.000235
26048000,0.0324,0.013523,0.002678,0.000431,0.000353
26049000,0.0324,0.013523,0.002678,0.000431,0.000470
26050000,0.0324,0.013523,0.002678,0.000431,0.000235
26051000,0.0324,0.013523,0.002678,0.000431,0.000235
26052000,0.0324,0.013523,0.002678,0.000431,0.000470
26053000,0.0324,0.013523,0.002678,0.000431,0.000353
26054000,0.0324,0.013523,0.002678,0.000431,0.000235
26055000,0.0324,0.013523,0.002678,0.000431,0.000353
26056000,0.0324,0.013523,0.002678,0.000431,0.000470
26057000,0.0324,0.013523,0.002678,0.000431,0.000235
26058000,0.0324,0.013523,0.002678,0.000431,0.000235
26059000,0.0324,0.013523,0.002678,0.000431,0.000470
26060000,0.0324,0.013523,0.002678,0.000431,0.000353
26061000,0.0324,0.013523,0.002678,0.000431,0.000235
26062000,0.0324,0.013523,0.002678,0.000431,0.000353
26063000,0.0324,0.013523,0.002678,0.000431,0.000470
26064000,0.0324,0.013523,0.002678,0.000431,0.000235
26065000,0.0324,0.013523,0.002678,0.000431,0.000235
26066000,0.0324,0.013523,0.002678,0.000431,0.000470
26067000,0.0324,0.013523,0.002678,0.000431,0.000353
26068000,0.0324,0.013523,0.002678,0.000431,0.000235
26069000,0.0324,0.013523,0.002678,0.000431,0.000353
26070000,0.0324,0.013523,0.002678,0.000431,0.000470
26071000,0.0324,0.013523,0.002678,0.000431,0.000235
26072000,0.0324,0.013523,0.002678,0.000431,0.000235
26073000,0.0324,0.013523,0.002678,0.000431,0.000470
26074000,0.0324,0.013523,0.002678,0.000431,0.000353
26075000,0.0324,0.013523,0.002678,0.000431,0.000235
26076000,0.0324,0.013523,0.002678,0.000431,0.000353
26077000,0.0324,0.013523,0.002678,0.000431,0.000470
26078000,0.0324,0.013523,0.002678,0.000431,0.000235
26079000,0.0324,0.013523,0.002678,0.000431,0.000235
26080000,0.0324,0.013523,0.002678,0.000431,0.000470
26081000,0.0324,0.013523,0.002678,0.000431,0.000353
26082000,0.0324,0.013523,0.002678,0.000431,0.000235
26083000,0.0324,0.013523,0.002678,0.000431,0.000353
26084000,0.0324,0.013523,0.002678,0.000431,0.000470
26085000,0.0324,0.013523,0.002678,0.000431,0.000118
26086000,0.0324,0.013523,0.002678,0.000431,0.000353
26087000,0.0324,0.013523,0.002678,0.000431,0.000470
26088000,0.0324,0.013523,0.002678,0.000431,0.000353
26089000,0.0324,0.013523,0.002678,0.000431,0.000235
26090000,0.0324,0.013523,0.002678,0.000431,0.000353
26091000,0.0324,0.013523,0.002678,0.000431,0.000470
26092000,0.0324,0.013523,0.002678,0.000431,0.000118
26093000,0.0324,0.013523,0.002678,0.000431,0.000353
26094000,0.0324,0.013523,0.002678,0.000431,0.000470
26095000,0.0324,0.013523,0.002678,0.000431,0.000353
26096000,0.0324,0.013523,0.002678,0.000431,0.000235
26097000,0.0324,0.013523,0.002678,0.000431,0.000353
26098000,0.0324,0.013523,0.002678,0.000431,0.000470
26099000,0.0324,0.013523,0.002678,0.000431,0.000118
26100000,0.0324,0.013523,0.002678,0.000431,0.000353
26101000,0.0324,0.013523,0.002678,0.000431,0.000470
26102000,0.0324,0.013523,0.002678,0.000431,0.000353
26103000,0.0324,0.013523,0.002678,0.000431,0.000235
26104000,0.0324,0.013523,0.002678,0.000431,0.000353
26105000,0.0324,0.013523,0.002678,0.000431,0.000353
26106000,0.0324,0.013523,0.002678,0.000431,0.000235
26107000,0.0324,0.013523,0.002678,0.000431,0.000353
26108000,0.0324,0.013523,0.002678,0.000431,0.000470
26109000,0.0324,0.013523,0.002678,0.000431,0.000353
26110000,0.0324,0.013523,0.002678,0.000431,0.000235
26111000,0.0324,0.013523,0.002678,0.000431,0.000353
26112000,0.0324,0.013523,0.002678,0.000431,0.000353
26113000,0.0324,0.013523,0.002678,0.000431,0.000235
26114000,0.0324,0.013523,0.002678,0.000431,0.000353
26115000,0.0324,0.013523,0.002678,0.000431,0.000470
26116000,0.0324,0.013523,0.002678,0.000431,0.000353
26117000,0.0324,0.013523,0.002678,0.000431,0.000235
26118000,0.0324,0.013523,0.002678,0.000431,0.000353
26119000,0.0324,0.013523,0.002678,0.000431,0.000353
26120000,0.0324,0.013523,0.002678,0.000431,0.000235
26121000,0.0324,0.013523,0.002678,0.000431,0.000353
26122000,0.0324,0.013523,0.002678,0.000431,0.000470
26123000,0.0324,0.013523,0.002678,0.000431,0.000353
26124000,0.0324,0.013523,0.002678,0.000431,0.000235
26125000,0.0324,0.013523,0.002678,0.000431,0.000353
26126000,0.0324,0.013523,0.002678,0.000431,0.000353
26127000,0.0324,0.013523,0.002678,0.000431,0.000235
26128000,0.0324,0.013523,0.002678,0.000431,0.000353
26129000,0.0324,0.013523,0.002678,0.000431,0.000470
26130000,0.0324,0.013523,0.002678,0.000431,0.000353
26131000,0.0324,0.013523,0.002678,0.000431,0.000235
26132000,0.0324,0.013523,0.002678,0.000431,0.000353
26133000,0.0324,0.013523,0.002678,0.000431,0.000353
26134000,0.0324,0.013523,0.002678,0.000431,0.000235
26135000,0.0324,0.013523,0.002678,0.000431,0.000353
26136000,0.0324,0.013523,0.002678,0.000431,0.000470
26137000,0.0324,0.013523,0.002678,0.000431,0.000353
26138000,0.0324,0.013523,0.002678,0.000431,0.000235
26139000,0.0324,0.013523,0.002678,0.000431,0.000353
26140000,0.0324,0.013523,0.002678,0.000431,0.000353
26141000,0.0324,0.013523,0.002678,0.000431,0.000235
26142000,0.0324,0.013523,0.002678,0.000431,0.000353
26143000,0.0324,0.013523,0.002678,0.000431,0.000470
26144000,0.0324,0.013523,0.002678,0.000431,0.000353
26145000,0.0324,0.013523,0.002678,0.000431,0.000235
26146000,0.0324,0.013523,0.002678,0.000431,0.000353
26147000,0.0324,0.013523,0.002678,0.000431,0.000353
26148000,0.0324,0.013523,0.002678,0.000431,0.000235
26149000,0.0324,0.013523,0.002678,0.000431,0.000353
26150000,0.0324,0.013523,0.002678,0.000431,0.000470
26151000,0.0324,0.013523,0.002678,0.000431,0.000353
26152000,0.0324,0.013523,0.002678,0.000431,0.000235
26153000,0.0324,0.013523,0.002678,0.000431,0.000353
26154000,0.0324,0.013523,0.002678,0.000431,0.000353
26155000,0.0324,0.013523,0.002678,0.000431,0.000235
26156000,0.0324,0.013523,0.002678,0.000431,0.000353
26157000,0.0324,0.013523,0.002678,0.000431,0.000470
26158000,0.0324,0.013523,0.002678,0.000431,0.000353
26159000,0.0324,0.013523,0.002678,0.000431,0.000118
26160000,0.0324,0.013523,0.002678,0.000431,0.000470
26161000,0.0324,0.013523,0.002678,0.000431,0.000353
26162000,0.0324,0.013523,0.002678,0.000431,0.000235
26163000,0.0324,0.013523,0.002678,0.000431,0.000353
26164000,0.0324,0.013523,0.002678,0.000431,0.000470
26165000,0.0324,0.013523,0.002678,0.000431,0.000353
26166000,0.0324,0.013523,0.002678,0.000431,0.000118
26167000,0.0324,0.013523,0.002678,0.000431,0.000470
26168000,0.0324,0.013523,0.002678,0.000431,0.000353
26169000,0.0324,0.013523,0.002678,0.000431,0.000235
26170000,0.0324,0.013523,0.002678,0.000431,0.000353
26171000,0.0324,0.013523,0.002678,0.000431,0.000470
26172000,0.0324,0.013523,0.002678,0.000431,0.000353
26173000,0.0324,0.013523,0.002678,0.000431,0.000118
26174000,0.0324,0.013523,0.002678,0.000431,0.000470
26175000,0.0324,0.013523,0.002678,0.000431,0.000353
26176000,0.0324,0.013523,0.002678,0.000431,0.000235
26177000,0.0324,0.013523,0.002678,0.000431,0.000353
26178000,0.0324,0.013523,0.002678,0.000431,0.000470
26179000,0.0324,0.013523,0.002678,0.000431,0.000235
26180000,0.0324,0.013523,0.002678,0.000431,0.000235
26181000,0.0324,0.013523,0.002678,0.000431,0.000470
26182000,0.0324,0.013523,0.002678,0.000431,0.000353
26183000,0.0324,0.013523,0.002678,0.000431,0.000235
26184000,0.0324,0.013523,0.002678,0.000431,0.000353
26185000,0.0324,0.013523,0.002678,0.000431,0.000470
26186000,0.0324,0.013523,0.002678,0.000431,0.000235
26187000,0.0324,0.013523,0.002678,0.000431,0.000235
26188000,0.0324,0.013523,0.002678,0.000431,0.000470
26189000,0.0324,0.013523,0.002678,0.000431,0.000353
26190000,0.0324,0.013523,0.002678,0.000431,0.000235
26191000,0.0324,0.013523,0.002678,0.000431,0.000353
26192000,0.0324,0.013523,0.002678,0.000431,0.000470
26193000,0.0324,0.013523,0.002678,0.000431,0.000235
26194000,0.0324,0.013523,0.002678,0.000431,0.000235
26195000,0.0324,0.013523,0.002678,0.000431,0.000470
26196000,0.0324,0.013523,0.002678,0.000431,0.000353
26197000,0.0324,0.013523,0.002678,0.000431,0.000235
26198000,0.0324,0.013523,0.002678,0.000431,0.000353
26199000,0.0324,0.013523,0.002678,0.000431,0.000470
26200000,0.0324,0.013523,0.002678,0.000431,0.000235
26201000,0.0324,0.013523,0.002678,0.000431,0.000235
26202000,0.0324,0.013523,0.002678,0.000431,0.000470
26203000,0.0324,0.013523,0.002678,0.000431,0.000353
26204000,0.0324,0.013523,0.002678,0.000431,0.000235
26205000,0.0324,0.013523,0.002678,0.000431,0.000353
26206000,0.0324,0.013523,0.002678,0.000431,0.000470
26207000,0.0324,0.013523,0.002678,0.000431,0.000235
26208000,0.0324,0.013523,0.002678,0.000431,0.000235
26209000,0.0324,0.013523,0.002678,0.000431,0.000470
26210000,0.0324,0.013523,0.002678,0.000431,0.000353
26211000,0.0324,0.013523,0.002678,0.000431,0.000235
26212000,0.0324,0.013523,0.002678,0.000431,0.000353
26213000,0.0324,0.013523,0.002678,0.000431,0.000470
26214000,0.0324,0.013523,0.002678,0.000431,0.000235
26215000,0.0324,0.013523,0.002678,0.000431,0.000235
26216000,0.0324,0.013523,0.002678,0.000431,0.000470
26217000,0.0324,0.013523,0.002678,0.000431,0.000353
26218000,0.0324,0.013523,0.002678,0.000431,0.000235
26219000,0.0324,0.013523,0.002678,0.000431,0.000353
26220000,0.0324,0.013523,0.002678,0.000431,0.000470
26221000,0.0324,0.013523,0.002678,0.000431,0.000118
26222000,0.0324,0.013523,0.002678,0.000431,0.000353
26223000,0.0324,0.013523,0.002678,0.000431,0.000470
26224000,0.0324,0.013523,0.002678,0.000431,0.000353
26225000,0.0324,0.013523,0.002678,0.000431,0.000235
26226000,0.0324,0.013523,0.002678,0.000431,0.000353
26227000,0.0324,0.013523,0.002678,0.000431,0.000470
26228000,0.0324,0.013523,0.002678,0.000431,0.000118
26229000,0.0324,0.013523,0.002678,0.000431,0.000353
26230000,0.0324,0.013523,0.002678,0.000431,0.000470
26231000,0.0324,0.013523,0.002678,0.000431,0.000353
26232000,0.0324,0.013523,0.002678,0.000431,0.000235
26233000,0.0324,0.013523,0.002678,0.000431,0.000353
26234000,0.0324,0.013523,0.002678,0.000431,0.000470
26235000,0.0324,0.013523,0.002678,0.000431,0.000118
26236000,0.0324,0.013523,0.002678,0.000431,0.000353
26237000,0.0324,0.013523,0.002678,0.000431,0.000470
26238000,0.0324,0.013523,0.002678,0.000431,0.000353
26239000,0.0324,0.013523,0.002678,0.000431,0.000235
26240000,0.0324,0.013523,0.002678,0.000431,0.000353
26241000,0.0324,0.013523,0.002678,0.000431,0.000470
26242000,0.0324,0.013523,0.002678,0.000431,0.000118
26243000,0.0324,0.013523,0.002678,0.000431,0.000353
26244000,0.0324,0.013523,0.002678,0.000431,0.000470
26245000,0.0324,0.013523,0.002678,0.000431,0.000353
26246000,0.0324,0.013523,0.002678,0.000431,0.000235
26247000,0.0324,0.013523,0.002678,0.000431,0.000353
26248000,0.0324,0.013523,0.002678,0.000431,0.000353
26249000,0.0324,0.013523,0.002678,0.000431,0.000235
26250000,0.0324,0.013523,0.002678,0.000431,0.000353
26251000,0.0324,0.013523,0.002678,0.000431,0.000470
26252000,0.0324,0.013523,0.002678,0.000431,0.000353
26253000,0.0324,0.013523,0.002678,0.000431,0.000235
26254000,0.0324,0.013523,0.002678,0.000431,0.000353
26255000,0.0324,0.013523,0.002678,0.000431,0.000353
26256000,0.0324,0.013523,0.002678,0.000431,0.000235
26257000,0.0324,0.013523,0.002678,0.000431,0.000353
26258000,0.0324,0.013523,0.002678,0.000431,0.000470
26259000,0.0324,0.013523,0.002678,0.000431,0.000353
26260000,0.0324,0.013523,0.002678,0.000431,0.000235
26261000,0.0324,0.013523,0.002678,0.000431,0.000353
26262000,0.0324,0.013523,0.002678,0.000431,0.000353
26263000,0.0324,0.013523,0.002678,0.000431,0.000235
26264000,0.0324,0.013523,0.002678,0.000431,0.000353
26265000,0.0324,0.013523,0.002678,0.000431,0.000470
26266000,0.0324,0.013523,0.002678,0.000431,0.000353
26267000,0.0324,0.013523,0.002678,0.000431,0.000235
26268000,0.0324,0.013523,0.002678,0.000431,0.000353
26269000,0.0324,0.013523,0.002678,0.000431,0.000353
26270000,0.0324,0.013523,0.002678,0.000431,0.000235
26271000,0.0324,0.013523,0.002678,0.000431,0.000353
26272000,0.0324,0.013523,0.002678,0.000431,0.000470
26273000,0.0324,0.013523,0.002678,0.000431,0.000353
26274000,0.0324,0.013523,0.002678,0.000431,0.000235
26275000,0.0324,0.013523,0.002678,0.000431,0.000353
26276000,0.0324,0.013523,0.002678,0.000431,0.000353
26277000,0.0324,0.013523,0.002678,0.000431,0.000235
26278000,0.0324,0.013523,0.002678,0.000431,0.000353
26279000,0.0324,0.013523,0.002678,0.000431,0.000470
26280000,0.0324,0.013523,0.002678,0.000431,0.000353
26281000,0.0324,0.013523,0.002678,0.000431,0.000235
26282000,0.0324,0.013523,0.002678,0.000431,0.000353
26283000,0.0324,0.013523,0.002678,0.000431,0.000353
26284000,0.0324,0.013523,0.002678,0.000431,0.000235
26285000,0.0324,0.013523,0.002678,0.000431,0.000353
26286000,0.0324,0.013523,0.002678,0.000431,0.000470
26287000,0.0324,0.013523,0.002678,0.000431,0.000353
26288000,0.0324,0.013523,0.002678,0.000431,0.000235
26289000,0.0324,0.013523,0.002678,0.000431,0.000353
26290000,0.0324,0.013523,0.002678,0.000431,0.000353
26291000,0.0324,0.013523,0.002678,0.000431,0.000235
26292000,0.0324,0.013523,0.002678,0.000431,0.000353
26293000,0.0324,0.013523,0.002678,0.000431,0.000470
26294000,0.0324,0.013523,0.002678,0.000431,0.000353
26295000,0.0324,0.013523,0.002678,0.000431,0.000118
26296000,0.0324,0.013523,0.002678,0.000431,0.000470
26297000,0.0324,0.013523,0.002678,0.000431,0.000353
26298000,0.0324,0.013523,0.002678,0.000431,0.000235
26299000,0.0324,0.013523,0.002678,0.000431,0.000353
26300000,0.0324,0.013523,0.002678,0.000431,0.000470
26301000,0.0324,0.013523,0.002678,0.000431,0.000353
26302000,0.0324,0.013523,0.002678,0.000431,0.000118
26303000,0.0324,0.013523,0.002678,0.000431,0.000470
26304000,0.0324,0.013523,0.002678,0.000431,0.000353
26305000,0.0324,0.013523,0.002678,0.000431,0.000235
26306000,0.0324,0.013523,0.002678,0.000431,0.000353
26307000,0.0324,0.013523,0.002678,0.000431,0.000470
26308000,0.0324,0.013523,0.002678,0.000431,0.000353
26309000,0.0324,0.013523,0.002678,0.000431,0.000118
26310000,0.0324,0.013523,0.002678,0.000431,0.000470
26311000,0.0324,0.013523,0.002678,0.000431,0.000353
26312000,0.0324,0.013523,0.002678,0.000431,0.000235
26313000,0.0324,0.013523,0.002678,0.000431,0.000353
26314000,0.0324,0.013523,0.002678,0.000431,0.000470
26315000,0.0324,0.013523,0.002678,0.000431,0.000353
26316000,0.0324,0.013523,0.002678,0.000431,0.000118
26317000,0.0324,0.013523,0.002678,0.000431,0.000470
26318000,0.0324,0.013523,0.002678,0.000431,0.000353
26319000,0.0324,0.013523,0.002678,0.000431,0.000235
26320000,0.0324,0.013523,0.002678,0.000431,0.000353
26321000,0.0324,0.013523,0.002678,0.000431,0.000470
26322000,0.0324,0.013523,0.002678,0.000431,0.000235
26323000,0.0324,0.013523,0.002678,0.000431,0.000235
26324000,0.0324,0.013523,0.002678,0.000431,0.000470
26325000,0.0324,0.013523,0.002678,0.000431,0.000353
26326000,0.0324,0.013523,0.002678,0.000431,0.000235
26327000,0.0324,0.013523,0.002678,0.000431,0.000353
26328000,0.0324,0.013523,0.002678,0.000431,0.000470
26329000,0.0324,0.013523,0.002678,0.000431,0.000235
26330000,0.0324,0.013523,0.002678,0.000431,0.000235
26331000,0.0324,0.013523,0.002678,0.000431,0.000470
26332000,0.0324,0.013523,0.002678,0.000431,0.000353
26333000,0.0324,0.013523,0.002678,0.000431,0.000235
26334000,0.0324,0.013523,0.002678,0.000431,0.000353
26335000,0.0324,0.013523,0.002678,0.000431,0.000470
26336000,0.0324,0.013523,0.002678,0.000431,0.000235
26337000,0.0324,0.013523,0.002678,0.000431,0.000235
26338000,0.0324,0.013523,0.002678,0.000431,0.000470
26339000,0.0324,0.013523,0.002678,0.000431,0.000353
26340000,0.0324,0.013523,0.002678,0.000431,0.000235
26341000,0.0324,0.013523,0.002678,0.000431,0.000353
26342000,0.0324,0.013523,0.002678,0.000431,0.000470
26343000,0.0324,0.013523,0.002678,0.000431,0.000235
26344000,0.0324,0.013523,0.002678,0.000431,0.000235
26345000,0.0324,0.013523,0.002678,0.000431,0.000470
26346000,0.0324,0.013523,0.002678,0.000431,0.000353
26347000,0.0324,0.013523,0.002678,0.000431,0.000235
26348000,0.0324,0.013523,0.002678,0.000431,0.000353
26349000,0.0324,0.013523,0.002678,0.000431,0.000470
26350000,0.0324,0.013523,0.002678,0.000431,0.000235
26351000,0.0324,0.013523,0.002678,0.000431,0.000235
26352000,0.0324,0.013523,0.002678,0.000431,0.000470
26353000,0.0324,0.013523,0.002678,0.000431,0.000353
26354000,0.0324,0.013523,0.002678,0.000431,0.000235
26355000,0.0324,0.013523,0.002678,0.000431,0.000353
26356000,0.0324,0.013523,0.002678,0.000431,0.000470
26357000,0.0324,0.013523,0.002678,0.000431,0.000235
26358000,0.0324,0.013523,0.002678,0.000431,0.000235
26359000,0.0324,0.013523,0.002678,0.000431,0.000470
26360000,0.0324,0.013523,0.002678,0.000431,0.000353
26361000,0.0324,0.013523,0.002678,0.000431,0.000235
26362000,0.0324,0.013523,0.002678,0.000431,0.000353
26363000,0.0324,0.013523,0.002678,0.000431,0.000470
26364000,0.0324,0.013523,0.002678,0.000431,0.000118
26365000,0.0324,0.013523,0.002678,0.000431,0.000353
26366000,0.0324,0.013523,0.002678,0.000431,0.000470
26367000,0.0324,0.013523,0.002678,0.000431,0.000353
26368000,0.0324,0.013523,0.002678,0.000431,0.000235
26369000,0.0324,0.013523,0.002678,0.000431,0.000353
26370000,0.0324,0.013523,0.002678,0.000431,0.000470
26371000,0.0324,0.013523,0.002678,0.000431,0.000118
26372000,0.0324,0.013523,0.002678,0.000431,0.000353
26373000,0.0324,0.013523,0.002678,0.000431,0.000470
26374000,0.0324,0.013523,0.002678,0.000431,0.000353
26375000,0.0324,0.013523,0.002678,0.000431,0.000235
26376000,0.0324,0.013523,0.002678,0.000431,0.000353
26377000,0.0324,0.013523,0.002678,0.000431,0.000470
26378000,0.0324,0.013523,0.002678,0.000431,0.000118
26379000,0.0324,0.013523,0.002678,0.000431,0.000353
26380000,0.0324,0.013523,0.002678,0.000431,0.000470
26381000,0.0324,0.013523,0.002678,0.000431,0.000353
26382000,0.0324,0.013523,0.002678,0.000431,0.000235
26383000,0.0324,0.013523,0.002678,0.000431,0.000353
26384000,0.0324,0.013523,0.002678,0.000431,0.000353
26385000,0.0324,0.013523,0.002678,0.000431,0.000235
26386000,0.0324,0.013523,0.002678,0.000431,0.000353
26387000,0.0324,0.013523,0.002678,0.000431,0.000470
26388000,0.0324,0.013523,0.002678,0.000431,0.000353
26389000,0.0324,0.013523,0.002678,0.000431,0.000235
26390000,0.0324,0.013523,0.002678,0.000431,0.000353
26391000,0.0324,0.013523,0.002678,0.000431,0.000353
26392000,0.0324,0.013523,0.002678,0.000431,0.000235
26393000,0.0324,0.013523,0.002678,0.000431,0.000353
26394000,0.0324,0.013523,0.002678,0.000431,0.000470
26395000,0.0324,0.013523,0.002678,0.000431,0.000353
26396000,0.0324,0.013523,0.002678,0.000431,0.000235
26397000,0.0324,0.013523,0.002678,0.000431,0.000353
26398000,0.0324,0.013523,0.002678,0.000431,0.000353
26399000,0.0324,0.013523,0.002678,0.000431,0.000235
26400000,0.0324,0.013523,0.002678,0.000431,0.000353
26401000,0.0324,0.013523,0.002678,0.000431,0.000470
26402000,0.0324,0.013523,0.002678,0.000431,0.000353
26403000,0.0324,0.013523,0.002678,0.000431,0.000235
26404000,0.0324,0.013523,0.002678,0.000431,0.000353
26405000,0.0324,0.013523,0.002678,0.000431,0.000353
26406000,0.0324,0.013523,0.002678,0.000431,0.000235
26407000,0.0324,0.013523,0.002678,0.000431,0.000353
26408000,0.0324,0.013523,0.002678,0.000431,0.000470
26409000,0.0324,0.013523,0.002678,0.000431,0.000353
26410000,0.0324,0.013523,0.002678,0.000431,0.000235
26411000,0.0324,0.013523,0.002678,0.000431,0.000353
26412000,0.0324,0.013523,0.002678,0.000431,0.000353
26413000,0.0324,0.013523,0.002678,0.000431,0.000235
26414000,0.0324,0.013523,0.002678,0.000431,0.000353
26415000,0.0324,0.013523,0.002678,0.000431,0.000470
26416000,0.0324,0.013523,0.002678,0.000431,0.000353
26417000,0.0324,0.013523,0.002678,0.000431,0.000235
26418000,0.0324,0.013523,0.002678,0.000431,0.000353
26419000,0.0324,0.013523,0.002678,0.000431,0.000353
26420000,0.0324,0.013523,0.002678,0.000431,0.000235
26421000,0.0324,0.013523,0.002678,0.000431,0.000353
26422000,0.0324,0.013523,0.002678,0.000431,0.000470
26423000,0.0324,0.013523,0.002678,0.000431,0.000353
26424000,0.0324,0.013523,0.002678,0.000431,0.000235
26425000,0.0324,0.013523,0.002678,0.000431,0.000353
26426000,0.0324,0.013523,0.002678,0.000431,0.000353
26427000,0.0324,0.013523,0.002678,0.000431,0.000235
26428000,0.0324,0.013523,0.002678,0.000431,0.000353
26429000,0.0324,0.013523,0.002678,0.000431,0.000470
26430000,0.0324,0.013523,0.002678,0.000431,0.000353
26431000,0.0324,0.013523,0.002678,0.000431,0.000235
26432000,0.0324,0.013523,0.002678,0.000431,0.000353
26433000,0.0324,0.013523,0.002678,0.000431,0.000353
26434000,0.0324,0.013523,0.002678,0.000431,0.000235
26435000,0.0324,0.013523,0.002678,0.000431,0.000353
26436000,0.0324,0.013523,0.002678,0.000431,0.000470
26437000,0.0324,0.013523,0.002678,0.000431,0.000353
26438000,0.0324,0.013523,0.002678,0.000431,0.000118
26439000,0.0324,0.013523,0.002678,0.000431,0.000470
26440000,0.0324,0.013523,0.002678,0.000431,0.000353
26441000,0.0324,0.013523,0.002678,0.000431,0.000235
26442000,0.0324,0.013523,0.002678,0.000431,0.000353
26443000,0.0324,0.013523,0.002678,0.000431,0.000470
26444000,0.0324,0.013523,0.002678,0.000431,0.000353
26445000,0.0324,0.013523,0.002678,0.000431,0.000118
26446000,0.0324,0.013523,0.002678,0.000431,0.000470
26447000,0.0324,0.013523,0.002678,0.000431,0.000353
26448000,0.0324,0.013523,0.002678,0.000431,0.000235
26449000,0.0324,0.013523,0.002678,0.000431,0.000353
26450000,0.0324,0.013523,0.002678,0.000431,0.000470
26451000,0.0324,0.013523,0.002678,0.000431,0.000353
26452000,0.0324,0.013523,0.002678,0.000431,0.000118
26453000,0.0324,0.013523,0.002678,0.000431,0.000470
26454000,0.0324,0.013523,0.002678,0.000431,0.000353
26455000,0.0324,0.013523,0.002678,0.000431,0.000235
26456000,0.0324,0.013523,0.002678,0.000431,0.000353
26457000,0.0324,0.013523,0.002678,0.000431,0.000470
26458000,0.0324,0.013523,0.002678,0.000431,0.000235
26459000,0.0324,0.013523,0.002678,0.000431,0.000235
26460000,0.0324,0.013523,0.002678,0.000431,0.000470
26461000,0.0324,0.013523,0.002678,0.000431,0.000353
26462000,0.0324,0.013523,0.002678,0.000431,0.000235
26463000,0.0324,0.013523,0.002678,0.000431,0.000353
26464000,0.0324,0.013523,0.002678,0.000431,0.000470
26465000,0.0324,0.013523,0.002678,0.000431,0.000235
26466000,0.0324,0.013523,0.002678,0.000431,0.000235
26467000,0.0324,0.013523,0.002678,0.000431,0.000470
26468000,0.0324,0.013523,0.002678,0.000431,0.000353
26469000,0.0324,0.013523,0.002678,0.000431,0.000235
26470000,0.0324,0.013523,0.002678,0.000431,0.000353
26471000,0.0324,0.013523,0.002678,0.000431,0.000470
26472000,0.0324,0.013523,0.002678,0.000431,0.000235
26473000,0.0324,0.013523,0.002678,0.000431,0.000235
26474000,0.0324,0.013523,0.002678,0.000431,0.000470
26475000,0.0324,0.013523,0.002678,0.000431,0.000353
26476000,0.0324,0.013523,0.002678,0.000431,0.000235
26477000,0.0324,0.013523,0.002678,0.000431,0.000353
26478000,0.0324,0.013523,0.002678,0.000431,0.000470
26479000,0.0324,0.013523,0.002678,0.000431,0.000235
26480000,0.0324,0.013523,0.002678,0.000431,0.000235
26481000,0.0324,0.013523,0.002678,0.000431,0.000470
26482000,0.0324,0.013523,0.002678,0.000431,0.000353
26483000,0.0324,0.013523,0.002678,0.000431,0.000235
26484000,0.0324,0.013523,0.002678,0.000431,0.000353
26485000,0.0324,0.013523,0.002678,0.000431,0.000470
26486000,0.0324,0.013523,0.002678,0.000431,0.000235
26487000,0.0324,0.013523,0.002678,0.000431,0.000235
26488000,0.0324,0.013523,0.002678,0.000431,0.000470
26489000,0.0324,0.013523,0.002678,0.000431,0.000353
26490000,0.0324,0.013523,0.002678,0.000431,0.000235
26491000,0.0324,0.013523,0.002678,0.000431,0.000353
26492000,0.0324,0.013523,0.002678,0.000431,0.000470
26493000,0.0324,0.013523,0.002678,0.000431,0.000235
26494000,0.0324,0.013523,0.002678,0.000431,0.000235
26495000,0.0324,0.013523,0.002678,0.000431,0.000470
26496000,0.0324,0.013523,0.002678,0.000431,0.000353
26497000,0.0324,0.013523,0.002678,0.000431,0.000235
26498000,0.0324,0.013523,0.002678,0.000431,0.000353
26499000,0.0324,0.013523,0.002678,0.000431,0.000470
26500000,0.0324,0.013523,0.002678,0.000431,0.000118
26501000,0.0324,0.013523,0.002678,0.000431,0.000353
26502000,0.0324,0.013523,0.002678,0.000431,0.000470
26503000,0.0324,0.013523,0.002678,0.000431,0.000353
26504000,0.0324,0.013523,0.002678,0.000431,0.000235
26505000,0.0324,0.013523,0.002678,0.000431,0.000353
26506000,0.0324,0.013523,0.002678,0.000431,0.000470
26507000,0.0324,0.013523,0.002678,0.000431,0.000118
26508000,0.0324,0.013523,0.002678,0.000431,0.000353
26509000,0.0324,0.013523,0.002678,0.000431,0.000470
26510000,0.0324,0.013523,0.002678,0.000431,0.000353
26511000,0.0324,0.013523,0.002678,0.000431,0.000235
26512000,0.0324,0.013523,0.002678,0.000431,0.000353
26513000,0.0324,0.013523,0.002678,0.000431,0.000470
26514000,0.0324,0.013523,0.002678,0.000431,0.000118
26515000,0.0324,0.013523,0.002678,0.000431,0.000353
26516000,0.0324,0.013523,0.002678,0.000431,0.000470
26517000,0.0324,0.013523,0.002678,0.000431,0.000353
26518000,0.0324,0.013523,0.002678,0.000431,0.000235
26519000,0.0324,0.013523,0.002678,0.000431,0.000353
26520000,0.0324,0.013523,0.002678,0.000431,0.000470
26521000,0.0324,0.013523,0.002678,0.000431,0.000118
26522000,0.0324,0.013523,0.002678,0.000431,0.000353
26523000,0.0324,0.013523,0.002678,0.000431,0.000470
26524000,0.0324,0.013523,0.002678,0.000431,0.000353
26525000,0.0324,0.013523,0.002678,0.000431,0.000235
26526000,0.0324,0.013523,0.002678,0.000431,0.000353
26527000,0.0324,0.013523,0.002678,0.000431,0.000353
26528000,0.0324,0.013523,0.002678,0.000431,0.000235
26529000,0.0324,0.013523,0.002678,0.000431,0.000353
26530000,0.0324,0.013523,0.002678,0.000431,0.000470
26531000,0.0324,0.013523,0.002678,0.000431,0.000353
26532000,0.0324,0.013523,0.002678,0.000431,0.000235
26533000,0.0324,0.013523,0.002678,0.000431,0.000353
26534000,0.0324,0.013523,0.002678,0.000431,0.000353
26535000,0.0324,0.013523,0.002678,0.000431,0.000235
26536000,0.0324,0.013523,0.002678,0.000431,0.000353
26537000,0.0324,0.013523,0.002678,0.000431,0.000470
26538000,0.0324,0.013523,0.002678,0.000431,0.000353
26539000,0.0324,0.013523,0.002678,0.000431,0.000235
26540000,0.0324,0.013523,0.002678,0.000431,0.000353
26541000,0.0324,0.013523,0.002678,0.000431,0.000353
26542000,0.0324,0.013523,0.002678,0.000431,0.000235
26543000,0.0324,0.013523,0.002678,0.000431,0.000353
26544000,0.0324,0.013523,0.002678,0.000431,0.000470
26545000,0.0324,0.013523,0.002678,0.000431,0.000353
26546000,0.0324,0.013523,0.002678,0.000431,0.000235
26547000,0.0324,0.013523,0.002678,0.000431,0.000353
26548000,0.0324,0.013523,0.002678,0.000431,0.000353
26549000,0.0324,0.013523,0.002678,0.000431,0.000235
26550000,0.0324,0.013523,0.002678,0.000431,0.000353
26551000,0.0324,0.013523,0.002678,0.000431,0.000470
26552000,0.0324,0.013523,0.002678,0.000431,0.000353
26553000,0.0324,0.013523,0.002678,0.000431,0.000235
26554000,0.0324,0.013523,0.002678,0.000431,0.000353
26555000,0.0324,0.013523,0.002678,0.000431,0.000353
26556000,0.0324,0.013523,0.002678,0.000431,0.000235
26557000,0.0324,0.013523,0.002678,0.000431,0.000353
26558000,0.0324,0.013523,0.002678,0.000431,0.000470
26559000,0.0324,0.013523,0.002678,0.000431,0.000353
26560000,0.0324,0.013523,0.002678,0.000431,0.000235
26561000,0.0324,0.013523,0.002678,0.000431,0.000353
26562000,0.0324,0.013523,0.002678,0.000431,0.000353
26563000,0.0324,0.013523,0.002678,0.000431,0.000235
26564000,0.0324,0.013523,0.002678,0.000431,0.000353
26565000,0.0324,0.013523,0.002678,0.000431,0.000470
26566000,0.0324,0.013523,0.002678,0.000431,0.000353
26567000,0.0324,0.013523,0.002678,0.000431,0.000235
26568000,0.0324,0.013523,0.002678,0.000431,0.000353
26569000,0.0324,0.013523,0.002678,0.000431,0.000353
26570000,0.0324,0.013523,0.002678,0.000431,0.000235
26571000,0.0324,0.013523,0.002678,0.000431,0.000353
26572000,0.0324,0.013523,0.002678,0.000431,0.000470
26573000,0.0324,0.013523,0.002678,0.000431,0.000353
26574000,0.0324,0.013523,0.002678,0.000431,0.000235
26575000,0.0324,0.013523,0.002678,0.000431,0.000353
26576000,0.0324,0.013523,0.002678,0.000431,0.000353
26577000,0.0324,0.013523,0.002678,0.000431,0.000235
26578000,0.0324,0.013523,0.002678,0.000431,0.000353
26579000,0.0324,0.013523,0.002678,0.000431,0.000470
26580000,0.0324,0.013523,0.002678,0.000431,0.000353
26581000,0.0324,0.013523,0.002678,0.000431,0.000118
26582000,0.0324,0.013523,0.002678,0.000431,0.000470
26583000,0.0324,0.013523,0.002678,0.000431,0.000353
26584000,0.0324,0.013523,0.002678,0.000431,0.000235
26585000,0.0324,0.013523,0.002678,0.000431,0.000353
26586000,0.0324,0.013523,0.002678,0.000431,0.000470
26587000,0.0324,0.013523,0.002678,0.000431,0.000353
26588000,0.0324,0.013523,0.002678,0.000431,0.000118
26589000,0.0324,0.013523,0.002678,0.000431,0.000470
26590000,0.0324,0.013523,0.002678,0.000431,0.000353
26591000,0.0324,0.013523,0.002678,0.000431,0.000235
26592000,0.0324,0.013523,0.002678,0.000431,0.000353
26593000,0.0324,0.013523,0.002678,0.000431,0.000470
26594000,0.0324,0.013523,0.002678,0.000431,0.000353
26595000,0.0324,0.013523,0.002678,0.000431,0.000118
26596000,0.0324,0.013523,0.002678,0.000431,0.000470
26597000,0.0324,0.013523,0.002678,0.000431,0.000353
26598000,0.0324,0.013523,0.002678,0.000431,0.000235
26599000,0.0324,0.013523,0.002678,0.000431,0.000353
26600000,0.0324,0.013523,0.002678,0.000431,0.000470
26601000,0.0324,0.013523,0.002678,0.000431,0.000235
26602000,0.0324,0.013523,0.002678,0.000431,0.000235
26603000,0.0324,0.013523,0.002678,0.000431,0.000470
26604000,0.0324,0.013523,0.002678,0.000431,0.000353
26605000,0.0324,0.013523,0.002678,0.000431,0.000235
26606000,0.0324,0.013523,0.002678,0.000431,0.000353
26607000,0.0324,0.013523,0.002678,0.000431,0.000470
26608000,0.0324,0.013523,0.002678,0.000431,0.000235
26609000,0.0324,0.013523,0.002678,0.000431,0.000235
26610000,0.0324,0.013523,0.002678,0.000431,0.000470
26611000,0.0324,0.013523,0.002678,0.000431,0.000353
26612000,0.0324,0.013523,0.002678,0.000431,0.000235
26613000,0.0324,0.013523,0.002678,0.000431,0.000353
26614000,0.0324,0.013523,0.002678,0.000431,0.000470
26615000,0.0324,0.013523,0.002678,0.000431,0.000235
26616000,0.0324,0.013523,0.002678,0.000431,0.000235
26617000,0.0324,0.013523,0.002678,0.000431,0.000470
26618000,0.0324,0.013523,0.002678,0.000431,0.000353
26619000,0.0324,0.013523,0.002678,0.000431,0.000235
26620000,0.0324,0.013523,0.002678,0.000431,0.000353
26621000,0.0324,0.013523,0.002678,0.000431,0.000470
26622000,0.0324,0.013523,0.002678,0.000431,0.000235
26623000,0.0324,0.013523,0.002678,0.000431,0.000235
26624000,0.0324,0.013523,0.002678,0.000431,0.000470
26625000,0.0324,0.013523,0.002678,0.000431,0.000353
26626000,0.0324,0.013523,0.002678,0.000431,0.000235
26627000,0.0324,0.013523,0.002678,0.000431,0.000353
26628000,0.0324,0.013523,0.002678,0.000431,0.000470
26629000,0.0324,0.013523,0.002678,0.000431,0.000235
26630000,0.0324,0.013523,0.002678,0.000431,0.000235
26631000,0.0324,0.013523,0.002678,0.000431,0.000470
26632000,0.0324,0.013523,0.002678,0.000431,0.000353
26633000,0.0324,0.013523,0.002678,0.000431,0.000235
26634000,0.0324,0.013523,0.002678,0.000431,0.000353
26635000,0.0324,0.013523,0.002678,0.000431,0.000470
26636000,0.0324,0.013523,0.002678,0.000431,0.000235
26637000,0.0324,0.013523,0.002678,0.000431,0.000235
26638000,0.0324,0.013523,0.002678,0.000431,0.000470
26639000,0.0324,0.013523,0.002678,0.000431,0.000353
26640000,0.0324,0.013523,0.002678,0.000431,0.000235
26641000,0.0324,0.013523,0.002678,0.000431,0.000353
26642000,0.0324,0.013523,0.002678,0.000431,0.000470
26643000,0.0324,0.013523,0.002678,0.000431,0.000118
26644000,0.0324,0.013523,0.002678,0.000431,0.000353
26645000,0.0324,0.013523,0.002678,0.000431,0.000470
26646000,0.0324,0.013523,0.002678,0.000431,0.000353
26647000,0.0324,0.013523,0.002678,0.000431,0.000235
26648000,0.0324,0.013523,0.002678,0.000431,0.000353
26649000,0.0324,0.013523,0.002678,0.000431,0.000470
26650000,0.0324,0.013523,0.002678,0.000431,0.000118
26651000,0.0324,0.013523,0.002678,0.000431,0.000353
26652000,0.0324,0.013523,0.002678,0.000431,0.000470
26653000,0.0324,0.013523,0.002678,0.000431,0.000353
26654000,0.0324,0.013523,0.002678,0.000431,0.000235
26655000,0.0324,0.013523,0.002678,0.000431,0.000353
26656000,0.0324,0.013523,0.002678,0.000431,0.000470
26657000,0.0324,0.013523,0.002678,0.000431,0.000118
26658000,0.0324,0.013523,0.002678,0.000431,0.000353
26659000,0.0324,0.013523,0.002678,0.000431,0.000470
26660000,0.0324,0.013523,0.002678,0.000431,0.000353
26661000,0.0324,0.013523,0.002678,0.000431,0.000235
26662000,0.0324,0.013523,0.002678,0.000431,0.000353
26663000,0.0324,0.013523,0.002678,0.000431,0.000353
26664000,0.0324,0.013523,0.002678,0.000431,0.000235
26665000,0.0324,0.013523,0.002678,0.000431,0.000353
26666000,0.0324,0.013523,0.002678,0.000431,0.000470
26667000,0.0324,0.013523,0.002678,0.000431,0.000353
26668000,0.0324,0.013523,0.002678,0.000431,0.000235
26669000,0.0324,0.013523,0.002678,0.000431,0.000353
26670000,0.0324,0.013523,0.002678,0.000431,0.000353
26671000,0.0324,0.013523,0.002678,0.000431,0.000235
26672000,0.0324,0.013523,0.002678,0.000431,0.000353
26673000,0.0324,0.013523,0.002678,0.000431,0.000470
26674000,0.0324,0.013523,0.002678,0.000431,0.000353
26675000,0.0324,0.013523,0.002678,0.000431,0.000235
26676000,0.0324,0.013523,0.002678,0.000431,0.000353
26677000,0.0324,0.013523,0.002678,0.000431,0.000353
26678000,0.0324,0.013523,0.002678,0.000431,0.000235
26679000,0.0324,0.013523,0.002678,0.000431,0.000353
26680000,0.0324,0.013523,0.002678,0.000431,0.000470
26681000,0.0324,0.013523,0.002678,0.000431,0.000353
26682000,0.0324,0.013523,0.002678,0.000431,0.000235
26683000,0.0324,0.013523,0.002678,0.000431,0.000353
26684000,0.0324,0.013523,0.002678,0.000431,0.000353
26685000,0.0324,0.013523,0.002678,0.000431,0.000235
26686000,0.0324,0.013523,0.002678,0.000431,0.000353
26687000,0.0324,0.013523,0.002678,0.000431,0.000470
26688000,0.0324,0.013523,0.002678,0.000431,0.000353
26689000,0.0324,0.013523,0.002678,0.000431,0.000235
26690000,0.0324,0.013523,0.002678,0.000431,0.000353
26691000,0.0324,0.013523,0.002678,0.000431,0.000353
26692000,0.0324,0.013523,0.002678,0.000431,0.000235
26693000,0.0324,0.013523,0.002678,0.000431,0.000353
26694000,0.0324,0.013523,0.002678,0.000431,0.000470
26695000,0.0324,0.013523,0.002678,0.000431,0.000353
26696000,0.0324,0.013523,0.002678,0.000431,0.000235
26697000,0.0324,0.013523,0.002678,0.000431,0.000353
26698000,0.0324,0.013523,0.002678,0.000431,0.000353
26699000,0.0324,0.013523,0.002678,0.000431,0.000235
26700000,0.0324,0.013523,0.002678,0.000431,0.000353
26701000,0.0324,0.013523,0.002678,0.000431,0.000470
26702000,0.0324,0.013523,0.002678,0.000431,0.000353
26703000,0.0324,0.013523,0.002678,0.000431,0.000235
26704000,0.0324,0.013523,0.002678,0.000431,0.000353
26705000,0.0324,0.013523,0.002678,0.000431,0.000353
26706000,0.0324,0.013523,0.002678,0.000431,0.000235
26707000,0.0324,0.013523,0.002678,0.000431,0.000353
26708000,0.0324,0.013523,0.002678,0.000431,0.000470
26709000,0.0324,0.013523,0.002678,0.000431,0.000353
26710000,0.0324,0.013523,0.002678,0.000431,0.000235
26711000,0.0324,0.013523,0.002678,0.000431,0.000353
26712000,0.0324,0.013523,0.002678,0.000431,0.000353
26713000,0.0324,0.013523,0.002678,0.000431,0.000235
26714000,0.0324,0.013523,0.002678,0.000431,0.000353
26715000,0.0324,0.013523,0.002678,0.000431,0.000470
26716000,0.0324,0.013523,0.002678,0.000431,0.000353
26717000,0.0324,0.013523,0.002678,0.000431,0.000118
26718000,0.0324,0.013523,0.002678,0.000431,0.000470
26719000,0.0324,0.013523,0.002678,0.000431,0.000353
26720000,0.0324,0.013523,0.002678,0.000431,0.000235
26721000,0.0324,0.013523,0.002678,0.000431,0.000353
26722000,0.0324,0.013523,0.002678,0.000431,0.000470
26723000,0.0324,0.013523,0.002678,0.000431,0.000353
26724000,0.0324,0.013523,0.002678,0.000431,0.000118
26725000,0.0324,0.013523,0.002678,0.000431,0.000470
26726000,0.0324,0.013523,0.002678,0.000431,0.000353
26727000,0.0324,0.013523,0.002678,0.000431,0.000235
26728000,0.0324,0.013523,0.002678,0.000431,0.000353
26729000,0.0324,0.013523,0.002678,0.000431,0.000470
26730000,0.0324,0.013523,0.002678,0.000431,0.000353
26731000,0.0324,0.013523,0.002678,0.000431,0.000118
26732000,0.0324,0.013523,0.002678,0.000431,0.000470
26733000,0.0324,0.013523,0.002678,0.000431,0.000353
26734000,0.0324,0.013523,0.002678,0.000431,0.000235
26735000,0.0324,0.013523,0.002678,0.000431,0.000353
26736000,0.0324,0.013523,0.002678,0.000431,0.000470
26737000,0.0324,0.013523,0.002678,0.000431,0.000353
26738000,0.0324,0.013523,0.002678,0.000431,0.000118
26739000,0.0324,0.013523,0.002678,0.000431,0.000470
26740000,0.0324,0.013523,0.002678,0.000431,0.000353
26741000,0.0324,0.013523,0.002678,0.000431,0.000235
26742000,0.0324,0.013523,0.002678,0.000431,0.000353
26743000,0.0324,0.013523,0.002678,0.000431,0.000470
26744000,0.0324,0.013523,0.002678,0.000431,0.000235
26745000,0.0324,0.013523,0.002678,0.000431,0.000235
26746000,0.0324,0.013523,0.002678,0.000431,0.000470
26747000,0.0324,0.013523,0.002678,0.000431,0.000353
26748000,0.0324,0.013523,0.002678,0.000431,0.000235
26749000,0.0324,0.013523,0.002678,0.000431,0.000353
26750000,0.0324,0.013523,0.002678,0.000431,0.000470
26751000,0.0324,0.013523,0.002678,0.000431,0.000235
26752000,0.0324,0.013523,0.002678,0.000431,0.000235
26753000,0.0324,0.013523,0.002678,0.000431,0.000470
26754000,0.0324,0.013523,0.002678,0.000431,0.000353
26755000,0.0324,0.013523,0.002678,0.000431,0.000235
26756000,0.0324,0.013523,0.002678,0.000431,0.000353
26757000,0.0324,0.013523,0.002678,0.000431,0.000470
26758000,0.0324,0.013523,0.002678,0.000431,0.000235
26759000,0.0324,0.013523,0.002678,0.000431,0.000235
26760000,0.0324,0.013523,0.002678,0.000431,0.000470
26761000,0.0324,0.013523,0.002678,0.000431,0.000353
26762000,0.0324,0.013523,0.002678,0.000431,0.000235
26763000,0.0324,0.013523,0.002678,0.000431,0.000353
26764000,0.0324,0.013523,0.002678,0.000431,0.000470
26765000,0.0324,0.013523,0.002678,0.000431,0.000235
26766000,0.0324,0.013523,0.002678,0.000431,0.000235
26767000,0.0324,0.013523,0.002678,0.000431,0.000470
26768000,0.0324,0.013523,0.002678,0.000431,0.000353
26769000,0.0324,0.013523,0.002678,0.000431,0.000235
26770000,0.0324,0.013523,0.002678,0.000431,0.000353
26771000,0.0324,0.013523,0.002678,0.000431,0.000470
26772000,0.0324,0.013523,0.002678,0.000431,0.000235
26773000,0.0324,0.013523,0.002678,0.000431,0.000235
26774000,0.0324,0.013523,0.002678,0.000431,0.000470
26775000,0.0324,0.013523,0.002678,0.000431,0.000353
26776000,0.0324,0.013523,0.002678,0.000431,0.000235
26777000,0.0324,0.013523,0.002678,0.000431,0.000353
26778000,0.0324,0.013523,0.002678,0.000431,0.000470
26779000,0.0324,0.013523,0.002678,0.000431,0.000235
26780000,0.0324,0.013523,0.002678,0.000431,0.000235
26781000,0.0324,0.013523,0.002678,0.000431,0.000470
26782000,0.0324,0.013523,0.002678,0.000431,0.000353
26783000,0.0324,0.013523,0.002678,0.000431,0.000235
26784000,0.0324,0.013523,0.002678,0.000431,0.000353
26785000,0.0324,0.013523,0.002678,0.000431,0.000470
26786000,0.0324,0.013523,0.002678,0.000431,0.000118
26787000,0.0324,0.013523,0.002678,0.000431,0.000353
26788000,0.0324,0.013523,0.002678,0.000431,0.000470
26789000,0.0324,0.013523,0.002678,0.000431,0.000353
26790000,0.0324,0.013523,0.002678,0.000431,0.000235
26791000,0.0324,0.013523,0.002678,0.000431,0.000353
26792000,0.0324,0.013523,0.002678,0.000431,0.000470
26793000,0.0324,0.013523,0.002678,0.000431,0.000118
26794000,0.0324,0.013523,0.002678,0.000431,0.000353
26795000,0.0324,0.013523,0.002678,0.000431,0.000470
26796000,0.0324,0.013523,0.002678,0.000431,0.000353
26797000,0.0324,0.013523,0.002678,0.000431,0.000235
26798000,0.0324,0.013523,0.002678,0.000431,0.000353
26799000,0.0324,0.013523,0.002678,0.000431,0.000470
26800000,0.0324,0.013523,0.002678,0.000431,0.000118
26801000,0.0324,0.013523,0.002678,0.000431,0.000353
26802000,0.0324,0.013523,0.002678,0.000431,0.000470
26803000,0.0324,0.013523,0.002678,0.000431,0.000353
26804000,0.0324,0.013523,0.002678,0.000431,0.000235
26805000,0.0324,0.013523,0.002678,0.000431,0.000353
26806000,0.0324,0.013523,0.002678,0.000431,0.000353
26807000,0.0324,0.013523,0.002678,0.000431,0.000235
26808000,0.0324,0.013523,0.002678,0.000431,0.000353
26809000,0.0324,0.013523,0.002678,0.000431,0.000470
26810000,0.0324,0.013523,0.002678,0.000431,0.000353
26811000,0.0324,0.013523,0.002678,0.000431,0.000235
26812000,0.0324,0.013523,0.002678,0.000431,0.000353
26813000,0.0324,0.013523,0.002678,0.000431,0.000353
26814000,0.0324,0.013523,0.002678,0.000431,0.000235
26815000,0.0324,0.013523,0.002678,0.000431,0.000353
26816000,0.0324,0.013523,0.002678,0.000431,0.000470
26817000,0.0324,0.013523,0.002678,0.000431,0.000353
26818000,0.0324,0.013523,0.002678,0.000431,0.000235
26819000,0.0324,0.013523,0.002678,0.000431,0.000353
26820000,0.0324,0.013523,0.002678,0.000431,0.000353
26821000,0.0324,0.013523,0.002678,0.000431,0.000235
26822000,0.0324,0.013523,0.002678,0.000431,0.000353
26823000,0.0324,0.013523,0.002678,0.000431,0.000470
26824000,0.0324,0.013523,0.002678,0.000431,0.000353
26825000,0.0324,0.013523,0.002678,0.000431,0.000235
26826000,0.0324,0.013523,0.002678,0.000431,0.000353
26827000,0.0324,0.013523,0.002678,0.000431,0.000353
26828000,0.0324,0.013523,0.002678,0.000431,0.000235
26829000,0.0324,0.013523,0.002678,0.000431,0.000353
26830000,0.0324,0.013523,0.002678,0.000431,0.000470
26831000,0.0324,0.013523,0.002678,0.000431,0.000353
26832000,0.0324,0.013523,0.002678,0.000431,0.000235
26833000,0.0324,0.013523,0.002678,0.000431,0.000353
26834000,0.0324,0.013523,0.002678,0.000431,0.000353
26835000,0.0324,0.013523,0.002678,0.000431,0.000235
26836000,0.0324,0.013523,0.002678,0.000431,0.000353
26837000,0.0324,0.013523,0.002678,0.000431,0.000470
26838000,0.0324,0.013523,0.002678,0.000431,0.000353
26839000,0.0324,0.013523,0.002678,0.000431,0.000235
26840000,0.0324,0.013523,0.002678,0.000431,0.000353
26841000,0.0324,0.013523,0.002678,0.000431,0.000353
26842000,0.0324,0.013523,0.002678,0.000431,0.000235
26843000,0.0324,0.013523,0.002678,0.000431,0.000353
26844000,0.0324,0.013523,0.002678,0.000431,0.000470
26845000,0.0324,0.013523,0.002678,0.000431,0.000353
26846000,0.0324,0.013523,0.002678,0.000431,0.000235
26847000,0.0324,0.013523,0.002678,0.000431,0.000353
26848000,0.0324,0.013523,0.002678,0.000431,0.000353
26849000,0.0324,0.013523,0.002678,0.000431,0.000235
26850000,0.0324,0.013523,0.002678,0.000431,0.000353
26851000,0.0324,0.013523,0.002678,0.000431,0.000470
26852000,0.0324,0.013523,0.002678,0.000431,0.000353
26853000,0.0324,0.013523,0.002678,0.000431,0.000235
26854000,0.0324,0.013523,0.002678,0.000431,0.000353
26855000,0.0324,0.013523,0.002678,0.000431,0.000353
26856000,0.0324,0.013523,0.002678,0.000431,0.000235
26857000,0.0324,0.013523,0.002678,0.000431,0.000353
26858000,0.0324,0.013523,0.002678,0.000431,0.000470
26859000,0.0324,0.013523,0.002678,0.000431,0.000353
26860000,0.0324,0.013523,0.002678,0.000431,0.000118
26861000,0.0324,0.013523,0.002678,0.000431,0.000470
26862000,0.0324,0.013523,0.002678,0.000431,0.000353
26863000,0.0324,0.013523,0.002678,0.000431,0.000235
26864000,0.0324,0.013523,0.002678,0.000431,0.000353
26865000,0.0324,0.013523,0.002678,0.000431,0.000470
26866000,0.0324,0.013523,0.002678,0.000431,0.000353
26867000,0.0324,0.013523,0.002678,0.000431,0.000118
26868000,0.0324,0.013523,0.002678,0.000431,0.000470
26869000,0.0324,0.013523,0.002678,0.000431,0.000353
26870000,0.0324,0.013523,0.002678,0.000431,0.000235
26871000,0.0324,0.013523,0.002678,0.000431,0.000353
26872000,0.0324,0.013523,0.002678,0.000431,0.000470
26873000,0.0324,0.013523,0.002678,0.000431,0.000353
26874000,0.0324,0.013523,0.002678,0.000431,0.000118
26875000,0.0324,0.013523,0.002678,0.000431,0.000470
26876000,0.0324,0.013523,0.002678,0.000431,0.000353
26877000,0.0324,0.013523,0.002678,0.000431,0.000235
26878000,0.0324,0.013523,0.002678,0.000431,0.000353
26879000,0.0324,0.013523,0.002678,0.000431,0.000470
26880000,0.0324,0.013523,0.002678,0.000431,0.000235
26881000,0.0324,0.013523,0.002678,0.000431,0.000235
26882000,0.0324,0.013523,0.002678,0.000431,0.000470
26883000,0.0324,0.013523,0.002678,0.000431,0.000353
26884000,0.0324,0.013523,0.002678,0.000431,0.000235
26885000,0.0324,0.013523,0.002678,0.000431,0.000353
26886000,0.0324,0.013523,0.002678,0.000431,0.000470
26887000,0.0324,0.013523,0.002678,0.000431,0.000235
26888000,0.0324,0.013523,0.002678,0.000431,0.000235
26889000,0.0324,0.013523,0.002678,0.000431,0.000470
26890000,0.0324,0.013523,0.002678,0.000431,0.000353
26891000,0.0324,0.013523,0.002678,0.000431,0.000235
26892000,0.0324,0.013523,0.002678,0.000431,0.000353
26893000,0.0324,0.013523,0.002678,0.000431,0.000470
26894000,0.0324,0.013523,0.002678,0.000431,0.000235
26895000,0.0324,0.013523,0.002678,0.000431,0.000235
26896000,0.0324,0.013523,0.002678,0.000431,0.000470
26897000,0.0324,0.013523,0.002678,0.000431,0.000353
26898000,0.0324,0.013523,0.002678,0.000431,0.000235
26899000,0.0324,0.013523,0.002678,0.000431,0.000353
26900000,0.0324,0.013523,0.002678,0.000431,0.000470
26901000,0.0324,0.013523,0.002678,0.000431,0.000235
26902000,0.0324,0.013523,0.002678,0.000431,0.000235
26903000,0.0324,0.013523,0.002678,0.000431,0.000470
26904000,0.0324,0.013523,0.002678,0.000431,0.000353
26905000,0.0324,0.013523,0.002678,0.000431,0.000235
26906000,0.0324,0.013523,0.002678,0.000431,0.000353
26907000,0.0324,0.013523,0.002678,0.000431,0.000470
26908000,0.0324,0.013523,0.002678,0.000431,0.000235
26909000,0.0324,0.013523,0.002678,0.000431,0.000235
26910000,0.0324,0.013523,0.002678,0.000431,0.000470
26911000,0.0324,0.013523,0.002678,0.000431,0.000353
26912000,0.0324,0.013523,0.002678,0.000431,0.000235
26913000,0.0324,0.013523,0.002678,0.000431,0.000353
26914000,0.0324,0.013523,0.002678,0.000431,0.000470
26915000,0.0324,0.013523,0.002678,0.000431,0.000235
26916000,0.0324,0.013523,0.002678,0.000431,0.000235
26917000,0.0324,0.013523,0.002678,0.000431,0.000470
26918000,0.0324,0.013523,0.002678,0.000431,0.000353
26919000,0.0324,0.013523,0.002678,0.000431,0.000235
26920000,0.0324,0.013523,0.002678,0.000431,0.000353
26921000,0.0324,0.013523,0.002678,0.000431,0.000470
26922000,0.0324,0.013523,0.002678,0.000431,0.000118
26923000,0.0324,0.013523,0.002678,0.000431,0.000353
26924000,0.0324,0.013523,0.002678,0.000431,0.000470
26925000,0.0324,0.013523,0.002678,0.000431,0.000353
26926000,0.0324,0.013523,0.002678,0.000431,0.000235
26927000,0.0324,0.013523,0.002678,0.000431,0.000353
26928000,0.0324,0.013523,0.002678,0.000431,0.000470
26929000,0.0324,0.013523,0.002678,0.000431,0.000118
26930000,0.0324,0.013523,0.002678,0.000431,0.000353
26931000,0.0324,0.013523,0.002678,0.000431,0.000470
26932000,0.0324,0.013523,0.002678,0.000431,0.000353
26933000,0.0324,0.013523,0.002678,0.000431,0.000235
26934000,0.0324,0.013523,0.002678,0.000431,0.000353
26935000,0.0324,0.013523,0.002678,0.000431,0.000470
26936000,0.0324,0.013523,0.002678,0.000431,0.000118
26937000,0.0324,0.013523,0.002678,0.000431,0.000353
26938000,0.0324,0.013523,0.002678,0.000431,0.000470
26939000,0.0324,0.013523,0.002678,0.000431,0.000353
26940000,0.0324,0.013523,0.002678,0.000431,0.000235
26941000,0.0324,0.013523,0.002678,0.000431,0.000353
26942000,0.0324,0.013523,0.002678,0.000431,0.000470
26943000,0.0324,0.013523,0.002678,0.000431,0.000118
26944000,0.0324,0.013523,0.002678,0.000431,0.000353
26945000,0.0324,0.013523,0.002678,0.000431,0.000470
26946000,0.0324,0.013523,0.002678,0.000431,0.000353
26947000,0.0324,0.013523,0.002678,0.000431,0.000235
26948000,0.0324,0.013523,0.002678,0.000431,0.000353
26949000,0.0324,0.013523,0.002678,0.000431,0.000353
26950000,0.0324,0.013523,0.002678,0.000431,0.000235
26951000,0.0324,0.013523,0.002678,0.000431,0.000353
26952000,0.0324,0.013523,0.002678,0.000431,0.000470
26953000,0.0324,0.013523,0.002678,0.000431,0.000353
26954000,0.0324,0.013523,0.002678,0.000431,0.000235
26955000,0.0324,0.013523,0.002678,0.000431,0.000353
26956000,0.0324,0.013523,0.002678,0.000431,0.000353
26957000,0.0324,0.013523,0.002678,0.000431,0.000235
26958000,0.0324,0.013523,0.002678,0.000431,0.000353
26959000,0.0324,0.013523,0.002678,0.000431,0.000470
26960000,0.0324,0.013523,0.002678,0.000431,0.000353
26961000,0.0324,0.013523,0.002678,0.000431,0.000235
26962000,0.0324,0.013523,0.002678,0.000431,0.000353
26963000,0.0324,0.013523,0.002678,0.000431,0.000353
26964000,0.0324,0.013523,0.002678,0.000431,0.000235
26965000,0.0324,0.013523,0.002678,0.000431,0.000353
26966000,0.0324,0.013523,0.002678,0.000431,0.000470
26967000,0.0324,0.013523,0.002678,0.000431,0.000353
26968000,0.0324,0.013523,0.002678,0.000431,0.000235
26969000,0.0324,0.013523,0.002678,0.000431,0.000353
26970000,0.0324,0.013523,0.002678,0.000431,0.000353
26971000,0.0324,0.013523,0.002678,0.000431,0.000235
26972000,0.0324,0.013523,0.002678,0.000431,0.000353
26973000,0.0324,0.013523,0.002678,0.000431,0.000470
26974000,0.0324,0.013523,0.002678,0.000431,0.000353
26975000,0.0324,0.013523,0.002678,0.000431,0.000235
26976000,0.0324,0.013523,0.002678,0.000431,0.000353
26977000,0.0324,0.013523,0.002678,0.000431,0.000353
26978000,0.0324,0.013523,0.002678,0.000431,0.000235
26979000,0.0324,0.013523,0.002678,0.000431,0.000353
26980000,0.0324,0.013523,0.002678,0.000431,0.000470
26981000,0.0324,0.013523,0.002678,0.000431,0.000353
26982000,0.0324,0.013523,0.002678,0.000431,0.000235
26983000,0.0324,0.013523,0.002678,0.000431,0.000353
26984000,0.0324,0.013523,0.002678,0.000431,0.000353
26985000,0.0324,0.013523,0.002678,0.000431,0.000235
26986000,0.0324,0.013523,0.002678,0.000431,0.000353
26987000,0.0324,0.013523,0.002678,0.000431,0.000470
26988000,0.0324,0.013523,0.002678,0.000431,0.000353
26989000,0.0324,0.013523,0.002678,0.000431,0.000235
26990000,0.0324,0.013523,0.002678,0.000431,0.000353
26991000,0.0324,0.013523,0.002678,0.000431,0.000353
26992000,0.0324,0.013523,0.002678,0.000431,0.000235
26993000,0.0324,0.013523,0.002678,0.000431,0.000353
26994000,0.0324,0.013523,0.002678,0.000431,0.000470
26995000,0.0324,0.013523,0.002678,0.000431,0.000353
26996000,0.0324,0.013523,0.002678,0.000431,0.000118
26997000,0.0324,0.013523,0.002678,0.000431,0.000470
26998000,0.0324,0.013523,0.002678,0.000431,0.000353
26999000,0.0324,0.013523,0.002678,0.000431,0.000235
