Cycle,Area(mm^2),PeakDynamic(W),SubthresholdLeakage(W),GateLeakage(W),RunTimeDynamic(W)
20000000,0.0324,0.013523,0.002678,0.000431,0.000353
20001000,0.0324,0.013523,0.002678,0.000431,0.000470
20002000,0.0324,0.013523,0.002678,0.000431,0.000353
20003000,0.0324,0.013523,0.002678,0.000431,0.000235
20004000,0.0324,0.013523,0.002678,0.000431,0.000353
20005000,0.0324,0.013523,0.002678,0.000431,0.000470
20006000,0.0324,0.013523,0.002678,0.000431,0.000118
20007000,0.0324,0.013523,0.002678,0.000431,0.000353
20008000,0.0324,0.013523,0.002678,0.000431,0.000470
20009000,0.0324,0.013523,0.002678,0.000431,0.000353
20010000,0.0324,0.013523,0.002678,0.000431,0.000235
20011000,0.0324,0.013523,0.002678,0.000431,0.000353
20012000,0.0324,0.013523,0.002678,0.000431,0.000470
20013000,0.0324,0.013523,0.002678,0.000431,0.000118
20014000,0.0324,0.013523,0.002678,0.000431,0.000353
20015000,0.0324,0.013523,0.002678,0.000431,0.000470
20016000,0.0324,0.013523,0.002678,0.000431,0.000353
20017000,0.0324,0.013523,0.002678,0.000431,0.000235
20018000,0.0324,0.013523,0.002678,0.000431,0.000353
20019000,0.0324,0.013523,0.002678,0.000431,0.000353
20020000,0.0324,0.013523,0.002678,0.000431,0.000235
20021000,0.0324,0.013523,0.002678,0.000431,0.000353
20022000,0.0324,0.013523,0.002678,0.000431,0.000470
20023000,0.0324,0.013523,0.002678,0.000431,0.000353
20024000,0.0324,0.013523,0.002678,0.000431,0.000235
20025000,0.0324,0.013523,0.002678,0.000431,0.000353
20026000,0.0324,0.013523,0.002678,0.000431,0.000353
20027000,0.0324,0.013523,0.002678,0.000431,0.000235
20028000,0.0324,0.013523,0.002678,0.000431,0.000353
20029000,0.0324,0.013523,0.002678,0.000431,0.000470
20030000,0.0324,0.013523,0.002678,0.000431,0.000353
20031000,0.0324,0.013523,0.002678,0.000431,0.000235
20032000,0.0324,0.013523,0.002678,0.000431,0.000353
20033000,0.0324,0.013523,0.002678,0.000431,0.000353
20034000,0.0324,0.013523,0.002678,0.000431,0.000235
20035000,0.0324,0.013523,0.002678,0.000431,0.000353
20036000,0.0324,0.013523,0.002678,0.000431,0.000470
20037000,0.0324,0.013523,0.002678,0.000431,0.000353
20038000,0.0324,0.013523,0.002678,0.000431,0.000235
20039000,0.0324,0.013523,0.002678,0.000431,0.000353
20040000,0.0324,0.013523,0.002678,0.000431,0.000353
20041000,0.0324,0.013523,0.002678,0.000431,0.000235
20042000,0.0324,0.013523,0.002678,0.000431,0.000353
20043000,0.0324,0.013523,0.002678,0.000431,0.000470
20044000,0.0324,0.013523,0.002678,0.000431,0.000353
20045000,0.0324,0.013523,0.002678,0.000431,0.000235
20046000,0.0324,0.013523,0.002678,0.000431,0.000353
20047000,0.0324,0.013523,0.002678,0.000431,0.000353
20048000,0.0324,0.013523,0.002678,0.000431,0.000235
20049000,0.0324,0.013523,0.002678,0.000431,0.000353
20050000,0.0324,0.013523,0.002678,0.000431,0.000470
20051000,0.0324,0.013523,0.002678,0.000431,0.000353
20052000,0.0324,0.013523,0.002678,0.000431,0.000235
20053000,0.0324,0.013523,0.002678,0.000431,0.000353
20054000,0.0324,0.013523,0.002678,0.000431,0.000353
20055000,0.0324,0.013523,0.002678,0.000431,0.000235
20056000,0.0324,0.013523,0.002678,0.000431,0.000353
20057000,0.0324,0.013523,0.002678,0.000431,0.000470
20058000,0.0324,0.013523,0.002678,0.000431,0.000353
20059000,0.0324,0.013523,0.002678,0.000431,0.000235
20060000,0.0324,0.013523,0.002678,0.000431,0.000353
20061000,0.0324,0.013523,0.002678,0.000431,0.000353
20062000,0.0324,0.013523,0.002678,0.000431,0.000235
20063000,0.0324,0.013523,0.002678,0.000431,0.000353
20064000,0.0324,0.013523,0.002678,0.000431,0.000470
20065000,0.0324,0.013523,0.002678,0.000431,0.000353
20066000,0.0324,0.013523,0.002678,0.000431,0.000235
20067000,0.0324,0.013523,0.002678,0.000431,0.000353
20068000,0.0324,0.013523,0.002678,0.000431,0.000353
20069000,0.0324,0.013523,0.002678,0.000431,0.000235
20070000,0.0324,0.013523,0.002678,0.000431,0.000353
20071000,0.0324,0.013523,0.002678,0.000431,0.000470
20072000,0.0324,0.013523,0.002678,0.000431,0.000353
20073000,0.0324,0.013523,0.002678,0.000431,0.000118
20074000,0.0324,0.013523,0.002678,0.000431,0.000470
20075000,0.0324,0.013523,0.002678,0.000431,0.000353
20076000,0.0324,0.013523,0.002678,0.000431,0.000235
20077000,0.0324,0.013523,0.002678,0.000431,0.000353
20078000,0.0324,0.013523,0.002678,0.000431,0.000470
20079000,0.0324,0.013523,0.002678,0.000431,0.000353
20080000,0.0324,0.013523,0.002678,0.000431,0.000118
20081000,0.0324,0.013523,0.002678,0.000431,0.000470
20082000,0.0324,0.013523,0.002678,0.000431,0.000353
20083000,0.0324,0.013523,0.002678,0.000431,0.000235
20084000,0.0324,0.013523,0.002678,0.000431,0.000353
20085000,0.0324,0.013523,0.002678,0.000431,0.000470
20086000,0.0324,0.013523,0.002678,0.000431,0.000353
20087000,0.0324,0.013523,0.002678,0.000431,0.000118
20088000,0.0324,0.013523,0.002678,0.000431,0.000470
20089000,0.0324,0.013523,0.002678,0.000431,0.000353
20090000,0.0324,0.013523,0.002678,0.000431,0.000235
20091000,0.0324,0.013523,0.002678,0.000431,0.000353
20092000,0.0324,0.013523,0.002678,0.000431,0.000470
20093000,0.0324,0.013523,0.002678,0.000431,0.000353
20094000,0.0324,0.013523,0.002678,0.000431,0.000118
20095000,0.0324,0.013523,0.002678,0.000431,0.000470
20096000,0.0324,0.013523,0.002678,0.000431,0.000353
20097000,0.0324,0.013523,0.002678,0.000431,0.000235
20098000,0.0324,0.013523,0.002678,0.000431,0.000353
20099000,0.0324,0.013523,0.002678,0.000431,0.000470
20100000,0.0324,0.013523,0.002678,0.000431,0.000235
20101000,0.0324,0.013523,0.002678,0.000431,0.000235
20102000,0.0324,0.013523,0.002678,0.000431,0.000470
20103000,0.0324,0.013523,0.002678,0.000431,0.000353
20104000,0.0324,0.013523,0.002678,0.000431,0.000235
20105000,0.0324,0.013523,0.002678,0.000431,0.000353
20106000,0.0324,0.013523,0.002678,0.000431,0.000470
20107000,0.0324,0.013523,0.002678,0.000431,0.000235
20108000,0.0324,0.013523,0.002678,0.000431,0.000235
20109000,0.0324,0.013523,0.002678,0.000431,0.000470
20110000,0.0324,0.013523,0.002678,0.000431,0.000353
20111000,0.0324,0.013523,0.002678,0.000431,0.000235
20112000,0.0324,0.013523,0.002678,0.000431,0.000353
20113000,0.0324,0.013523,0.002678,0.000431,0.000470
20114000,0.0324,0.013523,0.002678,0.000431,0.000235
20115000,0.0324,0.013523,0.002678,0.000431,0.000235
20116000,0.0324,0.013523,0.002678,0.000431,0.000470
20117000,0.0324,0.013523,0.002678,0.000431,0.000353
20118000,0.0324,0.013523,0.002678,0.000431,0.000235
20119000,0.0324,0.013523,0.002678,0.000431,0.000353
20120000,0.0324,0.013523,0.002678,0.000431,0.000470
20121000,0.0324,0.013523,0.002678,0.000431,0.000235
20122000,0.0324,0.013523,0.002678,0.000431,0.000235
20123000,0.0324,0.013523,0.002678,0.000431,0.000470
20124000,0.0324,0.013523,0.002678,0.000431,0.000353
20125000,0.0324,0.013523,0.002678,0.000431,0.000235
20126000,0.0324,0.013523,0.002678,0.000431,0.000353
20127000,0.0324,0.013523,0.002678,0.000431,0.000470
20128000,0.0324,0.013523,0.002678,0.000431,0.000235
20129000,0.0324,0.013523,0.002678,0.000431,0.000235
20130000,0.0324,0.013523,0.002678,0.000431,0.000470
20131000,0.0324,0.013523,0.002678,0.000431,0.000353
20132000,0.0324,0.013523,0.002678,0.000431,0.000235
20133000,0.0324,0.013523,0.002678,0.000431,0.000353
20134000,0.0324,0.013523,0.002678,0.000431,0.000470
20135000,0.0324,0.013523,0.002678,0.000431,0.000118
20136000,0.0324,0.013523,0.002678,0.000431,0.000353
20137000,0.0324,0.013523,0.002678,0.000431,0.000470
20138000,0.0324,0.013523,0.002678,0.000431,0.000353
20139000,0.0324,0.013523,0.002678,0.000431,0.000235
20140000,0.0324,0.013523,0.002678,0.000431,0.000353
20141000,0.0324,0.013523,0.002678,0.000431,0.000470
20142000,0.0324,0.013523,0.002678,0.000431,0.000118
20143000,0.0324,0.013523,0.002678,0.000431,0.000353
20144000,0.0324,0.013523,0.002678,0.000431,0.000470
20145000,0.0324,0.013523,0.002678,0.000431,0.000353
20146000,0.0324,0.013523,0.002678,0.000431,0.000235
20147000,0.0324,0.013523,0.002678,0.000431,0.000353
20148000,0.0324,0.013523,0.002678,0.000431,0.000470
20149000,0.0324,0.013523,0.002678,0.000431,0.000118
20150000,0.0324,0.013523,0.002678,0.000431,0.000353
20151000,0.0324,0.013523,0.002678,0.000431,0.000470
20152000,0.0324,0.013523,0.002678,0.000431,0.000353
20153000,0.0324,0.013523,0.002678,0.000431,0.000235
20154000,0.0324,0.013523,0.002678,0.000431,0.000353
20155000,0.0324,0.013523,0.002678,0.000431,0.000470
20156000,0.0324,0.013523,0.002678,0.000431,0.000118
20157000,0.0324,0.013523,0.002678,0.000431,0.000353
20158000,0.0324,0.013523,0.002678,0.000431,0.000470
20159000,0.0324,0.013523,0.002678,0.000431,0.000353
20160000,0.0324,0.013523,0.002678,0.000431,0.000235
20161000,0.0324,0.013523,0.002678,0.000431,0.000353
20162000,0.0324,0.013523,0.002678,0.000431,0.000353
20163000,0.0324,0.013523,0.002678,0.000431,0.000235
20164000,0.0324,0.013523,0.002678,0.000431,0.000353
20165000,0.0324,0.013523,0.002678,0.000431,0.000470
20166000,0.0324,0.013523,0.002678,0.000431,0.000353
20167000,0.0324,0.013523,0.002678,0.000431,0.000235
20168000,0.0324,0.013523,0.002678,0.000431,0.000353
20169000,0.0324,0.013523,0.002678,0.000431,0.000353
20170000,0.0324,0.013523,0.002678,0.000431,0.000235
20171000,0.0324,0.013523,0.002678,0.000431,0.000353
20172000,0.0324,0.013523,0.002678,0.000431,0.000470
20173000,0.0324,0.013523,0.002678,0.000431,0.000353
20174000,0.0324,0.013523,0.002678,0.000431,0.000235
20175000,0.0324,0.013523,0.002678,0.000431,0.000353
20176000,0.0324,0.013523,0.002678,0.000431,0.000353
20177000,0.0324,0.013523,0.002678,0.000431,0.000235
20178000,0.0324,0.013523,0.002678,0.000431,0.000353
20179000,0.0324,0.013523,0.002678,0.000431,0.000470
20180000,0.0324,0.013523,0.002678,0.000431,0.000353
20181000,0.0324,0.013523,0.002678,0.000431,0.000235
20182000,0.0324,0.013523,0.002678,0.000431,0.000353
20183000,0.0324,0.013523,0.002678,0.000431,0.000353
20184000,0.0324,0.013523,0.002678,0.000431,0.000235
20185000,0.0324,0.013523,0.002678,0.000431,0.000353
20186000,0.0324,0.013523,0.002678,0.000431,0.000470
20187000,0.0324,0.013523,0.002678,0.000431,0.000353
20188000,0.0324,0.013523,0.002678,0.000431,0.000235
20189000,0.0324,0.013523,0.002678,0.000431,0.000353
20190000,0.0324,0.013523,0.002678,0.000431,0.000353
20191000,0.0324,0.013523,0.002678,0.000431,0.000235
20192000,0.0324,0.013523,0.002678,0.000431,0.000353
20193000,0.0324,0.013523,0.002678,0.000431,0.000470
20194000,0.0324,0.013523,0.002678,0.000431,0.000353
20195000,0.0324,0.013523,0.002678,0.000431,0.000235
20196000,0.0324,0.013523,0.002678,0.000431,0.000353
20197000,0.0324,0.013523,0.002678,0.000431,0.000353
20198000,0.0324,0.013523,0.002678,0.000431,0.000235
20199000,0.0324,0.013523,0.002678,0.000431,0.000353
20200000,0.0324,0.013523,0.002678,0.000431,0.000470
20201000,0.0324,0.013523,0.002678,0.000431,0.000353
20202000,0.0324,0.013523,0.002678,0.000431,0.000235
20203000,0.0324,0.013523,0.002678,0.000431,0.000353
20204000,0.0324,0.013523,0.002678,0.000431,0.000353
20205000,0.0324,0.013523,0.002678,0.000431,0.000235
20206000,0.0324,0.013523,0.002678,0.000431,0.000353
20207000,0.0324,0.013523,0.002678,0.000431,0.000470
20208000,0.0324,0.013523,0.002678,0.000431,0.000353
20209000,0.0324,0.013523,0.002678,0.000431,0.000235
20210000,0.0324,0.013523,0.002678,0.000431,0.000353
20211000,0.0324,0.013523,0.002678,0.000431,0.000353
20212000,0.0324,0.013523,0.002678,0.000431,0.000235
20213000,0.0324,0.013523,0.002678,0.000431,0.000353
20214000,0.0324,0.013523,0.002678,0.000431,0.000470
20215000,0.0324,0.013523,0.002678,0.000431,0.000353
20216000,0.0324,0.013523,0.002678,0.000431,0.000118
20217000,0.0324,0.013523,0.002678,0.000431,0.000470
20218000,0.0324,0.013523,0.002678,0.000431,0.000353
20219000,0.0324,0.013523,0.002678,0.000431,0.000235
20220000,0.0324,0.013523,0.002678,0.000431,0.000353
20221000,0.0324,0.013523,0.002678,0.000431,0.000470
20222000,0.0324,0.013523,0.002678,0.000431,0.000353
20223000,0.0324,0.013523,0.002678,0.000431,0.000118
20224000,0.0324,0.013523,0.002678,0.000431,0.000470
20225000,0.0324,0.013523,0.002678,0.000431,0.000353
20226000,0.0324,0.013523,0.002678,0.000431,0.000235
20227000,0.0324,0.013523,0.002678,0.000431,0.000353
20228000,0.0324,0.013523,0.002678,0.000431,0.000470
20229000,0.0324,0.013523,0.002678,0.000431,0.000353
20230000,0.0324,0.013523,0.002678,0.000431,0.000118
20231000,0.0324,0.013523,0.002678,0.000431,0.000470
20232000,0.0324,0.013523,0.002678,0.000431,0.000353
20233000,0.0324,0.013523,0.002678,0.000431,0.000235
20234000,0.0324,0.013523,0.002678,0.000431,0.000353
20235000,0.0324,0.013523,0.002678,0.000431,0.000470
20236000,0.0324,0.013523,0.002678,0.000431,0.000235
20237000,0.0324,0.013523,0.002678,0.000431,0.000235
20238000,0.0324,0.013523,0.002678,0.000431,0.000470
20239000,0.0324,0.013523,0.002678,0.000431,0.000353
20240000,0.0324,0.013523,0.002678,0.000431,0.000235
20241000,0.0324,0.013523,0.002678,0.000431,0.000353
20242000,0.0324,0.013523,0.002678,0.000431,0.000470
20243000,0.0324,0.013523,0.002678,0.000431,0.000235
20244000,0.0324,0.013523,0.002678,0.000431,0.000235
20245000,0.0324,0.013523,0.002678,0.000431,0.000470
20246000,0.0324,0.013523,0.002678,0.000431,0.000353
20247000,0.0324,0.013523,0.002678,0.000431,0.000235
20248000,0.0324,0.013523,0.002678,0.000431,0.000353
20249000,0.0324,0.013523,0.002678,0.000431,0.000470
20250000,0.0324,0.013523,0.002678,0.000431,0.000235
20251000,0.0324,0.013523,0.002678,0.000431,0.000235
20252000,0.0324,0.013523,0.002678,0.000431,0.000470
20253000,0.0324,0.013523,0.002678,0.000431,0.000353
20254000,0.0324,0.013523,0.002678,0.000431,0.000235
20255000,0.0324,0.013523,0.002678,0.000431,0.000353
20256000,0.0324,0.013523,0.002678,0.000431,0.000470
20257000,0.0324,0.013523,0.002678,0.000431,0.000235
20258000,0.0324,0.013523,0.002678,0.000431,0.000235
20259000,0.0324,0.013523,0.002678,0.000431,0.000470
20260000,0.0324,0.013523,0.002678,0.000431,0.000353
20261000,0.0324,0.013523,0.002678,0.000431,0.000235
20262000,0.0324,0.013523,0.002678,0.000431,0.000353
20263000,0.0324,0.013523,0.002678,0.000431,0.000470
20264000,0.0324,0.013523,0.002678,0.000431,0.000235
20265000,0.0324,0.013523,0.002678,0.000431,0.000235
20266000,0.0324,0.013523,0.002678,0.000431,0.000470
20267000,0.0324,0.013523,0.002678,0.000431,0.000353
20268000,0.0324,0.013523,0.002678,0.000431,0.000235
20269000,0.0324,0.013523,0.002678,0.000431,0.000353
20270000,0.0324,0.013523,0.002678,0.000431,0.000470
20271000,0.0324,0.013523,0.002678,0.000431,0.000235
20272000,0.0324,0.013523,0.002678,0.000431,0.000235
20273000,0.0324,0.013523,0.002678,0.000431,0.000470
20274000,0.0324,0.013523,0.002678,0.000431,0.000353
20275000,0.0324,0.013523,0.002678,0.000431,0.000235
20276000,0.0324,0.013523,0.002678,0.000431,0.000353
20277000,0.0324,0.013523,0.002678,0.000431,0.000470
20278000,0.0324,0.013523,0.002678,0.000431,0.000118
20279000,0.0324,0.013523,0.002678,0.000431,0.000353
20280000,0.0324,0.013523,0.002678,0.000431,0.000470
20281000,0.0324,0.013523,0.002678,0.000431,0.000353
20282000,0.0324,0.013523,0.002678,0.000431,0.000235
20283000,0.0324,0.013523,0.002678,0.000431,0.000353
20284000,0.0324,0.013523,0.002678,0.000431,0.000470
20285000,0.0324,0.013523,0.002678,0.000431,0.000118
20286000,0.0324,0.013523,0.002678,0.000431,0.000353
20287000,0.0324,0.013523,0.002678,0.000431,0.000470
20288000,0.0324,0.013523,0.002678,0.000431,0.000353
20289000,0.0324,0.013523,0.002678,0.000431,0.000235
20290000,0.0324,0.013523,0.002678,0.000431,0.000353
20291000,0.0324,0.013523,0.002678,0.000431,0.000470
20292000,0.0324,0.013523,0.002678,0.000431,0.000118
20293000,0.0324,0.013523,0.002678,0.000431,0.000353
20294000,0.0324,0.013523,0.002678,0.000431,0.000470
20295000,0.0324,0.013523,0.002678,0.000431,0.000353
20296000,0.0324,0.013523,0.002678,0.000431,0.000235
20297000,0.0324,0.013523,0.002678,0.000431,0.000353
20298000,0.0324,0.013523,0.002678,0.000431,0.000470
20299000,0.0324,0.013523,0.002678,0.000431,0.000118
20300000,0.0324,0.013523,0.002678,0.000431,0.000353
20301000,0.0324,0.013523,0.002678,0.000431,0.000470
20302000,0.0324,0.013523,0.002678,0.000431,0.000353
20303000,0.0324,0.013523,0.002678,0.000431,0.000235
20304000,0.0324,0.013523,0.002678,0.000431,0.000353
20305000,0.0324,0.013523,0.002678,0.000431,0.000353
20306000,0.0324,0.013523,0.002678,0.000431,0.000235
20307000,0.0324,0.013523,0.002678,0.000431,0.000353
20308000,0.0324,0.013523,0.002678,0.000431,0.000470
20309000,0.0324,0.013523,0.002678,0.000431,0.000353
20310000,0.0324,0.013523,0.002678,0.000431,0.000235
20311000,0.0324,0.013523,0.002678,0.000431,0.000353
20312000,0.0324,0.013523,0.002678,0.000431,0.000353
20313000,0.0324,0.013523,0.002678,0.000431,0.000235
20314000,0.0324,0.013523,0.002678,0.000431,0.000353
20315000,0.0324,0.013523,0.002678,0.000431,0.000470
20316000,0.0324,0.013523,0.002678,0.000431,0.000353
20317000,0.0324,0.013523,0.002678,0.000431,0.000235
20318000,0.0324,0.013523,0.002678,0.000431,0.000353
20319000,0.0324,0.013523,0.002678,0.000431,0.000353
20320000,0.0324,0.013523,0.002678,0.000431,0.000235
20321000,0.0324,0.013523,0.002678,0.000431,0.000353
20322000,0.0324,0.013523,0.002678,0.000431,0.000470
20323000,0.0324,0.013523,0.002678,0.000431,0.000353
20324000,0.0324,0.013523,0.002678,0.000431,0.000235
20325000,0.0324,0.013523,0.002678,0.000431,0.000353
20326000,0.0324,0.013523,0.002678,0.000431,0.000353
20327000,0.0324,0.013523,0.002678,0.000431,0.000235
20328000,0.0324,0.013523,0.002678,0.000431,0.000353
20329000,0.0324,0.013523,0.002678,0.000431,0.000470
20330000,0.0324,0.013523,0.002678,0.000431,0.000353
20331000,0.0324,0.013523,0.002678,0.000431,0.000235
20332000,0.0324,0.013523,0.002678,0.000431,0.000353
20333000,0.0324,0.013523,0.002678,0.000431,0.000353
20334000,0.0324,0.013523,0.002678,0.000431,0.000235
20335000,0.0324,0.013523,0.002678,0.000431,0.000353
20336000,0.0324,0.013523,0.002678,0.000431,0.000470
20337000,0.0324,0.013523,0.002678,0.000431,0.000353
20338000,0.0324,0.013523,0.002678,0.000431,0.000235
20339000,0.0324,0.013523,0.002678,0.000431,0.000353
20340000,0.0324,0.013523,0.002678,0.000431,0.000353
20341000,0.0324,0.013523,0.002678,0.000431,0.000235
20342000,0.0324,0.013523,0.002678,0.000431,0.000353
20343000,0.0324,0.013523,0.002678,0.000431,0.000470
20344000,0.0324,0.013523,0.002678,0.000431,0.000353
20345000,0.0324,0.013523,0.002678,0.000431,0.000235
20346000,0.0324,0.013523,0.002678,0.000431,0.000353
20347000,0.0324,0.013523,0.002678,0.000431,0.000353
20348000,0.0324,0.013523,0.002678,0.000431,0.000235
20349000,0.0324,0.013523,0.002678,0.000431,0.000353
20350000,0.0324,0.013523,0.002678,0.000431,0.000470
20351000,0.0324,0.013523,0.002678,0.000431,0.000353
20352000,0.0324,0.013523,0.002678,0.000431,0.000118
20353000,0.0324,0.013523,0.002678,0.000431,0.000470
20354000,0.0324,0.013523,0.002678,0.000431,0.000353
20355000,0.0324,0.013523,0.002678,0.000431,0.000235
20356000,0.0324,0.013523,0.002678,0.000431,0.000353
20357000,0.0324,0.013523,0.002678,0.000431,0.000470
20358000,0.0324,0.013523,0.002678,0.000431,0.000353
20359000,0.0324,0.013523,0.002678,0.000431,0.000118
20360000,0.0324,0.013523,0.002678,0.000431,0.000470
20361000,0.0324,0.013523,0.002678,0.000431,0.000353
20362000,0.0324,0.013523,0.002678,0.000431,0.000235
20363000,0.0324,0.013523,0.002678,0.000431,0.000353
20364000,0.0324,0.013523,0.002678,0.000431,0.000470
20365000,0.0324,0.013523,0.002678,0.000431,0.000353
20366000,0.0324,0.013523,0.002678,0.000431,0.000118
20367000,0.0324,0.013523,0.002678,0.000431,0.000470
20368000,0.0324,0.013523,0.002678,0.000431,0.000353
20369000,0.0324,0.013523,0.002678,0.000431,0.000235
20370000,0.0324,0.013523,0.002678,0.000431,0.000353
20371000,0.0324,0.013523,0.002678,0.000431,0.000470
20372000,0.0324,0.013523,0.002678,0.000431,0.000353
20373000,0.0324,0.013523,0.002678,0.000431,0.000118
20374000,0.0324,0.013523,0.002678,0.000431,0.000470
20375000,0.0324,0.013523,0.002678,0.000431,0.000353
20376000,0.0324,0.013523,0.002678,0.000431,0.000235
20377000,0.0324,0.013523,0.002678,0.000431,0.000353
20378000,0.0324,0.013523,0.002678,0.000431,0.000470
20379000,0.0324,0.013523,0.002678,0.000431,0.000235
20380000,0.0324,0.013523,0.002678,0.000431,0.000235
20381000,0.0324,0.013523,0.002678,0.000431,0.000470
20382000,0.0324,0.013523,0.002678,0.000431,0.000353
20383000,0.0324,0.013523,0.002678,0.000431,0.000235
20384000,0.0324,0.013523,0.002678,0.000431,0.000353
20385000,0.0324,0.013523,0.002678,0.000431,0.000470
20386000,0.0324,0.013523,0.002678,0.000431,0.000235
20387000,0.0324,0.013523,0.002678,0.000431,0.000235
20388000,0.0324,0.013523,0.002678,0.000431,0.000470
20389000,0.0324,0.013523,0.002678,0.000431,0.000353
20390000,0.0324,0.013523,0.002678,0.000431,0.000235
20391000,0.0324,0.013523,0.002678,0.000431,0.000353
20392000,0.0324,0.013523,0.002678,0.000431,0.000470
20393000,0.0324,0.013523,0.002678,0.000431,0.000235
20394000,0.0324,0.013523,0.002678,0.000431,0.000235
20395000,0.0324,0.013523,0.002678,0.000431,0.000470
20396000,0.0324,0.013523,0.002678,0.000431,0.000353
20397000,0.0324,0.013523,0.002678,0.000431,0.000235
20398000,0.0324,0.013523,0.002678,0.000431,0.000353
20399000,0.0324,0.013523,0.002678,0.000431,0.000470
20400000,0.0324,0.013523,0.002678,0.000431,0.000235
20401000,0.0324,0.013523,0.002678,0.000431,0.000235
20402000,0.0324,0.013523,0.002678,0.000431,0.000470
20403000,0.0324,0.013523,0.002678,0.000431,0.000353
20404000,0.0324,0.013523,0.002678,0.000431,0.000235
20405000,0.0324,0.013523,0.002678,0.000431,0.000353
20406000,0.0324,0.013523,0.002678,0.000431,0.000470
20407000,0.0324,0.013523,0.002678,0.000431,0.000235
20408000,0.0324,0.013523,0.002678,0.000431,0.000235
20409000,0.0324,0.013523,0.002678,0.000431,0.000470
20410000,0.0324,0.013523,0.002678,0.000431,0.000353
20411000,0.0324,0.013523,0.002678,0.000431,0.000235
20412000,0.0324,0.013523,0.002678,0.000431,0.000353
20413000,0.0324,0.013523,0.002678,0.000431,0.000470
20414000,0.0324,0.013523,0.002678,0.000431,0.000235
20415000,0.0324,0.013523,0.002678,0.000431,0.000235
20416000,0.0324,0.013523,0.002678,0.000431,0.000470
20417000,0.0324,0.013523,0.002678,0.000431,0.000353
20418000,0.0324,0.013523,0.002678,0.000431,0.000235
20419000,0.0324,0.013523,0.002678,0.000431,0.000353
20420000,0.0324,0.013523,0.002678,0.000431,0.000470
20421000,0.0324,0.013523,0.002678,0.000431,0.000118
20422000,0.0324,0.013523,0.002678,0.000431,0.000353
20423000,0.0324,0.013523,0.002678,0.000431,0.000470
20424000,0.0324,0.013523,0.002678,0.000431,0.000353
20425000,0.0324,0.013523,0.002678,0.000431,0.000235
20426000,0.0324,0.013523,0.002678,0.000431,0.000353
20427000,0.0324,0.013523,0.002678,0.000431,0.000470
20428000,0.0324,0.013523,0.002678,0.000431,0.000118
20429000,0.0324,0.013523,0.002678,0.000431,0.000353
20430000,0.0324,0.013523,0.002678,0.000431,0.000470
20431000,0.0324,0.013523,0.002678,0.000431,0.000353
20432000,0.0324,0.013523,0.002678,0.000431,0.000235
20433000,0.0324,0.013523,0.002678,0.000431,0.000353
20434000,0.0324,0.013523,0.002678,0.000431,0.000470
20435000,0.0324,0.013523,0.002678,0.000431,0.000118
20436000,0.0324,0.013523,0.002678,0.000431,0.000353
20437000,0.0324,0.013523,0.002678,0.000431,0.000470
20438000,0.0324,0.013523,0.002678,0.000431,0.000353
20439000,0.0324,0.013523,0.002678,0.000431,0.000235
20440000,0.0324,0.013523,0.002678,0.000431,0.000353
20441000,0.0324,0.013523,0.002678,0.000431,0.000353
20442000,0.0324,0.013523,0.002678,0.000431,0.000235
20443000,0.0324,0.013523,0.002678,0.000431,0.000353
20444000,0.0324,0.013523,0.002678,0.000431,0.000470
20445000,0.0324,0.013523,0.002678,0.000431,0.000353
20446000,0.0324,0.013523,0.002678,0.000431,0.000235
20447000,0.0324,0.013523,0.002678,0.000431,0.000353
20448000,0.0324,0.013523,0.002678,0.000431,0.000353
20449000,0.0324,0.013523,0.002678,0.000431,0.000235
20450000,0.0324,0.013523,0.002678,0.000431,0.000353
20451000,0.0324,0.013523,0.002678,0.000431,0.000470
20452000,0.0324,0.013523,0.002678,0.000431,0.000353
20453000,0.0324,0.013523,0.002678,0.000431,0.000235
20454000,0.0324,0.013523,0.002678,0.000431,0.000353
20455000,0.0324,0.013523,0.002678,0.000431,0.000353
20456000,0.0324,0.013523,0.002678,0.000431,0.000235
20457000,0.0324,0.013523,0.002678,0.000431,0.000353
20458000,0.0324,0.013523,0.002678,0.000431,0.000470
20459000,0.0324,0.013523,0.002678,0.000431,0.000353
20460000,0.0324,0.013523,0.002678,0.000431,0.000235
20461000,0.0324,0.013523,0.002678,0.000431,0.000353
20462000,0.0324,0.013523,0.002678,0.000431,0.000353
20463000,0.0324,0.013523,0.002678,0.000431,0.000235
20464000,0.0324,0.013523,0.002678,0.000431,0.000353
20465000,0.0324,0.013523,0.002678,0.000431,0.000470
20466000,0.0324,0.013523,0.002678,0.000431,0.000353
20467000,0.0324,0.013523,0.002678,0.000431,0.000235
20468000,0.0324,0.013523,0.002678,0.000431,0.000353
20469000,0.0324,0.013523,0.002678,0.000431,0.000353
20470000,0.0324,0.013523,0.002678,0.000431,0.000235
20471000,0.0324,0.013523,0.002678,0.000431,0.000353
20472000,0.0324,0.013523,0.002678,0.000431,0.000470
20473000,0.0324,0.013523,0.002678,0.000431,0.000353
20474000,0.0324,0.013523,0.002678,0.000431,0.000235
20475000,0.0324,0.013523,0.002678,0.000431,0.000353
20476000,0.0324,0.013523,0.002678,0.000431,0.000353
20477000,0.0324,0.013523,0.002678,0.000431,0.000235
20478000,0.0324,0.013523,0.002678,0.000431,0.000353
20479000,0.0324,0.013523,0.002678,0.000431,0.000470
20480000,0.0324,0.013523,0.002678,0.000431,0.000353
20481000,0.0324,0.013523,0.002678,0.000431,0.000235
20482000,0.0324,0.013523,0.002678,0.000431,0.000353
20483000,0.0324,0.013523,0.002678,0.000431,0.000353
20484000,0.0324,0.013523,0.002678,0.000431,0.000235
20485000,0.0324,0.013523,0.002678,0.000431,0.000353
20486000,0.0324,0.013523,0.002678,0.000431,0.000470
20487000,0.0324,0.013523,0.002678,0.000431,0.000353
20488000,0.0324,0.013523,0.002678,0.000431,0.000235
20489000,0.0324,0.013523,0.002678,0.000431,0.000353
20490000,0.0324,0.013523,0.002678,0.000431,0.000353
20491000,0.0324,0.013523,0.002678,0.000431,0.000235
20492000,0.0324,0.013523,0.002678,0.000431,0.000353
20493000,0.0324,0.013523,0.002678,0.000431,0.000470
20494000,0.0324,0.013523,0.002678,0.000431,0.000353
20495000,0.0324,0.013523,0.002678,0.000431,0.000118
20496000,0.0324,0.013523,0.002678,0.000431,0.000470
20497000,0.0324,0.013523,0.002678,0.000431,0.000353
20498000,0.0324,0.013523,0.002678,0.000431,0.000235
20499000,0.0324,0.013523,0.002678,0.000431,0.000353
20500000,0.0324,0.013523,0.002678,0.000431,0.000470
20501000,0.0324,0.013523,0.002678,0.000431,0.000353
20502000,0.0324,0.013523,0.002678,0.000431,0.000118
20503000,0.0324,0.013523,0.002678,0.000431,0.000470
20504000,0.0324,0.013523,0.002678,0.000431,0.000353
20505000,0.0324,0.013523,0.002678,0.000431,0.000235
20506000,0.0324,0.013523,0.002678,0.000431,0.000353
20507000,0.0324,0.013523,0.002678,0.000431,0.000470
20508000,0.0324,0.013523,0.002678,0.000431,0.000353
20509000,0.0324,0.013523,0.002678,0.000431,0.000118
20510000,0.0324,0.013523,0.002678,0.000431,0.000470
20511000,0.0324,0.013523,0.002678,0.000431,0.000353
20512000,0.0324,0.013523,0.002678,0.000431,0.000235
20513000,0.0324,0.013523,0.002678,0.000431,0.000353
20514000,0.0324,0.013523,0.002678,0.000431,0.000470
20515000,0.0324,0.013523,0.002678,0.000431,0.000235
20516000,0.0324,0.013523,0.002678,0.000431,0.000235
20517000,0.0324,0.013523,0.002678,0.000431,0.000470
20518000,0.0324,0.013523,0.002678,0.000431,0.000353
20519000,0.0324,0.013523,0.002678,0.000431,0.000235
20520000,0.0324,0.013523,0.002678,0.000431,0.000353
20521000,0.0324,0.013523,0.002678,0.000431,0.000470
20522000,0.0324,0.013523,0.002678,0.000431,0.000235
20523000,0.0324,0.013523,0.002678,0.000431,0.000235
20524000,0.0324,0.013523,0.002678,0.000431,0.000470
20525000,0.0324,0.013523,0.002678,0.000431,0.000353
20526000,0.0324,0.013523,0.002678,0.000431,0.000235
20527000,0.0324,0.013523,0.002678,0.000431,0.000353
20528000,0.0324,0.013523,0.002678,0.000431,0.000470
20529000,0.0324,0.013523,0.002678,0.000431,0.000235
20530000,0.0324,0.013523,0.002678,0.000431,0.000235
20531000,0.0324,0.013523,0.002678,0.000431,0.000470
20532000,0.0324,0.013523,0.002678,0.000431,0.000353
20533000,0.0324,0.013523,0.002678,0.000431,0.000235
20534000,0.0324,0.013523,0.002678,0.000431,0.000353
20535000,0.0324,0.013523,0.002678,0.000431,0.000470
20536000,0.0324,0.013523,0.002678,0.000431,0.000235
20537000,0.0324,0.013523,0.002678,0.000431,0.000235
20538000,0.0324,0.013523,0.002678,0.000431,0.000470
20539000,0.0324,0.013523,0.002678,0.000431,0.000353
20540000,0.0324,0.013523,0.002678,0.000431,0.000235
20541000,0.0324,0.013523,0.002678,0.000431,0.000353
20542000,0.0324,0.013523,0.002678,0.000431,0.000470
20543000,0.0324,0.013523,0.002678,0.000431,0.000235
20544000,0.0324,0.013523,0.002678,0.000431,0.000235
20545000,0.0324,0.013523,0.002678,0.000431,0.000470
20546000,0.0324,0.013523,0.002678,0.000431,0.000353
20547000,0.0324,0.013523,0.002678,0.000431,0.000235
20548000,0.0324,0.013523,0.002678,0.000431,0.000353
20549000,0.0324,0.013523,0.002678,0.000431,0.000470
20550000,0.0324,0.013523,0.002678,0.000431,0.000235
20551000,0.0324,0.013523,0.002678,0.000431,0.000235
20552000,0.0324,0.013523,0.002678,0.000431,0.000470
20553000,0.0324,0.013523,0.002678,0.000431,0.000353
20554000,0.0324,0.013523,0.002678,0.000431,0.000235
20555000,0.0324,0.013523,0.002678,0.000431,0.000353
20556000,0.0324,0.013523,0.002678,0.000431,0.000470
20557000,0.0324,0.013523,0.002678,0.000431,0.000118
20558000,0.0324,0.013523,0.002678,0.000431,0.000353
20559000,0.0324,0.013523,0.002678,0.000431,0.000470
20560000,0.0324,0.013523,0.002678,0.000431,0.000353
20561000,0.0324,0.013523,0.002678,0.000431,0.000235
20562000,0.0324,0.013523,0.002678,0.000431,0.000353
20563000,0.0324,0.013523,0.002678,0.000431,0.000470
20564000,0.0324,0.013523,0.002678,0.000431,0.000118
20565000,0.0324,0.013523,0.002678,0.000431,0.000353
20566000,0.0324,0.013523,0.002678,0.000431,0.000470
20567000,0.0324,0.013523,0.002678,0.000431,0.000353
20568000,0.0324,0.013523,0.002678,0.000431,0.000235
20569000,0.0324,0.013523,0.002678,0.000431,0.000353
20570000,0.0324,0.013523,0.002678,0.000431,0.000470
20571000,0.0324,0.013523,0.002678,0.000431,0.000118
20572000,0.0324,0.013523,0.002678,0.000431,0.000353
20573000,0.0324,0.013523,0.002678,0.000431,0.000470
20574000,0.0324,0.013523,0.002678,0.000431,0.000353
20575000,0.0324,0.013523,0.002678,0.000431,0.000235
20576000,0.0324,0.013523,0.002678,0.000431,0.000353
20577000,0.0324,0.013523,0.002678,0.000431,0.000470
20578000,0.0324,0.013523,0.002678,0.000431,0.000118
20579000,0.0324,0.013523,0.002678,0.000431,0.000353
20580000,0.0324,0.013523,0.002678,0.000431,0.000470
20581000,0.0324,0.013523,0.002678,0.000431,0.000353
20582000,0.0324,0.013523,0.002678,0.000431,0.000235
20583000,0.0324,0.013523,0.002678,0.000431,0.000353
20584000,0.0324,0.013523,0.002678,0.000431,0.000353
20585000,0.0324,0.013523,0.002678,0.000431,0.000235
20586000,0.0324,0.013523,0.002678,0.000431,0.000353
20587000,0.0324,0.013523,0.002678,0.000431,0.000470
20588000,0.0324,0.013523,0.002678,0.000431,0.000353
20589000,0.0324,0.013523,0.002678,0.000431,0.000235
20590000,0.0324,0.013523,0.002678,0.000431,0.000353
20591000,0.0324,0.013523,0.002678,0.000431,0.000353
20592000,0.0324,0.013523,0.002678,0.000431,0.000235
20593000,0.0324,0.013523,0.002678,0.000431,0.000353
20594000,0.0324,0.013523,0.002678,0.000431,0.000470
20595000,0.0324,0.013523,0.002678,0.000431,0.000353
20596000,0.0324,0.013523,0.002678,0.000431,0.000235
20597000,0.0324,0.013523,0.002678,0.000431,0.000353
20598000,0.0324,0.013523,0.002678,0.000431,0.000353
20599000,0.0324,0.013523,0.002678,0.000431,0.000235
20600000,0.0324,0.013523,0.002678,0.000431,0.000353
20601000,0.0324,0.013523,0.002678,0.000431,0.000470
20602000,0.0324,0.013523,0.002678,0.000431,0.000353
20603000,0.0324,0.013523,0.002678,0.000431,0.000235
20604000,0.0324,0.013523,0.002678,0.000431,0.000353
20605000,0.0324,0.013523,0.002678,0.000431,0.000353
20606000,0.0324,0.013523,0.002678,0.000431,0.000235
20607000,0.0324,0.013523,0.002678,0.000431,0.000353
20608000,0.0324,0.013523,0.002678,0.000431,0.000470
20609000,0.0324,0.013523,0.002678,0.000431,0.000353
20610000,0.0324,0.013523,0.002678,0.000431,0.000235
20611000,0.0324,0.013523,0.002678,0.000431,0.000353
20612000,0.0324,0.013523,0.002678,0.000431,0.000353
20613000,0.0324,0.013523,0.002678,0.000431,0.000235
20614000,0.0324,0.013523,0.002678,0.000431,0.000353
20615000,0.0324,0.013523,0.002678,0.000431,0.000470
20616000,0.0324,0.013523,0.002678,0.000431,0.000353
20617000,0.0324,0.013523,0.002678,0.000431,0.000235
20618000,0.0324,0.013523,0.002678,0.000431,0.000353
20619000,0.0324,0.013523,0.002678,0.000431,0.000353
20620000,0.0324,0.013523,0.002678,0.000431,0.000235
20621000,0.0324,0.013523,0.002678,0.000431,0.000353
20622000,0.0324,0.013523,0.002678,0.000431,0.000470
20623000,0.0324,0.013523,0.002678,0.000431,0.000353
20624000,0.0324,0.013523,0.002678,0.000431,0.000235
20625000,0.0324,0.013523,0.002678,0.000431,0.000353
20626000,0.0324,0.013523,0.002678,0.000431,0.000353
20627000,0.0324,0.013523,0.002678,0.000431,0.000235
20628000,0.0324,0.013523,0.002678,0.000431,0.000353
20629000,0.0324,0.013523,0.002678,0.000431,0.000470
20630000,0.0324,0.013523,0.002678,0.000431,0.000353
20631000,0.0324,0.013523,0.002678,0.000431,0.000118
20632000,0.0324,0.013523,0.002678,0.000431,0.000470
20633000,0.0324,0.013523,0.002678,0.000431,0.000353
20634000,0.0324,0.013523,0.002678,0.000431,0.000235
20635000,0.0324,0.013523,0.002678,0.000431,0.000353
20636000,0.0324,0.013523,0.002678,0.000431,0.000470
20637000,0.0324,0.013523,0.002678,0.000431,0.000353
20638000,0.0324,0.013523,0.002678,0.000431,0.000118
20639000,0.0324,0.013523,0.002678,0.000431,0.000470
20640000,0.0324,0.013523,0.002678,0.000431,0.000353
20641000,0.0324,0.013523,0.002678,0.000431,0.000235
20642000,0.0324,0.013523,0.002678,0.000431,0.000353
20643000,0.0324,0.013523,0.002678,0.000431,0.000470
20644000,0.0324,0.013523,0.002678,0.000431,0.000353
20645000,0.0324,0.013523,0.002678,0.000431,0.000118
20646000,0.0324,0.013523,0.002678,0.000431,0.000470
20647000,0.0324,0.013523,0.002678,0.000431,0.000353
20648000,0.0324,0.013523,0.002678,0.000431,0.000235
20649000,0.0324,0.013523,0.002678,0.000431,0.000353
20650000,0.0324,0.013523,0.002678,0.000431,0.000470
20651000,0.0324,0.013523,0.002678,0.000431,0.000353
20652000,0.0324,0.013523,0.002678,0.000431,0.000118
20653000,0.0324,0.013523,0.002678,0.000431,0.000470
20654000,0.0324,0.013523,0.002678,0.000431,0.000353
20655000,0.0324,0.013523,0.002678,0.000431,0.000235
20656000,0.0324,0.013523,0.002678,0.000431,0.000353
20657000,0.0324,0.013523,0.002678,0.000431,0.000470
20658000,0.0324,0.013523,0.002678,0.000431,0.000235
20659000,0.0324,0.013523,0.002678,0.000431,0.000235
20660000,0.0324,0.013523,0.002678,0.000431,0.000470
20661000,0.0324,0.013523,0.002678,0.000431,0.000353
20662000,0.0324,0.013523,0.002678,0.000431,0.000235
20663000,0.0324,0.013523,0.002678,0.000431,0.000353
20664000,0.0324,0.013523,0.002678,0.000431,0.000470
20665000,0.0324,0.013523,0.002678,0.000431,0.000235
20666000,0.0324,0.013523,0.002678,0.000431,0.000235
20667000,0.0324,0.013523,0.002678,0.000431,0.000470
20668000,0.0324,0.013523,0.002678,0.000431,0.000353
20669000,0.0324,0.013523,0.002678,0.000431,0.000235
20670000,0.0324,0.013523,0.002678,0.000431,0.000353
20671000,0.0324,0.013523,0.002678,0.000431,0.000470
20672000,0.0324,0.013523,0.002678,0.000431,0.000235
20673000,0.0324,0.013523,0.002678,0.000431,0.000235
20674000,0.0324,0.013523,0.002678,0.000431,0.000470
20675000,0.0324,0.013523,0.002678,0.000431,0.000353
20676000,0.0324,0.013523,0.002678,0.000431,0.000235
20677000,0.0324,0.013523,0.002678,0.000431,0.000353
20678000,0.0324,0.013523,0.002678,0.000431,0.000470
20679000,0.0324,0.013523,0.002678,0.000431,0.000235
20680000,0.0324,0.013523,0.002678,0.000431,0.000235
20681000,0.0324,0.013523,0.002678,0.000431,0.000470
20682000,0.0324,0.013523,0.002678,0.000431,0.000353
20683000,0.0324,0.013523,0.002678,0.000431,0.000235
20684000,0.0324,0.013523,0.002678,0.000431,0.000353
20685000,0.0324,0.013523,0.002678,0.000431,0.000470
20686000,0.0324,0.013523,0.002678,0.000431,0.000235
20687000,0.0324,0.013523,0.002678,0.000431,0.000235
20688000,0.0324,0.013523,0.002678,0.000431,0.000470
20689000,0.0324,0.013523,0.002678,0.000431,0.000353
20690000,0.0324,0.013523,0.002678,0.000431,0.000235
20691000,0.0324,0.013523,0.002678,0.000431,0.000353
20692000,0.0324,0.013523,0.002678,0.000431,0.000470
20693000,0.0324,0.013523,0.002678,0.000431,0.000235
20694000,0.0324,0.013523,0.002678,0.000431,0.000235
20695000,0.0324,0.013523,0.002678,0.000431,0.000470
20696000,0.0324,0.013523,0.002678,0.000431,0.000353
20697000,0.0324,0.013523,0.002678,0.000431,0.000235
20698000,0.0324,0.013523,0.002678,0.000431,0.000353
20699000,0.0324,0.013523,0.002678,0.000431,0.000470
20700000,0.0324,0.013523,0.002678,0.000431,0.000118
20701000,0.0324,0.013523,0.002678,0.000431,0.000353
20702000,0.0324,0.013523,0.002678,0.000431,0.000470
20703000,0.0324,0.013523,0.002678,0.000431,0.000353
20704000,0.0324,0.013523,0.002678,0.000431,0.000235
20705000,0.0324,0.013523,0.002678,0.000431,0.000353
20706000,0.0324,0.013523,0.002678,0.000431,0.000470
20707000,0.0324,0.013523,0.002678,0.000431,0.000118
20708000,0.0324,0.013523,0.002678,0.000431,0.000353
20709000,0.0324,0.013523,0.002678,0.000431,0.000470
20710000,0.0324,0.013523,0.002678,0.000431,0.000353
20711000,0.0324,0.013523,0.002678,0.000431,0.000235
20712000,0.0324,0.013523,0.002678,0.000431,0.000353
20713000,0.0324,0.013523,0.002678,0.000431,0.000470
20714000,0.0324,0.013523,0.002678,0.000431,0.000118
20715000,0.0324,0.013523,0.002678,0.000431,0.000353
20716000,0.0324,0.013523,0.002678,0.000431,0.000470
20717000,0.0324,0.013523,0.002678,0.000431,0.000353
20718000,0.0324,0.013523,0.002678,0.000431,0.000235
20719000,0.0324,0.013523,0.002678,0.000431,0.000353
20720000,0.0324,0.013523,0.002678,0.000431,0.000353
20721000,0.0324,0.013523,0.002678,0.000431,0.000235
20722000,0.0324,0.013523,0.002678,0.000431,0.000353
20723000,0.0324,0.013523,0.002678,0.000431,0.000470
20724000,0.0324,0.013523,0.002678,0.000431,0.000353
20725000,0.0324,0.013523,0.002678,0.000431,0.000235
20726000,0.0324,0.013523,0.002678,0.000431,0.000353
20727000,0.0324,0.013523,0.002678,0.000431,0.000353
20728000,0.0324,0.013523,0.002678,0.000431,0.000235
20729000,0.0324,0.013523,0.002678,0.000431,0.000353
20730000,0.0324,0.013523,0.002678,0.000431,0.000470
20731000,0.0324,0.013523,0.002678,0.000431,0.000353
20732000,0.0324,0.013523,0.002678,0.000431,0.000235
20733000,0.0324,0.013523,0.002678,0.000431,0.000353
20734000,0.0324,0.013523,0.002678,0.000431,0.000353
20735000,0.0324,0.013523,0.002678,0.000431,0.000235
20736000,0.0324,0.013523,0.002678,0.000431,0.000353
20737000,0.0324,0.013523,0.002678,0.000431,0.000470
20738000,0.0324,0.013523,0.002678,0.000431,0.000353
20739000,0.0324,0.013523,0.002678,0.000431,0.000235
20740000,0.0324,0.013523,0.002678,0.000431,0.000353
20741000,0.0324,0.013523,0.002678,0.000431,0.000353
20742000,0.0324,0.013523,0.002678,0.000431,0.000235
20743000,0.0324,0.013523,0.002678,0.000431,0.000353
20744000,0.0324,0.013523,0.002678,0.000431,0.000470
20745000,0.0324,0.013523,0.002678,0.000431,0.000353
20746000,0.0324,0.013523,0.002678,0.000431,0.000235
20747000,0.0324,0.013523,0.002678,0.000431,0.000353
20748000,0.0324,0.013523,0.002678,0.000431,0.000353
20749000,0.0324,0.013523,0.002678,0.000431,0.000235
20750000,0.0324,0.013523,0.002678,0.000431,0.000353
20751000,0.0324,0.013523,0.002678,0.000431,0.000470
20752000,0.0324,0.013523,0.002678,0.000431,0.000353
20753000,0.0324,0.013523,0.002678,0.000431,0.000235
20754000,0.0324,0.013523,0.002678,0.000431,0.000353
20755000,0.0324,0.013523,0.002678,0.000431,0.000353
20756000,0.0324,0.013523,0.002678,0.000431,0.000235
20757000,0.0324,0.013523,0.002678,0.000431,0.000353
20758000,0.0324,0.013523,0.002678,0.000431,0.000470
20759000,0.0324,0.013523,0.002678,0.000431,0.000353
20760000,0.0324,0.013523,0.002678,0.000431,0.000235
20761000,0.0324,0.013523,0.002678,0.000431,0.000353
20762000,0.0324,0.013523,0.002678,0.000431,0.000353
20763000,0.0324,0.013523,0.002678,0.000431,0.000235
20764000,0.0324,0.013523,0.002678,0.000431,0.000353
20765000,0.0324,0.013523,0.002678,0.000431,0.000470
20766000,0.0324,0.013523,0.002678,0.000431,0.000353
20767000,0.0324,0.013523,0.002678,0.000431,0.000235
20768000,0.0324,0.013523,0.002678,0.000431,0.000353
20769000,0.0324,0.013523,0.002678,0.000431,0.000353
20770000,0.0324,0.013523,0.002678,0.000431,0.000235
20771000,0.0324,0.013523,0.002678,0.000431,0.000353
20772000,0.0324,0.013523,0.002678,0.000431,0.000470
20773000,0.0324,0.013523,0.002678,0.000431,0.000353
20774000,0.0324,0.013523,0.002678,0.000431,0.000118
20775000,0.0324,0.013523,0.002678,0.000431,0.000470
20776000,0.0324,0.013523,0.002678,0.000431,0.000353
20777000,0.0324,0.013523,0.002678,0.000431,0.000235
20778000,0.0324,0.013523,0.002678,0.000431,0.000353
20779000,0.0324,0.013523,0.002678,0.000431,0.000470
20780000,0.0324,0.013523,0.002678,0.000431,0.000353
20781000,0.0324,0.013523,0.002678,0.000431,0.000118
20782000,0.0324,0.013523,0.002678,0.000431,0.000470
20783000,0.0324,0.013523,0.002678,0.000431,0.000353
20784000,0.0324,0.013523,0.002678,0.000431,0.000235
20785000,0.0324,0.013523,0.002678,0.000431,0.000353
20786000,0.0324,0.013523,0.002678,0.000431,0.000470
20787000,0.0324,0.013523,0.002678,0.000431,0.000353
20788000,0.0324,0.013523,0.002678,0.000431,0.000118
20789000,0.0324,0.013523,0.002678,0.000431,0.000470
20790000,0.0324,0.013523,0.002678,0.000431,0.000353
20791000,0.0324,0.013523,0.002678,0.000431,0.000235
20792000,0.0324,0.013523,0.002678,0.000431,0.000353
20793000,0.0324,0.013523,0.002678,0.000431,0.000470
20794000,0.0324,0.013523,0.002678,0.000431,0.000353
20795000,0.0324,0.013523,0.002678,0.000431,0.000118
20796000,0.0324,0.013523,0.002678,0.000431,0.000470
20797000,0.0324,0.013523,0.002678,0.000431,0.000353
20798000,0.0324,0.013523,0.002678,0.000431,0.000235
20799000,0.0324,0.013523,0.002678,0.000431,0.000353
20800000,0.0324,0.013523,0.002678,0.000431,0.000470
20801000,0.0324,0.013523,0.002678,0.000431,0.000235
20802000,0.0324,0.013523,0.002678,0.000431,0.000235
20803000,0.0324,0.013523,0.002678,0.000431,0.000470
20804000,0.0324,0.013523,0.002678,0.000431,0.000353
20805000,0.0324,0.013523,0.002678,0.000431,0.000235
20806000,0.0324,0.013523,0.002678,0.000431,0.000353
20807000,0.0324,0.013523,0.002678,0.000431,0.000470
20808000,0.0324,0.013523,0.002678,0.000431,0.000235
20809000,0.0324,0.013523,0.002678,0.000431,0.000235
20810000,0.0324,0.013523,0.002678,0.000431,0.000470
20811000,0.0324,0.013523,0.002678,0.000431,0.000353
20812000,0.0324,0.013523,0.002678,0.000431,0.000235
20813000,0.0324,0.013523,0.002678,0.000431,0.000353
20814000,0.0324,0.013523,0.002678,0.000431,0.000470
20815000,0.0324,0.013523,0.002678,0.000431,0.000235
20816000,0.0324,0.013523,0.002678,0.000431,0.000235
20817000,0.0324,0.013523,0.002678,0.000431,0.000470
20818000,0.0324,0.013523,0.002678,0.000431,0.000353
20819000,0.0324,0.013523,0.002678,0.000431,0.000235
20820000,0.0324,0.013523,0.002678,0.000431,0.000353
20821000,0.0324,0.013523,0.002678,0.000431,0.000470
20822000,0.0324,0.013523,0.002678,0.000431,0.000235
20823000,0.0324,0.013523,0.002678,0.000431,0.000235
20824000,0.0324,0.013523,0.002678,0.000431,0.000470
20825000,0.0324,0.013523,0.002678,0.000431,0.000353
20826000,0.0324,0.013523,0.002678,0.000431,0.000235
20827000,0.0324,0.013523,0.002678,0.000431,0.000353
20828000,0.0324,0.013523,0.002678,0.000431,0.000470
20829000,0.0324,0.013523,0.002678,0.000431,0.000235
20830000,0.0324,0.013523,0.002678,0.000431,0.000235
20831000,0.0324,0.013523,0.002678,0.000431,0.000470
20832000,0.0324,0.013523,0.002678,0.000431,0.000353
20833000,0.0324,0.013523,0.002678,0.000431,0.000235
20834000,0.0324,0.013523,0.002678,0.000431,0.000353
20835000,0.0324,0.013523,0.002678,0.000431,0.000470
20836000,0.0324,0.013523,0.002678,0.000431,0.000118
20837000,0.0324,0.013523,0.002678,0.000431,0.000353
20838000,0.0324,0.013523,0.002678,0.000431,0.000470
20839000,0.0324,0.013523,0.002678,0.000431,0.000353
20840000,0.0324,0.013523,0.002678,0.000431,0.000235
20841000,0.0324,0.013523,0.002678,0.000431,0.000353
20842000,0.0324,0.013523,0.002678,0.000431,0.000470
20843000,0.0324,0.013523,0.002678,0.000431,0.000118
20844000,0.0324,0.013523,0.002678,0.000431,0.000353
20845000,0.0324,0.013523,0.002678,0.000431,0.000470
20846000,0.0324,0.013523,0.002678,0.000431,0.000353
20847000,0.0324,0.013523,0.002678,0.000431,0.000235
20848000,0.0324,0.013523,0.002678,0.000431,0.000353
20849000,0.0324,0.013523,0.002678,0.000431,0.000470
20850000,0.0324,0.013523,0.002678,0.000431,0.000118
20851000,0.0324,0.013523,0.002678,0.000431,0.000353
20852000,0.0324,0.013523,0.002678,0.000431,0.000470
20853000,0.0324,0.013523,0.002678,0.000431,0.000353
20854000,0.0324,0.013523,0.002678,0.000431,0.000235
20855000,0.0324,0.013523,0.002678,0.000431,0.000353
20856000,0.0324,0.013523,0.002678,0.000431,0.000470
20857000,0.0324,0.013523,0.002678,0.000431,0.000118
20858000,0.0324,0.013523,0.002678,0.000431,0.000353
20859000,0.0324,0.013523,0.002678,0.000431,0.000470
20860000,0.0324,0.013523,0.002678,0.000431,0.000353
20861000,0.0324,0.013523,0.002678,0.000431,0.000235
20862000,0.0324,0.013523,0.002678,0.000431,0.000353
20863000,0.0324,0.013523,0.002678,0.000431,0.000353
20864000,0.0324,0.013523,0.002678,0.000431,0.000235
20865000,0.0324,0.013523,0.002678,0.000431,0.000353
20866000,0.0324,0.013523,0.002678,0.000431,0.000470
20867000,0.0324,0.013523,0.002678,0.000431,0.000353
20868000,0.0324,0.013523,0.002678,0.000431,0.000235
20869000,0.0324,0.013523,0.002678,0.000431,0.000353
20870000,0.0324,0.013523,0.002678,0.000431,0.000353
20871000,0.0324,0.013523,0.002678,0.000431,0.000235
20872000,0.0324,0.013523,0.002678,0.000431,0.000353
20873000,0.0324,0.013523,0.002678,0.000431,0.000470
20874000,0.0324,0.013523,0.002678,0.000431,0.000353
20875000,0.0324,0.013523,0.002678,0.000431,0.000235
20876000,0.0324,0.013523,0.002678,0.000431,0.000353
20877000,0.0324,0.013523,0.002678,0.000431,0.000353
20878000,0.0324,0.013523,0.002678,0.000431,0.000235
20879000,0.0324,0.013523,0.002678,0.000431,0.000353
20880000,0.0324,0.013523,0.002678,0.000431,0.000470
20881000,0.0324,0.013523,0.002678,0.000431,0.000353
20882000,0.0324,0.013523,0.002678,0.000431,0.000235
20883000,0.0324,0.013523,0.002678,0.000431,0.000353
20884000,0.0324,0.013523,0.002678,0.000431,0.000353
20885000,0.0324,0.013523,0.002678,0.000431,0.000235
20886000,0.0324,0.013523,0.002678,0.000431,0.000353
20887000,0.0324,0.013523,0.002678,0.000431,0.000470
20888000,0.0324,0.013523,0.002678,0.000431,0.000353
20889000,0.0324,0.013523,0.002678,0.000431,0.000235
20890000,0.0324,0.013523,0.002678,0.000431,0.000353
20891000,0.0324,0.013523,0.002678,0.000431,0.000353
20892000,0.0324,0.013523,0.002678,0.000431,0.000235
20893000,0.0324,0.013523,0.002678,0.000431,0.000353
20894000,0.0324,0.013523,0.002678,0.000431,0.000470
20895000,0.0324,0.013523,0.002678,0.000431,0.000353
20896000,0.0324,0.013523,0.002678,0.000431,0.000235
20897000,0.0324,0.013523,0.002678,0.000431,0.000353
20898000,0.0324,0.013523,0.002678,0.000431,0.000353
20899000,0.0324,0.013523,0.002678,0.000431,0.000235
20900000,0.0324,0.013523,0.002678,0.000431,0.000353
20901000,0.0324,0.013523,0.002678,0.000431,0.000470
20902000,0.0324,0.013523,0.002678,0.000431,0.000353
20903000,0.0324,0.013523,0.002678,0.000431,0.000235
20904000,0.0324,0.013523,0.002678,0.000431,0.000353
20905000,0.0324,0.013523,0.002678,0.000431,0.000353
20906000,0.0324,0.013523,0.002678,0.000431,0.000235
20907000,0.0324,0.013523,0.002678,0.000431,0.000353
20908000,0.0324,0.013523,0.002678,0.000431,0.000470
20909000,0.0324,0.013523,0.002678,0.000431,0.000353
20910000,0.0324,0.013523,0.002678,0.000431,0.000235
20911000,0.0324,0.013523,0.002678,0.000431,0.000353
20912000,0.0324,0.013523,0.002678,0.000431,0.000353
20913000,0.0324,0.013523,0.002678,0.000431,0.000235
20914000,0.0324,0.013523,0.002678,0.000431,0.000353
20915000,0.0324,0.013523,0.002678,0.000431,0.000470
20916000,0.0324,0.013523,0.002678,0.000431,0.000353
20917000,0.0324,0.013523,0.002678,0.000431,0.000118
20918000,0.0324,0.013523,0.002678,0.000431,0.000470
20919000,0.0324,0.013523,0.002678,0.000431,0.000353
20920000,0.0324,0.013523,0.002678,0.000431,0.000235
20921000,0.0324,0.013523,0.002678,0.000431,0.000353
20922000,0.0324,0.013523,0.002678,0.000431,0.000470
20923000,0.0324,0.013523,0.002678,0.000431,0.000353
20924000,0.0324,0.013523,0.002678,0.000431,0.000118
20925000,0.0324,0.013523,0.002678,0.000431,0.000470
20926000,0.0324,0.013523,0.002678,0.000431,0.000353
20927000,0.0324,0.013523,0.002678,0.000431,0.000235
20928000,0.0324,0.013523,0.002678,0.000431,0.000353
20929000,0.0324,0.013523,0.002678,0.000431,0.000470
20930000,0.0324,0.013523,0.002678,0.000431,0.000353
20931000,0.0324,0.013523,0.002678,0.000431,0.000118
20932000,0.0324,0.013523,0.002678,0.000431,0.000470
20933000,0.0324,0.013523,0.002678,0.000431,0.000353
20934000,0.0324,0.013523,0.002678,0.000431,0.000235
20935000,0.0324,0.013523,0.002678,0.000431,0.000353
20936000,0.0324,0.013523,0.002678,0.000431,0.000470
20937000,0.0324,0.013523,0.002678,0.000431,0.000235
20938000,0.0324,0.013523,0.002678,0.000431,0.000235
20939000,0.0324,0.013523,0.002678,0.000431,0.000470
20940000,0.0324,0.013523,0.002678,0.000431,0.000353
20941000,0.0324,0.013523,0.002678,0.000431,0.000235
20942000,0.0324,0.013523,0.002678,0.000431,0.000353
20943000,0.0324,0.013523,0.002678,0.000431,0.000470
20944000,0.0324,0.013523,0.002678,0.000431,0.000235
20945000,0.0324,0.013523,0.002678,0.000431,0.000235
20946000,0.0324,0.013523,0.002678,0.000431,0.000470
20947000,0.0324,0.013523,0.002678,0.000431,0.000353
20948000,0.0324,0.013523,0.002678,0.000431,0.000235
20949000,0.0324,0.013523,0.002678,0.000431,0.000353
20950000,0.0324,0.013523,0.002678,0.000431,0.000470
20951000,0.0324,0.013523,0.002678,0.000431,0.000235
20952000,0.0324,0.013523,0.002678,0.000431,0.000235
20953000,0.0324,0.013523,0.002678,0.000431,0.000470
20954000,0.0324,0.013523,0.002678,0.000431,0.000353
20955000,0.0324,0.013523,0.002678,0.000431,0.000235
20956000,0.0324,0.013523,0.002678,0.000431,0.000353
20957000,0.0324,0.013523,0.002678,0.000431,0.000470
20958000,0.0324,0.013523,0.002678,0.000431,0.000235
20959000,0.0324,0.013523,0.002678,0.000431,0.000235
20960000,0.0324,0.013523,0.002678,0.000431,0.000470
20961000,0.0324,0.013523,0.002678,0.000431,0.000353
20962000,0.0324,0.013523,0.002678,0.000431,0.000235
20963000,0.0324,0.013523,0.002678,0.000431,0.000353
20964000,0.0324,0.013523,0.002678,0.000431,0.000470
20965000,0.0324,0.013523,0.002678,0.000431,0.000235
20966000,0.0324,0.013523,0.002678,0.000431,0.000235
20967000,0.0324,0.013523,0.002678,0.000431,0.000470
20968000,0.0324,0.013523,0.002678,0.000431,0.000353
20969000,0.0324,0.013523,0.002678,0.000431,0.000235
20970000,0.0324,0.013523,0.002678,0.000431,0.000353
20971000,0.0324,0.013523,0.002678,0.000431,0.000470
20972000,0.0324,0.013523,0.002678,0.000431,0.000235
20973000,0.0324,0.013523,0.002678,0.000431,0.000235
20974000,0.0324,0.013523,0.002678,0.000431,0.000470
20975000,0.0324,0.013523,0.002678,0.000431,0.000353
20976000,0.0324,0.013523,0.002678,0.000431,0.000235
20977000,0.0324,0.013523,0.002678,0.000431,0.000353
20978000,0.0324,0.013523,0.002678,0.000431,0.000470
20979000,0.0324,0.013523,0.002678,0.000431,0.000118
20980000,0.0324,0.013523,0.002678,0.000431,0.000353
20981000,0.0324,0.013523,0.002678,0.000431,0.000470
20982000,0.0324,0.013523,0.002678,0.000431,0.000353
20983000,0.0324,0.013523,0.002678,0.000431,0.000235
20984000,0.0324,0.013523,0.002678,0.000431,0.000353
20985000,0.0324,0.013523,0.002678,0.000431,0.000470
20986000,0.0324,0.013523,0.002678,0.000431,0.000118
20987000,0.0324,0.013523,0.002678,0.000431,0.000353
20988000,0.0324,0.013523,0.002678,0.000431,0.000470
20989000,0.0324,0.013523,0.002678,0.000431,0.000353
20990000,0.0324,0.013523,0.002678,0.000431,0.000235
20991000,0.0324,0.013523,0.002678,0.000431,0.000353
20992000,0.0324,0.013523,0.002678,0.000431,0.000470
20993000,0.0324,0.013523,0.002678,0.000431,0.000118
20994000,0.0324,0.013523,0.002678,0.000431,0.000353
20995000,0.0324,0.013523,0.002678,0.000431,0.000470
20996000,0.0324,0.013523,0.002678,0.000431,0.000353
20997000,0.0324,0.013523,0.002678,0.000431,0.000235
20998000,0.0324,0.013523,0.002678,0.000431,0.000353
20999000,0.0324,0.013523,0.002678,0.000431,0.000470
