Cycle,Area(mm^2),PeakDynamic(W),SubthresholdLeakage(W),GateLeakage(W),RunTimeDynamic(W)
42000000,0.0324,0.013523,0.002678,0.000431,0.000353
42001000,0.0324,0.013523,0.002678,0.000431,0.000470
42002000,0.0324,0.013523,0.002678,0.000431,0.000118
42003000,0.0324,0.013523,0.002678,0.000431,0.000353
42004000,0.0324,0.013523,0.002678,0.000431,0.000470
42005000,0.0324,0.013523,0.002678,0.000431,0.000353
42006000,0.0324,0.013523,0.002678,0.000431,0.000235
42007000,0.0324,0.013523,0.002678,0.000431,0.000353
42008000,0.0324,0.013523,0.002678,0.000431,0.000470
42009000,0.0324,0.013523,0.002678,0.000431,0.000118
42010000,0.0324,0.013523,0.002678,0.000431,0.000353
42011000,0.0324,0.013523,0.002678,0.000431,0.000470
42012000,0.0324,0.013523,0.002678,0.000431,0.000353
42013000,0.0324,0.013523,0.002678,0.000431,0.000235
42014000,0.0324,0.013523,0.002678,0.000431,0.000353
42015000,0.0324,0.013523,0.002678,0.000431,0.000353
42016000,0.0324,0.013523,0.002678,0.000431,0.000235
42017000,0.0324,0.013523,0.002678,0.000431,0.000353
42018000,0.0324,0.013523,0.002678,0.000431,0.000470
42019000,0.0324,0.013523,0.002678,0.000431,0.000353
42020000,0.0324,0.013523,0.002678,0.000431,0.000235
42021000,0.0324,0.013523,0.002678,0.000431,0.000353
42022000,0.0324,0.013523,0.002678,0.000431,0.000353
42023000,0.0324,0.013523,0.002678,0.000431,0.000235
42024000,0.0324,0.013523,0.002678,0.000431,0.000353
42025000,0.0324,0.013523,0.002678,0.000431,0.000470
42026000,0.0324,0.013523,0.002678,0.000431,0.000353
42027000,0.0324,0.013523,0.002678,0.000431,0.000235
42028000,0.0324,0.013523,0.002678,0.000431,0.000353
42029000,0.0324,0.013523,0.002678,0.000431,0.000353
42030000,0.0324,0.013523,0.002678,0.000431,0.000235
42031000,0.0324,0.013523,0.002678,0.000431,0.000353
42032000,0.0324,0.013523,0.002678,0.000431,0.000470
42033000,0.0324,0.013523,0.002678,0.000431,0.000353
42034000,0.0324,0.013523,0.002678,0.000431,0.000235
42035000,0.0324,0.013523,0.002678,0.000431,0.000353
42036000,0.0324,0.013523,0.002678,0.000431,0.000353
42037000,0.0324,0.013523,0.002678,0.000431,0.000235
42038000,0.0324,0.013523,0.002678,0.000431,0.000353
42039000,0.0324,0.013523,0.002678,0.000431,0.000470
42040000,0.0324,0.013523,0.002678,0.000431,0.000353
42041000,0.0324,0.013523,0.002678,0.000431,0.000235
42042000,0.0324,0.013523,0.002678,0.000431,0.000353
42043000,0.0324,0.013523,0.002678,0.000431,0.000353
42044000,0.0324,0.013523,0.002678,0.000431,0.000235
42045000,0.0324,0.013523,0.002678,0.000431,0.000353
42046000,0.0324,0.013523,0.002678,0.000431,0.000470
42047000,0.0324,0.013523,0.002678,0.000431,0.000353
42048000,0.0324,0.013523,0.002678,0.000431,0.000235
42049000,0.0324,0.013523,0.002678,0.000431,0.000353
42050000,0.0324,0.013523,0.002678,0.000431,0.000353
42051000,0.0324,0.013523,0.002678,0.000431,0.000235
42052000,0.0324,0.013523,0.002678,0.000431,0.000353
42053000,0.0324,0.013523,0.002678,0.000431,0.000470
42054000,0.0324,0.013523,0.002678,0.000431,0.000353
42055000,0.0324,0.013523,0.002678,0.000431,0.000235
42056000,0.0324,0.013523,0.002678,0.000431,0.000353
42057000,0.0324,0.013523,0.002678,0.000431,0.000353
42058000,0.0324,0.013523,0.002678,0.000431,0.000235
42059000,0.0324,0.013523,0.002678,0.000431,0.000353
42060000,0.0324,0.013523,0.002678,0.000431,0.000470
42061000,0.0324,0.013523,0.002678,0.000431,0.000353
42062000,0.0324,0.013523,0.002678,0.000431,0.000235
42063000,0.0324,0.013523,0.002678,0.000431,0.000353
42064000,0.0324,0.013523,0.002678,0.000431,0.000353
42065000,0.0324,0.013523,0.002678,0.000431,0.000235
42066000,0.0324,0.013523,0.002678,0.000431,0.000353
42067000,0.0324,0.013523,0.002678,0.000431,0.000470
42068000,0.0324,0.013523,0.002678,0.000431,0.000353
42069000,0.0324,0.013523,0.002678,0.000431,0.000118
42070000,0.0324,0.013523,0.002678,0.000431,0.000470
42071000,0.0324,0.013523,0.002678,0.000431,0.000353
42072000,0.0324,0.013523,0.002678,0.000431,0.000235
42073000,0.0324,0.013523,0.002678,0.000431,0.000353
42074000,0.0324,0.013523,0.002678,0.000431,0.000470
42075000,0.0324,0.013523,0.002678,0.000431,0.000353
42076000,0.0324,0.013523,0.002678,0.000431,0.000118
42077000,0.0324,0.013523,0.002678,0.000431,0.000470
42078000,0.0324,0.013523,0.002678,0.000431,0.000353
42079000,0.0324,0.013523,0.002678,0.000431,0.000235
42080000,0.0324,0.013523,0.002678,0.000431,0.000353
42081000,0.0324,0.013523,0.002678,0.000431,0.000470
42082000,0.0324,0.013523,0.002678,0.000431,0.000353
42083000,0.0324,0.013523,0.002678,0.000431,0.000118
42084000,0.0324,0.013523,0.002678,0.000431,0.000470
42085000,0.0324,0.013523,0.002678,0.000431,0.000353
42086000,0.0324,0.013523,0.002678,0.000431,0.000235
42087000,0.0324,0.013523,0.002678,0.000431,0.000353
42088000,0.0324,0.013523,0.002678,0.000431,0.000470
42089000,0.0324,0.013523,0.002678,0.000431,0.000235
42090000,0.0324,0.013523,0.002678,0.000431,0.000235
42091000,0.0324,0.013523,0.002678,0.000431,0.000470
42092000,0.0324,0.013523,0.002678,0.000431,0.000353
42093000,0.0324,0.013523,0.002678,0.000431,0.000235
42094000,0.0324,0.013523,0.002678,0.000431,0.000353
42095000,0.0324,0.013523,0.002678,0.000431,0.000470
42096000,0.0324,0.013523,0.002678,0.000431,0.000235
42097000,0.0324,0.013523,0.002678,0.000431,0.000235
42098000,0.0324,0.013523,0.002678,0.000431,0.000470
42099000,0.0324,0.013523,0.002678,0.000431,0.000353
42100000,0.0324,0.013523,0.002678,0.000431,0.000235
42101000,0.0324,0.013523,0.002678,0.000431,0.000353
42102000,0.0324,0.013523,0.002678,0.000431,0.000470
42103000,0.0324,0.013523,0.002678,0.000431,0.000235
42104000,0.0324,0.013523,0.002678,0.000431,0.000235
42105000,0.0324,0.013523,0.002678,0.000431,0.000470
42106000,0.0324,0.013523,0.002678,0.000431,0.000353
42107000,0.0324,0.013523,0.002678,0.000431,0.000235
42108000,0.0324,0.013523,0.002678,0.000431,0.000353
42109000,0.0324,0.013523,0.002678,0.000431,0.000470
42110000,0.0324,0.013523,0.002678,0.000431,0.000235
42111000,0.0324,0.013523,0.002678,0.000431,0.000235
42112000,0.0324,0.013523,0.002678,0.000431,0.000470
42113000,0.0324,0.013523,0.002678,0.000431,0.000353
42114000,0.0324,0.013523,0.002678,0.000431,0.000235
42115000,0.0324,0.013523,0.002678,0.000431,0.000353
42116000,0.0324,0.013523,0.002678,0.000431,0.000470
42117000,0.0324,0.013523,0.002678,0.000431,0.000235
42118000,0.0324,0.013523,0.002678,0.000431,0.000235
42119000,0.0324,0.013523,0.002678,0.000431,0.000470
42120000,0.0324,0.013523,0.002678,0.000431,0.000353
42121000,0.0324,0.013523,0.002678,0.000431,0.000235
42122000,0.0324,0.013523,0.002678,0.000431,0.000353
42123000,0.0324,0.013523,0.002678,0.000431,0.000470
42124000,0.0324,0.013523,0.002678,0.000431,0.000235
42125000,0.0324,0.013523,0.002678,0.000431,0.000235
42126000,0.0324,0.013523,0.002678,0.000431,0.000470
42127000,0.0324,0.013523,0.002678,0.000431,0.000353
42128000,0.0324,0.013523,0.002678,0.000431,0.000235
42129000,0.0324,0.013523,0.002678,0.000431,0.000353
42130000,0.0324,0.013523,0.002678,0.000431,0.000470
42131000,0.0324,0.013523,0.002678,0.000431,0.000118
42132000,0.0324,0.013523,0.002678,0.000431,0.000353
42133000,0.0324,0.013523,0.002678,0.000431,0.000470
42134000,0.0324,0.013523,0.002678,0.000431,0.000353
42135000,0.0324,0.013523,0.002678,0.000431,0.000235
42136000,0.0324,0.013523,0.002678,0.000431,0.000353
42137000,0.0324,0.013523,0.002678,0.000431,0.000470
42138000,0.0324,0.013523,0.002678,0.000431,0.000118
42139000,0.0324,0.013523,0.002678,0.000431,0.000353
42140000,0.0324,0.013523,0.002678,0.000431,0.000470
42141000,0.0324,0.013523,0.002678,0.000431,0.000353
42142000,0.0324,0.013523,0.002678,0.000431,0.000235
42143000,0.0324,0.013523,0.002678,0.000431,0.000353
42144000,0.0324,0.013523,0.002678,0.000431,0.000470
42145000,0.0324,0.013523,0.002678,0.000431,0.000118
42146000,0.0324,0.013523,0.002678,0.000431,0.000353
42147000,0.0324,0.013523,0.002678,0.000431,0.000470
42148000,0.0324,0.013523,0.002678,0.000431,0.000353
42149000,0.0324,0.013523,0.002678,0.000431,0.000235
42150000,0.0324,0.013523,0.002678,0.000431,0.000353
42151000,0.0324,0.013523,0.002678,0.000431,0.000470
42152000,0.0324,0.013523,0.002678,0.000431,0.000118
42153000,0.0324,0.013523,0.002678,0.000431,0.000353
42154000,0.0324,0.013523,0.002678,0.000431,0.000470
42155000,0.0324,0.013523,0.002678,0.000431,0.000353
42156000,0.0324,0.013523,0.002678,0.000431,0.000235
42157000,0.0324,0.013523,0.002678,0.000431,0.000353
42158000,0.0324,0.013523,0.002678,0.000431,0.000353
42159000,0.0324,0.013523,0.002678,0.000431,0.000235
42160000,0.0324,0.013523,0.002678,0.000431,0.000353
42161000,0.0324,0.013523,0.002678,0.000431,0.000470
42162000,0.0324,0.013523,0.002678,0.000431,0.000353
42163000,0.0324,0.013523,0.002678,0.000431,0.000235
42164000,0.0324,0.013523,0.002678,0.000431,0.000353
42165000,0.0324,0.013523,0.002678,0.000431,0.000353
42166000,0.0324,0.013523,0.002678,0.000431,0.000235
42167000,0.0324,0.013523,0.002678,0.000431,0.000353
42168000,0.0324,0.013523,0.002678,0.000431,0.000470
42169000,0.0324,0.013523,0.002678,0.000431,0.000353
42170000,0.0324,0.013523,0.002678,0.000431,0.000235
42171000,0.0324,0.013523,0.002678,0.000431,0.000353
42172000,0.0324,0.013523,0.002678,0.000431,0.000353
42173000,0.0324,0.013523,0.002678,0.000431,0.000235
42174000,0.0324,0.013523,0.002678,0.000431,0.000353
42175000,0.0324,0.013523,0.002678,0.000431,0.000470
42176000,0.0324,0.013523,0.002678,0.000431,0.000353
42177000,0.0324,0.013523,0.002678,0.000431,0.000235
42178000,0.0324,0.013523,0.002678,0.000431,0.000353
42179000,0.0324,0.013523,0.002678,0.000431,0.000353
42180000,0.0324,0.013523,0.002678,0.000431,0.000235
42181000,0.0324,0.013523,0.002678,0.000431,0.000353
42182000,0.0324,0.013523,0.002678,0.000431,0.000470
42183000,0.0324,0.013523,0.002678,0.000431,0.000353
42184000,0.0324,0.013523,0.002678,0.000431,0.000235
42185000,0.0324,0.013523,0.002678,0.000431,0.000353
42186000,0.0324,0.013523,0.002678,0.000431,0.000353
42187000,0.0324,0.013523,0.002678,0.000431,0.000235
42188000,0.0324,0.013523,0.002678,0.000431,0.000353
42189000,0.0324,0.013523,0.002678,0.000431,0.000470
42190000,0.0324,0.013523,0.002678,0.000431,0.000353
42191000,0.0324,0.013523,0.002678,0.000431,0.000235
42192000,0.0324,0.013523,0.002678,0.000431,0.000353
42193000,0.0324,0.013523,0.002678,0.000431,0.000353
42194000,0.0324,0.013523,0.002678,0.000431,0.000235
42195000,0.0324,0.013523,0.002678,0.000431,0.000353
42196000,0.0324,0.013523,0.002678,0.000431,0.000470
42197000,0.0324,0.013523,0.002678,0.000431,0.000353
42198000,0.0324,0.013523,0.002678,0.000431,0.000235
42199000,0.0324,0.013523,0.002678,0.000431,0.000353
42200000,0.0324,0.013523,0.002678,0.000431,0.000353
42201000,0.0324,0.013523,0.002678,0.000431,0.000235
42202000,0.0324,0.013523,0.002678,0.000431,0.000353
42203000,0.0324,0.013523,0.002678,0.000431,0.000470
42204000,0.0324,0.013523,0.002678,0.000431,0.000353
42205000,0.0324,0.013523,0.002678,0.000431,0.000118
42206000,0.0324,0.013523,0.002678,0.000431,0.000470
42207000,0.0324,0.013523,0.002678,0.000431,0.000353
42208000,0.0324,0.013523,0.002678,0.000431,0.000235
42209000,0.0324,0.013523,0.002678,0.000431,0.000353
42210000,0.0324,0.013523,0.002678,0.000431,0.000470
42211000,0.0324,0.013523,0.002678,0.000431,0.000353
42212000,0.0324,0.013523,0.002678,0.000431,0.000118
42213000,0.0324,0.013523,0.002678,0.000431,0.000470
42214000,0.0324,0.013523,0.002678,0.000431,0.000353
42215000,0.0324,0.013523,0.002678,0.000431,0.000235
42216000,0.0324,0.013523,0.002678,0.000431,0.000353
42217000,0.0324,0.013523,0.002678,0.000431,0.000470
42218000,0.0324,0.013523,0.002678,0.000431,0.000353
42219000,0.0324,0.013523,0.002678,0.000431,0.000118
42220000,0.0324,0.013523,0.002678,0.000431,0.000470
42221000,0.0324,0.013523,0.002678,0.000431,0.000353
42222000,0.0324,0.013523,0.002678,0.000431,0.000235
42223000,0.0324,0.013523,0.002678,0.000431,0.000353
42224000,0.0324,0.013523,0.002678,0.000431,0.000470
42225000,0.0324,0.013523,0.002678,0.000431,0.000353
42226000,0.0324,0.013523,0.002678,0.000431,0.000118
42227000,0.0324,0.013523,0.002678,0.000431,0.000470
42228000,0.0324,0.013523,0.002678,0.000431,0.000353
42229000,0.0324,0.013523,0.002678,0.000431,0.000235
42230000,0.0324,0.013523,0.002678,0.000431,0.000353
42231000,0.0324,0.013523,0.002678,0.000431,0.000470
42232000,0.0324,0.013523,0.002678,0.000431,0.000235
42233000,0.0324,0.013523,0.002678,0.000431,0.000235
42234000,0.0324,0.013523,0.002678,0.000431,0.000470
42235000,0.0324,0.013523,0.002678,0.000431,0.000353
42236000,0.0324,0.013523,0.002678,0.000431,0.000235
42237000,0.0324,0.013523,0.002678,0.000431,0.000353
42238000,0.0324,0.013523,0.002678,0.000431,0.000470
42239000,0.0324,0.013523,0.002678,0.000431,0.000235
42240000,0.0324,0.013523,0.002678,0.000431,0.000235
42241000,0.0324,0.013523,0.002678,0.000431,0.000470
42242000,0.0324,0.013523,0.002678,0.000431,0.000353
42243000,0.0324,0.013523,0.002678,0.000431,0.000235
42244000,0.0324,0.013523,0.002678,0.000431,0.000353
42245000,0.0324,0.013523,0.002678,0.000431,0.000470
42246000,0.0324,0.013523,0.002678,0.000431,0.000235
42247000,0.0324,0.013523,0.002678,0.000431,0.000235
42248000,0.0324,0.013523,0.002678,0.000431,0.000470
42249000,0.0324,0.013523,0.002678,0.000431,0.000353
42250000,0.0324,0.013523,0.002678,0.000431,0.000235
42251000,0.0324,0.013523,0.002678,0.000431,0.000353
42252000,0.0324,0.013523,0.002678,0.000431,0.000470
42253000,0.0324,0.013523,0.002678,0.000431,0.000235
42254000,0.0324,0.013523,0.002678,0.000431,0.000235
42255000,0.0324,0.013523,0.002678,0.000431,0.000470
42256000,0.0324,0.013523,0.002678,0.000431,0.000353
42257000,0.0324,0.013523,0.002678,0.000431,0.000235
42258000,0.0324,0.013523,0.002678,0.000431,0.000353
42259000,0.0324,0.013523,0.002678,0.000431,0.000470
42260000,0.0324,0.013523,0.002678,0.000431,0.000235
42261000,0.0324,0.013523,0.002678,0.000431,0.000235
42262000,0.0324,0.013523,0.002678,0.000431,0.000470
42263000,0.0324,0.013523,0.002678,0.000431,0.000353
42264000,0.0324,0.013523,0.002678,0.000431,0.000235
42265000,0.0324,0.013523,0.002678,0.000431,0.000353
42266000,0.0324,0.013523,0.002678,0.000431,0.000470
42267000,0.0324,0.013523,0.002678,0.000431,0.000235
42268000,0.0324,0.013523,0.002678,0.000431,0.000235
42269000,0.0324,0.013523,0.002678,0.000431,0.000470
42270000,0.0324,0.013523,0.002678,0.000431,0.000353
42271000,0.0324,0.013523,0.002678,0.000431,0.000235
42272000,0.0324,0.013523,0.002678,0.000431,0.000353
42273000,0.0324,0.013523,0.002678,0.000431,0.000470
42274000,0.0324,0.013523,0.002678,0.000431,0.000118
42275000,0.0324,0.013523,0.002678,0.000431,0.000353
42276000,0.0324,0.013523,0.002678,0.000431,0.000470
42277000,0.0324,0.013523,0.002678,0.000431,0.000353
42278000,0.0324,0.013523,0.002678,0.000431,0.000235
42279000,0.0324,0.013523,0.002678,0.000431,0.000353
42280000,0.0324,0.013523,0.002678,0.000431,0.000470
42281000,0.0324,0.013523,0.002678,0.000431,0.000118
42282000,0.0324,0.013523,0.002678,0.000431,0.000353
42283000,0.0324,0.013523,0.002678,0.000431,0.000470
42284000,0.0324,0.013523,0.002678,0.000431,0.000353
42285000,0.0324,0.013523,0.002678,0.000431,0.000235
42286000,0.0324,0.013523,0.002678,0.000431,0.000353
42287000,0.0324,0.013523,0.002678,0.000431,0.000470
42288000,0.0324,0.013523,0.002678,0.000431,0.000118
42289000,0.0324,0.013523,0.002678,0.000431,0.000353
42290000,0.0324,0.013523,0.002678,0.000431,0.000470
42291000,0.0324,0.013523,0.002678,0.000431,0.000353
42292000,0.0324,0.013523,0.002678,0.000431,0.000235
42293000,0.0324,0.013523,0.002678,0.000431,0.000353
42294000,0.0324,0.013523,0.002678,0.000431,0.000353
42295000,0.0324,0.013523,0.002678,0.000431,0.000235
42296000,0.0324,0.013523,0.002678,0.000431,0.000353
42297000,0.0324,0.013523,0.002678,0.000431,0.000470
42298000,0.0324,0.013523,0.002678,0.000431,0.000353
42299000,0.0324,0.013523,0.002678,0.000431,0.000235
42300000,0.0324,0.013523,0.002678,0.000431,0.000353
42301000,0.0324,0.013523,0.002678,0.000431,0.000353
42302000,0.0324,0.013523,0.002678,0.000431,0.000235
42303000,0.0324,0.013523,0.002678,0.000431,0.000353
42304000,0.0324,0.013523,0.002678,0.000431,0.000470
42305000,0.0324,0.013523,0.002678,0.000431,0.000353
42306000,0.0324,0.013523,0.002678,0.000431,0.000235
42307000,0.0324,0.013523,0.002678,0.000431,0.000353
42308000,0.0324,0.013523,0.002678,0.000431,0.000353
42309000,0.0324,0.013523,0.002678,0.000431,0.000235
42310000,0.0324,0.013523,0.002678,0.000431,0.000353
42311000,0.0324,0.013523,0.002678,0.000431,0.000470
42312000,0.0324,0.013523,0.002678,0.000431,0.000353
42313000,0.0324,0.013523,0.002678,0.000431,0.000235
42314000,0.0324,0.013523,0.002678,0.000431,0.000353
42315000,0.0324,0.013523,0.002678,0.000431,0.000353
42316000,0.0324,0.013523,0.002678,0.000431,0.000235
42317000,0.0324,0.013523,0.002678,0.000431,0.000353
42318000,0.0324,0.013523,0.002678,0.000431,0.000470
42319000,0.0324,0.013523,0.002678,0.000431,0.000353
42320000,0.0324,0.013523,0.002678,0.000431,0.000235
42321000,0.0324,0.013523,0.002678,0.000431,0.000353
42322000,0.0324,0.013523,0.002678,0.000431,0.000353
42323000,0.0324,0.013523,0.002678,0.000431,0.000235
42324000,0.0324,0.013523,0.002678,0.000431,0.000353
42325000,0.0324,0.013523,0.002678,0.000431,0.000470
42326000,0.0324,0.013523,0.002678,0.000431,0.000353
42327000,0.0324,0.013523,0.002678,0.000431,0.000235
42328000,0.0324,0.013523,0.002678,0.000431,0.000353
42329000,0.0324,0.013523,0.002678,0.000431,0.000353
42330000,0.0324,0.013523,0.002678,0.000431,0.000235
42331000,0.0324,0.013523,0.002678,0.000431,0.000353
42332000,0.0324,0.013523,0.002678,0.000431,0.000470
42333000,0.0324,0.013523,0.002678,0.000431,0.000353
42334000,0.0324,0.013523,0.002678,0.000431,0.000235
42335000,0.0324,0.013523,0.002678,0.000431,0.000353
42336000,0.0324,0.013523,0.002678,0.000431,0.000353
42337000,0.0324,0.013523,0.002678,0.000431,0.000235
42338000,0.0324,0.013523,0.002678,0.000431,0.000353
42339000,0.0324,0.013523,0.002678,0.000431,0.000470
42340000,0.0324,0.013523,0.002678,0.000431,0.000353
42341000,0.0324,0.013523,0.002678,0.000431,0.000235
42342000,0.0324,0.013523,0.002678,0.000431,0.000353
42343000,0.0324,0.013523,0.002678,0.000431,0.000353
42344000,0.0324,0.013523,0.002678,0.000431,0.000235
42345000,0.0324,0.013523,0.002678,0.000431,0.000353
42346000,0.0324,0.013523,0.002678,0.000431,0.000470
42347000,0.0324,0.013523,0.002678,0.000431,0.000353
42348000,0.0324,0.013523,0.002678,0.000431,0.000118
42349000,0.0324,0.013523,0.002678,0.000431,0.000470
42350000,0.0324,0.013523,0.002678,0.000431,0.000353
42351000,0.0324,0.013523,0.002678,0.000431,0.000235
42352000,0.0324,0.013523,0.002678,0.000431,0.000353
42353000,0.0324,0.013523,0.002678,0.000431,0.000470
42354000,0.0324,0.013523,0.002678,0.000431,0.000353
42355000,0.0324,0.013523,0.002678,0.000431,0.000118
42356000,0.0324,0.013523,0.002678,0.000431,0.000470
42357000,0.0324,0.013523,0.002678,0.000431,0.000353
42358000,0.0324,0.013523,0.002678,0.000431,0.000235
42359000,0.0324,0.013523,0.002678,0.000431,0.000353
42360000,0.0324,0.013523,0.002678,0.000431,0.000470
42361000,0.0324,0.013523,0.002678,0.000431,0.000353
42362000,0.0324,0.013523,0.002678,0.000431,0.000118
42363000,0.0324,0.013523,0.002678,0.000431,0.000470
42364000,0.0324,0.013523,0.002678,0.000431,0.000353
42365000,0.0324,0.013523,0.002678,0.000431,0.000235
42366000,0.0324,0.013523,0.002678,0.000431,0.000353
42367000,0.0324,0.013523,0.002678,0.000431,0.000470
42368000,0.0324,0.013523,0.002678,0.000431,0.000235
42369000,0.0324,0.013523,0.002678,0.000431,0.000235
42370000,0.0324,0.013523,0.002678,0.000431,0.000470
42371000,0.0324,0.013523,0.002678,0.000431,0.000353
42372000,0.0324,0.013523,0.002678,0.000431,0.000235
42373000,0.0324,0.013523,0.002678,0.000431,0.000353
42374000,0.0324,0.013523,0.002678,0.000431,0.000470
42375000,0.0324,0.013523,0.002678,0.000431,0.000235
42376000,0.0324,0.013523,0.002678,0.000431,0.000235
42377000,0.0324,0.013523,0.002678,0.000431,0.000470
42378000,0.0324,0.013523,0.002678,0.000431,0.000353
42379000,0.0324,0.013523,0.002678,0.000431,0.000235
42380000,0.0324,0.013523,0.002678,0.000431,0.000353
42381000,0.0324,0.013523,0.002678,0.000431,0.000470
42382000,0.0324,0.013523,0.002678,0.000431,0.000235
42383000,0.0324,0.013523,0.002678,0.000431,0.000235
42384000,0.0324,0.013523,0.002678,0.000431,0.000470
42385000,0.0324,0.013523,0.002678,0.000431,0.000353
42386000,0.0324,0.013523,0.002678,0.000431,0.000235
42387000,0.0324,0.013523,0.002678,0.000431,0.000353
42388000,0.0324,0.013523,0.002678,0.000431,0.000470
42389000,0.0324,0.013523,0.002678,0.000431,0.000235
42390000,0.0324,0.013523,0.002678,0.000431,0.000235
42391000,0.0324,0.013523,0.002678,0.000431,0.000470
42392000,0.0324,0.013523,0.002678,0.000431,0.000353
42393000,0.0324,0.013523,0.002678,0.000431,0.000235
42394000,0.0324,0.013523,0.002678,0.000431,0.000353
42395000,0.0324,0.013523,0.002678,0.000431,0.000470
42396000,0.0324,0.013523,0.002678,0.000431,0.000235
42397000,0.0324,0.013523,0.002678,0.000431,0.000235
42398000,0.0324,0.013523,0.002678,0.000431,0.000470
42399000,0.0324,0.013523,0.002678,0.000431,0.000353
42400000,0.0324,0.013523,0.002678,0.000431,0.000235
42401000,0.0324,0.013523,0.002678,0.000431,0.000353
42402000,0.0324,0.013523,0.002678,0.000431,0.000470
42403000,0.0324,0.013523,0.002678,0.000431,0.000235
42404000,0.0324,0.013523,0.002678,0.000431,0.000235
42405000,0.0324,0.013523,0.002678,0.000431,0.000470
42406000,0.0324,0.013523,0.002678,0.000431,0.000353
42407000,0.0324,0.013523,0.002678,0.000431,0.000235
42408000,0.0324,0.013523,0.002678,0.000431,0.000353
42409000,0.0324,0.013523,0.002678,0.000431,0.000470
42410000,0.0324,0.013523,0.002678,0.000431,0.000118
42411000,0.0324,0.013523,0.002678,0.000431,0.000353
42412000,0.0324,0.013523,0.002678,0.000431,0.000470
42413000,0.0324,0.013523,0.002678,0.000431,0.000353
42414000,0.0324,0.013523,0.002678,0.000431,0.000235
42415000,0.0324,0.013523,0.002678,0.000431,0.000353
42416000,0.0324,0.013523,0.002678,0.000431,0.000470
42417000,0.0324,0.013523,0.002678,0.000431,0.000118
42418000,0.0324,0.013523,0.002678,0.000431,0.000353
42419000,0.0324,0.013523,0.002678,0.000431,0.000470
42420000,0.0324,0.013523,0.002678,0.000431,0.000353
42421000,0.0324,0.013523,0.002678,0.000431,0.000235
42422000,0.0324,0.013523,0.002678,0.000431,0.000353
42423000,0.0324,0.013523,0.002678,0.000431,0.000470
42424000,0.0324,0.013523,0.002678,0.000431,0.000118
42425000,0.0324,0.013523,0.002678,0.000431,0.000353
42426000,0.0324,0.013523,0.002678,0.000431,0.000470
42427000,0.0324,0.013523,0.002678,0.000431,0.000353
42428000,0.0324,0.013523,0.002678,0.000431,0.000235
42429000,0.0324,0.013523,0.002678,0.000431,0.000353
42430000,0.0324,0.013523,0.002678,0.000431,0.000470
42431000,0.0324,0.013523,0.002678,0.000431,0.000118
42432000,0.0324,0.013523,0.002678,0.000431,0.000353
42433000,0.0324,0.013523,0.002678,0.000431,0.000470
42434000,0.0324,0.013523,0.002678,0.000431,0.000353
42435000,0.0324,0.013523,0.002678,0.000431,0.000235
42436000,0.0324,0.013523,0.002678,0.000431,0.000353
42437000,0.0324,0.013523,0.002678,0.000431,0.000353
42438000,0.0324,0.013523,0.002678,0.000431,0.000235
42439000,0.0324,0.013523,0.002678,0.000431,0.000353
42440000,0.0324,0.013523,0.002678,0.000431,0.000470
42441000,0.0324,0.013523,0.002678,0.000431,0.000353
42442000,0.0324,0.013523,0.002678,0.000431,0.000235
42443000,0.0324,0.013523,0.002678,0.000431,0.000353
42444000,0.0324,0.013523,0.002678,0.000431,0.000353
42445000,0.0324,0.013523,0.002678,0.000431,0.000235
42446000,0.0324,0.013523,0.002678,0.000431,0.000353
42447000,0.0324,0.013523,0.002678,0.000431,0.000470
42448000,0.0324,0.013523,0.002678,0.000431,0.000353
42449000,0.0324,0.013523,0.002678,0.000431,0.000235
42450000,0.0324,0.013523,0.002678,0.000431,0.000353
42451000,0.0324,0.013523,0.002678,0.000431,0.000353
42452000,0.0324,0.013523,0.002678,0.000431,0.000235
42453000,0.0324,0.013523,0.002678,0.000431,0.000353
42454000,0.0324,0.013523,0.002678,0.000431,0.000470
42455000,0.0324,0.013523,0.002678,0.000431,0.000353
42456000,0.0324,0.013523,0.002678,0.000431,0.000235
42457000,0.0324,0.013523,0.002678,0.000431,0.000353
42458000,0.0324,0.013523,0.002678,0.000431,0.000353
42459000,0.0324,0.013523,0.002678,0.000431,0.000235
42460000,0.0324,0.013523,0.002678,0.000431,0.000353
42461000,0.0324,0.013523,0.002678,0.000431,0.000470
42462000,0.0324,0.013523,0.002678,0.000431,0.000353
42463000,0.0324,0.013523,0.002678,0.000431,0.000235
42464000,0.0324,0.013523,0.002678,0.000431,0.000353
42465000,0.0324,0.013523,0.002678,0.000431,0.000353
42466000,0.0324,0.013523,0.002678,0.000431,0.000235
42467000,0.0324,0.013523,0.002678,0.000431,0.000353
42468000,0.0324,0.013523,0.002678,0.000431,0.000470
42469000,0.0324,0.013523,0.002678,0.000431,0.000353
42470000,0.0324,0.013523,0.002678,0.000431,0.000235
42471000,0.0324,0.013523,0.002678,0.000431,0.000353
42472000,0.0324,0.013523,0.002678,0.000431,0.000353
42473000,0.0324,0.013523,0.002678,0.000431,0.000235
42474000,0.0324,0.013523,0.002678,0.000431,0.000353
42475000,0.0324,0.013523,0.002678,0.000431,0.000470
42476000,0.0324,0.013523,0.002678,0.000431,0.000353
42477000,0.0324,0.013523,0.002678,0.000431,0.000235
42478000,0.0324,0.013523,0.002678,0.000431,0.000353
42479000,0.0324,0.013523,0.002678,0.000431,0.000353
42480000,0.0324,0.013523,0.002678,0.000431,0.000235
42481000,0.0324,0.013523,0.002678,0.000431,0.000353
42482000,0.0324,0.013523,0.002678,0.000431,0.000470
42483000,0.0324,0.013523,0.002678,0.000431,0.000353
42484000,0.0324,0.013523,0.002678,0.000431,0.000235
42485000,0.0324,0.013523,0.002678,0.000431,0.000353
42486000,0.0324,0.013523,0.002678,0.000431,0.000353
42487000,0.0324,0.013523,0.002678,0.000431,0.000235
42488000,0.0324,0.013523,0.002678,0.000431,0.000353
42489000,0.0324,0.013523,0.002678,0.000431,0.000470
42490000,0.0324,0.013523,0.002678,0.000431,0.000353
42491000,0.0324,0.013523,0.002678,0.000431,0.000118
42492000,0.0324,0.013523,0.002678,0.000431,0.000470
42493000,0.0324,0.013523,0.002678,0.000431,0.000353
42494000,0.0324,0.013523,0.002678,0.000431,0.000235
42495000,0.0324,0.013523,0.002678,0.000431,0.000353
42496000,0.0324,0.013523,0.002678,0.000431,0.000470
42497000,0.0324,0.013523,0.002678,0.000431,0.000353
42498000,0.0324,0.013523,0.002678,0.000431,0.000118
42499000,0.0324,0.013523,0.002678,0.000431,0.000470
42500000,0.0324,0.013523,0.002678,0.000431,0.000353
42501000,0.0324,0.013523,0.002678,0.000431,0.000235
42502000,0.0324,0.013523,0.002678,0.000431,0.000353
42503000,0.0324,0.013523,0.002678,0.000431,0.000470
42504000,0.0324,0.013523,0.002678,0.000431,0.000353
42505000,0.0324,0.013523,0.002678,0.000431,0.000118
42506000,0.0324,0.013523,0.002678,0.000431,0.000470
42507000,0.0324,0.013523,0.002678,0.000431,0.000353
42508000,0.0324,0.013523,0.002678,0.000431,0.000235
42509000,0.0324,0.013523,0.002678,0.000431,0.000353
42510000,0.0324,0.013523,0.002678,0.000431,0.000470
42511000,0.0324,0.013523,0.002678,0.000431,0.000235
42512000,0.0324,0.013523,0.002678,0.000431,0.000235
42513000,0.0324,0.013523,0.002678,0.000431,0.000470
42514000,0.0324,0.013523,0.002678,0.000431,0.000353
42515000,0.0324,0.013523,0.002678,0.000431,0.000235
42516000,0.0324,0.013523,0.002678,0.000431,0.000353
42517000,0.0324,0.013523,0.002678,0.000431,0.000470
42518000,0.0324,0.013523,0.002678,0.000431,0.000235
42519000,0.0324,0.013523,0.002678,0.000431,0.000235
42520000,0.0324,0.013523,0.002678,0.000431,0.000470
42521000,0.0324,0.013523,0.002678,0.000431,0.000353
42522000,0.0324,0.013523,0.002678,0.000431,0.000235
42523000,0.0324,0.013523,0.002678,0.000431,0.000353
42524000,0.0324,0.013523,0.002678,0.000431,0.000470
42525000,0.0324,0.013523,0.002678,0.000431,0.000235
42526000,0.0324,0.013523,0.002678,0.000431,0.000235
42527000,0.0324,0.013523,0.002678,0.000431,0.000470
42528000,0.0324,0.013523,0.002678,0.000431,0.000353
42529000,0.0324,0.013523,0.002678,0.000431,0.000235
42530000,0.0324,0.013523,0.002678,0.000431,0.000353
42531000,0.0324,0.013523,0.002678,0.000431,0.000470
42532000,0.0324,0.013523,0.002678,0.000431,0.000235
42533000,0.0324,0.013523,0.002678,0.000431,0.000235
42534000,0.0324,0.013523,0.002678,0.000431,0.000470
42535000,0.0324,0.013523,0.002678,0.000431,0.000353
42536000,0.0324,0.013523,0.002678,0.000431,0.000235
42537000,0.0324,0.013523,0.002678,0.000431,0.000353
42538000,0.0324,0.013523,0.002678,0.000431,0.000470
42539000,0.0324,0.013523,0.002678,0.000431,0.000235
42540000,0.0324,0.013523,0.002678,0.000431,0.000235
42541000,0.0324,0.013523,0.002678,0.000431,0.000470
42542000,0.0324,0.013523,0.002678,0.000431,0.000353
42543000,0.0324,0.013523,0.002678,0.000431,0.000235
42544000,0.0324,0.013523,0.002678,0.000431,0.000353
42545000,0.0324,0.013523,0.002678,0.000431,0.000470
42546000,0.0324,0.013523,0.002678,0.000431,0.000235
42547000,0.0324,0.013523,0.002678,0.000431,0.000235
42548000,0.0324,0.013523,0.002678,0.000431,0.000470
42549000,0.0324,0.013523,0.002678,0.000431,0.000353
42550000,0.0324,0.013523,0.002678,0.000431,0.000235
42551000,0.0324,0.013523,0.002678,0.000431,0.000353
42552000,0.0324,0.013523,0.002678,0.000431,0.000470
42553000,0.0324,0.013523,0.002678,0.000431,0.000118
42554000,0.0324,0.013523,0.002678,0.000431,0.000353
42555000,0.0324,0.013523,0.002678,0.000431,0.000470
42556000,0.0324,0.013523,0.002678,0.000431,0.000353
42557000,0.0324,0.013523,0.002678,0.000431,0.000235
42558000,0.0324,0.013523,0.002678,0.000431,0.000353
42559000,0.0324,0.013523,0.002678,0.000431,0.000470
42560000,0.0324,0.013523,0.002678,0.000431,0.000118
42561000,0.0324,0.013523,0.002678,0.000431,0.000353
42562000,0.0324,0.013523,0.002678,0.000431,0.000470
42563000,0.0324,0.013523,0.002678,0.000431,0.000353
42564000,0.0324,0.013523,0.002678,0.000431,0.000235
42565000,0.0324,0.013523,0.002678,0.000431,0.000353
42566000,0.0324,0.013523,0.002678,0.000431,0.000470
42567000,0.0324,0.013523,0.002678,0.000431,0.000118
42568000,0.0324,0.013523,0.002678,0.000431,0.000353
42569000,0.0324,0.013523,0.002678,0.000431,0.000470
42570000,0.0324,0.013523,0.002678,0.000431,0.000353
42571000,0.0324,0.013523,0.002678,0.000431,0.000235
42572000,0.0324,0.013523,0.002678,0.000431,0.000353
42573000,0.0324,0.013523,0.002678,0.000431,0.000353
42574000,0.0324,0.013523,0.002678,0.000431,0.000235
42575000,0.0324,0.013523,0.002678,0.000431,0.000353
42576000,0.0324,0.013523,0.002678,0.000431,0.000470
42577000,0.0324,0.013523,0.002678,0.000431,0.000353
42578000,0.0324,0.013523,0.002678,0.000431,0.000235
42579000,0.0324,0.013523,0.002678,0.000431,0.000353
42580000,0.0324,0.013523,0.002678,0.000431,0.000353
42581000,0.0324,0.013523,0.002678,0.000431,0.000235
42582000,0.0324,0.013523,0.002678,0.000431,0.000353
42583000,0.0324,0.013523,0.002678,0.000431,0.000470
42584000,0.0324,0.013523,0.002678,0.000431,0.000353
42585000,0.0324,0.013523,0.002678,0.000431,0.000235
42586000,0.0324,0.013523,0.002678,0.000431,0.000353
42587000,0.0324,0.013523,0.002678,0.000431,0.000353
42588000,0.0324,0.013523,0.002678,0.000431,0.000235
42589000,0.0324,0.013523,0.002678,0.000431,0.000353
42590000,0.0324,0.013523,0.002678,0.000431,0.000470
42591000,0.0324,0.013523,0.002678,0.000431,0.000353
42592000,0.0324,0.013523,0.002678,0.000431,0.000235
42593000,0.0324,0.013523,0.002678,0.000431,0.000353
42594000,0.0324,0.013523,0.002678,0.000431,0.000353
42595000,0.0324,0.013523,0.002678,0.000431,0.000235
42596000,0.0324,0.013523,0.002678,0.000431,0.000353
42597000,0.0324,0.013523,0.002678,0.000431,0.000470
42598000,0.0324,0.013523,0.002678,0.000431,0.000353
42599000,0.0324,0.013523,0.002678,0.000431,0.000235
42600000,0.0324,0.013523,0.002678,0.000431,0.000353
42601000,0.0324,0.013523,0.002678,0.000431,0.000353
42602000,0.0324,0.013523,0.002678,0.000431,0.000235
42603000,0.0324,0.013523,0.002678,0.000431,0.000353
42604000,0.0324,0.013523,0.002678,0.000431,0.000470
42605000,0.0324,0.013523,0.002678,0.000431,0.000353
42606000,0.0324,0.013523,0.002678,0.000431,0.000235
42607000,0.0324,0.013523,0.002678,0.000431,0.000353
42608000,0.0324,0.013523,0.002678,0.000431,0.000353
42609000,0.0324,0.013523,0.002678,0.000431,0.000235
42610000,0.0324,0.013523,0.002678,0.000431,0.000353
42611000,0.0324,0.013523,0.002678,0.000431,0.000470
42612000,0.0324,0.013523,0.002678,0.000431,0.000353
42613000,0.0324,0.013523,0.002678,0.000431,0.000235
42614000,0.0324,0.013523,0.002678,0.000431,0.000353
42615000,0.0324,0.013523,0.002678,0.000431,0.000353
42616000,0.0324,0.013523,0.002678,0.000431,0.000235
42617000,0.0324,0.013523,0.002678,0.000431,0.000353
42618000,0.0324,0.013523,0.002678,0.000431,0.000470
42619000,0.0324,0.013523,0.002678,0.000431,0.000353
42620000,0.0324,0.013523,0.002678,0.000431,0.000235
42621000,0.0324,0.013523,0.002678,0.000431,0.000353
42622000,0.0324,0.013523,0.002678,0.000431,0.000353
42623000,0.0324,0.013523,0.002678,0.000431,0.000235
42624000,0.0324,0.013523,0.002678,0.000431,0.000353
42625000,0.0324,0.013523,0.002678,0.000431,0.000470
42626000,0.0324,0.013523,0.002678,0.000431,0.000353
42627000,0.0324,0.013523,0.002678,0.000431,0.000118
42628000,0.0324,0.013523,0.002678,0.000431,0.000470
42629000,0.0324,0.013523,0.002678,0.000431,0.000353
42630000,0.0324,0.013523,0.002678,0.000431,0.000235
42631000,0.0324,0.013523,0.002678,0.000431,0.000353
42632000,0.0324,0.013523,0.002678,0.000431,0.000470
42633000,0.0324,0.013523,0.002678,0.000431,0.000353
42634000,0.0324,0.013523,0.002678,0.000431,0.000118
42635000,0.0324,0.013523,0.002678,0.000431,0.000470
42636000,0.0324,0.013523,0.002678,0.000431,0.000353
42637000,0.0324,0.013523,0.002678,0.000431,0.000235
42638000,0.0324,0.013523,0.002678,0.000431,0.000353
42639000,0.0324,0.013523,0.002678,0.000431,0.000470
42640000,0.0324,0.013523,0.002678,0.000431,0.000353
42641000,0.0324,0.013523,0.002678,0.000431,0.000118
42642000,0.0324,0.013523,0.002678,0.000431,0.000470
42643000,0.0324,0.013523,0.002678,0.000431,0.000353
42644000,0.0324,0.013523,0.002678,0.000431,0.000235
42645000,0.0324,0.013523,0.002678,0.000431,0.000353
42646000,0.0324,0.013523,0.002678,0.000431,0.000470
42647000,0.0324,0.013523,0.002678,0.000431,0.000353
42648000,0.0324,0.013523,0.002678,0.000431,0.000118
42649000,0.0324,0.013523,0.002678,0.000431,0.000470
42650000,0.0324,0.013523,0.002678,0.000431,0.000353
42651000,0.0324,0.013523,0.002678,0.000431,0.000235
42652000,0.0324,0.013523,0.002678,0.000431,0.000353
42653000,0.0324,0.013523,0.002678,0.000431,0.000470
42654000,0.0324,0.013523,0.002678,0.000431,0.000235
42655000,0.0324,0.013523,0.002678,0.000431,0.000235
42656000,0.0324,0.013523,0.002678,0.000431,0.000470
42657000,0.0324,0.013523,0.002678,0.000431,0.000353
42658000,0.0324,0.013523,0.002678,0.000431,0.000235
42659000,0.0324,0.013523,0.002678,0.000431,0.000353
42660000,0.0324,0.013523,0.002678,0.000431,0.000470
42661000,0.0324,0.013523,0.002678,0.000431,0.000235
42662000,0.0324,0.013523,0.002678,0.000431,0.000235
42663000,0.0324,0.013523,0.002678,0.000431,0.000470
42664000,0.0324,0.013523,0.002678,0.000431,0.000353
42665000,0.0324,0.013523,0.002678,0.000431,0.000235
42666000,0.0324,0.013523,0.002678,0.000431,0.000353
42667000,0.0324,0.013523,0.002678,0.000431,0.000470
42668000,0.0324,0.013523,0.002678,0.000431,0.000235
42669000,0.0324,0.013523,0.002678,0.000431,0.000235
42670000,0.0324,0.013523,0.002678,0.000431,0.000470
42671000,0.0324,0.013523,0.002678,0.000431,0.000353
42672000,0.0324,0.013523,0.002678,0.000431,0.000235
42673000,0.0324,0.013523,0.002678,0.000431,0.000353
42674000,0.0324,0.013523,0.002678,0.000431,0.000470
42675000,0.0324,0.013523,0.002678,0.000431,0.000235
42676000,0.0324,0.013523,0.002678,0.000431,0.000235
42677000,0.0324,0.013523,0.002678,0.000431,0.000470
42678000,0.0324,0.013523,0.002678,0.000431,0.000353
42679000,0.0324,0.013523,0.002678,0.000431,0.000235
42680000,0.0324,0.013523,0.002678,0.000431,0.000353
42681000,0.0324,0.013523,0.002678,0.000431,0.000470
42682000,0.0324,0.013523,0.002678,0.000431,0.000235
42683000,0.0324,0.013523,0.002678,0.000431,0.000235
42684000,0.0324,0.013523,0.002678,0.000431,0.000470
42685000,0.0324,0.013523,0.002678,0.000431,0.000353
42686000,0.0324,0.013523,0.002678,0.000431,0.000235
42687000,0.0324,0.013523,0.002678,0.000431,0.000353
42688000,0.0324,0.013523,0.002678,0.000431,0.000470
42689000,0.0324,0.013523,0.002678,0.000431,0.000235
42690000,0.0324,0.013523,0.002678,0.000431,0.000235
42691000,0.0324,0.013523,0.002678,0.000431,0.000470
42692000,0.0324,0.013523,0.002678,0.000431,0.000353
42693000,0.0324,0.013523,0.002678,0.000431,0.000235
42694000,0.0324,0.013523,0.002678,0.000431,0.000353
42695000,0.0324,0.013523,0.002678,0.000431,0.000470
42696000,0.0324,0.013523,0.002678,0.000431,0.000118
42697000,0.0324,0.013523,0.002678,0.000431,0.000353
42698000,0.0324,0.013523,0.002678,0.000431,0.000470
42699000,0.0324,0.013523,0.002678,0.000431,0.000353
42700000,0.0324,0.013523,0.002678,0.000431,0.000235
42701000,0.0324,0.013523,0.002678,0.000431,0.000353
42702000,0.0324,0.013523,0.002678,0.000431,0.000470
42703000,0.0324,0.013523,0.002678,0.000431,0.000118
42704000,0.0324,0.013523,0.002678,0.000431,0.000353
42705000,0.0324,0.013523,0.002678,0.000431,0.000470
42706000,0.0324,0.013523,0.002678,0.000431,0.000353
42707000,0.0324,0.013523,0.002678,0.000431,0.000235
42708000,0.0324,0.013523,0.002678,0.000431,0.000353
42709000,0.0324,0.013523,0.002678,0.000431,0.000470
42710000,0.0324,0.013523,0.002678,0.000431,0.000118
42711000,0.0324,0.013523,0.002678,0.000431,0.000353
42712000,0.0324,0.013523,0.002678,0.000431,0.000470
42713000,0.0324,0.013523,0.002678,0.000431,0.000353
42714000,0.0324,0.013523,0.002678,0.000431,0.000235
42715000,0.0324,0.013523,0.002678,0.000431,0.000353
42716000,0.0324,0.013523,0.002678,0.000431,0.000353
42717000,0.0324,0.013523,0.002678,0.000431,0.000235
42718000,0.0324,0.013523,0.002678,0.000431,0.000353
42719000,0.0324,0.013523,0.002678,0.000431,0.000470
42720000,0.0324,0.013523,0.002678,0.000431,0.000353
42721000,0.0324,0.013523,0.002678,0.000431,0.000235
42722000,0.0324,0.013523,0.002678,0.000431,0.000353
42723000,0.0324,0.013523,0.002678,0.000431,0.000353
42724000,0.0324,0.013523,0.002678,0.000431,0.000235
42725000,0.0324,0.013523,0.002678,0.000431,0.000353
42726000,0.0324,0.013523,0.002678,0.000431,0.000470
42727000,0.0324,0.013523,0.002678,0.000431,0.000353
42728000,0.0324,0.013523,0.002678,0.000431,0.000235
42729000,0.0324,0.013523,0.002678,0.000431,0.000353
42730000,0.0324,0.013523,0.002678,0.000431,0.000353
42731000,0.0324,0.013523,0.002678,0.000431,0.000235
42732000,0.0324,0.013523,0.002678,0.000431,0.000353
42733000,0.0324,0.013523,0.002678,0.000431,0.000470
42734000,0.0324,0.013523,0.002678,0.000431,0.000353
42735000,0.0324,0.013523,0.002678,0.000431,0.000235
42736000,0.0324,0.013523,0.002678,0.000431,0.000353
42737000,0.0324,0.013523,0.002678,0.000431,0.000353
42738000,0.0324,0.013523,0.002678,0.000431,0.000235
42739000,0.0324,0.013523,0.002678,0.000431,0.000353
42740000,0.0324,0.013523,0.002678,0.000431,0.000470
42741000,0.0324,0.013523,0.002678,0.000431,0.000353
42742000,0.0324,0.013523,0.002678,0.000431,0.000235
42743000,0.0324,0.013523,0.002678,0.000431,0.000353
42744000,0.0324,0.013523,0.002678,0.000431,0.000353
42745000,0.0324,0.013523,0.002678,0.000431,0.000235
42746000,0.0324,0.013523,0.002678,0.000431,0.000353
42747000,0.0324,0.013523,0.002678,0.000431,0.000470
42748000,0.0324,0.013523,0.002678,0.000431,0.000353
42749000,0.0324,0.013523,0.002678,0.000431,0.000235
42750000,0.0324,0.013523,0.002678,0.000431,0.000353
42751000,0.0324,0.013523,0.002678,0.000431,0.000353
42752000,0.0324,0.013523,0.002678,0.000431,0.000235
42753000,0.0324,0.013523,0.002678,0.000431,0.000353
42754000,0.0324,0.013523,0.002678,0.000431,0.000470
42755000,0.0324,0.013523,0.002678,0.000431,0.000353
42756000,0.0324,0.013523,0.002678,0.000431,0.000235
42757000,0.0324,0.013523,0.002678,0.000431,0.000353
42758000,0.0324,0.013523,0.002678,0.000431,0.000353
42759000,0.0324,0.013523,0.002678,0.000431,0.000235
42760000,0.0324,0.013523,0.002678,0.000431,0.000353
42761000,0.0324,0.013523,0.002678,0.000431,0.000470
42762000,0.0324,0.013523,0.002678,0.000431,0.000353
42763000,0.0324,0.013523,0.002678,0.000431,0.000235
42764000,0.0324,0.013523,0.002678,0.000431,0.000353
42765000,0.0324,0.013523,0.002678,0.000431,0.000353
42766000,0.0324,0.013523,0.002678,0.000431,0.000235
42767000,0.0324,0.013523,0.002678,0.000431,0.000353
42768000,0.0324,0.013523,0.002678,0.000431,0.000470
42769000,0.0324,0.013523,0.002678,0.000431,0.000353
42770000,0.0324,0.013523,0.002678,0.000431,0.000118
42771000,0.0324,0.013523,0.002678,0.000431,0.000470
42772000,0.0324,0.013523,0.002678,0.000431,0.000353
42773000,0.0324,0.013523,0.002678,0.000431,0.000235
42774000,0.0324,0.013523,0.002678,0.000431,0.000353
42775000,0.0324,0.013523,0.002678,0.000431,0.000470
42776000,0.0324,0.013523,0.002678,0.000431,0.000353
42777000,0.0324,0.013523,0.002678,0.000431,0.000118
42778000,0.0324,0.013523,0.002678,0.000431,0.000470
42779000,0.0324,0.013523,0.002678,0.000431,0.000353
42780000,0.0324,0.013523,0.002678,0.000431,0.000235
42781000,0.0324,0.013523,0.002678,0.000431,0.000353
42782000,0.0324,0.013523,0.002678,0.000431,0.000470
42783000,0.0324,0.013523,0.002678,0.000431,0.000353
42784000,0.0324,0.013523,0.002678,0.000431,0.000118
42785000,0.0324,0.013523,0.002678,0.000431,0.000470
42786000,0.0324,0.013523,0.002678,0.000431,0.000353
42787000,0.0324,0.013523,0.002678,0.000431,0.000235
42788000,0.0324,0.013523,0.002678,0.000431,0.000353
42789000,0.0324,0.013523,0.002678,0.000431,0.000470
42790000,0.0324,0.013523,0.002678,0.000431,0.000235
42791000,0.0324,0.013523,0.002678,0.000431,0.000235
42792000,0.0324,0.013523,0.002678,0.000431,0.000470
42793000,0.0324,0.013523,0.002678,0.000431,0.000353
42794000,0.0324,0.013523,0.002678,0.000431,0.000235
42795000,0.0324,0.013523,0.002678,0.000431,0.000353
42796000,0.0324,0.013523,0.002678,0.000431,0.000470
42797000,0.0324,0.013523,0.002678,0.000431,0.000235
42798000,0.0324,0.013523,0.002678,0.000431,0.000235
42799000,0.0324,0.013523,0.002678,0.000431,0.000470
42800000,0.0324,0.013523,0.002678,0.000431,0.000353
42801000,0.0324,0.013523,0.002678,0.000431,0.000235
42802000,0.0324,0.013523,0.002678,0.000431,0.000353
42803000,0.0324,0.013523,0.002678,0.000431,0.000470
42804000,0.0324,0.013523,0.002678,0.000431,0.000235
42805000,0.0324,0.013523,0.002678,0.000431,0.000235
42806000,0.0324,0.013523,0.002678,0.000431,0.000470
42807000,0.0324,0.013523,0.002678,0.000431,0.000353
42808000,0.0324,0.013523,0.002678,0.000431,0.000235
42809000,0.0324,0.013523,0.002678,0.000431,0.000353
42810000,0.0324,0.013523,0.002678,0.000431,0.000470
42811000,0.0324,0.013523,0.002678,0.000431,0.000235
42812000,0.0324,0.013523,0.002678,0.000431,0.000235
42813000,0.0324,0.013523,0.002678,0.000431,0.000470
42814000,0.0324,0.013523,0.002678,0.000431,0.000353
42815000,0.0324,0.013523,0.002678,0.000431,0.000235
42816000,0.0324,0.013523,0.002678,0.000431,0.000353
42817000,0.0324,0.013523,0.002678,0.000431,0.000470
42818000,0.0324,0.013523,0.002678,0.000431,0.000235
42819000,0.0324,0.013523,0.002678,0.000431,0.000235
42820000,0.0324,0.013523,0.002678,0.000431,0.000470
42821000,0.0324,0.013523,0.002678,0.000431,0.000353
42822000,0.0324,0.013523,0.002678,0.000431,0.000235
42823000,0.0324,0.013523,0.002678,0.000431,0.000353
42824000,0.0324,0.013523,0.002678,0.000431,0.000470
42825000,0.0324,0.013523,0.002678,0.000431,0.000235
42826000,0.0324,0.013523,0.002678,0.000431,0.000235
42827000,0.0324,0.013523,0.002678,0.000431,0.000470
42828000,0.0324,0.013523,0.002678,0.000431,0.000353
42829000,0.0324,0.013523,0.002678,0.000431,0.000235
42830000,0.0324,0.013523,0.002678,0.000431,0.000353
42831000,0.0324,0.013523,0.002678,0.000431,0.000470
42832000,0.0324,0.013523,0.002678,0.000431,0.000118
42833000,0.0324,0.013523,0.002678,0.000431,0.000353
42834000,0.0324,0.013523,0.002678,0.000431,0.000470
42835000,0.0324,0.013523,0.002678,0.000431,0.000353
42836000,0.0324,0.013523,0.002678,0.000431,0.000235
42837000,0.0324,0.013523,0.002678,0.000431,0.000353
42838000,0.0324,0.013523,0.002678,0.000431,0.000470
42839000,0.0324,0.013523,0.002678,0.000431,0.000118
42840000,0.0324,0.013523,0.002678,0.000431,0.000353
42841000,0.0324,0.013523,0.002678,0.000431,0.000470
42842000,0.0324,0.013523,0.002678,0.000431,0.000353
42843000,0.0324,0.013523,0.002678,0.000431,0.000235
42844000,0.0324,0.013523,0.002678,0.000431,0.000353
42845000,0.0324,0.013523,0.002678,0.000431,0.000470
42846000,0.0324,0.013523,0.002678,0.000431,0.000118
42847000,0.0324,0.013523,0.002678,0.000431,0.000353
42848000,0.0324,0.013523,0.002678,0.000431,0.000470
42849000,0.0324,0.013523,0.002678,0.000431,0.000353
42850000,0.0324,0.013523,0.002678,0.000431,0.000235
42851000,0.0324,0.013523,0.002678,0.000431,0.000353
42852000,0.0324,0.013523,0.002678,0.000431,0.000470
42853000,0.0324,0.013523,0.002678,0.000431,0.000118
42854000,0.0324,0.013523,0.002678,0.000431,0.000353
42855000,0.0324,0.013523,0.002678,0.000431,0.000470
42856000,0.0324,0.013523,0.002678,0.000431,0.000353
42857000,0.0324,0.013523,0.002678,0.000431,0.000235
42858000,0.0324,0.013523,0.002678,0.000431,0.000353
42859000,0.0324,0.013523,0.002678,0.000431,0.000353
42860000,0.0324,0.013523,0.002678,0.000431,0.000235
42861000,0.0324,0.013523,0.002678,0.000431,0.000353
42862000,0.0324,0.013523,0.002678,0.000431,0.000470
42863000,0.0324,0.013523,0.002678,0.000431,0.000353
42864000,0.0324,0.013523,0.002678,0.000431,0.000235
42865000,0.0324,0.013523,0.002678,0.000431,0.000353
42866000,0.0324,0.013523,0.002678,0.000431,0.000353
42867000,0.0324,0.013523,0.002678,0.000431,0.000235
42868000,0.0324,0.013523,0.002678,0.000431,0.000353
42869000,0.0324,0.013523,0.002678,0.000431,0.000470
42870000,0.0324,0.013523,0.002678,0.000431,0.000353
42871000,0.0324,0.013523,0.002678,0.000431,0.000235
42872000,0.0324,0.013523,0.002678,0.000431,0.000353
42873000,0.0324,0.013523,0.002678,0.000431,0.000353
42874000,0.0324,0.013523,0.002678,0.000431,0.000235
42875000,0.0324,0.013523,0.002678,0.000431,0.000353
42876000,0.0324,0.013523,0.002678,0.000431,0.000470
42877000,0.0324,0.013523,0.002678,0.000431,0.000353
42878000,0.0324,0.013523,0.002678,0.000431,0.000118
42879000,0.0324,0.013523,0.002678,0.000431,0.000470
42880000,0.0324,0.013523,0.002678,0.000431,0.000353
42881000,0.0324,0.013523,0.002678,0.000431,0.000235
42882000,0.0324,0.013523,0.002678,0.000431,0.000353
42883000,0.0324,0.013523,0.002678,0.000431,0.000470
42884000,0.0324,0.013523,0.002678,0.000431,0.000235
42885000,0.0324,0.013523,0.002678,0.000431,0.000235
42886000,0.0324,0.013523,0.002678,0.000431,0.000470
42887000,0.0324,0.013523,0.002678,0.000431,0.000353
42888000,0.0324,0.013523,0.002678,0.000431,0.000235
42889000,0.0324,0.013523,0.002678,0.000431,0.000353
42890000,0.0324,0.013523,0.002678,0.000431,0.000470
42891000,0.0324,0.013523,0.002678,0.000431,0.000235
42892000,0.0324,0.013523,0.002678,0.000431,0.000235
42893000,0.0324,0.013523,0.002678,0.000431,0.000470
42894000,0.0324,0.013523,0.002678,0.000431,0.000353
42895000,0.0324,0.013523,0.002678,0.000431,0.000235
42896000,0.0324,0.013523,0.002678,0.000431,0.000353
42897000,0.0324,0.013523,0.002678,0.000431,0.000470
42898000,0.0324,0.013523,0.002678,0.000431,0.000118
42899000,0.0324,0.013523,0.002678,0.000431,0.000353
42900000,0.0324,0.013523,0.002678,0.000431,0.000470
42901000,0.0324,0.013523,0.002678,0.000431,0.000353
42902000,0.0324,0.013523,0.002678,0.000431,0.000235
42903000,0.0324,0.013523,0.002678,0.000431,0.000353
42904000,0.0324,0.013523,0.002678,0.000431,0.000353
42905000,0.0324,0.013523,0.002678,0.000431,0.000235
42906000,0.0324,0.013523,0.002678,0.000431,0.000353
42907000,0.0324,0.013523,0.002678,0.000431,0.000470
42908000,0.0324,0.013523,0.002678,0.000431,0.000353
42909000,0.0324,0.013523,0.002678,0.000431,0.000235
42910000,0.0324,0.013523,0.002678,0.000431,0.000353
42911000,0.0324,0.013523,0.002678,0.000431,0.000353
42912000,0.0324,0.013523,0.002678,0.000431,0.000235
42913000,0.0324,0.013523,0.002678,0.000431,0.000353
42914000,0.0324,0.013523,0.002678,0.000431,0.000470
42915000,0.0324,0.013523,0.002678,0.000431,0.000353
42916000,0.0324,0.013523,0.002678,0.000431,0.000118
42917000,0.0324,0.013523,0.002678,0.000431,0.000470
42918000,0.0324,0.013523,0.002678,0.000431,0.000353
42919000,0.0324,0.013523,0.002678,0.000431,0.000235
42920000,0.0324,0.013523,0.002678,0.000431,0.000353
42921000,0.0324,0.013523,0.002678,0.000431,0.000470
42922000,0.0324,0.013523,0.002678,0.000431,0.000235
42923000,0.0324,0.013523,0.002678,0.000431,0.000235
42924000,0.0324,0.013523,0.002678,0.000431,0.000470
42925000,0.0324,0.013523,0.002678,0.000431,0.000353
42926000,0.0324,0.013523,0.002678,0.000431,0.000235
42927000,0.0324,0.013523,0.002678,0.000431,0.000353
42928000,0.0324,0.013523,0.002678,0.000431,0.000470
42929000,0.0324,0.013523,0.002678,0.000431,0.000235
42930000,0.0324,0.013523,0.002678,0.000431,0.000235
42931000,0.0324,0.013523,0.002678,0.000431,0.000470
42932000,0.0324,0.013523,0.002678,0.000431,0.000353
42933000,0.0324,0.013523,0.002678,0.000431,0.000235
42934000,0.0324,0.013523,0.002678,0.000431,0.000353
42935000,0.0324,0.013523,0.002678,0.000431,0.000470
42936000,0.0324,0.013523,0.002678,0.000431,0.000118
42937000,0.0324,0.013523,0.002678,0.000431,0.000353
42938000,0.0324,0.013523,0.002678,0.000431,0.000470
42939000,0.0324,0.013523,0.002678,0.000431,0.000353
42940000,0.0324,0.013523,0.002678,0.000431,0.000235
42941000,0.0324,0.013523,0.002678,0.000431,0.000353
42942000,0.0324,0.013523,0.002678,0.000431,0.000353
42943000,0.0324,0.013523,0.002678,0.000431,0.000235
42944000,0.0324,0.013523,0.002678,0.000431,0.000353
42945000,0.0324,0.013523,0.002678,0.000431,0.000470
42946000,0.0324,0.013523,0.002678,0.000431,0.000353
42947000,0.0324,0.013523,0.002678,0.000431,0.000235
42948000,0.0324,0.013523,0.002678,0.000431,0.000353
42949000,0.0324,0.013523,0.002678,0.000431,0.000353
42950000,0.0324,0.013523,0.002678,0.000431,0.000235
42951000,0.0324,0.013523,0.002678,0.000431,0.000353
42952000,0.0324,0.013523,0.002678,0.000431,0.000470
42953000,0.0324,0.013523,0.002678,0.000431,0.000353
42954000,0.0324,0.013523,0.002678,0.000431,0.000235
42955000,0.0324,0.013523,0.002678,0.000431,0.000353
42956000,0.0324,0.013523,0.002678,0.000431,0.000353
42957000,0.0324,0.013523,0.002678,0.000431,0.000235
42958000,0.0324,0.013523,0.002678,0.000431,0.000353
42959000,0.0324,0.013523,0.002678,0.000431,0.000470
42960000,0.0324,0.013523,0.002678,0.000431,0.000353
42961000,0.0324,0.013523,0.002678,0.000431,0.000118
42962000,0.0324,0.013523,0.002678,0.000431,0.000470
42963000,0.0324,0.013523,0.002678,0.000431,0.000353
42964000,0.0324,0.013523,0.002678,0.000431,0.000235
42965000,0.0324,0.013523,0.002678,0.000431,0.000353
42966000,0.0324,0.013523,0.002678,0.000431,0.000470
42967000,0.0324,0.013523,0.002678,0.000431,0.000235
42968000,0.0324,0.013523,0.002678,0.000431,0.000235
42969000,0.0324,0.013523,0.002678,0.000431,0.000470
42970000,0.0324,0.013523,0.002678,0.000431,0.000353
42971000,0.0324,0.013523,0.002678,0.000431,0.000235
42972000,0.0324,0.013523,0.002678,0.000431,0.000353
42973000,0.0324,0.013523,0.002678,0.000431,0.000470
42974000,0.0324,0.013523,0.002678,0.000431,0.000235
42975000,0.0324,0.013523,0.002678,0.000431,0.000235
42976000,0.0324,0.013523,0.002678,0.000431,0.000470
42977000,0.0324,0.013523,0.002678,0.000431,0.000353
42978000,0.0324,0.013523,0.002678,0.000431,0.000235
42979000,0.0324,0.013523,0.002678,0.000431,0.000353
42980000,0.0324,0.013523,0.002678,0.000431,0.000470
42981000,0.0324,0.013523,0.002678,0.000431,0.000118
42982000,0.0324,0.013523,0.002678,0.000431,0.000353
42983000,0.0324,0.013523,0.002678,0.000431,0.000470
42984000,0.0324,0.013523,0.002678,0.000431,0.000353
42985000,0.0324,0.013523,0.002678,0.000431,0.000235
42986000,0.0324,0.013523,0.002678,0.000431,0.000353
42987000,0.0324,0.013523,0.002678,0.000431,0.000353
42988000,0.0324,0.013523,0.002678,0.000431,0.000235
42989000,0.0324,0.013523,0.002678,0.000431,0.000353
42990000,0.0324,0.013523,0.002678,0.000431,0.000470
42991000,0.0324,0.013523,0.002678,0.000431,0.000353
42992000,0.0324,0.013523,0.002678,0.000431,0.000235
42993000,0.0324,0.013523,0.002678,0.000431,0.000353
42994000,0.0324,0.013523,0.002678,0.000431,0.000353
42995000,0.0324,0.013523,0.002678,0.000431,0.000235
42996000,0.0324,0.013523,0.002678,0.000431,0.000353
42997000,0.0324,0.013523,0.002678,0.000431,0.000470
42998000,0.0324,0.013523,0.002678,0.000431,0.000353
42999000,0.0324,0.013523,0.002678,0.000431,0.000118
