Cycle,Area(mm^2),PeakDynamic(W),SubthresholdLeakage(W),GateLeakage(W),RunTimeDynamic(W)
22000000,0.0324,0.013523,0.002678,0.000431,0.000353
22001000,0.0324,0.013523,0.002678,0.000431,0.000470
22002000,0.0324,0.013523,0.002678,0.000431,0.000235
22003000,0.0324,0.013523,0.002678,0.000431,0.000235
22004000,0.0324,0.013523,0.002678,0.000431,0.000470
22005000,0.0324,0.013523,0.002678,0.000431,0.000353
22006000,0.0324,0.013523,0.002678,0.000431,0.000235
22007000,0.0324,0.013523,0.002678,0.000431,0.000353
22008000,0.0324,0.013523,0.002678,0.000431,0.000470
22009000,0.0324,0.013523,0.002678,0.000431,0.000235
22010000,0.0324,0.013523,0.002678,0.000431,0.000235
22011000,0.0324,0.013523,0.002678,0.000431,0.000470
22012000,0.0324,0.013523,0.002678,0.000431,0.000353
22013000,0.0324,0.013523,0.002678,0.000431,0.000235
22014000,0.0324,0.013523,0.002678,0.000431,0.000353
22015000,0.0324,0.013523,0.002678,0.000431,0.000470
22016000,0.0324,0.013523,0.002678,0.000431,0.000235
22017000,0.0324,0.013523,0.002678,0.000431,0.000235
22018000,0.0324,0.013523,0.002678,0.000431,0.000470
22019000,0.0324,0.013523,0.002678,0.000431,0.000353
22020000,0.0324,0.013523,0.002678,0.000431,0.000235
22021000,0.0324,0.013523,0.002678,0.000431,0.000353
22022000,0.0324,0.013523,0.002678,0.000431,0.000470
22023000,0.0324,0.013523,0.002678,0.000431,0.000235
22024000,0.0324,0.013523,0.002678,0.000431,0.000235
22025000,0.0324,0.013523,0.002678,0.000431,0.000470
22026000,0.0324,0.013523,0.002678,0.000431,0.000353
22027000,0.0324,0.013523,0.002678,0.000431,0.000235
22028000,0.0324,0.013523,0.002678,0.000431,0.000353
22029000,0.0324,0.013523,0.002678,0.000431,0.000470
22030000,0.0324,0.013523,0.002678,0.000431,0.000235
22031000,0.0324,0.013523,0.002678,0.000431,0.000235
22032000,0.0324,0.013523,0.002678,0.000431,0.000470
22033000,0.0324,0.013523,0.002678,0.000431,0.000353
22034000,0.0324,0.013523,0.002678,0.000431,0.000235
22035000,0.0324,0.013523,0.002678,0.000431,0.000353
22036000,0.0324,0.013523,0.002678,0.000431,0.000470
22037000,0.0324,0.013523,0.002678,0.000431,0.000118
22038000,0.0324,0.013523,0.002678,0.000431,0.000353
22039000,0.0324,0.013523,0.002678,0.000431,0.000470
22040000,0.0324,0.013523,0.002678,0.000431,0.000353
22041000,0.0324,0.013523,0.002678,0.000431,0.000235
22042000,0.0324,0.013523,0.002678,0.000431,0.000353
22043000,0.0324,0.013523,0.002678,0.000431,0.000470
22044000,0.0324,0.013523,0.002678,0.000431,0.000118
22045000,0.0324,0.013523,0.002678,0.000431,0.000353
22046000,0.0324,0.013523,0.002678,0.000431,0.000470
22047000,0.0324,0.013523,0.002678,0.000431,0.000353
22048000,0.0324,0.013523,0.002678,0.000431,0.000235
22049000,0.0324,0.013523,0.002678,0.000431,0.000353
22050000,0.0324,0.013523,0.002678,0.000431,0.000470
22051000,0.0324,0.013523,0.002678,0.000431,0.000118
22052000,0.0324,0.013523,0.002678,0.000431,0.000353
22053000,0.0324,0.013523,0.002678,0.000431,0.000470
22054000,0.0324,0.013523,0.002678,0.000431,0.000353
22055000,0.0324,0.013523,0.002678,0.000431,0.000235
22056000,0.0324,0.013523,0.002678,0.000431,0.000353
22057000,0.0324,0.013523,0.002678,0.000431,0.000470
22058000,0.0324,0.013523,0.002678,0.000431,0.000118
22059000,0.0324,0.013523,0.002678,0.000431,0.000353
22060000,0.0324,0.013523,0.002678,0.000431,0.000470
22061000,0.0324,0.013523,0.002678,0.000431,0.000353
22062000,0.0324,0.013523,0.002678,0.000431,0.000235
22063000,0.0324,0.013523,0.002678,0.000431,0.000353
22064000,0.0324,0.013523,0.002678,0.000431,0.000353
22065000,0.0324,0.013523,0.002678,0.000431,0.000235
22066000,0.0324,0.013523,0.002678,0.000431,0.000353
22067000,0.0324,0.013523,0.002678,0.000431,0.000470
22068000,0.0324,0.013523,0.002678,0.000431,0.000353
22069000,0.0324,0.013523,0.002678,0.000431,0.000235
22070000,0.0324,0.013523,0.002678,0.000431,0.000353
22071000,0.0324,0.013523,0.002678,0.000431,0.000353
22072000,0.0324,0.013523,0.002678,0.000431,0.000235
22073000,0.0324,0.013523,0.002678,0.000431,0.000353
22074000,0.0324,0.013523,0.002678,0.000431,0.000470
22075000,0.0324,0.013523,0.002678,0.000431,0.000353
22076000,0.0324,0.013523,0.002678,0.000431,0.000235
22077000,0.0324,0.013523,0.002678,0.000431,0.000353
22078000,0.0324,0.013523,0.002678,0.000431,0.000353
22079000,0.0324,0.013523,0.002678,0.000431,0.000235
22080000,0.0324,0.013523,0.002678,0.000431,0.000353
22081000,0.0324,0.013523,0.002678,0.000431,0.000470
22082000,0.0324,0.013523,0.002678,0.000431,0.000353
22083000,0.0324,0.013523,0.002678,0.000431,0.000235
22084000,0.0324,0.013523,0.002678,0.000431,0.000353
22085000,0.0324,0.013523,0.002678,0.000431,0.000353
22086000,0.0324,0.013523,0.002678,0.000431,0.000235
22087000,0.0324,0.013523,0.002678,0.000431,0.000353
22088000,0.0324,0.013523,0.002678,0.000431,0.000470
22089000,0.0324,0.013523,0.002678,0.000431,0.000353
22090000,0.0324,0.013523,0.002678,0.000431,0.000235
22091000,0.0324,0.013523,0.002678,0.000431,0.000353
22092000,0.0324,0.013523,0.002678,0.000431,0.000353
22093000,0.0324,0.013523,0.002678,0.000431,0.000235
22094000,0.0324,0.013523,0.002678,0.000431,0.000353
22095000,0.0324,0.013523,0.002678,0.000431,0.000470
22096000,0.0324,0.013523,0.002678,0.000431,0.000353
22097000,0.0324,0.013523,0.002678,0.000431,0.000235
22098000,0.0324,0.013523,0.002678,0.000431,0.000353
22099000,0.0324,0.013523,0.002678,0.000431,0.000353
22100000,0.0324,0.013523,0.002678,0.000431,0.000235
22101000,0.0324,0.013523,0.002678,0.000431,0.000353
22102000,0.0324,0.013523,0.002678,0.000431,0.000470
22103000,0.0324,0.013523,0.002678,0.000431,0.000353
22104000,0.0324,0.013523,0.002678,0.000431,0.000235
22105000,0.0324,0.013523,0.002678,0.000431,0.000353
22106000,0.0324,0.013523,0.002678,0.000431,0.000353
22107000,0.0324,0.013523,0.002678,0.000431,0.000235
22108000,0.0324,0.013523,0.002678,0.000431,0.000353
22109000,0.0324,0.013523,0.002678,0.000431,0.000470
22110000,0.0324,0.013523,0.002678,0.000431,0.000353
22111000,0.0324,0.013523,0.002678,0.000431,0.000118
22112000,0.0324,0.013523,0.002678,0.000431,0.000470
22113000,0.0324,0.013523,0.002678,0.000431,0.000353
22114000,0.0324,0.013523,0.002678,0.000431,0.000235
22115000,0.0324,0.013523,0.002678,0.000431,0.000353
22116000,0.0324,0.013523,0.002678,0.000431,0.000470
22117000,0.0324,0.013523,0.002678,0.000431,0.000353
22118000,0.0324,0.013523,0.002678,0.000431,0.000118
22119000,0.0324,0.013523,0.002678,0.000431,0.000470
22120000,0.0324,0.013523,0.002678,0.000431,0.000353
22121000,0.0324,0.013523,0.002678,0.000431,0.000235
22122000,0.0324,0.013523,0.002678,0.000431,0.000353
22123000,0.0324,0.013523,0.002678,0.000431,0.000470
22124000,0.0324,0.013523,0.002678,0.000431,0.000353
22125000,0.0324,0.013523,0.002678,0.000431,0.000118
22126000,0.0324,0.013523,0.002678,0.000431,0.000470
22127000,0.0324,0.013523,0.002678,0.000431,0.000353
22128000,0.0324,0.013523,0.002678,0.000431,0.000235
22129000,0.0324,0.013523,0.002678,0.000431,0.000353
22130000,0.0324,0.013523,0.002678,0.000431,0.000470
22131000,0.0324,0.013523,0.002678,0.000431,0.000353
22132000,0.0324,0.013523,0.002678,0.000431,0.000118
22133000,0.0324,0.013523,0.002678,0.000431,0.000470
22134000,0.0324,0.013523,0.002678,0.000431,0.000353
22135000,0.0324,0.013523,0.002678,0.000431,0.000235
22136000,0.0324,0.013523,0.002678,0.000431,0.000353
22137000,0.0324,0.013523,0.002678,0.000431,0.000470
22138000,0.0324,0.013523,0.002678,0.000431,0.000235
22139000,0.0324,0.013523,0.002678,0.000431,0.000235
22140000,0.0324,0.013523,0.002678,0.000431,0.000470
22141000,0.0324,0.013523,0.002678,0.000431,0.000353
22142000,0.0324,0.013523,0.002678,0.000431,0.000235
22143000,0.0324,0.013523,0.002678,0.000431,0.000353
22144000,0.0324,0.013523,0.002678,0.000431,0.000470
22145000,0.0324,0.013523,0.002678,0.000431,0.000235
22146000,0.0324,0.013523,0.002678,0.000431,0.000235
22147000,0.0324,0.013523,0.002678,0.000431,0.000470
22148000,0.0324,0.013523,0.002678,0.000431,0.000353
22149000,0.0324,0.013523,0.002678,0.000431,0.000235
22150000,0.0324,0.013523,0.002678,0.000431,0.000353
22151000,0.0324,0.013523,0.002678,0.000431,0.000470
22152000,0.0324,0.013523,0.002678,0.000431,0.000235
22153000,0.0324,0.013523,0.002678,0.000431,0.000235
22154000,0.0324,0.013523,0.002678,0.000431,0.000470
22155000,0.0324,0.013523,0.002678,0.000431,0.000353
22156000,0.0324,0.013523,0.002678,0.000431,0.000235
22157000,0.0324,0.013523,0.002678,0.000431,0.000353
22158000,0.0324,0.013523,0.002678,0.000431,0.000470
22159000,0.0324,0.013523,0.002678,0.000431,0.000235
22160000,0.0324,0.013523,0.002678,0.000431,0.000235
22161000,0.0324,0.013523,0.002678,0.000431,0.000470
22162000,0.0324,0.013523,0.002678,0.000431,0.000353
22163000,0.0324,0.013523,0.002678,0.000431,0.000235
22164000,0.0324,0.013523,0.002678,0.000431,0.000353
22165000,0.0324,0.013523,0.002678,0.000431,0.000470
22166000,0.0324,0.013523,0.002678,0.000431,0.000235
22167000,0.0324,0.013523,0.002678,0.000431,0.000235
22168000,0.0324,0.013523,0.002678,0.000431,0.000470
22169000,0.0324,0.013523,0.002678,0.000431,0.000353
22170000,0.0324,0.013523,0.002678,0.000431,0.000235
22171000,0.0324,0.013523,0.002678,0.000431,0.000353
22172000,0.0324,0.013523,0.002678,0.000431,0.000470
22173000,0.0324,0.013523,0.002678,0.000431,0.000235
22174000,0.0324,0.013523,0.002678,0.000431,0.000235
22175000,0.0324,0.013523,0.002678,0.000431,0.000470
22176000,0.0324,0.013523,0.002678,0.000431,0.000353
22177000,0.0324,0.013523,0.002678,0.000431,0.000235
22178000,0.0324,0.013523,0.002678,0.000431,0.000353
22179000,0.0324,0.013523,0.002678,0.000431,0.000470
22180000,0.0324,0.013523,0.002678,0.000431,0.000118
22181000,0.0324,0.013523,0.002678,0.000431,0.000353
22182000,0.0324,0.013523,0.002678,0.000431,0.000470
22183000,0.0324,0.013523,0.002678,0.000431,0.000353
22184000,0.0324,0.013523,0.002678,0.000431,0.000235
22185000,0.0324,0.013523,0.002678,0.000431,0.000353
22186000,0.0324,0.013523,0.002678,0.000431,0.000470
22187000,0.0324,0.013523,0.002678,0.000431,0.000118
22188000,0.0324,0.013523,0.002678,0.000431,0.000353
22189000,0.0324,0.013523,0.002678,0.000431,0.000470
22190000,0.0324,0.013523,0.002678,0.000431,0.000353
22191000,0.0324,0.013523,0.002678,0.000431,0.000235
22192000,0.0324,0.013523,0.002678,0.000431,0.000353
22193000,0.0324,0.013523,0.002678,0.000431,0.000470
22194000,0.0324,0.013523,0.002678,0.000431,0.000118
22195000,0.0324,0.013523,0.002678,0.000431,0.000353
22196000,0.0324,0.013523,0.002678,0.000431,0.000470
22197000,0.0324,0.013523,0.002678,0.000431,0.000353
22198000,0.0324,0.013523,0.002678,0.000431,0.000235
22199000,0.0324,0.013523,0.002678,0.000431,0.000353
22200000,0.0324,0.013523,0.002678,0.000431,0.000353
22201000,0.0324,0.013523,0.002678,0.000431,0.000235
22202000,0.0324,0.013523,0.002678,0.000431,0.000353
22203000,0.0324,0.013523,0.002678,0.000431,0.000470
22204000,0.0324,0.013523,0.002678,0.000431,0.000353
22205000,0.0324,0.013523,0.002678,0.000431,0.000235
22206000,0.0324,0.013523,0.002678,0.000431,0.000353
22207000,0.0324,0.013523,0.002678,0.000431,0.000353
22208000,0.0324,0.013523,0.002678,0.000431,0.000235
22209000,0.0324,0.013523,0.002678,0.000431,0.000353
22210000,0.0324,0.013523,0.002678,0.000431,0.000470
22211000,0.0324,0.013523,0.002678,0.000431,0.000353
22212000,0.0324,0.013523,0.002678,0.000431,0.000235
22213000,0.0324,0.013523,0.002678,0.000431,0.000353
22214000,0.0324,0.013523,0.002678,0.000431,0.000353
22215000,0.0324,0.013523,0.002678,0.000431,0.000235
22216000,0.0324,0.013523,0.002678,0.000431,0.000353
22217000,0.0324,0.013523,0.002678,0.000431,0.000470
22218000,0.0324,0.013523,0.002678,0.000431,0.000353
22219000,0.0324,0.013523,0.002678,0.000431,0.000235
22220000,0.0324,0.013523,0.002678,0.000431,0.000353
22221000,0.0324,0.013523,0.002678,0.000431,0.000353
22222000,0.0324,0.013523,0.002678,0.000431,0.000235
22223000,0.0324,0.013523,0.002678,0.000431,0.000353
22224000,0.0324,0.013523,0.002678,0.000431,0.000470
22225000,0.0324,0.013523,0.002678,0.000431,0.000353
22226000,0.0324,0.013523,0.002678,0.000431,0.000235
22227000,0.0324,0.013523,0.002678,0.000431,0.000353
22228000,0.0324,0.013523,0.002678,0.000431,0.000353
22229000,0.0324,0.013523,0.002678,0.000431,0.000235
22230000,0.0324,0.013523,0.002678,0.000431,0.000353
22231000,0.0324,0.013523,0.002678,0.000431,0.000470
22232000,0.0324,0.013523,0.002678,0.000431,0.000353
22233000,0.0324,0.013523,0.002678,0.000431,0.000235
22234000,0.0324,0.013523,0.002678,0.000431,0.000353
22235000,0.0324,0.013523,0.002678,0.000431,0.000353
22236000,0.0324,0.013523,0.002678,0.000431,0.000235
22237000,0.0324,0.013523,0.002678,0.000431,0.000353
22238000,0.0324,0.013523,0.002678,0.000431,0.000470
22239000,0.0324,0.013523,0.002678,0.000431,0.000353
22240000,0.0324,0.013523,0.002678,0.000431,0.000235
22241000,0.0324,0.013523,0.002678,0.000431,0.000353
22242000,0.0324,0.013523,0.002678,0.000431,0.000353
22243000,0.0324,0.013523,0.002678,0.000431,0.000235
22244000,0.0324,0.013523,0.002678,0.000431,0.000353
22245000,0.0324,0.013523,0.002678,0.000431,0.000470
22246000,0.0324,0.013523,0.002678,0.000431,0.000353
22247000,0.0324,0.013523,0.002678,0.000431,0.000235
22248000,0.0324,0.013523,0.002678,0.000431,0.000353
22249000,0.0324,0.013523,0.002678,0.000431,0.000353
22250000,0.0324,0.013523,0.002678,0.000431,0.000235
22251000,0.0324,0.013523,0.002678,0.000431,0.000353
22252000,0.0324,0.013523,0.002678,0.000431,0.000470
22253000,0.0324,0.013523,0.002678,0.000431,0.000353
22254000,0.0324,0.013523,0.002678,0.000431,0.000118
22255000,0.0324,0.013523,0.002678,0.000431,0.000470
22256000,0.0324,0.013523,0.002678,0.000431,0.000353
22257000,0.0324,0.013523,0.002678,0.000431,0.000235
22258000,0.0324,0.013523,0.002678,0.000431,0.000353
22259000,0.0324,0.013523,0.002678,0.000431,0.000470
22260000,0.0324,0.013523,0.002678,0.000431,0.000353
22261000,0.0324,0.013523,0.002678,0.000431,0.000118
22262000,0.0324,0.013523,0.002678,0.000431,0.000470
22263000,0.0324,0.013523,0.002678,0.000431,0.000353
22264000,0.0324,0.013523,0.002678,0.000431,0.000235
22265000,0.0324,0.013523,0.002678,0.000431,0.000353
22266000,0.0324,0.013523,0.002678,0.000431,0.000470
22267000,0.0324,0.013523,0.002678,0.000431,0.000353
22268000,0.0324,0.013523,0.002678,0.000431,0.000118
22269000,0.0324,0.013523,0.002678,0.000431,0.000470
22270000,0.0324,0.013523,0.002678,0.000431,0.000353
22271000,0.0324,0.013523,0.002678,0.000431,0.000235
22272000,0.0324,0.013523,0.002678,0.000431,0.000353
22273000,0.0324,0.013523,0.002678,0.000431,0.000470
22274000,0.0324,0.013523,0.002678,0.000431,0.000353
22275000,0.0324,0.013523,0.002678,0.000431,0.000118
22276000,0.0324,0.013523,0.002678,0.000431,0.000470
22277000,0.0324,0.013523,0.002678,0.000431,0.000353
22278000,0.0324,0.013523,0.002678,0.000431,0.000235
22279000,0.0324,0.013523,0.002678,0.000431,0.000353
22280000,0.0324,0.013523,0.002678,0.000431,0.000470
22281000,0.0324,0.013523,0.002678,0.000431,0.000235
22282000,0.0324,0.013523,0.002678,0.000431,0.000235
22283000,0.0324,0.013523,0.002678,0.000431,0.000470
22284000,0.0324,0.013523,0.002678,0.000431,0.000353
22285000,0.0324,0.013523,0.002678,0.000431,0.000235
22286000,0.0324,0.013523,0.002678,0.000431,0.000353
22287000,0.0324,0.013523,0.002678,0.000431,0.000470
22288000,0.0324,0.013523,0.002678,0.000431,0.000235
22289000,0.0324,0.013523,0.002678,0.000431,0.000235
22290000,0.0324,0.013523,0.002678,0.000431,0.000470
22291000,0.0324,0.013523,0.002678,0.000431,0.000353
22292000,0.0324,0.013523,0.002678,0.000431,0.000235
22293000,0.0324,0.013523,0.002678,0.000431,0.000353
22294000,0.0324,0.013523,0.002678,0.000431,0.000470
22295000,0.0324,0.013523,0.002678,0.000431,0.000235
22296000,0.0324,0.013523,0.002678,0.000431,0.000235
22297000,0.0324,0.013523,0.002678,0.000431,0.000470
22298000,0.0324,0.013523,0.002678,0.000431,0.000353
22299000,0.0324,0.013523,0.002678,0.000431,0.000235
22300000,0.0324,0.013523,0.002678,0.000431,0.000353
22301000,0.0324,0.013523,0.002678,0.000431,0.000470
22302000,0.0324,0.013523,0.002678,0.000431,0.000235
22303000,0.0324,0.013523,0.002678,0.000431,0.000235
22304000,0.0324,0.013523,0.002678,0.000431,0.000470
22305000,0.0324,0.013523,0.002678,0.000431,0.000353
22306000,0.0324,0.013523,0.002678,0.000431,0.000235
22307000,0.0324,0.013523,0.002678,0.000431,0.000353
22308000,0.0324,0.013523,0.002678,0.000431,0.000470
22309000,0.0324,0.013523,0.002678,0.000431,0.000235
22310000,0.0324,0.013523,0.002678,0.000431,0.000235
22311000,0.0324,0.013523,0.002678,0.000431,0.000470
22312000,0.0324,0.013523,0.002678,0.000431,0.000353
22313000,0.0324,0.013523,0.002678,0.000431,0.000235
22314000,0.0324,0.013523,0.002678,0.000431,0.000353
22315000,0.0324,0.013523,0.002678,0.000431,0.000470
22316000,0.0324,0.013523,0.002678,0.000431,0.000118
22317000,0.0324,0.013523,0.002678,0.000431,0.000353
22318000,0.0324,0.013523,0.002678,0.000431,0.000470
22319000,0.0324,0.013523,0.002678,0.000431,0.000353
22320000,0.0324,0.013523,0.002678,0.000431,0.000235
22321000,0.0324,0.013523,0.002678,0.000431,0.000353
22322000,0.0324,0.013523,0.002678,0.000431,0.000470
22323000,0.0324,0.013523,0.002678,0.000431,0.000118
22324000,0.0324,0.013523,0.002678,0.000431,0.000353
22325000,0.0324,0.013523,0.002678,0.000431,0.000470
22326000,0.0324,0.013523,0.002678,0.000431,0.000353
22327000,0.0324,0.013523,0.002678,0.000431,0.000235
22328000,0.0324,0.013523,0.002678,0.000431,0.000353
22329000,0.0324,0.013523,0.002678,0.000431,0.000470
22330000,0.0324,0.013523,0.002678,0.000431,0.000118
22331000,0.0324,0.013523,0.002678,0.000431,0.000353
22332000,0.0324,0.013523,0.002678,0.000431,0.000470
22333000,0.0324,0.013523,0.002678,0.000431,0.000353
22334000,0.0324,0.013523,0.002678,0.000431,0.000235
22335000,0.0324,0.013523,0.002678,0.000431,0.000353
22336000,0.0324,0.013523,0.002678,0.000431,0.000470
22337000,0.0324,0.013523,0.002678,0.000431,0.000118
22338000,0.0324,0.013523,0.002678,0.000431,0.000353
22339000,0.0324,0.013523,0.002678,0.000431,0.000470
22340000,0.0324,0.013523,0.002678,0.000431,0.000353
22341000,0.0324,0.013523,0.002678,0.000431,0.000235
22342000,0.0324,0.013523,0.002678,0.000431,0.000353
22343000,0.0324,0.013523,0.002678,0.000431,0.000353
22344000,0.0324,0.013523,0.002678,0.000431,0.000235
22345000,0.0324,0.013523,0.002678,0.000431,0.000353
22346000,0.0324,0.013523,0.002678,0.000431,0.000470
22347000,0.0324,0.013523,0.002678,0.000431,0.000353
22348000,0.0324,0.013523,0.002678,0.000431,0.000235
22349000,0.0324,0.013523,0.002678,0.000431,0.000353
22350000,0.0324,0.013523,0.002678,0.000431,0.000353
22351000,0.0324,0.013523,0.002678,0.000431,0.000235
22352000,0.0324,0.013523,0.002678,0.000431,0.000353
22353000,0.0324,0.013523,0.002678,0.000431,0.000470
22354000,0.0324,0.013523,0.002678,0.000431,0.000353
22355000,0.0324,0.013523,0.002678,0.000431,0.000235
22356000,0.0324,0.013523,0.002678,0.000431,0.000353
22357000,0.0324,0.013523,0.002678,0.000431,0.000353
22358000,0.0324,0.013523,0.002678,0.000431,0.000235
22359000,0.0324,0.013523,0.002678,0.000431,0.000353
22360000,0.0324,0.013523,0.002678,0.000431,0.000470
22361000,0.0324,0.013523,0.002678,0.000431,0.000353
22362000,0.0324,0.013523,0.002678,0.000431,0.000235
22363000,0.0324,0.013523,0.002678,0.000431,0.000353
22364000,0.0324,0.013523,0.002678,0.000431,0.000353
22365000,0.0324,0.013523,0.002678,0.000431,0.000235
22366000,0.0324,0.013523,0.002678,0.000431,0.000353
22367000,0.0324,0.013523,0.002678,0.000431,0.000470
22368000,0.0324,0.013523,0.002678,0.000431,0.000353
22369000,0.0324,0.013523,0.002678,0.000431,0.000235
22370000,0.0324,0.013523,0.002678,0.000431,0.000353
22371000,0.0324,0.013523,0.002678,0.000431,0.000353
22372000,0.0324,0.013523,0.002678,0.000431,0.000235
22373000,0.0324,0.013523,0.002678,0.000431,0.000353
22374000,0.0324,0.013523,0.002678,0.000431,0.000470
22375000,0.0324,0.013523,0.002678,0.000431,0.000353
22376000,0.0324,0.013523,0.002678,0.000431,0.000235
22377000,0.0324,0.013523,0.002678,0.000431,0.000353
22378000,0.0324,0.013523,0.002678,0.000431,0.000353
22379000,0.0324,0.013523,0.002678,0.000431,0.000235
22380000,0.0324,0.013523,0.002678,0.000431,0.000353
22381000,0.0324,0.013523,0.002678,0.000431,0.000470
22382000,0.0324,0.013523,0.002678,0.000431,0.000353
22383000,0.0324,0.013523,0.002678,0.000431,0.000235
22384000,0.0324,0.013523,0.002678,0.000431,0.000353
22385000,0.0324,0.013523,0.002678,0.000431,0.000353
22386000,0.0324,0.013523,0.002678,0.000431,0.000235
22387000,0.0324,0.013523,0.002678,0.000431,0.000353
22388000,0.0324,0.013523,0.002678,0.000431,0.000470
22389000,0.0324,0.013523,0.002678,0.000431,0.000353
22390000,0.0324,0.013523,0.002678,0.000431,0.000235
22391000,0.0324,0.013523,0.002678,0.000431,0.000353
22392000,0.0324,0.013523,0.002678,0.000431,0.000353
22393000,0.0324,0.013523,0.002678,0.000431,0.000235
22394000,0.0324,0.013523,0.002678,0.000431,0.000353
22395000,0.0324,0.013523,0.002678,0.000431,0.000470
22396000,0.0324,0.013523,0.002678,0.000431,0.000353
22397000,0.0324,0.013523,0.002678,0.000431,0.000118
22398000,0.0324,0.013523,0.002678,0.000431,0.000470
22399000,0.0324,0.013523,0.002678,0.000431,0.000353
22400000,0.0324,0.013523,0.002678,0.000431,0.000235
22401000,0.0324,0.013523,0.002678,0.000431,0.000353
22402000,0.0324,0.013523,0.002678,0.000431,0.000470
22403000,0.0324,0.013523,0.002678,0.000431,0.000353
22404000,0.0324,0.013523,0.002678,0.000431,0.000118
22405000,0.0324,0.013523,0.002678,0.000431,0.000470
22406000,0.0324,0.013523,0.002678,0.000431,0.000353
22407000,0.0324,0.013523,0.002678,0.000431,0.000235
22408000,0.0324,0.013523,0.002678,0.000431,0.000353
22409000,0.0324,0.013523,0.002678,0.000431,0.000470
22410000,0.0324,0.013523,0.002678,0.000431,0.000353
22411000,0.0324,0.013523,0.002678,0.000431,0.000118
22412000,0.0324,0.013523,0.002678,0.000431,0.000470
22413000,0.0324,0.013523,0.002678,0.000431,0.000353
22414000,0.0324,0.013523,0.002678,0.000431,0.000235
22415000,0.0324,0.013523,0.002678,0.000431,0.000353
22416000,0.0324,0.013523,0.002678,0.000431,0.000470
22417000,0.0324,0.013523,0.002678,0.000431,0.000235
22418000,0.0324,0.013523,0.002678,0.000431,0.000235
22419000,0.0324,0.013523,0.002678,0.000431,0.000470
22420000,0.0324,0.013523,0.002678,0.000431,0.000353
22421000,0.0324,0.013523,0.002678,0.000431,0.000235
22422000,0.0324,0.013523,0.002678,0.000431,0.000353
22423000,0.0324,0.013523,0.002678,0.000431,0.000470
22424000,0.0324,0.013523,0.002678,0.000431,0.000235
22425000,0.0324,0.013523,0.002678,0.000431,0.000235
22426000,0.0324,0.013523,0.002678,0.000431,0.000470
22427000,0.0324,0.013523,0.002678,0.000431,0.000353
22428000,0.0324,0.013523,0.002678,0.000431,0.000235
22429000,0.0324,0.013523,0.002678,0.000431,0.000353
22430000,0.0324,0.013523,0.002678,0.000431,0.000470
22431000,0.0324,0.013523,0.002678,0.000431,0.000235
22432000,0.0324,0.013523,0.002678,0.000431,0.000235
22433000,0.0324,0.013523,0.002678,0.000431,0.000470
22434000,0.0324,0.013523,0.002678,0.000431,0.000353
22435000,0.0324,0.013523,0.002678,0.000431,0.000235
22436000,0.0324,0.013523,0.002678,0.000431,0.000353
22437000,0.0324,0.013523,0.002678,0.000431,0.000470
22438000,0.0324,0.013523,0.002678,0.000431,0.000235
22439000,0.0324,0.013523,0.002678,0.000431,0.000235
22440000,0.0324,0.013523,0.002678,0.000431,0.000470
22441000,0.0324,0.013523,0.002678,0.000431,0.000353
22442000,0.0324,0.013523,0.002678,0.000431,0.000235
22443000,0.0324,0.013523,0.002678,0.000431,0.000353
22444000,0.0324,0.013523,0.002678,0.000431,0.000470
22445000,0.0324,0.013523,0.002678,0.000431,0.000235
22446000,0.0324,0.013523,0.002678,0.000431,0.000235
22447000,0.0324,0.013523,0.002678,0.000431,0.000470
22448000,0.0324,0.013523,0.002678,0.000431,0.000353
22449000,0.0324,0.013523,0.002678,0.000431,0.000235
22450000,0.0324,0.013523,0.002678,0.000431,0.000353
22451000,0.0324,0.013523,0.002678,0.000431,0.000470
22452000,0.0324,0.013523,0.002678,0.000431,0.000235
22453000,0.0324,0.013523,0.002678,0.000431,0.000235
22454000,0.0324,0.013523,0.002678,0.000431,0.000470
22455000,0.0324,0.013523,0.002678,0.000431,0.000353
22456000,0.0324,0.013523,0.002678,0.000431,0.000235
22457000,0.0324,0.013523,0.002678,0.000431,0.000353
22458000,0.0324,0.013523,0.002678,0.000431,0.000470
22459000,0.0324,0.013523,0.002678,0.000431,0.000118
22460000,0.0324,0.013523,0.002678,0.000431,0.000353
22461000,0.0324,0.013523,0.002678,0.000431,0.000470
22462000,0.0324,0.013523,0.002678,0.000431,0.000353
22463000,0.0324,0.013523,0.002678,0.000431,0.000235
22464000,0.0324,0.013523,0.002678,0.000431,0.000353
22465000,0.0324,0.013523,0.002678,0.000431,0.000470
22466000,0.0324,0.013523,0.002678,0.000431,0.000118
22467000,0.0324,0.013523,0.002678,0.000431,0.000353
22468000,0.0324,0.013523,0.002678,0.000431,0.000470
22469000,0.0324,0.013523,0.002678,0.000431,0.000353
22470000,0.0324,0.013523,0.002678,0.000431,0.000235
22471000,0.0324,0.013523,0.002678,0.000431,0.000353
22472000,0.0324,0.013523,0.002678,0.000431,0.000470
22473000,0.0324,0.013523,0.002678,0.000431,0.000118
22474000,0.0324,0.013523,0.002678,0.000431,0.000353
22475000,0.0324,0.013523,0.002678,0.000431,0.000470
22476000,0.0324,0.013523,0.002678,0.000431,0.000353
22477000,0.0324,0.013523,0.002678,0.000431,0.000235
22478000,0.0324,0.013523,0.002678,0.000431,0.000353
22479000,0.0324,0.013523,0.002678,0.000431,0.000470
22480000,0.0324,0.013523,0.002678,0.000431,0.000118
22481000,0.0324,0.013523,0.002678,0.000431,0.000353
22482000,0.0324,0.013523,0.002678,0.000431,0.000470
22483000,0.0324,0.013523,0.002678,0.000431,0.000353
22484000,0.0324,0.013523,0.002678,0.000431,0.000235
22485000,0.0324,0.013523,0.002678,0.000431,0.000353
22486000,0.0324,0.013523,0.002678,0.000431,0.000353
22487000,0.0324,0.013523,0.002678,0.000431,0.000235
22488000,0.0324,0.013523,0.002678,0.000431,0.000353
22489000,0.0324,0.013523,0.002678,0.000431,0.000470
22490000,0.0324,0.013523,0.002678,0.000431,0.000353
22491000,0.0324,0.013523,0.002678,0.000431,0.000235
22492000,0.0324,0.013523,0.002678,0.000431,0.000353
22493000,0.0324,0.013523,0.002678,0.000431,0.000353
22494000,0.0324,0.013523,0.002678,0.000431,0.000235
22495000,0.0324,0.013523,0.002678,0.000431,0.000353
22496000,0.0324,0.013523,0.002678,0.000431,0.000470
22497000,0.0324,0.013523,0.002678,0.000431,0.000353
22498000,0.0324,0.013523,0.002678,0.000431,0.000235
22499000,0.0324,0.013523,0.002678,0.000431,0.000353
22500000,0.0324,0.013523,0.002678,0.000431,0.000353
22501000,0.0324,0.013523,0.002678,0.000431,0.000235
22502000,0.0324,0.013523,0.002678,0.000431,0.000353
22503000,0.0324,0.013523,0.002678,0.000431,0.000470
22504000,0.0324,0.013523,0.002678,0.000431,0.000353
22505000,0.0324,0.013523,0.002678,0.000431,0.000235
22506000,0.0324,0.013523,0.002678,0.000431,0.000353
22507000,0.0324,0.013523,0.002678,0.000431,0.000353
22508000,0.0324,0.013523,0.002678,0.000431,0.000235
22509000,0.0324,0.013523,0.002678,0.000431,0.000353
22510000,0.0324,0.013523,0.002678,0.000431,0.000470
22511000,0.0324,0.013523,0.002678,0.000431,0.000353
22512000,0.0324,0.013523,0.002678,0.000431,0.000235
22513000,0.0324,0.013523,0.002678,0.000431,0.000353
22514000,0.0324,0.013523,0.002678,0.000431,0.000353
22515000,0.0324,0.013523,0.002678,0.000431,0.000235
22516000,0.0324,0.013523,0.002678,0.000431,0.000353
22517000,0.0324,0.013523,0.002678,0.000431,0.000470
22518000,0.0324,0.013523,0.002678,0.000431,0.000353
22519000,0.0324,0.013523,0.002678,0.000431,0.000235
22520000,0.0324,0.013523,0.002678,0.000431,0.000353
22521000,0.0324,0.013523,0.002678,0.000431,0.000353
22522000,0.0324,0.013523,0.002678,0.000431,0.000235
22523000,0.0324,0.013523,0.002678,0.000431,0.000353
22524000,0.0324,0.013523,0.002678,0.000431,0.000470
22525000,0.0324,0.013523,0.002678,0.000431,0.000353
22526000,0.0324,0.013523,0.002678,0.000431,0.000235
22527000,0.0324,0.013523,0.002678,0.000431,0.000353
22528000,0.0324,0.013523,0.002678,0.000431,0.000353
22529000,0.0324,0.013523,0.002678,0.000431,0.000235
22530000,0.0324,0.013523,0.002678,0.000431,0.000353
22531000,0.0324,0.013523,0.002678,0.000431,0.000470
22532000,0.0324,0.013523,0.002678,0.000431,0.000353
22533000,0.0324,0.013523,0.002678,0.000431,0.000118
22534000,0.0324,0.013523,0.002678,0.000431,0.000470
22535000,0.0324,0.013523,0.002678,0.000431,0.000353
22536000,0.0324,0.013523,0.002678,0.000431,0.000235
22537000,0.0324,0.013523,0.002678,0.000431,0.000353
22538000,0.0324,0.013523,0.002678,0.000431,0.000470
22539000,0.0324,0.013523,0.002678,0.000431,0.000353
22540000,0.0324,0.013523,0.002678,0.000431,0.000118
22541000,0.0324,0.013523,0.002678,0.000431,0.000470
22542000,0.0324,0.013523,0.002678,0.000431,0.000353
22543000,0.0324,0.013523,0.002678,0.000431,0.000235
22544000,0.0324,0.013523,0.002678,0.000431,0.000353
22545000,0.0324,0.013523,0.002678,0.000431,0.000470
22546000,0.0324,0.013523,0.002678,0.000431,0.000353
22547000,0.0324,0.013523,0.002678,0.000431,0.000118
22548000,0.0324,0.013523,0.002678,0.000431,0.000470
22549000,0.0324,0.013523,0.002678,0.000431,0.000353
22550000,0.0324,0.013523,0.002678,0.000431,0.000235
22551000,0.0324,0.013523,0.002678,0.000431,0.000353
22552000,0.0324,0.013523,0.002678,0.000431,0.000470
22553000,0.0324,0.013523,0.002678,0.000431,0.000353
22554000,0.0324,0.013523,0.002678,0.000431,0.000118
22555000,0.0324,0.013523,0.002678,0.000431,0.000470
22556000,0.0324,0.013523,0.002678,0.000431,0.000353
22557000,0.0324,0.013523,0.002678,0.000431,0.000235
22558000,0.0324,0.013523,0.002678,0.000431,0.000353
22559000,0.0324,0.013523,0.002678,0.000431,0.000470
22560000,0.0324,0.013523,0.002678,0.000431,0.000235
22561000,0.0324,0.013523,0.002678,0.000431,0.000235
22562000,0.0324,0.013523,0.002678,0.000431,0.000470
22563000,0.0324,0.013523,0.002678,0.000431,0.000353
22564000,0.0324,0.013523,0.002678,0.000431,0.000235
22565000,0.0324,0.013523,0.002678,0.000431,0.000353
22566000,0.0324,0.013523,0.002678,0.000431,0.000470
22567000,0.0324,0.013523,0.002678,0.000431,0.000235
22568000,0.0324,0.013523,0.002678,0.000431,0.000235
22569000,0.0324,0.013523,0.002678,0.000431,0.000470
22570000,0.0324,0.013523,0.002678,0.000431,0.000353
22571000,0.0324,0.013523,0.002678,0.000431,0.000235
22572000,0.0324,0.013523,0.002678,0.000431,0.000353
22573000,0.0324,0.013523,0.002678,0.000431,0.000470
22574000,0.0324,0.013523,0.002678,0.000431,0.000235
22575000,0.0324,0.013523,0.002678,0.000431,0.000235
22576000,0.0324,0.013523,0.002678,0.000431,0.000470
22577000,0.0324,0.013523,0.002678,0.000431,0.000353
22578000,0.0324,0.013523,0.002678,0.000431,0.000235
22579000,0.0324,0.013523,0.002678,0.000431,0.000353
22580000,0.0324,0.013523,0.002678,0.000431,0.000470
22581000,0.0324,0.013523,0.002678,0.000431,0.000235
22582000,0.0324,0.013523,0.002678,0.000431,0.000235
22583000,0.0324,0.013523,0.002678,0.000431,0.000470
22584000,0.0324,0.013523,0.002678,0.000431,0.000353
22585000,0.0324,0.013523,0.002678,0.000431,0.000235
22586000,0.0324,0.013523,0.002678,0.000431,0.000353
22587000,0.0324,0.013523,0.002678,0.000431,0.000470
22588000,0.0324,0.013523,0.002678,0.000431,0.000235
22589000,0.0324,0.013523,0.002678,0.000431,0.000235
22590000,0.0324,0.013523,0.002678,0.000431,0.000470
22591000,0.0324,0.013523,0.002678,0.000431,0.000353
22592000,0.0324,0.013523,0.002678,0.000431,0.000235
22593000,0.0324,0.013523,0.002678,0.000431,0.000353
22594000,0.0324,0.013523,0.002678,0.000431,0.000470
22595000,0.0324,0.013523,0.002678,0.000431,0.000235
22596000,0.0324,0.013523,0.002678,0.000431,0.000235
22597000,0.0324,0.013523,0.002678,0.000431,0.000470
22598000,0.0324,0.013523,0.002678,0.000431,0.000353
22599000,0.0324,0.013523,0.002678,0.000431,0.000235
22600000,0.0324,0.013523,0.002678,0.000431,0.000353
22601000,0.0324,0.013523,0.002678,0.000431,0.000470
22602000,0.0324,0.013523,0.002678,0.000431,0.000118
22603000,0.0324,0.013523,0.002678,0.000431,0.000353
22604000,0.0324,0.013523,0.002678,0.000431,0.000470
22605000,0.0324,0.013523,0.002678,0.000431,0.000353
22606000,0.0324,0.013523,0.002678,0.000431,0.000235
22607000,0.0324,0.013523,0.002678,0.000431,0.000353
22608000,0.0324,0.013523,0.002678,0.000431,0.000470
22609000,0.0324,0.013523,0.002678,0.000431,0.000118
22610000,0.0324,0.013523,0.002678,0.000431,0.000353
22611000,0.0324,0.013523,0.002678,0.000431,0.000470
22612000,0.0324,0.013523,0.002678,0.000431,0.000353
22613000,0.0324,0.013523,0.002678,0.000431,0.000235
22614000,0.0324,0.013523,0.002678,0.000431,0.000353
22615000,0.0324,0.013523,0.002678,0.000431,0.000470
22616000,0.0324,0.013523,0.002678,0.000431,0.000118
22617000,0.0324,0.013523,0.002678,0.000431,0.000353
22618000,0.0324,0.013523,0.002678,0.000431,0.000470
22619000,0.0324,0.013523,0.002678,0.000431,0.000353
22620000,0.0324,0.013523,0.002678,0.000431,0.000235
22621000,0.0324,0.013523,0.002678,0.000431,0.000353
22622000,0.0324,0.013523,0.002678,0.000431,0.000353
22623000,0.0324,0.013523,0.002678,0.000431,0.000235
22624000,0.0324,0.013523,0.002678,0.000431,0.000353
22625000,0.0324,0.013523,0.002678,0.000431,0.000470
22626000,0.0324,0.013523,0.002678,0.000431,0.000353
22627000,0.0324,0.013523,0.002678,0.000431,0.000235
22628000,0.0324,0.013523,0.002678,0.000431,0.000353
22629000,0.0324,0.013523,0.002678,0.000431,0.000353
22630000,0.0324,0.013523,0.002678,0.000431,0.000235
22631000,0.0324,0.013523,0.002678,0.000431,0.000353
22632000,0.0324,0.013523,0.002678,0.000431,0.000470
22633000,0.0324,0.013523,0.002678,0.000431,0.000353
22634000,0.0324,0.013523,0.002678,0.000431,0.000235
22635000,0.0324,0.013523,0.002678,0.000431,0.000353
22636000,0.0324,0.013523,0.002678,0.000431,0.000353
22637000,0.0324,0.013523,0.002678,0.000431,0.000235
22638000,0.0324,0.013523,0.002678,0.000431,0.000353
22639000,0.0324,0.013523,0.002678,0.000431,0.000470
22640000,0.0324,0.013523,0.002678,0.000431,0.000353
22641000,0.0324,0.013523,0.002678,0.000431,0.000235
22642000,0.0324,0.013523,0.002678,0.000431,0.000353
22643000,0.0324,0.013523,0.002678,0.000431,0.000353
22644000,0.0324,0.013523,0.002678,0.000431,0.000235
22645000,0.0324,0.013523,0.002678,0.000431,0.000353
22646000,0.0324,0.013523,0.002678,0.000431,0.000470
22647000,0.0324,0.013523,0.002678,0.000431,0.000353
22648000,0.0324,0.013523,0.002678,0.000431,0.000235
22649000,0.0324,0.013523,0.002678,0.000431,0.000353
22650000,0.0324,0.013523,0.002678,0.000431,0.000353
22651000,0.0324,0.013523,0.002678,0.000431,0.000235
22652000,0.0324,0.013523,0.002678,0.000431,0.000353
22653000,0.0324,0.013523,0.002678,0.000431,0.000470
22654000,0.0324,0.013523,0.002678,0.000431,0.000353
22655000,0.0324,0.013523,0.002678,0.000431,0.000235
22656000,0.0324,0.013523,0.002678,0.000431,0.000353
22657000,0.0324,0.013523,0.002678,0.000431,0.000353
22658000,0.0324,0.013523,0.002678,0.000431,0.000235
22659000,0.0324,0.013523,0.002678,0.000431,0.000353
22660000,0.0324,0.013523,0.002678,0.000431,0.000470
22661000,0.0324,0.013523,0.002678,0.000431,0.000353
22662000,0.0324,0.013523,0.002678,0.000431,0.000235
22663000,0.0324,0.013523,0.002678,0.000431,0.000353
22664000,0.0324,0.013523,0.002678,0.000431,0.000353
22665000,0.0324,0.013523,0.002678,0.000431,0.000235
22666000,0.0324,0.013523,0.002678,0.000431,0.000353
22667000,0.0324,0.013523,0.002678,0.000431,0.000470
22668000,0.0324,0.013523,0.002678,0.000431,0.000353
22669000,0.0324,0.013523,0.002678,0.000431,0.000235
22670000,0.0324,0.013523,0.002678,0.000431,0.000353
22671000,0.0324,0.013523,0.002678,0.000431,0.000353
22672000,0.0324,0.013523,0.002678,0.000431,0.000235
22673000,0.0324,0.013523,0.002678,0.000431,0.000353
22674000,0.0324,0.013523,0.002678,0.000431,0.000470
22675000,0.0324,0.013523,0.002678,0.000431,0.000353
22676000,0.0324,0.013523,0.002678,0.000431,0.000118
22677000,0.0324,0.013523,0.002678,0.000431,0.000470
22678000,0.0324,0.013523,0.002678,0.000431,0.000353
22679000,0.0324,0.013523,0.002678,0.000431,0.000235
22680000,0.0324,0.013523,0.002678,0.000431,0.000353
22681000,0.0324,0.013523,0.002678,0.000431,0.000470
22682000,0.0324,0.013523,0.002678,0.000431,0.000353
22683000,0.0324,0.013523,0.002678,0.000431,0.000118
22684000,0.0324,0.013523,0.002678,0.000431,0.000470
22685000,0.0324,0.013523,0.002678,0.000431,0.000353
22686000,0.0324,0.013523,0.002678,0.000431,0.000235
22687000,0.0324,0.013523,0.002678,0.000431,0.000353
22688000,0.0324,0.013523,0.002678,0.000431,0.000470
22689000,0.0324,0.013523,0.002678,0.000431,0.000353
22690000,0.0324,0.013523,0.002678,0.000431,0.000118
22691000,0.0324,0.013523,0.002678,0.000431,0.000470
22692000,0.0324,0.013523,0.002678,0.000431,0.000353
22693000,0.0324,0.013523,0.002678,0.000431,0.000235
22694000,0.0324,0.013523,0.002678,0.000431,0.000353
22695000,0.0324,0.013523,0.002678,0.000431,0.000470
22696000,0.0324,0.013523,0.002678,0.000431,0.000235
22697000,0.0324,0.013523,0.002678,0.000431,0.000235
22698000,0.0324,0.013523,0.002678,0.000431,0.000470
22699000,0.0324,0.013523,0.002678,0.000431,0.000353
22700000,0.0324,0.013523,0.002678,0.000431,0.000235
22701000,0.0324,0.013523,0.002678,0.000431,0.000353
22702000,0.0324,0.013523,0.002678,0.000431,0.000470
22703000,0.0324,0.013523,0.002678,0.000431,0.000235
22704000,0.0324,0.013523,0.002678,0.000431,0.000235
22705000,0.0324,0.013523,0.002678,0.000431,0.000470
22706000,0.0324,0.013523,0.002678,0.000431,0.000353
22707000,0.0324,0.013523,0.002678,0.000431,0.000235
22708000,0.0324,0.013523,0.002678,0.000431,0.000353
22709000,0.0324,0.013523,0.002678,0.000431,0.000470
22710000,0.0324,0.013523,0.002678,0.000431,0.000235
22711000,0.0324,0.013523,0.002678,0.000431,0.000235
22712000,0.0324,0.013523,0.002678,0.000431,0.000470
22713000,0.0324,0.013523,0.002678,0.000431,0.000353
22714000,0.0324,0.013523,0.002678,0.000431,0.000235
22715000,0.0324,0.013523,0.002678,0.000431,0.000353
22716000,0.0324,0.013523,0.002678,0.000431,0.000470
22717000,0.0324,0.013523,0.002678,0.000431,0.000235
22718000,0.0324,0.013523,0.002678,0.000431,0.000235
22719000,0.0324,0.013523,0.002678,0.000431,0.000470
22720000,0.0324,0.013523,0.002678,0.000431,0.000353
22721000,0.0324,0.013523,0.002678,0.000431,0.000235
22722000,0.0324,0.013523,0.002678,0.000431,0.000353
22723000,0.0324,0.013523,0.002678,0.000431,0.000470
22724000,0.0324,0.013523,0.002678,0.000431,0.000235
22725000,0.0324,0.013523,0.002678,0.000431,0.000235
22726000,0.0324,0.013523,0.002678,0.000431,0.000470
22727000,0.0324,0.013523,0.002678,0.000431,0.000353
22728000,0.0324,0.013523,0.002678,0.000431,0.000235
22729000,0.0324,0.013523,0.002678,0.000431,0.000353
22730000,0.0324,0.013523,0.002678,0.000431,0.000470
22731000,0.0324,0.013523,0.002678,0.000431,0.000235
22732000,0.0324,0.013523,0.002678,0.000431,0.000235
22733000,0.0324,0.013523,0.002678,0.000431,0.000470
22734000,0.0324,0.013523,0.002678,0.000431,0.000353
22735000,0.0324,0.013523,0.002678,0.000431,0.000235
22736000,0.0324,0.013523,0.002678,0.000431,0.000353
22737000,0.0324,0.013523,0.002678,0.000431,0.000470
22738000,0.0324,0.013523,0.002678,0.000431,0.000118
22739000,0.0324,0.013523,0.002678,0.000431,0.000353
22740000,0.0324,0.013523,0.002678,0.000431,0.000470
22741000,0.0324,0.013523,0.002678,0.000431,0.000353
22742000,0.0324,0.013523,0.002678,0.000431,0.000235
22743000,0.0324,0.013523,0.002678,0.000431,0.000353
22744000,0.0324,0.013523,0.002678,0.000431,0.000470
22745000,0.0324,0.013523,0.002678,0.000431,0.000118
22746000,0.0324,0.013523,0.002678,0.000431,0.000353
22747000,0.0324,0.013523,0.002678,0.000431,0.000470
22748000,0.0324,0.013523,0.002678,0.000431,0.000353
22749000,0.0324,0.013523,0.002678,0.000431,0.000235
22750000,0.0324,0.013523,0.002678,0.000431,0.000353
22751000,0.0324,0.013523,0.002678,0.000431,0.000470
22752000,0.0324,0.013523,0.002678,0.000431,0.000118
22753000,0.0324,0.013523,0.002678,0.000431,0.000353
22754000,0.0324,0.013523,0.002678,0.000431,0.000470
22755000,0.0324,0.013523,0.002678,0.000431,0.000353
22756000,0.0324,0.013523,0.002678,0.000431,0.000235
22757000,0.0324,0.013523,0.002678,0.000431,0.000353
22758000,0.0324,0.013523,0.002678,0.000431,0.000470
22759000,0.0324,0.013523,0.002678,0.000431,0.000118
22760000,0.0324,0.013523,0.002678,0.000431,0.000353
22761000,0.0324,0.013523,0.002678,0.000431,0.000470
22762000,0.0324,0.013523,0.002678,0.000431,0.000353
22763000,0.0324,0.013523,0.002678,0.000431,0.000235
22764000,0.0324,0.013523,0.002678,0.000431,0.000353
22765000,0.0324,0.013523,0.002678,0.000431,0.000353
22766000,0.0324,0.013523,0.002678,0.000431,0.000235
22767000,0.0324,0.013523,0.002678,0.000431,0.000353
22768000,0.0324,0.013523,0.002678,0.000431,0.000470
22769000,0.0324,0.013523,0.002678,0.000431,0.000353
22770000,0.0324,0.013523,0.002678,0.000431,0.000235
22771000,0.0324,0.013523,0.002678,0.000431,0.000353
22772000,0.0324,0.013523,0.002678,0.000431,0.000353
22773000,0.0324,0.013523,0.002678,0.000431,0.000235
22774000,0.0324,0.013523,0.002678,0.000431,0.000353
22775000,0.0324,0.013523,0.002678,0.000431,0.000470
22776000,0.0324,0.013523,0.002678,0.000431,0.000353
22777000,0.0324,0.013523,0.002678,0.000431,0.000235
22778000,0.0324,0.013523,0.002678,0.000431,0.000353
22779000,0.0324,0.013523,0.002678,0.000431,0.000353
22780000,0.0324,0.013523,0.002678,0.000431,0.000235
22781000,0.0324,0.013523,0.002678,0.000431,0.000353
22782000,0.0324,0.013523,0.002678,0.000431,0.000470
22783000,0.0324,0.013523,0.002678,0.000431,0.000353
22784000,0.0324,0.013523,0.002678,0.000431,0.000235
22785000,0.0324,0.013523,0.002678,0.000431,0.000353
22786000,0.0324,0.013523,0.002678,0.000431,0.000353
22787000,0.0324,0.013523,0.002678,0.000431,0.000235
22788000,0.0324,0.013523,0.002678,0.000431,0.000353
22789000,0.0324,0.013523,0.002678,0.000431,0.000470
22790000,0.0324,0.013523,0.002678,0.000431,0.000353
22791000,0.0324,0.013523,0.002678,0.000431,0.000235
22792000,0.0324,0.013523,0.002678,0.000431,0.000353
22793000,0.0324,0.013523,0.002678,0.000431,0.000353
22794000,0.0324,0.013523,0.002678,0.000431,0.000235
22795000,0.0324,0.013523,0.002678,0.000431,0.000353
22796000,0.0324,0.013523,0.002678,0.000431,0.000470
22797000,0.0324,0.013523,0.002678,0.000431,0.000353
22798000,0.0324,0.013523,0.002678,0.000431,0.000235
22799000,0.0324,0.013523,0.002678,0.000431,0.000353
22800000,0.0324,0.013523,0.002678,0.000431,0.000353
22801000,0.0324,0.013523,0.002678,0.000431,0.000235
22802000,0.0324,0.013523,0.002678,0.000431,0.000353
22803000,0.0324,0.013523,0.002678,0.000431,0.000470
22804000,0.0324,0.013523,0.002678,0.000431,0.000353
22805000,0.0324,0.013523,0.002678,0.000431,0.000235
22806000,0.0324,0.013523,0.002678,0.000431,0.000353
22807000,0.0324,0.013523,0.002678,0.000431,0.000353
22808000,0.0324,0.013523,0.002678,0.000431,0.000235
22809000,0.0324,0.013523,0.002678,0.000431,0.000353
22810000,0.0324,0.013523,0.002678,0.000431,0.000470
22811000,0.0324,0.013523,0.002678,0.000431,0.000353
22812000,0.0324,0.013523,0.002678,0.000431,0.000118
22813000,0.0324,0.013523,0.002678,0.000431,0.000470
22814000,0.0324,0.013523,0.002678,0.000431,0.000353
22815000,0.0324,0.013523,0.002678,0.000431,0.000235
22816000,0.0324,0.013523,0.002678,0.000431,0.000353
22817000,0.0324,0.013523,0.002678,0.000431,0.000470
22818000,0.0324,0.013523,0.002678,0.000431,0.000353
22819000,0.0324,0.013523,0.002678,0.000431,0.000118
22820000,0.0324,0.013523,0.002678,0.000431,0.000470
22821000,0.0324,0.013523,0.002678,0.000431,0.000353
22822000,0.0324,0.013523,0.002678,0.000431,0.000235
22823000,0.0324,0.013523,0.002678,0.000431,0.000353
22824000,0.0324,0.013523,0.002678,0.000431,0.000470
22825000,0.0324,0.013523,0.002678,0.000431,0.000353
22826000,0.0324,0.013523,0.002678,0.000431,0.000118
22827000,0.0324,0.013523,0.002678,0.000431,0.000470
22828000,0.0324,0.013523,0.002678,0.000431,0.000353
22829000,0.0324,0.013523,0.002678,0.000431,0.000235
22830000,0.0324,0.013523,0.002678,0.000431,0.000353
22831000,0.0324,0.013523,0.002678,0.000431,0.000470
22832000,0.0324,0.013523,0.002678,0.000431,0.000353
22833000,0.0324,0.013523,0.002678,0.000431,0.000118
22834000,0.0324,0.013523,0.002678,0.000431,0.000470
22835000,0.0324,0.013523,0.002678,0.000431,0.000353
22836000,0.0324,0.013523,0.002678,0.000431,0.000235
22837000,0.0324,0.013523,0.002678,0.000431,0.000353
22838000,0.0324,0.013523,0.002678,0.000431,0.000470
22839000,0.0324,0.013523,0.002678,0.000431,0.000235
22840000,0.0324,0.013523,0.002678,0.000431,0.000235
22841000,0.0324,0.013523,0.002678,0.000431,0.000470
22842000,0.0324,0.013523,0.002678,0.000431,0.000353
22843000,0.0324,0.013523,0.002678,0.000431,0.000235
22844000,0.0324,0.013523,0.002678,0.000431,0.000353
22845000,0.0324,0.013523,0.002678,0.000431,0.000470
22846000,0.0324,0.013523,0.002678,0.000431,0.000235
22847000,0.0324,0.013523,0.002678,0.000431,0.000235
22848000,0.0324,0.013523,0.002678,0.000431,0.000470
22849000,0.0324,0.013523,0.002678,0.000431,0.000353
22850000,0.0324,0.013523,0.002678,0.000431,0.000235
22851000,0.0324,0.013523,0.002678,0.000431,0.000353
22852000,0.0324,0.013523,0.002678,0.000431,0.000470
22853000,0.0324,0.013523,0.002678,0.000431,0.000235
22854000,0.0324,0.013523,0.002678,0.000431,0.000235
22855000,0.0324,0.013523,0.002678,0.000431,0.000470
22856000,0.0324,0.013523,0.002678,0.000431,0.000353
22857000,0.0324,0.013523,0.002678,0.000431,0.000235
22858000,0.0324,0.013523,0.002678,0.000431,0.000353
22859000,0.0324,0.013523,0.002678,0.000431,0.000470
22860000,0.0324,0.013523,0.002678,0.000431,0.000235
22861000,0.0324,0.013523,0.002678,0.000431,0.000235
22862000,0.0324,0.013523,0.002678,0.000431,0.000470
22863000,0.0324,0.013523,0.002678,0.000431,0.000353
22864000,0.0324,0.013523,0.002678,0.000431,0.000235
22865000,0.0324,0.013523,0.002678,0.000431,0.000353
22866000,0.0324,0.013523,0.002678,0.000431,0.000470
22867000,0.0324,0.013523,0.002678,0.000431,0.000235
22868000,0.0324,0.013523,0.002678,0.000431,0.000235
22869000,0.0324,0.013523,0.002678,0.000431,0.000470
22870000,0.0324,0.013523,0.002678,0.000431,0.000353
22871000,0.0324,0.013523,0.002678,0.000431,0.000235
22872000,0.0324,0.013523,0.002678,0.000431,0.000353
22873000,0.0324,0.013523,0.002678,0.000431,0.000470
22874000,0.0324,0.013523,0.002678,0.000431,0.000235
22875000,0.0324,0.013523,0.002678,0.000431,0.000235
22876000,0.0324,0.013523,0.002678,0.000431,0.000470
22877000,0.0324,0.013523,0.002678,0.000431,0.000353
22878000,0.0324,0.013523,0.002678,0.000431,0.000235
22879000,0.0324,0.013523,0.002678,0.000431,0.000353
22880000,0.0324,0.013523,0.002678,0.000431,0.000470
22881000,0.0324,0.013523,0.002678,0.000431,0.000118
22882000,0.0324,0.013523,0.002678,0.000431,0.000353
22883000,0.0324,0.013523,0.002678,0.000431,0.000470
22884000,0.0324,0.013523,0.002678,0.000431,0.000353
22885000,0.0324,0.013523,0.002678,0.000431,0.000235
22886000,0.0324,0.013523,0.002678,0.000431,0.000353
22887000,0.0324,0.013523,0.002678,0.000431,0.000470
22888000,0.0324,0.013523,0.002678,0.000431,0.000118
22889000,0.0324,0.013523,0.002678,0.000431,0.000353
22890000,0.0324,0.013523,0.002678,0.000431,0.000470
22891000,0.0324,0.013523,0.002678,0.000431,0.000353
22892000,0.0324,0.013523,0.002678,0.000431,0.000235
22893000,0.0324,0.013523,0.002678,0.000431,0.000353
22894000,0.0324,0.013523,0.002678,0.000431,0.000470
22895000,0.0324,0.013523,0.002678,0.000431,0.000118
22896000,0.0324,0.013523,0.002678,0.000431,0.000353
22897000,0.0324,0.013523,0.002678,0.000431,0.000470
22898000,0.0324,0.013523,0.002678,0.000431,0.000353
22899000,0.0324,0.013523,0.002678,0.000431,0.000235
22900000,0.0324,0.013523,0.002678,0.000431,0.000353
22901000,0.0324,0.013523,0.002678,0.000431,0.000353
22902000,0.0324,0.013523,0.002678,0.000431,0.000235
22903000,0.0324,0.013523,0.002678,0.000431,0.000353
22904000,0.0324,0.013523,0.002678,0.000431,0.000470
22905000,0.0324,0.013523,0.002678,0.000431,0.000353
22906000,0.0324,0.013523,0.002678,0.000431,0.000235
22907000,0.0324,0.013523,0.002678,0.000431,0.000353
22908000,0.0324,0.013523,0.002678,0.000431,0.000353
22909000,0.0324,0.013523,0.002678,0.000431,0.000235
22910000,0.0324,0.013523,0.002678,0.000431,0.000353
22911000,0.0324,0.013523,0.002678,0.000431,0.000470
22912000,0.0324,0.013523,0.002678,0.000431,0.000353
22913000,0.0324,0.013523,0.002678,0.000431,0.000235
22914000,0.0324,0.013523,0.002678,0.000431,0.000353
22915000,0.0324,0.013523,0.002678,0.000431,0.000353
22916000,0.0324,0.013523,0.002678,0.000431,0.000235
22917000,0.0324,0.013523,0.002678,0.000431,0.000353
22918000,0.0324,0.013523,0.002678,0.000431,0.000470
22919000,0.0324,0.013523,0.002678,0.000431,0.000353
22920000,0.0324,0.013523,0.002678,0.000431,0.000235
22921000,0.0324,0.013523,0.002678,0.000431,0.000353
22922000,0.0324,0.013523,0.002678,0.000431,0.000353
22923000,0.0324,0.013523,0.002678,0.000431,0.000235
22924000,0.0324,0.013523,0.002678,0.000431,0.000353
22925000,0.0324,0.013523,0.002678,0.000431,0.000470
22926000,0.0324,0.013523,0.002678,0.000431,0.000353
22927000,0.0324,0.013523,0.002678,0.000431,0.000235
22928000,0.0324,0.013523,0.002678,0.000431,0.000353
22929000,0.0324,0.013523,0.002678,0.000431,0.000353
22930000,0.0324,0.013523,0.002678,0.000431,0.000235
22931000,0.0324,0.013523,0.002678,0.000431,0.000353
22932000,0.0324,0.013523,0.002678,0.000431,0.000470
22933000,0.0324,0.013523,0.002678,0.000431,0.000353
22934000,0.0324,0.013523,0.002678,0.000431,0.000235
22935000,0.0324,0.013523,0.002678,0.000431,0.000353
22936000,0.0324,0.013523,0.002678,0.000431,0.000353
22937000,0.0324,0.013523,0.002678,0.000431,0.000235
22938000,0.0324,0.013523,0.002678,0.000431,0.000353
22939000,0.0324,0.013523,0.002678,0.000431,0.000470
22940000,0.0324,0.013523,0.002678,0.000431,0.000353
22941000,0.0324,0.013523,0.002678,0.000431,0.000235
22942000,0.0324,0.013523,0.002678,0.000431,0.000353
22943000,0.0324,0.013523,0.002678,0.000431,0.000353
22944000,0.0324,0.013523,0.002678,0.000431,0.000235
22945000,0.0324,0.013523,0.002678,0.000431,0.000353
22946000,0.0324,0.013523,0.002678,0.000431,0.000470
22947000,0.0324,0.013523,0.002678,0.000431,0.000353
22948000,0.0324,0.013523,0.002678,0.000431,0.000235
22949000,0.0324,0.013523,0.002678,0.000431,0.000353
22950000,0.0324,0.013523,0.002678,0.000431,0.000353
22951000,0.0324,0.013523,0.002678,0.000431,0.000235
22952000,0.0324,0.013523,0.002678,0.000431,0.000353
22953000,0.0324,0.013523,0.002678,0.000431,0.000470
22954000,0.0324,0.013523,0.002678,0.000431,0.000353
22955000,0.0324,0.013523,0.002678,0.000431,0.000118
22956000,0.0324,0.013523,0.002678,0.000431,0.000470
22957000,0.0324,0.013523,0.002678,0.000431,0.000353
22958000,0.0324,0.013523,0.002678,0.000431,0.000235
22959000,0.0324,0.013523,0.002678,0.000431,0.000353
22960000,0.0324,0.013523,0.002678,0.000431,0.000470
22961000,0.0324,0.013523,0.002678,0.000431,0.000353
22962000,0.0324,0.013523,0.002678,0.000431,0.000118
22963000,0.0324,0.013523,0.002678,0.000431,0.000470
22964000,0.0324,0.013523,0.002678,0.000431,0.000353
22965000,0.0324,0.013523,0.002678,0.000431,0.000235
22966000,0.0324,0.013523,0.002678,0.000431,0.000353
22967000,0.0324,0.013523,0.002678,0.000431,0.000470
22968000,0.0324,0.013523,0.002678,0.000431,0.000353
22969000,0.0324,0.013523,0.002678,0.000431,0.000118
22970000,0.0324,0.013523,0.002678,0.000431,0.000470
22971000,0.0324,0.013523,0.002678,0.000431,0.000353
22972000,0.0324,0.013523,0.002678,0.000431,0.000235
22973000,0.0324,0.013523,0.002678,0.000431,0.000353
22974000,0.0324,0.013523,0.002678,0.000431,0.000470
22975000,0.0324,0.013523,0.002678,0.000431,0.000353
22976000,0.0324,0.013523,0.002678,0.000431,0.000118
22977000,0.0324,0.013523,0.002678,0.000431,0.000470
22978000,0.0324,0.013523,0.002678,0.000431,0.000353
22979000,0.0324,0.013523,0.002678,0.000431,0.000235
22980000,0.0324,0.013523,0.002678,0.000431,0.000353
22981000,0.0324,0.013523,0.002678,0.000431,0.000470
22982000,0.0324,0.013523,0.002678,0.000431,0.000235
22983000,0.0324,0.013523,0.002678,0.000431,0.000235
22984000,0.0324,0.013523,0.002678,0.000431,0.000470
22985000,0.0324,0.013523,0.002678,0.000431,0.000353
22986000,0.0324,0.013523,0.002678,0.000431,0.000235
22987000,0.0324,0.013523,0.002678,0.000431,0.000353
22988000,0.0324,0.013523,0.002678,0.000431,0.000470
22989000,0.0324,0.013523,0.002678,0.000431,0.000235
22990000,0.0324,0.013523,0.002678,0.000431,0.000235
22991000,0.0324,0.013523,0.002678,0.000431,0.000470
22992000,0.0324,0.013523,0.002678,0.000431,0.000353
22993000,0.0324,0.013523,0.002678,0.000431,0.000235
22994000,0.0324,0.013523,0.002678,0.000431,0.000353
22995000,0.0324,0.013523,0.002678,0.000431,0.000470
22996000,0.0324,0.013523,0.002678,0.000431,0.000235
22997000,0.0324,0.013523,0.002678,0.000431,0.000235
22998000,0.0324,0.013523,0.002678,0.000431,0.000470
22999000,0.0324,0.013523,0.002678,0.000431,0.000353
