Cycle,Area(mm^2),PeakDynamic(W),SubthresholdLeakage(W),GateLeakage(W),RunTimeDynamic(W)
18000000,0.0324,0.013523,0.002678,0.000431,0.000235
18001000,0.0324,0.013523,0.002678,0.000431,0.000353
18002000,0.0324,0.013523,0.002678,0.000431,0.000470
18003000,0.0324,0.013523,0.002678,0.000431,0.000353
18004000,0.0324,0.013523,0.002678,0.000431,0.000235
18005000,0.0324,0.013523,0.002678,0.000431,0.000353
18006000,0.0324,0.013523,0.002678,0.000431,0.000353
18007000,0.0324,0.013523,0.002678,0.000431,0.000235
18008000,0.0324,0.013523,0.002678,0.000431,0.000353
18009000,0.0324,0.013523,0.002678,0.000431,0.000470
18010000,0.0324,0.013523,0.002678,0.000431,0.000353
18011000,0.0324,0.013523,0.002678,0.000431,0.000235
18012000,0.0324,0.013523,0.002678,0.000431,0.000353
18013000,0.0324,0.013523,0.002678,0.000431,0.000353
18014000,0.0324,0.013523,0.002678,0.000431,0.000235
18015000,0.0324,0.013523,0.002678,0.000431,0.000353
18016000,0.0324,0.013523,0.002678,0.000431,0.000470
18017000,0.0324,0.013523,0.002678,0.000431,0.000353
18018000,0.0324,0.013523,0.002678,0.000431,0.000235
18019000,0.0324,0.013523,0.002678,0.000431,0.000353
18020000,0.0324,0.013523,0.002678,0.000431,0.000353
18021000,0.0324,0.013523,0.002678,0.000431,0.000235
18022000,0.0324,0.013523,0.002678,0.000431,0.000353
18023000,0.0324,0.013523,0.002678,0.000431,0.000470
18024000,0.0324,0.013523,0.002678,0.000431,0.000353
18025000,0.0324,0.013523,0.002678,0.000431,0.000235
18026000,0.0324,0.013523,0.002678,0.000431,0.000353
18027000,0.0324,0.013523,0.002678,0.000431,0.000353
18028000,0.0324,0.013523,0.002678,0.000431,0.000235
18029000,0.0324,0.013523,0.002678,0.000431,0.000353
18030000,0.0324,0.013523,0.002678,0.000431,0.000470
18031000,0.0324,0.013523,0.002678,0.000431,0.000353
18032000,0.0324,0.013523,0.002678,0.000431,0.000235
18033000,0.0324,0.013523,0.002678,0.000431,0.000353
18034000,0.0324,0.013523,0.002678,0.000431,0.000353
18035000,0.0324,0.013523,0.002678,0.000431,0.000235
18036000,0.0324,0.013523,0.002678,0.000431,0.000353
18037000,0.0324,0.013523,0.002678,0.000431,0.000470
18038000,0.0324,0.013523,0.002678,0.000431,0.000353
18039000,0.0324,0.013523,0.002678,0.000431,0.000118
18040000,0.0324,0.013523,0.002678,0.000431,0.000470
18041000,0.0324,0.013523,0.002678,0.000431,0.000353
18042000,0.0324,0.013523,0.002678,0.000431,0.000235
18043000,0.0324,0.013523,0.002678,0.000431,0.000353
18044000,0.0324,0.013523,0.002678,0.000431,0.000470
18045000,0.0324,0.013523,0.002678,0.000431,0.000235
18046000,0.0324,0.013523,0.002678,0.000431,0.000235
18047000,0.0324,0.013523,0.002678,0.000431,0.000470
18048000,0.0324,0.013523,0.002678,0.000431,0.000353
18049000,0.0324,0.013523,0.002678,0.000431,0.000235
18050000,0.0324,0.013523,0.002678,0.000431,0.000353
18051000,0.0324,0.013523,0.002678,0.000431,0.000470
18052000,0.0324,0.013523,0.002678,0.000431,0.000235
18053000,0.0324,0.013523,0.002678,0.000431,0.000235
18054000,0.0324,0.013523,0.002678,0.000431,0.000470
18055000,0.0324,0.013523,0.002678,0.000431,0.000353
18056000,0.0324,0.013523,0.002678,0.000431,0.000235
18057000,0.0324,0.013523,0.002678,0.000431,0.000353
18058000,0.0324,0.013523,0.002678,0.000431,0.000470
18059000,0.0324,0.013523,0.002678,0.000431,0.000235
18060000,0.0324,0.013523,0.002678,0.000431,0.000235
18061000,0.0324,0.013523,0.002678,0.000431,0.000470
18062000,0.0324,0.013523,0.002678,0.000431,0.000353
18063000,0.0324,0.013523,0.002678,0.000431,0.000235
18064000,0.0324,0.013523,0.002678,0.000431,0.000353
18065000,0.0324,0.013523,0.002678,0.000431,0.000470
18066000,0.0324,0.013523,0.002678,0.000431,0.000235
18067000,0.0324,0.013523,0.002678,0.000431,0.000235
18068000,0.0324,0.013523,0.002678,0.000431,0.000470
18069000,0.0324,0.013523,0.002678,0.000431,0.000353
18070000,0.0324,0.013523,0.002678,0.000431,0.000235
18071000,0.0324,0.013523,0.002678,0.000431,0.000353
18072000,0.0324,0.013523,0.002678,0.000431,0.000470
18073000,0.0324,0.013523,0.002678,0.000431,0.000118
18074000,0.0324,0.013523,0.002678,0.000431,0.000353
18075000,0.0324,0.013523,0.002678,0.000431,0.000470
18076000,0.0324,0.013523,0.002678,0.000431,0.000353
18077000,0.0324,0.013523,0.002678,0.000431,0.000235
18078000,0.0324,0.013523,0.002678,0.000431,0.000353
18079000,0.0324,0.013523,0.002678,0.000431,0.000470
18080000,0.0324,0.013523,0.002678,0.000431,0.000118
18081000,0.0324,0.013523,0.002678,0.000431,0.000353
18082000,0.0324,0.013523,0.002678,0.000431,0.000470
18083000,0.0324,0.013523,0.002678,0.000431,0.000353
18084000,0.0324,0.013523,0.002678,0.000431,0.000235
18085000,0.0324,0.013523,0.002678,0.000431,0.000353
18086000,0.0324,0.013523,0.002678,0.000431,0.000470
18087000,0.0324,0.013523,0.002678,0.000431,0.000118
18088000,0.0324,0.013523,0.002678,0.000431,0.000353
18089000,0.0324,0.013523,0.002678,0.000431,0.000470
18090000,0.0324,0.013523,0.002678,0.000431,0.000353
18091000,0.0324,0.013523,0.002678,0.000431,0.000235
18092000,0.0324,0.013523,0.002678,0.000431,0.000353
18093000,0.0324,0.013523,0.002678,0.000431,0.000470
18094000,0.0324,0.013523,0.002678,0.000431,0.000118
18095000,0.0324,0.013523,0.002678,0.000431,0.000353
18096000,0.0324,0.013523,0.002678,0.000431,0.000470
18097000,0.0324,0.013523,0.002678,0.000431,0.000353
18098000,0.0324,0.013523,0.002678,0.000431,0.000235
18099000,0.0324,0.013523,0.002678,0.000431,0.000353
18100000,0.0324,0.013523,0.002678,0.000431,0.000353
18101000,0.0324,0.013523,0.002678,0.000431,0.000235
18102000,0.0324,0.013523,0.002678,0.000431,0.000353
18103000,0.0324,0.013523,0.002678,0.000431,0.000470
18104000,0.0324,0.013523,0.002678,0.000431,0.000353
18105000,0.0324,0.013523,0.002678,0.000431,0.000235
18106000,0.0324,0.013523,0.002678,0.000431,0.000353
18107000,0.0324,0.013523,0.002678,0.000431,0.000353
18108000,0.0324,0.013523,0.002678,0.000431,0.000235
18109000,0.0324,0.013523,0.002678,0.000431,0.000353
18110000,0.0324,0.013523,0.002678,0.000431,0.000470
18111000,0.0324,0.013523,0.002678,0.000431,0.000353
18112000,0.0324,0.013523,0.002678,0.000431,0.000235
18113000,0.0324,0.013523,0.002678,0.000431,0.000353
18114000,0.0324,0.013523,0.002678,0.000431,0.000353
18115000,0.0324,0.013523,0.002678,0.000431,0.000235
18116000,0.0324,0.013523,0.002678,0.000431,0.000353
18117000,0.0324,0.013523,0.002678,0.000431,0.000470
18118000,0.0324,0.013523,0.002678,0.000431,0.000353
18119000,0.0324,0.013523,0.002678,0.000431,0.000235
18120000,0.0324,0.013523,0.002678,0.000431,0.000353
18121000,0.0324,0.013523,0.002678,0.000431,0.000353
18122000,0.0324,0.013523,0.002678,0.000431,0.000235
18123000,0.0324,0.013523,0.002678,0.000431,0.000353
18124000,0.0324,0.013523,0.002678,0.000431,0.000470
18125000,0.0324,0.013523,0.002678,0.000431,0.000353
18126000,0.0324,0.013523,0.002678,0.000431,0.000235
18127000,0.0324,0.013523,0.002678,0.000431,0.000353
18128000,0.0324,0.013523,0.002678,0.000431,0.000353
18129000,0.0324,0.013523,0.002678,0.000431,0.000235
18130000,0.0324,0.013523,0.002678,0.000431,0.000353
18131000,0.0324,0.013523,0.002678,0.000431,0.000470
18132000,0.0324,0.013523,0.002678,0.000431,0.000353
18133000,0.0324,0.013523,0.002678,0.000431,0.000235
18134000,0.0324,0.013523,0.002678,0.000431,0.000353
18135000,0.0324,0.013523,0.002678,0.000431,0.000353
18136000,0.0324,0.013523,0.002678,0.000431,0.000235
18137000,0.0324,0.013523,0.002678,0.000431,0.000353
18138000,0.0324,0.013523,0.002678,0.000431,0.000470
18139000,0.0324,0.013523,0.002678,0.000431,0.000353
18140000,0.0324,0.013523,0.002678,0.000431,0.000235
18141000,0.0324,0.013523,0.002678,0.000431,0.000353
18142000,0.0324,0.013523,0.002678,0.000431,0.000353
18143000,0.0324,0.013523,0.002678,0.000431,0.000235
18144000,0.0324,0.013523,0.002678,0.000431,0.000353
18145000,0.0324,0.013523,0.002678,0.000431,0.000470
18146000,0.0324,0.013523,0.002678,0.000431,0.000353
18147000,0.0324,0.013523,0.002678,0.000431,0.000235
18148000,0.0324,0.013523,0.002678,0.000431,0.000353
18149000,0.0324,0.013523,0.002678,0.000431,0.000353
18150000,0.0324,0.013523,0.002678,0.000431,0.000235
18151000,0.0324,0.013523,0.002678,0.000431,0.000353
18152000,0.0324,0.013523,0.002678,0.000431,0.000470
18153000,0.0324,0.013523,0.002678,0.000431,0.000353
18154000,0.0324,0.013523,0.002678,0.000431,0.000118
18155000,0.0324,0.013523,0.002678,0.000431,0.000470
18156000,0.0324,0.013523,0.002678,0.000431,0.000353
18157000,0.0324,0.013523,0.002678,0.000431,0.000235
18158000,0.0324,0.013523,0.002678,0.000431,0.000353
18159000,0.0324,0.013523,0.002678,0.000431,0.000470
18160000,0.0324,0.013523,0.002678,0.000431,0.000353
18161000,0.0324,0.013523,0.002678,0.000431,0.000118
18162000,0.0324,0.013523,0.002678,0.000431,0.000470
18163000,0.0324,0.013523,0.002678,0.000431,0.000353
18164000,0.0324,0.013523,0.002678,0.000431,0.000235
18165000,0.0324,0.013523,0.002678,0.000431,0.000353
18166000,0.0324,0.013523,0.002678,0.000431,0.000470
18167000,0.0324,0.013523,0.002678,0.000431,0.000353
18168000,0.0324,0.013523,0.002678,0.000431,0.000118
18169000,0.0324,0.013523,0.002678,0.000431,0.000470
18170000,0.0324,0.013523,0.002678,0.000431,0.000353
18171000,0.0324,0.013523,0.002678,0.000431,0.000235
18172000,0.0324,0.013523,0.002678,0.000431,0.000353
18173000,0.0324,0.013523,0.002678,0.000431,0.000470
18174000,0.0324,0.013523,0.002678,0.000431,0.000235
18175000,0.0324,0.013523,0.002678,0.000431,0.000235
18176000,0.0324,0.013523,0.002678,0.000431,0.000470
18177000,0.0324,0.013523,0.002678,0.000431,0.000353
18178000,0.0324,0.013523,0.002678,0.000431,0.000235
18179000,0.0324,0.013523,0.002678,0.000431,0.000353
18180000,0.0324,0.013523,0.002678,0.000431,0.000470
18181000,0.0324,0.013523,0.002678,0.000431,0.000235
18182000,0.0324,0.013523,0.002678,0.000431,0.000235
18183000,0.0324,0.013523,0.002678,0.000431,0.000470
18184000,0.0324,0.013523,0.002678,0.000431,0.000353
18185000,0.0324,0.013523,0.002678,0.000431,0.000235
18186000,0.0324,0.013523,0.002678,0.000431,0.000353
18187000,0.0324,0.013523,0.002678,0.000431,0.000470
18188000,0.0324,0.013523,0.002678,0.000431,0.000235
18189000,0.0324,0.013523,0.002678,0.000431,0.000235
18190000,0.0324,0.013523,0.002678,0.000431,0.000470
18191000,0.0324,0.013523,0.002678,0.000431,0.000353
18192000,0.0324,0.013523,0.002678,0.000431,0.000235
18193000,0.0324,0.013523,0.002678,0.000431,0.000353
18194000,0.0324,0.013523,0.002678,0.000431,0.000470
18195000,0.0324,0.013523,0.002678,0.000431,0.000235
18196000,0.0324,0.013523,0.002678,0.000431,0.000235
18197000,0.0324,0.013523,0.002678,0.000431,0.000470
18198000,0.0324,0.013523,0.002678,0.000431,0.000353
18199000,0.0324,0.013523,0.002678,0.000431,0.000235
18200000,0.0324,0.013523,0.002678,0.000431,0.000353
18201000,0.0324,0.013523,0.002678,0.000431,0.000470
18202000,0.0324,0.013523,0.002678,0.000431,0.000118
18203000,0.0324,0.013523,0.002678,0.000431,0.000353
18204000,0.0324,0.013523,0.002678,0.000431,0.000470
18205000,0.0324,0.013523,0.002678,0.000431,0.000353
18206000,0.0324,0.013523,0.002678,0.000431,0.000235
18207000,0.0324,0.013523,0.002678,0.000431,0.000353
18208000,0.0324,0.013523,0.002678,0.000431,0.000470
18209000,0.0324,0.013523,0.002678,0.000431,0.000118
18210000,0.0324,0.013523,0.002678,0.000431,0.000353
18211000,0.0324,0.013523,0.002678,0.000431,0.000470
18212000,0.0324,0.013523,0.002678,0.000431,0.000353
18213000,0.0324,0.013523,0.002678,0.000431,0.000235
18214000,0.0324,0.013523,0.002678,0.000431,0.000353
18215000,0.0324,0.013523,0.002678,0.000431,0.000470
18216000,0.0324,0.013523,0.002678,0.000431,0.000118
18217000,0.0324,0.013523,0.002678,0.000431,0.000353
18218000,0.0324,0.013523,0.002678,0.000431,0.000470
18219000,0.0324,0.013523,0.002678,0.000431,0.000353
18220000,0.0324,0.013523,0.002678,0.000431,0.000235
18221000,0.0324,0.013523,0.002678,0.000431,0.000353
18222000,0.0324,0.013523,0.002678,0.000431,0.000470
18223000,0.0324,0.013523,0.002678,0.000431,0.000118
18224000,0.0324,0.013523,0.002678,0.000431,0.000353
18225000,0.0324,0.013523,0.002678,0.000431,0.000470
18226000,0.0324,0.013523,0.002678,0.000431,0.000353
18227000,0.0324,0.013523,0.002678,0.000431,0.000235
18228000,0.0324,0.013523,0.002678,0.000431,0.000353
18229000,0.0324,0.013523,0.002678,0.000431,0.000353
18230000,0.0324,0.013523,0.002678,0.000431,0.000235
18231000,0.0324,0.013523,0.002678,0.000431,0.000353
18232000,0.0324,0.013523,0.002678,0.000431,0.000470
18233000,0.0324,0.013523,0.002678,0.000431,0.000353
18234000,0.0324,0.013523,0.002678,0.000431,0.000235
18235000,0.0324,0.013523,0.002678,0.000431,0.000353
18236000,0.0324,0.013523,0.002678,0.000431,0.000353
18237000,0.0324,0.013523,0.002678,0.000431,0.000235
18238000,0.0324,0.013523,0.002678,0.000431,0.000353
18239000,0.0324,0.013523,0.002678,0.000431,0.000470
18240000,0.0324,0.013523,0.002678,0.000431,0.000353
18241000,0.0324,0.013523,0.002678,0.000431,0.000235
18242000,0.0324,0.013523,0.002678,0.000431,0.000353
18243000,0.0324,0.013523,0.002678,0.000431,0.000353
18244000,0.0324,0.013523,0.002678,0.000431,0.000235
18245000,0.0324,0.013523,0.002678,0.000431,0.000353
18246000,0.0324,0.013523,0.002678,0.000431,0.000470
18247000,0.0324,0.013523,0.002678,0.000431,0.000353
18248000,0.0324,0.013523,0.002678,0.000431,0.000235
18249000,0.0324,0.013523,0.002678,0.000431,0.000353
18250000,0.0324,0.013523,0.002678,0.000431,0.000353
18251000,0.0324,0.013523,0.002678,0.000431,0.000235
18252000,0.0324,0.013523,0.002678,0.000431,0.000353
18253000,0.0324,0.013523,0.002678,0.000431,0.000470
18254000,0.0324,0.013523,0.002678,0.000431,0.000353
18255000,0.0324,0.013523,0.002678,0.000431,0.000235
18256000,0.0324,0.013523,0.002678,0.000431,0.000353
18257000,0.0324,0.013523,0.002678,0.000431,0.000353
18258000,0.0324,0.013523,0.002678,0.000431,0.000235
18259000,0.0324,0.013523,0.002678,0.000431,0.000353
18260000,0.0324,0.013523,0.002678,0.000431,0.000470
18261000,0.0324,0.013523,0.002678,0.000431,0.000353
18262000,0.0324,0.013523,0.002678,0.000431,0.000235
18263000,0.0324,0.013523,0.002678,0.000431,0.000353
18264000,0.0324,0.013523,0.002678,0.000431,0.000353
18265000,0.0324,0.013523,0.002678,0.000431,0.000235
18266000,0.0324,0.013523,0.002678,0.000431,0.000353
18267000,0.0324,0.013523,0.002678,0.000431,0.000470
18268000,0.0324,0.013523,0.002678,0.000431,0.000353
18269000,0.0324,0.013523,0.002678,0.000431,0.000235
18270000,0.0324,0.013523,0.002678,0.000431,0.000353
18271000,0.0324,0.013523,0.002678,0.000431,0.000353
18272000,0.0324,0.013523,0.002678,0.000431,0.000235
18273000,0.0324,0.013523,0.002678,0.000431,0.000353
18274000,0.0324,0.013523,0.002678,0.000431,0.000470
18275000,0.0324,0.013523,0.002678,0.000431,0.000353
18276000,0.0324,0.013523,0.002678,0.000431,0.000118
18277000,0.0324,0.013523,0.002678,0.000431,0.000470
18278000,0.0324,0.013523,0.002678,0.000431,0.000353
18279000,0.0324,0.013523,0.002678,0.000431,0.000235
18280000,0.0324,0.013523,0.002678,0.000431,0.000353
18281000,0.0324,0.013523,0.002678,0.000431,0.000470
18282000,0.0324,0.013523,0.002678,0.000431,0.000353
18283000,0.0324,0.013523,0.002678,0.000431,0.000118
18284000,0.0324,0.013523,0.002678,0.000431,0.000470
18285000,0.0324,0.013523,0.002678,0.000431,0.000353
18286000,0.0324,0.013523,0.002678,0.000431,0.000235
18287000,0.0324,0.013523,0.002678,0.000431,0.000353
18288000,0.0324,0.013523,0.002678,0.000431,0.000470
18289000,0.0324,0.013523,0.002678,0.000431,0.000353
18290000,0.0324,0.013523,0.002678,0.000431,0.000118
18291000,0.0324,0.013523,0.002678,0.000431,0.000470
18292000,0.0324,0.013523,0.002678,0.000431,0.000353
18293000,0.0324,0.013523,0.002678,0.000431,0.000235
18294000,0.0324,0.013523,0.002678,0.000431,0.000353
18295000,0.0324,0.013523,0.002678,0.000431,0.000470
18296000,0.0324,0.013523,0.002678,0.000431,0.000353
18297000,0.0324,0.013523,0.002678,0.000431,0.000118
18298000,0.0324,0.013523,0.002678,0.000431,0.000470
18299000,0.0324,0.013523,0.002678,0.000431,0.000353
18300000,0.0324,0.013523,0.002678,0.000431,0.000235
18301000,0.0324,0.013523,0.002678,0.000431,0.000353
18302000,0.0324,0.013523,0.002678,0.000431,0.000470
18303000,0.0324,0.013523,0.002678,0.000431,0.000235
18304000,0.0324,0.013523,0.002678,0.000431,0.000235
18305000,0.0324,0.013523,0.002678,0.000431,0.000470
18306000,0.0324,0.013523,0.002678,0.000431,0.000353
18307000,0.0324,0.013523,0.002678,0.000431,0.000235
18308000,0.0324,0.013523,0.002678,0.000431,0.000353
18309000,0.0324,0.013523,0.002678,0.000431,0.000470
18310000,0.0324,0.013523,0.002678,0.000431,0.000235
18311000,0.0324,0.013523,0.002678,0.000431,0.000235
18312000,0.0324,0.013523,0.002678,0.000431,0.000470
18313000,0.0324,0.013523,0.002678,0.000431,0.000353
18314000,0.0324,0.013523,0.002678,0.000431,0.000235
18315000,0.0324,0.013523,0.002678,0.000431,0.000353
18316000,0.0324,0.013523,0.002678,0.000431,0.000470
18317000,0.0324,0.013523,0.002678,0.000431,0.000235
18318000,0.0324,0.013523,0.002678,0.000431,0.000235
18319000,0.0324,0.013523,0.002678,0.000431,0.000470
18320000,0.0324,0.013523,0.002678,0.000431,0.000353
18321000,0.0324,0.013523,0.002678,0.000431,0.000235
18322000,0.0324,0.013523,0.002678,0.000431,0.000353
18323000,0.0324,0.013523,0.002678,0.000431,0.000470
18324000,0.0324,0.013523,0.002678,0.000431,0.000235
18325000,0.0324,0.013523,0.002678,0.000431,0.000235
18326000,0.0324,0.013523,0.002678,0.000431,0.000470
18327000,0.0324,0.013523,0.002678,0.000431,0.000353
18328000,0.0324,0.013523,0.002678,0.000431,0.000235
18329000,0.0324,0.013523,0.002678,0.000431,0.000353
18330000,0.0324,0.013523,0.002678,0.000431,0.000470
18331000,0.0324,0.013523,0.002678,0.000431,0.000235
18332000,0.0324,0.013523,0.002678,0.000431,0.000235
18333000,0.0324,0.013523,0.002678,0.000431,0.000470
18334000,0.0324,0.013523,0.002678,0.000431,0.000353
18335000,0.0324,0.013523,0.002678,0.000431,0.000235
18336000,0.0324,0.013523,0.002678,0.000431,0.000353
18337000,0.0324,0.013523,0.002678,0.000431,0.000470
18338000,0.0324,0.013523,0.002678,0.000431,0.000235
18339000,0.0324,0.013523,0.002678,0.000431,0.000235
18340000,0.0324,0.013523,0.002678,0.000431,0.000470
18341000,0.0324,0.013523,0.002678,0.000431,0.000353
18342000,0.0324,0.013523,0.002678,0.000431,0.000235
18343000,0.0324,0.013523,0.002678,0.000431,0.000353
18344000,0.0324,0.013523,0.002678,0.000431,0.000470
18345000,0.0324,0.013523,0.002678,0.000431,0.000118
18346000,0.0324,0.013523,0.002678,0.000431,0.000353
18347000,0.0324,0.013523,0.002678,0.000431,0.000470
18348000,0.0324,0.013523,0.002678,0.000431,0.000353
18349000,0.0324,0.013523,0.002678,0.000431,0.000235
18350000,0.0324,0.013523,0.002678,0.000431,0.000353
18351000,0.0324,0.013523,0.002678,0.000431,0.000470
18352000,0.0324,0.013523,0.002678,0.000431,0.000118
18353000,0.0324,0.013523,0.002678,0.000431,0.000353
18354000,0.0324,0.013523,0.002678,0.000431,0.000470
18355000,0.0324,0.013523,0.002678,0.000431,0.000353
18356000,0.0324,0.013523,0.002678,0.000431,0.000235
18357000,0.0324,0.013523,0.002678,0.000431,0.000353
18358000,0.0324,0.013523,0.002678,0.000431,0.000470
18359000,0.0324,0.013523,0.002678,0.000431,0.000118
18360000,0.0324,0.013523,0.002678,0.000431,0.000353
18361000,0.0324,0.013523,0.002678,0.000431,0.000470
18362000,0.0324,0.013523,0.002678,0.000431,0.000353
18363000,0.0324,0.013523,0.002678,0.000431,0.000235
18364000,0.0324,0.013523,0.002678,0.000431,0.000353
18365000,0.0324,0.013523,0.002678,0.000431,0.000353
18366000,0.0324,0.013523,0.002678,0.000431,0.000235
18367000,0.0324,0.013523,0.002678,0.000431,0.000353
18368000,0.0324,0.013523,0.002678,0.000431,0.000470
18369000,0.0324,0.013523,0.002678,0.000431,0.000353
18370000,0.0324,0.013523,0.002678,0.000431,0.000235
18371000,0.0324,0.013523,0.002678,0.000431,0.000353
18372000,0.0324,0.013523,0.002678,0.000431,0.000353
18373000,0.0324,0.013523,0.002678,0.000431,0.000235
18374000,0.0324,0.013523,0.002678,0.000431,0.000353
18375000,0.0324,0.013523,0.002678,0.000431,0.000470
18376000,0.0324,0.013523,0.002678,0.000431,0.000353
18377000,0.0324,0.013523,0.002678,0.000431,0.000235
18378000,0.0324,0.013523,0.002678,0.000431,0.000353
18379000,0.0324,0.013523,0.002678,0.000431,0.000353
18380000,0.0324,0.013523,0.002678,0.000431,0.000235
18381000,0.0324,0.013523,0.002678,0.000431,0.000353
18382000,0.0324,0.013523,0.002678,0.000431,0.000470
18383000,0.0324,0.013523,0.002678,0.000431,0.000353
18384000,0.0324,0.013523,0.002678,0.000431,0.000235
18385000,0.0324,0.013523,0.002678,0.000431,0.000353
18386000,0.0324,0.013523,0.002678,0.000431,0.000353
18387000,0.0324,0.013523,0.002678,0.000431,0.000235
18388000,0.0324,0.013523,0.002678,0.000431,0.000353
18389000,0.0324,0.013523,0.002678,0.000431,0.000470
18390000,0.0324,0.013523,0.002678,0.000431,0.000353
18391000,0.0324,0.013523,0.002678,0.000431,0.000235
18392000,0.0324,0.013523,0.002678,0.000431,0.000353
18393000,0.0324,0.013523,0.002678,0.000431,0.000353
18394000,0.0324,0.013523,0.002678,0.000431,0.000235
18395000,0.0324,0.013523,0.002678,0.000431,0.000353
18396000,0.0324,0.013523,0.002678,0.000431,0.000470
18397000,0.0324,0.013523,0.002678,0.000431,0.000353
18398000,0.0324,0.013523,0.002678,0.000431,0.000235
18399000,0.0324,0.013523,0.002678,0.000431,0.000353
18400000,0.0324,0.013523,0.002678,0.000431,0.000353
18401000,0.0324,0.013523,0.002678,0.000431,0.000235
18402000,0.0324,0.013523,0.002678,0.000431,0.000353
18403000,0.0324,0.013523,0.002678,0.000431,0.000470
18404000,0.0324,0.013523,0.002678,0.000431,0.000353
18405000,0.0324,0.013523,0.002678,0.000431,0.000235
18406000,0.0324,0.013523,0.002678,0.000431,0.000353
18407000,0.0324,0.013523,0.002678,0.000431,0.000353
18408000,0.0324,0.013523,0.002678,0.000431,0.000235
18409000,0.0324,0.013523,0.002678,0.000431,0.000353
18410000,0.0324,0.013523,0.002678,0.000431,0.000470
18411000,0.0324,0.013523,0.002678,0.000431,0.000353
18412000,0.0324,0.013523,0.002678,0.000431,0.000235
18413000,0.0324,0.013523,0.002678,0.000431,0.000353
18414000,0.0324,0.013523,0.002678,0.000431,0.000353
18415000,0.0324,0.013523,0.002678,0.000431,0.000235
18416000,0.0324,0.013523,0.002678,0.000431,0.000353
18417000,0.0324,0.013523,0.002678,0.000431,0.000470
18418000,0.0324,0.013523,0.002678,0.000431,0.000353
18419000,0.0324,0.013523,0.002678,0.000431,0.000118
18420000,0.0324,0.013523,0.002678,0.000431,0.000470
18421000,0.0324,0.013523,0.002678,0.000431,0.000353
18422000,0.0324,0.013523,0.002678,0.000431,0.000235
18423000,0.0324,0.013523,0.002678,0.000431,0.000353
18424000,0.0324,0.013523,0.002678,0.000431,0.000470
18425000,0.0324,0.013523,0.002678,0.000431,0.000353
18426000,0.0324,0.013523,0.002678,0.000431,0.000118
18427000,0.0324,0.013523,0.002678,0.000431,0.000470
18428000,0.0324,0.013523,0.002678,0.000431,0.000353
18429000,0.0324,0.013523,0.002678,0.000431,0.000235
18430000,0.0324,0.013523,0.002678,0.000431,0.000353
18431000,0.0324,0.013523,0.002678,0.000431,0.000470
18432000,0.0324,0.013523,0.002678,0.000431,0.000353
18433000,0.0324,0.013523,0.002678,0.000431,0.000118
18434000,0.0324,0.013523,0.002678,0.000431,0.000470
18435000,0.0324,0.013523,0.002678,0.000431,0.000353
18436000,0.0324,0.013523,0.002678,0.000431,0.000235
18437000,0.0324,0.013523,0.002678,0.000431,0.000353
18438000,0.0324,0.013523,0.002678,0.000431,0.000470
18439000,0.0324,0.013523,0.002678,0.000431,0.000235
18440000,0.0324,0.013523,0.002678,0.000431,0.000235
18441000,0.0324,0.013523,0.002678,0.000431,0.000470
18442000,0.0324,0.013523,0.002678,0.000431,0.000353
18443000,0.0324,0.013523,0.002678,0.000431,0.000235
18444000,0.0324,0.013523,0.002678,0.000431,0.000353
18445000,0.0324,0.013523,0.002678,0.000431,0.000470
18446000,0.0324,0.013523,0.002678,0.000431,0.000235
18447000,0.0324,0.013523,0.002678,0.000431,0.000235
18448000,0.0324,0.013523,0.002678,0.000431,0.000470
18449000,0.0324,0.013523,0.002678,0.000431,0.000353
18450000,0.0324,0.013523,0.002678,0.000431,0.000235
18451000,0.0324,0.013523,0.002678,0.000431,0.000353
18452000,0.0324,0.013523,0.002678,0.000431,0.000470
18453000,0.0324,0.013523,0.002678,0.000431,0.000235
18454000,0.0324,0.013523,0.002678,0.000431,0.000235
18455000,0.0324,0.013523,0.002678,0.000431,0.000470
18456000,0.0324,0.013523,0.002678,0.000431,0.000353
18457000,0.0324,0.013523,0.002678,0.000431,0.000235
18458000,0.0324,0.013523,0.002678,0.000431,0.000353
18459000,0.0324,0.013523,0.002678,0.000431,0.000470
18460000,0.0324,0.013523,0.002678,0.000431,0.000235
18461000,0.0324,0.013523,0.002678,0.000431,0.000235
18462000,0.0324,0.013523,0.002678,0.000431,0.000470
18463000,0.0324,0.013523,0.002678,0.000431,0.000353
18464000,0.0324,0.013523,0.002678,0.000431,0.000235
18465000,0.0324,0.013523,0.002678,0.000431,0.000353
18466000,0.0324,0.013523,0.002678,0.000431,0.000470
18467000,0.0324,0.013523,0.002678,0.000431,0.000235
18468000,0.0324,0.013523,0.002678,0.000431,0.000235
18469000,0.0324,0.013523,0.002678,0.000431,0.000470
18470000,0.0324,0.013523,0.002678,0.000431,0.000353
18471000,0.0324,0.013523,0.002678,0.000431,0.000235
18472000,0.0324,0.013523,0.002678,0.000431,0.000353
18473000,0.0324,0.013523,0.002678,0.000431,0.000470
18474000,0.0324,0.013523,0.002678,0.000431,0.000235
18475000,0.0324,0.013523,0.002678,0.000431,0.000235
18476000,0.0324,0.013523,0.002678,0.000431,0.000470
18477000,0.0324,0.013523,0.002678,0.000431,0.000353
18478000,0.0324,0.013523,0.002678,0.000431,0.000235
18479000,0.0324,0.013523,0.002678,0.000431,0.000353
18480000,0.0324,0.013523,0.002678,0.000431,0.000470
18481000,0.0324,0.013523,0.002678,0.000431,0.000118
18482000,0.0324,0.013523,0.002678,0.000431,0.000353
18483000,0.0324,0.013523,0.002678,0.000431,0.000470
18484000,0.0324,0.013523,0.002678,0.000431,0.000353
18485000,0.0324,0.013523,0.002678,0.000431,0.000235
18486000,0.0324,0.013523,0.002678,0.000431,0.000353
18487000,0.0324,0.013523,0.002678,0.000431,0.000470
18488000,0.0324,0.013523,0.002678,0.000431,0.000118
18489000,0.0324,0.013523,0.002678,0.000431,0.000353
18490000,0.0324,0.013523,0.002678,0.000431,0.000470
18491000,0.0324,0.013523,0.002678,0.000431,0.000353
18492000,0.0324,0.013523,0.002678,0.000431,0.000235
18493000,0.0324,0.013523,0.002678,0.000431,0.000353
18494000,0.0324,0.013523,0.002678,0.000431,0.000470
18495000,0.0324,0.013523,0.002678,0.000431,0.000118
18496000,0.0324,0.013523,0.002678,0.000431,0.000353
18497000,0.0324,0.013523,0.002678,0.000431,0.000470
18498000,0.0324,0.013523,0.002678,0.000431,0.000353
18499000,0.0324,0.013523,0.002678,0.000431,0.000235
18500000,0.0324,0.013523,0.002678,0.000431,0.000353
18501000,0.0324,0.013523,0.002678,0.000431,0.000470
18502000,0.0324,0.013523,0.002678,0.000431,0.000118
18503000,0.0324,0.013523,0.002678,0.000431,0.000353
18504000,0.0324,0.013523,0.002678,0.000431,0.000470
18505000,0.0324,0.013523,0.002678,0.000431,0.000353
18506000,0.0324,0.013523,0.002678,0.000431,0.000235
18507000,0.0324,0.013523,0.002678,0.000431,0.000353
18508000,0.0324,0.013523,0.002678,0.000431,0.000353
18509000,0.0324,0.013523,0.002678,0.000431,0.000235
18510000,0.0324,0.013523,0.002678,0.000431,0.000353
18511000,0.0324,0.013523,0.002678,0.000431,0.000470
18512000,0.0324,0.013523,0.002678,0.000431,0.000353
18513000,0.0324,0.013523,0.002678,0.000431,0.000235
18514000,0.0324,0.013523,0.002678,0.000431,0.000353
18515000,0.0324,0.013523,0.002678,0.000431,0.000353
18516000,0.0324,0.013523,0.002678,0.000431,0.000235
18517000,0.0324,0.013523,0.002678,0.000431,0.000353
18518000,0.0324,0.013523,0.002678,0.000431,0.000470
18519000,0.0324,0.013523,0.002678,0.000431,0.000353
18520000,0.0324,0.013523,0.002678,0.000431,0.000235
18521000,0.0324,0.013523,0.002678,0.000431,0.000353
18522000,0.0324,0.013523,0.002678,0.000431,0.000353
18523000,0.0324,0.013523,0.002678,0.000431,0.000235
18524000,0.0324,0.013523,0.002678,0.000431,0.000353
18525000,0.0324,0.013523,0.002678,0.000431,0.000470
18526000,0.0324,0.013523,0.002678,0.000431,0.000353
18527000,0.0324,0.013523,0.002678,0.000431,0.000235
18528000,0.0324,0.013523,0.002678,0.000431,0.000353
18529000,0.0324,0.013523,0.002678,0.000431,0.000353
18530000,0.0324,0.013523,0.002678,0.000431,0.000235
18531000,0.0324,0.013523,0.002678,0.000431,0.000353
18532000,0.0324,0.013523,0.002678,0.000431,0.000470
18533000,0.0324,0.013523,0.002678,0.000431,0.000353
18534000,0.0324,0.013523,0.002678,0.000431,0.000235
18535000,0.0324,0.013523,0.002678,0.000431,0.000353
18536000,0.0324,0.013523,0.002678,0.000431,0.000353
18537000,0.0324,0.013523,0.002678,0.000431,0.000235
18538000,0.0324,0.013523,0.002678,0.000431,0.000353
18539000,0.0324,0.013523,0.002678,0.000431,0.000470
18540000,0.0324,0.013523,0.002678,0.000431,0.000353
18541000,0.0324,0.013523,0.002678,0.000431,0.000235
18542000,0.0324,0.013523,0.002678,0.000431,0.000353
18543000,0.0324,0.013523,0.002678,0.000431,0.000353
18544000,0.0324,0.013523,0.002678,0.000431,0.000235
18545000,0.0324,0.013523,0.002678,0.000431,0.000353
18546000,0.0324,0.013523,0.002678,0.000431,0.000470
18547000,0.0324,0.013523,0.002678,0.000431,0.000353
18548000,0.0324,0.013523,0.002678,0.000431,0.000235
18549000,0.0324,0.013523,0.002678,0.000431,0.000353
18550000,0.0324,0.013523,0.002678,0.000431,0.000353
18551000,0.0324,0.013523,0.002678,0.000431,0.000235
18552000,0.0324,0.013523,0.002678,0.000431,0.000353
18553000,0.0324,0.013523,0.002678,0.000431,0.000470
18554000,0.0324,0.013523,0.002678,0.000431,0.000353
18555000,0.0324,0.013523,0.002678,0.000431,0.000235
18556000,0.0324,0.013523,0.002678,0.000431,0.000353
18557000,0.0324,0.013523,0.002678,0.000431,0.000353
18558000,0.0324,0.013523,0.002678,0.000431,0.000235
18559000,0.0324,0.013523,0.002678,0.000431,0.000353
18560000,0.0324,0.013523,0.002678,0.000431,0.000470
18561000,0.0324,0.013523,0.002678,0.000431,0.000353
18562000,0.0324,0.013523,0.002678,0.000431,0.000118
18563000,0.0324,0.013523,0.002678,0.000431,0.000470
18564000,0.0324,0.013523,0.002678,0.000431,0.000353
18565000,0.0324,0.013523,0.002678,0.000431,0.000235
18566000,0.0324,0.013523,0.002678,0.000431,0.000353
18567000,0.0324,0.013523,0.002678,0.000431,0.000470
18568000,0.0324,0.013523,0.002678,0.000431,0.000353
18569000,0.0324,0.013523,0.002678,0.000431,0.000118
18570000,0.0324,0.013523,0.002678,0.000431,0.000470
18571000,0.0324,0.013523,0.002678,0.000431,0.000353
18572000,0.0324,0.013523,0.002678,0.000431,0.000235
18573000,0.0324,0.013523,0.002678,0.000431,0.000353
18574000,0.0324,0.013523,0.002678,0.000431,0.000470
18575000,0.0324,0.013523,0.002678,0.000431,0.000353
18576000,0.0324,0.013523,0.002678,0.000431,0.000118
18577000,0.0324,0.013523,0.002678,0.000431,0.000470
18578000,0.0324,0.013523,0.002678,0.000431,0.000353
18579000,0.0324,0.013523,0.002678,0.000431,0.000235
18580000,0.0324,0.013523,0.002678,0.000431,0.000353
18581000,0.0324,0.013523,0.002678,0.000431,0.000470
18582000,0.0324,0.013523,0.002678,0.000431,0.000235
18583000,0.0324,0.013523,0.002678,0.000431,0.000235
18584000,0.0324,0.013523,0.002678,0.000431,0.000470
18585000,0.0324,0.013523,0.002678,0.000431,0.000353
18586000,0.0324,0.013523,0.002678,0.000431,0.000235
18587000,0.0324,0.013523,0.002678,0.000431,0.000353
18588000,0.0324,0.013523,0.002678,0.000431,0.000470
18589000,0.0324,0.013523,0.002678,0.000431,0.000235
18590000,0.0324,0.013523,0.002678,0.000431,0.000235
18591000,0.0324,0.013523,0.002678,0.000431,0.000470
18592000,0.0324,0.013523,0.002678,0.000431,0.000353
18593000,0.0324,0.013523,0.002678,0.000431,0.000235
18594000,0.0324,0.013523,0.002678,0.000431,0.000353
18595000,0.0324,0.013523,0.002678,0.000431,0.000470
18596000,0.0324,0.013523,0.002678,0.000431,0.000235
18597000,0.0324,0.013523,0.002678,0.000431,0.000235
18598000,0.0324,0.013523,0.002678,0.000431,0.000470
18599000,0.0324,0.013523,0.002678,0.000431,0.000353
18600000,0.0324,0.013523,0.002678,0.000431,0.000235
18601000,0.0324,0.013523,0.002678,0.000431,0.000353
18602000,0.0324,0.013523,0.002678,0.000431,0.000470
18603000,0.0324,0.013523,0.002678,0.000431,0.000235
18604000,0.0324,0.013523,0.002678,0.000431,0.000235
18605000,0.0324,0.013523,0.002678,0.000431,0.000470
18606000,0.0324,0.013523,0.002678,0.000431,0.000353
18607000,0.0324,0.013523,0.002678,0.000431,0.000235
18608000,0.0324,0.013523,0.002678,0.000431,0.000353
18609000,0.0324,0.013523,0.002678,0.000431,0.000470
18610000,0.0324,0.013523,0.002678,0.000431,0.000235
18611000,0.0324,0.013523,0.002678,0.000431,0.000235
18612000,0.0324,0.013523,0.002678,0.000431,0.000470
18613000,0.0324,0.013523,0.002678,0.000431,0.000353
18614000,0.0324,0.013523,0.002678,0.000431,0.000235
18615000,0.0324,0.013523,0.002678,0.000431,0.000353
18616000,0.0324,0.013523,0.002678,0.000431,0.000470
18617000,0.0324,0.013523,0.002678,0.000431,0.000235
18618000,0.0324,0.013523,0.002678,0.000431,0.000235
18619000,0.0324,0.013523,0.002678,0.000431,0.000470
18620000,0.0324,0.013523,0.002678,0.000431,0.000353
18621000,0.0324,0.013523,0.002678,0.000431,0.000235
18622000,0.0324,0.013523,0.002678,0.000431,0.000353
18623000,0.0324,0.013523,0.002678,0.000431,0.000470
18624000,0.0324,0.013523,0.002678,0.000431,0.000118
18625000,0.0324,0.013523,0.002678,0.000431,0.000353
18626000,0.0324,0.013523,0.002678,0.000431,0.000470
18627000,0.0324,0.013523,0.002678,0.000431,0.000353
18628000,0.0324,0.013523,0.002678,0.000431,0.000235
18629000,0.0324,0.013523,0.002678,0.000431,0.000353
18630000,0.0324,0.013523,0.002678,0.000431,0.000470
18631000,0.0324,0.013523,0.002678,0.000431,0.000118
18632000,0.0324,0.013523,0.002678,0.000431,0.000353
18633000,0.0324,0.013523,0.002678,0.000431,0.000470
18634000,0.0324,0.013523,0.002678,0.000431,0.000353
18635000,0.0324,0.013523,0.002678,0.000431,0.000235
18636000,0.0324,0.013523,0.002678,0.000431,0.000353
18637000,0.0324,0.013523,0.002678,0.000431,0.000470
18638000,0.0324,0.013523,0.002678,0.000431,0.000118
18639000,0.0324,0.013523,0.002678,0.000431,0.000353
18640000,0.0324,0.013523,0.002678,0.000431,0.000470
18641000,0.0324,0.013523,0.002678,0.000431,0.000353
18642000,0.0324,0.013523,0.002678,0.000431,0.000235
18643000,0.0324,0.013523,0.002678,0.000431,0.000353
18644000,0.0324,0.013523,0.002678,0.000431,0.000353
18645000,0.0324,0.013523,0.002678,0.000431,0.000235
18646000,0.0324,0.013523,0.002678,0.000431,0.000353
18647000,0.0324,0.013523,0.002678,0.000431,0.000470
18648000,0.0324,0.013523,0.002678,0.000431,0.000353
18649000,0.0324,0.013523,0.002678,0.000431,0.000235
18650000,0.0324,0.013523,0.002678,0.000431,0.000353
18651000,0.0324,0.013523,0.002678,0.000431,0.000353
18652000,0.0324,0.013523,0.002678,0.000431,0.000235
18653000,0.0324,0.013523,0.002678,0.000431,0.000353
18654000,0.0324,0.013523,0.002678,0.000431,0.000470
18655000,0.0324,0.013523,0.002678,0.000431,0.000353
18656000,0.0324,0.013523,0.002678,0.000431,0.000235
18657000,0.0324,0.013523,0.002678,0.000431,0.000353
18658000,0.0324,0.013523,0.002678,0.000431,0.000353
18659000,0.0324,0.013523,0.002678,0.000431,0.000235
18660000,0.0324,0.013523,0.002678,0.000431,0.000353
18661000,0.0324,0.013523,0.002678,0.000431,0.000470
18662000,0.0324,0.013523,0.002678,0.000431,0.000353
18663000,0.0324,0.013523,0.002678,0.000431,0.000235
18664000,0.0324,0.013523,0.002678,0.000431,0.000353
18665000,0.0324,0.013523,0.002678,0.000431,0.000353
18666000,0.0324,0.013523,0.002678,0.000431,0.000235
18667000,0.0324,0.013523,0.002678,0.000431,0.000353
18668000,0.0324,0.013523,0.002678,0.000431,0.000470
18669000,0.0324,0.013523,0.002678,0.000431,0.000353
18670000,0.0324,0.013523,0.002678,0.000431,0.000235
18671000,0.0324,0.013523,0.002678,0.000431,0.000353
18672000,0.0324,0.013523,0.002678,0.000431,0.000353
18673000,0.0324,0.013523,0.002678,0.000431,0.000235
18674000,0.0324,0.013523,0.002678,0.000431,0.000353
18675000,0.0324,0.013523,0.002678,0.000431,0.000470
18676000,0.0324,0.013523,0.002678,0.000431,0.000353
18677000,0.0324,0.013523,0.002678,0.000431,0.000235
18678000,0.0324,0.013523,0.002678,0.000431,0.000353
18679000,0.0324,0.013523,0.002678,0.000431,0.000353
18680000,0.0324,0.013523,0.002678,0.000431,0.000235
18681000,0.0324,0.013523,0.002678,0.000431,0.000353
18682000,0.0324,0.013523,0.002678,0.000431,0.000470
18683000,0.0324,0.013523,0.002678,0.000431,0.000353
18684000,0.0324,0.013523,0.002678,0.000431,0.000235
18685000,0.0324,0.013523,0.002678,0.000431,0.000353
18686000,0.0324,0.013523,0.002678,0.000431,0.000353
18687000,0.0324,0.013523,0.002678,0.000431,0.000235
18688000,0.0324,0.013523,0.002678,0.000431,0.000353
18689000,0.0324,0.013523,0.002678,0.000431,0.000470
18690000,0.0324,0.013523,0.002678,0.000431,0.000353
18691000,0.0324,0.013523,0.002678,0.000431,0.000235
18692000,0.0324,0.013523,0.002678,0.000431,0.000353
18693000,0.0324,0.013523,0.002678,0.000431,0.000353
18694000,0.0324,0.013523,0.002678,0.000431,0.000235
18695000,0.0324,0.013523,0.002678,0.000431,0.000353
18696000,0.0324,0.013523,0.002678,0.000431,0.000470
18697000,0.0324,0.013523,0.002678,0.000431,0.000353
18698000,0.0324,0.013523,0.002678,0.000431,0.000118
18699000,0.0324,0.013523,0.002678,0.000431,0.000470
18700000,0.0324,0.013523,0.002678,0.000431,0.000353
18701000,0.0324,0.013523,0.002678,0.000431,0.000235
18702000,0.0324,0.013523,0.002678,0.000431,0.000353
18703000,0.0324,0.013523,0.002678,0.000431,0.000470
18704000,0.0324,0.013523,0.002678,0.000431,0.000353
18705000,0.0324,0.013523,0.002678,0.000431,0.000118
18706000,0.0324,0.013523,0.002678,0.000431,0.000470
18707000,0.0324,0.013523,0.002678,0.000431,0.000353
18708000,0.0324,0.013523,0.002678,0.000431,0.000235
18709000,0.0324,0.013523,0.002678,0.000431,0.000353
18710000,0.0324,0.013523,0.002678,0.000431,0.000470
18711000,0.0324,0.013523,0.002678,0.000431,0.000353
18712000,0.0324,0.013523,0.002678,0.000431,0.000118
18713000,0.0324,0.013523,0.002678,0.000431,0.000470
18714000,0.0324,0.013523,0.002678,0.000431,0.000353
18715000,0.0324,0.013523,0.002678,0.000431,0.000235
18716000,0.0324,0.013523,0.002678,0.000431,0.000353
18717000,0.0324,0.013523,0.002678,0.000431,0.000470
18718000,0.0324,0.013523,0.002678,0.000431,0.000353
18719000,0.0324,0.013523,0.002678,0.000431,0.000118
18720000,0.0324,0.013523,0.002678,0.000431,0.000470
18721000,0.0324,0.013523,0.002678,0.000431,0.000353
18722000,0.0324,0.013523,0.002678,0.000431,0.000235
18723000,0.0324,0.013523,0.002678,0.000431,0.000353
18724000,0.0324,0.013523,0.002678,0.000431,0.000470
18725000,0.0324,0.013523,0.002678,0.000431,0.000235
18726000,0.0324,0.013523,0.002678,0.000431,0.000235
18727000,0.0324,0.013523,0.002678,0.000431,0.000470
18728000,0.0324,0.013523,0.002678,0.000431,0.000353
18729000,0.0324,0.013523,0.002678,0.000431,0.000235
18730000,0.0324,0.013523,0.002678,0.000431,0.000353
18731000,0.0324,0.013523,0.002678,0.000431,0.000470
18732000,0.0324,0.013523,0.002678,0.000431,0.000235
18733000,0.0324,0.013523,0.002678,0.000431,0.000235
18734000,0.0324,0.013523,0.002678,0.000431,0.000470
18735000,0.0324,0.013523,0.002678,0.000431,0.000353
18736000,0.0324,0.013523,0.002678,0.000431,0.000235
18737000,0.0324,0.013523,0.002678,0.000431,0.000353
18738000,0.0324,0.013523,0.002678,0.000431,0.000470
18739000,0.0324,0.013523,0.002678,0.000431,0.000235
18740000,0.0324,0.013523,0.002678,0.000431,0.000235
18741000,0.0324,0.013523,0.002678,0.000431,0.000470
18742000,0.0324,0.013523,0.002678,0.000431,0.000353
18743000,0.0324,0.013523,0.002678,0.000431,0.000235
18744000,0.0324,0.013523,0.002678,0.000431,0.000353
18745000,0.0324,0.013523,0.002678,0.000431,0.000470
18746000,0.0324,0.013523,0.002678,0.000431,0.000235
18747000,0.0324,0.013523,0.002678,0.000431,0.000235
18748000,0.0324,0.013523,0.002678,0.000431,0.000470
18749000,0.0324,0.013523,0.002678,0.000431,0.000353
18750000,0.0324,0.013523,0.002678,0.000431,0.000235
18751000,0.0324,0.013523,0.002678,0.000431,0.000353
18752000,0.0324,0.013523,0.002678,0.000431,0.000470
18753000,0.0324,0.013523,0.002678,0.000431,0.000118
18754000,0.0324,0.013523,0.002678,0.000431,0.000353
18755000,0.0324,0.013523,0.002678,0.000431,0.000470
18756000,0.0324,0.013523,0.002678,0.000431,0.000353
18757000,0.0324,0.013523,0.002678,0.000431,0.000235
18758000,0.0324,0.013523,0.002678,0.000431,0.000353
18759000,0.0324,0.013523,0.002678,0.000431,0.000470
18760000,0.0324,0.013523,0.002678,0.000431,0.000118
18761000,0.0324,0.013523,0.002678,0.000431,0.000353
18762000,0.0324,0.013523,0.002678,0.000431,0.000470
18763000,0.0324,0.013523,0.002678,0.000431,0.000353
18764000,0.0324,0.013523,0.002678,0.000431,0.000235
18765000,0.0324,0.013523,0.002678,0.000431,0.000353
18766000,0.0324,0.013523,0.002678,0.000431,0.000470
18767000,0.0324,0.013523,0.002678,0.000431,0.000118
18768000,0.0324,0.013523,0.002678,0.000431,0.000353
18769000,0.0324,0.013523,0.002678,0.000431,0.000470
18770000,0.0324,0.013523,0.002678,0.000431,0.000353
18771000,0.0324,0.013523,0.002678,0.000431,0.000235
18772000,0.0324,0.013523,0.002678,0.000431,0.000353
18773000,0.0324,0.013523,0.002678,0.000431,0.000353
18774000,0.0324,0.013523,0.002678,0.000431,0.000235
18775000,0.0324,0.013523,0.002678,0.000431,0.000353
18776000,0.0324,0.013523,0.002678,0.000431,0.000470
18777000,0.0324,0.013523,0.002678,0.000431,0.000353
18778000,0.0324,0.013523,0.002678,0.000431,0.000235
18779000,0.0324,0.013523,0.002678,0.000431,0.000353
18780000,0.0324,0.013523,0.002678,0.000431,0.000353
18781000,0.0324,0.013523,0.002678,0.000431,0.000235
18782000,0.0324,0.013523,0.002678,0.000431,0.000353
18783000,0.0324,0.013523,0.002678,0.000431,0.000470
18784000,0.0324,0.013523,0.002678,0.000431,0.000353
18785000,0.0324,0.013523,0.002678,0.000431,0.000235
18786000,0.0324,0.013523,0.002678,0.000431,0.000353
18787000,0.0324,0.013523,0.002678,0.000431,0.000353
18788000,0.0324,0.013523,0.002678,0.000431,0.000235
18789000,0.0324,0.013523,0.002678,0.000431,0.000353
18790000,0.0324,0.013523,0.002678,0.000431,0.000470
18791000,0.0324,0.013523,0.002678,0.000431,0.000353
18792000,0.0324,0.013523,0.002678,0.000431,0.000235
18793000,0.0324,0.013523,0.002678,0.000431,0.000353
18794000,0.0324,0.013523,0.002678,0.000431,0.000353
18795000,0.0324,0.013523,0.002678,0.000431,0.000235
18796000,0.0324,0.013523,0.002678,0.000431,0.000353
18797000,0.0324,0.013523,0.002678,0.000431,0.000470
18798000,0.0324,0.013523,0.002678,0.000431,0.000353
18799000,0.0324,0.013523,0.002678,0.000431,0.000235
18800000,0.0324,0.013523,0.002678,0.000431,0.000353
18801000,0.0324,0.013523,0.002678,0.000431,0.000353
18802000,0.0324,0.013523,0.002678,0.000431,0.000235
18803000,0.0324,0.013523,0.002678,0.000431,0.000353
18804000,0.0324,0.013523,0.002678,0.000431,0.000470
18805000,0.0324,0.013523,0.002678,0.000431,0.000353
18806000,0.0324,0.013523,0.002678,0.000431,0.000235
18807000,0.0324,0.013523,0.002678,0.000431,0.000353
18808000,0.0324,0.013523,0.002678,0.000431,0.000353
18809000,0.0324,0.013523,0.002678,0.000431,0.000235
18810000,0.0324,0.013523,0.002678,0.000431,0.000353
18811000,0.0324,0.013523,0.002678,0.000431,0.000470
18812000,0.0324,0.013523,0.002678,0.000431,0.000353
18813000,0.0324,0.013523,0.002678,0.000431,0.000118
18814000,0.0324,0.013523,0.002678,0.000431,0.000470
18815000,0.0324,0.013523,0.002678,0.000431,0.000353
18816000,0.0324,0.013523,0.002678,0.000431,0.000235
18817000,0.0324,0.013523,0.002678,0.000431,0.000353
18818000,0.0324,0.013523,0.002678,0.000431,0.000470
18819000,0.0324,0.013523,0.002678,0.000431,0.000353
18820000,0.0324,0.013523,0.002678,0.000431,0.000118
18821000,0.0324,0.013523,0.002678,0.000431,0.000470
18822000,0.0324,0.013523,0.002678,0.000431,0.000353
18823000,0.0324,0.013523,0.002678,0.000431,0.000235
18824000,0.0324,0.013523,0.002678,0.000431,0.000353
18825000,0.0324,0.013523,0.002678,0.000431,0.000470
18826000,0.0324,0.013523,0.002678,0.000431,0.000353
18827000,0.0324,0.013523,0.002678,0.000431,0.000118
18828000,0.0324,0.013523,0.002678,0.000431,0.000470
18829000,0.0324,0.013523,0.002678,0.000431,0.000353
18830000,0.0324,0.013523,0.002678,0.000431,0.000235
18831000,0.0324,0.013523,0.002678,0.000431,0.000353
18832000,0.0324,0.013523,0.002678,0.000431,0.000470
18833000,0.0324,0.013523,0.002678,0.000431,0.000235
18834000,0.0324,0.013523,0.002678,0.000431,0.000235
18835000,0.0324,0.013523,0.002678,0.000431,0.000470
18836000,0.0324,0.013523,0.002678,0.000431,0.000353
18837000,0.0324,0.013523,0.002678,0.000431,0.000235
18838000,0.0324,0.013523,0.002678,0.000431,0.000353
18839000,0.0324,0.013523,0.002678,0.000431,0.000470
18840000,0.0324,0.013523,0.002678,0.000431,0.000235
18841000,0.0324,0.013523,0.002678,0.000431,0.000235
18842000,0.0324,0.013523,0.002678,0.000431,0.000470
18843000,0.0324,0.013523,0.002678,0.000431,0.000353
18844000,0.0324,0.013523,0.002678,0.000431,0.000235
18845000,0.0324,0.013523,0.002678,0.000431,0.000353
18846000,0.0324,0.013523,0.002678,0.000431,0.000470
18847000,0.0324,0.013523,0.002678,0.000431,0.000235
18848000,0.0324,0.013523,0.002678,0.000431,0.000235
18849000,0.0324,0.013523,0.002678,0.000431,0.000470
18850000,0.0324,0.013523,0.002678,0.000431,0.000353
18851000,0.0324,0.013523,0.002678,0.000431,0.000235
18852000,0.0324,0.013523,0.002678,0.000431,0.000353
18853000,0.0324,0.013523,0.002678,0.000431,0.000470
18854000,0.0324,0.013523,0.002678,0.000431,0.000235
18855000,0.0324,0.013523,0.002678,0.000431,0.000235
18856000,0.0324,0.013523,0.002678,0.000431,0.000470
18857000,0.0324,0.013523,0.002678,0.000431,0.000353
18858000,0.0324,0.013523,0.002678,0.000431,0.000235
18859000,0.0324,0.013523,0.002678,0.000431,0.000353
18860000,0.0324,0.013523,0.002678,0.000431,0.000470
18861000,0.0324,0.013523,0.002678,0.000431,0.000235
18862000,0.0324,0.013523,0.002678,0.000431,0.000235
18863000,0.0324,0.013523,0.002678,0.000431,0.000470
18864000,0.0324,0.013523,0.002678,0.000431,0.000353
18865000,0.0324,0.013523,0.002678,0.000431,0.000235
18866000,0.0324,0.013523,0.002678,0.000431,0.000353
18867000,0.0324,0.013523,0.002678,0.000431,0.000470
18868000,0.0324,0.013523,0.002678,0.000431,0.000235
18869000,0.0324,0.013523,0.002678,0.000431,0.000235
18870000,0.0324,0.013523,0.002678,0.000431,0.000470
18871000,0.0324,0.013523,0.002678,0.000431,0.000353
18872000,0.0324,0.013523,0.002678,0.000431,0.000235
18873000,0.0324,0.013523,0.002678,0.000431,0.000353
18874000,0.0324,0.013523,0.002678,0.000431,0.000470
18875000,0.0324,0.013523,0.002678,0.000431,0.000118
18876000,0.0324,0.013523,0.002678,0.000431,0.000353
18877000,0.0324,0.013523,0.002678,0.000431,0.000470
18878000,0.0324,0.013523,0.002678,0.000431,0.000353
18879000,0.0324,0.013523,0.002678,0.000431,0.000235
18880000,0.0324,0.013523,0.002678,0.000431,0.000353
18881000,0.0324,0.013523,0.002678,0.000431,0.000470
18882000,0.0324,0.013523,0.002678,0.000431,0.000118
18883000,0.0324,0.013523,0.002678,0.000431,0.000353
18884000,0.0324,0.013523,0.002678,0.000431,0.000470
18885000,0.0324,0.013523,0.002678,0.000431,0.000353
18886000,0.0324,0.013523,0.002678,0.000431,0.000235
18887000,0.0324,0.013523,0.002678,0.000431,0.000353
18888000,0.0324,0.013523,0.002678,0.000431,0.000470
18889000,0.0324,0.013523,0.002678,0.000431,0.000118
18890000,0.0324,0.013523,0.002678,0.000431,0.000353
18891000,0.0324,0.013523,0.002678,0.000431,0.000470
18892000,0.0324,0.013523,0.002678,0.000431,0.000353
18893000,0.0324,0.013523,0.002678,0.000431,0.000235
18894000,0.0324,0.013523,0.002678,0.000431,0.000353
18895000,0.0324,0.013523,0.002678,0.000431,0.000470
18896000,0.0324,0.013523,0.002678,0.000431,0.000118
18897000,0.0324,0.013523,0.002678,0.000431,0.000353
18898000,0.0324,0.013523,0.002678,0.000431,0.000470
18899000,0.0324,0.013523,0.002678,0.000431,0.000353
18900000,0.0324,0.013523,0.002678,0.000431,0.000235
18901000,0.0324,0.013523,0.002678,0.000431,0.000353
18902000,0.0324,0.013523,0.002678,0.000431,0.000353
18903000,0.0324,0.013523,0.002678,0.000431,0.000235
18904000,0.0324,0.013523,0.002678,0.000431,0.000353
18905000,0.0324,0.013523,0.002678,0.000431,0.000470
18906000,0.0324,0.013523,0.002678,0.000431,0.000353
18907000,0.0324,0.013523,0.002678,0.000431,0.000235
18908000,0.0324,0.013523,0.002678,0.000431,0.000353
18909000,0.0324,0.013523,0.002678,0.000431,0.000353
18910000,0.0324,0.013523,0.002678,0.000431,0.000235
18911000,0.0324,0.013523,0.002678,0.000431,0.000353
18912000,0.0324,0.013523,0.002678,0.000431,0.000470
18913000,0.0324,0.013523,0.002678,0.000431,0.000353
18914000,0.0324,0.013523,0.002678,0.000431,0.000235
18915000,0.0324,0.013523,0.002678,0.000431,0.000353
18916000,0.0324,0.013523,0.002678,0.000431,0.000353
18917000,0.0324,0.013523,0.002678,0.000431,0.000235
18918000,0.0324,0.013523,0.002678,0.000431,0.000353
18919000,0.0324,0.013523,0.002678,0.000431,0.000470
18920000,0.0324,0.013523,0.002678,0.000431,0.000353
18921000,0.0324,0.013523,0.002678,0.000431,0.000235
18922000,0.0324,0.013523,0.002678,0.000431,0.000353
18923000,0.0324,0.013523,0.002678,0.000431,0.000353
18924000,0.0324,0.013523,0.002678,0.000431,0.000235
18925000,0.0324,0.013523,0.002678,0.000431,0.000353
18926000,0.0324,0.013523,0.002678,0.000431,0.000470
18927000,0.0324,0.013523,0.002678,0.000431,0.000353
18928000,0.0324,0.013523,0.002678,0.000431,0.000235
18929000,0.0324,0.013523,0.002678,0.000431,0.000353
18930000,0.0324,0.013523,0.002678,0.000431,0.000353
18931000,0.0324,0.013523,0.002678,0.000431,0.000235
18932000,0.0324,0.013523,0.002678,0.000431,0.000353
18933000,0.0324,0.013523,0.002678,0.000431,0.000470
18934000,0.0324,0.013523,0.002678,0.000431,0.000353
18935000,0.0324,0.013523,0.002678,0.000431,0.000235
18936000,0.0324,0.013523,0.002678,0.000431,0.000353
18937000,0.0324,0.013523,0.002678,0.000431,0.000353
18938000,0.0324,0.013523,0.002678,0.000431,0.000235
18939000,0.0324,0.013523,0.002678,0.000431,0.000353
18940000,0.0324,0.013523,0.002678,0.000431,0.000470
18941000,0.0324,0.013523,0.002678,0.000431,0.000353
18942000,0.0324,0.013523,0.002678,0.000431,0.000235
18943000,0.0324,0.013523,0.002678,0.000431,0.000353
18944000,0.0324,0.013523,0.002678,0.000431,0.000353
18945000,0.0324,0.013523,0.002678,0.000431,0.000235
18946000,0.0324,0.013523,0.002678,0.000431,0.000353
18947000,0.0324,0.013523,0.002678,0.000431,0.000470
18948000,0.0324,0.013523,0.002678,0.000431,0.000353
18949000,0.0324,0.013523,0.002678,0.000431,0.000235
18950000,0.0324,0.013523,0.002678,0.000431,0.000353
18951000,0.0324,0.013523,0.002678,0.000431,0.000353
18952000,0.0324,0.013523,0.002678,0.000431,0.000235
18953000,0.0324,0.013523,0.002678,0.000431,0.000353
18954000,0.0324,0.013523,0.002678,0.000431,0.000470
18955000,0.0324,0.013523,0.002678,0.000431,0.000353
18956000,0.0324,0.013523,0.002678,0.000431,0.000118
18957000,0.0324,0.013523,0.002678,0.000431,0.000470
18958000,0.0324,0.013523,0.002678,0.000431,0.000353
18959000,0.0324,0.013523,0.002678,0.000431,0.000235
18960000,0.0324,0.013523,0.002678,0.000431,0.000353
18961000,0.0324,0.013523,0.002678,0.000431,0.000470
18962000,0.0324,0.013523,0.002678,0.000431,0.000353
18963000,0.0324,0.013523,0.002678,0.000431,0.000118
18964000,0.0324,0.013523,0.002678,0.000431,0.000470
18965000,0.0324,0.013523,0.002678,0.000431,0.000353
18966000,0.0324,0.013523,0.002678,0.000431,0.000235
18967000,0.0324,0.013523,0.002678,0.000431,0.000353
18968000,0.0324,0.013523,0.002678,0.000431,0.000470
18969000,0.0324,0.013523,0.002678,0.000431,0.000353
18970000,0.0324,0.013523,0.002678,0.000431,0.000118
18971000,0.0324,0.013523,0.002678,0.000431,0.000470
18972000,0.0324,0.013523,0.002678,0.000431,0.000353
18973000,0.0324,0.013523,0.002678,0.000431,0.000235
18974000,0.0324,0.013523,0.002678,0.000431,0.000353
18975000,0.0324,0.013523,0.002678,0.000431,0.000470
18976000,0.0324,0.013523,0.002678,0.000431,0.000235
18977000,0.0324,0.013523,0.002678,0.000431,0.000235
18978000,0.0324,0.013523,0.002678,0.000431,0.000470
18979000,0.0324,0.013523,0.002678,0.000431,0.000353
18980000,0.0324,0.013523,0.002678,0.000431,0.000235
18981000,0.0324,0.013523,0.002678,0.000431,0.000353
18982000,0.0324,0.013523,0.002678,0.000431,0.000470
18983000,0.0324,0.013523,0.002678,0.000431,0.000235
18984000,0.0324,0.013523,0.002678,0.000431,0.000235
18985000,0.0324,0.013523,0.002678,0.000431,0.000470
18986000,0.0324,0.013523,0.002678,0.000431,0.000353
18987000,0.0324,0.013523,0.002678,0.000431,0.000235
18988000,0.0324,0.013523,0.002678,0.000431,0.000353
18989000,0.0324,0.013523,0.002678,0.000431,0.000470
18990000,0.0324,0.013523,0.002678,0.000431,0.000235
18991000,0.0324,0.013523,0.002678,0.000431,0.000235
18992000,0.0324,0.013523,0.002678,0.000431,0.000470
18993000,0.0324,0.013523,0.002678,0.000431,0.000353
18994000,0.0324,0.013523,0.002678,0.000431,0.000235
18995000,0.0324,0.013523,0.002678,0.000431,0.000353
18996000,0.0324,0.013523,0.002678,0.000431,0.000470
18997000,0.0324,0.013523,0.002678,0.000431,0.000235
18998000,0.0324,0.013523,0.002678,0.000431,0.000235
18999000,0.0324,0.013523,0.002678,0.000431,0.000470
