Cycle,Area(mm^2),PeakDynamic(W),SubthresholdLeakage(W),GateLeakage(W),RunTimeDynamic(W)
13000000,0.0324,0.013523,0.002678,0.000431,0.000235
13001000,0.0324,0.013523,0.002678,0.000431,0.000353
13002000,0.0324,0.013523,0.002678,0.000431,0.000470
13003000,0.0324,0.013523,0.002678,0.000431,0.000235
13004000,0.0324,0.013523,0.002678,0.000431,0.000235
13005000,0.0324,0.013523,0.002678,0.000431,0.000470
13006000,0.0324,0.013523,0.002678,0.000431,0.000353
13007000,0.0324,0.013523,0.002678,0.000431,0.000235
13008000,0.0324,0.013523,0.002678,0.000431,0.000353
13009000,0.0324,0.013523,0.002678,0.000431,0.000470
13010000,0.0324,0.013523,0.002678,0.000431,0.000235
13011000,0.0324,0.013523,0.002678,0.000431,0.000235
13012000,0.0324,0.013523,0.002678,0.000431,0.000470
13013000,0.0324,0.013523,0.002678,0.000431,0.000353
13014000,0.0324,0.013523,0.002678,0.000431,0.000235
13015000,0.0324,0.013523,0.002678,0.000431,0.000353
13016000,0.0324,0.013523,0.002678,0.000431,0.000470
13017000,0.0324,0.013523,0.002678,0.000431,0.000118
13018000,0.0324,0.013523,0.002678,0.000431,0.000353
13019000,0.0324,0.013523,0.002678,0.000431,0.000470
13020000,0.0324,0.013523,0.002678,0.000431,0.000353
13021000,0.0324,0.013523,0.002678,0.000431,0.000235
13022000,0.0324,0.013523,0.002678,0.000431,0.000353
13023000,0.0324,0.013523,0.002678,0.000431,0.000353
13024000,0.0324,0.013523,0.002678,0.000431,0.000235
13025000,0.0324,0.013523,0.002678,0.000431,0.000353
13026000,0.0324,0.013523,0.002678,0.000431,0.000470
13027000,0.0324,0.013523,0.002678,0.000431,0.000353
13028000,0.0324,0.013523,0.002678,0.000431,0.000235
13029000,0.0324,0.013523,0.002678,0.000431,0.000353
13030000,0.0324,0.013523,0.002678,0.000431,0.000353
13031000,0.0324,0.013523,0.002678,0.000431,0.000235
13032000,0.0324,0.013523,0.002678,0.000431,0.000353
13033000,0.0324,0.013523,0.002678,0.000431,0.000470
13034000,0.0324,0.013523,0.002678,0.000431,0.000353
13035000,0.0324,0.013523,0.002678,0.000431,0.000235
13036000,0.0324,0.013523,0.002678,0.000431,0.000353
13037000,0.0324,0.013523,0.002678,0.000431,0.000353
13038000,0.0324,0.013523,0.002678,0.000431,0.000235
13039000,0.0324,0.013523,0.002678,0.000431,0.000353
13040000,0.0324,0.013523,0.002678,0.000431,0.000470
13041000,0.0324,0.013523,0.002678,0.000431,0.000353
13042000,0.0324,0.013523,0.002678,0.000431,0.000118
13043000,0.0324,0.013523,0.002678,0.000431,0.000470
13044000,0.0324,0.013523,0.002678,0.000431,0.000353
13045000,0.0324,0.013523,0.002678,0.000431,0.000235
13046000,0.0324,0.013523,0.002678,0.000431,0.000353
13047000,0.0324,0.013523,0.002678,0.000431,0.000470
13048000,0.0324,0.013523,0.002678,0.000431,0.000235
13049000,0.0324,0.013523,0.002678,0.000431,0.000235
13050000,0.0324,0.013523,0.002678,0.000431,0.000470
13051000,0.0324,0.013523,0.002678,0.000431,0.000353
13052000,0.0324,0.013523,0.002678,0.000431,0.000235
13053000,0.0324,0.013523,0.002678,0.000431,0.000353
13054000,0.0324,0.013523,0.002678,0.000431,0.000470
13055000,0.0324,0.013523,0.002678,0.000431,0.000118
13056000,0.0324,0.013523,0.002678,0.000431,0.000353
13057000,0.0324,0.013523,0.002678,0.000431,0.000470
13058000,0.0324,0.013523,0.002678,0.000431,0.000353
13059000,0.0324,0.013523,0.002678,0.000431,0.000235
13060000,0.0324,0.013523,0.002678,0.000431,0.000353
13061000,0.0324,0.013523,0.002678,0.000431,0.000470
13062000,0.0324,0.013523,0.002678,0.000431,0.000118
13063000,0.0324,0.013523,0.002678,0.000431,0.000353
13064000,0.0324,0.013523,0.002678,0.000431,0.000470
13065000,0.0324,0.013523,0.002678,0.000431,0.000353
13066000,0.0324,0.013523,0.002678,0.000431,0.000235
13067000,0.0324,0.013523,0.002678,0.000431,0.000353
13068000,0.0324,0.013523,0.002678,0.000431,0.000353
13069000,0.0324,0.013523,0.002678,0.000431,0.000235
13070000,0.0324,0.013523,0.002678,0.000431,0.000353
13071000,0.0324,0.013523,0.002678,0.000431,0.000470
13072000,0.0324,0.013523,0.002678,0.000431,0.000353
13073000,0.0324,0.013523,0.002678,0.000431,0.000235
13074000,0.0324,0.013523,0.002678,0.000431,0.000353
13075000,0.0324,0.013523,0.002678,0.000431,0.000353
13076000,0.0324,0.013523,0.002678,0.000431,0.000235
13077000,0.0324,0.013523,0.002678,0.000431,0.000353
13078000,0.0324,0.013523,0.002678,0.000431,0.000470
13079000,0.0324,0.013523,0.002678,0.000431,0.000353
13080000,0.0324,0.013523,0.002678,0.000431,0.000118
13081000,0.0324,0.013523,0.002678,0.000431,0.000470
13082000,0.0324,0.013523,0.002678,0.000431,0.000353
13083000,0.0324,0.013523,0.002678,0.000431,0.000235
13084000,0.0324,0.013523,0.002678,0.000431,0.000353
13085000,0.0324,0.013523,0.002678,0.000431,0.000470
13086000,0.0324,0.013523,0.002678,0.000431,0.000353
13087000,0.0324,0.013523,0.002678,0.000431,0.000118
13088000,0.0324,0.013523,0.002678,0.000431,0.000470
13089000,0.0324,0.013523,0.002678,0.000431,0.000353
13090000,0.0324,0.013523,0.002678,0.000431,0.000235
13091000,0.0324,0.013523,0.002678,0.000431,0.000353
13092000,0.0324,0.013523,0.002678,0.000431,0.000470
13093000,0.0324,0.013523,0.002678,0.000431,0.000235
13094000,0.0324,0.013523,0.002678,0.000431,0.000235
13095000,0.0324,0.013523,0.002678,0.000431,0.000470
13096000,0.0324,0.013523,0.002678,0.000431,0.000353
13097000,0.0324,0.013523,0.002678,0.000431,0.000235
13098000,0.0324,0.013523,0.002678,0.000431,0.000353
13099000,0.0324,0.013523,0.002678,0.000431,0.000470
13100000,0.0324,0.013523,0.002678,0.000431,0.000118
13101000,0.0324,0.013523,0.002678,0.000431,0.000353
13102000,0.0324,0.013523,0.002678,0.000431,0.000470
13103000,0.0324,0.013523,0.002678,0.000431,0.000353
13104000,0.0324,0.013523,0.002678,0.000431,0.000235
13105000,0.0324,0.013523,0.002678,0.000431,0.000353
13106000,0.0324,0.013523,0.002678,0.000431,0.000353
13107000,0.0324,0.013523,0.002678,0.000431,0.000235
13108000,0.0324,0.013523,0.002678,0.000431,0.000353
13109000,0.0324,0.013523,0.002678,0.000431,0.000470
13110000,0.0324,0.013523,0.002678,0.000431,0.000353
13111000,0.0324,0.013523,0.002678,0.000431,0.000235
13112000,0.0324,0.013523,0.002678,0.000431,0.000353
13113000,0.0324,0.013523,0.002678,0.000431,0.000353
13114000,0.0324,0.013523,0.002678,0.000431,0.000235
13115000,0.0324,0.013523,0.002678,0.000431,0.000353
13116000,0.0324,0.013523,0.002678,0.000431,0.000470
13117000,0.0324,0.013523,0.002678,0.000431,0.000353
13118000,0.0324,0.013523,0.002678,0.000431,0.000235
13119000,0.0324,0.013523,0.002678,0.000431,0.000353
13120000,0.0324,0.013523,0.002678,0.000431,0.000353
13121000,0.0324,0.013523,0.002678,0.000431,0.000235
13122000,0.0324,0.013523,0.002678,0.000431,0.000353
13123000,0.0324,0.013523,0.002678,0.000431,0.000470
13124000,0.0324,0.013523,0.002678,0.000431,0.000353
13125000,0.0324,0.013523,0.002678,0.000431,0.000235
13126000,0.0324,0.013523,0.002678,0.000431,0.000353
13127000,0.0324,0.013523,0.002678,0.000431,0.000353
13128000,0.0324,0.013523,0.002678,0.000431,0.000235
13129000,0.0324,0.013523,0.002678,0.000431,0.000353
13130000,0.0324,0.013523,0.002678,0.000431,0.000470
13131000,0.0324,0.013523,0.002678,0.000431,0.000353
13132000,0.0324,0.013523,0.002678,0.000431,0.000235
13133000,0.0324,0.013523,0.002678,0.000431,0.000353
13134000,0.0324,0.013523,0.002678,0.000431,0.000353
13135000,0.0324,0.013523,0.002678,0.000431,0.000235
13136000,0.0324,0.013523,0.002678,0.000431,0.000353
13137000,0.0324,0.013523,0.002678,0.000431,0.000470
13138000,0.0324,0.013523,0.002678,0.000431,0.000353
13139000,0.0324,0.013523,0.002678,0.000431,0.000235
13140000,0.0324,0.013523,0.002678,0.000431,0.000353
13141000,0.0324,0.013523,0.002678,0.000431,0.000353
13142000,0.0324,0.013523,0.002678,0.000431,0.000235
13143000,0.0324,0.013523,0.002678,0.000431,0.000353
13144000,0.0324,0.013523,0.002678,0.000431,0.000470
13145000,0.0324,0.013523,0.002678,0.000431,0.000353
13146000,0.0324,0.013523,0.002678,0.000431,0.000118
13147000,0.0324,0.013523,0.002678,0.000431,0.000470
13148000,0.0324,0.013523,0.002678,0.000431,0.000353
13149000,0.0324,0.013523,0.002678,0.000431,0.000235
13150000,0.0324,0.013523,0.002678,0.000431,0.000353
13151000,0.0324,0.013523,0.002678,0.000431,0.000470
13152000,0.0324,0.013523,0.002678,0.000431,0.000353
13153000,0.0324,0.013523,0.002678,0.000431,0.000118
13154000,0.0324,0.013523,0.002678,0.000431,0.000470
13155000,0.0324,0.013523,0.002678,0.000431,0.000353
13156000,0.0324,0.013523,0.002678,0.000431,0.000235
13157000,0.0324,0.013523,0.002678,0.000431,0.000353
13158000,0.0324,0.013523,0.002678,0.000431,0.000470
13159000,0.0324,0.013523,0.002678,0.000431,0.000353
13160000,0.0324,0.013523,0.002678,0.000431,0.000118
13161000,0.0324,0.013523,0.002678,0.000431,0.000470
13162000,0.0324,0.013523,0.002678,0.000431,0.000353
13163000,0.0324,0.013523,0.002678,0.000431,0.000235
13164000,0.0324,0.013523,0.002678,0.000431,0.000353
13165000,0.0324,0.013523,0.002678,0.000431,0.000470
13166000,0.0324,0.013523,0.002678,0.000431,0.000235
13167000,0.0324,0.013523,0.002678,0.000431,0.000235
13168000,0.0324,0.013523,0.002678,0.000431,0.000470
13169000,0.0324,0.013523,0.002678,0.000431,0.000353
13170000,0.0324,0.013523,0.002678,0.000431,0.000235
13171000,0.0324,0.013523,0.002678,0.000431,0.000353
13172000,0.0324,0.013523,0.002678,0.000431,0.000470
13173000,0.0324,0.013523,0.002678,0.000431,0.000235
13174000,0.0324,0.013523,0.002678,0.000431,0.000235
13175000,0.0324,0.013523,0.002678,0.000431,0.000470
13176000,0.0324,0.013523,0.002678,0.000431,0.000353
13177000,0.0324,0.013523,0.002678,0.000431,0.000235
13178000,0.0324,0.013523,0.002678,0.000431,0.000353
13179000,0.0324,0.013523,0.002678,0.000431,0.000470
13180000,0.0324,0.013523,0.002678,0.000431,0.000235
13181000,0.0324,0.013523,0.002678,0.000431,0.000235
13182000,0.0324,0.013523,0.002678,0.000431,0.000470
13183000,0.0324,0.013523,0.002678,0.000431,0.000353
13184000,0.0324,0.013523,0.002678,0.000431,0.000235
13185000,0.0324,0.013523,0.002678,0.000431,0.000353
13186000,0.0324,0.013523,0.002678,0.000431,0.000470
13187000,0.0324,0.013523,0.002678,0.000431,0.000235
13188000,0.0324,0.013523,0.002678,0.000431,0.000235
13189000,0.0324,0.013523,0.002678,0.000431,0.000470
13190000,0.0324,0.013523,0.002678,0.000431,0.000353
13191000,0.0324,0.013523,0.002678,0.000431,0.000235
13192000,0.0324,0.013523,0.002678,0.000431,0.000353
13193000,0.0324,0.013523,0.002678,0.000431,0.000470
13194000,0.0324,0.013523,0.002678,0.000431,0.000235
13195000,0.0324,0.013523,0.002678,0.000431,0.000235
13196000,0.0324,0.013523,0.002678,0.000431,0.000470
13197000,0.0324,0.013523,0.002678,0.000431,0.000353
13198000,0.0324,0.013523,0.002678,0.000431,0.000235
13199000,0.0324,0.013523,0.002678,0.000431,0.000353
13200000,0.0324,0.013523,0.002678,0.000431,0.000470
13201000,0.0324,0.013523,0.002678,0.000431,0.000235
13202000,0.0324,0.013523,0.002678,0.000431,0.000235
13203000,0.0324,0.013523,0.002678,0.000431,0.000470
13204000,0.0324,0.013523,0.002678,0.000431,0.000353
13205000,0.0324,0.013523,0.002678,0.000431,0.000235
13206000,0.0324,0.013523,0.002678,0.000431,0.000353
13207000,0.0324,0.013523,0.002678,0.000431,0.000470
13208000,0.0324,0.013523,0.002678,0.000431,0.000118
13209000,0.0324,0.013523,0.002678,0.000431,0.000353
13210000,0.0324,0.013523,0.002678,0.000431,0.000470
13211000,0.0324,0.013523,0.002678,0.000431,0.000353
13212000,0.0324,0.013523,0.002678,0.000431,0.000235
13213000,0.0324,0.013523,0.002678,0.000431,0.000353
13214000,0.0324,0.013523,0.002678,0.000431,0.000470
13215000,0.0324,0.013523,0.002678,0.000431,0.000118
13216000,0.0324,0.013523,0.002678,0.000431,0.000353
13217000,0.0324,0.013523,0.002678,0.000431,0.000470
13218000,0.0324,0.013523,0.002678,0.000431,0.000353
13219000,0.0324,0.013523,0.002678,0.000431,0.000235
13220000,0.0324,0.013523,0.002678,0.000431,0.000353
13221000,0.0324,0.013523,0.002678,0.000431,0.000470
13222000,0.0324,0.013523,0.002678,0.000431,0.000118
13223000,0.0324,0.013523,0.002678,0.000431,0.000353
13224000,0.0324,0.013523,0.002678,0.000431,0.000470
13225000,0.0324,0.013523,0.002678,0.000431,0.000353
13226000,0.0324,0.013523,0.002678,0.000431,0.000235
13227000,0.0324,0.013523,0.002678,0.000431,0.000353
13228000,0.0324,0.013523,0.002678,0.000431,0.000470
13229000,0.0324,0.013523,0.002678,0.000431,0.000118
13230000,0.0324,0.013523,0.002678,0.000431,0.000353
13231000,0.0324,0.013523,0.002678,0.000431,0.000470
13232000,0.0324,0.013523,0.002678,0.000431,0.000353
13233000,0.0324,0.013523,0.002678,0.000431,0.000235
13234000,0.0324,0.013523,0.002678,0.000431,0.000353
13235000,0.0324,0.013523,0.002678,0.000431,0.000353
13236000,0.0324,0.013523,0.002678,0.000431,0.000235
13237000,0.0324,0.013523,0.002678,0.000431,0.000353
13238000,0.0324,0.013523,0.002678,0.000431,0.000470
13239000,0.0324,0.013523,0.002678,0.000431,0.000353
13240000,0.0324,0.013523,0.002678,0.000431,0.000235
13241000,0.0324,0.013523,0.002678,0.000431,0.000353
13242000,0.0324,0.013523,0.002678,0.000431,0.000353
13243000,0.0324,0.013523,0.002678,0.000431,0.000235
13244000,0.0324,0.013523,0.002678,0.000431,0.000353
13245000,0.0324,0.013523,0.002678,0.000431,0.000470
13246000,0.0324,0.013523,0.002678,0.000431,0.000353
13247000,0.0324,0.013523,0.002678,0.000431,0.000235
13248000,0.0324,0.013523,0.002678,0.000431,0.000353
13249000,0.0324,0.013523,0.002678,0.000431,0.000353
13250000,0.0324,0.013523,0.002678,0.000431,0.000235
13251000,0.0324,0.013523,0.002678,0.000431,0.000353
13252000,0.0324,0.013523,0.002678,0.000431,0.000470
13253000,0.0324,0.013523,0.002678,0.000431,0.000353
13254000,0.0324,0.013523,0.002678,0.000431,0.000235
13255000,0.0324,0.013523,0.002678,0.000431,0.000353
13256000,0.0324,0.013523,0.002678,0.000431,0.000353
13257000,0.0324,0.013523,0.002678,0.000431,0.000235
13258000,0.0324,0.013523,0.002678,0.000431,0.000353
13259000,0.0324,0.013523,0.002678,0.000431,0.000470
13260000,0.0324,0.013523,0.002678,0.000431,0.000353
13261000,0.0324,0.013523,0.002678,0.000431,0.000235
13262000,0.0324,0.013523,0.002678,0.000431,0.000353
13263000,0.0324,0.013523,0.002678,0.000431,0.000353
13264000,0.0324,0.013523,0.002678,0.000431,0.000235
13265000,0.0324,0.013523,0.002678,0.000431,0.000353
13266000,0.0324,0.013523,0.002678,0.000431,0.000470
13267000,0.0324,0.013523,0.002678,0.000431,0.000353
13268000,0.0324,0.013523,0.002678,0.000431,0.000235
13269000,0.0324,0.013523,0.002678,0.000431,0.000353
13270000,0.0324,0.013523,0.002678,0.000431,0.000353
13271000,0.0324,0.013523,0.002678,0.000431,0.000235
13272000,0.0324,0.013523,0.002678,0.000431,0.000353
13273000,0.0324,0.013523,0.002678,0.000431,0.000470
13274000,0.0324,0.013523,0.002678,0.000431,0.000353
13275000,0.0324,0.013523,0.002678,0.000431,0.000235
13276000,0.0324,0.013523,0.002678,0.000431,0.000353
13277000,0.0324,0.013523,0.002678,0.000431,0.000353
13278000,0.0324,0.013523,0.002678,0.000431,0.000235
13279000,0.0324,0.013523,0.002678,0.000431,0.000353
13280000,0.0324,0.013523,0.002678,0.000431,0.000470
13281000,0.0324,0.013523,0.002678,0.000431,0.000353
13282000,0.0324,0.013523,0.002678,0.000431,0.000118
13283000,0.0324,0.013523,0.002678,0.000431,0.000470
13284000,0.0324,0.013523,0.002678,0.000431,0.000353
13285000,0.0324,0.013523,0.002678,0.000431,0.000235
13286000,0.0324,0.013523,0.002678,0.000431,0.000353
13287000,0.0324,0.013523,0.002678,0.000431,0.000470
13288000,0.0324,0.013523,0.002678,0.000431,0.000353
13289000,0.0324,0.013523,0.002678,0.000431,0.000118
13290000,0.0324,0.013523,0.002678,0.000431,0.000470
13291000,0.0324,0.013523,0.002678,0.000431,0.000353
13292000,0.0324,0.013523,0.002678,0.000431,0.000235
13293000,0.0324,0.013523,0.002678,0.000431,0.000353
13294000,0.0324,0.013523,0.002678,0.000431,0.000470
13295000,0.0324,0.013523,0.002678,0.000431,0.000353
13296000,0.0324,0.013523,0.002678,0.000431,0.000118
13297000,0.0324,0.013523,0.002678,0.000431,0.000470
13298000,0.0324,0.013523,0.002678,0.000431,0.000353
13299000,0.0324,0.013523,0.002678,0.000431,0.000235
13300000,0.0324,0.013523,0.002678,0.000431,0.000353
13301000,0.0324,0.013523,0.002678,0.000431,0.000470
13302000,0.0324,0.013523,0.002678,0.000431,0.000353
13303000,0.0324,0.013523,0.002678,0.000431,0.000118
13304000,0.0324,0.013523,0.002678,0.000431,0.000470
13305000,0.0324,0.013523,0.002678,0.000431,0.000353
13306000,0.0324,0.013523,0.002678,0.000431,0.000235
13307000,0.0324,0.013523,0.002678,0.000431,0.000353
13308000,0.0324,0.013523,0.002678,0.000431,0.000470
13309000,0.0324,0.013523,0.002678,0.000431,0.000235
13310000,0.0324,0.013523,0.002678,0.000431,0.000235
13311000,0.0324,0.013523,0.002678,0.000431,0.000470
13312000,0.0324,0.013523,0.002678,0.000431,0.000353
13313000,0.0324,0.013523,0.002678,0.000431,0.000235
13314000,0.0324,0.013523,0.002678,0.000431,0.000353
13315000,0.0324,0.013523,0.002678,0.000431,0.000470
13316000,0.0324,0.013523,0.002678,0.000431,0.000235
13317000,0.0324,0.013523,0.002678,0.000431,0.000235
13318000,0.0324,0.013523,0.002678,0.000431,0.000470
13319000,0.0324,0.013523,0.002678,0.000431,0.000353
13320000,0.0324,0.013523,0.002678,0.000431,0.000235
13321000,0.0324,0.013523,0.002678,0.000431,0.000353
13322000,0.0324,0.013523,0.002678,0.000431,0.000470
13323000,0.0324,0.013523,0.002678,0.000431,0.000235
13324000,0.0324,0.013523,0.002678,0.000431,0.000235
13325000,0.0324,0.013523,0.002678,0.000431,0.000470
13326000,0.0324,0.013523,0.002678,0.000431,0.000353
13327000,0.0324,0.013523,0.002678,0.000431,0.000235
13328000,0.0324,0.013523,0.002678,0.000431,0.000353
13329000,0.0324,0.013523,0.002678,0.000431,0.000470
13330000,0.0324,0.013523,0.002678,0.000431,0.000235
13331000,0.0324,0.013523,0.002678,0.000431,0.000235
13332000,0.0324,0.013523,0.002678,0.000431,0.000470
13333000,0.0324,0.013523,0.002678,0.000431,0.000353
13334000,0.0324,0.013523,0.002678,0.000431,0.000235
13335000,0.0324,0.013523,0.002678,0.000431,0.000353
13336000,0.0324,0.013523,0.002678,0.000431,0.000470
13337000,0.0324,0.013523,0.002678,0.000431,0.000235
13338000,0.0324,0.013523,0.002678,0.000431,0.000235
13339000,0.0324,0.013523,0.002678,0.000431,0.000470
13340000,0.0324,0.013523,0.002678,0.000431,0.000353
13341000,0.0324,0.013523,0.002678,0.000431,0.000235
13342000,0.0324,0.013523,0.002678,0.000431,0.000353
13343000,0.0324,0.013523,0.002678,0.000431,0.000470
13344000,0.0324,0.013523,0.002678,0.000431,0.000235
13345000,0.0324,0.013523,0.002678,0.000431,0.000235
13346000,0.0324,0.013523,0.002678,0.000431,0.000470
13347000,0.0324,0.013523,0.002678,0.000431,0.000353
13348000,0.0324,0.013523,0.002678,0.000431,0.000235
13349000,0.0324,0.013523,0.002678,0.000431,0.000353
13350000,0.0324,0.013523,0.002678,0.000431,0.000470
13351000,0.0324,0.013523,0.002678,0.000431,0.000118
13352000,0.0324,0.013523,0.002678,0.000431,0.000353
13353000,0.0324,0.013523,0.002678,0.000431,0.000470
13354000,0.0324,0.013523,0.002678,0.000431,0.000353
13355000,0.0324,0.013523,0.002678,0.000431,0.000235
13356000,0.0324,0.013523,0.002678,0.000431,0.000353
13357000,0.0324,0.013523,0.002678,0.000431,0.000470
13358000,0.0324,0.013523,0.002678,0.000431,0.000118
13359000,0.0324,0.013523,0.002678,0.000431,0.000353
13360000,0.0324,0.013523,0.002678,0.000431,0.000470
13361000,0.0324,0.013523,0.002678,0.000431,0.000353
13362000,0.0324,0.013523,0.002678,0.000431,0.000235
13363000,0.0324,0.013523,0.002678,0.000431,0.000353
13364000,0.0324,0.013523,0.002678,0.000431,0.000470
13365000,0.0324,0.013523,0.002678,0.000431,0.000118
13366000,0.0324,0.013523,0.002678,0.000431,0.000353
13367000,0.0324,0.013523,0.002678,0.000431,0.000470
13368000,0.0324,0.013523,0.002678,0.000431,0.000353
13369000,0.0324,0.013523,0.002678,0.000431,0.000235
13370000,0.0324,0.013523,0.002678,0.000431,0.000353
13371000,0.0324,0.013523,0.002678,0.000431,0.000353
13372000,0.0324,0.013523,0.002678,0.000431,0.000235
13373000,0.0324,0.013523,0.002678,0.000431,0.000353
13374000,0.0324,0.013523,0.002678,0.000431,0.000470
13375000,0.0324,0.013523,0.002678,0.000431,0.000353
13376000,0.0324,0.013523,0.002678,0.000431,0.000235
13377000,0.0324,0.013523,0.002678,0.000431,0.000353
13378000,0.0324,0.013523,0.002678,0.000431,0.000353
13379000,0.0324,0.013523,0.002678,0.000431,0.000235
13380000,0.0324,0.013523,0.002678,0.000431,0.000353
13381000,0.0324,0.013523,0.002678,0.000431,0.000470
13382000,0.0324,0.013523,0.002678,0.000431,0.000353
13383000,0.0324,0.013523,0.002678,0.000431,0.000235
13384000,0.0324,0.013523,0.002678,0.000431,0.000353
13385000,0.0324,0.013523,0.002678,0.000431,0.000353
13386000,0.0324,0.013523,0.002678,0.000431,0.000235
13387000,0.0324,0.013523,0.002678,0.000431,0.000353
13388000,0.0324,0.013523,0.002678,0.000431,0.000470
13389000,0.0324,0.013523,0.002678,0.000431,0.000353
13390000,0.0324,0.013523,0.002678,0.000431,0.000235
13391000,0.0324,0.013523,0.002678,0.000431,0.000353
13392000,0.0324,0.013523,0.002678,0.000431,0.000353
13393000,0.0324,0.013523,0.002678,0.000431,0.000235
13394000,0.0324,0.013523,0.002678,0.000431,0.000353
13395000,0.0324,0.013523,0.002678,0.000431,0.000470
13396000,0.0324,0.013523,0.002678,0.000431,0.000353
13397000,0.0324,0.013523,0.002678,0.000431,0.000235
13398000,0.0324,0.013523,0.002678,0.000431,0.000353
13399000,0.0324,0.013523,0.002678,0.000431,0.000353
13400000,0.0324,0.013523,0.002678,0.000431,0.000235
13401000,0.0324,0.013523,0.002678,0.000431,0.000353
13402000,0.0324,0.013523,0.002678,0.000431,0.000470
13403000,0.0324,0.013523,0.002678,0.000431,0.000353
13404000,0.0324,0.013523,0.002678,0.000431,0.000235
13405000,0.0324,0.013523,0.002678,0.000431,0.000353
13406000,0.0324,0.013523,0.002678,0.000431,0.000353
13407000,0.0324,0.013523,0.002678,0.000431,0.000235
13408000,0.0324,0.013523,0.002678,0.000431,0.000353
13409000,0.0324,0.013523,0.002678,0.000431,0.000470
13410000,0.0324,0.013523,0.002678,0.000431,0.000353
13411000,0.0324,0.013523,0.002678,0.000431,0.000235
13412000,0.0324,0.013523,0.002678,0.000431,0.000353
13413000,0.0324,0.013523,0.002678,0.000431,0.000353
13414000,0.0324,0.013523,0.002678,0.000431,0.000235
13415000,0.0324,0.013523,0.002678,0.000431,0.000353
13416000,0.0324,0.013523,0.002678,0.000431,0.000470
13417000,0.0324,0.013523,0.002678,0.000431,0.000353
13418000,0.0324,0.013523,0.002678,0.000431,0.000235
13419000,0.0324,0.013523,0.002678,0.000431,0.000353
13420000,0.0324,0.013523,0.002678,0.000431,0.000353
13421000,0.0324,0.013523,0.002678,0.000431,0.000235
13422000,0.0324,0.013523,0.002678,0.000431,0.000353
13423000,0.0324,0.013523,0.002678,0.000431,0.000470
13424000,0.0324,0.013523,0.002678,0.000431,0.000353
13425000,0.0324,0.013523,0.002678,0.000431,0.000118
13426000,0.0324,0.013523,0.002678,0.000431,0.000470
13427000,0.0324,0.013523,0.002678,0.000431,0.000353
13428000,0.0324,0.013523,0.002678,0.000431,0.000235
13429000,0.0324,0.013523,0.002678,0.000431,0.000353
13430000,0.0324,0.013523,0.002678,0.000431,0.000470
13431000,0.0324,0.013523,0.002678,0.000431,0.000353
13432000,0.0324,0.013523,0.002678,0.000431,0.000118
13433000,0.0324,0.013523,0.002678,0.000431,0.000470
13434000,0.0324,0.013523,0.002678,0.000431,0.000353
13435000,0.0324,0.013523,0.002678,0.000431,0.000235
13436000,0.0324,0.013523,0.002678,0.000431,0.000353
13437000,0.0324,0.013523,0.002678,0.000431,0.000470
13438000,0.0324,0.013523,0.002678,0.000431,0.000353
13439000,0.0324,0.013523,0.002678,0.000431,0.000118
13440000,0.0324,0.013523,0.002678,0.000431,0.000470
13441000,0.0324,0.013523,0.002678,0.000431,0.000353
13442000,0.0324,0.013523,0.002678,0.000431,0.000235
13443000,0.0324,0.013523,0.002678,0.000431,0.000353
13444000,0.0324,0.013523,0.002678,0.000431,0.000470
13445000,0.0324,0.013523,0.002678,0.000431,0.000235
13446000,0.0324,0.013523,0.002678,0.000431,0.000235
13447000,0.0324,0.013523,0.002678,0.000431,0.000470
13448000,0.0324,0.013523,0.002678,0.000431,0.000353
13449000,0.0324,0.013523,0.002678,0.000431,0.000235
13450000,0.0324,0.013523,0.002678,0.000431,0.000353
13451000,0.0324,0.013523,0.002678,0.000431,0.000470
13452000,0.0324,0.013523,0.002678,0.000431,0.000235
13453000,0.0324,0.013523,0.002678,0.000431,0.000235
13454000,0.0324,0.013523,0.002678,0.000431,0.000470
13455000,0.0324,0.013523,0.002678,0.000431,0.000353
13456000,0.0324,0.013523,0.002678,0.000431,0.000235
13457000,0.0324,0.013523,0.002678,0.000431,0.000353
13458000,0.0324,0.013523,0.002678,0.000431,0.000470
13459000,0.0324,0.013523,0.002678,0.000431,0.000235
13460000,0.0324,0.013523,0.002678,0.000431,0.000235
13461000,0.0324,0.013523,0.002678,0.000431,0.000470
13462000,0.0324,0.013523,0.002678,0.000431,0.000353
13463000,0.0324,0.013523,0.002678,0.000431,0.000235
13464000,0.0324,0.013523,0.002678,0.000431,0.000353
13465000,0.0324,0.013523,0.002678,0.000431,0.000470
13466000,0.0324,0.013523,0.002678,0.000431,0.000235
13467000,0.0324,0.013523,0.002678,0.000431,0.000235
13468000,0.0324,0.013523,0.002678,0.000431,0.000470
13469000,0.0324,0.013523,0.002678,0.000431,0.000353
13470000,0.0324,0.013523,0.002678,0.000431,0.000235
13471000,0.0324,0.013523,0.002678,0.000431,0.000353
13472000,0.0324,0.013523,0.002678,0.000431,0.000470
13473000,0.0324,0.013523,0.002678,0.000431,0.000235
13474000,0.0324,0.013523,0.002678,0.000431,0.000235
13475000,0.0324,0.013523,0.002678,0.000431,0.000470
13476000,0.0324,0.013523,0.002678,0.000431,0.000353
13477000,0.0324,0.013523,0.002678,0.000431,0.000235
13478000,0.0324,0.013523,0.002678,0.000431,0.000353
13479000,0.0324,0.013523,0.002678,0.000431,0.000470
13480000,0.0324,0.013523,0.002678,0.000431,0.000235
13481000,0.0324,0.013523,0.002678,0.000431,0.000235
13482000,0.0324,0.013523,0.002678,0.000431,0.000470
13483000,0.0324,0.013523,0.002678,0.000431,0.000353
13484000,0.0324,0.013523,0.002678,0.000431,0.000235
13485000,0.0324,0.013523,0.002678,0.000431,0.000353
13486000,0.0324,0.013523,0.002678,0.000431,0.000470
13487000,0.0324,0.013523,0.002678,0.000431,0.000118
13488000,0.0324,0.013523,0.002678,0.000431,0.000353
13489000,0.0324,0.013523,0.002678,0.000431,0.000470
13490000,0.0324,0.013523,0.002678,0.000431,0.000353
13491000,0.0324,0.013523,0.002678,0.000431,0.000235
13492000,0.0324,0.013523,0.002678,0.000431,0.000353
13493000,0.0324,0.013523,0.002678,0.000431,0.000470
13494000,0.0324,0.013523,0.002678,0.000431,0.000118
13495000,0.0324,0.013523,0.002678,0.000431,0.000353
13496000,0.0324,0.013523,0.002678,0.000431,0.000470
13497000,0.0324,0.013523,0.002678,0.000431,0.000353
13498000,0.0324,0.013523,0.002678,0.000431,0.000235
13499000,0.0324,0.013523,0.002678,0.000431,0.000353
13500000,0.0324,0.013523,0.002678,0.000431,0.000470
13501000,0.0324,0.013523,0.002678,0.000431,0.000118
13502000,0.0324,0.013523,0.002678,0.000431,0.000353
13503000,0.0324,0.013523,0.002678,0.000431,0.000470
13504000,0.0324,0.013523,0.002678,0.000431,0.000353
13505000,0.0324,0.013523,0.002678,0.000431,0.000235
13506000,0.0324,0.013523,0.002678,0.000431,0.000353
13507000,0.0324,0.013523,0.002678,0.000431,0.000470
13508000,0.0324,0.013523,0.002678,0.000431,0.000118
13509000,0.0324,0.013523,0.002678,0.000431,0.000353
13510000,0.0324,0.013523,0.002678,0.000431,0.000470
13511000,0.0324,0.013523,0.002678,0.000431,0.000353
13512000,0.0324,0.013523,0.002678,0.000431,0.000235
13513000,0.0324,0.013523,0.002678,0.000431,0.000353
13514000,0.0324,0.013523,0.002678,0.000431,0.000353
13515000,0.0324,0.013523,0.002678,0.000431,0.000235
13516000,0.0324,0.013523,0.002678,0.000431,0.000353
13517000,0.0324,0.013523,0.002678,0.000431,0.000470
13518000,0.0324,0.013523,0.002678,0.000431,0.000353
13519000,0.0324,0.013523,0.002678,0.000431,0.000235
13520000,0.0324,0.013523,0.002678,0.000431,0.000353
13521000,0.0324,0.013523,0.002678,0.000431,0.000353
13522000,0.0324,0.013523,0.002678,0.000431,0.000235
13523000,0.0324,0.013523,0.002678,0.000431,0.000353
13524000,0.0324,0.013523,0.002678,0.000431,0.000470
13525000,0.0324,0.013523,0.002678,0.000431,0.000353
13526000,0.0324,0.013523,0.002678,0.000431,0.000235
13527000,0.0324,0.013523,0.002678,0.000431,0.000353
13528000,0.0324,0.013523,0.002678,0.000431,0.000353
13529000,0.0324,0.013523,0.002678,0.000431,0.000235
13530000,0.0324,0.013523,0.002678,0.000431,0.000353
13531000,0.0324,0.013523,0.002678,0.000431,0.000470
13532000,0.0324,0.013523,0.002678,0.000431,0.000353
13533000,0.0324,0.013523,0.002678,0.000431,0.000235
13534000,0.0324,0.013523,0.002678,0.000431,0.000353
13535000,0.0324,0.013523,0.002678,0.000431,0.000353
13536000,0.0324,0.013523,0.002678,0.000431,0.000235
13537000,0.0324,0.013523,0.002678,0.000431,0.000353
13538000,0.0324,0.013523,0.002678,0.000431,0.000470
13539000,0.0324,0.013523,0.002678,0.000431,0.000353
13540000,0.0324,0.013523,0.002678,0.000431,0.000235
13541000,0.0324,0.013523,0.002678,0.000431,0.000353
13542000,0.0324,0.013523,0.002678,0.000431,0.000353
13543000,0.0324,0.013523,0.002678,0.000431,0.000235
13544000,0.0324,0.013523,0.002678,0.000431,0.000353
13545000,0.0324,0.013523,0.002678,0.000431,0.000470
13546000,0.0324,0.013523,0.002678,0.000431,0.000353
13547000,0.0324,0.013523,0.002678,0.000431,0.000235
13548000,0.0324,0.013523,0.002678,0.000431,0.000353
13549000,0.0324,0.013523,0.002678,0.000431,0.000353
13550000,0.0324,0.013523,0.002678,0.000431,0.000235
13551000,0.0324,0.013523,0.002678,0.000431,0.000353
13552000,0.0324,0.013523,0.002678,0.000431,0.000470
13553000,0.0324,0.013523,0.002678,0.000431,0.000353
13554000,0.0324,0.013523,0.002678,0.000431,0.000235
13555000,0.0324,0.013523,0.002678,0.000431,0.000353
13556000,0.0324,0.013523,0.002678,0.000431,0.000353
13557000,0.0324,0.013523,0.002678,0.000431,0.000235
13558000,0.0324,0.013523,0.002678,0.000431,0.000353
13559000,0.0324,0.013523,0.002678,0.000431,0.000470
13560000,0.0324,0.013523,0.002678,0.000431,0.000353
13561000,0.0324,0.013523,0.002678,0.000431,0.000235
13562000,0.0324,0.013523,0.002678,0.000431,0.000353
13563000,0.0324,0.013523,0.002678,0.000431,0.000353
13564000,0.0324,0.013523,0.002678,0.000431,0.000235
13565000,0.0324,0.013523,0.002678,0.000431,0.000353
13566000,0.0324,0.013523,0.002678,0.000431,0.000470
13567000,0.0324,0.013523,0.002678,0.000431,0.000353
13568000,0.0324,0.013523,0.002678,0.000431,0.000118
13569000,0.0324,0.013523,0.002678,0.000431,0.000470
13570000,0.0324,0.013523,0.002678,0.000431,0.000353
13571000,0.0324,0.013523,0.002678,0.000431,0.000235
13572000,0.0324,0.013523,0.002678,0.000431,0.000353
13573000,0.0324,0.013523,0.002678,0.000431,0.000470
13574000,0.0324,0.013523,0.002678,0.000431,0.000353
13575000,0.0324,0.013523,0.002678,0.000431,0.000118
13576000,0.0324,0.013523,0.002678,0.000431,0.000470
13577000,0.0324,0.013523,0.002678,0.000431,0.000353
13578000,0.0324,0.013523,0.002678,0.000431,0.000235
13579000,0.0324,0.013523,0.002678,0.000431,0.000353
13580000,0.0324,0.013523,0.002678,0.000431,0.000470
13581000,0.0324,0.013523,0.002678,0.000431,0.000353
13582000,0.0324,0.013523,0.002678,0.000431,0.000118
13583000,0.0324,0.013523,0.002678,0.000431,0.000470
13584000,0.0324,0.013523,0.002678,0.000431,0.000353
13585000,0.0324,0.013523,0.002678,0.000431,0.000235
13586000,0.0324,0.013523,0.002678,0.000431,0.000353
13587000,0.0324,0.013523,0.002678,0.000431,0.000470
13588000,0.0324,0.013523,0.002678,0.000431,0.000235
13589000,0.0324,0.013523,0.002678,0.000431,0.000235
13590000,0.0324,0.013523,0.002678,0.000431,0.000470
13591000,0.0324,0.013523,0.002678,0.000431,0.000353
13592000,0.0324,0.013523,0.002678,0.000431,0.000235
13593000,0.0324,0.013523,0.002678,0.000431,0.000353
13594000,0.0324,0.013523,0.002678,0.000431,0.000470
13595000,0.0324,0.013523,0.002678,0.000431,0.000235
13596000,0.0324,0.013523,0.002678,0.000431,0.000235
13597000,0.0324,0.013523,0.002678,0.000431,0.000470
13598000,0.0324,0.013523,0.002678,0.000431,0.000353
13599000,0.0324,0.013523,0.002678,0.000431,0.000235
13600000,0.0324,0.013523,0.002678,0.000431,0.000353
13601000,0.0324,0.013523,0.002678,0.000431,0.000470
13602000,0.0324,0.013523,0.002678,0.000431,0.000235
13603000,0.0324,0.013523,0.002678,0.000431,0.000235
13604000,0.0324,0.013523,0.002678,0.000431,0.000470
13605000,0.0324,0.013523,0.002678,0.000431,0.000353
13606000,0.0324,0.013523,0.002678,0.000431,0.000235
13607000,0.0324,0.013523,0.002678,0.000431,0.000353
13608000,0.0324,0.013523,0.002678,0.000431,0.000470
13609000,0.0324,0.013523,0.002678,0.000431,0.000235
13610000,0.0324,0.013523,0.002678,0.000431,0.000235
13611000,0.0324,0.013523,0.002678,0.000431,0.000470
13612000,0.0324,0.013523,0.002678,0.000431,0.000353
13613000,0.0324,0.013523,0.002678,0.000431,0.000235
13614000,0.0324,0.013523,0.002678,0.000431,0.000353
13615000,0.0324,0.013523,0.002678,0.000431,0.000470
13616000,0.0324,0.013523,0.002678,0.000431,0.000235
13617000,0.0324,0.013523,0.002678,0.000431,0.000235
13618000,0.0324,0.013523,0.002678,0.000431,0.000470
13619000,0.0324,0.013523,0.002678,0.000431,0.000353
13620000,0.0324,0.013523,0.002678,0.000431,0.000235
13621000,0.0324,0.013523,0.002678,0.000431,0.000353
13622000,0.0324,0.013523,0.002678,0.000431,0.000470
13623000,0.0324,0.013523,0.002678,0.000431,0.000235
13624000,0.0324,0.013523,0.002678,0.000431,0.000235
13625000,0.0324,0.013523,0.002678,0.000431,0.000470
13626000,0.0324,0.013523,0.002678,0.000431,0.000353
13627000,0.0324,0.013523,0.002678,0.000431,0.000235
13628000,0.0324,0.013523,0.002678,0.000431,0.000353
13629000,0.0324,0.013523,0.002678,0.000431,0.000470
13630000,0.0324,0.013523,0.002678,0.000431,0.000118
13631000,0.0324,0.013523,0.002678,0.000431,0.000353
13632000,0.0324,0.013523,0.002678,0.000431,0.000470
13633000,0.0324,0.013523,0.002678,0.000431,0.000353
13634000,0.0324,0.013523,0.002678,0.000431,0.000235
13635000,0.0324,0.013523,0.002678,0.000431,0.000353
13636000,0.0324,0.013523,0.002678,0.000431,0.000470
13637000,0.0324,0.013523,0.002678,0.000431,0.000118
13638000,0.0324,0.013523,0.002678,0.000431,0.000353
13639000,0.0324,0.013523,0.002678,0.000431,0.000470
13640000,0.0324,0.013523,0.002678,0.000431,0.000353
13641000,0.0324,0.013523,0.002678,0.000431,0.000235
13642000,0.0324,0.013523,0.002678,0.000431,0.000353
13643000,0.0324,0.013523,0.002678,0.000431,0.000470
13644000,0.0324,0.013523,0.002678,0.000431,0.000118
13645000,0.0324,0.013523,0.002678,0.000431,0.000353
13646000,0.0324,0.013523,0.002678,0.000431,0.000470
13647000,0.0324,0.013523,0.002678,0.000431,0.000353
13648000,0.0324,0.013523,0.002678,0.000431,0.000235
13649000,0.0324,0.013523,0.002678,0.000431,0.000353
13650000,0.0324,0.013523,0.002678,0.000431,0.000353
13651000,0.0324,0.013523,0.002678,0.000431,0.000235
13652000,0.0324,0.013523,0.002678,0.000431,0.000353
13653000,0.0324,0.013523,0.002678,0.000431,0.000470
13654000,0.0324,0.013523,0.002678,0.000431,0.000353
13655000,0.0324,0.013523,0.002678,0.000431,0.000235
13656000,0.0324,0.013523,0.002678,0.000431,0.000353
13657000,0.0324,0.013523,0.002678,0.000431,0.000353
13658000,0.0324,0.013523,0.002678,0.000431,0.000235
13659000,0.0324,0.013523,0.002678,0.000431,0.000353
13660000,0.0324,0.013523,0.002678,0.000431,0.000470
13661000,0.0324,0.013523,0.002678,0.000431,0.000353
13662000,0.0324,0.013523,0.002678,0.000431,0.000235
13663000,0.0324,0.013523,0.002678,0.000431,0.000353
13664000,0.0324,0.013523,0.002678,0.000431,0.000353
13665000,0.0324,0.013523,0.002678,0.000431,0.000235
13666000,0.0324,0.013523,0.002678,0.000431,0.000353
13667000,0.0324,0.013523,0.002678,0.000431,0.000470
13668000,0.0324,0.013523,0.002678,0.000431,0.000353
13669000,0.0324,0.013523,0.002678,0.000431,0.000235
13670000,0.0324,0.013523,0.002678,0.000431,0.000353
13671000,0.0324,0.013523,0.002678,0.000431,0.000353
13672000,0.0324,0.013523,0.002678,0.000431,0.000235
13673000,0.0324,0.013523,0.002678,0.000431,0.000353
13674000,0.0324,0.013523,0.002678,0.000431,0.000470
13675000,0.0324,0.013523,0.002678,0.000431,0.000353
13676000,0.0324,0.013523,0.002678,0.000431,0.000235
13677000,0.0324,0.013523,0.002678,0.000431,0.000353
13678000,0.0324,0.013523,0.002678,0.000431,0.000353
13679000,0.0324,0.013523,0.002678,0.000431,0.000235
13680000,0.0324,0.013523,0.002678,0.000431,0.000353
13681000,0.0324,0.013523,0.002678,0.000431,0.000470
13682000,0.0324,0.013523,0.002678,0.000431,0.000353
13683000,0.0324,0.013523,0.002678,0.000431,0.000235
13684000,0.0324,0.013523,0.002678,0.000431,0.000353
13685000,0.0324,0.013523,0.002678,0.000431,0.000353
13686000,0.0324,0.013523,0.002678,0.000431,0.000235
13687000,0.0324,0.013523,0.002678,0.000431,0.000353
13688000,0.0324,0.013523,0.002678,0.000431,0.000470
13689000,0.0324,0.013523,0.002678,0.000431,0.000353
13690000,0.0324,0.013523,0.002678,0.000431,0.000235
13691000,0.0324,0.013523,0.002678,0.000431,0.000353
13692000,0.0324,0.013523,0.002678,0.000431,0.000353
13693000,0.0324,0.013523,0.002678,0.000431,0.000235
13694000,0.0324,0.013523,0.002678,0.000431,0.000353
13695000,0.0324,0.013523,0.002678,0.000431,0.000470
13696000,0.0324,0.013523,0.002678,0.000431,0.000353
13697000,0.0324,0.013523,0.002678,0.000431,0.000235
13698000,0.0324,0.013523,0.002678,0.000431,0.000353
13699000,0.0324,0.013523,0.002678,0.000431,0.000353
13700000,0.0324,0.013523,0.002678,0.000431,0.000235
13701000,0.0324,0.013523,0.002678,0.000431,0.000353
13702000,0.0324,0.013523,0.002678,0.000431,0.000470
13703000,0.0324,0.013523,0.002678,0.000431,0.000353
13704000,0.0324,0.013523,0.002678,0.000431,0.000118
13705000,0.0324,0.013523,0.002678,0.000431,0.000470
13706000,0.0324,0.013523,0.002678,0.000431,0.000353
13707000,0.0324,0.013523,0.002678,0.000431,0.000235
13708000,0.0324,0.013523,0.002678,0.000431,0.000353
13709000,0.0324,0.013523,0.002678,0.000431,0.000470
13710000,0.0324,0.013523,0.002678,0.000431,0.000353
13711000,0.0324,0.013523,0.002678,0.000431,0.000118
13712000,0.0324,0.013523,0.002678,0.000431,0.000470
13713000,0.0324,0.013523,0.002678,0.000431,0.000353
13714000,0.0324,0.013523,0.002678,0.000431,0.000235
13715000,0.0324,0.013523,0.002678,0.000431,0.000353
13716000,0.0324,0.013523,0.002678,0.000431,0.000470
13717000,0.0324,0.013523,0.002678,0.000431,0.000353
13718000,0.0324,0.013523,0.002678,0.000431,0.000118
13719000,0.0324,0.013523,0.002678,0.000431,0.000470
13720000,0.0324,0.013523,0.002678,0.000431,0.000353
13721000,0.0324,0.013523,0.002678,0.000431,0.000235
13722000,0.0324,0.013523,0.002678,0.000431,0.000353
13723000,0.0324,0.013523,0.002678,0.000431,0.000470
13724000,0.0324,0.013523,0.002678,0.000431,0.000353
13725000,0.0324,0.013523,0.002678,0.000431,0.000118
13726000,0.0324,0.013523,0.002678,0.000431,0.000470
13727000,0.0324,0.013523,0.002678,0.000431,0.000353
13728000,0.0324,0.013523,0.002678,0.000431,0.000235
13729000,0.0324,0.013523,0.002678,0.000431,0.000353
13730000,0.0324,0.013523,0.002678,0.000431,0.000470
13731000,0.0324,0.013523,0.002678,0.000431,0.000235
13732000,0.0324,0.013523,0.002678,0.000431,0.000235
13733000,0.0324,0.013523,0.002678,0.000431,0.000470
13734000,0.0324,0.013523,0.002678,0.000431,0.000353
13735000,0.0324,0.013523,0.002678,0.000431,0.000235
13736000,0.0324,0.013523,0.002678,0.000431,0.000353
13737000,0.0324,0.013523,0.002678,0.000431,0.000470
13738000,0.0324,0.013523,0.002678,0.000431,0.000235
13739000,0.0324,0.013523,0.002678,0.000431,0.000235
13740000,0.0324,0.013523,0.002678,0.000431,0.000470
13741000,0.0324,0.013523,0.002678,0.000431,0.000353
13742000,0.0324,0.013523,0.002678,0.000431,0.000235
13743000,0.0324,0.013523,0.002678,0.000431,0.000353
13744000,0.0324,0.013523,0.002678,0.000431,0.000470
13745000,0.0324,0.013523,0.002678,0.000431,0.000235
13746000,0.0324,0.013523,0.002678,0.000431,0.000235
13747000,0.0324,0.013523,0.002678,0.000431,0.000470
13748000,0.0324,0.013523,0.002678,0.000431,0.000353
13749000,0.0324,0.013523,0.002678,0.000431,0.000235
13750000,0.0324,0.013523,0.002678,0.000431,0.000353
13751000,0.0324,0.013523,0.002678,0.000431,0.000470
13752000,0.0324,0.013523,0.002678,0.000431,0.000235
13753000,0.0324,0.013523,0.002678,0.000431,0.000235
13754000,0.0324,0.013523,0.002678,0.000431,0.000470
13755000,0.0324,0.013523,0.002678,0.000431,0.000353
13756000,0.0324,0.013523,0.002678,0.000431,0.000235
13757000,0.0324,0.013523,0.002678,0.000431,0.000353
13758000,0.0324,0.013523,0.002678,0.000431,0.000470
13759000,0.0324,0.013523,0.002678,0.000431,0.000235
13760000,0.0324,0.013523,0.002678,0.000431,0.000235
13761000,0.0324,0.013523,0.002678,0.000431,0.000470
13762000,0.0324,0.013523,0.002678,0.000431,0.000353
13763000,0.0324,0.013523,0.002678,0.000431,0.000235
13764000,0.0324,0.013523,0.002678,0.000431,0.000353
13765000,0.0324,0.013523,0.002678,0.000431,0.000470
13766000,0.0324,0.013523,0.002678,0.000431,0.000235
13767000,0.0324,0.013523,0.002678,0.000431,0.000235
13768000,0.0324,0.013523,0.002678,0.000431,0.000470
13769000,0.0324,0.013523,0.002678,0.000431,0.000353
13770000,0.0324,0.013523,0.002678,0.000431,0.000235
13771000,0.0324,0.013523,0.002678,0.000431,0.000353
13772000,0.0324,0.013523,0.002678,0.000431,0.000470
13773000,0.0324,0.013523,0.002678,0.000431,0.000118
13774000,0.0324,0.013523,0.002678,0.000431,0.000353
13775000,0.0324,0.013523,0.002678,0.000431,0.000470
13776000,0.0324,0.013523,0.002678,0.000431,0.000353
13777000,0.0324,0.013523,0.002678,0.000431,0.000235
13778000,0.0324,0.013523,0.002678,0.000431,0.000353
13779000,0.0324,0.013523,0.002678,0.000431,0.000470
13780000,0.0324,0.013523,0.002678,0.000431,0.000118
13781000,0.0324,0.013523,0.002678,0.000431,0.000353
13782000,0.0324,0.013523,0.002678,0.000431,0.000470
13783000,0.0324,0.013523,0.002678,0.000431,0.000353
13784000,0.0324,0.013523,0.002678,0.000431,0.000235
13785000,0.0324,0.013523,0.002678,0.000431,0.000353
13786000,0.0324,0.013523,0.002678,0.000431,0.000470
13787000,0.0324,0.013523,0.002678,0.000431,0.000118
13788000,0.0324,0.013523,0.002678,0.000431,0.000353
13789000,0.0324,0.013523,0.002678,0.000431,0.000470
13790000,0.0324,0.013523,0.002678,0.000431,0.000353
13791000,0.0324,0.013523,0.002678,0.000431,0.000235
13792000,0.0324,0.013523,0.002678,0.000431,0.000353
13793000,0.0324,0.013523,0.002678,0.000431,0.000353
13794000,0.0324,0.013523,0.002678,0.000431,0.000235
13795000,0.0324,0.013523,0.002678,0.000431,0.000353
13796000,0.0324,0.013523,0.002678,0.000431,0.000470
13797000,0.0324,0.013523,0.002678,0.000431,0.000353
13798000,0.0324,0.013523,0.002678,0.000431,0.000235
13799000,0.0324,0.013523,0.002678,0.000431,0.000353
13800000,0.0324,0.013523,0.002678,0.000431,0.000353
13801000,0.0324,0.013523,0.002678,0.000431,0.000235
13802000,0.0324,0.013523,0.002678,0.000431,0.000353
13803000,0.0324,0.013523,0.002678,0.000431,0.000470
13804000,0.0324,0.013523,0.002678,0.000431,0.000353
13805000,0.0324,0.013523,0.002678,0.000431,0.000235
13806000,0.0324,0.013523,0.002678,0.000431,0.000353
13807000,0.0324,0.013523,0.002678,0.000431,0.000353
13808000,0.0324,0.013523,0.002678,0.000431,0.000235
13809000,0.0324,0.013523,0.002678,0.000431,0.000353
13810000,0.0324,0.013523,0.002678,0.000431,0.000470
13811000,0.0324,0.013523,0.002678,0.000431,0.000353
13812000,0.0324,0.013523,0.002678,0.000431,0.000235
13813000,0.0324,0.013523,0.002678,0.000431,0.000353
13814000,0.0324,0.013523,0.002678,0.000431,0.000353
13815000,0.0324,0.013523,0.002678,0.000431,0.000235
13816000,0.0324,0.013523,0.002678,0.000431,0.000353
13817000,0.0324,0.013523,0.002678,0.000431,0.000470
13818000,0.0324,0.013523,0.002678,0.000431,0.000353
13819000,0.0324,0.013523,0.002678,0.000431,0.000235
13820000,0.0324,0.013523,0.002678,0.000431,0.000353
13821000,0.0324,0.013523,0.002678,0.000431,0.000353
13822000,0.0324,0.013523,0.002678,0.000431,0.000235
13823000,0.0324,0.013523,0.002678,0.000431,0.000353
13824000,0.0324,0.013523,0.002678,0.000431,0.000470
13825000,0.0324,0.013523,0.002678,0.000431,0.000353
13826000,0.0324,0.013523,0.002678,0.000431,0.000235
13827000,0.0324,0.013523,0.002678,0.000431,0.000353
13828000,0.0324,0.013523,0.002678,0.000431,0.000353
13829000,0.0324,0.013523,0.002678,0.000431,0.000235
13830000,0.0324,0.013523,0.002678,0.000431,0.000353
13831000,0.0324,0.013523,0.002678,0.000431,0.000470
13832000,0.0324,0.013523,0.002678,0.000431,0.000353
13833000,0.0324,0.013523,0.002678,0.000431,0.000235
13834000,0.0324,0.013523,0.002678,0.000431,0.000353
13835000,0.0324,0.013523,0.002678,0.000431,0.000353
13836000,0.0324,0.013523,0.002678,0.000431,0.000235
13837000,0.0324,0.013523,0.002678,0.000431,0.000353
13838000,0.0324,0.013523,0.002678,0.000431,0.000470
13839000,0.0324,0.013523,0.002678,0.000431,0.000353
13840000,0.0324,0.013523,0.002678,0.000431,0.000235
13841000,0.0324,0.013523,0.002678,0.000431,0.000353
13842000,0.0324,0.013523,0.002678,0.000431,0.000353
13843000,0.0324,0.013523,0.002678,0.000431,0.000235
13844000,0.0324,0.013523,0.002678,0.000431,0.000353
13845000,0.0324,0.013523,0.002678,0.000431,0.000470
13846000,0.0324,0.013523,0.002678,0.000431,0.000353
13847000,0.0324,0.013523,0.002678,0.000431,0.000118
13848000,0.0324,0.013523,0.002678,0.000431,0.000470
13849000,0.0324,0.013523,0.002678,0.000431,0.000353
13850000,0.0324,0.013523,0.002678,0.000431,0.000235
13851000,0.0324,0.013523,0.002678,0.000431,0.000353
13852000,0.0324,0.013523,0.002678,0.000431,0.000470
13853000,0.0324,0.013523,0.002678,0.000431,0.000353
13854000,0.0324,0.013523,0.002678,0.000431,0.000118
13855000,0.0324,0.013523,0.002678,0.000431,0.000470
13856000,0.0324,0.013523,0.002678,0.000431,0.000353
13857000,0.0324,0.013523,0.002678,0.000431,0.000235
13858000,0.0324,0.013523,0.002678,0.000431,0.000353
13859000,0.0324,0.013523,0.002678,0.000431,0.000470
13860000,0.0324,0.013523,0.002678,0.000431,0.000353
13861000,0.0324,0.013523,0.002678,0.000431,0.000118
13862000,0.0324,0.013523,0.002678,0.000431,0.000470
13863000,0.0324,0.013523,0.002678,0.000431,0.000353
13864000,0.0324,0.013523,0.002678,0.000431,0.000235
13865000,0.0324,0.013523,0.002678,0.000431,0.000353
13866000,0.0324,0.013523,0.002678,0.000431,0.000470
13867000,0.0324,0.013523,0.002678,0.000431,0.000235
13868000,0.0324,0.013523,0.002678,0.000431,0.000235
13869000,0.0324,0.013523,0.002678,0.000431,0.000470
13870000,0.0324,0.013523,0.002678,0.000431,0.000353
13871000,0.0324,0.013523,0.002678,0.000431,0.000235
13872000,0.0324,0.013523,0.002678,0.000431,0.000353
13873000,0.0324,0.013523,0.002678,0.000431,0.000470
13874000,0.0324,0.013523,0.002678,0.000431,0.000235
13875000,0.0324,0.013523,0.002678,0.000431,0.000235
13876000,0.0324,0.013523,0.002678,0.000431,0.000470
13877000,0.0324,0.013523,0.002678,0.000431,0.000353
13878000,0.0324,0.013523,0.002678,0.000431,0.000235
13879000,0.0324,0.013523,0.002678,0.000431,0.000353
13880000,0.0324,0.013523,0.002678,0.000431,0.000470
13881000,0.0324,0.013523,0.002678,0.000431,0.000235
13882000,0.0324,0.013523,0.002678,0.000431,0.000235
13883000,0.0324,0.013523,0.002678,0.000431,0.000470
13884000,0.0324,0.013523,0.002678,0.000431,0.000353
13885000,0.0324,0.013523,0.002678,0.000431,0.000235
13886000,0.0324,0.013523,0.002678,0.000431,0.000353
13887000,0.0324,0.013523,0.002678,0.000431,0.000470
13888000,0.0324,0.013523,0.002678,0.000431,0.000235
13889000,0.0324,0.013523,0.002678,0.000431,0.000235
13890000,0.0324,0.013523,0.002678,0.000431,0.000470
13891000,0.0324,0.013523,0.002678,0.000431,0.000353
13892000,0.0324,0.013523,0.002678,0.000431,0.000235
13893000,0.0324,0.013523,0.002678,0.000431,0.000353
13894000,0.0324,0.013523,0.002678,0.000431,0.000470
13895000,0.0324,0.013523,0.002678,0.000431,0.000235
13896000,0.0324,0.013523,0.002678,0.000431,0.000235
13897000,0.0324,0.013523,0.002678,0.000431,0.000470
13898000,0.0324,0.013523,0.002678,0.000431,0.000353
13899000,0.0324,0.013523,0.002678,0.000431,0.000235
13900000,0.0324,0.013523,0.002678,0.000431,0.000353
13901000,0.0324,0.013523,0.002678,0.000431,0.000470
13902000,0.0324,0.013523,0.002678,0.000431,0.000235
13903000,0.0324,0.013523,0.002678,0.000431,0.000235
13904000,0.0324,0.013523,0.002678,0.000431,0.000470
13905000,0.0324,0.013523,0.002678,0.000431,0.000353
13906000,0.0324,0.013523,0.002678,0.000431,0.000235
13907000,0.0324,0.013523,0.002678,0.000431,0.000353
13908000,0.0324,0.013523,0.002678,0.000431,0.000470
13909000,0.0324,0.013523,0.002678,0.000431,0.000118
13910000,0.0324,0.013523,0.002678,0.000431,0.000353
13911000,0.0324,0.013523,0.002678,0.000431,0.000470
13912000,0.0324,0.013523,0.002678,0.000431,0.000353
13913000,0.0324,0.013523,0.002678,0.000431,0.000235
13914000,0.0324,0.013523,0.002678,0.000431,0.000353
13915000,0.0324,0.013523,0.002678,0.000431,0.000470
13916000,0.0324,0.013523,0.002678,0.000431,0.000118
13917000,0.0324,0.013523,0.002678,0.000431,0.000353
13918000,0.0324,0.013523,0.002678,0.000431,0.000470
13919000,0.0324,0.013523,0.002678,0.000431,0.000353
13920000,0.0324,0.013523,0.002678,0.000431,0.000235
13921000,0.0324,0.013523,0.002678,0.000431,0.000353
13922000,0.0324,0.013523,0.002678,0.000431,0.000470
13923000,0.0324,0.013523,0.002678,0.000431,0.000118
13924000,0.0324,0.013523,0.002678,0.000431,0.000353
13925000,0.0324,0.013523,0.002678,0.000431,0.000470
13926000,0.0324,0.013523,0.002678,0.000431,0.000353
13927000,0.0324,0.013523,0.002678,0.000431,0.000235
13928000,0.0324,0.013523,0.002678,0.000431,0.000353
13929000,0.0324,0.013523,0.002678,0.000431,0.000470
13930000,0.0324,0.013523,0.002678,0.000431,0.000118
13931000,0.0324,0.013523,0.002678,0.000431,0.000353
13932000,0.0324,0.013523,0.002678,0.000431,0.000470
13933000,0.0324,0.013523,0.002678,0.000431,0.000353
13934000,0.0324,0.013523,0.002678,0.000431,0.000235
13935000,0.0324,0.013523,0.002678,0.000431,0.000353
13936000,0.0324,0.013523,0.002678,0.000431,0.000353
13937000,0.0324,0.013523,0.002678,0.000431,0.000235
13938000,0.0324,0.013523,0.002678,0.000431,0.000353
13939000,0.0324,0.013523,0.002678,0.000431,0.000470
13940000,0.0324,0.013523,0.002678,0.000431,0.000353
13941000,0.0324,0.013523,0.002678,0.000431,0.000235
13942000,0.0324,0.013523,0.002678,0.000431,0.000353
13943000,0.0324,0.013523,0.002678,0.000431,0.000353
13944000,0.0324,0.013523,0.002678,0.000431,0.000235
13945000,0.0324,0.013523,0.002678,0.000431,0.000353
13946000,0.0324,0.013523,0.002678,0.000431,0.000470
13947000,0.0324,0.013523,0.002678,0.000431,0.000353
13948000,0.0324,0.013523,0.002678,0.000431,0.000235
13949000,0.0324,0.013523,0.002678,0.000431,0.000353
13950000,0.0324,0.013523,0.002678,0.000431,0.000353
13951000,0.0324,0.013523,0.002678,0.000431,0.000235
13952000,0.0324,0.013523,0.002678,0.000431,0.000353
13953000,0.0324,0.013523,0.002678,0.000431,0.000470
13954000,0.0324,0.013523,0.002678,0.000431,0.000353
13955000,0.0324,0.013523,0.002678,0.000431,0.000235
13956000,0.0324,0.013523,0.002678,0.000431,0.000353
13957000,0.0324,0.013523,0.002678,0.000431,0.000353
13958000,0.0324,0.013523,0.002678,0.000431,0.000235
13959000,0.0324,0.013523,0.002678,0.000431,0.000353
13960000,0.0324,0.013523,0.002678,0.000431,0.000470
13961000,0.0324,0.013523,0.002678,0.000431,0.000353
13962000,0.0324,0.013523,0.002678,0.000431,0.000235
13963000,0.0324,0.013523,0.002678,0.000431,0.000353
13964000,0.0324,0.013523,0.002678,0.000431,0.000353
13965000,0.0324,0.013523,0.002678,0.000431,0.000235
13966000,0.0324,0.013523,0.002678,0.000431,0.000353
13967000,0.0324,0.013523,0.002678,0.000431,0.000470
13968000,0.0324,0.013523,0.002678,0.000431,0.000353
13969000,0.0324,0.013523,0.002678,0.000431,0.000235
13970000,0.0324,0.013523,0.002678,0.000431,0.000353
13971000,0.0324,0.013523,0.002678,0.000431,0.000353
13972000,0.0324,0.013523,0.002678,0.000431,0.000235
13973000,0.0324,0.013523,0.002678,0.000431,0.000353
13974000,0.0324,0.013523,0.002678,0.000431,0.000470
13975000,0.0324,0.013523,0.002678,0.000431,0.000353
13976000,0.0324,0.013523,0.002678,0.000431,0.000235
13977000,0.0324,0.013523,0.002678,0.000431,0.000353
13978000,0.0324,0.013523,0.002678,0.000431,0.000353
13979000,0.0324,0.013523,0.002678,0.000431,0.000235
13980000,0.0324,0.013523,0.002678,0.000431,0.000353
13981000,0.0324,0.013523,0.002678,0.000431,0.000470
13982000,0.0324,0.013523,0.002678,0.000431,0.000353
13983000,0.0324,0.013523,0.002678,0.000431,0.000118
13984000,0.0324,0.013523,0.002678,0.000431,0.000470
13985000,0.0324,0.013523,0.002678,0.000431,0.000353
13986000,0.0324,0.013523,0.002678,0.000431,0.000235
13987000,0.0324,0.013523,0.002678,0.000431,0.000353
13988000,0.0324,0.013523,0.002678,0.000431,0.000470
13989000,0.0324,0.013523,0.002678,0.000431,0.000353
13990000,0.0324,0.013523,0.002678,0.000431,0.000118
13991000,0.0324,0.013523,0.002678,0.000431,0.000470
13992000,0.0324,0.013523,0.002678,0.000431,0.000353
13993000,0.0324,0.013523,0.002678,0.000431,0.000235
13994000,0.0324,0.013523,0.002678,0.000431,0.000353
13995000,0.0324,0.013523,0.002678,0.000431,0.000470
13996000,0.0324,0.013523,0.002678,0.000431,0.000353
13997000,0.0324,0.013523,0.002678,0.000431,0.000118
13998000,0.0324,0.013523,0.002678,0.000431,0.000470
13999000,0.0324,0.013523,0.002678,0.000431,0.000353
