Cycle,Area(mm^2),PeakDynamic(W),SubthresholdLeakage(W),GateLeakage(W),RunTimeDynamic(W)
8000000,0.0324,0.013523,0.002678,0.000431,1.002986
8001000,0.0324,0.013523,0.002678,0.000431,1.010625
8002000,0.0324,0.013523,0.002678,0.000431,0.878993
8003000,0.0324,0.013523,0.002678,0.000431,0.975601
8004000,0.0324,0.013523,0.002678,0.000431,0.945514
8005000,0.0324,0.013523,0.002678,0.000431,0.947277
8006000,0.0324,0.013523,0.002678,0.000431,1.024846
8007000,0.0324,0.013523,0.002678,0.000431,0.938227
8008000,0.0324,0.013523,0.002678,0.000431,1.001105
8009000,0.0324,0.013523,0.002678,0.000431,0.919305
8010000,0.0324,0.013523,0.002678,0.000431,0.872412
8011000,0.0324,0.013523,0.002678,0.000431,0.953389
8012000,0.0324,0.013523,0.002678,0.000431,0.986767
8013000,0.0324,0.013523,0.002678,0.000431,0.925652
8014000,0.0324,0.013523,0.002678,0.000431,1.012975
8015000,0.0324,0.013523,0.002678,0.000431,0.924947
8016000,0.0324,0.013523,0.002678,0.000431,0.998049
8017000,0.0324,0.013523,0.002678,0.000431,0.949393
8018000,0.0324,0.013523,0.002678,0.000431,0.903557
8019000,0.0324,0.013523,0.002678,0.000431,1.002750
8020000,0.0324,0.013523,0.002678,0.000431,0.895800
8021000,0.0324,0.013523,0.002678,0.000431,1.090897
8022000,0.0324,0.013523,0.002678,0.000431,0.866770
8023000,0.0324,0.013523,0.002678,0.000431,0.910373
8024000,0.0324,0.013523,0.002678,0.000431,1.030370
8025000,0.0324,0.013523,0.002678,0.000431,0.935759
8026000,0.0324,0.013523,0.002678,0.000431,0.955974
8027000,0.0324,0.013523,0.002678,0.000431,1.060222
8028000,0.0324,0.013523,0.002678,0.000431,0.932586
8029000,0.0324,0.013523,0.002678,0.000431,1.075853
8030000,0.0324,0.013523,0.002678,0.000431,0.949628
8031000,0.0324,0.013523,0.002678,0.000431,0.879934
8032000,0.0324,0.013523,0.002678,0.000431,0.970078
8033000,0.0324,0.013523,0.002678,0.000431,0.964084
8034000,0.0324,0.013523,0.002678,0.000431,0.948452
8035000,0.0324,0.013523,0.002678,0.000431,1.019087
8036000,0.0324,0.013523,0.002678,0.000431,0.984299
8037000,0.0324,0.013523,0.002678,0.000431,0.954681
8038000,0.0324,0.013523,0.002678,0.000431,0.975014
8039000,0.0324,0.013523,0.002678,0.000431,0.944221
8040000,0.0324,0.013523,0.002678,0.000431,0.918365
8041000,0.0324,0.013523,0.002678,0.000431,1.007687
8042000,0.0324,0.013523,0.002678,0.000431,0.905085
8043000,0.0324,0.013523,0.002678,0.000431,0.957150
8044000,0.0324,0.013523,0.002678,0.000431,0.889453
8045000,0.0324,0.013523,0.002678,0.000431,0.879463
8046000,0.0324,0.013523,0.002678,0.000431,0.878406
8047000,0.0324,0.013523,0.002678,0.000431,0.958912
8048000,0.0324,0.013523,0.002678,0.000431,0.964906
8049000,0.0324,0.013523,0.002678,0.000431,0.953389
8050000,0.0324,0.013523,0.002678,0.000431,0.990175
8051000,0.0324,0.013523,0.002678,0.000431,0.983241
8052000,0.0324,0.013523,0.002678,0.000431,0.905672
8053000,0.0324,0.013523,0.002678,0.000431,0.944339
8054000,0.0324,0.013523,0.002678,0.000431,0.912371
8055000,0.0324,0.013523,0.002678,0.000431,0.935877
8056000,0.0324,0.013523,0.002678,0.000431,0.883577
8057000,0.0324,0.013523,0.002678,0.000431,0.916837
8058000,0.0324,0.013523,0.002678,0.000431,0.960323
8059000,0.0324,0.013523,0.002678,0.000431,0.869709
8060000,0.0324,0.013523,0.002678,0.000431,0.970195
8061000,0.0324,0.013523,0.002678,0.000431,0.928943
8062000,0.0324,0.013523,0.002678,0.000431,0.878053
8063000,0.0324,0.013523,0.002678,0.000431,0.880991
8064000,0.0324,0.013523,0.002678,0.000431,0.902851
8065000,0.0324,0.013523,0.002678,0.000431,0.948570
8066000,0.0324,0.013523,0.002678,0.000431,0.913312
8067000,0.0324,0.013523,0.002678,0.000431,0.894507
8068000,0.0324,0.013523,0.002678,0.000431,0.908140
8069000,0.0324,0.013523,0.002678,0.000431,0.901911
8070000,0.0324,0.013523,0.002678,0.000431,0.969255
8071000,0.0324,0.013523,0.002678,0.000431,0.928355
8072000,0.0324,0.013523,0.002678,0.000431,0.914957
8073000,0.0324,0.013523,0.002678,0.000431,0.910256
8074000,0.0324,0.013523,0.002678,0.000431,0.907670
8075000,0.0324,0.013523,0.002678,0.000431,0.904027
8076000,0.0324,0.013523,0.002678,0.000431,0.944456
8077000,0.0324,0.013523,0.002678,0.000431,0.898150
8078000,0.0324,0.013523,0.002678,0.000431,0.833275
8079000,0.0324,0.013523,0.002678,0.000431,0.885340
8080000,0.0324,0.013523,0.002678,0.000431,0.880404
8081000,0.0324,0.013523,0.002678,0.000431,0.931763
8082000,0.0324,0.013523,0.002678,0.000431,0.967257
8083000,0.0324,0.013523,0.002678,0.000431,0.795666
8084000,0.0324,0.013523,0.002678,0.000431,0.881226
8085000,0.0324,0.013523,0.002678,0.000431,0.872412
8086000,0.0324,0.013523,0.002678,0.000431,0.913429
8087000,0.0324,0.013523,0.002678,0.000431,0.879581
8088000,0.0324,0.013523,0.002678,0.000431,0.871824
8089000,0.0324,0.013523,0.002678,0.000431,0.850904
8090000,0.0324,0.013523,0.002678,0.000431,0.866183
8091000,0.0324,0.013523,0.002678,0.000431,0.905320
8092000,0.0324,0.013523,0.002678,0.000431,0.892156
8093000,0.0324,0.013523,0.002678,0.000431,0.900618
8094000,0.0324,0.013523,0.002678,0.000431,0.871707
8095000,0.0324,0.013523,0.002678,0.000431,0.876408
8096000,0.0324,0.013523,0.002678,0.000431,0.872529
8097000,0.0324,0.013523,0.002678,0.000431,0.859836
8098000,0.0324,0.013523,0.002678,0.000431,0.876173
8099000,0.0324,0.013523,0.002678,0.000431,0.848671
8100000,0.0324,0.013523,0.002678,0.000431,0.862539
8101000,0.0324,0.013523,0.002678,0.000431,0.859131
8102000,0.0324,0.013523,0.002678,0.000431,0.846203
8103000,0.0324,0.013523,0.002678,0.000431,0.859836
8104000,0.0324,0.013523,0.002678,0.000431,0.785206
8105000,0.0324,0.013523,0.002678,0.000431,0.837506
8106000,0.0324,0.013523,0.002678,0.000431,0.796959
8107000,0.0324,0.013523,0.002678,0.000431,0.818936
8108000,0.0324,0.013523,0.002678,0.000431,0.809887
8109000,0.0324,0.013523,0.002678,0.000431,0.861247
8110000,0.0324,0.013523,0.002678,0.000431,0.799309
8111000,0.0324,0.013523,0.002678,0.000431,0.789789
8112000,0.0324,0.013523,0.002678,0.000431,0.776156
8113000,0.0324,0.013523,0.002678,0.000431,0.805068
8114000,0.0324,0.013523,0.002678,0.000431,0.833157
8115000,0.0324,0.013523,0.002678,0.000431,0.831747
8116000,0.0324,0.013523,0.002678,0.000431,0.802953
8117000,0.0324,0.013523,0.002678,0.000431,0.868886
8118000,0.0324,0.013523,0.002678,0.000431,0.863480
8119000,0.0324,0.013523,0.002678,0.000431,0.914487
8120000,0.0324,0.013523,0.002678,0.000431,0.905085
8121000,0.0324,0.013523,0.002678,0.000431,0.828456
8122000,0.0324,0.013523,0.002678,0.000431,0.866065
8123000,0.0324,0.013523,0.002678,0.000431,0.928120
8124000,0.0324,0.013523,0.002678,0.000431,0.866653
8125000,0.0324,0.013523,0.002678,0.000431,0.823167
8126000,0.0324,0.013523,0.002678,0.000431,0.924594
8127000,0.0324,0.013523,0.002678,0.000431,0.863832
8128000,0.0324,0.013523,0.002678,0.000431,0.892627
8129000,0.0324,0.013523,0.002678,0.000431,0.889806
8130000,0.0324,0.013523,0.002678,0.000431,0.803423
8131000,0.0324,0.013523,0.002678,0.000431,0.966199
8132000,0.0324,0.013523,0.002678,0.000431,0.907318
8133000,0.0324,0.013523,0.002678,0.000431,0.925064
8134000,0.0324,0.013523,0.002678,0.000431,0.859954
8135000,0.0324,0.013523,0.002678,0.000431,0.849376
8136000,0.0324,0.013523,0.002678,0.000431,0.821287
8137000,0.0324,0.013523,0.002678,0.000431,0.911431
8138000,0.0324,0.013523,0.002678,0.000431,0.930588
8139000,0.0324,0.013523,0.002678,0.000431,0.845733
8140000,0.0324,0.013523,0.002678,0.000431,0.868298
8141000,0.0324,0.013523,0.002678,0.000431,0.927297
8142000,0.0324,0.013523,0.002678,0.000431,0.908610
8143000,0.0324,0.013523,0.002678,0.000431,0.967374
8144000,0.0324,0.013523,0.002678,0.000431,0.916955
8145000,0.0324,0.013523,0.002678,0.000431,0.940696
8146000,0.0324,0.013523,0.002678,0.000431,0.879816
8147000,0.0324,0.013523,0.002678,0.000431,0.864772
8148000,0.0324,0.013523,0.002678,0.000431,0.805656
8149000,0.0324,0.013523,0.002678,0.000431,0.883459
8150000,0.0324,0.013523,0.002678,0.000431,0.884635
8151000,0.0324,0.013523,0.002678,0.000431,0.874175
8152000,0.0324,0.013523,0.002678,0.000431,0.931293
8153000,0.0324,0.013523,0.002678,0.000431,0.920833
8154000,0.0324,0.013523,0.002678,0.000431,0.885340
8155000,0.0324,0.013523,0.002678,0.000431,0.969137
8156000,0.0324,0.013523,0.002678,0.000431,0.906025
8157000,0.0324,0.013523,0.002678,0.000431,0.898385
8158000,0.0324,0.013523,0.002678,0.000431,0.918835
8159000,0.0324,0.013523,0.002678,0.000431,0.879698
8160000,0.0324,0.013523,0.002678,0.000431,0.952801
8161000,0.0324,0.013523,0.002678,0.000431,0.893684
8162000,0.0324,0.013523,0.002678,0.000431,0.986649
8163000,0.0324,0.013523,0.002678,0.000431,1.018382
8164000,0.0324,0.013523,0.002678,0.000431,0.922009
8165000,0.0324,0.013523,0.002678,0.000431,0.992996
8166000,0.0324,0.013523,0.002678,0.000431,0.960323
8167000,0.0324,0.013523,0.002678,0.000431,0.950921
8168000,0.0324,0.013523,0.002678,0.000431,1.086666
8169000,0.0324,0.013523,0.002678,0.000431,0.953389
8170000,0.0324,0.013523,0.002678,0.000431,0.971723
8171000,0.0324,0.013523,0.002678,0.000431,0.989587
8172000,0.0324,0.013523,0.002678,0.000431,0.961851
8173000,0.0324,0.013523,0.002678,0.000431,0.975719
8174000,0.0324,0.013523,0.002678,0.000431,1.014503
8175000,0.0324,0.013523,0.002678,0.000431,0.983006
8176000,0.0324,0.013523,0.002678,0.000431,1.016501
8177000,0.0324,0.013523,0.002678,0.000431,0.929883
8178000,0.0324,0.013523,0.002678,0.000431,0.965141
8179000,0.0324,0.013523,0.002678,0.000431,0.979715
8180000,0.0324,0.013523,0.002678,0.000431,0.961733
8181000,0.0324,0.013523,0.002678,0.000431,0.936700
8182000,0.0324,0.013523,0.002678,0.000431,0.961498
8183000,0.0324,0.013523,0.002678,0.000431,0.972193
8184000,0.0324,0.013523,0.002678,0.000431,0.947630
8185000,0.0324,0.013523,0.002678,0.000431,0.972663
8186000,0.0324,0.013523,0.002678,0.000431,1.012740
8187000,0.0324,0.013523,0.002678,0.000431,1.037539
8188000,0.0324,0.013523,0.002678,0.000431,0.939285
8189000,0.0324,0.013523,0.002678,0.000431,1.029547
8190000,0.0324,0.013523,0.002678,0.000431,0.875350
8191000,0.0324,0.013523,0.002678,0.000431,0.990998
8192000,0.0324,0.013523,0.002678,0.000431,0.904379
8193000,0.0324,0.013523,0.002678,0.000431,0.941636
8194000,0.0324,0.013523,0.002678,0.000431,1.037069
8195000,0.0324,0.013523,0.002678,0.000431,0.871236
8196000,0.0324,0.013523,0.002678,0.000431,0.959970
8197000,0.0324,0.013523,0.002678,0.000431,0.926592
8198000,0.0324,0.013523,0.002678,0.000431,0.912724
8199000,0.0324,0.013523,0.002678,0.000431,0.920833
8200000,0.0324,0.013523,0.002678,0.000431,0.987237
8201000,0.0324,0.013523,0.002678,0.000431,0.977482
8202000,0.0324,0.013523,0.002678,0.000431,0.885810
8203000,0.0324,0.013523,0.002678,0.000431,0.912254
8204000,0.0324,0.013523,0.002678,0.000431,0.878523
8205000,0.0324,0.013523,0.002678,0.000431,0.954564
8206000,0.0324,0.013523,0.002678,0.000431,0.975366
8207000,0.0324,0.013523,0.002678,0.000431,0.880521
8208000,0.0324,0.013523,0.002678,0.000431,0.954211
8209000,0.0324,0.013523,0.002678,0.000431,1.000165
8210000,0.0324,0.013523,0.002678,0.000431,0.835508
8211000,0.0324,0.013523,0.002678,0.000431,0.899326
8212000,0.0324,0.013523,0.002678,0.000431,0.929765
8213000,0.0324,0.013523,0.002678,0.000431,0.860659
8214000,0.0324,0.013523,0.002678,0.000431,0.903674
8215000,0.0324,0.013523,0.002678,0.000431,0.986649
8216000,0.0324,0.013523,0.002678,0.000431,0.912489
8217000,0.0324,0.013523,0.002678,0.000431,0.873352
8218000,0.0324,0.013523,0.002678,0.000431,0.855840
8219000,0.0324,0.013523,0.002678,0.000431,0.904262
8220000,0.0324,0.013523,0.002678,0.000431,0.881109
8221000,0.0324,0.013523,0.002678,0.000431,0.861247
8222000,0.0324,0.013523,0.002678,0.000431,0.863950
8223000,0.0324,0.013523,0.002678,0.000431,0.858191
8224000,0.0324,0.013523,0.002678,0.000431,0.904967
8225000,0.0324,0.013523,0.002678,0.000431,0.908375
8226000,0.0324,0.013523,0.002678,0.000431,0.899678
8227000,0.0324,0.013523,0.002678,0.000431,0.877700
8228000,0.0324,0.013523,0.002678,0.000431,0.911901
8229000,0.0324,0.013523,0.002678,0.000431,0.932116
8230000,0.0324,0.013523,0.002678,0.000431,0.894154
8231000,0.0324,0.013523,0.002678,0.000431,0.995229
8232000,0.0324,0.013523,0.002678,0.000431,0.942929
8233000,0.0324,0.013523,0.002678,0.000431,1.004396
8234000,0.0324,0.013523,0.002678,0.000431,0.924124
8235000,0.0324,0.013523,0.002678,0.000431,1.013328
8236000,0.0324,0.013523,0.002678,0.000431,0.990880
8237000,0.0324,0.013523,0.002678,0.000431,0.914722
8238000,0.0324,0.013523,0.002678,0.000431,0.996757
8239000,0.0324,0.013523,0.002678,0.000431,0.952566
8240000,0.0324,0.013523,0.002678,0.000431,0.938698
8241000,0.0324,0.013523,0.002678,0.000431,0.990292
8242000,0.0324,0.013523,0.002678,0.000431,0.889218
8243000,0.0324,0.013523,0.002678,0.000431,0.885457
8244000,0.0324,0.013523,0.002678,0.000431,0.911431
8245000,0.0324,0.013523,0.002678,0.000431,0.953859
8246000,0.0324,0.013523,0.002678,0.000431,0.976894
8247000,0.0324,0.013523,0.002678,0.000431,0.903909
8248000,0.0324,0.013523,0.002678,0.000431,0.926710
8249000,0.0324,0.013523,0.002678,0.000431,0.863244
8250000,0.0324,0.013523,0.002678,0.000431,0.955269
8251000,0.0324,0.013523,0.002678,0.000431,1.009450
8252000,0.0324,0.013523,0.002678,0.000431,0.937757
8253000,0.0324,0.013523,0.002678,0.000431,0.955269
8254000,0.0324,0.013523,0.002678,0.000431,0.976072
8255000,0.0324,0.013523,0.002678,0.000431,0.953389
8256000,0.0324,0.013523,0.002678,0.000431,1.017206
8257000,0.0324,0.013523,0.002678,0.000431,0.997697
8258000,0.0324,0.013523,0.002678,0.000431,1.006394
8259000,0.0324,0.013523,0.002678,0.000431,0.886162
8260000,0.0324,0.013523,0.002678,0.000431,0.960558
8261000,0.0324,0.013523,0.002678,0.000431,0.912371
8262000,0.0324,0.013523,0.002678,0.000431,0.956562
8263000,0.0324,0.013523,0.002678,0.000431,0.898973
8264000,0.0324,0.013523,0.002678,0.000431,0.834685
8265000,0.0324,0.013523,0.002678,0.000431,0.942811
8266000,0.0324,0.013523,0.002678,0.000431,0.898738
8267000,0.0324,0.013523,0.002678,0.000431,0.945984
8268000,0.0324,0.013523,0.002678,0.000431,0.909316
8269000,0.0324,0.013523,0.002678,0.000431,0.871942
8270000,0.0324,0.013523,0.002678,0.000431,0.940931
8271000,0.0324,0.013523,0.002678,0.000431,0.880991
8272000,0.0324,0.013523,0.002678,0.000431,0.895095
8273000,0.0324,0.013523,0.002678,0.000431,0.910021
8274000,0.0324,0.013523,0.002678,0.000431,0.909198
8275000,0.0324,0.013523,0.002678,0.000431,0.910843
8276000,0.0324,0.013523,0.002678,0.000431,0.916955
8277000,0.0324,0.013523,0.002678,0.000431,0.826106
8278000,0.0324,0.013523,0.002678,0.000431,0.867476
8279000,0.0324,0.013523,0.002678,0.000431,0.887925
8280000,0.0324,0.013523,0.002678,0.000431,0.845028
8281000,0.0324,0.013523,0.002678,0.000431,0.905790
8282000,0.0324,0.013523,0.002678,0.000431,0.883342
8283000,0.0324,0.013523,0.002678,0.000431,0.961968
8284000,0.0324,0.013523,0.002678,0.000431,0.860894
8285000,0.0324,0.013523,0.002678,0.000431,0.979362
8286000,0.0324,0.013523,0.002678,0.000431,0.902851
8287000,0.0324,0.013523,0.002678,0.000431,0.919305
8288000,0.0324,0.013523,0.002678,0.000431,0.955269
8289000,0.0324,0.013523,0.002678,0.000431,0.859249
8290000,0.0324,0.013523,0.002678,0.000431,0.868416
8291000,0.0324,0.013523,0.002678,0.000431,0.933644
8292000,0.0324,0.013523,0.002678,0.000431,0.853607
8293000,0.0324,0.013523,0.002678,0.000431,1.005336
8294000,0.0324,0.013523,0.002678,0.000431,0.878053
8295000,0.0324,0.013523,0.002678,0.000431,0.862069
8296000,0.0324,0.013523,0.002678,0.000431,0.948217
8297000,0.0324,0.013523,0.002678,0.000431,0.918248
8298000,0.0324,0.013523,0.002678,0.000431,0.967845
8299000,0.0324,0.013523,0.002678,0.000431,0.876055
8300000,0.0324,0.013523,0.002678,0.000431,0.928238
8301000,0.0324,0.013523,0.002678,0.000431,0.900501
8302000,0.0324,0.013523,0.002678,0.000431,0.972311
8303000,0.0324,0.013523,0.002678,0.000431,0.916485
8304000,0.0324,0.013523,0.002678,0.000431,0.936230
8305000,0.0324,0.013523,0.002678,0.000431,0.989940
8306000,0.0324,0.013523,0.002678,0.000431,0.891451
8307000,0.0324,0.013523,0.002678,0.000431,0.994406
8308000,0.0324,0.013523,0.002678,0.000431,1.002045
8309000,0.0324,0.013523,0.002678,0.000431,0.885222
8310000,0.0324,0.013523,0.002678,0.000431,0.858896
8311000,0.0324,0.013523,0.002678,0.000431,0.974309
8312000,0.0324,0.013523,0.002678,0.000431,0.919893
8313000,0.0324,0.013523,0.002678,0.000431,0.930471
8314000,0.0324,0.013523,0.002678,0.000431,1.016501
8315000,0.0324,0.013523,0.002678,0.000431,0.898150
8316000,0.0324,0.013523,0.002678,0.000431,0.956679
8317000,0.0324,0.013523,0.002678,0.000431,1.023318
8318000,0.0324,0.013523,0.002678,0.000431,0.940696
8319000,0.0324,0.013523,0.002678,0.000431,0.981948
8320000,0.0324,0.013523,0.002678,0.000431,0.886750
8321000,0.0324,0.013523,0.002678,0.000431,0.965141
8322000,0.0324,0.013523,0.002678,0.000431,0.942458
8323000,0.0324,0.013523,0.002678,0.000431,0.940343
8324000,0.0324,0.013523,0.002678,0.000431,1.033660
8325000,0.0324,0.013523,0.002678,0.000431,0.946690
8326000,0.0324,0.013523,0.002678,0.000431,1.027314
8327000,0.0324,0.013523,0.002678,0.000431,1.006981
8328000,0.0324,0.013523,0.002678,0.000431,0.968197
8329000,0.0324,0.013523,0.002678,0.000431,1.027431
8330000,0.0324,0.013523,0.002678,0.000431,0.986414
8331000,0.0324,0.013523,0.002678,0.000431,0.969490
8332000,0.0324,0.013523,0.002678,0.000431,1.025904
8333000,0.0324,0.013523,0.002678,0.000431,1.015443
8334000,0.0324,0.013523,0.002678,0.000431,0.947160
8335000,0.0324,0.013523,0.002678,0.000431,0.909316
8336000,0.0324,0.013523,0.002678,0.000431,0.963496
8337000,0.0324,0.013523,0.002678,0.000431,1.002515
8338000,0.0324,0.013523,0.002678,0.000431,1.014033
8339000,0.0324,0.013523,0.002678,0.000431,0.972311
8340000,0.0324,0.013523,0.002678,0.000431,0.947630
8341000,0.0324,0.013523,0.002678,0.000431,1.064805
8342000,0.0324,0.013523,0.002678,0.000431,0.911196
8343000,0.0324,0.013523,0.002678,0.000431,0.982301
8344000,0.0324,0.013523,0.002678,0.000431,0.998637
8345000,0.0324,0.013523,0.002678,0.000431,1.106998
8346000,0.0324,0.013523,0.002678,0.000431,1.003808
8347000,0.0324,0.013523,0.002678,0.000431,1.043885
8348000,0.0324,0.013523,0.002678,0.000431,1.072210
8349000,0.0324,0.013523,0.002678,0.000431,1.002868
8350000,0.0324,0.013523,0.002678,0.000431,0.985709
8351000,0.0324,0.013523,0.002678,0.000431,1.072210
8352000,0.0324,0.013523,0.002678,0.000431,1.083375
8353000,0.0324,0.013523,0.002678,0.000431,0.950803
8354000,0.0324,0.013523,0.002678,0.000431,1.097478
8355000,0.0324,0.013523,0.002678,0.000431,1.053288
8356000,0.0324,0.013523,0.002678,0.000431,1.010977
8357000,0.0324,0.013523,0.002678,0.000431,1.083022
8358000,0.0324,0.013523,0.002678,0.000431,1.071857
8359000,0.0324,0.013523,0.002678,0.000431,0.963026
8360000,0.0324,0.013523,0.002678,0.000431,1.067156
8361000,0.0324,0.013523,0.002678,0.000431,1.016149
8362000,0.0324,0.013523,0.002678,0.000431,1.024963
8363000,0.0324,0.013523,0.002678,0.000431,1.005689
8364000,0.0324,0.013523,0.002678,0.000431,1.000988
8365000,0.0324,0.013523,0.002678,0.000431,1.070799
8366000,0.0324,0.013523,0.002678,0.000431,1.049409
8367000,0.0324,0.013523,0.002678,0.000431,1.005336
8368000,0.0324,0.013523,0.002678,0.000431,1.175634
8369000,0.0324,0.013523,0.002678,0.000431,0.868416
8370000,0.0324,0.013523,0.002678,0.000431,0.882754
8371000,0.0324,0.013523,0.002678,0.000431,1.022378
8372000,0.0324,0.013523,0.002678,0.000431,1.004866
8373000,0.0324,0.013523,0.002678,0.000431,1.011800
8374000,0.0324,0.013523,0.002678,0.000431,1.023435
8375000,0.0324,0.013523,0.002678,0.000431,1.016031
8376000,0.0324,0.013523,0.002678,0.000431,0.970078
8377000,0.0324,0.013523,0.002678,0.000431,0.939755
8378000,0.0324,0.013523,0.002678,0.000431,1.000165
8379000,0.0324,0.013523,0.002678,0.000431,0.932351
8380000,0.0324,0.013523,0.002678,0.000431,1.086666
8381000,0.0324,0.013523,0.002678,0.000431,0.961028
8382000,0.0324,0.013523,0.002678,0.000431,1.040947
8383000,0.0324,0.013523,0.002678,0.000431,0.943516
8384000,0.0324,0.013523,0.002678,0.000431,0.947277
8385000,0.0324,0.013523,0.002678,0.000431,1.021908
8386000,0.0324,0.013523,0.002678,0.000431,1.010272
8387000,0.0324,0.013523,0.002678,0.000431,1.030722
8388000,0.0324,0.013523,0.002678,0.000431,1.073620
8389000,0.0324,0.013523,0.002678,0.000431,0.990998
8390000,0.0324,0.013523,0.002678,0.000431,1.090191
8391000,0.0324,0.013523,0.002678,0.000431,1.033778
8392000,0.0324,0.013523,0.002678,0.000431,1.043768
8393000,0.0324,0.013523,0.002678,0.000431,1.082905
8394000,0.0324,0.013523,0.002678,0.000431,1.064218
8395000,0.0324,0.013523,0.002678,0.000431,1.052112
8396000,0.0324,0.013523,0.002678,0.000431,1.050349
8397000,0.0324,0.013523,0.002678,0.000431,0.985944
8398000,0.0324,0.013523,0.002678,0.000431,1.026844
8399000,0.0324,0.013523,0.002678,0.000431,1.093130
8400000,0.0324,0.013523,0.002678,0.000431,1.012035
8401000,0.0324,0.013523,0.002678,0.000431,1.018264
8402000,0.0324,0.013523,0.002678,0.000431,1.078556
8403000,0.0324,0.013523,0.002678,0.000431,0.971723
8404000,0.0324,0.013523,0.002678,0.000431,0.988294
8405000,0.0324,0.013523,0.002678,0.000431,1.055286
8406000,0.0324,0.013523,0.002678,0.000431,0.980303
8407000,0.0324,0.013523,0.002678,0.000431,0.966434
8408000,0.0324,0.013523,0.002678,0.000431,0.899091
8409000,0.0324,0.013523,0.002678,0.000431,0.974661
8410000,0.0324,0.013523,0.002678,0.000431,1.022613
8411000,0.0324,0.013523,0.002678,0.000431,0.971370
8412000,0.0324,0.013523,0.002678,0.000431,0.983358
8413000,0.0324,0.013523,0.002678,0.000431,1.015091
8414000,0.0324,0.013523,0.002678,0.000431,1.005219
8415000,0.0324,0.013523,0.002678,0.000431,0.902381
8416000,0.0324,0.013523,0.002678,0.000431,1.051290
8417000,0.0324,0.013523,0.002678,0.000431,0.984886
8418000,0.0324,0.013523,0.002678,0.000431,1.016031
8419000,0.0324,0.013523,0.002678,0.000431,0.996051
8420000,0.0324,0.013523,0.002678,0.000431,0.928120
8421000,0.0324,0.013523,0.002678,0.000431,1.031310
8422000,0.0324,0.013523,0.002678,0.000431,1.023318
8423000,0.0324,0.013523,0.002678,0.000431,1.076441
8424000,0.0324,0.013523,0.002678,0.000431,1.023318
8425000,0.0324,0.013523,0.002678,0.000431,1.116635
8426000,0.0324,0.013523,0.002678,0.000431,0.971723
8427000,0.0324,0.013523,0.002678,0.000431,1.034718
8428000,0.0324,0.013523,0.002678,0.000431,0.969372
8429000,0.0324,0.013523,0.002678,0.000431,0.977129
8430000,0.0324,0.013523,0.002678,0.000431,1.012270
8431000,0.0324,0.013523,0.002678,0.000431,1.071152
8432000,0.0324,0.013523,0.002678,0.000431,0.972546
8433000,0.0324,0.013523,0.002678,0.000431,1.053993
8434000,0.0324,0.013523,0.002678,0.000431,0.979127
8435000,0.0324,0.013523,0.002678,0.000431,1.051055
8436000,0.0324,0.013523,0.002678,0.000431,1.063160
8437000,0.0324,0.013523,0.002678,0.000431,1.031545
8438000,0.0324,0.013523,0.002678,0.000431,1.045178
8439000,0.0324,0.013523,0.002678,0.000431,0.983241
8440000,0.0324,0.013523,0.002678,0.000431,0.977012
8441000,0.0324,0.013523,0.002678,0.000431,1.023788
8442000,0.0324,0.013523,0.002678,0.000431,0.992055
8443000,0.0324,0.013523,0.002678,0.000431,0.968315
8444000,0.0324,0.013523,0.002678,0.000431,1.015443
8445000,0.0324,0.013523,0.002678,0.000431,0.914957
8446000,0.0324,0.013523,0.002678,0.000431,0.982888
8447000,0.0324,0.013523,0.002678,0.000431,0.956092
8448000,0.0324,0.013523,0.002678,0.000431,0.943986
8449000,0.0324,0.013523,0.002678,0.000431,0.962673
8450000,0.0324,0.013523,0.002678,0.000431,0.950333
8451000,0.0324,0.013523,0.002678,0.000431,0.860894
8452000,0.0324,0.013523,0.002678,0.000431,0.856780
8453000,0.0324,0.013523,0.002678,0.000431,0.992878
8454000,0.0324,0.013523,0.002678,0.000431,0.980890
8455000,0.0324,0.013523,0.002678,0.000431,0.998167
8456000,0.0324,0.013523,0.002678,0.000431,0.927180
8457000,0.0324,0.013523,0.002678,0.000431,0.971488
8458000,0.0324,0.013523,0.002678,0.000431,0.903557
8459000,0.0324,0.013523,0.002678,0.000431,0.988412
8460000,0.0324,0.013523,0.002678,0.000431,0.969372
8461000,0.0324,0.013523,0.002678,0.000431,1.057519
8462000,0.0324,0.013523,0.002678,0.000431,1.065040
8463000,0.0324,0.013523,0.002678,0.000431,0.936230
8464000,0.0324,0.013523,0.002678,0.000431,0.973486
8465000,0.0324,0.013523,0.002678,0.000431,1.081377
8466000,0.0324,0.013523,0.002678,0.000431,0.993466
8467000,0.0324,0.013523,0.002678,0.000431,0.946102
8468000,0.0324,0.013523,0.002678,0.000431,1.024258
8469000,0.0324,0.013523,0.002678,0.000431,0.933056
8470000,0.0324,0.013523,0.002678,0.000431,0.956797
8471000,0.0324,0.013523,0.002678,0.000431,0.967022
8472000,0.0324,0.013523,0.002678,0.000431,1.004866
8473000,0.0324,0.013523,0.002678,0.000431,0.978775
8474000,0.0324,0.013523,0.002678,0.000431,1.001575
8475000,0.0324,0.013523,0.002678,0.000431,0.969725
8476000,0.0324,0.013523,0.002678,0.000431,1.005101
8477000,0.0324,0.013523,0.002678,0.000431,1.010625
8478000,0.0324,0.013523,0.002678,0.000431,1.000517
8479000,0.0324,0.013523,0.002678,0.000431,1.004631
8480000,0.0324,0.013523,0.002678,0.000431,1.029782
8481000,0.0324,0.013523,0.002678,0.000431,1.004748
8482000,0.0324,0.013523,0.002678,0.000431,0.945984
8483000,0.0324,0.013523,0.002678,0.000431,1.049997
8484000,0.0324,0.013523,0.002678,0.000431,0.971841
8485000,0.0324,0.013523,0.002678,0.000431,1.020027
8486000,0.0324,0.013523,0.002678,0.000431,1.072210
8487000,0.0324,0.013523,0.002678,0.000431,1.018029
8488000,0.0324,0.013523,0.002678,0.000431,1.012858
8489000,0.0324,0.013523,0.002678,0.000431,1.039419
8490000,0.0324,0.013523,0.002678,0.000431,1.012270
8491000,0.0324,0.013523,0.002678,0.000431,0.970195
8492000,0.0324,0.013523,0.002678,0.000431,0.972546
8493000,0.0324,0.013523,0.002678,0.000431,1.004866
8494000,0.0324,0.013523,0.002678,0.000431,1.016266
8495000,0.0324,0.013523,0.002678,0.000431,0.987002
8496000,0.0324,0.013523,0.002678,0.000431,0.969960
8497000,0.0324,0.013523,0.002678,0.000431,1.008274
8498000,0.0324,0.013523,0.002678,0.000431,1.013093
8499000,0.0324,0.013523,0.002678,0.000431,0.998519
8500000,0.0324,0.013523,0.002678,0.000431,1.035071
8501000,0.0324,0.013523,0.002678,0.000431,0.985474
8502000,0.0324,0.013523,0.002678,0.000431,1.030252
8503000,0.0324,0.013523,0.002678,0.000431,0.905320
8504000,0.0324,0.013523,0.002678,0.000431,0.999342
8505000,0.0324,0.013523,0.002678,0.000431,1.057636
8506000,0.0324,0.013523,0.002678,0.000431,0.953624
8507000,0.0324,0.013523,0.002678,0.000431,0.975131
8508000,0.0324,0.013523,0.002678,0.000431,1.026491
8509000,0.0324,0.013523,0.002678,0.000431,0.899796
8510000,0.0324,0.013523,0.002678,0.000431,0.989587
8511000,0.0324,0.013523,0.002678,0.000431,1.019910
8512000,0.0324,0.013523,0.002678,0.000431,0.922949
8513000,0.0324,0.013523,0.002678,0.000431,0.998519
8514000,0.0324,0.013523,0.002678,0.000431,1.016736
8515000,0.0324,0.013523,0.002678,0.000431,0.928003
8516000,0.0324,0.013523,0.002678,0.000431,0.965847
8517000,0.0324,0.013523,0.002678,0.000431,0.973956
8518000,0.0324,0.013523,0.002678,0.000431,0.998519
8519000,0.0324,0.013523,0.002678,0.000431,0.918600
8520000,0.0324,0.013523,0.002678,0.000431,0.904614
8521000,0.0324,0.013523,0.002678,0.000431,0.961381
8522000,0.0324,0.013523,0.002678,0.000431,0.873234
8523000,0.0324,0.013523,0.002678,0.000431,0.959383
8524000,0.0324,0.013523,0.002678,0.000431,0.939520
8525000,0.0324,0.013523,0.002678,0.000431,0.936347
8526000,0.0324,0.013523,0.002678,0.000431,0.942341
8527000,0.0324,0.013523,0.002678,0.000431,0.879346
8528000,0.0324,0.013523,0.002678,0.000431,0.871119
8529000,0.0324,0.013523,0.002678,0.000431,0.927062
8530000,0.0324,0.013523,0.002678,0.000431,0.877113
8531000,0.0324,0.013523,0.002678,0.000431,0.927415
8532000,0.0324,0.013523,0.002678,0.000431,0.823285
8533000,0.0324,0.013523,0.002678,0.000431,0.908963
8534000,0.0324,0.013523,0.002678,0.000431,0.915309
8535000,0.0324,0.013523,0.002678,0.000431,0.898738
8536000,0.0324,0.013523,0.002678,0.000431,0.900148
8537000,0.0324,0.013523,0.002678,0.000431,0.836213
8538000,0.0324,0.013523,0.002678,0.000431,0.883929
8539000,0.0324,0.013523,0.002678,0.000431,0.899561
8540000,0.0324,0.013523,0.002678,0.000431,0.921774
8541000,0.0324,0.013523,0.002678,0.000431,0.869473
8542000,0.0324,0.013523,0.002678,0.000431,0.852549
8543000,0.0324,0.013523,0.002678,0.000431,0.949745
8544000,0.0324,0.013523,0.002678,0.000431,0.868416
8545000,0.0324,0.013523,0.002678,0.000431,0.887573
8546000,0.0324,0.013523,0.002678,0.000431,0.968080
8547000,0.0324,0.013523,0.002678,0.000431,0.794843
8548000,0.0324,0.013523,0.002678,0.000431,0.946690
8549000,0.0324,0.013523,0.002678,0.000431,0.955387
8550000,0.0324,0.013523,0.002678,0.000431,0.881226
8551000,0.0324,0.013523,0.002678,0.000431,0.935289
8552000,0.0324,0.013523,0.002678,0.000431,0.917778
8553000,0.0324,0.013523,0.002678,0.000431,0.932234
8554000,0.0324,0.013523,0.002678,0.000431,1.017324
8555000,0.0324,0.013523,0.002678,0.000431,0.840091
8556000,0.0324,0.013523,0.002678,0.000431,0.926005
8557000,0.0324,0.013523,0.002678,0.000431,0.951273
8558000,0.0324,0.013523,0.002678,0.000431,0.923772
8559000,0.0324,0.013523,0.002678,0.000431,0.978540
8560000,0.0324,0.013523,0.002678,0.000431,0.968315
8561000,0.0324,0.013523,0.002678,0.000431,0.961381
8562000,0.0324,0.013523,0.002678,0.000431,0.912254
8563000,0.0324,0.013523,0.002678,0.000431,0.963614
8564000,0.0324,0.013523,0.002678,0.000431,0.973603
8565000,0.0324,0.013523,0.002678,0.000431,0.996521
8566000,0.0324,0.013523,0.002678,0.000431,1.019557
8567000,0.0324,0.013523,0.002678,0.000431,0.889923
8568000,0.0324,0.013523,0.002678,0.000431,0.975954
8569000,0.0324,0.013523,0.002678,0.000431,0.892979
8570000,0.0324,0.013523,0.002678,0.000431,0.952919
8571000,0.0324,0.013523,0.002678,0.000431,0.965612
8572000,0.0324,0.013523,0.002678,0.000431,0.964906
8573000,0.0324,0.013523,0.002678,0.000431,0.838329
8574000,0.0324,0.013523,0.002678,0.000431,0.947982
8575000,0.0324,0.013523,0.002678,0.000431,0.939638
8576000,0.0324,0.013523,0.002678,0.000431,0.951978
8577000,0.0324,0.013523,0.002678,0.000431,0.998049
8578000,0.0324,0.013523,0.002678,0.000431,0.900501
8579000,0.0324,0.013523,0.002678,0.000431,0.952096
8580000,0.0324,0.013523,0.002678,0.000431,0.938815
8581000,0.0324,0.013523,0.002678,0.000431,0.960675
8582000,0.0324,0.013523,0.002678,0.000431,0.990057
8583000,0.0324,0.013523,0.002678,0.000431,0.894389
8584000,0.0324,0.013523,0.002678,0.000431,1.004631
8585000,0.0324,0.013523,0.002678,0.000431,0.993701
8586000,0.0324,0.013523,0.002678,0.000431,0.980655
8587000,0.0324,0.013523,0.002678,0.000431,0.973368
8588000,0.0324,0.013523,0.002678,0.000431,1.003338
8589000,0.0324,0.013523,0.002678,0.000431,1.024611
8590000,0.0324,0.013523,0.002678,0.000431,0.884517
8591000,0.0324,0.013523,0.002678,0.000431,0.952213
8592000,0.0324,0.013523,0.002678,0.000431,0.934819
8593000,0.0324,0.013523,0.002678,0.000431,0.984651
8594000,0.0324,0.013523,0.002678,0.000431,1.006041
8595000,0.0324,0.013523,0.002678,0.000431,1.025198
8596000,0.0324,0.013523,0.002678,0.000431,1.006041
8597000,0.0324,0.013523,0.002678,0.000431,0.960323
8598000,0.0324,0.013523,0.002678,0.000431,1.012623
8599000,0.0324,0.013523,0.002678,0.000431,0.953741
8600000,0.0324,0.013523,0.002678,0.000431,0.946690
8601000,0.0324,0.013523,0.002678,0.000431,0.986414
8602000,0.0324,0.013523,0.002678,0.000431,0.937875
8603000,0.0324,0.013523,0.002678,0.000431,0.939990
8604000,0.0324,0.013523,0.002678,0.000431,0.915662
8605000,0.0324,0.013523,0.002678,0.000431,0.909668
8606000,0.0324,0.013523,0.002678,0.000431,0.939168
8607000,0.0324,0.013523,0.002678,0.000431,0.946925
8608000,0.0324,0.013523,0.002678,0.000431,0.944104
8609000,0.0324,0.013523,0.002678,0.000431,0.931763
8610000,0.0324,0.013523,0.002678,0.000431,0.920128
8611000,0.0324,0.013523,0.002678,0.000431,0.940461
8612000,0.0324,0.013523,0.002678,0.000431,0.948335
8613000,0.0324,0.013523,0.002678,0.000431,0.930353
8614000,0.0324,0.013523,0.002678,0.000431,0.908493
8615000,0.0324,0.013523,0.002678,0.000431,0.952919
8616000,0.0324,0.013523,0.002678,0.000431,0.954446
8617000,0.0324,0.013523,0.002678,0.000431,0.854430
8618000,0.0324,0.013523,0.002678,0.000431,0.909903
8619000,0.0324,0.013523,0.002678,0.000431,0.902264
8620000,0.0324,0.013523,0.002678,0.000431,0.925534
8621000,0.0324,0.013523,0.002678,0.000431,0.911901
8622000,0.0324,0.013523,0.002678,0.000431,0.864067
8623000,0.0324,0.013523,0.002678,0.000431,0.954329
8624000,0.0324,0.013523,0.002678,0.000431,0.912019
8625000,0.0324,0.013523,0.002678,0.000431,0.849611
8626000,0.0324,0.013523,0.002678,0.000431,0.910961
8627000,0.0324,0.013523,0.002678,0.000431,0.890276
8628000,0.0324,0.013523,0.002678,0.000431,0.938345
8629000,0.0324,0.013523,0.002678,0.000431,0.897680
8630000,0.0324,0.013523,0.002678,0.000431,0.927767
8631000,0.0324,0.013523,0.002678,0.000431,0.892509
8632000,0.0324,0.013523,0.002678,0.000431,0.959853
8633000,0.0324,0.013523,0.002678,0.000431,0.968315
8634000,0.0324,0.013523,0.002678,0.000431,0.937992
8635000,0.0324,0.013523,0.002678,0.000431,0.933409
8636000,0.0324,0.013523,0.002678,0.000431,0.974661
8637000,0.0324,0.013523,0.002678,0.000431,0.940696
8638000,0.0324,0.013523,0.002678,0.000431,1.021320
8639000,0.0324,0.013523,0.002678,0.000431,0.928473
8640000,0.0324,0.013523,0.002678,0.000431,0.918953
8641000,0.0324,0.013523,0.002678,0.000431,0.993583
8642000,0.0324,0.013523,0.002678,0.000431,0.979362
8643000,0.0324,0.013523,0.002678,0.000431,0.972898
8644000,0.0324,0.013523,0.002678,0.000431,1.029312
8645000,0.0324,0.013523,0.002678,0.000431,0.908258
8646000,0.0324,0.013523,0.002678,0.000431,1.000517
8647000,0.0324,0.013523,0.002678,0.000431,0.953036
8648000,0.0324,0.013523,0.002678,0.000431,0.958090
8649000,0.0324,0.013523,0.002678,0.000431,1.061750
8650000,0.0324,0.013523,0.002678,0.000431,0.898856
8651000,0.0324,0.013523,0.002678,0.000431,0.915780
8652000,0.0324,0.013523,0.002678,0.000431,0.949040
8653000,0.0324,0.013523,0.002678,0.000431,0.894742
8654000,0.0324,0.013523,0.002678,0.000431,0.910021
8655000,0.0324,0.013523,0.002678,0.000431,0.942223
8656000,0.0324,0.013523,0.002678,0.000431,0.912136
8657000,0.0324,0.013523,0.002678,0.000431,0.946454
8658000,0.0324,0.013523,0.002678,0.000431,0.888043
8659000,0.0324,0.013523,0.002678,0.000431,0.989470
8660000,0.0324,0.013523,0.002678,0.000431,0.891921
8661000,0.0324,0.013523,0.002678,0.000431,0.962321
8662000,0.0324,0.013523,0.002678,0.000431,0.892274
8663000,0.0324,0.013523,0.002678,0.000431,0.886162
8664000,0.0324,0.013523,0.002678,0.000431,0.912606
8665000,0.0324,0.013523,0.002678,0.000431,0.940343
8666000,0.0324,0.013523,0.002678,0.000431,0.892862
8667000,0.0324,0.013523,0.002678,0.000431,0.917190
8668000,0.0324,0.013523,0.002678,0.000431,0.982301
8669000,0.0324,0.013523,0.002678,0.000431,0.850787
8670000,0.0324,0.013523,0.002678,0.000431,0.875938
8671000,0.0324,0.013523,0.002678,0.000431,0.959030
8672000,0.0324,0.013523,0.002678,0.000431,0.845145
8673000,0.0324,0.013523,0.002678,0.000431,0.902851
8674000,0.0324,0.013523,0.002678,0.000431,0.934702
8675000,0.0324,0.013523,0.002678,0.000431,0.899326
8676000,0.0324,0.013523,0.002678,0.000431,0.933761
8677000,0.0324,0.013523,0.002678,0.000431,0.908845
8678000,0.0324,0.013523,0.002678,0.000431,0.883107
8679000,0.0324,0.013523,0.002678,0.000431,0.911314
8680000,0.0324,0.013523,0.002678,0.000431,0.827046
8681000,0.0324,0.013523,0.002678,0.000431,0.906730
8682000,0.0324,0.013523,0.002678,0.000431,0.940461
8683000,0.0324,0.013523,0.002678,0.000431,0.830689
8684000,0.0324,0.013523,0.002678,0.000431,0.884635
8685000,0.0324,0.013523,0.002678,0.000431,0.858073
8686000,0.0324,0.013523,0.002678,0.000431,0.864772
8687000,0.0324,0.013523,0.002678,0.000431,0.878171
8688000,0.0324,0.013523,0.002678,0.000431,0.879463
8689000,0.0324,0.013523,0.002678,0.000431,0.926005
8690000,0.0324,0.013523,0.002678,0.000431,0.857956
8691000,0.0324,0.013523,0.002678,0.000431,0.898268
8692000,0.0324,0.013523,0.002678,0.000431,0.802365
8693000,0.0324,0.013523,0.002678,0.000431,0.847966
8694000,0.0324,0.013523,0.002678,0.000431,0.847378
8695000,0.0324,0.013523,0.002678,0.000431,0.809417
8696000,0.0324,0.013523,0.002678,0.000431,0.851962
8697000,0.0324,0.013523,0.002678,0.000431,0.829044
8698000,0.0324,0.013523,0.002678,0.000431,0.831982
8699000,0.0324,0.013523,0.002678,0.000431,0.877465
8700000,0.0324,0.013523,0.002678,0.000431,0.900148
8701000,0.0324,0.013523,0.002678,0.000431,0.812707
8702000,0.0324,0.013523,0.002678,0.000431,0.866770
8703000,0.0324,0.013523,0.002678,0.000431,0.867711
8704000,0.0324,0.013523,0.002678,0.000431,0.875350
8705000,0.0324,0.013523,0.002678,0.000431,0.856663
8706000,0.0324,0.013523,0.002678,0.000431,0.861599
8707000,0.0324,0.013523,0.002678,0.000431,0.821640
8708000,0.0324,0.013523,0.002678,0.000431,0.834920
8709000,0.0324,0.013523,0.002678,0.000431,0.833157
8710000,0.0324,0.013523,0.002678,0.000431,0.804951
8711000,0.0324,0.013523,0.002678,0.000431,0.850669
8712000,0.0324,0.013523,0.002678,0.000431,0.824225
8713000,0.0324,0.013523,0.002678,0.000431,0.871119
8714000,0.0324,0.013523,0.002678,0.000431,0.848318
8715000,0.0324,0.013523,0.002678,0.000431,0.823990
8716000,0.0324,0.013523,0.002678,0.000431,0.852079
8717000,0.0324,0.013523,0.002678,0.000431,0.778272
8718000,0.0324,0.013523,0.002678,0.000431,0.806478
8719000,0.0324,0.013523,0.002678,0.000431,0.820817
8720000,0.0324,0.013523,0.002678,0.000431,0.854195
8721000,0.0324,0.013523,0.002678,0.000431,0.779682
8722000,0.0324,0.013523,0.002678,0.000431,0.827986
8723000,0.0324,0.013523,0.002678,0.000431,0.772043
8724000,0.0324,0.013523,0.002678,0.000431,0.796136
8725000,0.0324,0.013523,0.002678,0.000431,0.850551
8726000,0.0324,0.013523,0.002678,0.000431,0.770750
8727000,0.0324,0.013523,0.002678,0.000431,0.878288
8728000,0.0324,0.013523,0.002678,0.000431,0.785088
8729000,0.0324,0.013523,0.002678,0.000431,0.816586
8730000,0.0324,0.013523,0.002678,0.000431,0.823402
8731000,0.0324,0.013523,0.002678,0.000431,0.826458
8732000,0.0324,0.013523,0.002678,0.000431,0.790142
8733000,0.0324,0.013523,0.002678,0.000431,0.832452
8734000,0.0324,0.013523,0.002678,0.000431,0.829161
8735000,0.0324,0.013523,0.002678,0.000431,0.838329
8736000,0.0324,0.013523,0.002678,0.000431,0.768164
8737000,0.0324,0.013523,0.002678,0.000431,0.803423
8738000,0.0324,0.013523,0.002678,0.000431,0.828221
8739000,0.0324,0.013523,0.002678,0.000431,0.840091
8740000,0.0324,0.013523,0.002678,0.000431,0.855840
8741000,0.0324,0.013523,0.002678,0.000431,0.843147
8742000,0.0324,0.013523,0.002678,0.000431,0.856545
8743000,0.0324,0.013523,0.002678,0.000431,0.880874
8744000,0.0324,0.013523,0.002678,0.000431,0.918953
8745000,0.0324,0.013523,0.002678,0.000431,0.906025
8746000,0.0324,0.013523,0.002678,0.000431,0.885222
8747000,0.0324,0.013523,0.002678,0.000431,0.826458
8748000,0.0324,0.013523,0.002678,0.000431,0.871119
8749000,0.0324,0.013523,0.002678,0.000431,0.857368
8750000,0.0324,0.013523,0.002678,0.000431,0.890276
8751000,0.0324,0.013523,0.002678,0.000431,0.861599
8752000,0.0324,0.013523,0.002678,0.000431,0.822345
8753000,0.0324,0.013523,0.002678,0.000431,0.895800
8754000,0.0324,0.013523,0.002678,0.000431,0.883342
8755000,0.0324,0.013523,0.002678,0.000431,0.841384
8756000,0.0324,0.013523,0.002678,0.000431,1.007217
8757000,0.0324,0.013523,0.002678,0.000431,0.863597
8758000,0.0324,0.013523,0.002678,0.000431,0.902146
8759000,0.0324,0.013523,0.002678,0.000431,0.928825
8760000,0.0324,0.013523,0.002678,0.000431,0.940696
8761000,0.0324,0.013523,0.002678,0.000431,0.938815
8762000,0.0324,0.013523,0.002678,0.000431,0.938345
8763000,0.0324,0.013523,0.002678,0.000431,0.891569
8764000,0.0324,0.013523,0.002678,0.000431,0.965494
8765000,0.0324,0.013523,0.002678,0.000431,0.957737
8766000,0.0324,0.013523,0.002678,0.000431,0.961498
8767000,0.0324,0.013523,0.002678,0.000431,0.860424
8768000,0.0324,0.013523,0.002678,0.000431,0.904614
8769000,0.0324,0.013523,0.002678,0.000431,0.911784
8770000,0.0324,0.013523,0.002678,0.000431,0.949628
8771000,0.0324,0.013523,0.002678,0.000431,0.901676
8772000,0.0324,0.013523,0.002678,0.000431,0.872294
8773000,0.0324,0.013523,0.002678,0.000431,0.899326
8774000,0.0324,0.013523,0.002678,0.000431,0.884987
8775000,0.0324,0.013523,0.002678,0.000431,0.906142
8776000,0.0324,0.013523,0.002678,0.000431,0.930588
8777000,0.0324,0.013523,0.002678,0.000431,0.931411
8778000,0.0324,0.013523,0.002678,0.000431,0.955857
8779000,0.0324,0.013523,0.002678,0.000431,0.900266
8780000,0.0324,0.013523,0.002678,0.000431,0.973368
8781000,0.0324,0.013523,0.002678,0.000431,0.930471
8782000,0.0324,0.013523,0.002678,0.000431,0.901441
8783000,0.0324,0.013523,0.002678,0.000431,0.878993
8784000,0.0324,0.013523,0.002678,0.000431,0.968785
8785000,0.0324,0.013523,0.002678,0.000431,0.931058
8786000,0.0324,0.013523,0.002678,0.000431,0.814235
8787000,0.0324,0.013523,0.002678,0.000431,0.924359
8788000,0.0324,0.013523,0.002678,0.000431,0.993348
8789000,0.0324,0.013523,0.002678,0.000431,0.862657
8790000,0.0324,0.013523,0.002678,0.000431,0.941283
8791000,0.0324,0.013523,0.002678,0.000431,0.893097
8792000,0.0324,0.013523,0.002678,0.000431,0.853137
8793000,0.0324,0.013523,0.002678,0.000431,1.011800
8794000,0.0324,0.013523,0.002678,0.000431,0.921421
8795000,0.0324,0.013523,0.002678,0.000431,0.887220
8796000,0.0324,0.013523,0.002678,0.000431,0.958677
8797000,0.0324,0.013523,0.002678,0.000431,0.919188
8798000,0.0324,0.013523,0.002678,0.000431,0.931176
8799000,0.0324,0.013523,0.002678,0.000431,1.089134
8800000,0.0324,0.013523,0.002678,0.000431,0.979832
8801000,0.0324,0.013523,0.002678,0.000431,0.978070
8802000,0.0324,0.013523,0.002678,0.000431,1.007452
8803000,0.0324,0.013523,0.002678,0.000431,0.989352
8804000,0.0324,0.013523,0.002678,0.000431,0.959383
8805000,0.0324,0.013523,0.002678,0.000431,0.946572
8806000,0.0324,0.013523,0.002678,0.000431,0.926240
8807000,0.0324,0.013523,0.002678,0.000431,0.895917
8808000,0.0324,0.013523,0.002678,0.000431,0.945867
8809000,0.0324,0.013523,0.002678,0.000431,0.982418
8810000,0.0324,0.013523,0.002678,0.000431,0.904144
8811000,0.0324,0.013523,0.002678,0.000431,0.965612
8812000,0.0324,0.013523,0.002678,0.000431,0.911901
8813000,0.0324,0.013523,0.002678,0.000431,1.021672
8814000,0.0324,0.013523,0.002678,0.000431,0.956092
8815000,0.0324,0.013523,0.002678,0.000431,0.930471
8816000,0.0324,0.013523,0.002678,0.000431,1.048351
8817000,0.0324,0.013523,0.002678,0.000431,0.983946
8818000,0.0324,0.013523,0.002678,0.000431,0.960088
8819000,0.0324,0.013523,0.002678,0.000431,0.994406
8820000,0.0324,0.013523,0.002678,0.000431,0.985709
8821000,0.0324,0.013523,0.002678,0.000431,0.964671
8822000,0.0324,0.013523,0.002678,0.000431,0.902499
8823000,0.0324,0.013523,0.002678,0.000431,0.975954
8824000,0.0324,0.013523,0.002678,0.000431,1.001810
8825000,0.0324,0.013523,0.002678,0.000431,0.982536
8826000,0.0324,0.013523,0.002678,0.000431,1.038126
8827000,0.0324,0.013523,0.002678,0.000431,0.909903
8828000,0.0324,0.013523,0.002678,0.000431,1.027431
8829000,0.0324,0.013523,0.002678,0.000431,0.976072
8830000,0.0324,0.013523,0.002678,0.000431,1.003573
8831000,0.0324,0.013523,0.002678,0.000431,1.005924
8832000,0.0324,0.013523,0.002678,0.000431,0.976072
8833000,0.0324,0.013523,0.002678,0.000431,0.961263
8834000,0.0324,0.013523,0.002678,0.000431,1.008979
8835000,0.0324,0.013523,0.002678,0.000431,0.886750
8836000,0.0324,0.013523,0.002678,0.000431,0.970783
8837000,0.0324,0.013523,0.002678,0.000431,1.004513
8838000,0.0324,0.013523,0.002678,0.000431,0.951978
8839000,0.0324,0.013523,0.002678,0.000431,0.948687
8840000,0.0324,0.013523,0.002678,0.000431,0.952566
8841000,0.0324,0.013523,0.002678,0.000431,0.987942
8842000,0.0324,0.013523,0.002678,0.000431,0.886045
8843000,0.0324,0.013523,0.002678,0.000431,0.953976
8844000,0.0324,0.013523,0.002678,0.000431,0.943046
8845000,0.0324,0.013523,0.002678,0.000431,0.971958
8846000,0.0324,0.013523,0.002678,0.000431,1.002045
8847000,0.0324,0.013523,0.002678,0.000431,0.930588
8848000,0.0324,0.013523,0.002678,0.000431,0.991820
8849000,0.0324,0.013523,0.002678,0.000431,1.022848
8850000,0.0324,0.013523,0.002678,0.000431,0.886280
8851000,0.0324,0.013523,0.002678,0.000431,0.950215
8852000,0.0324,0.013523,0.002678,0.000431,0.968197
8853000,0.0324,0.013523,0.002678,0.000431,0.954799
8854000,0.0324,0.013523,0.002678,0.000431,0.950568
8855000,0.0324,0.013523,0.002678,0.000431,1.008744
8856000,0.0324,0.013523,0.002678,0.000431,1.039419
8857000,0.0324,0.013523,0.002678,0.000431,0.878993
8858000,0.0324,0.013523,0.002678,0.000431,0.957502
8859000,0.0324,0.013523,0.002678,0.000431,0.989000
8860000,0.0324,0.013523,0.002678,0.000431,0.974309
8861000,0.0324,0.013523,0.002678,0.000431,0.924242
8862000,0.0324,0.013523,0.002678,0.000431,0.958207
8863000,0.0324,0.013523,0.002678,0.000431,0.896740
8864000,0.0324,0.013523,0.002678,0.000431,0.999107
8865000,0.0324,0.013523,0.002678,0.000431,0.972428
8866000,0.0324,0.013523,0.002678,0.000431,0.907553
8867000,0.0324,0.013523,0.002678,0.000431,1.022495
8868000,0.0324,0.013523,0.002678,0.000431,0.953859
8869000,0.0324,0.013523,0.002678,0.000431,0.922126
8870000,0.0324,0.013523,0.002678,0.000431,1.006159
8871000,0.0324,0.013523,0.002678,0.000431,1.086313
8872000,0.0324,0.013523,0.002678,0.000431,0.891804
8873000,0.0324,0.013523,0.002678,0.000431,0.916837
8874000,0.0324,0.013523,0.002678,0.000431,1.046236
8875000,0.0324,0.013523,0.002678,0.000431,0.916485
8876000,0.0324,0.013523,0.002678,0.000431,0.994053
8877000,0.0324,0.013523,0.002678,0.000431,0.998167
8878000,0.0324,0.013523,0.002678,0.000431,0.919893
8879000,0.0324,0.013523,0.002678,0.000431,1.044238
8880000,0.0324,0.013523,0.002678,0.000431,0.967962
8881000,0.0324,0.013523,0.002678,0.000431,0.892862
8882000,0.0324,0.013523,0.002678,0.000431,0.924712
8883000,0.0324,0.013523,0.002678,0.000431,0.900383
8884000,0.0324,0.013523,0.002678,0.000431,0.955387
8885000,0.0324,0.013523,0.002678,0.000431,1.002398
8886000,0.0324,0.013523,0.002678,0.000431,0.943281
8887000,0.0324,0.013523,0.002678,0.000431,1.001928
8888000,0.0324,0.013523,0.002678,0.000431,0.945867
8889000,0.0324,0.013523,0.002678,0.000431,0.974544
8890000,0.0324,0.013523,0.002678,0.000431,0.888983
8891000,0.0324,0.013523,0.002678,0.000431,0.982183
8892000,0.0324,0.013523,0.002678,0.000431,1.018147
8893000,0.0324,0.013523,0.002678,0.000431,0.952919
8894000,0.0324,0.013523,0.002678,0.000431,0.984651
8895000,0.0324,0.013523,0.002678,0.000431,0.913194
8896000,0.0324,0.013523,0.002678,0.000431,0.975484
8897000,0.0324,0.013523,0.002678,0.000431,0.916015
8898000,0.0324,0.013523,0.002678,0.000431,0.939990
8899000,0.0324,0.013523,0.002678,0.000431,0.945984
8900000,0.0324,0.013523,0.002678,0.000431,0.896858
8901000,0.0324,0.013523,0.002678,0.000431,0.930941
8902000,0.0324,0.013523,0.002678,0.000431,0.932939
8903000,0.0324,0.013523,0.002678,0.000431,0.876760
8904000,0.0324,0.013523,0.002678,0.000431,0.938698
8905000,0.0324,0.013523,0.002678,0.000431,0.899326
8906000,0.0324,0.013523,0.002678,0.000431,0.985239
8907000,0.0324,0.013523,0.002678,0.000431,0.902969
8908000,0.0324,0.013523,0.002678,0.000431,0.943634
8909000,0.0324,0.013523,0.002678,0.000431,0.957620
8910000,0.0324,0.013523,0.002678,0.000431,0.917543
8911000,0.0324,0.013523,0.002678,0.000431,0.956444
8912000,0.0324,0.013523,0.002678,0.000431,0.938345
8913000,0.0324,0.013523,0.002678,0.000431,0.858073
8914000,0.0324,0.013523,0.002678,0.000431,0.920716
8915000,0.0324,0.013523,0.002678,0.000431,0.941636
8916000,0.0324,0.013523,0.002678,0.000431,0.919188
8917000,0.0324,0.013523,0.002678,0.000431,0.865595
8918000,0.0324,0.013523,0.002678,0.000431,0.906730
8919000,0.0324,0.013523,0.002678,0.000431,0.779682
8920000,0.0324,0.013523,0.002678,0.000431,0.918835
8921000,0.0324,0.013523,0.002678,0.000431,0.837976
8922000,0.0324,0.013523,0.002678,0.000431,0.906377
8923000,0.0324,0.013523,0.002678,0.000431,0.843500
8924000,0.0324,0.013523,0.002678,0.000431,0.874880
8925000,0.0324,0.013523,0.002678,0.000431,0.888160
8926000,0.0324,0.013523,0.002678,0.000431,0.874410
8927000,0.0324,0.013523,0.002678,0.000431,0.933761
8928000,0.0324,0.013523,0.002678,0.000431,0.886750
8929000,0.0324,0.013523,0.002678,0.000431,0.893919
8930000,0.0324,0.013523,0.002678,0.000431,0.927297
8931000,0.0324,0.013523,0.002678,0.000431,0.879346
8932000,0.0324,0.013523,0.002678,0.000431,0.956444
8933000,0.0324,0.013523,0.002678,0.000431,0.899796
8934000,0.0324,0.013523,0.002678,0.000431,0.914369
8935000,0.0324,0.013523,0.002678,0.000431,0.883694
8936000,0.0324,0.013523,0.002678,0.000431,0.976542
8937000,0.0324,0.013523,0.002678,0.000431,0.824813
8938000,0.0324,0.013523,0.002678,0.000431,0.853490
8939000,0.0324,0.013523,0.002678,0.000431,0.932821
8940000,0.0324,0.013523,0.002678,0.000431,0.895565
8941000,0.0324,0.013523,0.002678,0.000431,0.982418
8942000,0.0324,0.013523,0.002678,0.000431,0.860071
8943000,0.0324,0.013523,0.002678,0.000431,0.949980
8944000,0.0324,0.013523,0.002678,0.000431,0.955034
8945000,0.0324,0.013523,0.002678,0.000431,0.860659
8946000,0.0324,0.013523,0.002678,0.000431,0.918835
8947000,0.0324,0.013523,0.002678,0.000431,1.019910
8948000,0.0324,0.013523,0.002678,0.000431,0.910726
8949000,0.0324,0.013523,0.002678,0.000431,0.992526
8950000,0.0324,0.013523,0.002678,0.000431,0.910608
8951000,0.0324,0.013523,0.002678,0.000431,0.903439
8952000,0.0324,0.013523,0.002678,0.000431,0.950803
8953000,0.0324,0.013523,0.002678,0.000431,0.937287
8954000,0.0324,0.013523,0.002678,0.000431,0.905085
8955000,0.0324,0.013523,0.002678,0.000431,0.927532
8956000,0.0324,0.013523,0.002678,0.000431,0.850904
8957000,0.0324,0.013523,0.002678,0.000431,0.900618
8958000,0.0324,0.013523,0.002678,0.000431,0.897210
8959000,0.0324,0.013523,0.002678,0.000431,0.886280
8960000,0.0324,0.013523,0.002678,0.000431,0.895095
8961000,0.0324,0.013523,0.002678,0.000431,0.853137
8962000,0.0324,0.013523,0.002678,0.000431,0.948100
8963000,0.0324,0.013523,0.002678,0.000431,0.834098
8964000,0.0324,0.013523,0.002678,0.000431,0.930471
8965000,0.0324,0.013523,0.002678,0.000431,0.770162
8966000,0.0324,0.013523,0.002678,0.000431,0.849729
8967000,0.0324,0.013523,0.002678,0.000431,0.799897
8968000,0.0324,0.013523,0.002678,0.000431,0.888513
8969000,0.0324,0.013523,0.002678,0.000431,0.907318
8970000,0.0324,0.013523,0.002678,0.000431,0.831042
8971000,0.0324,0.013523,0.002678,0.000431,0.892039
8972000,0.0324,0.013523,0.002678,0.000431,0.954681
8973000,0.0324,0.013523,0.002678,0.000431,0.892744
8974000,0.0324,0.013523,0.002678,0.000431,0.887925
8975000,0.0324,0.013523,0.002678,0.000431,0.917895
8976000,0.0324,0.013523,0.002678,0.000431,0.901559
8977000,0.0324,0.013523,0.002678,0.000431,0.862657
8978000,0.0324,0.013523,0.002678,0.000431,0.935994
8979000,0.0324,0.013523,0.002678,0.000431,0.914604
8980000,0.0324,0.013523,0.002678,0.000431,0.986061
8981000,0.0324,0.013523,0.002678,0.000431,0.878288
8982000,0.0324,0.013523,0.002678,0.000431,0.890511
8983000,0.0324,0.013523,0.002678,0.000431,0.993231
8984000,0.0324,0.013523,0.002678,0.000431,0.911078
8985000,0.0324,0.013523,0.002678,0.000431,0.946454
8986000,0.0324,0.013523,0.002678,0.000431,0.908375
8987000,0.0324,0.013523,0.002678,0.000431,0.887220
8988000,0.0324,0.013523,0.002678,0.000431,0.915545
8989000,0.0324,0.013523,0.002678,0.000431,1.014503
8990000,0.0324,0.013523,0.002678,0.000431,0.979950
8991000,0.0324,0.013523,0.002678,0.000431,0.925887
8992000,0.0324,0.013523,0.002678,0.000431,0.955387
8993000,0.0324,0.013523,0.002678,0.000431,0.925769
8994000,0.0324,0.013523,0.002678,0.000431,0.916485
8995000,0.0324,0.013523,0.002678,0.000431,0.886280
8996000,0.0324,0.013523,0.002678,0.000431,0.961968
8997000,0.0324,0.013523,0.002678,0.000431,1.002045
8998000,0.0324,0.013523,0.002678,0.000431,0.915427
8999000,0.0324,0.013523,0.002678,0.000431,0.895095
