Cycle,Area(mm^2),PeakDynamic(W),SubthresholdLeakage(W),GateLeakage(W),RunTimeDynamic(W)
9000000,0.0324,0.013523,0.002678,0.000431,0.942341
9001000,0.0324,0.013523,0.002678,0.000431,0.944456
9002000,0.0324,0.013523,0.002678,0.000431,0.939638
9003000,0.0324,0.013523,0.002678,0.000431,0.973133
9004000,0.0324,0.013523,0.002678,0.000431,0.924242
9005000,0.0324,0.013523,0.002678,0.000431,0.972311
9006000,0.0324,0.013523,0.002678,0.000431,0.919423
9007000,0.0324,0.013523,0.002678,0.000431,0.870766
9008000,0.0324,0.013523,0.002678,0.000431,0.953976
9009000,0.0324,0.013523,0.002678,0.000431,0.984299
9010000,0.0324,0.013523,0.002678,0.000431,0.877230
9011000,0.0324,0.013523,0.002678,0.000431,0.931058
9012000,0.0324,0.013523,0.002678,0.000431,0.920128
9013000,0.0324,0.013523,0.002678,0.000431,0.880991
9014000,0.0324,0.013523,0.002678,0.000431,0.928473
9015000,0.0324,0.013523,0.002678,0.000431,0.871707
9016000,0.0324,0.013523,0.002678,0.000431,0.912371
9017000,0.0324,0.013523,0.002678,0.000431,0.911314
9018000,0.0324,0.013523,0.002678,0.000431,0.918718
9019000,0.0324,0.013523,0.002678,0.000431,0.946572
9020000,0.0324,0.013523,0.002678,0.000431,0.930588
9021000,0.0324,0.013523,0.002678,0.000431,0.878523
9022000,0.0324,0.013523,0.002678,0.000431,0.928003
9023000,0.0324,0.013523,0.002678,0.000431,0.961381
9024000,0.0324,0.013523,0.002678,0.000431,0.884400
9025000,0.0324,0.013523,0.002678,0.000431,0.973956
9026000,0.0324,0.013523,0.002678,0.000431,0.903204
9027000,0.0324,0.013523,0.002678,0.000431,0.973016
9028000,0.0324,0.013523,0.002678,0.000431,0.886162
9029000,0.0324,0.013523,0.002678,0.000431,0.890511
9030000,0.0324,0.013523,0.002678,0.000431,0.958442
9031000,0.0324,0.013523,0.002678,0.000431,0.864537
9032000,0.0324,0.013523,0.002678,0.000431,0.849024
9033000,0.0324,0.013523,0.002678,0.000431,0.872529
9034000,0.0324,0.013523,0.002678,0.000431,0.897328
9035000,0.0324,0.013523,0.002678,0.000431,0.919893
9036000,0.0324,0.013523,0.002678,0.000431,0.917778
9037000,0.0324,0.013523,0.002678,0.000431,0.949628
9038000,0.0324,0.013523,0.002678,0.000431,0.949980
9039000,0.0324,0.013523,0.002678,0.000431,0.859484
9040000,0.0324,0.013523,0.002678,0.000431,0.968315
9041000,0.0324,0.013523,0.002678,0.000431,0.913429
9042000,0.0324,0.013523,0.002678,0.000431,0.869003
9043000,0.0324,0.013523,0.002678,0.000431,0.983123
9044000,0.0324,0.013523,0.002678,0.000431,0.881109
9045000,0.0324,0.013523,0.002678,0.000431,0.884870
9046000,0.0324,0.013523,0.002678,0.000431,0.888983
9047000,0.0324,0.013523,0.002678,0.000431,0.924477
9048000,0.0324,0.013523,0.002678,0.000431,0.975601
9049000,0.0324,0.013523,0.002678,0.000431,0.920363
9050000,0.0324,0.013523,0.002678,0.000431,0.942929
9051000,0.0324,0.013523,0.002678,0.000431,1.001223
9052000,0.0324,0.013523,0.002678,0.000431,0.915662
9053000,0.0324,0.013523,0.002678,0.000431,0.941048
9054000,0.0324,0.013523,0.002678,0.000431,0.995816
9055000,0.0324,0.013523,0.002678,0.000431,0.955504
9056000,0.0324,0.013523,0.002678,0.000431,0.998284
9057000,0.0324,0.013523,0.002678,0.000431,0.924477
9058000,0.0324,0.013523,0.002678,0.000431,1.015561
9059000,0.0324,0.013523,0.002678,0.000431,0.926122
9060000,0.0324,0.013523,0.002678,0.000431,0.930118
9061000,0.0324,0.013523,0.002678,0.000431,0.934232
9062000,0.0324,0.013523,0.002678,0.000431,0.890276
9063000,0.0324,0.013523,0.002678,0.000431,1.035188
9064000,0.0324,0.013523,0.002678,0.000431,0.989117
9065000,0.0324,0.013523,0.002678,0.000431,0.995816
9066000,0.0324,0.013523,0.002678,0.000431,1.035893
9067000,0.0324,0.013523,0.002678,0.000431,0.951391
9068000,0.0324,0.013523,0.002678,0.000431,0.935054
9069000,0.0324,0.013523,0.002678,0.000431,0.927650
9070000,0.0324,0.013523,0.002678,0.000431,0.945397
9071000,0.0324,0.013523,0.002678,0.000431,0.959853
9072000,0.0324,0.013523,0.002678,0.000431,0.964319
9073000,0.0324,0.013523,0.002678,0.000431,0.956327
9074000,0.0324,0.013523,0.002678,0.000431,0.955622
9075000,0.0324,0.013523,0.002678,0.000431,0.896387
9076000,0.0324,0.013523,0.002678,0.000431,0.969608
9077000,0.0324,0.013523,0.002678,0.000431,0.827869
9078000,0.0324,0.013523,0.002678,0.000431,0.936935
9079000,0.0324,0.013523,0.002678,0.000431,0.918483
9080000,0.0324,0.013523,0.002678,0.000431,0.904849
9081000,0.0324,0.013523,0.002678,0.000431,0.981008
9082000,0.0324,0.013523,0.002678,0.000431,0.889453
9083000,0.0324,0.013523,0.002678,0.000431,0.935054
9084000,0.0324,0.013523,0.002678,0.000431,0.870061
9085000,0.0324,0.013523,0.002678,0.000431,0.871589
9086000,0.0324,0.013523,0.002678,0.000431,0.924124
9087000,0.0324,0.013523,0.002678,0.000431,0.902616
9088000,0.0324,0.013523,0.002678,0.000431,0.854547
9089000,0.0324,0.013523,0.002678,0.000431,0.981713
9090000,0.0324,0.013523,0.002678,0.000431,0.963496
9091000,0.0324,0.013523,0.002678,0.000431,0.868768
9092000,0.0324,0.013523,0.002678,0.000431,0.990175
9093000,0.0324,0.013523,0.002678,0.000431,0.917895
9094000,0.0324,0.013523,0.002678,0.000431,0.975954
9095000,0.0324,0.013523,0.002678,0.000431,1.003691
9096000,0.0324,0.013523,0.002678,0.000431,0.927532
9097000,0.0324,0.013523,0.002678,0.000431,1.044590
9098000,0.0324,0.013523,0.002678,0.000431,0.912371
9099000,0.0324,0.013523,0.002678,0.000431,0.870531
9100000,0.0324,0.013523,0.002678,0.000431,0.979832
9101000,0.0324,0.013523,0.002678,0.000431,0.959970
9102000,0.0324,0.013523,0.002678,0.000431,0.974896
9103000,0.0324,0.013523,0.002678,0.000431,0.933526
9104000,0.0324,0.013523,0.002678,0.000431,0.951156
9105000,0.0324,0.013523,0.002678,0.000431,0.873234
9106000,0.0324,0.013523,0.002678,0.000431,0.864420
9107000,0.0324,0.013523,0.002678,0.000431,0.926005
9108000,0.0324,0.013523,0.002678,0.000431,0.928355
9109000,0.0324,0.013523,0.002678,0.000431,0.933526
9110000,0.0324,0.013523,0.002678,0.000431,0.944574
9111000,0.0324,0.013523,0.002678,0.000431,0.957620
9112000,0.0324,0.013523,0.002678,0.000431,0.948100
9113000,0.0324,0.013523,0.002678,0.000431,0.979127
9114000,0.0324,0.013523,0.002678,0.000431,0.941166
9115000,0.0324,0.013523,0.002678,0.000431,1.012035
9116000,0.0324,0.013523,0.002678,0.000431,1.050819
9117000,0.0324,0.013523,0.002678,0.000431,0.998754
9118000,0.0324,0.013523,0.002678,0.000431,0.886398
9119000,0.0324,0.013523,0.002678,0.000431,1.035893
9120000,0.0324,0.013523,0.002678,0.000431,0.977599
9121000,0.0324,0.013523,0.002678,0.000431,0.989587
9122000,0.0324,0.013523,0.002678,0.000431,0.995816
9123000,0.0324,0.013523,0.002678,0.000431,0.899913
9124000,0.0324,0.013523,0.002678,0.000431,1.048939
9125000,0.0324,0.013523,0.002678,0.000431,0.892391
9126000,0.0324,0.013523,0.002678,0.000431,0.967962
9127000,0.0324,0.013523,0.002678,0.000431,0.986179
9128000,0.0324,0.013523,0.002678,0.000431,0.980773
9129000,0.0324,0.013523,0.002678,0.000431,0.958912
9130000,0.0324,0.013523,0.002678,0.000431,1.008862
9131000,0.0324,0.013523,0.002678,0.000431,0.948923
9132000,0.0324,0.013523,0.002678,0.000431,1.037304
9133000,0.0324,0.013523,0.002678,0.000431,1.052700
9134000,0.0324,0.013523,0.002678,0.000431,0.948217
9135000,0.0324,0.013523,0.002678,0.000431,0.915192
9136000,0.0324,0.013523,0.002678,0.000431,0.986884
9137000,0.0324,0.013523,0.002678,0.000431,1.043180
9138000,0.0324,0.013523,0.002678,0.000431,0.998402
9139000,0.0324,0.013523,0.002678,0.000431,0.949040
9140000,0.0324,0.013523,0.002678,0.000431,1.016501
9141000,0.0324,0.013523,0.002678,0.000431,0.901559
9142000,0.0324,0.013523,0.002678,0.000431,0.996521
9143000,0.0324,0.013523,0.002678,0.000431,0.994994
9144000,0.0324,0.013523,0.002678,0.000431,0.953859
9145000,0.0324,0.013523,0.002678,0.000431,1.006159
9146000,0.0324,0.013523,0.002678,0.000431,1.000282
9147000,0.0324,0.013523,0.002678,0.000431,0.966199
9148000,0.0324,0.013523,0.002678,0.000431,0.964084
9149000,0.0324,0.013523,0.002678,0.000431,1.012388
9150000,0.0324,0.013523,0.002678,0.000431,0.962203
9151000,0.0324,0.013523,0.002678,0.000431,1.034483
9152000,0.0324,0.013523,0.002678,0.000431,0.947630
9153000,0.0324,0.013523,0.002678,0.000431,1.038479
9154000,0.0324,0.013523,0.002678,0.000431,0.971253
9155000,0.0324,0.013523,0.002678,0.000431,1.000517
9156000,0.0324,0.013523,0.002678,0.000431,0.952213
9157000,0.0324,0.013523,0.002678,0.000431,1.018029
9158000,0.0324,0.013523,0.002678,0.000431,0.961145
9159000,0.0324,0.013523,0.002678,0.000431,0.916837
9160000,0.0324,0.013523,0.002678,0.000431,0.926710
9161000,0.0324,0.013523,0.002678,0.000431,0.953271
9162000,0.0324,0.013523,0.002678,0.000431,0.951273
9163000,0.0324,0.013523,0.002678,0.000431,0.926945
9164000,0.0324,0.013523,0.002678,0.000431,0.902969
9165000,0.0324,0.013523,0.002678,0.000431,0.976542
9166000,0.0324,0.013523,0.002678,0.000431,1.000635
9167000,0.0324,0.013523,0.002678,0.000431,0.944574
9168000,0.0324,0.013523,0.002678,0.000431,0.972898
9169000,0.0324,0.013523,0.002678,0.000431,0.998519
9170000,0.0324,0.013523,0.002678,0.000431,0.911901
9171000,0.0324,0.013523,0.002678,0.000431,0.981478
9172000,0.0324,0.013523,0.002678,0.000431,1.081729
9173000,0.0324,0.013523,0.002678,0.000431,0.892391
9174000,0.0324,0.013523,0.002678,0.000431,0.901089
9175000,0.0324,0.013523,0.002678,0.000431,0.962791
9176000,0.0324,0.013523,0.002678,0.000431,0.929178
9177000,0.0324,0.013523,0.002678,0.000431,0.937640
9178000,0.0324,0.013523,0.002678,0.000431,0.997697
9179000,0.0324,0.013523,0.002678,0.000431,0.913429
9180000,0.0324,0.013523,0.002678,0.000431,0.944339
9181000,0.0324,0.013523,0.002678,0.000431,1.028959
9182000,0.0324,0.013523,0.002678,0.000431,0.973721
9183000,0.0324,0.013523,0.002678,0.000431,0.944104
9184000,0.0324,0.013523,0.002678,0.000431,0.946454
9185000,0.0324,0.013523,0.002678,0.000431,1.071857
9186000,0.0324,0.013523,0.002678,0.000431,0.881814
9187000,0.0324,0.013523,0.002678,0.000431,0.981008
9188000,0.0324,0.013523,0.002678,0.000431,0.926710
9189000,0.0324,0.013523,0.002678,0.000431,0.893214
9190000,0.0324,0.013523,0.002678,0.000431,0.810592
9191000,0.0324,0.013523,0.002678,0.000431,1.007334
9192000,0.0324,0.013523,0.002678,0.000431,0.955504
9193000,0.0324,0.013523,0.002678,0.000431,0.959265
9194000,0.0324,0.013523,0.002678,0.000431,1.026491
9195000,0.0324,0.013523,0.002678,0.000431,0.957150
9196000,0.0324,0.013523,0.002678,0.000431,0.955857
9197000,0.0324,0.013523,0.002678,0.000431,0.999225
9198000,0.0324,0.013523,0.002678,0.000431,0.988177
9199000,0.0324,0.013523,0.002678,0.000431,0.985121
9200000,0.0324,0.013523,0.002678,0.000431,0.891216
9201000,0.0324,0.013523,0.002678,0.000431,1.074090
9202000,0.0324,0.013523,0.002678,0.000431,0.974544
9203000,0.0324,0.013523,0.002678,0.000431,0.942811
9204000,0.0324,0.013523,0.002678,0.000431,1.032603
9205000,0.0324,0.013523,0.002678,0.000431,0.962791
9206000,0.0324,0.013523,0.002678,0.000431,0.999460
9207000,0.0324,0.013523,0.002678,0.000431,1.029194
9208000,0.0324,0.013523,0.002678,0.000431,1.034248
9209000,0.0324,0.013523,0.002678,0.000431,1.025198
9210000,0.0324,0.013523,0.002678,0.000431,1.035306
9211000,0.0324,0.013523,0.002678,0.000431,0.940696
9212000,0.0324,0.013523,0.002678,0.000431,0.943516
9213000,0.0324,0.013523,0.002678,0.000431,0.980538
9214000,0.0324,0.013523,0.002678,0.000431,0.977834
9215000,0.0324,0.013523,0.002678,0.000431,0.965024
9216000,0.0324,0.013523,0.002678,0.000431,0.962086
9217000,0.0324,0.013523,0.002678,0.000431,1.028254
9218000,0.0324,0.013523,0.002678,0.000431,0.952801
9219000,0.0324,0.013523,0.002678,0.000431,0.930706
9220000,0.0324,0.013523,0.002678,0.000431,0.961263
9221000,0.0324,0.013523,0.002678,0.000431,0.935759
9222000,0.0324,0.013523,0.002678,0.000431,0.989000
9223000,0.0324,0.013523,0.002678,0.000431,0.935407
9224000,0.0324,0.013523,0.002678,0.000431,0.970665
9225000,0.0324,0.013523,0.002678,0.000431,0.915309
9226000,0.0324,0.013523,0.002678,0.000431,0.978775
9227000,0.0324,0.013523,0.002678,0.000431,0.933291
9228000,0.0324,0.013523,0.002678,0.000431,0.966904
9229000,0.0324,0.013523,0.002678,0.000431,0.943869
9230000,0.0324,0.013523,0.002678,0.000431,0.970548
9231000,0.0324,0.013523,0.002678,0.000431,1.007687
9232000,0.0324,0.013523,0.002678,0.000431,0.923772
9233000,0.0324,0.013523,0.002678,0.000431,0.935524
9234000,0.0324,0.013523,0.002678,0.000431,0.950450
9235000,0.0324,0.013523,0.002678,0.000431,0.902851
9236000,0.0324,0.013523,0.002678,0.000431,0.893567
9237000,0.0324,0.013523,0.002678,0.000431,0.981125
9238000,0.0324,0.013523,0.002678,0.000431,0.830572
9239000,0.0324,0.013523,0.002678,0.000431,0.883107
9240000,0.0324,0.013523,0.002678,0.000431,0.864420
9241000,0.0324,0.013523,0.002678,0.000431,0.899091
9242000,0.0324,0.013523,0.002678,0.000431,0.913782
9243000,0.0324,0.013523,0.002678,0.000431,0.935877
9244000,0.0324,0.013523,0.002678,0.000431,0.935759
9245000,0.0324,0.013523,0.002678,0.000431,1.005454
9246000,0.0324,0.013523,0.002678,0.000431,0.892156
9247000,0.0324,0.013523,0.002678,0.000431,0.992761
9248000,0.0324,0.013523,0.002678,0.000431,0.866183
9249000,0.0324,0.013523,0.002678,0.000431,0.881226
9250000,0.0324,0.013523,0.002678,0.000431,0.939168
9251000,0.0324,0.013523,0.002678,0.000431,0.880639
9252000,0.0324,0.013523,0.002678,0.000431,0.896152
9253000,0.0324,0.013523,0.002678,0.000431,0.911431
9254000,0.0324,0.013523,0.002678,0.000431,0.848789
9255000,0.0324,0.013523,0.002678,0.000431,0.894507
9256000,0.0324,0.013523,0.002678,0.000431,0.834450
9257000,0.0324,0.013523,0.002678,0.000431,0.880521
9258000,0.0324,0.013523,0.002678,0.000431,0.857016
9259000,0.0324,0.013523,0.002678,0.000431,0.835978
9260000,0.0324,0.013523,0.002678,0.000431,0.921656
9261000,0.0324,0.013523,0.002678,0.000431,0.912136
9262000,0.0324,0.013523,0.002678,0.000431,0.827869
9263000,0.0324,0.013523,0.002678,0.000431,0.868063
9264000,0.0324,0.013523,0.002678,0.000431,0.891334
9265000,0.0324,0.013523,0.002678,0.000431,0.836213
9266000,0.0324,0.013523,0.002678,0.000431,0.887455
9267000,0.0324,0.013523,0.002678,0.000431,0.888983
9268000,0.0324,0.013523,0.002678,0.000431,0.906730
9269000,0.0324,0.013523,0.002678,0.000431,0.910256
9270000,0.0324,0.013523,0.002678,0.000431,0.891804
9271000,0.0324,0.013523,0.002678,0.000431,0.894037
9272000,0.0324,0.013523,0.002678,0.000431,0.928120
9273000,0.0324,0.013523,0.002678,0.000431,0.915074
9274000,0.0324,0.013523,0.002678,0.000431,0.974191
9275000,0.0324,0.013523,0.002678,0.000431,0.950450
9276000,0.0324,0.013523,0.002678,0.000431,0.893449
9277000,0.0324,0.013523,0.002678,0.000431,0.951391
9278000,0.0324,0.013523,0.002678,0.000431,0.883342
9279000,0.0324,0.013523,0.002678,0.000431,0.961028
9280000,0.0324,0.013523,0.002678,0.000431,0.902146
9281000,0.0324,0.013523,0.002678,0.000431,1.009802
9282000,0.0324,0.013523,0.002678,0.000431,0.965024
9283000,0.0324,0.013523,0.002678,0.000431,0.997697
9284000,0.0324,0.013523,0.002678,0.000431,0.945279
9285000,0.0324,0.013523,0.002678,0.000431,1.053288
9286000,0.0324,0.013523,0.002678,0.000431,0.981125
9287000,0.0324,0.013523,0.002678,0.000431,0.981713
9288000,0.0324,0.013523,0.002678,0.000431,1.034483
9289000,0.0324,0.013523,0.002678,0.000431,0.891216
9290000,0.0324,0.013523,0.002678,0.000431,0.955152
9291000,0.0324,0.013523,0.002678,0.000431,1.114990
9292000,0.0324,0.013523,0.002678,0.000431,0.921891
9293000,0.0324,0.013523,0.002678,0.000431,0.968902
9294000,0.0324,0.013523,0.002678,0.000431,1.021202
9295000,0.0324,0.013523,0.002678,0.000431,0.929883
9296000,0.0324,0.013523,0.002678,0.000431,0.991468
9297000,0.0324,0.013523,0.002678,0.000431,0.942458
9298000,0.0324,0.013523,0.002678,0.000431,0.986532
9299000,0.0324,0.013523,0.002678,0.000431,0.930471
9300000,0.0324,0.013523,0.002678,0.000431,0.938463
9301000,0.0324,0.013523,0.002678,0.000431,1.024611
9302000,0.0324,0.013523,0.002678,0.000431,0.943869
9303000,0.0324,0.013523,0.002678,0.000431,1.059869
9304000,0.0324,0.013523,0.002678,0.000431,0.995111
9305000,0.0324,0.013523,0.002678,0.000431,0.892156
9306000,0.0324,0.013523,0.002678,0.000431,1.060339
9307000,0.0324,0.013523,0.002678,0.000431,0.869356
9308000,0.0324,0.013523,0.002678,0.000431,0.935407
9309000,0.0324,0.013523,0.002678,0.000431,1.007804
9310000,0.0324,0.013523,0.002678,0.000431,0.901559
9311000,0.0324,0.013523,0.002678,0.000431,0.901324
9312000,0.0324,0.013523,0.002678,0.000431,1.005924
9313000,0.0324,0.013523,0.002678,0.000431,0.958325
9314000,0.0324,0.013523,0.002678,0.000431,0.948100
9315000,0.0324,0.013523,0.002678,0.000431,0.917307
9316000,0.0324,0.013523,0.002678,0.000431,0.981830
9317000,0.0324,0.013523,0.002678,0.000431,1.028724
9318000,0.0324,0.013523,0.002678,0.000431,0.947865
9319000,0.0324,0.013523,0.002678,0.000431,0.943986
9320000,0.0324,0.013523,0.002678,0.000431,0.973721
9321000,0.0324,0.013523,0.002678,0.000431,0.918013
9322000,0.0324,0.013523,0.002678,0.000431,0.935524
9323000,0.0324,0.013523,0.002678,0.000431,0.980303
9324000,0.0324,0.013523,0.002678,0.000431,0.985356
9325000,0.0324,0.013523,0.002678,0.000431,0.961263
9326000,0.0324,0.013523,0.002678,0.000431,0.940813
9327000,0.0324,0.013523,0.002678,0.000431,0.915662
9328000,0.0324,0.013523,0.002678,0.000431,0.973956
9329000,0.0324,0.013523,0.002678,0.000431,0.953506
9330000,0.0324,0.013523,0.002678,0.000431,0.920128
9331000,0.0324,0.013523,0.002678,0.000431,0.944692
9332000,0.0324,0.013523,0.002678,0.000431,1.000870
9333000,0.0324,0.013523,0.002678,0.000431,0.974896
9334000,0.0324,0.013523,0.002678,0.000431,1.046471
9335000,0.0324,0.013523,0.002678,0.000431,0.958560
9336000,0.0324,0.013523,0.002678,0.000431,0.976072
9337000,0.0324,0.013523,0.002678,0.000431,1.058224
9338000,0.0324,0.013523,0.002678,0.000431,0.961498
9339000,0.0324,0.013523,0.002678,0.000431,0.997462
9340000,0.0324,0.013523,0.002678,0.000431,0.989705
9341000,0.0324,0.013523,0.002678,0.000431,0.920481
9342000,0.0324,0.013523,0.002678,0.000431,1.013916
9343000,0.0324,0.013523,0.002678,0.000431,0.986532
9344000,0.0324,0.013523,0.002678,0.000431,1.017441
9345000,0.0324,0.013523,0.002678,0.000431,1.006394
9346000,0.0324,0.013523,0.002678,0.000431,0.967492
9347000,0.0324,0.013523,0.002678,0.000431,0.863244
9348000,0.0324,0.013523,0.002678,0.000431,0.983828
9349000,0.0324,0.013523,0.002678,0.000431,0.958207
9350000,0.0324,0.013523,0.002678,0.000431,0.983593
9351000,0.0324,0.013523,0.002678,0.000431,0.954329
9352000,0.0324,0.013523,0.002678,0.000431,0.981948
9353000,0.0324,0.013523,0.002678,0.000431,0.921538
9354000,0.0324,0.013523,0.002678,0.000431,0.990292
9355000,0.0324,0.013523,0.002678,0.000431,0.912019
9356000,0.0324,0.013523,0.002678,0.000431,0.959030
9357000,0.0324,0.013523,0.002678,0.000431,0.950685
9358000,0.0324,0.013523,0.002678,0.000431,0.909433
9359000,0.0324,0.013523,0.002678,0.000431,0.967022
9360000,0.0324,0.013523,0.002678,0.000431,0.933056
9361000,0.0324,0.013523,0.002678,0.000431,0.959970
9362000,0.0324,0.013523,0.002678,0.000431,0.956444
9363000,0.0324,0.013523,0.002678,0.000431,0.939873
9364000,0.0324,0.013523,0.002678,0.000431,0.975131
9365000,0.0324,0.013523,0.002678,0.000431,0.935877
9366000,0.0324,0.013523,0.002678,0.000431,0.912019
9367000,0.0324,0.013523,0.002678,0.000431,0.946925
9368000,0.0324,0.013523,0.002678,0.000431,0.972781
9369000,0.0324,0.013523,0.002678,0.000431,0.882049
9370000,0.0324,0.013523,0.002678,0.000431,0.933879
9371000,0.0324,0.013523,0.002678,0.000431,0.942694
9372000,0.0324,0.013523,0.002678,0.000431,0.838564
9373000,0.0324,0.013523,0.002678,0.000431,0.965729
9374000,0.0324,0.013523,0.002678,0.000431,0.862657
9375000,0.0324,0.013523,0.002678,0.000431,0.873234
9376000,0.0324,0.013523,0.002678,0.000431,0.922126
9377000,0.0324,0.013523,0.002678,0.000431,0.866065
9378000,0.0324,0.013523,0.002678,0.000431,0.929648
9379000,0.0324,0.013523,0.002678,0.000431,0.812120
9380000,0.0324,0.013523,0.002678,0.000431,0.817644
9381000,0.0324,0.013523,0.002678,0.000431,0.886515
9382000,0.0324,0.013523,0.002678,0.000431,0.908140
9383000,0.0324,0.013523,0.002678,0.000431,0.808946
9384000,0.0324,0.013523,0.002678,0.000431,0.841619
9385000,0.0324,0.013523,0.002678,0.000431,0.842207
9386000,0.0324,0.013523,0.002678,0.000431,0.873234
9387000,0.0324,0.013523,0.002678,0.000431,0.904027
9388000,0.0324,0.013523,0.002678,0.000431,0.860071
9389000,0.0324,0.013523,0.002678,0.000431,0.822227
9390000,0.0324,0.013523,0.002678,0.000431,0.817879
9391000,0.0324,0.013523,0.002678,0.000431,0.837388
9392000,0.0324,0.013523,0.002678,0.000431,0.805656
9393000,0.0324,0.013523,0.002678,0.000431,0.830924
9394000,0.0324,0.013523,0.002678,0.000431,0.799662
9395000,0.0324,0.013523,0.002678,0.000431,0.893214
9396000,0.0324,0.013523,0.002678,0.000431,0.778389
9397000,0.0324,0.013523,0.002678,0.000431,0.822580
9398000,0.0324,0.013523,0.002678,0.000431,0.852079
9399000,0.0324,0.013523,0.002678,0.000431,0.817526
9400000,0.0324,0.013523,0.002678,0.000431,0.858308
9401000,0.0324,0.013523,0.002678,0.000431,0.773100
9402000,0.0324,0.013523,0.002678,0.000431,0.833862
9403000,0.0324,0.013523,0.002678,0.000431,0.827869
9404000,0.0324,0.013523,0.002678,0.000431,0.861364
9405000,0.0324,0.013523,0.002678,0.000431,0.842677
9406000,0.0324,0.013523,0.002678,0.000431,0.794138
9407000,0.0324,0.013523,0.002678,0.000431,0.845615
9408000,0.0324,0.013523,0.002678,0.000431,0.910726
9409000,0.0324,0.013523,0.002678,0.000431,0.908493
9410000,0.0324,0.013523,0.002678,0.000431,0.881579
9411000,0.0324,0.013523,0.002678,0.000431,0.948923
9412000,0.0324,0.013523,0.002678,0.000431,0.920481
9413000,0.0324,0.013523,0.002678,0.000431,0.857603
9414000,0.0324,0.013523,0.002678,0.000431,0.866535
9415000,0.0324,0.013523,0.002678,0.000431,0.884400
9416000,0.0324,0.013523,0.002678,0.000431,0.850551
9417000,0.0324,0.013523,0.002678,0.000431,0.959853
9418000,0.0324,0.013523,0.002678,0.000431,0.878171
9419000,0.0324,0.013523,0.002678,0.000431,0.895212
9420000,0.0324,0.013523,0.002678,0.000431,0.947630
9421000,0.0324,0.013523,0.002678,0.000431,0.890158
9422000,0.0324,0.013523,0.002678,0.000431,0.937522
9423000,0.0324,0.013523,0.002678,0.000431,0.947042
9424000,0.0324,0.013523,0.002678,0.000431,0.956797
9425000,0.0324,0.013523,0.002678,0.000431,0.918483
9426000,0.0324,0.013523,0.002678,0.000431,0.879346
9427000,0.0324,0.013523,0.002678,0.000431,0.933174
9428000,0.0324,0.013523,0.002678,0.000431,0.829396
9429000,0.0324,0.013523,0.002678,0.000431,0.968315
9430000,0.0324,0.013523,0.002678,0.000431,0.918600
9431000,0.0324,0.013523,0.002678,0.000431,0.881814
9432000,0.0324,0.013523,0.002678,0.000431,0.926357
9433000,0.0324,0.013523,0.002678,0.000431,0.890276
9434000,0.0324,0.013523,0.002678,0.000431,0.899796
9435000,0.0324,0.013523,0.002678,0.000431,0.966787
9436000,0.0324,0.013523,0.002678,0.000431,0.841032
9437000,0.0324,0.013523,0.002678,0.000431,0.882049
9438000,0.0324,0.013523,0.002678,0.000431,0.857016
9439000,0.0324,0.013523,0.002678,0.000431,0.896270
9440000,0.0324,0.013523,0.002678,0.000431,0.952213
9441000,0.0324,0.013523,0.002678,0.000431,0.889453
9442000,0.0324,0.013523,0.002678,0.000431,0.850199
9443000,0.0324,0.013523,0.002678,0.000431,0.945749
9444000,0.0324,0.013523,0.002678,0.000431,0.956562
9445000,0.0324,0.013523,0.002678,0.000431,0.899796
9446000,0.0324,0.013523,0.002678,0.000431,0.947630
9447000,0.0324,0.013523,0.002678,0.000431,0.994053
9448000,0.0324,0.013523,0.002678,0.000431,0.928943
9449000,0.0324,0.013523,0.002678,0.000431,0.979715
9450000,0.0324,0.013523,0.002678,0.000431,0.986061
9451000,0.0324,0.013523,0.002678,0.000431,0.955974
9452000,0.0324,0.013523,0.002678,0.000431,1.004161
9453000,0.0324,0.013523,0.002678,0.000431,0.936935
9454000,0.0324,0.013523,0.002678,0.000431,0.906377
9455000,0.0324,0.013523,0.002678,0.000431,1.003103
9456000,0.0324,0.013523,0.002678,0.000431,0.960793
9457000,0.0324,0.013523,0.002678,0.000431,0.906142
9458000,0.0324,0.013523,0.002678,0.000431,0.920951
9459000,0.0324,0.013523,0.002678,0.000431,0.929765
9460000,0.0324,0.013523,0.002678,0.000431,0.936112
9461000,0.0324,0.013523,0.002678,0.000431,0.902381
9462000,0.0324,0.013523,0.002678,0.000431,0.958912
9463000,0.0324,0.013523,0.002678,0.000431,0.892862
9464000,0.0324,0.013523,0.002678,0.000431,0.919658
9465000,0.0324,0.013523,0.002678,0.000431,0.954799
9466000,0.0324,0.013523,0.002678,0.000431,0.913547
9467000,0.0324,0.013523,0.002678,0.000431,0.908140
9468000,0.0324,0.013523,0.002678,0.000431,0.910608
9469000,0.0324,0.013523,0.002678,0.000431,0.822580
9470000,0.0324,0.013523,0.002678,0.000431,0.869238
9471000,0.0324,0.013523,0.002678,0.000431,0.907083
9472000,0.0324,0.013523,0.002678,0.000431,0.945279
9473000,0.0324,0.013523,0.002678,0.000431,1.002750
9474000,0.0324,0.013523,0.002678,0.000431,0.907083
9475000,0.0324,0.013523,0.002678,0.000431,0.881579
9476000,0.0324,0.013523,0.002678,0.000431,0.966904
9477000,0.0324,0.013523,0.002678,0.000431,0.909433
9478000,0.0324,0.013523,0.002678,0.000431,0.884635
9479000,0.0324,0.013523,0.002678,0.000431,1.000752
9480000,0.0324,0.013523,0.002678,0.000431,0.937875
9481000,0.0324,0.013523,0.002678,0.000431,0.905907
9482000,0.0324,0.013523,0.002678,0.000431,0.926475
9483000,0.0324,0.013523,0.002678,0.000431,0.864655
9484000,0.0324,0.013523,0.002678,0.000431,0.925064
9485000,0.0324,0.013523,0.002678,0.000431,0.908140
9486000,0.0324,0.013523,0.002678,0.000431,0.870179
9487000,0.0324,0.013523,0.002678,0.000431,0.958442
9488000,0.0324,0.013523,0.002678,0.000431,0.813177
9489000,0.0324,0.013523,0.002678,0.000431,0.847026
9490000,0.0324,0.013523,0.002678,0.000431,0.960910
9491000,0.0324,0.013523,0.002678,0.000431,0.893802
9492000,0.0324,0.013523,0.002678,0.000431,0.882402
9493000,0.0324,0.013523,0.002678,0.000431,0.906142
9494000,0.0324,0.013523,0.002678,0.000431,0.854665
9495000,0.0324,0.013523,0.002678,0.000431,0.880169
9496000,0.0324,0.013523,0.002678,0.000431,0.912254
9497000,0.0324,0.013523,0.002678,0.000431,0.861482
9498000,0.0324,0.013523,0.002678,0.000431,0.893802
9499000,0.0324,0.013523,0.002678,0.000431,0.870414
9500000,0.0324,0.013523,0.002678,0.000431,0.971605
9501000,0.0324,0.013523,0.002678,0.000431,0.830337
9502000,0.0324,0.013523,0.002678,0.000431,0.868886
9503000,0.0324,0.013523,0.002678,0.000431,0.969490
9504000,0.0324,0.013523,0.002678,0.000431,0.896858
9505000,0.0324,0.013523,0.002678,0.000431,0.863009
9506000,0.0324,0.013523,0.002678,0.000431,0.880874
9507000,0.0324,0.013523,0.002678,0.000431,0.941871
9508000,0.0324,0.013523,0.002678,0.000431,0.918483
9509000,0.0324,0.013523,0.002678,0.000431,0.957620
9510000,0.0324,0.013523,0.002678,0.000431,0.866418
9511000,0.0324,0.013523,0.002678,0.000431,0.911431
9512000,0.0324,0.013523,0.002678,0.000431,0.966552
9513000,0.0324,0.013523,0.002678,0.000431,0.940813
9514000,0.0324,0.013523,0.002678,0.000431,0.948335
9515000,0.0324,0.013523,0.002678,0.000431,0.970665
9516000,0.0324,0.013523,0.002678,0.000431,0.938227
9517000,0.0324,0.013523,0.002678,0.000431,0.965729
9518000,0.0324,0.013523,0.002678,0.000431,0.945984
9519000,0.0324,0.013523,0.002678,0.000431,0.946807
9520000,0.0324,0.013523,0.002678,0.000431,0.991350
9521000,0.0324,0.013523,0.002678,0.000431,0.944809
9522000,0.0324,0.013523,0.002678,0.000431,0.913429
9523000,0.0324,0.013523,0.002678,0.000431,0.947747
9524000,0.0324,0.013523,0.002678,0.000431,0.935407
9525000,0.0324,0.013523,0.002678,0.000431,0.914134
9526000,0.0324,0.013523,0.002678,0.000431,0.944221
9527000,0.0324,0.013523,0.002678,0.000431,0.889806
9528000,0.0324,0.013523,0.002678,0.000431,0.926827
9529000,0.0324,0.013523,0.002678,0.000431,0.934114
9530000,0.0324,0.013523,0.002678,0.000431,0.937522
9531000,0.0324,0.013523,0.002678,0.000431,0.939050
9532000,0.0324,0.013523,0.002678,0.000431,0.861717
9533000,0.0324,0.013523,0.002678,0.000431,0.931998
9534000,0.0324,0.013523,0.002678,0.000431,0.908258
9535000,0.0324,0.013523,0.002678,0.000431,0.883929
9536000,0.0324,0.013523,0.002678,0.000431,0.963026
9537000,0.0324,0.013523,0.002678,0.000431,0.839974
9538000,0.0324,0.013523,0.002678,0.000431,0.878641
9539000,0.0324,0.013523,0.002678,0.000431,0.891686
9540000,0.0324,0.013523,0.002678,0.000431,0.838799
9541000,0.0324,0.013523,0.002678,0.000431,0.940461
9542000,0.0324,0.013523,0.002678,0.000431,0.833862
9543000,0.0324,0.013523,0.002678,0.000431,0.892274
9544000,0.0324,0.013523,0.002678,0.000431,0.857603
9545000,0.0324,0.013523,0.002678,0.000431,0.850669
9546000,0.0324,0.013523,0.002678,0.000431,0.815293
9547000,0.0324,0.013523,0.002678,0.000431,0.861599
9548000,0.0324,0.013523,0.002678,0.000431,0.873940
9549000,0.0324,0.013523,0.002678,0.000431,0.852667
9550000,0.0324,0.013523,0.002678,0.000431,0.865007
9551000,0.0324,0.013523,0.002678,0.000431,0.825048
9552000,0.0324,0.013523,0.002678,0.000431,0.952213
9553000,0.0324,0.013523,0.002678,0.000431,0.871589
9554000,0.0324,0.013523,0.002678,0.000431,0.875232
9555000,0.0324,0.013523,0.002678,0.000431,0.870766
9556000,0.0324,0.013523,0.002678,0.000431,0.839739
9557000,0.0324,0.013523,0.002678,0.000431,0.922126
9558000,0.0324,0.013523,0.002678,0.000431,0.900148
9559000,0.0324,0.013523,0.002678,0.000431,0.917307
9560000,0.0324,0.013523,0.002678,0.000431,0.928238
9561000,0.0324,0.013523,0.002678,0.000431,0.910491
9562000,0.0324,0.013523,0.002678,0.000431,0.934584
9563000,0.0324,0.013523,0.002678,0.000431,0.923536
9564000,0.0324,0.013523,0.002678,0.000431,0.912019
9565000,0.0324,0.013523,0.002678,0.000431,0.925417
9566000,0.0324,0.013523,0.002678,0.000431,0.875820
9567000,0.0324,0.013523,0.002678,0.000431,0.893097
9568000,0.0324,0.013523,0.002678,0.000431,0.925887
9569000,0.0324,0.013523,0.002678,0.000431,0.848789
9570000,0.0324,0.013523,0.002678,0.000431,0.911784
9571000,0.0324,0.013523,0.002678,0.000431,0.882402
9572000,0.0324,0.013523,0.002678,0.000431,0.883929
9573000,0.0324,0.013523,0.002678,0.000431,0.945632
9574000,0.0324,0.013523,0.002678,0.000431,0.912019
9575000,0.0324,0.013523,0.002678,0.000431,0.888396
9576000,0.0324,0.013523,0.002678,0.000431,0.924712
9577000,0.0324,0.013523,0.002678,0.000431,0.996639
9578000,0.0324,0.013523,0.002678,0.000431,0.895565
9579000,0.0324,0.013523,0.002678,0.000431,0.892156
9580000,0.0324,0.013523,0.002678,0.000431,0.943164
9581000,0.0324,0.013523,0.002678,0.000431,0.970665
9582000,0.0324,0.013523,0.002678,0.000431,0.916132
9583000,0.0324,0.013523,0.002678,0.000431,0.992290
9584000,0.0324,0.013523,0.002678,0.000431,0.961616
9585000,0.0324,0.013523,0.002678,0.000431,0.922009
9586000,0.0324,0.013523,0.002678,0.000431,0.941753
9587000,0.0324,0.013523,0.002678,0.000431,0.955387
9588000,0.0324,0.013523,0.002678,0.000431,0.915074
9589000,0.0324,0.013523,0.002678,0.000431,0.963143
9590000,0.0324,0.013523,0.002678,0.000431,0.892156
9591000,0.0324,0.013523,0.002678,0.000431,1.014386
9592000,0.0324,0.013523,0.002678,0.000431,0.900266
9593000,0.0324,0.013523,0.002678,0.000431,0.869826
9594000,0.0324,0.013523,0.002678,0.000431,1.008862
9595000,0.0324,0.013523,0.002678,0.000431,1.000870
9596000,0.0324,0.013523,0.002678,0.000431,0.909433
9597000,0.0324,0.013523,0.002678,0.000431,1.030840
9598000,0.0324,0.013523,0.002678,0.000431,0.933056
9599000,0.0324,0.013523,0.002678,0.000431,0.931881
9600000,0.0324,0.013523,0.002678,0.000431,0.977717
9601000,0.0324,0.013523,0.002678,0.000431,0.911784
9602000,0.0324,0.013523,0.002678,0.000431,0.958795
9603000,0.0324,0.013523,0.002678,0.000431,0.991820
9604000,0.0324,0.013523,0.002678,0.000431,0.852432
9605000,0.0324,0.013523,0.002678,0.000431,0.918130
9606000,0.0324,0.013523,0.002678,0.000431,0.918248
9607000,0.0324,0.013523,0.002678,0.000431,0.893332
9608000,0.0324,0.013523,0.002678,0.000431,0.933879
9609000,0.0324,0.013523,0.002678,0.000431,0.942576
9610000,0.0324,0.013523,0.002678,0.000431,0.951861
9611000,0.0324,0.013523,0.002678,0.000431,0.878993
9612000,0.0324,0.013523,0.002678,0.000431,0.941518
9613000,0.0324,0.013523,0.002678,0.000431,0.959383
9614000,0.0324,0.013523,0.002678,0.000431,0.885575
9615000,0.0324,0.013523,0.002678,0.000431,0.897093
9616000,0.0324,0.013523,0.002678,0.000431,0.906847
9617000,0.0324,0.013523,0.002678,0.000431,0.961498
9618000,0.0324,0.013523,0.002678,0.000431,0.968432
9619000,0.0324,0.013523,0.002678,0.000431,0.925534
9620000,0.0324,0.013523,0.002678,0.000431,0.894507
9621000,0.0324,0.013523,0.002678,0.000431,0.853020
9622000,0.0324,0.013523,0.002678,0.000431,0.932586
9623000,0.0324,0.013523,0.002678,0.000431,0.919305
9624000,0.0324,0.013523,0.002678,0.000431,1.007687
9625000,0.0324,0.013523,0.002678,0.000431,0.958560
9626000,0.0324,0.013523,0.002678,0.000431,0.851139
9627000,0.0324,0.013523,0.002678,0.000431,0.916132
9628000,0.0324,0.013523,0.002678,0.000431,0.889453
9629000,0.0324,0.013523,0.002678,0.000431,0.991350
9630000,0.0324,0.013523,0.002678,0.000431,0.991468
9631000,0.0324,0.013523,0.002678,0.000431,0.916015
9632000,0.0324,0.013523,0.002678,0.000431,0.963731
9633000,0.0324,0.013523,0.002678,0.000431,1.025668
9634000,0.0324,0.013523,0.002678,0.000431,0.948570
9635000,0.0324,0.013523,0.002678,0.000431,1.005101
9636000,0.0324,0.013523,0.002678,0.000431,1.052112
9637000,0.0324,0.013523,0.002678,0.000431,1.003691
9638000,0.0324,0.013523,0.002678,0.000431,0.964436
9639000,0.0324,0.013523,0.002678,0.000431,1.066686
9640000,0.0324,0.013523,0.002678,0.000431,0.985826
9641000,0.0324,0.013523,0.002678,0.000431,1.083492
9642000,0.0324,0.013523,0.002678,0.000431,1.053993
9643000,0.0324,0.013523,0.002678,0.000431,1.033073
9644000,0.0324,0.013523,0.002678,0.000431,0.972546
9645000,0.0324,0.013523,0.002678,0.000431,1.037304
9646000,0.0324,0.013523,0.002678,0.000431,0.991703
9647000,0.0324,0.013523,0.002678,0.000431,0.996286
9648000,0.0324,0.013523,0.002678,0.000431,1.054698
9649000,0.0324,0.013523,0.002678,0.000431,1.008979
9650000,0.0324,0.013523,0.002678,0.000431,1.042710
9651000,0.0324,0.013523,0.002678,0.000431,0.987002
9652000,0.0324,0.013523,0.002678,0.000431,0.978070
9653000,0.0324,0.013523,0.002678,0.000431,0.945867
9654000,0.0324,0.013523,0.002678,0.000431,1.051877
9655000,0.0324,0.013523,0.002678,0.000431,0.996992
9656000,0.0324,0.013523,0.002678,0.000431,1.039772
9657000,0.0324,0.013523,0.002678,0.000431,0.948335
9658000,0.0324,0.013523,0.002678,0.000431,0.951156
9659000,0.0324,0.013523,0.002678,0.000431,1.032368
9660000,0.0324,0.013523,0.002678,0.000431,1.067979
9661000,0.0324,0.013523,0.002678,0.000431,1.064688
9662000,0.0324,0.013523,0.002678,0.000431,1.063983
9663000,0.0324,0.013523,0.002678,0.000431,0.951743
9664000,0.0324,0.013523,0.002678,0.000431,1.026609
9665000,0.0324,0.013523,0.002678,0.000431,1.024728
9666000,0.0324,0.013523,0.002678,0.000431,1.024728
9667000,0.0324,0.013523,0.002678,0.000431,1.014973
9668000,0.0324,0.013523,0.002678,0.000431,1.142962
9669000,0.0324,0.013523,0.002678,0.000431,1.023906
9670000,0.0324,0.013523,0.002678,0.000431,0.903204
9671000,0.0324,0.013523,0.002678,0.000431,1.015091
9672000,0.0324,0.013523,0.002678,0.000431,1.033895
9673000,0.0324,0.013523,0.002678,0.000431,1.112639
9674000,0.0324,0.013523,0.002678,0.000431,0.948805
9675000,0.0324,0.013523,0.002678,0.000431,0.992408
9676000,0.0324,0.013523,0.002678,0.000431,1.008627
9677000,0.0324,0.013523,0.002678,0.000431,1.032015
9678000,0.0324,0.013523,0.002678,0.000431,1.077498
9679000,0.0324,0.013523,0.002678,0.000431,0.954094
9680000,0.0324,0.013523,0.002678,0.000431,0.998167
9681000,0.0324,0.013523,0.002678,0.000431,1.035893
9682000,0.0324,0.013523,0.002678,0.000431,0.941518
9683000,0.0324,0.013523,0.002678,0.000431,1.013681
9684000,0.0324,0.013523,0.002678,0.000431,1.057166
9685000,0.0324,0.013523,0.002678,0.000431,0.982653
9686000,0.0324,0.013523,0.002678,0.000431,1.019087
9687000,0.0324,0.013523,0.002678,0.000431,0.985591
9688000,0.0324,0.013523,0.002678,0.000431,1.074795
9689000,0.0324,0.013523,0.002678,0.000431,1.011448
9690000,0.0324,0.013523,0.002678,0.000431,0.966317
9691000,0.0324,0.013523,0.002678,0.000431,1.064570
9692000,0.0324,0.013523,0.002678,0.000431,0.989352
9693000,0.0324,0.013523,0.002678,0.000431,1.012740
9694000,0.0324,0.013523,0.002678,0.000431,1.050232
9695000,0.0324,0.013523,0.002678,0.000431,1.035306
9696000,0.0324,0.013523,0.002678,0.000431,0.975014
9697000,0.0324,0.013523,0.002678,0.000431,1.046706
9698000,0.0324,0.013523,0.002678,0.000431,1.074795
9699000,0.0324,0.013523,0.002678,0.000431,1.007687
9700000,0.0324,0.013523,0.002678,0.000431,0.991115
9701000,0.0324,0.013523,0.002678,0.000431,1.097361
9702000,0.0324,0.013523,0.002678,0.000431,1.024846
9703000,0.0324,0.013523,0.002678,0.000431,1.026139
9704000,0.0324,0.013523,0.002678,0.000431,1.001340
9705000,0.0324,0.013523,0.002678,0.000431,1.044238
9706000,0.0324,0.013523,0.002678,0.000431,1.028607
9707000,0.0324,0.013523,0.002678,0.000431,1.023553
9708000,0.0324,0.013523,0.002678,0.000431,1.078556
9709000,0.0324,0.013523,0.002678,0.000431,1.070799
9710000,0.0324,0.013523,0.002678,0.000431,0.984534
9711000,0.0324,0.013523,0.002678,0.000431,1.078321
9712000,0.0324,0.013523,0.002678,0.000431,1.030135
9713000,0.0324,0.013523,0.002678,0.000431,0.990528
9714000,0.0324,0.013523,0.002678,0.000431,0.998990
9715000,0.0324,0.013523,0.002678,0.000431,1.043298
9716000,0.0324,0.013523,0.002678,0.000431,0.938110
9717000,0.0324,0.013523,0.002678,0.000431,1.027901
9718000,0.0324,0.013523,0.002678,0.000431,1.028254
9719000,0.0324,0.013523,0.002678,0.000431,1.033895
9720000,0.0324,0.013523,0.002678,0.000431,1.085020
9721000,0.0324,0.013523,0.002678,0.000431,0.911314
9722000,0.0324,0.013523,0.002678,0.000431,1.024258
9723000,0.0324,0.013523,0.002678,0.000431,0.981243
9724000,0.0324,0.013523,0.002678,0.000431,1.044473
9725000,0.0324,0.013523,0.002678,0.000431,1.058459
9726000,0.0324,0.013523,0.002678,0.000431,0.967257
9727000,0.0324,0.013523,0.002678,0.000431,1.017324
9728000,0.0324,0.013523,0.002678,0.000431,1.053758
9729000,0.0324,0.013523,0.002678,0.000431,0.937287
9730000,0.0324,0.013523,0.002678,0.000431,1.042945
9731000,0.0324,0.013523,0.002678,0.000431,1.001105
9732000,0.0324,0.013523,0.002678,0.000431,0.980655
9733000,0.0324,0.013523,0.002678,0.000431,0.993583
9734000,0.0324,0.013523,0.002678,0.000431,0.984299
9735000,0.0324,0.013523,0.002678,0.000431,0.919893
9736000,0.0324,0.013523,0.002678,0.000431,0.991585
9737000,0.0324,0.013523,0.002678,0.000431,0.963966
9738000,0.0324,0.013523,0.002678,0.000431,0.973721
9739000,0.0324,0.013523,0.002678,0.000431,0.952096
9740000,0.0324,0.013523,0.002678,0.000431,0.914369
9741000,0.0324,0.013523,0.002678,0.000431,1.030957
9742000,0.0324,0.013523,0.002678,0.000431,0.922009
9743000,0.0324,0.013523,0.002678,0.000431,0.870061
9744000,0.0324,0.013523,0.002678,0.000431,0.966199
9745000,0.0324,0.013523,0.002678,0.000431,0.954446
9746000,0.0324,0.013523,0.002678,0.000431,0.952919
9747000,0.0324,0.013523,0.002678,0.000431,0.961851
9748000,0.0324,0.013523,0.002678,0.000431,0.918248
9749000,0.0324,0.013523,0.002678,0.000431,0.958677
9750000,0.0324,0.013523,0.002678,0.000431,1.014033
9751000,0.0324,0.013523,0.002678,0.000431,0.878993
9752000,0.0324,0.013523,0.002678,0.000431,0.979950
9753000,0.0324,0.013523,0.002678,0.000431,0.974896
9754000,0.0324,0.013523,0.002678,0.000431,0.929648
9755000,0.0324,0.013523,0.002678,0.000431,0.914839
9756000,0.0324,0.013523,0.002678,0.000431,0.991703
9757000,0.0324,0.013523,0.002678,0.000431,0.849964
9758000,0.0324,0.013523,0.002678,0.000431,0.939990
9759000,0.0324,0.013523,0.002678,0.000431,0.981125
9760000,0.0324,0.013523,0.002678,0.000431,0.859719
9761000,0.0324,0.013523,0.002678,0.000431,0.875938
9762000,0.0324,0.013523,0.002678,0.000431,0.943751
9763000,0.0324,0.013523,0.002678,0.000431,0.922714
9764000,0.0324,0.013523,0.002678,0.000431,0.898503
9765000,0.0324,0.013523,0.002678,0.000431,0.902146
9766000,0.0324,0.013523,0.002678,0.000431,0.918365
9767000,0.0324,0.013523,0.002678,0.000431,0.945632
9768000,0.0324,0.013523,0.002678,0.000431,0.940578
9769000,0.0324,0.013523,0.002678,0.000431,0.944927
9770000,0.0324,0.013523,0.002678,0.000431,0.963614
9771000,0.0324,0.013523,0.002678,0.000431,0.927885
9772000,0.0324,0.013523,0.002678,0.000431,0.895800
9773000,0.0324,0.013523,0.002678,0.000431,0.902851
9774000,0.0324,0.013523,0.002678,0.000431,0.903439
9775000,0.0324,0.013523,0.002678,0.000431,0.901911
9776000,0.0324,0.013523,0.002678,0.000431,0.969255
9777000,0.0324,0.013523,0.002678,0.000431,0.911549
9778000,0.0324,0.013523,0.002678,0.000431,0.973721
9779000,0.0324,0.013523,0.002678,0.000431,0.930941
9780000,0.0324,0.013523,0.002678,0.000431,0.992643
9781000,0.0324,0.013523,0.002678,0.000431,0.957267
9782000,0.0324,0.013523,0.002678,0.000431,0.982301
9783000,0.0324,0.013523,0.002678,0.000431,1.025551
9784000,0.0324,0.013523,0.002678,0.000431,0.979127
9785000,0.0324,0.013523,0.002678,0.000431,0.938345
9786000,0.0324,0.013523,0.002678,0.000431,0.965729
9787000,0.0324,0.013523,0.002678,0.000431,0.933996
9788000,0.0324,0.013523,0.002678,0.000431,0.992761
9789000,0.0324,0.013523,0.002678,0.000431,0.977717
9790000,0.0324,0.013523,0.002678,0.000431,0.935524
9791000,0.0324,0.013523,0.002678,0.000431,0.949628
9792000,0.0324,0.013523,0.002678,0.000431,0.883929
9793000,0.0324,0.013523,0.002678,0.000431,0.947982
9794000,0.0324,0.013523,0.002678,0.000431,0.885692
9795000,0.0324,0.013523,0.002678,0.000431,1.006981
9796000,0.0324,0.013523,0.002678,0.000431,0.846203
9797000,0.0324,0.013523,0.002678,0.000431,0.918013
9798000,0.0324,0.013523,0.002678,0.000431,0.942458
9799000,0.0324,0.013523,0.002678,0.000431,0.944456
9800000,0.0324,0.013523,0.002678,0.000431,0.951156
9801000,0.0324,0.013523,0.002678,0.000431,0.954211
9802000,0.0324,0.013523,0.002678,0.000431,0.892627
9803000,0.0324,0.013523,0.002678,0.000431,0.956327
9804000,0.0324,0.013523,0.002678,0.000431,0.933879
9805000,0.0324,0.013523,0.002678,0.000431,0.919423
9806000,0.0324,0.013523,0.002678,0.000431,1.002633
9807000,0.0324,0.013523,0.002678,0.000431,0.844087
9808000,0.0324,0.013523,0.002678,0.000431,0.868298
9809000,0.0324,0.013523,0.002678,0.000431,0.960675
9810000,0.0324,0.013523,0.002678,0.000431,0.924477
9811000,0.0324,0.013523,0.002678,0.000431,0.897563
9812000,0.0324,0.013523,0.002678,0.000431,0.934467
9813000,0.0324,0.013523,0.002678,0.000431,0.918600
9814000,0.0324,0.013523,0.002678,0.000431,0.889336
9815000,0.0324,0.013523,0.002678,0.000431,0.904262
9816000,0.0324,0.013523,0.002678,0.000431,0.908375
9817000,0.0324,0.013523,0.002678,0.000431,0.852902
9818000,0.0324,0.013523,0.002678,0.000431,0.910491
9819000,0.0324,0.013523,0.002678,0.000431,0.930941
9820000,0.0324,0.013523,0.002678,0.000431,0.944339
9821000,0.0324,0.013523,0.002678,0.000431,0.883929
9822000,0.0324,0.013523,0.002678,0.000431,0.899326
9823000,0.0324,0.013523,0.002678,0.000431,0.922949
9824000,0.0324,0.013523,0.002678,0.000431,0.880051
9825000,0.0324,0.013523,0.002678,0.000431,0.880521
9826000,0.0324,0.013523,0.002678,0.000431,0.969843
9827000,0.0324,0.013523,0.002678,0.000431,0.909316
9828000,0.0324,0.013523,0.002678,0.000431,0.927532
9829000,0.0324,0.013523,0.002678,0.000431,0.965494
9830000,0.0324,0.013523,0.002678,0.000431,0.924829
9831000,0.0324,0.013523,0.002678,0.000431,0.963379
9832000,0.0324,0.013523,0.002678,0.000431,0.934937
9833000,0.0324,0.013523,0.002678,0.000431,0.972663
9834000,0.0324,0.013523,0.002678,0.000431,0.942458
9835000,0.0324,0.013523,0.002678,0.000431,1.075971
9836000,0.0324,0.013523,0.002678,0.000431,0.822697
9837000,0.0324,0.013523,0.002678,0.000431,0.917307
9838000,0.0324,0.013523,0.002678,0.000431,0.935759
9839000,0.0324,0.013523,0.002678,0.000431,0.977482
9840000,0.0324,0.013523,0.002678,0.000431,0.977247
9841000,0.0324,0.013523,0.002678,0.000431,1.034953
9842000,0.0324,0.013523,0.002678,0.000431,0.937287
9843000,0.0324,0.013523,0.002678,0.000431,0.977952
9844000,0.0324,0.013523,0.002678,0.000431,0.967492
9845000,0.0324,0.013523,0.002678,0.000431,0.973603
9846000,0.0324,0.013523,0.002678,0.000431,1.016384
9847000,0.0324,0.013523,0.002678,0.000431,0.926475
9848000,0.0324,0.013523,0.002678,0.000431,0.985944
9849000,0.0324,0.013523,0.002678,0.000431,0.873822
9850000,0.0324,0.013523,0.002678,0.000431,0.968315
9851000,0.0324,0.013523,0.002678,0.000431,1.007217
9852000,0.0324,0.013523,0.002678,0.000431,1.006746
9853000,0.0324,0.013523,0.002678,0.000431,0.996992
9854000,0.0324,0.013523,0.002678,0.000431,0.901089
9855000,0.0324,0.013523,0.002678,0.000431,0.905555
9856000,0.0324,0.013523,0.002678,0.000431,0.924477
9857000,0.0324,0.013523,0.002678,0.000431,0.978657
9858000,0.0324,0.013523,0.002678,0.000431,0.948335
9859000,0.0324,0.013523,0.002678,0.000431,0.988059
9860000,0.0324,0.013523,0.002678,0.000431,0.954799
9861000,0.0324,0.013523,0.002678,0.000431,0.898033
9862000,0.0324,0.013523,0.002678,0.000431,0.973956
9863000,0.0324,0.013523,0.002678,0.000431,0.880756
9864000,0.0324,0.013523,0.002678,0.000431,0.897210
9865000,0.0324,0.013523,0.002678,0.000431,0.982771
9866000,0.0324,0.013523,0.002678,0.000431,0.957502
9867000,0.0324,0.013523,0.002678,0.000431,0.955152
9868000,0.0324,0.013523,0.002678,0.000431,0.955739
9869000,0.0324,0.013523,0.002678,0.000431,0.910608
9870000,0.0324,0.013523,0.002678,0.000431,0.943516
9871000,0.0324,0.013523,0.002678,0.000431,0.884400
9872000,0.0324,0.013523,0.002678,0.000431,0.914134
9873000,0.0324,0.013523,0.002678,0.000431,0.937640
9874000,0.0324,0.013523,0.002678,0.000431,0.876173
9875000,0.0324,0.013523,0.002678,0.000431,0.905202
9876000,0.0324,0.013523,0.002678,0.000431,0.836566
9877000,0.0324,0.013523,0.002678,0.000431,0.888278
9878000,0.0324,0.013523,0.002678,0.000431,0.913899
9879000,0.0324,0.013523,0.002678,0.000431,0.864537
9880000,0.0324,0.013523,0.002678,0.000431,0.955974
9881000,0.0324,0.013523,0.002678,0.000431,0.842912
9882000,0.0324,0.013523,0.002678,0.000431,0.890276
9883000,0.0324,0.013523,0.002678,0.000431,0.821169
9884000,0.0324,0.013523,0.002678,0.000431,0.837623
9885000,0.0324,0.013523,0.002678,0.000431,0.838916
9886000,0.0324,0.013523,0.002678,0.000431,0.826106
9887000,0.0324,0.013523,0.002678,0.000431,0.834333
9888000,0.0324,0.013523,0.002678,0.000431,0.904379
9889000,0.0324,0.013523,0.002678,0.000431,0.843970
9890000,0.0324,0.013523,0.002678,0.000431,0.755354
9891000,0.0324,0.013523,0.002678,0.000431,0.858778
9892000,0.0324,0.013523,0.002678,0.000431,0.820112
9893000,0.0324,0.013523,0.002678,0.000431,0.881344
9894000,0.0324,0.013523,0.002678,0.000431,0.882284
9895000,0.0324,0.013523,0.002678,0.000431,0.841149
9896000,0.0324,0.013523,0.002678,0.000431,0.925417
9897000,0.0324,0.013523,0.002678,0.000431,0.904849
9898000,0.0324,0.013523,0.002678,0.000431,0.978540
9899000,0.0324,0.013523,0.002678,0.000431,0.902029
9900000,0.0324,0.013523,0.002678,0.000431,0.950921
9901000,0.0324,0.013523,0.002678,0.000431,0.992996
9902000,0.0324,0.013523,0.002678,0.000431,0.935759
9903000,0.0324,0.013523,0.002678,0.000431,1.048939
9904000,0.0324,0.013523,0.002678,0.000431,0.811650
9905000,0.0324,0.013523,0.002678,0.000431,0.929648
9906000,0.0324,0.013523,0.002678,0.000431,0.940696
9907000,0.0324,0.013523,0.002678,0.000431,0.886868
9908000,0.0324,0.013523,0.002678,0.000431,0.984886
9909000,0.0324,0.013523,0.002678,0.000431,0.901911
9910000,0.0324,0.013523,0.002678,0.000431,0.953976
9911000,0.0324,0.013523,0.002678,0.000431,0.979480
9912000,0.0324,0.013523,0.002678,0.000431,0.994876
9913000,0.0324,0.013523,0.002678,0.000431,0.975366
9914000,0.0324,0.013523,0.002678,0.000431,1.075148
9915000,0.0324,0.013523,0.002678,0.000431,0.960088
9916000,0.0324,0.013523,0.002678,0.000431,1.030957
9917000,0.0324,0.013523,0.002678,0.000431,0.949863
9918000,0.0324,0.013523,0.002678,0.000431,0.989352
9919000,0.0324,0.013523,0.002678,0.000431,1.087371
9920000,0.0324,0.013523,0.002678,0.000431,1.039419
9921000,0.0324,0.013523,0.002678,0.000431,0.983828
9922000,0.0324,0.013523,0.002678,0.000431,1.031192
9923000,0.0324,0.013523,0.002678,0.000431,0.975484
9924000,0.0324,0.013523,0.002678,0.000431,1.012270
9925000,0.0324,0.013523,0.002678,0.000431,1.079144
9926000,0.0324,0.013523,0.002678,0.000431,0.948805
9927000,0.0324,0.013523,0.002678,0.000431,0.942694
9928000,0.0324,0.013523,0.002678,0.000431,1.072445
9929000,0.0324,0.013523,0.002678,0.000431,0.937640
9930000,0.0324,0.013523,0.002678,0.000431,0.979950
9931000,0.0324,0.013523,0.002678,0.000431,1.031427
9932000,0.0324,0.013523,0.002678,0.000431,0.968080
9933000,0.0324,0.013523,0.002678,0.000431,0.963849
9934000,0.0324,0.013523,0.002678,0.000431,1.003103
9935000,0.0324,0.013523,0.002678,0.000431,1.031427
9936000,0.0324,0.013523,0.002678,0.000431,0.982653
9937000,0.0324,0.013523,0.002678,0.000431,0.972193
9938000,0.0324,0.013523,0.002678,0.000431,1.028959
9939000,0.0324,0.013523,0.002678,0.000431,0.952331
9940000,0.0324,0.013523,0.002678,0.000431,1.022378
9941000,0.0324,0.013523,0.002678,0.000431,1.116283
9942000,0.0324,0.013523,0.002678,0.000431,0.976307
9943000,0.0324,0.013523,0.002678,0.000431,1.078556
9944000,0.0324,0.013523,0.002678,0.000431,1.037891
9945000,0.0324,0.013523,0.002678,0.000431,1.101592
9946000,0.0324,0.013523,0.002678,0.000431,0.832217
9947000,0.0324,0.013523,0.002678,0.000431,1.001810
9948000,0.0324,0.013523,0.002678,0.000431,1.020145
9949000,0.0324,0.013523,0.002678,0.000431,0.986179
9950000,0.0324,0.013523,0.002678,0.000431,0.987002
9951000,0.0324,0.013523,0.002678,0.000431,1.061397
9952000,0.0324,0.013523,0.002678,0.000431,1.006864
9953000,0.0324,0.013523,0.002678,0.000431,0.985709
9954000,0.0324,0.013523,0.002678,0.000431,0.991938
9955000,0.0324,0.013523,0.002678,0.000431,1.030370
9956000,0.0324,0.013523,0.002678,0.000431,0.995346
9957000,0.0324,0.013523,0.002678,0.000431,1.002986
9958000,0.0324,0.013523,0.002678,0.000431,0.957855
9959000,0.0324,0.013523,0.002678,0.000431,1.031662
9960000,0.0324,0.013523,0.002678,0.000431,1.034953
9961000,0.0324,0.013523,0.002678,0.000431,0.985239
9962000,0.0324,0.013523,0.002678,0.000431,1.091954
9963000,0.0324,0.013523,0.002678,0.000431,1.001340
9964000,0.0324,0.013523,0.002678,0.000431,1.013210
9965000,0.0324,0.013523,0.002678,0.000431,1.025904
9966000,0.0324,0.013523,0.002678,0.000431,1.019675
9967000,0.0324,0.013523,0.002678,0.000431,1.108173
9968000,0.0324,0.013523,0.002678,0.000431,1.012388
9969000,0.0324,0.013523,0.002678,0.000431,1.021437
9970000,0.0324,0.013523,0.002678,0.000431,1.017441
9971000,0.0324,0.013523,0.002678,0.000431,0.968197
9972000,0.0324,0.013523,0.002678,0.000431,0.971370
9973000,0.0324,0.013523,0.002678,0.000431,0.966904
9974000,0.0324,0.013523,0.002678,0.000431,0.947512
9975000,0.0324,0.013523,0.002678,0.000431,0.940108
9976000,0.0324,0.013523,0.002678,0.000431,0.991585
9977000,0.0324,0.013523,0.002678,0.000431,0.935759
9978000,0.0324,0.013523,0.002678,0.000431,0.931411
9979000,0.0324,0.013523,0.002678,0.000431,1.033895
9980000,0.0324,0.013523,0.002678,0.000431,0.924359
9981000,0.0324,0.013523,0.002678,0.000431,1.000517
9982000,0.0324,0.013523,0.002678,0.000431,1.019439
9983000,0.0324,0.013523,0.002678,0.000431,0.909668
9984000,0.0324,0.013523,0.002678,0.000431,1.031427
9985000,0.0324,0.013523,0.002678,0.000431,0.930353
9986000,0.0324,0.013523,0.002678,0.000431,1.002163
9987000,0.0324,0.013523,0.002678,0.000431,1.030840
9988000,0.0324,0.013523,0.002678,0.000431,0.982065
9989000,0.0324,0.013523,0.002678,0.000431,0.949275
9990000,0.0324,0.013523,0.002678,0.000431,1.009332
9991000,0.0324,0.013523,0.002678,0.000431,0.960558
9992000,0.0324,0.013523,0.002678,0.000431,1.023670
9993000,0.0324,0.013523,0.002678,0.000431,0.996404
9994000,0.0324,0.013523,0.002678,0.000431,0.979245
9995000,0.0324,0.013523,0.002678,0.000431,0.978070
9996000,0.0324,0.013523,0.002678,0.000431,1.028137
9997000,0.0324,0.013523,0.002678,0.000431,0.971135
9998000,0.0324,0.013523,0.002678,0.000431,0.948923
9999000,0.0324,0.013523,0.002678,0.000431,1.040595
