Cycle,Area(mm^2),PeakDynamic(W),SubthresholdLeakage(W),GateLeakage(W),RunTimeDynamic(W)
7000000,0.0324,0.013523,0.002678,0.000431,0.850081
7001000,0.0324,0.013523,0.002678,0.000431,0.904614
7002000,0.0324,0.013523,0.002678,0.000431,0.996521
7003000,0.0324,0.013523,0.002678,0.000431,0.950921
7004000,0.0324,0.013523,0.002678,0.000431,0.929883
7005000,0.0324,0.013523,0.002678,0.000431,0.896623
7006000,0.0324,0.013523,0.002678,0.000431,0.947277
7007000,0.0324,0.013523,0.002678,0.000431,0.960440
7008000,0.0324,0.013523,0.002678,0.000431,0.940931
7009000,0.0324,0.013523,0.002678,0.000431,0.969372
7010000,0.0324,0.013523,0.002678,0.000431,0.883224
7011000,0.0324,0.013523,0.002678,0.000431,0.996757
7012000,0.0324,0.013523,0.002678,0.000431,0.993701
7013000,0.0324,0.013523,0.002678,0.000431,0.914369
7014000,0.0324,0.013523,0.002678,0.000431,0.991350
7015000,0.0324,0.013523,0.002678,0.000431,0.976424
7016000,0.0324,0.013523,0.002678,0.000431,0.961851
7017000,0.0324,0.013523,0.002678,0.000431,1.028372
7018000,0.0324,0.013523,0.002678,0.000431,0.906025
7019000,0.0324,0.013523,0.002678,0.000431,0.979127
7020000,0.0324,0.013523,0.002678,0.000431,0.960675
7021000,0.0324,0.013523,0.002678,0.000431,0.994641
7022000,0.0324,0.013523,0.002678,0.000431,1.022495
7023000,0.0324,0.013523,0.002678,0.000431,0.951861
7024000,0.0324,0.013523,0.002678,0.000431,0.948217
7025000,0.0324,0.013523,0.002678,0.000431,1.003808
7026000,0.0324,0.013523,0.002678,0.000431,0.978422
7027000,0.0324,0.013523,0.002678,0.000431,0.980420
7028000,0.0324,0.013523,0.002678,0.000431,1.020732
7029000,0.0324,0.013523,0.002678,0.000431,1.016854
7030000,0.0324,0.013523,0.002678,0.000431,0.997344
7031000,0.0324,0.013523,0.002678,0.000431,1.016266
7032000,0.0324,0.013523,0.002678,0.000431,1.041652
7033000,0.0324,0.013523,0.002678,0.000431,1.018029
7034000,0.0324,0.013523,0.002678,0.000431,0.901441
7035000,0.0324,0.013523,0.002678,0.000431,1.020380
7036000,0.0324,0.013523,0.002678,0.000431,1.043415
7037000,0.0324,0.013523,0.002678,0.000431,0.965847
7038000,0.0324,0.013523,0.002678,0.000431,1.003221
7039000,0.0324,0.013523,0.002678,0.000431,0.985826
7040000,0.0324,0.013523,0.002678,0.000431,1.050232
7041000,0.0324,0.013523,0.002678,0.000431,0.957620
7042000,0.0324,0.013523,0.002678,0.000431,1.041065
7043000,0.0324,0.013523,0.002678,0.000431,0.924829
7044000,0.0324,0.013523,0.002678,0.000431,0.942694
7045000,0.0324,0.013523,0.002678,0.000431,0.996169
7046000,0.0324,0.013523,0.002678,0.000431,0.968785
7047000,0.0324,0.013523,0.002678,0.000431,0.998872
7048000,0.0324,0.013523,0.002678,0.000431,1.019204
7049000,0.0324,0.013523,0.002678,0.000431,1.006629
7050000,0.0324,0.013523,0.002678,0.000431,0.995934
7051000,0.0324,0.013523,0.002678,0.000431,1.014856
7052000,0.0324,0.013523,0.002678,0.000431,1.017794
7053000,0.0324,0.013523,0.002678,0.000431,1.001693
7054000,0.0324,0.013523,0.002678,0.000431,1.028959
7055000,0.0324,0.013523,0.002678,0.000431,1.006041
7056000,0.0324,0.013523,0.002678,0.000431,0.997697
7057000,0.0324,0.013523,0.002678,0.000431,1.034366
7058000,0.0324,0.013523,0.002678,0.000431,0.984416
7059000,0.0324,0.013523,0.002678,0.000431,1.099006
7060000,0.0324,0.013523,0.002678,0.000431,0.946219
7061000,0.0324,0.013523,0.002678,0.000431,0.978657
7062000,0.0324,0.013523,0.002678,0.000431,1.034366
7063000,0.0324,0.013523,0.002678,0.000431,0.940931
7064000,0.0324,0.013523,0.002678,0.000431,1.016384
7065000,0.0324,0.013523,0.002678,0.000431,1.070917
7066000,0.0324,0.013523,0.002678,0.000431,0.928825
7067000,0.0324,0.013523,0.002678,0.000431,1.009802
7068000,0.0324,0.013523,0.002678,0.000431,1.106998
7069000,0.0324,0.013523,0.002678,0.000431,0.989117
7070000,0.0324,0.013523,0.002678,0.000431,1.017206
7071000,0.0324,0.013523,0.002678,0.000431,1.048234
7072000,0.0324,0.013523,0.002678,0.000431,1.075618
7073000,0.0324,0.013523,0.002678,0.000431,0.914487
7074000,0.0324,0.013523,0.002678,0.000431,0.948217
7075000,0.0324,0.013523,0.002678,0.000431,1.086313
7076000,0.0324,0.013523,0.002678,0.000431,0.985356
7077000,0.0324,0.013523,0.002678,0.000431,1.099946
7078000,0.0324,0.013523,0.002678,0.000431,0.999577
7079000,0.0324,0.013523,0.002678,0.000431,0.957150
7080000,0.0324,0.013523,0.002678,0.000431,0.945279
7081000,0.0324,0.013523,0.002678,0.000431,1.013798
7082000,0.0324,0.013523,0.002678,0.000431,1.009802
7083000,0.0324,0.013523,0.002678,0.000431,1.002398
7084000,0.0324,0.013523,0.002678,0.000431,1.087371
7085000,0.0324,0.013523,0.002678,0.000431,1.073032
7086000,0.0324,0.013523,0.002678,0.000431,0.931293
7087000,0.0324,0.013523,0.002678,0.000431,1.020497
7088000,0.0324,0.013523,0.002678,0.000431,0.907200
7089000,0.0324,0.013523,0.002678,0.000431,0.984651
7090000,0.0324,0.013523,0.002678,0.000431,0.943516
7091000,0.0324,0.013523,0.002678,0.000431,1.077263
7092000,0.0324,0.013523,0.002678,0.000431,0.994053
7093000,0.0324,0.013523,0.002678,0.000431,1.036834
7094000,0.0324,0.013523,0.002678,0.000431,0.998637
7095000,0.0324,0.013523,0.002678,0.000431,1.034248
7096000,0.0324,0.013523,0.002678,0.000431,1.025198
7097000,0.0324,0.013523,0.002678,0.000431,1.018029
7098000,0.0324,0.013523,0.002678,0.000431,1.083022
7099000,0.0324,0.013523,0.002678,0.000431,1.067038
7100000,0.0324,0.013523,0.002678,0.000431,0.968785
7101000,0.0324,0.013523,0.002678,0.000431,1.088076
7102000,0.0324,0.013523,0.002678,0.000431,0.985944
7103000,0.0324,0.013523,0.002678,0.000431,1.028254
7104000,0.0324,0.013523,0.002678,0.000431,0.980773
7105000,0.0324,0.013523,0.002678,0.000431,1.103942
7106000,0.0324,0.013523,0.002678,0.000431,0.926240
7107000,0.0324,0.013523,0.002678,0.000431,1.053758
7108000,0.0324,0.013523,0.002678,0.000431,0.993818
7109000,0.0324,0.013523,0.002678,0.000431,1.029194
7110000,0.0324,0.013523,0.002678,0.000431,1.018147
7111000,0.0324,0.013523,0.002678,0.000431,1.023670
7112000,0.0324,0.013523,0.002678,0.000431,1.022378
7113000,0.0324,0.013523,0.002678,0.000431,0.974896
7114000,0.0324,0.013523,0.002678,0.000431,0.972076
7115000,0.0324,0.013523,0.002678,0.000431,1.094540
7116000,0.0324,0.013523,0.002678,0.000431,0.932586
7117000,0.0324,0.013523,0.002678,0.000431,0.983241
7118000,0.0324,0.013523,0.002678,0.000431,0.987589
7119000,0.0324,0.013523,0.002678,0.000431,0.971253
7120000,0.0324,0.013523,0.002678,0.000431,1.002986
7121000,0.0324,0.013523,0.002678,0.000431,0.931881
7122000,0.0324,0.013523,0.002678,0.000431,1.030605
7123000,0.0324,0.013523,0.002678,0.000431,0.935524
7124000,0.0324,0.013523,0.002678,0.000431,0.919658
7125000,0.0324,0.013523,0.002678,0.000431,1.023083
7126000,0.0324,0.013523,0.002678,0.000431,1.038597
7127000,0.0324,0.013523,0.002678,0.000431,1.003338
7128000,0.0324,0.013523,0.002678,0.000431,0.998402
7129000,0.0324,0.013523,0.002678,0.000431,1.071622
7130000,0.0324,0.013523,0.002678,0.000431,0.941871
7131000,0.0324,0.013523,0.002678,0.000431,0.952919
7132000,0.0324,0.013523,0.002678,0.000431,1.076206
7133000,0.0324,0.013523,0.002678,0.000431,0.932116
7134000,0.0324,0.013523,0.002678,0.000431,0.976189
7135000,0.0324,0.013523,0.002678,0.000431,0.986884
7136000,0.0324,0.013523,0.002678,0.000431,0.952566
7137000,0.0324,0.013523,0.002678,0.000431,0.944809
7138000,0.0324,0.013523,0.002678,0.000431,0.972428
7139000,0.0324,0.013523,0.002678,0.000431,0.966434
7140000,0.0324,0.013523,0.002678,0.000431,0.950803
7141000,0.0324,0.013523,0.002678,0.000431,0.975014
7142000,0.0324,0.013523,0.002678,0.000431,0.975719
7143000,0.0324,0.013523,0.002678,0.000431,0.999460
7144000,0.0324,0.013523,0.002678,0.000431,0.927885
7145000,0.0324,0.013523,0.002678,0.000431,0.901089
7146000,0.0324,0.013523,0.002678,0.000431,0.847613
7147000,0.0324,0.013523,0.002678,0.000431,0.975014
7148000,0.0324,0.013523,0.002678,0.000431,0.975601
7149000,0.0324,0.013523,0.002678,0.000431,0.914134
7150000,0.0324,0.013523,0.002678,0.000431,1.003103
7151000,0.0324,0.013523,0.002678,0.000431,0.998519
7152000,0.0324,0.013523,0.002678,0.000431,0.943281
7153000,0.0324,0.013523,0.002678,0.000431,0.886280
7154000,0.0324,0.013523,0.002678,0.000431,0.975836
7155000,0.0324,0.013523,0.002678,0.000431,0.960558
7156000,0.0324,0.013523,0.002678,0.000431,1.017089
7157000,0.0324,0.013523,0.002678,0.000431,0.972781
7158000,0.0324,0.013523,0.002678,0.000431,0.987237
7159000,0.0324,0.013523,0.002678,0.000431,1.004631
7160000,0.0324,0.013523,0.002678,0.000431,0.907788
7161000,0.0324,0.013523,0.002678,0.000431,0.910726
7162000,0.0324,0.013523,0.002678,0.000431,0.977482
7163000,0.0324,0.013523,0.002678,0.000431,0.975131
7164000,0.0324,0.013523,0.002678,0.000431,0.995346
7165000,0.0324,0.013523,0.002678,0.000431,0.934584
7166000,0.0324,0.013523,0.002678,0.000431,0.887573
7167000,0.0324,0.013523,0.002678,0.000431,0.956914
7168000,0.0324,0.013523,0.002678,0.000431,0.943751
7169000,0.0324,0.013523,0.002678,0.000431,0.990292
7170000,0.0324,0.013523,0.002678,0.000431,0.963143
7171000,0.0324,0.013523,0.002678,0.000431,0.966082
7172000,0.0324,0.013523,0.002678,0.000431,0.983828
7173000,0.0324,0.013523,0.002678,0.000431,0.978305
7174000,0.0324,0.013523,0.002678,0.000431,1.014268
7175000,0.0324,0.013523,0.002678,0.000431,0.950568
7176000,0.0324,0.013523,0.002678,0.000431,1.029782
7177000,0.0324,0.013523,0.002678,0.000431,0.999577
7178000,0.0324,0.013523,0.002678,0.000431,1.014856
7179000,0.0324,0.013523,0.002678,0.000431,1.040595
7180000,0.0324,0.013523,0.002678,0.000431,1.009215
7181000,0.0324,0.013523,0.002678,0.000431,0.980538
7182000,0.0324,0.013523,0.002678,0.000431,1.041535
7183000,0.0324,0.013523,0.002678,0.000431,0.887808
7184000,0.0324,0.013523,0.002678,0.000431,1.058811
7185000,0.0324,0.013523,0.002678,0.000431,1.016971
7186000,0.0324,0.013523,0.002678,0.000431,1.045648
7187000,0.0324,0.013523,0.002678,0.000431,0.842560
7188000,0.0324,0.013523,0.002678,0.000431,0.953859
7189000,0.0324,0.013523,0.002678,0.000431,0.970195
7190000,0.0324,0.013523,0.002678,0.000431,0.975249
7191000,0.0324,0.013523,0.002678,0.000431,1.039654
7192000,0.0324,0.013523,0.002678,0.000431,0.952566
7193000,0.0324,0.013523,0.002678,0.000431,1.018029
7194000,0.0324,0.013523,0.002678,0.000431,1.048351
7195000,0.0324,0.013523,0.002678,0.000431,1.006629
7196000,0.0324,0.013523,0.002678,0.000431,0.987824
7197000,0.0324,0.013523,0.002678,0.000431,1.019792
7198000,0.0324,0.013523,0.002678,0.000431,1.043885
7199000,0.0324,0.013523,0.002678,0.000431,1.047646
7200000,0.0324,0.013523,0.002678,0.000431,0.907083
7201000,0.0324,0.013523,0.002678,0.000431,1.060927
7202000,0.0324,0.013523,0.002678,0.000431,0.984063
7203000,0.0324,0.013523,0.002678,0.000431,0.965024
7204000,0.0324,0.013523,0.002678,0.000431,1.073267
7205000,0.0324,0.013523,0.002678,0.000431,1.018382
7206000,0.0324,0.013523,0.002678,0.000431,1.003456
7207000,0.0324,0.013523,0.002678,0.000431,1.051525
7208000,0.0324,0.013523,0.002678,0.000431,0.967374
7209000,0.0324,0.013523,0.002678,0.000431,1.053523
7210000,0.0324,0.013523,0.002678,0.000431,0.961968
7211000,0.0324,0.013523,0.002678,0.000431,1.029782
7212000,0.0324,0.013523,0.002678,0.000431,1.054933
7213000,0.0324,0.013523,0.002678,0.000431,1.077381
7214000,0.0324,0.013523,0.002678,0.000431,1.022848
7215000,0.0324,0.013523,0.002678,0.000431,1.018734
7216000,0.0324,0.013523,0.002678,0.000431,1.053640
7217000,0.0324,0.013523,0.002678,0.000431,0.975484
7218000,0.0324,0.013523,0.002678,0.000431,1.089839
7219000,0.0324,0.013523,0.002678,0.000431,1.055638
7220000,0.0324,0.013523,0.002678,0.000431,1.039772
7221000,0.0324,0.013523,0.002678,0.000431,1.028842
7222000,0.0324,0.013523,0.002678,0.000431,0.982888
7223000,0.0324,0.013523,0.002678,0.000431,1.045061
7224000,0.0324,0.013523,0.002678,0.000431,0.957267
7225000,0.0324,0.013523,0.002678,0.000431,1.062102
7226000,0.0324,0.013523,0.002678,0.000431,1.064688
7227000,0.0324,0.013523,0.002678,0.000431,1.013916
7228000,0.0324,0.013523,0.002678,0.000431,1.103355
7229000,0.0324,0.013523,0.002678,0.000431,0.971135
7230000,0.0324,0.013523,0.002678,0.000431,1.018029
7231000,0.0324,0.013523,0.002678,0.000431,1.050937
7232000,0.0324,0.013523,0.002678,0.000431,1.063865
7233000,0.0324,0.013523,0.002678,0.000431,1.028137
7234000,0.0324,0.013523,0.002678,0.000431,1.058224
7235000,0.0324,0.013523,0.002678,0.000431,1.069389
7236000,0.0324,0.013523,0.002678,0.000431,1.058694
7237000,0.0324,0.013523,0.002678,0.000431,1.029429
7238000,0.0324,0.013523,0.002678,0.000431,1.011800
7239000,0.0324,0.013523,0.002678,0.000431,1.067391
7240000,0.0324,0.013523,0.002678,0.000431,0.954094
7241000,0.0324,0.013523,0.002678,0.000431,1.009450
7242000,0.0324,0.013523,0.002678,0.000431,1.096185
7243000,0.0324,0.013523,0.002678,0.000431,0.984416
7244000,0.0324,0.013523,0.002678,0.000431,0.970195
7245000,0.0324,0.013523,0.002678,0.000431,0.985004
7246000,0.0324,0.013523,0.002678,0.000431,0.987707
7247000,0.0324,0.013523,0.002678,0.000431,0.976777
7248000,0.0324,0.013523,0.002678,0.000431,0.976072
7249000,0.0324,0.013523,0.002678,0.000431,1.028489
7250000,0.0324,0.013523,0.002678,0.000431,0.970430
7251000,0.0324,0.013523,0.002678,0.000431,1.018029
7252000,0.0324,0.013523,0.002678,0.000431,0.996757
7253000,0.0324,0.013523,0.002678,0.000431,0.971488
7254000,0.0324,0.013523,0.002678,0.000431,1.051290
7255000,0.0324,0.013523,0.002678,0.000431,1.054463
7256000,0.0324,0.013523,0.002678,0.000431,1.029312
7257000,0.0324,0.013523,0.002678,0.000431,1.024258
7258000,0.0324,0.013523,0.002678,0.000431,0.979127
7259000,0.0324,0.013523,0.002678,0.000431,1.020967
7260000,0.0324,0.013523,0.002678,0.000431,1.009097
7261000,0.0324,0.013523,0.002678,0.000431,0.989822
7262000,0.0324,0.013523,0.002678,0.000431,1.030370
7263000,0.0324,0.013523,0.002678,0.000431,0.972193
7264000,0.0324,0.013523,0.002678,0.000431,0.954446
7265000,0.0324,0.013523,0.002678,0.000431,1.043885
7266000,0.0324,0.013523,0.002678,0.000431,0.922949
7267000,0.0324,0.013523,0.002678,0.000431,0.959970
7268000,0.0324,0.013523,0.002678,0.000431,0.968667
7269000,0.0324,0.013523,0.002678,0.000431,0.948452
7270000,0.0324,0.013523,0.002678,0.000431,0.877936
7271000,0.0324,0.013523,0.002678,0.000431,0.934467
7272000,0.0324,0.013523,0.002678,0.000431,1.019087
7273000,0.0324,0.013523,0.002678,0.000431,0.918953
7274000,0.0324,0.013523,0.002678,0.000431,1.020615
7275000,0.0324,0.013523,0.002678,0.000431,0.994053
7276000,0.0324,0.013523,0.002678,0.000431,0.927885
7277000,0.0324,0.013523,0.002678,0.000431,0.948217
7278000,0.0324,0.013523,0.002678,0.000431,0.955269
7279000,0.0324,0.013523,0.002678,0.000431,0.935994
7280000,0.0324,0.013523,0.002678,0.000431,0.986532
7281000,0.0324,0.013523,0.002678,0.000431,0.961263
7282000,0.0324,0.013523,0.002678,0.000431,0.904144
7283000,0.0324,0.013523,0.002678,0.000431,0.931763
7284000,0.0324,0.013523,0.002678,0.000431,0.919658
7285000,0.0324,0.013523,0.002678,0.000431,0.959970
7286000,0.0324,0.013523,0.002678,0.000431,0.798722
7287000,0.0324,0.013523,0.002678,0.000431,0.862304
7288000,0.0324,0.013523,0.002678,0.000431,0.827046
7289000,0.0324,0.013523,0.002678,0.000431,0.882637
7290000,0.0324,0.013523,0.002678,0.000431,0.890864
7291000,0.0324,0.013523,0.002678,0.000431,0.855370
7292000,0.0324,0.013523,0.002678,0.000431,0.901794
7293000,0.0324,0.013523,0.002678,0.000431,0.850787
7294000,0.0324,0.013523,0.002678,0.000431,0.924477
7295000,0.0324,0.013523,0.002678,0.000431,0.841737
7296000,0.0324,0.013523,0.002678,0.000431,0.860071
7297000,0.0324,0.013523,0.002678,0.000431,0.936582
7298000,0.0324,0.013523,0.002678,0.000431,0.874410
7299000,0.0324,0.013523,0.002678,0.000431,0.928238
7300000,0.0324,0.013523,0.002678,0.000431,0.848083
7301000,0.0324,0.013523,0.002678,0.000431,0.872177
7302000,0.0324,0.013523,0.002678,0.000431,0.917895
7303000,0.0324,0.013523,0.002678,0.000431,0.894389
7304000,0.0324,0.013523,0.002678,0.000431,0.897445
7305000,0.0324,0.013523,0.002678,0.000431,0.880051
7306000,0.0324,0.013523,0.002678,0.000431,0.878758
7307000,0.0324,0.013523,0.002678,0.000431,0.913899
7308000,0.0324,0.013523,0.002678,0.000431,0.908845
7309000,0.0324,0.013523,0.002678,0.000431,0.911078
7310000,0.0324,0.013523,0.002678,0.000431,0.878406
7311000,0.0324,0.013523,0.002678,0.000431,0.963966
7312000,0.0324,0.013523,0.002678,0.000431,0.975719
7313000,0.0324,0.013523,0.002678,0.000431,0.902499
7314000,0.0324,0.013523,0.002678,0.000431,0.976542
7315000,0.0324,0.013523,0.002678,0.000431,0.899678
7316000,0.0324,0.013523,0.002678,0.000431,0.874997
7317000,0.0324,0.013523,0.002678,0.000431,0.967257
7318000,0.0324,0.013523,0.002678,0.000431,0.929295
7319000,0.0324,0.013523,0.002678,0.000431,0.929413
7320000,0.0324,0.013523,0.002678,0.000431,0.873352
7321000,0.0324,0.013523,0.002678,0.000431,0.876173
7322000,0.0324,0.013523,0.002678,0.000431,0.936112
7323000,0.0324,0.013523,0.002678,0.000431,0.913312
7324000,0.0324,0.013523,0.002678,0.000431,0.894389
7325000,0.0324,0.013523,0.002678,0.000431,0.932469
7326000,0.0324,0.013523,0.002678,0.000431,0.930823
7327000,0.0324,0.013523,0.002678,0.000431,0.956797
7328000,0.0324,0.013523,0.002678,0.000431,0.975836
7329000,0.0324,0.013523,0.002678,0.000431,0.904144
7330000,0.0324,0.013523,0.002678,0.000431,0.870531
7331000,0.0324,0.013523,0.002678,0.000431,0.893097
7332000,0.0324,0.013523,0.002678,0.000431,0.974191
7333000,0.0324,0.013523,0.002678,0.000431,0.964789
7334000,0.0324,0.013523,0.002678,0.000431,0.924712
7335000,0.0324,0.013523,0.002678,0.000431,1.006864
7336000,0.0324,0.013523,0.002678,0.000431,0.928238
7337000,0.0324,0.013523,0.002678,0.000431,0.964084
7338000,0.0324,0.013523,0.002678,0.000431,0.884635
7339000,0.0324,0.013523,0.002678,0.000431,0.891686
7340000,0.0324,0.013523,0.002678,0.000431,0.966669
7341000,0.0324,0.013523,0.002678,0.000431,0.869591
7342000,0.0324,0.013523,0.002678,0.000431,0.958325
7343000,0.0324,0.013523,0.002678,0.000431,0.918365
7344000,0.0324,0.013523,0.002678,0.000431,0.941988
7345000,0.0324,0.013523,0.002678,0.000431,0.873469
7346000,0.0324,0.013523,0.002678,0.000431,0.955974
7347000,0.0324,0.013523,0.002678,0.000431,0.913782
7348000,0.0324,0.013523,0.002678,0.000431,0.853725
7349000,0.0324,0.013523,0.002678,0.000431,0.986061
7350000,0.0324,0.013523,0.002678,0.000431,0.952919
7351000,0.0324,0.013523,0.002678,0.000431,0.899326
7352000,0.0324,0.013523,0.002678,0.000431,0.966904
7353000,0.0324,0.013523,0.002678,0.000431,0.913194
7354000,0.0324,0.013523,0.002678,0.000431,0.907670
7355000,0.0324,0.013523,0.002678,0.000431,0.951391
7356000,0.0324,0.013523,0.002678,0.000431,0.952213
7357000,0.0324,0.013523,0.002678,0.000431,0.913429
7358000,0.0324,0.013523,0.002678,0.000431,0.918130
7359000,0.0324,0.013523,0.002678,0.000431,0.980890
7360000,0.0324,0.013523,0.002678,0.000431,0.933056
7361000,0.0324,0.013523,0.002678,0.000431,0.928355
7362000,0.0324,0.013523,0.002678,0.000431,0.926122
7363000,0.0324,0.013523,0.002678,0.000431,0.931293
7364000,0.0324,0.013523,0.002678,0.000431,0.924477
7365000,0.0324,0.013523,0.002678,0.000431,0.909198
7366000,0.0324,0.013523,0.002678,0.000431,0.964436
7367000,0.0324,0.013523,0.002678,0.000431,0.941166
7368000,0.0324,0.013523,0.002678,0.000431,0.952096
7369000,0.0324,0.013523,0.002678,0.000431,0.916015
7370000,0.0324,0.013523,0.002678,0.000431,0.957972
7371000,0.0324,0.013523,0.002678,0.000431,1.003338
7372000,0.0324,0.013523,0.002678,0.000431,0.977834
7373000,0.0324,0.013523,0.002678,0.000431,0.954681
7374000,0.0324,0.013523,0.002678,0.000431,0.964201
7375000,0.0324,0.013523,0.002678,0.000431,0.993348
7376000,0.0324,0.013523,0.002678,0.000431,0.867240
7377000,0.0324,0.013523,0.002678,0.000431,0.999930
7378000,0.0324,0.013523,0.002678,0.000431,0.977129
7379000,0.0324,0.013523,0.002678,0.000431,0.891334
7380000,0.0324,0.013523,0.002678,0.000431,0.938815
7381000,0.0324,0.013523,0.002678,0.000431,0.903909
7382000,0.0324,0.013523,0.002678,0.000431,0.983711
7383000,0.0324,0.013523,0.002678,0.000431,0.915309
7384000,0.0324,0.013523,0.002678,0.000431,0.906965
7385000,0.0324,0.013523,0.002678,0.000431,1.091954
7386000,0.0324,0.013523,0.002678,0.000431,0.823990
7387000,0.0324,0.013523,0.002678,0.000431,0.889101
7388000,0.0324,0.013523,0.002678,0.000431,0.937875
7389000,0.0324,0.013523,0.002678,0.000431,0.951743
7390000,0.0324,0.013523,0.002678,0.000431,1.013210
7391000,0.0324,0.013523,0.002678,0.000431,0.953859
7392000,0.0324,0.013523,0.002678,0.000431,0.974544
7393000,0.0324,0.013523,0.002678,0.000431,0.936817
7394000,0.0324,0.013523,0.002678,0.000431,0.930941
7395000,0.0324,0.013523,0.002678,0.000431,0.997814
7396000,0.0324,0.013523,0.002678,0.000431,0.971958
7397000,0.0324,0.013523,0.002678,0.000431,0.958560
7398000,0.0324,0.013523,0.002678,0.000431,0.985709
7399000,0.0324,0.013523,0.002678,0.000431,0.996639
7400000,0.0324,0.013523,0.002678,0.000431,0.926357
7401000,0.0324,0.013523,0.002678,0.000431,1.005806
7402000,0.0324,0.013523,0.002678,0.000431,0.975131
7403000,0.0324,0.013523,0.002678,0.000431,0.988530
7404000,0.0324,0.013523,0.002678,0.000431,0.977012
7405000,0.0324,0.013523,0.002678,0.000431,0.997109
7406000,0.0324,0.013523,0.002678,0.000431,1.004866
7407000,0.0324,0.013523,0.002678,0.000431,1.037891
7408000,0.0324,0.013523,0.002678,0.000431,0.946807
7409000,0.0324,0.013523,0.002678,0.000431,1.090309
7410000,0.0324,0.013523,0.002678,0.000431,1.032720
7411000,0.0324,0.013523,0.002678,0.000431,1.042475
7412000,0.0324,0.013523,0.002678,0.000431,0.949980
7413000,0.0324,0.013523,0.002678,0.000431,1.011212
7414000,0.0324,0.013523,0.002678,0.000431,1.067979
7415000,0.0324,0.013523,0.002678,0.000431,0.992055
7416000,0.0324,0.013523,0.002678,0.000431,0.998049
7417000,0.0324,0.013523,0.002678,0.000431,1.072562
7418000,0.0324,0.013523,0.002678,0.000431,0.969843
7419000,0.0324,0.013523,0.002678,0.000431,0.936230
7420000,0.0324,0.013523,0.002678,0.000431,1.088076
7421000,0.0324,0.013523,0.002678,0.000431,0.976542
7422000,0.0324,0.013523,0.002678,0.000431,1.017441
7423000,0.0324,0.013523,0.002678,0.000431,0.919070
7424000,0.0324,0.013523,0.002678,0.000431,0.986061
7425000,0.0324,0.013523,0.002678,0.000431,0.969137
7426000,0.0324,0.013523,0.002678,0.000431,1.006276
7427000,0.0324,0.013523,0.002678,0.000431,0.977129
7428000,0.0324,0.013523,0.002678,0.000431,0.978892
7429000,0.0324,0.013523,0.002678,0.000431,0.919070
7430000,0.0324,0.013523,0.002678,0.000431,0.901794
7431000,0.0324,0.013523,0.002678,0.000431,0.983946
7432000,0.0324,0.013523,0.002678,0.000431,0.937522
7433000,0.0324,0.013523,0.002678,0.000431,0.964084
7434000,0.0324,0.013523,0.002678,0.000431,0.905672
7435000,0.0324,0.013523,0.002678,0.000431,0.944927
7436000,0.0324,0.013523,0.002678,0.000431,0.984181
7437000,0.0324,0.013523,0.002678,0.000431,0.943281
7438000,0.0324,0.013523,0.002678,0.000431,0.988530
7439000,0.0324,0.013523,0.002678,0.000431,0.951626
7440000,0.0324,0.013523,0.002678,0.000431,0.942811
7441000,0.0324,0.013523,0.002678,0.000431,0.956327
7442000,0.0324,0.013523,0.002678,0.000431,0.961145
7443000,0.0324,0.013523,0.002678,0.000431,0.901324
7444000,0.0324,0.013523,0.002678,0.000431,0.948687
7445000,0.0324,0.013523,0.002678,0.000431,0.941636
7446000,0.0324,0.013523,0.002678,0.000431,0.918718
7447000,0.0324,0.013523,0.002678,0.000431,0.921068
7448000,0.0324,0.013523,0.002678,0.000431,0.888513
7449000,0.0324,0.013523,0.002678,0.000431,0.910021
7450000,0.0324,0.013523,0.002678,0.000431,0.946219
7451000,0.0324,0.013523,0.002678,0.000431,0.939403
7452000,0.0324,0.013523,0.002678,0.000431,0.879111
7453000,0.0324,0.013523,0.002678,0.000431,0.902734
7454000,0.0324,0.013523,0.002678,0.000431,0.928590
7455000,0.0324,0.013523,0.002678,0.000431,0.930236
7456000,0.0324,0.013523,0.002678,0.000431,0.873705
7457000,0.0324,0.013523,0.002678,0.000431,0.864302
7458000,0.0324,0.013523,0.002678,0.000431,0.897445
7459000,0.0324,0.013523,0.002678,0.000431,0.953036
7460000,0.0324,0.013523,0.002678,0.000431,0.929178
7461000,0.0324,0.013523,0.002678,0.000431,0.967492
7462000,0.0324,0.013523,0.002678,0.000431,0.918718
7463000,0.0324,0.013523,0.002678,0.000431,0.996992
7464000,0.0324,0.013523,0.002678,0.000431,1.000047
7465000,0.0324,0.013523,0.002678,0.000431,0.946572
7466000,0.0324,0.013523,0.002678,0.000431,1.023906
7467000,0.0324,0.013523,0.002678,0.000431,0.953976
7468000,0.0324,0.013523,0.002678,0.000431,0.937992
7469000,0.0324,0.013523,0.002678,0.000431,0.942106
7470000,0.0324,0.013523,0.002678,0.000431,0.900148
7471000,0.0324,0.013523,0.002678,0.000431,0.971723
7472000,0.0324,0.013523,0.002678,0.000431,0.895682
7473000,0.0324,0.013523,0.002678,0.000431,0.869121
7474000,0.0324,0.013523,0.002678,0.000431,0.907553
7475000,0.0324,0.013523,0.002678,0.000431,0.956209
7476000,0.0324,0.013523,0.002678,0.000431,0.818466
7477000,0.0324,0.013523,0.002678,0.000431,0.906495
7478000,0.0324,0.013523,0.002678,0.000431,0.903557
7479000,0.0324,0.013523,0.002678,0.000431,0.871589
7480000,0.0324,0.013523,0.002678,0.000431,0.883577
7481000,0.0324,0.013523,0.002678,0.000431,0.808006
7482000,0.0324,0.013523,0.002678,0.000431,0.917425
7483000,0.0324,0.013523,0.002678,0.000431,0.894977
7484000,0.0324,0.013523,0.002678,0.000431,0.826341
7485000,0.0324,0.013523,0.002678,0.000431,0.882049
7486000,0.0324,0.013523,0.002678,0.000431,0.865830
7487000,0.0324,0.013523,0.002678,0.000431,0.872647
7488000,0.0324,0.013523,0.002678,0.000431,0.939285
7489000,0.0324,0.013523,0.002678,0.000431,0.795078
7490000,0.0324,0.013523,0.002678,0.000431,0.889453
7491000,0.0324,0.013523,0.002678,0.000431,0.922361
7492000,0.0324,0.013523,0.002678,0.000431,0.849846
7493000,0.0324,0.013523,0.002678,0.000431,0.851374
7494000,0.0324,0.013523,0.002678,0.000431,0.877583
7495000,0.0324,0.013523,0.002678,0.000431,0.897798
7496000,0.0324,0.013523,0.002678,0.000431,0.841384
7497000,0.0324,0.013523,0.002678,0.000431,0.880756
7498000,0.0324,0.013523,0.002678,0.000431,0.877348
7499000,0.0324,0.013523,0.002678,0.000431,0.899561
7500000,0.0324,0.013523,0.002678,0.000431,0.981360
7501000,0.0324,0.013523,0.002678,0.000431,0.858308
7502000,0.0324,0.013523,0.002678,0.000431,0.897680
7503000,0.0324,0.013523,0.002678,0.000431,0.965729
7504000,0.0324,0.013523,0.002678,0.000431,0.848201
7505000,0.0324,0.013523,0.002678,0.000431,0.941988
7506000,0.0324,0.013523,0.002678,0.000431,0.961145
7507000,0.0324,0.013523,0.002678,0.000431,0.892744
7508000,0.0324,0.013523,0.002678,0.000431,0.961381
7509000,0.0324,0.013523,0.002678,0.000431,0.933526
7510000,0.0324,0.013523,0.002678,0.000431,0.848201
7511000,0.0324,0.013523,0.002678,0.000431,0.933056
7512000,0.0324,0.013523,0.002678,0.000431,0.949275
7513000,0.0324,0.013523,0.002678,0.000431,0.906377
7514000,0.0324,0.013523,0.002678,0.000431,1.038244
7515000,0.0324,0.013523,0.002678,0.000431,0.972663
7516000,0.0324,0.013523,0.002678,0.000431,0.928120
7517000,0.0324,0.013523,0.002678,0.000431,0.969490
7518000,0.0324,0.013523,0.002678,0.000431,0.950568
7519000,0.0324,0.013523,0.002678,0.000431,0.975366
7520000,0.0324,0.013523,0.002678,0.000431,0.949393
7521000,0.0324,0.013523,0.002678,0.000431,0.969608
7522000,0.0324,0.013523,0.002678,0.000431,0.918365
7523000,0.0324,0.013523,0.002678,0.000431,1.000165
7524000,0.0324,0.013523,0.002678,0.000431,0.945514
7525000,0.0324,0.013523,0.002678,0.000431,0.909786
7526000,0.0324,0.013523,0.002678,0.000431,0.958442
7527000,0.0324,0.013523,0.002678,0.000431,0.948570
7528000,0.0324,0.013523,0.002678,0.000431,0.894389
7529000,0.0324,0.013523,0.002678,0.000431,0.926710
7530000,0.0324,0.013523,0.002678,0.000431,0.937052
7531000,0.0324,0.013523,0.002678,0.000431,0.934584
7532000,0.0324,0.013523,0.002678,0.000431,1.004631
7533000,0.0324,0.013523,0.002678,0.000431,0.988177
7534000,0.0324,0.013523,0.002678,0.000431,0.929883
7535000,0.0324,0.013523,0.002678,0.000431,0.892979
7536000,0.0324,0.013523,0.002678,0.000431,0.987354
7537000,0.0324,0.013523,0.002678,0.000431,0.956444
7538000,0.0324,0.013523,0.002678,0.000431,0.963731
7539000,0.0324,0.013523,0.002678,0.000431,0.997462
7540000,0.0324,0.013523,0.002678,0.000431,0.955504
7541000,0.0324,0.013523,0.002678,0.000431,0.993466
7542000,0.0324,0.013523,0.002678,0.000431,0.984416
7543000,0.0324,0.013523,0.002678,0.000431,0.959265
7544000,0.0324,0.013523,0.002678,0.000431,1.004983
7545000,0.0324,0.013523,0.002678,0.000431,1.044826
7546000,0.0324,0.013523,0.002678,0.000431,1.001340
7547000,0.0324,0.013523,0.002678,0.000431,0.929883
7548000,0.0324,0.013523,0.002678,0.000431,1.058576
7549000,0.0324,0.013523,0.002678,0.000431,0.920128
7550000,0.0324,0.013523,0.002678,0.000431,0.922009
7551000,0.0324,0.013523,0.002678,0.000431,0.988294
7552000,0.0324,0.013523,0.002678,0.000431,0.992878
7553000,0.0324,0.013523,0.002678,0.000431,0.855840
7554000,0.0324,0.013523,0.002678,0.000431,0.952448
7555000,0.0324,0.013523,0.002678,0.000431,0.931528
7556000,0.0324,0.013523,0.002678,0.000431,0.867358
7557000,0.0324,0.013523,0.002678,0.000431,0.999460
7558000,0.0324,0.013523,0.002678,0.000431,0.858308
7559000,0.0324,0.013523,0.002678,0.000431,0.969372
7560000,0.0324,0.013523,0.002678,0.000431,0.953389
7561000,0.0324,0.013523,0.002678,0.000431,0.931881
7562000,0.0324,0.013523,0.002678,0.000431,0.869121
7563000,0.0324,0.013523,0.002678,0.000431,0.921538
7564000,0.0324,0.013523,0.002678,0.000431,0.988765
7565000,0.0324,0.013523,0.002678,0.000431,0.857603
7566000,0.0324,0.013523,0.002678,0.000431,0.903557
7567000,0.0324,0.013523,0.002678,0.000431,0.924594
7568000,0.0324,0.013523,0.002678,0.000431,0.964319
7569000,0.0324,0.013523,0.002678,0.000431,0.969608
7570000,0.0324,0.013523,0.002678,0.000431,1.031897
7571000,0.0324,0.013523,0.002678,0.000431,1.004983
7572000,0.0324,0.013523,0.002678,0.000431,0.806831
7573000,0.0324,0.013523,0.002678,0.000431,0.903322
7574000,0.0324,0.013523,0.002678,0.000431,0.975601
7575000,0.0324,0.013523,0.002678,0.000431,1.001693
7576000,0.0324,0.013523,0.002678,0.000431,1.037539
7577000,0.0324,0.013523,0.002678,0.000431,0.918600
7578000,0.0324,0.013523,0.002678,0.000431,1.012270
7579000,0.0324,0.013523,0.002678,0.000431,0.929178
7580000,0.0324,0.013523,0.002678,0.000431,1.012153
7581000,0.0324,0.013523,0.002678,0.000431,0.962321
7582000,0.0324,0.013523,0.002678,0.000431,0.917895
7583000,0.0324,0.013523,0.002678,0.000431,0.999460
7584000,0.0324,0.013523,0.002678,0.000431,0.931176
7585000,0.0324,0.013523,0.002678,0.000431,0.942811
7586000,0.0324,0.013523,0.002678,0.000431,0.956562
7587000,0.0324,0.013523,0.002678,0.000431,0.940108
7588000,0.0324,0.013523,0.002678,0.000431,0.935642
7589000,0.0324,0.013523,0.002678,0.000431,0.989352
7590000,0.0324,0.013523,0.002678,0.000431,0.944692
7591000,0.0324,0.013523,0.002678,0.000431,1.047294
7592000,0.0324,0.013523,0.002678,0.000431,1.019204
7593000,0.0324,0.013523,0.002678,0.000431,1.009920
7594000,0.0324,0.013523,0.002678,0.000431,1.090544
7595000,0.0324,0.013523,0.002678,0.000431,1.031780
7596000,0.0324,0.013523,0.002678,0.000431,0.971958
7597000,0.0324,0.013523,0.002678,0.000431,0.973721
7598000,0.0324,0.013523,0.002678,0.000431,1.046118
7599000,0.0324,0.013523,0.002678,0.000431,1.000282
7600000,0.0324,0.013523,0.002678,0.000431,0.949040
7601000,0.0324,0.013523,0.002678,0.000431,1.077263
7602000,0.0324,0.013523,0.002678,0.000431,0.989117
7603000,0.0324,0.013523,0.002678,0.000431,1.022378
7604000,0.0324,0.013523,0.002678,0.000431,0.960558
7605000,0.0324,0.013523,0.002678,0.000431,1.023906
7606000,0.0324,0.013523,0.002678,0.000431,1.076911
7607000,0.0324,0.013523,0.002678,0.000431,0.977247
7608000,0.0324,0.013523,0.002678,0.000431,1.001105
7609000,0.0324,0.013523,0.002678,0.000431,1.047176
7610000,0.0324,0.013523,0.002678,0.000431,0.943634
7611000,0.0324,0.013523,0.002678,0.000431,0.984769
7612000,0.0324,0.013523,0.002678,0.000431,0.974309
7613000,0.0324,0.013523,0.002678,0.000431,1.078204
7614000,0.0324,0.013523,0.002678,0.000431,0.989587
7615000,0.0324,0.013523,0.002678,0.000431,0.915662
7616000,0.0324,0.013523,0.002678,0.000431,1.002986
7617000,0.0324,0.013523,0.002678,0.000431,1.010625
7618000,0.0324,0.013523,0.002678,0.000431,0.982536
7619000,0.0324,0.013523,0.002678,0.000431,0.909903
7620000,0.0324,0.013523,0.002678,0.000431,1.049174
7621000,0.0324,0.013523,0.002678,0.000431,0.932469
7622000,0.0324,0.013523,0.002678,0.000431,1.012740
7623000,0.0324,0.013523,0.002678,0.000431,1.029312
7624000,0.0324,0.013523,0.002678,0.000431,0.998754
7625000,0.0324,0.013523,0.002678,0.000431,0.990292
7626000,0.0324,0.013523,0.002678,0.000431,1.000047
7627000,0.0324,0.013523,0.002678,0.000431,1.055991
7628000,0.0324,0.013523,0.002678,0.000431,0.989352
7629000,0.0324,0.013523,0.002678,0.000431,0.996286
7630000,0.0324,0.013523,0.002678,0.000431,0.940225
7631000,0.0324,0.013523,0.002678,0.000431,1.129093
7632000,0.0324,0.013523,0.002678,0.000431,1.019792
7633000,0.0324,0.013523,0.002678,0.000431,0.963966
7634000,0.0324,0.013523,0.002678,0.000431,1.024023
7635000,0.0324,0.013523,0.002678,0.000431,0.990292
7636000,0.0324,0.013523,0.002678,0.000431,0.987707
7637000,0.0324,0.013523,0.002678,0.000431,0.986179
7638000,0.0324,0.013523,0.002678,0.000431,0.993113
7639000,0.0324,0.013523,0.002678,0.000431,1.010860
7640000,0.0324,0.013523,0.002678,0.000431,0.905320
7641000,0.0324,0.013523,0.002678,0.000431,1.017441
7642000,0.0324,0.013523,0.002678,0.000431,1.016501
7643000,0.0324,0.013523,0.002678,0.000431,1.044355
7644000,0.0324,0.013523,0.002678,0.000431,0.947512
7645000,0.0324,0.013523,0.002678,0.000431,1.018264
7646000,0.0324,0.013523,0.002678,0.000431,0.953154
7647000,0.0324,0.013523,0.002678,0.000431,0.961616
7648000,0.0324,0.013523,0.002678,0.000431,1.013093
7649000,0.0324,0.013523,0.002678,0.000431,1.033778
7650000,0.0324,0.013523,0.002678,0.000431,0.938110
7651000,0.0324,0.013523,0.002678,0.000431,0.974309
7652000,0.0324,0.013523,0.002678,0.000431,0.999695
7653000,0.0324,0.013523,0.002678,0.000431,0.996169
7654000,0.0324,0.013523,0.002678,0.000431,0.912959
7655000,0.0324,0.013523,0.002678,0.000431,1.040477
7656000,0.0324,0.013523,0.002678,0.000431,0.999107
7657000,0.0324,0.013523,0.002678,0.000431,0.883812
7658000,0.0324,0.013523,0.002678,0.000431,0.982065
7659000,0.0324,0.013523,0.002678,0.000431,0.939520
7660000,0.0324,0.013523,0.002678,0.000431,0.906025
7661000,0.0324,0.013523,0.002678,0.000431,1.005924
7662000,0.0324,0.013523,0.002678,0.000431,0.949863
7663000,0.0324,0.013523,0.002678,0.000431,0.936112
7664000,0.0324,0.013523,0.002678,0.000431,0.995816
7665000,0.0324,0.013523,0.002678,0.000431,1.004748
7666000,0.0324,0.013523,0.002678,0.000431,0.942929
7667000,0.0324,0.013523,0.002678,0.000431,1.006041
7668000,0.0324,0.013523,0.002678,0.000431,0.945279
7669000,0.0324,0.013523,0.002678,0.000431,0.908258
7670000,0.0324,0.013523,0.002678,0.000431,0.991350
7671000,0.0324,0.013523,0.002678,0.000431,0.994994
7672000,0.0324,0.013523,0.002678,0.000431,0.922714
7673000,0.0324,0.013523,0.002678,0.000431,1.059282
7674000,0.0324,0.013523,0.002678,0.000431,1.057754
7675000,0.0324,0.013523,0.002678,0.000431,0.887690
7676000,0.0324,0.013523,0.002678,0.000431,0.926945
7677000,0.0324,0.013523,0.002678,0.000431,0.986414
7678000,0.0324,0.013523,0.002678,0.000431,0.904849
7679000,0.0324,0.013523,0.002678,0.000431,1.010742
7680000,0.0324,0.013523,0.002678,0.000431,0.933291
7681000,0.0324,0.013523,0.002678,0.000431,0.943634
7682000,0.0324,0.013523,0.002678,0.000431,0.949745
7683000,0.0324,0.013523,0.002678,0.000431,0.950921
7684000,0.0324,0.013523,0.002678,0.000431,0.968080
7685000,0.0324,0.013523,0.002678,0.000431,0.945984
7686000,0.0324,0.013523,0.002678,0.000431,0.949510
7687000,0.0324,0.013523,0.002678,0.000431,0.926592
7688000,0.0324,0.013523,0.002678,0.000431,0.896152
7689000,0.0324,0.013523,0.002678,0.000431,0.990292
7690000,0.0324,0.013523,0.002678,0.000431,0.876290
7691000,0.0324,0.013523,0.002678,0.000431,0.879111
7692000,0.0324,0.013523,0.002678,0.000431,0.894154
7693000,0.0324,0.013523,0.002678,0.000431,0.865595
7694000,0.0324,0.013523,0.002678,0.000431,0.969725
7695000,0.0324,0.013523,0.002678,0.000431,0.943869
7696000,0.0324,0.013523,0.002678,0.000431,0.929413
7697000,0.0324,0.013523,0.002678,0.000431,0.926592
7698000,0.0324,0.013523,0.002678,0.000431,0.939050
7699000,0.0324,0.013523,0.002678,0.000431,0.941048
7700000,0.0324,0.013523,0.002678,0.000431,0.908023
7701000,0.0324,0.013523,0.002678,0.000431,0.936935
7702000,0.0324,0.013523,0.002678,0.000431,0.947865
7703000,0.0324,0.013523,0.002678,0.000431,0.897915
7704000,0.0324,0.013523,0.002678,0.000431,1.000400
7705000,0.0324,0.013523,0.002678,0.000431,0.961733
7706000,0.0324,0.013523,0.002678,0.000431,0.977952
7707000,0.0324,0.013523,0.002678,0.000431,1.029077
7708000,0.0324,0.013523,0.002678,0.000431,0.929648
7709000,0.0324,0.013523,0.002678,0.000431,0.987707
7710000,0.0324,0.013523,0.002678,0.000431,1.041300
7711000,0.0324,0.013523,0.002678,0.000431,0.896152
7712000,0.0324,0.013523,0.002678,0.000431,0.861247
7713000,0.0324,0.013523,0.002678,0.000431,0.964671
7714000,0.0324,0.013523,0.002678,0.000431,0.962321
7715000,0.0324,0.013523,0.002678,0.000431,1.006981
7716000,0.0324,0.013523,0.002678,0.000431,1.021202
7717000,0.0324,0.013523,0.002678,0.000431,0.969490
7718000,0.0324,0.013523,0.002678,0.000431,1.036599
7719000,0.0324,0.013523,0.002678,0.000431,0.982418
7720000,0.0324,0.013523,0.002678,0.000431,1.080084
7721000,0.0324,0.013523,0.002678,0.000431,0.972076
7722000,0.0324,0.013523,0.002678,0.000431,0.928590
7723000,0.0324,0.013523,0.002678,0.000431,1.035188
7724000,0.0324,0.013523,0.002678,0.000431,1.037186
7725000,0.0324,0.013523,0.002678,0.000431,0.952801
7726000,0.0324,0.013523,0.002678,0.000431,0.986179
7727000,0.0324,0.013523,0.002678,0.000431,1.089956
7728000,0.0324,0.013523,0.002678,0.000431,1.103120
7729000,0.0324,0.013523,0.002678,0.000431,0.853490
7730000,0.0324,0.013523,0.002678,0.000431,1.001458
7731000,0.0324,0.013523,0.002678,0.000431,1.099359
7732000,0.0324,0.013523,0.002678,0.000431,0.991233
7733000,0.0324,0.013523,0.002678,0.000431,0.986649
7734000,0.0324,0.013523,0.002678,0.000431,1.073737
7735000,0.0324,0.013523,0.002678,0.000431,0.981008
7736000,0.0324,0.013523,0.002678,0.000431,0.967374
7737000,0.0324,0.013523,0.002678,0.000431,1.159651
7738000,0.0324,0.013523,0.002678,0.000431,1.085373
7739000,0.0324,0.013523,0.002678,0.000431,0.981478
7740000,0.0324,0.013523,0.002678,0.000431,0.990528
7741000,0.0324,0.013523,0.002678,0.000431,1.021437
7742000,0.0324,0.013523,0.002678,0.000431,0.996639
7743000,0.0324,0.013523,0.002678,0.000431,0.968550
7744000,0.0324,0.013523,0.002678,0.000431,1.048586
7745000,0.0324,0.013523,0.002678,0.000431,1.071152
7746000,0.0324,0.013523,0.002678,0.000431,0.917778
7747000,0.0324,0.013523,0.002678,0.000431,1.012388
7748000,0.0324,0.013523,0.002678,0.000431,1.008627
7749000,0.0324,0.013523,0.002678,0.000431,0.963731
7750000,0.0324,0.013523,0.002678,0.000431,0.995111
7751000,0.0324,0.013523,0.002678,0.000431,0.983593
7752000,0.0324,0.013523,0.002678,0.000431,0.986061
7753000,0.0324,0.013523,0.002678,0.000431,0.917072
7754000,0.0324,0.013523,0.002678,0.000431,0.971723
7755000,0.0324,0.013523,0.002678,0.000431,1.014151
7756000,0.0324,0.013523,0.002678,0.000431,0.996639
7757000,0.0324,0.013523,0.002678,0.000431,0.936347
7758000,0.0324,0.013523,0.002678,0.000431,1.005101
7759000,0.0324,0.013523,0.002678,0.000431,1.033073
7760000,0.0324,0.013523,0.002678,0.000431,1.028137
7761000,0.0324,0.013523,0.002678,0.000431,1.003456
7762000,0.0324,0.013523,0.002678,0.000431,0.913899
7763000,0.0324,0.013523,0.002678,0.000431,1.073267
7764000,0.0324,0.013523,0.002678,0.000431,0.905202
7765000,0.0324,0.013523,0.002678,0.000431,0.919423
7766000,0.0324,0.013523,0.002678,0.000431,1.097008
7767000,0.0324,0.013523,0.002678,0.000431,0.979832
7768000,0.0324,0.013523,0.002678,0.000431,1.067391
7769000,0.0324,0.013523,0.002678,0.000431,0.978892
7770000,0.0324,0.013523,0.002678,0.000431,1.076088
7771000,0.0324,0.013523,0.002678,0.000431,1.017089
7772000,0.0324,0.013523,0.002678,0.000431,1.044473
7773000,0.0324,0.013523,0.002678,0.000431,1.031075
7774000,0.0324,0.013523,0.002678,0.000431,1.106410
7775000,0.0324,0.013523,0.002678,0.000431,1.034601
7776000,0.0324,0.013523,0.002678,0.000431,1.009802
7777000,0.0324,0.013523,0.002678,0.000431,1.094775
7778000,0.0324,0.013523,0.002678,0.000431,1.053523
7779000,0.0324,0.013523,0.002678,0.000431,1.083962
7780000,0.0324,0.013523,0.002678,0.000431,0.984886
7781000,0.0324,0.013523,0.002678,0.000431,0.968080
7782000,0.0324,0.013523,0.002678,0.000431,0.979597
7783000,0.0324,0.013523,0.002678,0.000431,0.985474
7784000,0.0324,0.013523,0.002678,0.000431,1.000400
7785000,0.0324,0.013523,0.002678,0.000431,0.930588
7786000,0.0324,0.013523,0.002678,0.000431,1.025433
7787000,0.0324,0.013523,0.002678,0.000431,0.978775
7788000,0.0324,0.013523,0.002678,0.000431,0.908610
7789000,0.0324,0.013523,0.002678,0.000431,0.984651
7790000,0.0324,0.013523,0.002678,0.000431,0.991350
7791000,0.0324,0.013523,0.002678,0.000431,0.940461
7792000,0.0324,0.013523,0.002678,0.000431,0.951743
7793000,0.0324,0.013523,0.002678,0.000431,0.990763
7794000,0.0324,0.013523,0.002678,0.000431,1.037656
7795000,0.0324,0.013523,0.002678,0.000431,0.998402
7796000,0.0324,0.013523,0.002678,0.000431,0.941166
7797000,0.0324,0.013523,0.002678,0.000431,1.012975
7798000,0.0324,0.013523,0.002678,0.000431,0.986884
7799000,0.0324,0.013523,0.002678,0.000431,0.943281
7800000,0.0324,0.013523,0.002678,0.000431,0.915074
7801000,0.0324,0.013523,0.002678,0.000431,0.955387
7802000,0.0324,0.013523,0.002678,0.000431,0.884517
7803000,0.0324,0.013523,0.002678,0.000431,0.989235
7804000,0.0324,0.013523,0.002678,0.000431,0.936112
7805000,0.0324,0.013523,0.002678,0.000431,0.928120
7806000,0.0324,0.013523,0.002678,0.000431,0.939520
7807000,0.0324,0.013523,0.002678,0.000431,0.990645
7808000,0.0324,0.013523,0.002678,0.000431,0.974544
7809000,0.0324,0.013523,0.002678,0.000431,1.005219
7810000,0.0324,0.013523,0.002678,0.000431,0.985826
7811000,0.0324,0.013523,0.002678,0.000431,1.113815
7812000,0.0324,0.013523,0.002678,0.000431,1.002163
7813000,0.0324,0.013523,0.002678,0.000431,1.030135
7814000,0.0324,0.013523,0.002678,0.000431,0.915545
7815000,0.0324,0.013523,0.002678,0.000431,0.992408
7816000,0.0324,0.013523,0.002678,0.000431,1.004513
7817000,0.0324,0.013523,0.002678,0.000431,1.035776
7818000,0.0324,0.013523,0.002678,0.000431,1.177985
7819000,0.0324,0.013523,0.002678,0.000431,0.961733
7820000,0.0324,0.013523,0.002678,0.000431,0.930823
7821000,0.0324,0.013523,0.002678,0.000431,0.994876
7822000,0.0324,0.013523,0.002678,0.000431,0.988765
7823000,0.0324,0.013523,0.002678,0.000431,0.999460
7824000,0.0324,0.013523,0.002678,0.000431,0.997579
7825000,0.0324,0.013523,0.002678,0.000431,1.015679
7826000,0.0324,0.013523,0.002678,0.000431,0.956092
7827000,0.0324,0.013523,0.002678,0.000431,0.963496
7828000,0.0324,0.013523,0.002678,0.000431,0.931763
7829000,0.0324,0.013523,0.002678,0.000431,1.018617
7830000,0.0324,0.013523,0.002678,0.000431,1.036011
7831000,0.0324,0.013523,0.002678,0.000431,0.942341
7832000,0.0324,0.013523,0.002678,0.000431,0.986061
7833000,0.0324,0.013523,0.002678,0.000431,0.963614
7834000,0.0324,0.013523,0.002678,0.000431,0.965376
7835000,0.0324,0.013523,0.002678,0.000431,1.017677
7836000,0.0324,0.013523,0.002678,0.000431,1.078086
7837000,0.0324,0.013523,0.002678,0.000431,0.971135
7838000,0.0324,0.013523,0.002678,0.000431,1.010390
7839000,0.0324,0.013523,0.002678,0.000431,0.997344
7840000,0.0324,0.013523,0.002678,0.000431,1.090897
7841000,0.0324,0.013523,0.002678,0.000431,0.988530
7842000,0.0324,0.013523,0.002678,0.000431,0.954329
7843000,0.0324,0.013523,0.002678,0.000431,1.050702
7844000,0.0324,0.013523,0.002678,0.000431,1.089839
7845000,0.0324,0.013523,0.002678,0.000431,0.984534
7846000,0.0324,0.013523,0.002678,0.000431,0.981243
7847000,0.0324,0.013523,0.002678,0.000431,1.035188
7848000,0.0324,0.013523,0.002678,0.000431,0.971605
7849000,0.0324,0.013523,0.002678,0.000431,0.970313
7850000,0.0324,0.013523,0.002678,0.000431,0.996992
7851000,0.0324,0.013523,0.002678,0.000431,0.989587
7852000,0.0324,0.013523,0.002678,0.000431,1.048234
7853000,0.0324,0.013523,0.002678,0.000431,0.987472
7854000,0.0324,0.013523,0.002678,0.000431,0.974661
7855000,0.0324,0.013523,0.002678,0.000431,1.047411
7856000,0.0324,0.013523,0.002678,0.000431,1.002398
7857000,0.0324,0.013523,0.002678,0.000431,1.058576
7858000,0.0324,0.013523,0.002678,0.000431,0.993348
7859000,0.0324,0.013523,0.002678,0.000431,1.042475
7860000,0.0324,0.013523,0.002678,0.000431,1.030487
7861000,0.0324,0.013523,0.002678,0.000431,0.993348
7862000,0.0324,0.013523,0.002678,0.000431,1.019557
7863000,0.0324,0.013523,0.002678,0.000431,0.990763
7864000,0.0324,0.013523,0.002678,0.000431,0.964789
7865000,0.0324,0.013523,0.002678,0.000431,0.955739
7866000,0.0324,0.013523,0.002678,0.000431,0.986532
7867000,0.0324,0.013523,0.002678,0.000431,0.873822
7868000,0.0324,0.013523,0.002678,0.000431,0.936112
7869000,0.0324,0.013523,0.002678,0.000431,0.861247
7870000,0.0324,0.013523,0.002678,0.000431,0.946690
7871000,0.0324,0.013523,0.002678,0.000431,0.953506
7872000,0.0324,0.013523,0.002678,0.000431,0.945397
7873000,0.0324,0.013523,0.002678,0.000431,0.979362
7874000,0.0324,0.013523,0.002678,0.000431,0.948217
7875000,0.0324,0.013523,0.002678,0.000431,0.905907
7876000,0.0324,0.013523,0.002678,0.000431,0.942106
7877000,0.0324,0.013523,0.002678,0.000431,0.908140
7878000,0.0324,0.013523,0.002678,0.000431,0.919893
7879000,0.0324,0.013523,0.002678,0.000431,0.936935
7880000,0.0324,0.013523,0.002678,0.000431,0.923772
7881000,0.0324,0.013523,0.002678,0.000431,0.891686
7882000,0.0324,0.013523,0.002678,0.000431,0.911431
7883000,0.0324,0.013523,0.002678,0.000431,0.878523
7884000,0.0324,0.013523,0.002678,0.000431,0.944927
7885000,0.0324,0.013523,0.002678,0.000431,0.865478
7886000,0.0324,0.013523,0.002678,0.000431,0.897210
7887000,0.0324,0.013523,0.002678,0.000431,0.928003
7888000,0.0324,0.013523,0.002678,0.000431,0.922126
7889000,0.0324,0.013523,0.002678,0.000431,0.871589
7890000,0.0324,0.013523,0.002678,0.000431,0.911196
7891000,0.0324,0.013523,0.002678,0.000431,0.925064
7892000,0.0324,0.013523,0.002678,0.000431,0.925417
7893000,0.0324,0.013523,0.002678,0.000431,0.904027
7894000,0.0324,0.013523,0.002678,0.000431,0.890041
7895000,0.0324,0.013523,0.002678,0.000431,0.850904
7896000,0.0324,0.013523,0.002678,0.000431,0.884282
7897000,0.0324,0.013523,0.002678,0.000431,0.936465
7898000,0.0324,0.013523,0.002678,0.000431,0.835625
7899000,0.0324,0.013523,0.002678,0.000431,0.908728
7900000,0.0324,0.013523,0.002678,0.000431,0.837271
7901000,0.0324,0.013523,0.002678,0.000431,0.873117
7902000,0.0324,0.013523,0.002678,0.000431,0.884165
7903000,0.0324,0.013523,0.002678,0.000431,0.905320
7904000,0.0324,0.013523,0.002678,0.000431,0.877230
7905000,0.0324,0.013523,0.002678,0.000431,0.859131
7906000,0.0324,0.013523,0.002678,0.000431,0.843147
7907000,0.0324,0.013523,0.002678,0.000431,0.899678
7908000,0.0324,0.013523,0.002678,0.000431,0.808594
7909000,0.0324,0.013523,0.002678,0.000431,0.828574
7910000,0.0324,0.013523,0.002678,0.000431,0.804363
7911000,0.0324,0.013523,0.002678,0.000431,0.826576
7912000,0.0324,0.013523,0.002678,0.000431,0.886750
7913000,0.0324,0.013523,0.002678,0.000431,0.892156
7914000,0.0324,0.013523,0.002678,0.000431,0.836331
7915000,0.0324,0.013523,0.002678,0.000431,0.896270
7916000,0.0324,0.013523,0.002678,0.000431,0.822462
7917000,0.0324,0.013523,0.002678,0.000431,0.805773
7918000,0.0324,0.013523,0.002678,0.000431,0.907200
7919000,0.0324,0.013523,0.002678,0.000431,0.814940
7920000,0.0324,0.013523,0.002678,0.000431,0.896975
7921000,0.0324,0.013523,0.002678,0.000431,0.872059
7922000,0.0324,0.013523,0.002678,0.000431,0.826106
7923000,0.0324,0.013523,0.002678,0.000431,0.878641
7924000,0.0324,0.013523,0.002678,0.000431,0.909903
7925000,0.0324,0.013523,0.002678,0.000431,0.895330
7926000,0.0324,0.013523,0.002678,0.000431,0.885692
7927000,0.0324,0.013523,0.002678,0.000431,0.957855
7928000,0.0324,0.013523,0.002678,0.000431,0.854782
7929000,0.0324,0.013523,0.002678,0.000431,0.850904
7930000,0.0324,0.013523,0.002678,0.000431,0.970313
7931000,0.0324,0.013523,0.002678,0.000431,0.886162
7932000,0.0324,0.013523,0.002678,0.000431,0.922126
7933000,0.0324,0.013523,0.002678,0.000431,0.922714
7934000,0.0324,0.013523,0.002678,0.000431,0.914134
7935000,0.0324,0.013523,0.002678,0.000431,0.911666
7936000,0.0324,0.013523,0.002678,0.000431,0.933291
7937000,0.0324,0.013523,0.002678,0.000431,0.971723
7938000,0.0324,0.013523,0.002678,0.000431,0.912724
7939000,0.0324,0.013523,0.002678,0.000431,0.870531
7940000,0.0324,0.013523,0.002678,0.000431,0.921421
7941000,0.0324,0.013523,0.002678,0.000431,0.948687
7942000,0.0324,0.013523,0.002678,0.000431,0.823285
7943000,0.0324,0.013523,0.002678,0.000431,0.895330
7944000,0.0324,0.013523,0.002678,0.000431,0.881814
7945000,0.0324,0.013523,0.002678,0.000431,0.905907
7946000,0.0324,0.013523,0.002678,0.000431,0.821757
7947000,0.0324,0.013523,0.002678,0.000431,1.011095
7948000,0.0324,0.013523,0.002678,0.000431,0.823755
7949000,0.0324,0.013523,0.002678,0.000431,0.891099
7950000,0.0324,0.013523,0.002678,0.000431,0.922244
7951000,0.0324,0.013523,0.002678,0.000431,0.896152
7952000,0.0324,0.013523,0.002678,0.000431,0.917072
7953000,0.0324,0.013523,0.002678,0.000431,1.016736
7954000,0.0324,0.013523,0.002678,0.000431,0.881696
7955000,0.0324,0.013523,0.002678,0.000431,1.011095
7956000,0.0324,0.013523,0.002678,0.000431,0.927180
7957000,0.0324,0.013523,0.002678,0.000431,0.988647
7958000,0.0324,0.013523,0.002678,0.000431,0.926475
7959000,0.0324,0.013523,0.002678,0.000431,0.933056
7960000,0.0324,0.013523,0.002678,0.000431,0.997697
7961000,0.0324,0.013523,0.002678,0.000431,0.992055
7962000,0.0324,0.013523,0.002678,0.000431,1.044003
7963000,0.0324,0.013523,0.002678,0.000431,0.948217
7964000,0.0324,0.013523,0.002678,0.000431,0.970783
7965000,0.0324,0.013523,0.002678,0.000431,1.043768
7966000,0.0324,0.013523,0.002678,0.000431,0.982536
7967000,0.0324,0.013523,0.002678,0.000431,1.016266
7968000,0.0324,0.013523,0.002678,0.000431,1.008039
7969000,0.0324,0.013523,0.002678,0.000431,1.034366
7970000,0.0324,0.013523,0.002678,0.000431,0.939638
7971000,0.0324,0.013523,0.002678,0.000431,0.959970
7972000,0.0324,0.013523,0.002678,0.000431,0.991820
7973000,0.0324,0.013523,0.002678,0.000431,1.013446
7974000,0.0324,0.013523,0.002678,0.000431,0.971135
7975000,0.0324,0.013523,0.002678,0.000431,0.935759
7976000,0.0324,0.013523,0.002678,0.000431,1.036951
7977000,0.0324,0.013523,0.002678,0.000431,0.935877
7978000,0.0324,0.013523,0.002678,0.000431,1.001810
7979000,0.0324,0.013523,0.002678,0.000431,1.012270
7980000,0.0324,0.013523,0.002678,0.000431,0.983123
7981000,0.0324,0.013523,0.002678,0.000431,0.961498
7982000,0.0324,0.013523,0.002678,0.000431,0.996757
7983000,0.0324,0.013523,0.002678,0.000431,1.037774
7984000,0.0324,0.013523,0.002678,0.000431,0.923889
7985000,0.0324,0.013523,0.002678,0.000431,1.082670
7986000,0.0324,0.013523,0.002678,0.000431,0.917190
7987000,0.0324,0.013523,0.002678,0.000431,0.981478
7988000,0.0324,0.013523,0.002678,0.000431,1.056343
7989000,0.0324,0.013523,0.002678,0.000431,0.981713
7990000,0.0324,0.013523,0.002678,0.000431,0.966669
7991000,0.0324,0.013523,0.002678,0.000431,1.071152
7992000,0.0324,0.013523,0.002678,0.000431,0.957502
7993000,0.0324,0.013523,0.002678,0.000431,0.911784
7994000,0.0324,0.013523,0.002678,0.000431,1.011095
7995000,0.0324,0.013523,0.002678,0.000431,1.003573
7996000,0.0324,0.013523,0.002678,0.000431,0.992761
7997000,0.0324,0.013523,0.002678,0.000431,1.050937
7998000,0.0324,0.013523,0.002678,0.000431,0.939873
7999000,0.0324,0.013523,0.002678,0.000431,0.990410
