Cycle,Area(mm^2),PeakDynamic(W),SubthresholdLeakage(W),GateLeakage(W),RunTimeDynamic(W)
100,0.0324,0.013523,0.002678,0.000431,0.002351
200,0.0324,0.013523,0.002678,0.000431,0.000000
300,0.0324,0.013523,0.002678,0.000431,0.000000
400,0.0324,0.013523,0.002678,0.000431,0.000000
500,0.0324,0.013523,0.002678,0.000431,0.000000
600,0.0324,0.013523,0.002678,0.000431,0.000000
700,0.0324,0.013523,0.002678,0.000431,0.000000
800,0.0324,0.013523,0.002678,0.000431,0.000000
900,0.0324,0.013523,0.002678,0.000431,0.000000
1000,0.0324,0.013523,0.002678,0.000431,0.000000
1100,0.0324,0.013523,0.002678,0.000431,0.000000
1200,0.0324,0.013523,0.002678,0.000431,0.000000
1300,0.0324,0.013523,0.002678,0.000431,0.000000
1400,0.0324,0.013523,0.002678,0.000431,0.000000
1500,0.0324,0.013523,0.002678,0.000431,0.000000
1600,0.0324,0.013523,0.002678,0.000431,0.000000
1700,0.0324,0.013523,0.002678,0.000431,0.000000
1800,0.0324,0.013523,0.002678,0.000431,0.000000
1900,0.0324,0.013523,0.002678,0.000431,0.000000
2000,0.0324,0.013523,0.002678,0.000431,0.000000
2100,0.0324,0.013523,0.002678,0.000431,0.000000
2200,0.0324,0.013523,0.002678,0.000431,0.000000
2300,0.0324,0.013523,0.002678,0.000431,0.000000
2400,0.0324,0.013523,0.002678,0.000431,0.000000
2500,0.0324,0.013523,0.002678,0.000431,0.000000
2600,0.0324,0.013523,0.002678,0.000431,0.000000
2700,0.0324,0.013523,0.002678,0.000431,0.000000
2800,0.0324,0.013523,0.002678,0.000431,0.000000
2900,0.0324,0.013523,0.002678,0.000431,0.000000
3000,0.0324,0.013523,0.002678,0.000431,0.000000
3100,0.0324,0.013523,0.002678,0.000431,0.000000
3200,0.0324,0.013523,0.002678,0.000431,0.000000
3300,0.0324,0.013523,0.002678,0.000431,0.000000
3400,0.0324,0.013523,0.002678,0.000431,0.000000
3500,0.0324,0.013523,0.002678,0.000431,0.000000
3600,0.0324,0.013523,0.002678,0.000431,0.000000
3700,0.0324,0.013523,0.002678,0.000431,0.000000
3800,0.0324,0.013523,0.002678,0.000431,0.000000
3900,0.0324,0.013523,0.002678,0.000431,0.000000
4000,0.0324,0.013523,0.002678,0.000431,0.000000
4100,0.0324,0.013523,0.002678,0.000431,0.000000
4200,0.0324,0.013523,0.002678,0.000431,0.000000
4300,0.0324,0.013523,0.002678,0.000431,0.000000
4400,0.0324,0.013523,0.002678,0.000431,0.000000
4500,0.0324,0.013523,0.002678,0.000431,0.000000
4600,0.0324,0.013523,0.002678,0.000431,0.000000
4700,0.0324,0.013523,0.002678,0.000431,0.000000
4800,0.0324,0.013523,0.002678,0.000431,0.000000
4900,0.0324,0.013523,0.002678,0.000431,0.000000
5000,0.0324,0.013523,0.002678,0.000431,0.000000
5100,0.0324,0.013523,0.002678,0.000431,0.000000
5200,0.0324,0.013523,0.002678,0.000431,0.001175
5300,0.0324,0.013523,0.002678,0.000431,0.000000
5400,0.0324,0.013523,0.002678,0.000431,0.015279
5500,0.0324,0.013523,0.002678,0.000431,0.011753
5600,0.0324,0.013523,0.002678,0.000431,0.015279
5700,0.0324,0.013523,0.002678,0.000431,0.071692
5800,0.0324,0.013523,0.002678,0.000431,0.117528
5900,0.0324,0.013523,0.002678,0.000431,0.090497
6000,0.0324,0.013523,0.002678,0.000431,0.074043
6100,0.0324,0.013523,0.002678,0.000431,0.092847
6200,0.0324,0.013523,0.002678,0.000431,0.069342
6300,0.0324,0.013523,0.002678,0.000431,0.082270
6400,0.0324,0.013523,0.002678,0.000431,0.050537
6500,0.0324,0.013523,0.002678,0.000431,0.048187
6600,0.0324,0.013523,0.002678,0.000431,0.069342
6700,0.0324,0.013523,0.002678,0.000431,0.091672
6800,0.0324,0.013523,0.002678,0.000431,0.058764
6900,0.0324,0.013523,0.002678,0.000431,0.047011
7000,0.0324,0.013523,0.002678,0.000431,0.045836
7100,0.0324,0.013523,0.002678,0.000431,0.005876
7200,0.0324,0.013523,0.002678,0.000431,0.002351
7300,0.0324,0.013523,0.002678,0.000431,0.019980
7400,0.0324,0.013523,0.002678,0.000431,0.024681
7500,0.0324,0.013523,0.002678,0.000431,0.025856
7600,0.0324,0.013523,0.002678,0.000431,0.017629
7700,0.0324,0.013523,0.002678,0.000431,0.027031
7800,0.0324,0.013523,0.002678,0.000431,0.004701
7900,0.0324,0.013523,0.002678,0.000431,0.014103
8000,0.0324,0.013523,0.002678,0.000431,0.008227
8100,0.0324,0.013523,0.002678,0.000431,0.008227
8200,0.0324,0.013523,0.002678,0.000431,0.009402
8300,0.0324,0.013523,0.002678,0.000431,0.022330
8400,0.0324,0.013523,0.002678,0.000431,0.001175
8500,0.0324,0.013523,0.002678,0.000431,0.031733
8600,0.0324,0.013523,0.002678,0.000431,0.017629
8700,0.0324,0.013523,0.002678,0.000431,0.004701
8800,0.0324,0.013523,0.002678,0.000431,0.028207
8900,0.0324,0.013523,0.002678,0.000431,0.007052
9000,0.0324,0.013523,0.002678,0.000431,0.015279
9100,0.0324,0.013523,0.002678,0.000431,0.002351
9200,0.0324,0.013523,0.002678,0.000431,0.024681
9300,0.0324,0.013523,0.002678,0.000431,0.018805
9400,0.0324,0.013523,0.002678,0.000431,0.021155
9500,0.0324,0.013523,0.002678,0.000431,0.008227
9600,0.0324,0.013523,0.002678,0.000431,0.016454
9700,0.0324,0.013523,0.002678,0.000431,0.029382
9800,0.0324,0.013523,0.002678,0.000431,0.005876
9900,0.0324,0.013523,0.002678,0.000431,0.025856
10000,0.0324,0.013523,0.002678,0.000431,0.021155
10100,0.0324,0.013523,0.002678,0.000431,0.022330
10200,0.0324,0.013523,0.002678,0.000431,0.010578
10300,0.0324,0.013523,0.002678,0.000431,0.014103
10400,0.0324,0.013523,0.002678,0.000431,0.030557
10500,0.0324,0.013523,0.002678,0.000431,0.030557
10600,0.0324,0.013523,0.002678,0.000431,0.022330
10700,0.0324,0.013523,0.002678,0.000431,0.049362
10800,0.0324,0.013523,0.002678,0.000431,0.025856
10900,0.0324,0.013523,0.002678,0.000431,0.023506
11000,0.0324,0.013523,0.002678,0.000431,0.009402
11100,0.0324,0.013523,0.002678,0.000431,0.010578
11200,0.0324,0.013523,0.002678,0.000431,0.034083
11300,0.0324,0.013523,0.002678,0.000431,0.014103
11400,0.0324,0.013523,0.002678,0.000431,0.028207
11500,0.0324,0.013523,0.002678,0.000431,0.031733
11600,0.0324,0.013523,0.002678,0.000431,0.003526
11700,0.0324,0.013523,0.002678,0.000431,0.016454
11800,0.0324,0.013523,0.002678,0.000431,0.008227
11900,0.0324,0.013523,0.002678,0.000431,0.011753
12000,0.0324,0.013523,0.002678,0.000431,0.018805
12100,0.0324,0.013523,0.002678,0.000431,0.030557
12200,0.0324,0.013523,0.002678,0.000431,0.028207
12300,0.0324,0.013523,0.002678,0.000431,0.024681
12400,0.0324,0.013523,0.002678,0.000431,0.027031
12500,0.0324,0.013523,0.002678,0.000431,0.003526
12600,0.0324,0.013523,0.002678,0.000431,0.018805
12700,0.0324,0.013523,0.002678,0.000431,0.008227
12800,0.0324,0.013523,0.002678,0.000431,0.009402
12900,0.0324,0.013523,0.002678,0.000431,0.012928
13000,0.0324,0.013523,0.002678,0.000431,0.004701
13100,0.0324,0.013523,0.002678,0.000431,0.031733
13200,0.0324,0.013523,0.002678,0.000431,0.001175
13300,0.0324,0.013523,0.002678,0.000431,0.030557
13400,0.0324,0.013523,0.002678,0.000431,0.002351
13500,0.0324,0.013523,0.002678,0.000431,0.010578
13600,0.0324,0.013523,0.002678,0.000431,0.002351
13700,0.0324,0.013523,0.002678,0.000431,0.005876
13800,0.0324,0.013523,0.002678,0.000431,0.019980
13900,0.0324,0.013523,0.002678,0.000431,0.011753
14000,0.0324,0.013523,0.002678,0.000431,0.024681
14100,0.0324,0.013523,0.002678,0.000431,0.011753
14200,0.0324,0.013523,0.002678,0.000431,0.007052
14300,0.0324,0.013523,0.002678,0.000431,0.028207
14400,0.0324,0.013523,0.002678,0.000431,0.007052
14500,0.0324,0.013523,0.002678,0.000431,0.014103
14600,0.0324,0.013523,0.002678,0.000431,0.016454
14700,0.0324,0.013523,0.002678,0.000431,0.018805
14800,0.0324,0.013523,0.002678,0.000431,0.004701
14900,0.0324,0.013523,0.002678,0.000431,0.014103
15000,0.0324,0.013523,0.002678,0.000431,0.021155
15100,0.0324,0.013523,0.002678,0.000431,0.001175
15200,0.0324,0.013523,0.002678,0.000431,0.022330
15300,0.0324,0.013523,0.002678,0.000431,0.002351
15400,0.0324,0.013523,0.002678,0.000431,0.007052
15500,0.0324,0.013523,0.002678,0.000431,0.009402
15600,0.0324,0.013523,0.002678,0.000431,0.018805
15700,0.0324,0.013523,0.002678,0.000431,0.021155
15800,0.0324,0.013523,0.002678,0.000431,0.028207
15900,0.0324,0.013523,0.002678,0.000431,0.014103
16000,0.0324,0.013523,0.002678,0.000431,0.014103
16100,0.0324,0.013523,0.002678,0.000431,0.009402
16200,0.0324,0.013523,0.002678,0.000431,0.016454
16300,0.0324,0.013523,0.002678,0.000431,0.005876
16400,0.0324,0.013523,0.002678,0.000431,0.025856
16500,0.0324,0.013523,0.002678,0.000431,0.011753
16600,0.0324,0.013523,0.002678,0.000431,0.017629
16700,0.0324,0.013523,0.002678,0.000431,0.022330
16800,0.0324,0.013523,0.002678,0.000431,0.003526
16900,0.0324,0.013523,0.002678,0.000431,0.031733
17000,0.0324,0.013523,0.002678,0.000431,0.004701
17100,0.0324,0.013523,0.002678,0.000431,0.019980
17200,0.0324,0.013523,0.002678,0.000431,0.014103
17300,0.0324,0.013523,0.002678,0.000431,0.005876
17400,0.0324,0.013523,0.002678,0.000431,0.010578
17500,0.0324,0.013523,0.002678,0.000431,0.009402
17600,0.0324,0.013523,0.002678,0.000431,0.011753
17700,0.0324,0.013523,0.002678,0.000431,0.009402
17800,0.0324,0.013523,0.002678,0.000431,0.016454
17900,0.0324,0.013523,0.002678,0.000431,0.009402
18000,0.0324,0.013523,0.002678,0.000431,0.008227
18100,0.0324,0.013523,0.002678,0.000431,0.009402
18200,0.0324,0.013523,0.002678,0.000431,0.010578
18300,0.0324,0.013523,0.002678,0.000431,0.015279
18400,0.0324,0.013523,0.002678,0.000431,0.014103
18500,0.0324,0.013523,0.002678,0.000431,0.010578
18600,0.0324,0.013523,0.002678,0.000431,0.010578
18700,0.0324,0.013523,0.002678,0.000431,0.005876
18800,0.0324,0.013523,0.002678,0.000431,0.005876
18900,0.0324,0.013523,0.002678,0.000431,0.004701
19000,0.0324,0.013523,0.002678,0.000431,0.018805
19100,0.0324,0.013523,0.002678,0.000431,0.010578
19200,0.0324,0.013523,0.002678,0.000431,0.011753
19300,0.0324,0.013523,0.002678,0.000431,0.011753
19400,0.0324,0.013523,0.002678,0.000431,0.003526
19500,0.0324,0.013523,0.002678,0.000431,0.003526
19600,0.0324,0.013523,0.002678,0.000431,0.002351
19700,0.0324,0.013523,0.002678,0.000431,0.017629
19800,0.0324,0.013523,0.002678,0.000431,0.008227
19900,0.0324,0.013523,0.002678,0.000431,0.012928
20000,0.0324,0.013523,0.002678,0.000431,0.009402
20100,0.0324,0.013523,0.002678,0.000431,0.004701
20200,0.0324,0.013523,0.002678,0.000431,0.009402
20300,0.0324,0.013523,0.002678,0.000431,0.003526
20400,0.0324,0.013523,0.002678,0.000431,0.014103
20500,0.0324,0.013523,0.002678,0.000431,0.004701
20600,0.0324,0.013523,0.002678,0.000431,0.008227
20700,0.0324,0.013523,0.002678,0.000431,0.009402
20800,0.0324,0.013523,0.002678,0.000431,0.001175
20900,0.0324,0.013523,0.002678,0.000431,0.008227
21000,0.0324,0.013523,0.002678,0.000431,0.004701
21100,0.0324,0.013523,0.002678,0.000431,0.009402
21200,0.0324,0.013523,0.002678,0.000431,0.003526
21300,0.0324,0.013523,0.002678,0.000431,0.008227
21400,0.0324,0.013523,0.002678,0.000431,0.007052
21500,0.0324,0.013523,0.002678,0.000431,0.003526
21600,0.0324,0.013523,0.002678,0.000431,0.004701
21700,0.0324,0.013523,0.002678,0.000431,0.010578
21800,0.0324,0.013523,0.002678,0.000431,0.001175
21900,0.0324,0.013523,0.002678,0.000431,0.007052
22000,0.0324,0.013523,0.002678,0.000431,0.007052
22100,0.0324,0.013523,0.002678,0.000431,0.004701
22200,0.0324,0.013523,0.002678,0.000431,0.001175
22300,0.0324,0.013523,0.002678,0.000431,0.014103
22400,0.0324,0.013523,0.002678,0.000431,0.009402
22500,0.0324,0.013523,0.002678,0.000431,0.007052
22600,0.0324,0.013523,0.002678,0.000431,0.012928
22700,0.0324,0.013523,0.002678,0.000431,0.002351
22800,0.0324,0.013523,0.002678,0.000431,0.005876
22900,0.0324,0.013523,0.002678,0.000431,0.002351
23000,0.0324,0.013523,0.002678,0.000431,0.004701
23100,0.0324,0.013523,0.002678,0.000431,0.004701
23200,0.0324,0.013523,0.002678,0.000431,0.004701
23300,0.0324,0.013523,0.002678,0.000431,0.009402
23400,0.0324,0.013523,0.002678,0.000431,0.002351
23500,0.0324,0.013523,0.002678,0.000431,0.008227
23600,0.0324,0.013523,0.002678,0.000431,0.001175
23700,0.0324,0.013523,0.002678,0.000431,0.007052
23800,0.0324,0.013523,0.002678,0.000431,0.008227
23900,0.0324,0.013523,0.002678,0.000431,0.008227
24000,0.0324,0.013523,0.002678,0.000431,0.007052
24100,0.0324,0.013523,0.002678,0.000431,0.003526
24200,0.0324,0.013523,0.002678,0.000431,0.011753
24300,0.0324,0.013523,0.002678,0.000431,0.001175
24400,0.0324,0.013523,0.002678,0.000431,0.009402
24500,0.0324,0.013523,0.002678,0.000431,0.004701
24600,0.0324,0.013523,0.002678,0.000431,0.001175
24700,0.0324,0.013523,0.002678,0.000431,0.008227
24800,0.0324,0.013523,0.002678,0.000431,0.003526
24900,0.0324,0.013523,0.002678,0.000431,0.003526
25000,0.0324,0.013523,0.002678,0.000431,0.003526
25100,0.0324,0.013523,0.002678,0.000431,0.001175
25200,0.0324,0.013523,0.002678,0.000431,0.002351
25300,0.0324,0.013523,0.002678,0.000431,0.003526
25400,0.0324,0.013523,0.002678,0.000431,0.001175
25500,0.0324,0.013523,0.002678,0.000431,0.009402
25600,0.0324,0.013523,0.002678,0.000431,0.002351
25700,0.0324,0.013523,0.002678,0.000431,0.007052
25800,0.0324,0.013523,0.002678,0.000431,0.002351
25900,0.0324,0.013523,0.002678,0.000431,0.003526
26000,0.0324,0.013523,0.002678,0.000431,0.002351
26100,0.0324,0.013523,0.002678,0.000431,0.003526
26200,0.0324,0.013523,0.002678,0.000431,0.001175
26300,0.0324,0.013523,0.002678,0.000431,0.009402
26400,0.0324,0.013523,0.002678,0.000431,0.002351
26500,0.0324,0.013523,0.002678,0.000431,0.004701
26600,0.0324,0.013523,0.002678,0.000431,0.002351
26700,0.0324,0.013523,0.002678,0.000431,0.000000
26800,0.0324,0.013523,0.002678,0.000431,0.004701
26900,0.0324,0.013523,0.002678,0.000431,0.001175
27000,0.0324,0.013523,0.002678,0.000431,0.002351
27100,0.0324,0.013523,0.002678,0.000431,0.002351
27200,0.0324,0.013523,0.002678,0.000431,0.001175
27300,0.0324,0.013523,0.002678,0.000431,0.004701
27400,0.0324,0.013523,0.002678,0.000431,0.002351
27500,0.0324,0.013523,0.002678,0.000431,0.003526
27600,0.0324,0.013523,0.002678,0.000431,0.005876
27700,0.0324,0.013523,0.002678,0.000431,0.000000
27800,0.0324,0.013523,0.002678,0.000431,0.004701
27900,0.0324,0.013523,0.002678,0.000431,0.002351
28000,0.0324,0.013523,0.002678,0.000431,0.001175
28100,0.0324,0.013523,0.002678,0.000431,0.003526
28200,0.0324,0.013523,0.002678,0.000431,0.002351
28300,0.0324,0.013523,0.002678,0.000431,0.001175
28400,0.0324,0.013523,0.002678,0.000431,0.003526
28500,0.0324,0.013523,0.002678,0.000431,0.000000
28600,0.0324,0.013523,0.002678,0.000431,0.000000
28700,0.0324,0.013523,0.002678,0.000431,0.001175
28800,0.0324,0.013523,0.002678,0.000431,0.001175
28900,0.0324,0.013523,0.002678,0.000431,0.000000
29000,0.0324,0.013523,0.002678,0.000431,0.000000
29100,0.0324,0.013523,0.002678,0.000431,0.003526
29200,0.0324,0.013523,0.002678,0.000431,0.000000
29300,0.0324,0.013523,0.002678,0.000431,0.001175
29400,0.0324,0.013523,0.002678,0.000431,0.001175
29500,0.0324,0.013523,0.002678,0.000431,0.001175
29600,0.0324,0.013523,0.002678,0.000431,0.000000
29700,0.0324,0.013523,0.002678,0.000431,0.001175
29800,0.0324,0.013523,0.002678,0.000431,0.003526
29900,0.0324,0.013523,0.002678,0.000431,0.000000
30000,0.0324,0.013523,0.002678,0.000431,0.003526
30100,0.0324,0.013523,0.002678,0.000431,0.002351
30200,0.0324,0.013523,0.002678,0.000431,0.000000
30300,0.0324,0.013523,0.002678,0.000431,0.002351
30400,0.0324,0.013523,0.002678,0.000431,0.000000
30500,0.0324,0.013523,0.002678,0.000431,0.001175
30600,0.0324,0.013523,0.002678,0.000431,0.000000
30700,0.0324,0.013523,0.002678,0.000431,0.001175
30800,0.0324,0.013523,0.002678,0.000431,0.001175
30900,0.0324,0.013523,0.002678,0.000431,0.000000
31000,0.0324,0.013523,0.002678,0.000431,0.000000
31100,0.0324,0.013523,0.002678,0.000431,0.001175
31200,0.0324,0.013523,0.002678,0.000431,0.001175
31300,0.0324,0.013523,0.002678,0.000431,0.000000
31400,0.0324,0.013523,0.002678,0.000431,0.001175
31500,0.0324,0.013523,0.002678,0.000431,0.001175
31600,0.0324,0.013523,0.002678,0.000431,0.000000
31700,0.0324,0.013523,0.002678,0.000431,0.001175
31800,0.0324,0.013523,0.002678,0.000431,0.000000
31900,0.0324,0.013523,0.002678,0.000431,0.001175
32000,0.0324,0.013523,0.002678,0.000431,0.000000
32100,0.0324,0.013523,0.002678,0.000431,0.001175
32200,0.0324,0.013523,0.002678,0.000431,0.001175
32300,0.0324,0.013523,0.002678,0.000431,0.000000
32400,0.0324,0.013523,0.002678,0.000431,0.000000
32500,0.0324,0.013523,0.002678,0.000431,0.001175
32600,0.0324,0.013523,0.002678,0.000431,0.000000
32700,0.0324,0.013523,0.002678,0.000431,0.001175
32800,0.0324,0.013523,0.002678,0.000431,0.000000
32900,0.0324,0.013523,0.002678,0.000431,0.001175
33000,0.0324,0.013523,0.002678,0.000431,0.000000
33100,0.0324,0.013523,0.002678,0.000431,0.001175
33200,0.0324,0.013523,0.002678,0.000431,0.000000
33300,0.0324,0.013523,0.002678,0.000431,0.001175
33400,0.0324,0.013523,0.002678,0.000431,0.001175
33500,0.0324,0.013523,0.002678,0.000431,0.000000
33600,0.0324,0.013523,0.002678,0.000431,0.001175
33700,0.0324,0.013523,0.002678,0.000431,0.001175
33800,0.0324,0.013523,0.002678,0.000431,0.000000
33900,0.0324,0.013523,0.002678,0.000431,0.001175
34000,0.0324,0.013523,0.002678,0.000431,0.000000
34100,0.0324,0.013523,0.002678,0.000431,0.001175
34200,0.0324,0.013523,0.002678,0.000431,0.000000
34300,0.0324,0.013523,0.002678,0.000431,0.002351
34400,0.0324,0.013523,0.002678,0.000431,0.000000
34500,0.0324,0.013523,0.002678,0.000431,0.001175
34600,0.0324,0.013523,0.002678,0.000431,0.000000
34700,0.0324,0.013523,0.002678,0.000431,0.001175
34800,0.0324,0.013523,0.002678,0.000431,0.000000
34900,0.0324,0.013523,0.002678,0.000431,0.001175
35000,0.0324,0.013523,0.002678,0.000431,0.000000
35100,0.0324,0.013523,0.002678,0.000431,0.001175
35200,0.0324,0.013523,0.002678,0.000431,0.000000
35300,0.0324,0.013523,0.002678,0.000431,0.001175
