Cycle,Area(mm^2),PeakDynamic(W),SubthresholdLeakage(W),GateLeakage(W),RunTimeDynamic(W)
9000000,0.0324,0.013523,0.002678,0.000431,0.620666
9001000,0.0324,0.013523,0.002678,0.000431,0.624075
9002000,0.0324,0.013523,0.002678,0.000431,0.634535
9003000,0.0324,0.013523,0.002678,0.000431,0.619256
9004000,0.0324,0.013523,0.002678,0.000431,0.612674
9005000,0.0324,0.013523,0.002678,0.000431,0.625132
9006000,0.0324,0.013523,0.002678,0.000431,0.605858
9007000,0.0324,0.013523,0.002678,0.000431,0.618668
9008000,0.0324,0.013523,0.002678,0.000431,0.613615
9009000,0.0324,0.013523,0.002678,0.000431,0.622077
9010000,0.0324,0.013523,0.002678,0.000431,0.625250
9011000,0.0324,0.013523,0.002678,0.000431,0.619021
9012000,0.0324,0.013523,0.002678,0.000431,0.625485
9013000,0.0324,0.013523,0.002678,0.000431,0.611969
9014000,0.0324,0.013523,0.002678,0.000431,0.609149
9015000,0.0324,0.013523,0.002678,0.000431,0.595515
9016000,0.0324,0.013523,0.002678,0.000431,0.589286
9017000,0.0324,0.013523,0.002678,0.000431,0.600334
9018000,0.0324,0.013523,0.002678,0.000431,0.594340
9019000,0.0324,0.013523,0.002678,0.000431,0.589991
9020000,0.0324,0.013523,0.002678,0.000431,0.581294
9021000,0.0324,0.013523,0.002678,0.000431,0.583175
9022000,0.0324,0.013523,0.002678,0.000431,0.547799
9023000,0.0324,0.013523,0.002678,0.000431,0.552500
9024000,0.0324,0.013523,0.002678,0.000431,0.567309
9025000,0.0324,0.013523,0.002678,0.000431,0.565311
9026000,0.0324,0.013523,0.002678,0.000431,0.553205
9027000,0.0324,0.013523,0.002678,0.000431,0.548974
9028000,0.0324,0.013523,0.002678,0.000431,0.563195
9029000,0.0324,0.013523,0.002678,0.000431,0.564958
9030000,0.0324,0.013523,0.002678,0.000431,0.563783
9031000,0.0324,0.013523,0.002678,0.000431,0.560257
9032000,0.0324,0.013523,0.002678,0.000431,0.537809
9033000,0.0324,0.013523,0.002678,0.000431,0.550384
9034000,0.0324,0.013523,0.002678,0.000431,0.538397
9035000,0.0324,0.013523,0.002678,0.000431,0.501963
9036000,0.0324,0.013523,0.002678,0.000431,0.481748
9037000,0.0324,0.013523,0.002678,0.000431,0.479985
9038000,0.0324,0.013523,0.002678,0.000431,0.449310
9039000,0.0324,0.013523,0.002678,0.000431,0.417695
9040000,0.0324,0.013523,0.002678,0.000431,0.409586
9041000,0.0324,0.013523,0.002678,0.000431,0.390311
9042000,0.0324,0.013523,0.002678,0.000431,0.360341
9043000,0.0324,0.013523,0.002678,0.000431,0.336953
9044000,0.0324,0.013523,0.002678,0.000431,0.309334
9045000,0.0324,0.013523,0.002678,0.000431,0.265379
9046000,0.0324,0.013523,0.002678,0.000431,0.239405
9047000,0.0324,0.013523,0.002678,0.000431,0.221071
9048000,0.0324,0.013523,0.002678,0.000431,0.192864
9049000,0.0324,0.013523,0.002678,0.000431,0.189103
9050000,0.0324,0.013523,0.002678,0.000431,0.183697
9051000,0.0324,0.013523,0.002678,0.000431,0.180523
9052000,0.0324,0.013523,0.002678,0.000431,0.172061
9053000,0.0324,0.013523,0.002678,0.000431,0.177703
9054000,0.0324,0.013523,0.002678,0.000431,0.167948
9055000,0.0324,0.013523,0.002678,0.000431,0.176057
9056000,0.0324,0.013523,0.002678,0.000431,0.160308
9057000,0.0324,0.013523,0.002678,0.000431,0.165127
9058000,0.0324,0.013523,0.002678,0.000431,0.137861
9059000,0.0324,0.013523,0.002678,0.000431,0.116823
9060000,0.0324,0.013523,0.002678,0.000431,0.113650
9061000,0.0324,0.013523,0.002678,0.000431,0.086853
9062000,0.0324,0.013523,0.002678,0.000431,0.096373
9063000,0.0324,0.013523,0.002678,0.000431,0.077686
9064000,0.0324,0.013523,0.002678,0.000431,0.069224
9065000,0.0324,0.013523,0.002678,0.000431,0.053005
9066000,0.0324,0.013523,0.002678,0.000431,0.045954
9067000,0.0324,0.013523,0.002678,0.000431,0.046189
9068000,0.0324,0.013523,0.002678,0.000431,0.034553
9069000,0.0324,0.013523,0.002678,0.000431,0.047129
9070000,0.0324,0.013523,0.002678,0.000431,0.034318
9071000,0.0324,0.013523,0.002678,0.000431,0.024328
9072000,0.0324,0.013523,0.002678,0.000431,0.014103
9073000,0.0324,0.013523,0.002678,0.000431,0.014573
9074000,0.0324,0.013523,0.002678,0.000431,0.014221
9075000,0.0324,0.013523,0.002678,0.000431,0.000353
9076000,0.0324,0.013523,0.002678,0.000431,0.000000
9077000,0.0324,0.013523,0.002678,0.000431,0.000000
9078000,0.0324,0.013523,0.002678,0.000431,0.000000
9079000,0.0324,0.013523,0.002678,0.000431,0.000000
9080000,0.0324,0.013523,0.002678,0.000431,0.527349
9081000,0.0324,0.013523,0.002678,0.000431,0.343065
9082000,0.0324,0.013523,0.002678,0.000431,0.331665
9083000,0.0324,0.013523,0.002678,0.000431,0.351409
9084000,0.0324,0.013523,0.002678,0.000431,0.342595
9085000,0.0324,0.013523,0.002678,0.000431,0.338716
9086000,0.0324,0.013523,0.002678,0.000431,0.338834
9087000,0.0324,0.013523,0.002678,0.000431,0.361399
9088000,0.0324,0.013523,0.002678,0.000431,0.338951
9089000,0.0324,0.013523,0.002678,0.000431,0.349999
9090000,0.0324,0.013523,0.002678,0.000431,0.348354
9091000,0.0324,0.013523,0.002678,0.000431,0.348236
9092000,0.0324,0.013523,0.002678,0.000431,0.345885
9093000,0.0324,0.013523,0.002678,0.000431,0.340714
9094000,0.0324,0.013523,0.002678,0.000431,0.350939
9095000,0.0324,0.013523,0.002678,0.000431,0.345650
9096000,0.0324,0.013523,0.002678,0.000431,0.347413
9097000,0.0324,0.013523,0.002678,0.000431,0.349529
9098000,0.0324,0.013523,0.002678,0.000431,0.351292
9099000,0.0324,0.013523,0.002678,0.000431,0.342947
9100000,0.0324,0.013523,0.002678,0.000431,0.337188
9101000,0.0324,0.013523,0.002678,0.000431,0.346943
9102000,0.0324,0.013523,0.002678,0.000431,0.347648
9103000,0.0324,0.013523,0.002678,0.000431,0.351057
9104000,0.0324,0.013523,0.002678,0.000431,0.338716
9105000,0.0324,0.013523,0.002678,0.000431,0.350587
9106000,0.0324,0.013523,0.002678,0.000431,0.349881
9107000,0.0324,0.013523,0.002678,0.000431,0.340479
9108000,0.0324,0.013523,0.002678,0.000431,0.349881
9109000,0.0324,0.013523,0.002678,0.000431,0.348236
9110000,0.0324,0.013523,0.002678,0.000431,0.350704
9111000,0.0324,0.013523,0.002678,0.000431,0.355170
9112000,0.0324,0.013523,0.002678,0.000431,0.343417
9113000,0.0324,0.013523,0.002678,0.000431,0.355053
9114000,0.0324,0.013523,0.002678,0.000431,0.342125
9115000,0.0324,0.013523,0.002678,0.000431,0.345415
9116000,0.0324,0.013523,0.002678,0.000431,0.350469
9117000,0.0324,0.013523,0.002678,0.000431,0.344593
9118000,0.0324,0.013523,0.002678,0.000431,0.347178
9119000,0.0324,0.013523,0.002678,0.000431,0.344593
9120000,0.0324,0.013523,0.002678,0.000431,0.346943
9121000,0.0324,0.013523,0.002678,0.000431,0.354583
9122000,0.0324,0.013523,0.002678,0.000431,0.347648
9123000,0.0324,0.013523,0.002678,0.000431,0.353760
9124000,0.0324,0.013523,0.002678,0.000431,0.349881
9125000,0.0324,0.013523,0.002678,0.000431,0.342007
9126000,0.0324,0.013523,0.002678,0.000431,0.351644
9127000,0.0324,0.013523,0.002678,0.000431,0.336601
9128000,0.0324,0.013523,0.002678,0.000431,0.358931
9129000,0.0324,0.013523,0.002678,0.000431,0.353407
9130000,0.0324,0.013523,0.002678,0.000431,0.333898
9131000,0.0324,0.013523,0.002678,0.000431,0.351292
9132000,0.0324,0.013523,0.002678,0.000431,0.351292
9133000,0.0324,0.013523,0.002678,0.000431,0.338129
9134000,0.0324,0.013523,0.002678,0.000431,0.353055
9135000,0.0324,0.013523,0.002678,0.000431,0.345533
9136000,0.0324,0.013523,0.002678,0.000431,0.342830
9137000,0.0324,0.013523,0.002678,0.000431,0.349411
9138000,0.0324,0.013523,0.002678,0.000431,0.350587
9139000,0.0324,0.013523,0.002678,0.000431,0.349176
9140000,0.0324,0.013523,0.002678,0.000431,0.341889
9141000,0.0324,0.013523,0.002678,0.000431,0.346708
9142000,0.0324,0.013523,0.002678,0.000431,0.346356
9143000,0.0324,0.013523,0.002678,0.000431,0.350587
9144000,0.0324,0.013523,0.002678,0.000431,0.337071
9145000,0.0324,0.013523,0.002678,0.000431,0.338599
9146000,0.0324,0.013523,0.002678,0.000431,0.356816
9147000,0.0324,0.013523,0.002678,0.000431,0.349411
9148000,0.0324,0.013523,0.002678,0.000431,0.341067
9149000,0.0324,0.013523,0.002678,0.000431,0.342242
9150000,0.0324,0.013523,0.002678,0.000431,0.355523
9151000,0.0324,0.013523,0.002678,0.000431,0.345768
9152000,0.0324,0.013523,0.002678,0.000431,0.344358
9153000,0.0324,0.013523,0.002678,0.000431,0.345768
9154000,0.0324,0.013523,0.002678,0.000431,0.347648
9155000,0.0324,0.013523,0.002678,0.000431,0.348001
9156000,0.0324,0.013523,0.002678,0.000431,0.345298
9157000,0.0324,0.013523,0.002678,0.000431,0.352114
9158000,0.0324,0.013523,0.002678,0.000431,0.351292
9159000,0.0324,0.013523,0.002678,0.000431,0.340479
9160000,0.0324,0.013523,0.002678,0.000431,0.342007
9161000,0.0324,0.013523,0.002678,0.000431,0.362574
9162000,0.0324,0.013523,0.002678,0.000431,0.349411
9163000,0.0324,0.013523,0.002678,0.000431,0.343535
9164000,0.0324,0.013523,0.002678,0.000431,0.343887
9165000,0.0324,0.013523,0.002678,0.000431,0.349411
9166000,0.0324,0.013523,0.002678,0.000431,0.357168
9167000,0.0324,0.013523,0.002678,0.000431,0.343887
9168000,0.0324,0.013523,0.002678,0.000431,0.344945
9169000,0.0324,0.013523,0.002678,0.000431,0.357051
9170000,0.0324,0.013523,0.002678,0.000431,0.348471
9171000,0.0324,0.013523,0.002678,0.000431,0.340832
9172000,0.0324,0.013523,0.002678,0.000431,0.350116
9173000,0.0324,0.013523,0.002678,0.000431,0.347531
9174000,0.0324,0.013523,0.002678,0.000431,0.343300
9175000,0.0324,0.013523,0.002678,0.000431,0.350587
9176000,0.0324,0.013523,0.002678,0.000431,0.341067
9177000,0.0324,0.013523,0.002678,0.000431,0.357756
9178000,0.0324,0.013523,0.002678,0.000431,0.343652
9179000,0.0324,0.013523,0.002678,0.000431,0.343300
9180000,0.0324,0.013523,0.002678,0.000431,0.355758
9181000,0.0324,0.013523,0.002678,0.000431,0.349059
9182000,0.0324,0.013523,0.002678,0.000431,0.340479
9183000,0.0324,0.013523,0.002678,0.000431,0.354700
9184000,0.0324,0.013523,0.002678,0.000431,0.333780
9185000,0.0324,0.013523,0.002678,0.000431,0.347648
9186000,0.0324,0.013523,0.002678,0.000431,0.347648
9187000,0.0324,0.013523,0.002678,0.000431,0.351174
9188000,0.0324,0.013523,0.002678,0.000431,0.349176
9189000,0.0324,0.013523,0.002678,0.000431,0.352232
9190000,0.0324,0.013523,0.002678,0.000431,0.341537
9191000,0.0324,0.013523,0.002678,0.000431,0.363985
9192000,0.0324,0.013523,0.002678,0.000431,0.351057
9193000,0.0324,0.013523,0.002678,0.000431,0.341302
9194000,0.0324,0.013523,0.002678,0.000431,0.349176
9195000,0.0324,0.013523,0.002678,0.000431,0.351292
9196000,0.0324,0.013523,0.002678,0.000431,0.348118
9197000,0.0324,0.013523,0.002678,0.000431,0.343417
9198000,0.0324,0.013523,0.002678,0.000431,0.352820
9199000,0.0324,0.013523,0.002678,0.000431,0.344710
9200000,0.0324,0.013523,0.002678,0.000431,0.347883
9201000,0.0324,0.013523,0.002678,0.000431,0.339892
9202000,0.0324,0.013523,0.002678,0.000431,0.357756
9203000,0.0324,0.013523,0.002678,0.000431,0.349411
9204000,0.0324,0.013523,0.002678,0.000431,0.340597
9205000,0.0324,0.013523,0.002678,0.000431,0.349881
9206000,0.0324,0.013523,0.002678,0.000431,0.354465
9207000,0.0324,0.013523,0.002678,0.000431,0.344828
9208000,0.0324,0.013523,0.002678,0.000431,0.353877
9209000,0.0324,0.013523,0.002678,0.000431,0.344475
9210000,0.0324,0.013523,0.002678,0.000431,0.350234
9211000,0.0324,0.013523,0.002678,0.000431,0.351057
9212000,0.0324,0.013523,0.002678,0.000431,0.342830
9213000,0.0324,0.013523,0.002678,0.000431,0.346708
9214000,0.0324,0.013523,0.002678,0.000431,0.351762
9215000,0.0324,0.013523,0.002678,0.000431,0.343652
9216000,0.0324,0.013523,0.002678,0.000431,0.342007
9217000,0.0324,0.013523,0.002678,0.000431,0.349176
9218000,0.0324,0.013523,0.002678,0.000431,0.350352
9219000,0.0324,0.013523,0.002678,0.000431,0.335073
9220000,0.0324,0.013523,0.002678,0.000431,0.343065
9221000,0.0324,0.013523,0.002678,0.000431,0.350234
9222000,0.0324,0.013523,0.002678,0.000431,0.353525
9223000,0.0324,0.013523,0.002678,0.000431,0.341302
9224000,0.0324,0.013523,0.002678,0.000431,0.344240
9225000,0.0324,0.013523,0.002678,0.000431,0.345298
9226000,0.0324,0.013523,0.002678,0.000431,0.358343
9227000,0.0324,0.013523,0.002678,0.000431,0.341537
9228000,0.0324,0.013523,0.002678,0.000431,0.338129
9229000,0.0324,0.013523,0.002678,0.000431,0.352585
9230000,0.0324,0.013523,0.002678,0.000431,0.348236
9231000,0.0324,0.013523,0.002678,0.000431,0.338246
9232000,0.0324,0.013523,0.002678,0.000431,0.349411
9233000,0.0324,0.013523,0.002678,0.000431,0.359049
9234000,0.0324,0.013523,0.002678,0.000431,0.338834
9235000,0.0324,0.013523,0.002678,0.000431,0.336248
9236000,0.0324,0.013523,0.002678,0.000431,0.360341
9237000,0.0324,0.013523,0.002678,0.000431,0.348001
9238000,0.0324,0.013523,0.002678,0.000431,0.342242
9239000,0.0324,0.013523,0.002678,0.000431,0.340949
9240000,0.0324,0.013523,0.002678,0.000431,0.356110
9241000,0.0324,0.013523,0.002678,0.000431,0.348118
9242000,0.0324,0.013523,0.002678,0.000431,0.338599
9243000,0.0324,0.013523,0.002678,0.000431,0.356345
9244000,0.0324,0.013523,0.002678,0.000431,0.361634
9245000,0.0324,0.013523,0.002678,0.000431,0.338011
9246000,0.0324,0.013523,0.002678,0.000431,0.341772
9247000,0.0324,0.013523,0.002678,0.000431,0.348706
9248000,0.0324,0.013523,0.002678,0.000431,0.351527
9249000,0.0324,0.013523,0.002678,0.000431,0.337776
9250000,0.0324,0.013523,0.002678,0.000431,0.342360
9251000,0.0324,0.013523,0.002678,0.000431,0.357756
9252000,0.0324,0.013523,0.002678,0.000431,0.346238
9253000,0.0324,0.013523,0.002678,0.000431,0.335308
9254000,0.0324,0.013523,0.002678,0.000431,0.343652
9255000,0.0324,0.013523,0.002678,0.000431,0.360106
9256000,0.0324,0.013523,0.002678,0.000431,0.345885
9257000,0.0324,0.013523,0.002678,0.000431,0.335190
9258000,0.0324,0.013523,0.002678,0.000431,0.352702
9259000,0.0324,0.013523,0.002678,0.000431,0.351174
9260000,0.0324,0.013523,0.002678,0.000431,0.332722
9261000,0.0324,0.013523,0.002678,0.000431,0.344475
9262000,0.0324,0.013523,0.002678,0.000431,0.351527
9263000,0.0324,0.013523,0.002678,0.000431,0.355875
9264000,0.0324,0.013523,0.002678,0.000431,0.331429
9265000,0.0324,0.013523,0.002678,0.000431,0.341419
9266000,0.0324,0.013523,0.002678,0.000431,0.357873
9267000,0.0324,0.013523,0.002678,0.000431,0.344123
9268000,0.0324,0.013523,0.002678,0.000431,0.336131
9269000,0.0324,0.013523,0.002678,0.000431,0.356463
9270000,0.0324,0.013523,0.002678,0.000431,0.361399
9271000,0.0324,0.013523,0.002678,0.000431,0.336601
9272000,0.0324,0.013523,0.002678,0.000431,0.345180
9273000,0.0324,0.013523,0.002678,0.000431,0.351644
9274000,0.0324,0.013523,0.002678,0.000431,0.353407
9275000,0.0324,0.013523,0.002678,0.000431,0.343770
9276000,0.0324,0.013523,0.002678,0.000431,0.352820
9277000,0.0324,0.013523,0.002678,0.000431,0.353407
9278000,0.0324,0.013523,0.002678,0.000431,0.346708
9279000,0.0324,0.013523,0.002678,0.000431,0.338716
9280000,0.0324,0.013523,0.002678,0.000431,0.352820
9281000,0.0324,0.013523,0.002678,0.000431,0.364925
9282000,0.0324,0.013523,0.002678,0.000431,0.335308
9283000,0.0324,0.013523,0.002678,0.000431,0.340597
9284000,0.0324,0.013523,0.002678,0.000431,0.351879
9285000,0.0324,0.013523,0.002678,0.000431,0.359636
9286000,0.0324,0.013523,0.002678,0.000431,0.340479
9287000,0.0324,0.013523,0.002678,0.000431,0.338834
9288000,0.0324,0.013523,0.002678,0.000431,0.355170
9289000,0.0324,0.013523,0.002678,0.000431,0.342125
9290000,0.0324,0.013523,0.002678,0.000431,0.342125
9291000,0.0324,0.013523,0.002678,0.000431,0.348706
9292000,0.0324,0.013523,0.002678,0.000431,0.362457
9293000,0.0324,0.013523,0.002678,0.000431,0.344005
9294000,0.0324,0.013523,0.002678,0.000431,0.349999
9295000,0.0324,0.013523,0.002678,0.000431,0.344123
9296000,0.0324,0.013523,0.002678,0.000431,0.354818
9297000,0.0324,0.013523,0.002678,0.000431,0.331665
9298000,0.0324,0.013523,0.002678,0.000431,0.333545
9299000,0.0324,0.013523,0.002678,0.000431,0.364807
9300000,0.0324,0.013523,0.002678,0.000431,0.349999
9301000,0.0324,0.013523,0.002678,0.000431,0.323908
9302000,0.0324,0.013523,0.002678,0.000431,0.350469
9303000,0.0324,0.013523,0.002678,0.000431,0.354818
9304000,0.0324,0.013523,0.002678,0.000431,0.343652
9305000,0.0324,0.013523,0.002678,0.000431,0.343182
9306000,0.0324,0.013523,0.002678,0.000431,0.344005
9307000,0.0324,0.013523,0.002678,0.000431,0.353055
9308000,0.0324,0.013523,0.002678,0.000431,0.337188
9309000,0.0324,0.013523,0.002678,0.000431,0.343065
9310000,0.0324,0.013523,0.002678,0.000431,0.350822
9311000,0.0324,0.013523,0.002678,0.000431,0.360341
9312000,0.0324,0.013523,0.002678,0.000431,0.345415
9313000,0.0324,0.013523,0.002678,0.000431,0.337658
9314000,0.0324,0.013523,0.002678,0.000431,0.354935
9315000,0.0324,0.013523,0.002678,0.000431,0.351997
9316000,0.0324,0.013523,0.002678,0.000431,0.343182
9317000,0.0324,0.013523,0.002678,0.000431,0.343182
9318000,0.0324,0.013523,0.002678,0.000431,0.359401
9319000,0.0324,0.013523,0.002678,0.000431,0.344005
9320000,0.0324,0.013523,0.002678,0.000431,0.338481
9321000,0.0324,0.013523,0.002678,0.000431,0.341772
9322000,0.0324,0.013523,0.002678,0.000431,0.358931
9323000,0.0324,0.013523,0.002678,0.000431,0.347413
9324000,0.0324,0.013523,0.002678,0.000431,0.335425
9325000,0.0324,0.013523,0.002678,0.000431,0.346708
9326000,0.0324,0.013523,0.002678,0.000431,0.344005
9327000,0.0324,0.013523,0.002678,0.000431,0.344358
9328000,0.0324,0.013523,0.002678,0.000431,0.338951
9329000,0.0324,0.013523,0.002678,0.000431,0.357638
9330000,0.0324,0.013523,0.002678,0.000431,0.350352
9331000,0.0324,0.013523,0.002678,0.000431,0.334720
9332000,0.0324,0.013523,0.002678,0.000431,0.342477
9333000,0.0324,0.013523,0.002678,0.000431,0.351409
9334000,0.0324,0.013523,0.002678,0.000431,0.339892
9335000,0.0324,0.013523,0.002678,0.000431,0.346120
9336000,0.0324,0.013523,0.002678,0.000431,0.346120
9337000,0.0324,0.013523,0.002678,0.000431,0.355993
9338000,0.0324,0.013523,0.002678,0.000431,0.330724
9339000,0.0324,0.013523,0.002678,0.000431,0.340479
9340000,0.0324,0.013523,0.002678,0.000431,0.359166
9341000,0.0324,0.013523,0.002678,0.000431,0.348354
9342000,0.0324,0.013523,0.002678,0.000431,0.345415
9343000,0.0324,0.013523,0.002678,0.000431,0.334720
9344000,0.0324,0.013523,0.002678,0.000431,0.356110
9345000,0.0324,0.013523,0.002678,0.000431,0.342712
9346000,0.0324,0.013523,0.002678,0.000431,0.341654
9347000,0.0324,0.013523,0.002678,0.000431,0.345533
9348000,0.0324,0.013523,0.002678,0.000431,0.354112
9349000,0.0324,0.013523,0.002678,0.000431,0.340832
9350000,0.0324,0.013523,0.002678,0.000431,0.339774
9351000,0.0324,0.013523,0.002678,0.000431,0.349999
9352000,0.0324,0.013523,0.002678,0.000431,0.341419
9353000,0.0324,0.013523,0.002678,0.000431,0.345768
9354000,0.0324,0.013523,0.002678,0.000431,0.334603
9355000,0.0324,0.013523,0.002678,0.000431,0.357403
9356000,0.0324,0.013523,0.002678,0.000431,0.351879
9357000,0.0324,0.013523,0.002678,0.000431,0.344358
9358000,0.0324,0.013523,0.002678,0.000431,0.342242
9359000,0.0324,0.013523,0.002678,0.000431,0.341184
9360000,0.0324,0.013523,0.002678,0.000431,0.341889
9361000,0.0324,0.013523,0.002678,0.000431,0.342477
9362000,0.0324,0.013523,0.002678,0.000431,0.345298
9363000,0.0324,0.013523,0.002678,0.000431,0.347296
9364000,0.0324,0.013523,0.002678,0.000431,0.357403
9365000,0.0324,0.013523,0.002678,0.000431,0.326963
9366000,0.0324,0.013523,0.002678,0.000431,0.361047
9367000,0.0324,0.013523,0.002678,0.000431,0.343300
9368000,0.0324,0.013523,0.002678,0.000431,0.339656
9369000,0.0324,0.013523,0.002678,0.000431,0.348941
9370000,0.0324,0.013523,0.002678,0.000431,0.355640
9371000,0.0324,0.013523,0.002678,0.000431,0.343417
9372000,0.0324,0.013523,0.002678,0.000431,0.338011
9373000,0.0324,0.013523,0.002678,0.000431,0.356345
9374000,0.0324,0.013523,0.002678,0.000431,0.351879
9375000,0.0324,0.013523,0.002678,0.000431,0.346238
9376000,0.0324,0.013523,0.002678,0.000431,0.331312
9377000,0.0324,0.013523,0.002678,0.000431,0.355405
9378000,0.0324,0.013523,0.002678,0.000431,0.351879
9379000,0.0324,0.013523,0.002678,0.000431,0.334720
9380000,0.0324,0.013523,0.002678,0.000431,0.344358
9381000,0.0324,0.013523,0.002678,0.000431,0.360224
9382000,0.0324,0.013523,0.002678,0.000431,0.345650
9383000,0.0324,0.013523,0.002678,0.000431,0.338951
9384000,0.0324,0.013523,0.002678,0.000431,0.343300
9385000,0.0324,0.013523,0.002678,0.000431,0.352232
9386000,0.0324,0.013523,0.002678,0.000431,0.333898
9387000,0.0324,0.013523,0.002678,0.000431,0.344828
9388000,0.0324,0.013523,0.002678,0.000431,0.358108
9389000,0.0324,0.013523,0.002678,0.000431,0.342947
9390000,0.0324,0.013523,0.002678,0.000431,0.341067
9391000,0.0324,0.013523,0.002678,0.000431,0.329549
9392000,0.0324,0.013523,0.002678,0.000431,0.361164
9393000,0.0324,0.013523,0.002678,0.000431,0.340832
9394000,0.0324,0.013523,0.002678,0.000431,0.342595
9395000,0.0324,0.013523,0.002678,0.000431,0.345650
9396000,0.0324,0.013523,0.002678,0.000431,0.348471
9397000,0.0324,0.013523,0.002678,0.000431,0.339304
9398000,0.0324,0.013523,0.002678,0.000431,0.346708
9399000,0.0324,0.013523,0.002678,0.000431,0.354112
9400000,0.0324,0.013523,0.002678,0.000431,0.345180
9401000,0.0324,0.013523,0.002678,0.000431,0.335543
9402000,0.0324,0.013523,0.002678,0.000431,0.343535
9403000,0.0324,0.013523,0.002678,0.000431,0.359049
9404000,0.0324,0.013523,0.002678,0.000431,0.343770
9405000,0.0324,0.013523,0.002678,0.000431,0.340479
9406000,0.0324,0.013523,0.002678,0.000431,0.346943
9407000,0.0324,0.013523,0.002678,0.000431,0.356933
9408000,0.0324,0.013523,0.002678,0.000431,0.342947
9409000,0.0324,0.013523,0.002678,0.000431,0.345650
9410000,0.0324,0.013523,0.002678,0.000431,0.357051
9411000,0.0324,0.013523,0.002678,0.000431,0.350469
9412000,0.0324,0.013523,0.002678,0.000431,0.343887
9413000,0.0324,0.013523,0.002678,0.000431,0.342242
9414000,0.0324,0.013523,0.002678,0.000431,0.360576
9415000,0.0324,0.013523,0.002678,0.000431,0.347883
9416000,0.0324,0.013523,0.002678,0.000431,0.345415
9417000,0.0324,0.013523,0.002678,0.000431,0.357756
9418000,0.0324,0.013523,0.002678,0.000431,0.352585
9419000,0.0324,0.013523,0.002678,0.000431,0.343770
9420000,0.0324,0.013523,0.002678,0.000431,0.340714
9421000,0.0324,0.013523,0.002678,0.000431,0.353525
9422000,0.0324,0.013523,0.002678,0.000431,0.349176
9423000,0.0324,0.013523,0.002678,0.000431,0.339656
9424000,0.0324,0.013523,0.002678,0.000431,0.347648
9425000,0.0324,0.013523,0.002678,0.000431,0.361282
9426000,0.0324,0.013523,0.002678,0.000431,0.337541
9427000,0.0324,0.013523,0.002678,0.000431,0.342830
9428000,0.0324,0.013523,0.002678,0.000431,0.354583
9429000,0.0324,0.013523,0.002678,0.000431,0.350116
9430000,0.0324,0.013523,0.002678,0.000431,0.334250
9431000,0.0324,0.013523,0.002678,0.000431,0.346238
9432000,0.0324,0.013523,0.002678,0.000431,0.363632
9433000,0.0324,0.013523,0.002678,0.000431,0.338129
9434000,0.0324,0.013523,0.002678,0.000431,0.339892
9435000,0.0324,0.013523,0.002678,0.000431,0.351527
9436000,0.0324,0.013523,0.002678,0.000431,0.347413
9437000,0.0324,0.013523,0.002678,0.000431,0.346826
9438000,0.0324,0.013523,0.002678,0.000431,0.341889
9439000,0.0324,0.013523,0.002678,0.000431,0.352702
9440000,0.0324,0.013523,0.002678,0.000431,0.342712
9441000,0.0324,0.013523,0.002678,0.000431,0.340949
9442000,0.0324,0.013523,0.002678,0.000431,0.344828
9443000,0.0324,0.013523,0.002678,0.000431,0.353055
9444000,0.0324,0.013523,0.002678,0.000431,0.344593
9445000,0.0324,0.013523,0.002678,0.000431,0.345415
9446000,0.0324,0.013523,0.002678,0.000431,0.342830
9447000,0.0324,0.013523,0.002678,0.000431,0.349411
9448000,0.0324,0.013523,0.002678,0.000431,0.349881
9449000,0.0324,0.013523,0.002678,0.000431,0.338129
9450000,0.0324,0.013523,0.002678,0.000431,0.362574
9451000,0.0324,0.013523,0.002678,0.000431,0.348471
9452000,0.0324,0.013523,0.002678,0.000431,0.344475
9453000,0.0324,0.013523,0.002678,0.000431,0.339774
9454000,0.0324,0.013523,0.002678,0.000431,0.350822
9455000,0.0324,0.013523,0.002678,0.000431,0.354818
9456000,0.0324,0.013523,0.002678,0.000431,0.336248
9457000,0.0324,0.013523,0.002678,0.000431,0.340714
9458000,0.0324,0.013523,0.002678,0.000431,0.356463
9459000,0.0324,0.013523,0.002678,0.000431,0.347413
9460000,0.0324,0.013523,0.002678,0.000431,0.336953
9461000,0.0324,0.013523,0.002678,0.000431,0.353055
9462000,0.0324,0.013523,0.002678,0.000431,0.354583
9463000,0.0324,0.013523,0.002678,0.000431,0.345063
9464000,0.0324,0.013523,0.002678,0.000431,0.339656
9465000,0.0324,0.013523,0.002678,0.000431,0.361634
9466000,0.0324,0.013523,0.002678,0.000431,0.344240
9467000,0.0324,0.013523,0.002678,0.000431,0.342242
9468000,0.0324,0.013523,0.002678,0.000431,0.340832
9469000,0.0324,0.013523,0.002678,0.000431,0.358696
9470000,0.0324,0.013523,0.002678,0.000431,0.352349
9471000,0.0324,0.013523,0.002678,0.000431,0.342007
9472000,0.0324,0.013523,0.002678,0.000431,0.350352
9473000,0.0324,0.013523,0.002678,0.000431,0.351174
9474000,0.0324,0.013523,0.002678,0.000431,0.350234
9475000,0.0324,0.013523,0.002678,0.000431,0.340949
9476000,0.0324,0.013523,0.002678,0.000431,0.345415
9477000,0.0324,0.013523,0.002678,0.000431,0.355875
9478000,0.0324,0.013523,0.002678,0.000431,0.346591
9479000,0.0324,0.013523,0.002678,0.000431,0.343182
9480000,0.0324,0.013523,0.002678,0.000431,0.353407
9481000,0.0324,0.013523,0.002678,0.000431,0.351997
9482000,0.0324,0.013523,0.002678,0.000431,0.340949
9483000,0.0324,0.013523,0.002678,0.000431,0.342830
9484000,0.0324,0.013523,0.002678,0.000431,0.357991
9485000,0.0324,0.013523,0.002678,0.000431,0.347296
9486000,0.0324,0.013523,0.002678,0.000431,0.347883
9487000,0.0324,0.013523,0.002678,0.000431,0.351527
9488000,0.0324,0.013523,0.002678,0.000431,0.341067
9489000,0.0324,0.013523,0.002678,0.000431,0.349529
9490000,0.0324,0.013523,0.002678,0.000431,0.351057
9491000,0.0324,0.013523,0.002678,0.000431,0.344005
9492000,0.0324,0.013523,0.002678,0.000431,0.357873
9493000,0.0324,0.013523,0.002678,0.000431,0.351879
9494000,0.0324,0.013523,0.002678,0.000431,0.342595
9495000,0.0324,0.013523,0.002678,0.000431,0.348001
9496000,0.0324,0.013523,0.002678,0.000431,0.359754
9497000,0.0324,0.013523,0.002678,0.000431,0.347531
9498000,0.0324,0.013523,0.002678,0.000431,0.336718
9499000,0.0324,0.013523,0.002678,0.000431,0.357051
9500000,0.0324,0.013523,0.002678,0.000431,0.359401
9501000,0.0324,0.013523,0.002678,0.000431,0.341302
9502000,0.0324,0.013523,0.002678,0.000431,0.345298
9503000,0.0324,0.013523,0.002678,0.000431,0.360459
9504000,0.0324,0.013523,0.002678,0.000431,0.351057
9505000,0.0324,0.013523,0.002678,0.000431,0.349881
9506000,0.0324,0.013523,0.002678,0.000431,0.355523
9507000,0.0324,0.013523,0.002678,0.000431,0.349881
9508000,0.0324,0.013523,0.002678,0.000431,0.353407
9509000,0.0324,0.013523,0.002678,0.000431,0.357638
9510000,0.0324,0.013523,0.002678,0.000431,0.353290
9511000,0.0324,0.013523,0.002678,0.000431,0.346003
9512000,0.0324,0.013523,0.002678,0.000431,0.357756
9513000,0.0324,0.013523,0.002678,0.000431,0.341772
9514000,0.0324,0.013523,0.002678,0.000431,0.359166
9515000,0.0324,0.013523,0.002678,0.000431,0.355053
9516000,0.0324,0.013523,0.002678,0.000431,0.350587
9517000,0.0324,0.013523,0.002678,0.000431,0.341537
9518000,0.0324,0.013523,0.002678,0.000431,0.362574
9519000,0.0324,0.013523,0.002678,0.000431,0.353760
9520000,0.0324,0.013523,0.002678,0.000431,0.345533
9521000,0.0324,0.013523,0.002678,0.000431,0.347061
9522000,0.0324,0.013523,0.002678,0.000431,0.362692
9523000,0.0324,0.013523,0.002678,0.000431,0.350939
9524000,0.0324,0.013523,0.002678,0.000431,0.353407
9525000,0.0324,0.013523,0.002678,0.000431,0.352585
9526000,0.0324,0.013523,0.002678,0.000431,0.359401
9527000,0.0324,0.013523,0.002678,0.000431,0.344828
9528000,0.0324,0.013523,0.002678,0.000431,0.346708
9529000,0.0324,0.013523,0.002678,0.000431,0.361164
9530000,0.0324,0.013523,0.002678,0.000431,0.352349
9531000,0.0324,0.013523,0.002678,0.000431,0.359401
9532000,0.0324,0.013523,0.002678,0.000431,0.352232
9533000,0.0324,0.013523,0.002678,0.000431,0.368568
9534000,0.0324,0.013523,0.002678,0.000431,0.370331
9535000,0.0324,0.013523,0.002678,0.000431,0.356228
9536000,0.0324,0.013523,0.002678,0.000431,0.363985
9537000,0.0324,0.013523,0.002678,0.000431,0.368098
9538000,0.0324,0.013523,0.002678,0.000431,0.363515
9539000,0.0324,0.013523,0.002678,0.000431,0.375267
9540000,0.0324,0.013523,0.002678,0.000431,0.374680
9541000,0.0324,0.013523,0.002678,0.000431,0.377148
9542000,0.0324,0.013523,0.002678,0.000431,0.364572
9543000,0.0324,0.013523,0.002678,0.000431,0.366218
9544000,0.0324,0.013523,0.002678,0.000431,0.364807
9545000,0.0324,0.013523,0.002678,0.000431,0.375385
9546000,0.0324,0.013523,0.002678,0.000431,0.360224
9547000,0.0324,0.013523,0.002678,0.000431,0.330372
9548000,0.0324,0.013523,0.002678,0.000431,0.332605
9549000,0.0324,0.013523,0.002678,0.000431,0.330959
9550000,0.0324,0.013523,0.002678,0.000431,0.311567
9551000,0.0324,0.013523,0.002678,0.000431,0.311097
9552000,0.0324,0.013523,0.002678,0.000431,0.301107
9553000,0.0324,0.013523,0.002678,0.000431,0.303810
9554000,0.0324,0.013523,0.002678,0.000431,0.314388
9555000,0.0324,0.013523,0.002678,0.000431,0.314153
9556000,0.0324,0.013523,0.002678,0.000431,0.357051
9557000,0.0324,0.013523,0.002678,0.000431,0.341537
9558000,0.0324,0.013523,0.002678,0.000431,0.344123
9559000,0.0324,0.013523,0.002678,0.000431,0.334603
9560000,0.0324,0.013523,0.002678,0.000431,0.322850
9561000,0.0324,0.013523,0.002678,0.000431,0.352937
9562000,0.0324,0.013523,0.002678,0.000431,0.374210
9563000,0.0324,0.013523,0.002678,0.000431,0.367511
9564000,0.0324,0.013523,0.002678,0.000431,0.395835
9565000,0.0324,0.013523,0.002678,0.000431,0.381732
9566000,0.0324,0.013523,0.002678,0.000431,0.394895
9567000,0.0324,0.013523,0.002678,0.000431,0.394895
9568000,0.0324,0.013523,0.002678,0.000431,0.389488
9569000,0.0324,0.013523,0.002678,0.000431,0.390311
9570000,0.0324,0.013523,0.002678,0.000431,0.405120
9571000,0.0324,0.013523,0.002678,0.000431,0.389959
9572000,0.0324,0.013523,0.002678,0.000431,0.402769
9573000,0.0324,0.013523,0.002678,0.000431,0.387020
9574000,0.0324,0.013523,0.002678,0.000431,0.395717
9575000,0.0324,0.013523,0.002678,0.000431,0.393719
9576000,0.0324,0.013523,0.002678,0.000431,0.405002
9577000,0.0324,0.013523,0.002678,0.000431,0.395952
9578000,0.0324,0.013523,0.002678,0.000431,0.390781
9579000,0.0324,0.013523,0.002678,0.000431,0.399713
9580000,0.0324,0.013523,0.002678,0.000431,0.391251
9581000,0.0324,0.013523,0.002678,0.000431,0.397128
9582000,0.0324,0.013523,0.002678,0.000431,0.396658
9583000,0.0324,0.013523,0.002678,0.000431,0.397010
9584000,0.0324,0.013523,0.002678,0.000431,0.397010
9585000,0.0324,0.013523,0.002678,0.000431,0.406412
9586000,0.0324,0.013523,0.002678,0.000431,0.397715
9587000,0.0324,0.013523,0.002678,0.000431,0.390076
9588000,0.0324,0.013523,0.002678,0.000431,0.403122
9589000,0.0324,0.013523,0.002678,0.000431,0.397480
9590000,0.0324,0.013523,0.002678,0.000431,0.379263
9591000,0.0324,0.013523,0.002678,0.000431,0.407470
9592000,0.0324,0.013523,0.002678,0.000431,0.396540
9593000,0.0324,0.013523,0.002678,0.000431,0.394895
9594000,0.0324,0.013523,0.002678,0.000431,0.398303
9595000,0.0324,0.013523,0.002678,0.000431,0.393719
9596000,0.0324,0.013523,0.002678,0.000431,0.389488
9597000,0.0324,0.013523,0.002678,0.000431,0.405472
9598000,0.0324,0.013523,0.002678,0.000431,0.401359
9599000,0.0324,0.013523,0.002678,0.000431,0.384200
9600000,0.0324,0.013523,0.002678,0.000431,0.388431
9601000,0.0324,0.013523,0.002678,0.000431,0.407823
9602000,0.0324,0.013523,0.002678,0.000431,0.387725
9603000,0.0324,0.013523,0.002678,0.000431,0.395600
9604000,0.0324,0.013523,0.002678,0.000431,0.406412
9605000,0.0324,0.013523,0.002678,0.000431,0.383259
9606000,0.0324,0.013523,0.002678,0.000431,0.393249
9607000,0.0324,0.013523,0.002678,0.000431,0.406060
9608000,0.0324,0.013523,0.002678,0.000431,0.381026
9609000,0.0324,0.013523,0.002678,0.000431,0.388078
9610000,0.0324,0.013523,0.002678,0.000431,0.407353
9611000,0.0324,0.013523,0.002678,0.000431,0.389841
9612000,0.0324,0.013523,0.002678,0.000431,0.381967
9613000,0.0324,0.013523,0.002678,0.000431,0.406765
9614000,0.0324,0.013523,0.002678,0.000431,0.402769
9615000,0.0324,0.013523,0.002678,0.000431,0.386433
9616000,0.0324,0.013523,0.002678,0.000431,0.395717
9617000,0.0324,0.013523,0.002678,0.000431,0.400419
9618000,0.0324,0.013523,0.002678,0.000431,0.388196
9619000,0.0324,0.013523,0.002678,0.000431,0.397833
9620000,0.0324,0.013523,0.002678,0.000431,0.397010
9621000,0.0324,0.013523,0.002678,0.000431,0.388548
9622000,0.0324,0.013523,0.002678,0.000431,0.394425
9623000,0.0324,0.013523,0.002678,0.000431,0.398421
9624000,0.0324,0.013523,0.002678,0.000431,0.395600
9625000,0.0324,0.013523,0.002678,0.000431,0.387255
9626000,0.0324,0.013523,0.002678,0.000431,0.396188
9627000,0.0324,0.013523,0.002678,0.000431,0.392309
9628000,0.0324,0.013523,0.002678,0.000431,0.387020
9629000,0.0324,0.013523,0.002678,0.000431,0.402534
9630000,0.0324,0.013523,0.002678,0.000431,0.395482
9631000,0.0324,0.013523,0.002678,0.000431,0.395600
9632000,0.0324,0.013523,0.002678,0.000431,0.394895
9633000,0.0324,0.013523,0.002678,0.000431,0.405472
9634000,0.0324,0.013523,0.002678,0.000431,0.393837
9635000,0.0324,0.013523,0.002678,0.000431,0.390546
9636000,0.0324,0.013523,0.002678,0.000431,0.398421
9637000,0.0324,0.013523,0.002678,0.000431,0.397245
9638000,0.0324,0.013523,0.002678,0.000431,0.391369
9639000,0.0324,0.013523,0.002678,0.000431,0.395247
9640000,0.0324,0.013523,0.002678,0.000431,0.401476
9641000,0.0324,0.013523,0.002678,0.000431,0.386903
9642000,0.0324,0.013523,0.002678,0.000431,0.403592
9643000,0.0324,0.013523,0.002678,0.000431,0.398656
9644000,0.0324,0.013523,0.002678,0.000431,0.389253
9645000,0.0324,0.013523,0.002678,0.000431,0.387138
9646000,0.0324,0.013523,0.002678,0.000431,0.413582
9647000,0.0324,0.013523,0.002678,0.000431,0.374562
9648000,0.0324,0.013523,0.002678,0.000431,0.399478
9649000,0.0324,0.013523,0.002678,0.000431,0.397598
9650000,0.0324,0.013523,0.002678,0.000431,0.389606
9651000,0.0324,0.013523,0.002678,0.000431,0.398891
9652000,0.0324,0.013523,0.002678,0.000431,0.404767
9653000,0.0324,0.013523,0.002678,0.000431,0.387373
9654000,0.0324,0.013523,0.002678,0.000431,0.397010
9655000,0.0324,0.013523,0.002678,0.000431,0.399478
9656000,0.0324,0.013523,0.002678,0.000431,0.391251
9657000,0.0324,0.013523,0.002678,0.000431,0.398773
9658000,0.0324,0.013523,0.002678,0.000431,0.400183
9659000,0.0324,0.013523,0.002678,0.000431,0.394307
9660000,0.0324,0.013523,0.002678,0.000431,0.395482
9661000,0.0324,0.013523,0.002678,0.000431,0.394190
9662000,0.0324,0.013523,0.002678,0.000431,0.400536
9663000,0.0324,0.013523,0.002678,0.000431,0.387608
9664000,0.0324,0.013523,0.002678,0.000431,0.397598
9665000,0.0324,0.013523,0.002678,0.000431,0.396423
9666000,0.0324,0.013523,0.002678,0.000431,0.387961
9667000,0.0324,0.013523,0.002678,0.000431,0.401711
9668000,0.0324,0.013523,0.002678,0.000431,0.396423
9669000,0.0324,0.013523,0.002678,0.000431,0.387961
9670000,0.0324,0.013523,0.002678,0.000431,0.397715
9671000,0.0324,0.013523,0.002678,0.000431,0.401241
9672000,0.0324,0.013523,0.002678,0.000431,0.386550
9673000,0.0324,0.013523,0.002678,0.000431,0.397128
9674000,0.0324,0.013523,0.002678,0.000431,0.389723
9675000,0.0324,0.013523,0.002678,0.000431,0.392427
9676000,0.0324,0.013523,0.002678,0.000431,0.397010
9677000,0.0324,0.013523,0.002678,0.000431,0.394190
9678000,0.0324,0.013523,0.002678,0.000431,0.394307
9679000,0.0324,0.013523,0.002678,0.000431,0.395952
9680000,0.0324,0.013523,0.002678,0.000431,0.397480
9681000,0.0324,0.013523,0.002678,0.000431,0.392074
9682000,0.0324,0.013523,0.002678,0.000431,0.400419
9683000,0.0324,0.013523,0.002678,0.000431,0.392779
9684000,0.0324,0.013523,0.002678,0.000431,0.391721
9685000,0.0324,0.013523,0.002678,0.000431,0.401476
9686000,0.0324,0.013523,0.002678,0.000431,0.385022
9687000,0.0324,0.013523,0.002678,0.000431,0.393837
9688000,0.0324,0.013523,0.002678,0.000431,0.402652
9689000,0.0324,0.013523,0.002678,0.000431,0.384317
9690000,0.0324,0.013523,0.002678,0.000431,0.397715
9691000,0.0324,0.013523,0.002678,0.000431,0.404062
9692000,0.0324,0.013523,0.002678,0.000431,0.391016
9693000,0.0324,0.013523,0.002678,0.000431,0.400889
9694000,0.0324,0.013523,0.002678,0.000431,0.397245
9695000,0.0324,0.013523,0.002678,0.000431,0.391251
9696000,0.0324,0.013523,0.002678,0.000431,0.392192
9697000,0.0324,0.013523,0.002678,0.000431,0.410879
9698000,0.0324,0.013523,0.002678,0.000431,0.384670
9699000,0.0324,0.013523,0.002678,0.000431,0.398185
9700000,0.0324,0.013523,0.002678,0.000431,0.397598
9701000,0.0324,0.013523,0.002678,0.000431,0.391604
9702000,0.0324,0.013523,0.002678,0.000431,0.390194
9703000,0.0324,0.013523,0.002678,0.000431,0.399596
9704000,0.0324,0.013523,0.002678,0.000431,0.385375
9705000,0.0324,0.013523,0.002678,0.000431,0.388548
9706000,0.0324,0.013523,0.002678,0.000431,0.401241
9707000,0.0324,0.013523,0.002678,0.000431,0.396658
9708000,0.0324,0.013523,0.002678,0.000431,0.398185
9709000,0.0324,0.013523,0.002678,0.000431,0.390781
9710000,0.0324,0.013523,0.002678,0.000431,0.391956
9711000,0.0324,0.013523,0.002678,0.000431,0.400066
9712000,0.0324,0.013523,0.002678,0.000431,0.397833
9713000,0.0324,0.013523,0.002678,0.000431,0.397833
9714000,0.0324,0.013523,0.002678,0.000431,0.389841
9715000,0.0324,0.013523,0.002678,0.000431,0.399948
9716000,0.0324,0.013523,0.002678,0.000431,0.384082
9717000,0.0324,0.013523,0.002678,0.000431,0.399478
9718000,0.0324,0.013523,0.002678,0.000431,0.403592
9719000,0.0324,0.013523,0.002678,0.000431,0.380439
9720000,0.0324,0.013523,0.002678,0.000431,0.405590
9721000,0.0324,0.013523,0.002678,0.000431,0.396893
9722000,0.0324,0.013523,0.002678,0.000431,0.396893
9723000,0.0324,0.013523,0.002678,0.000431,0.392427
9724000,0.0324,0.013523,0.002678,0.000431,0.402769
9725000,0.0324,0.013523,0.002678,0.000431,0.396188
9726000,0.0324,0.013523,0.002678,0.000431,0.395600
9727000,0.0324,0.013523,0.002678,0.000431,0.410526
9728000,0.0324,0.013523,0.002678,0.000431,0.386080
9729000,0.0324,0.013523,0.002678,0.000431,0.400066
9730000,0.0324,0.013523,0.002678,0.000431,0.408881
9731000,0.0324,0.013523,0.002678,0.000431,0.387138
9732000,0.0324,0.013523,0.002678,0.000431,0.393367
9733000,0.0324,0.013523,0.002678,0.000431,0.410173
9734000,0.0324,0.013523,0.002678,0.000431,0.386433
9735000,0.0324,0.013523,0.002678,0.000431,0.388783
9736000,0.0324,0.013523,0.002678,0.000431,0.408528
9737000,0.0324,0.013523,0.002678,0.000431,0.391486
9738000,0.0324,0.013523,0.002678,0.000431,0.398185
9739000,0.0324,0.013523,0.002678,0.000431,0.394660
9740000,0.0324,0.013523,0.002678,0.000431,0.395835
9741000,0.0324,0.013523,0.002678,0.000431,0.396775
9742000,0.0324,0.013523,0.002678,0.000431,0.410291
9743000,0.0324,0.013523,0.002678,0.000431,0.388431
9744000,0.0324,0.013523,0.002678,0.000431,0.396775
9745000,0.0324,0.013523,0.002678,0.000431,0.398891
9746000,0.0324,0.013523,0.002678,0.000431,0.402652
9747000,0.0324,0.013523,0.002678,0.000431,0.396775
9748000,0.0324,0.013523,0.002678,0.000431,0.399361
9749000,0.0324,0.013523,0.002678,0.000431,0.400654
9750000,0.0324,0.013523,0.002678,0.000431,0.394542
9751000,0.0324,0.013523,0.002678,0.000431,0.392192
9752000,0.0324,0.013523,0.002678,0.000431,0.400301
9753000,0.0324,0.013523,0.002678,0.000431,0.395835
9754000,0.0324,0.013523,0.002678,0.000431,0.393837
9755000,0.0324,0.013523,0.002678,0.000431,0.395482
9756000,0.0324,0.013523,0.002678,0.000431,0.402064
9757000,0.0324,0.013523,0.002678,0.000431,0.396423
9758000,0.0324,0.013523,0.002678,0.000431,0.394660
9759000,0.0324,0.013523,0.002678,0.000431,0.391369
9760000,0.0324,0.013523,0.002678,0.000431,0.404885
9761000,0.0324,0.013523,0.002678,0.000431,0.393602
9762000,0.0324,0.013523,0.002678,0.000431,0.402534
9763000,0.0324,0.013523,0.002678,0.000431,0.404297
9764000,0.0324,0.013523,0.002678,0.000431,0.385375
9765000,0.0324,0.013523,0.002678,0.000431,0.410526
9766000,0.0324,0.013523,0.002678,0.000431,0.396305
9767000,0.0324,0.013523,0.002678,0.000431,0.387608
9768000,0.0324,0.013523,0.002678,0.000431,0.402299
9769000,0.0324,0.013523,0.002678,0.000431,0.402299
9770000,0.0324,0.013523,0.002678,0.000431,0.388901
9771000,0.0324,0.013523,0.002678,0.000431,0.405825
9772000,0.0324,0.013523,0.002678,0.000431,0.400771
9773000,0.0324,0.013523,0.002678,0.000431,0.387373
9774000,0.0324,0.013523,0.002678,0.000431,0.402416
9775000,0.0324,0.013523,0.002678,0.000431,0.397950
9776000,0.0324,0.013523,0.002678,0.000431,0.390311
9777000,0.0324,0.013523,0.002678,0.000431,0.406648
9778000,0.0324,0.013523,0.002678,0.000431,0.394190
9779000,0.0324,0.013523,0.002678,0.000431,0.398303
9780000,0.0324,0.013523,0.002678,0.000431,0.403827
9781000,0.0324,0.013523,0.002678,0.000431,0.393014
9782000,0.0324,0.013523,0.002678,0.000431,0.394072
9783000,0.0324,0.013523,0.002678,0.000431,0.403122
9784000,0.0324,0.013523,0.002678,0.000431,0.392427
9785000,0.0324,0.013523,0.002678,0.000431,0.398656
9786000,0.0324,0.013523,0.002678,0.000431,0.402534
9787000,0.0324,0.013523,0.002678,0.000431,0.398538
9788000,0.0324,0.013523,0.002678,0.000431,0.388901
9789000,0.0324,0.013523,0.002678,0.000431,0.392192
9790000,0.0324,0.013523,0.002678,0.000431,0.391604
9791000,0.0324,0.013523,0.002678,0.000431,0.392074
9792000,0.0324,0.013523,0.002678,0.000431,0.394190
9793000,0.0324,0.013523,0.002678,0.000431,0.408881
9794000,0.0324,0.013523,0.002678,0.000431,0.386785
9795000,0.0324,0.013523,0.002678,0.000431,0.404885
9796000,0.0324,0.013523,0.002678,0.000431,0.401829
9797000,0.0324,0.013523,0.002678,0.000431,0.392309
9798000,0.0324,0.013523,0.002678,0.000431,0.400536
9799000,0.0324,0.013523,0.002678,0.000431,0.396305
9800000,0.0324,0.013523,0.002678,0.000431,0.394425
9801000,0.0324,0.013523,0.002678,0.000431,0.403004
9802000,0.0324,0.013523,0.002678,0.000431,0.396305
9803000,0.0324,0.013523,0.002678,0.000431,0.397245
9804000,0.0324,0.013523,0.002678,0.000431,0.393602
9805000,0.0324,0.013523,0.002678,0.000431,0.393132
9806000,0.0324,0.013523,0.002678,0.000431,0.397715
9807000,0.0324,0.013523,0.002678,0.000431,0.405237
9808000,0.0324,0.013523,0.002678,0.000431,0.391134
9809000,0.0324,0.013523,0.002678,0.000431,0.391486
9810000,0.0324,0.013523,0.002678,0.000431,0.406883
9811000,0.0324,0.013523,0.002678,0.000431,0.394542
9812000,0.0324,0.013523,0.002678,0.000431,0.399126
9813000,0.0324,0.013523,0.002678,0.000431,0.402887
9814000,0.0324,0.013523,0.002678,0.000431,0.390429
9815000,0.0324,0.013523,0.002678,0.000431,0.397363
9816000,0.0324,0.013523,0.002678,0.000431,0.402887
9817000,0.0324,0.013523,0.002678,0.000431,0.393954
9818000,0.0324,0.013523,0.002678,0.000431,0.393719
9819000,0.0324,0.013523,0.002678,0.000431,0.407000
9820000,0.0324,0.013523,0.002678,0.000431,0.385963
9821000,0.0324,0.013523,0.002678,0.000431,0.386668
9822000,0.0324,0.013523,0.002678,0.000431,0.408175
9823000,0.0324,0.013523,0.002678,0.000431,0.394072
9824000,0.0324,0.013523,0.002678,0.000431,0.388078
9825000,0.0324,0.013523,0.002678,0.000431,0.413582
9826000,0.0324,0.013523,0.002678,0.000431,0.390429
9827000,0.0324,0.013523,0.002678,0.000431,0.385727
9828000,0.0324,0.013523,0.002678,0.000431,0.409351
9829000,0.0324,0.013523,0.002678,0.000431,0.388431
9830000,0.0324,0.013523,0.002678,0.000431,0.384905
9831000,0.0324,0.013523,0.002678,0.000431,0.411231
9832000,0.0324,0.013523,0.002678,0.000431,0.387373
9833000,0.0324,0.013523,0.002678,0.000431,0.383259
9834000,0.0324,0.013523,0.002678,0.000431,0.409233
9835000,0.0324,0.013523,0.002678,0.000431,0.395600
9836000,0.0324,0.013523,0.002678,0.000431,0.384670
9837000,0.0324,0.013523,0.002678,0.000431,0.407823
9838000,0.0324,0.013523,0.002678,0.000431,0.394072
9839000,0.0324,0.013523,0.002678,0.000431,0.391839
9840000,0.0324,0.013523,0.002678,0.000431,0.394542
9841000,0.0324,0.013523,0.002678,0.000431,0.405002
9842000,0.0324,0.013523,0.002678,0.000431,0.387490
9843000,0.0324,0.013523,0.002678,0.000431,0.402534
9844000,0.0324,0.013523,0.002678,0.000431,0.395717
9845000,0.0324,0.013523,0.002678,0.000431,0.388548
9846000,0.0324,0.013523,0.002678,0.000431,0.398303
9847000,0.0324,0.013523,0.002678,0.000431,0.404179
9848000,0.0324,0.013523,0.002678,0.000431,0.386433
9849000,0.0324,0.013523,0.002678,0.000431,0.407470
9850000,0.0324,0.013523,0.002678,0.000431,0.399361
9851000,0.0324,0.013523,0.002678,0.000431,0.383024
9852000,0.0324,0.013523,0.002678,0.000431,0.401241
9853000,0.0324,0.013523,0.002678,0.000431,0.394895
9854000,0.0324,0.013523,0.002678,0.000431,0.397950
9855000,0.0324,0.013523,0.002678,0.000431,0.410996
9856000,0.0324,0.013523,0.002678,0.000431,0.383965
9857000,0.0324,0.013523,0.002678,0.000431,0.394895
9858000,0.0324,0.013523,0.002678,0.000431,0.394660
9859000,0.0324,0.013523,0.002678,0.000431,0.398538
9860000,0.0324,0.013523,0.002678,0.000431,0.397010
9861000,0.0324,0.013523,0.002678,0.000431,0.396305
9862000,0.0324,0.013523,0.002678,0.000431,0.389136
9863000,0.0324,0.013523,0.002678,0.000431,0.403122
9864000,0.0324,0.013523,0.002678,0.000431,0.393014
9865000,0.0324,0.013523,0.002678,0.000431,0.395012
9866000,0.0324,0.013523,0.002678,0.000431,0.399596
9867000,0.0324,0.013523,0.002678,0.000431,0.395012
9868000,0.0324,0.013523,0.002678,0.000431,0.391251
9869000,0.0324,0.013523,0.002678,0.000431,0.403239
9870000,0.0324,0.013523,0.002678,0.000431,0.395012
9871000,0.0324,0.013523,0.002678,0.000431,0.394190
9872000,0.0324,0.013523,0.002678,0.000431,0.393954
9873000,0.0324,0.013523,0.002678,0.000431,0.402064
9874000,0.0324,0.013523,0.002678,0.000431,0.387255
9875000,0.0324,0.013523,0.002678,0.000431,0.396775
9876000,0.0324,0.013523,0.002678,0.000431,0.403474
9877000,0.0324,0.013523,0.002678,0.000431,0.389371
9878000,0.0324,0.013523,0.002678,0.000431,0.391251
9879000,0.0324,0.013523,0.002678,0.000431,0.412406
9880000,0.0324,0.013523,0.002678,0.000431,0.390781
9881000,0.0324,0.013523,0.002678,0.000431,0.392192
9882000,0.0324,0.013523,0.002678,0.000431,0.404767
9883000,0.0324,0.013523,0.002678,0.000431,0.389136
9884000,0.0324,0.013523,0.002678,0.000431,0.392779
9885000,0.0324,0.013523,0.002678,0.000431,0.410526
9886000,0.0324,0.013523,0.002678,0.000431,0.388313
9887000,0.0324,0.013523,0.002678,0.000431,0.390311
9888000,0.0324,0.013523,0.002678,0.000431,0.406530
9889000,0.0324,0.013523,0.002678,0.000431,0.400301
9890000,0.0324,0.013523,0.002678,0.000431,0.385727
9891000,0.0324,0.013523,0.002678,0.000431,0.402534
9892000,0.0324,0.013523,0.002678,0.000431,0.388548
9893000,0.0324,0.013523,0.002678,0.000431,0.389841
9894000,0.0324,0.013523,0.002678,0.000431,0.402652
9895000,0.0324,0.013523,0.002678,0.000431,0.399126
9896000,0.0324,0.013523,0.002678,0.000431,0.384552
9897000,0.0324,0.013523,0.002678,0.000431,0.400771
9898000,0.0324,0.013523,0.002678,0.000431,0.403239
9899000,0.0324,0.013523,0.002678,0.000431,0.392544
9900000,0.0324,0.013523,0.002678,0.000431,0.401359
9901000,0.0324,0.013523,0.002678,0.000431,0.401476
9902000,0.0324,0.013523,0.002678,0.000431,0.393837
9903000,0.0324,0.013523,0.002678,0.000431,0.388431
9904000,0.0324,0.013523,0.002678,0.000431,0.394542
9905000,0.0324,0.013523,0.002678,0.000431,0.389253
9906000,0.0324,0.013523,0.002678,0.000431,0.404297
9907000,0.0324,0.013523,0.002678,0.000431,0.390664
9908000,0.0324,0.013523,0.002678,0.000431,0.392309
9909000,0.0324,0.013523,0.002678,0.000431,0.405472
9910000,0.0324,0.013523,0.002678,0.000431,0.384200
9911000,0.0324,0.013523,0.002678,0.000431,0.391956
9912000,0.0324,0.013523,0.002678,0.000431,0.405120
9913000,0.0324,0.013523,0.002678,0.000431,0.386315
9914000,0.0324,0.013523,0.002678,0.000431,0.390781
9915000,0.0324,0.013523,0.002678,0.000431,0.405825
9916000,0.0324,0.013523,0.002678,0.000431,0.392897
9917000,0.0324,0.013523,0.002678,0.000431,0.387373
9918000,0.0324,0.013523,0.002678,0.000431,0.402064
9919000,0.0324,0.013523,0.002678,0.000431,0.387608
9920000,0.0324,0.013523,0.002678,0.000431,0.398068
9921000,0.0324,0.013523,0.002678,0.000431,0.407118
9922000,0.0324,0.013523,0.002678,0.000431,0.389136
9923000,0.0324,0.013523,0.002678,0.000431,0.393367
9924000,0.0324,0.013523,0.002678,0.000431,0.403827
9925000,0.0324,0.013523,0.002678,0.000431,0.395952
9926000,0.0324,0.013523,0.002678,0.000431,0.393249
9927000,0.0324,0.013523,0.002678,0.000431,0.399008
9928000,0.0324,0.013523,0.002678,0.000431,0.395365
9929000,0.0324,0.013523,0.002678,0.000431,0.381614
9930000,0.0324,0.013523,0.002678,0.000431,0.410761
9931000,0.0324,0.013523,0.002678,0.000431,0.379028
9932000,0.0324,0.013523,0.002678,0.000431,0.381967
9933000,0.0324,0.013523,0.002678,0.000431,0.398185
9934000,0.0324,0.013523,0.002678,0.000431,0.379146
9935000,0.0324,0.013523,0.002678,0.000431,0.364337
9936000,0.0324,0.013523,0.002678,0.000431,0.361399
9937000,0.0324,0.013523,0.002678,0.000431,0.357873
9938000,0.0324,0.013523,0.002678,0.000431,0.367863
9939000,0.0324,0.013523,0.002678,0.000431,0.338364
9940000,0.0324,0.013523,0.002678,0.000431,0.350704
9941000,0.0324,0.013523,0.002678,0.000431,0.341772
9942000,0.0324,0.013523,0.002678,0.000431,0.342125
9943000,0.0324,0.013523,0.002678,0.000431,0.337776
9944000,0.0324,0.013523,0.002678,0.000431,0.344828
9945000,0.0324,0.013523,0.002678,0.000431,0.342595
9946000,0.0324,0.013523,0.002678,0.000431,0.348941
9947000,0.0324,0.013523,0.002678,0.000431,0.345063
9948000,0.0324,0.013523,0.002678,0.000431,0.345298
9949000,0.0324,0.013523,0.002678,0.000431,0.346003
9950000,0.0324,0.013523,0.002678,0.000431,0.338364
9951000,0.0324,0.013523,0.002678,0.000431,0.340479
9952000,0.0324,0.013523,0.002678,0.000431,0.322027
9953000,0.0324,0.013523,0.002678,0.000431,0.321205
9954000,0.0324,0.013523,0.002678,0.000431,0.304633
9955000,0.0324,0.013523,0.002678,0.000431,0.300402
9956000,0.0324,0.013523,0.002678,0.000431,0.265731
9957000,0.0324,0.013523,0.002678,0.000431,0.247162
9958000,0.0324,0.013523,0.002678,0.000431,0.214019
9959000,0.0324,0.013523,0.002678,0.000431,0.165127
9960000,0.0324,0.013523,0.002678,0.000431,0.134805
9961000,0.0324,0.013523,0.002678,0.000431,0.119761
9962000,0.0324,0.013523,0.002678,0.000431,0.109889
9963000,0.0324,0.013523,0.002678,0.000431,0.084855
9964000,0.0324,0.013523,0.002678,0.000431,0.089204
9965000,0.0324,0.013523,0.002678,0.000431,0.073808
9966000,0.0324,0.013523,0.002678,0.000431,0.062878
9967000,0.0324,0.013523,0.002678,0.000431,0.049949
9968000,0.0324,0.013523,0.002678,0.000431,0.036551
9969000,0.0324,0.013523,0.002678,0.000431,0.023271
9970000,0.0324,0.013523,0.002678,0.000431,0.020685
9971000,0.0324,0.013523,0.002678,0.000431,0.015631
9972000,0.0324,0.013523,0.002678,0.000431,0.010578
9973000,0.0324,0.013523,0.002678,0.000431,0.002351
9974000,0.0324,0.013523,0.002678,0.000431,0.000000
9975000,0.0324,0.013523,0.002678,0.000431,0.000000
9976000,0.0324,0.013523,0.002678,0.000431,0.000000
9977000,0.0324,0.013523,0.002678,0.000431,0.000000
9978000,0.0324,0.013523,0.002678,0.000431,0.579296
9979000,0.0324,0.013523,0.002678,0.000431,1.440543
9980000,0.0324,0.013523,0.002678,0.000431,1.730838
9981000,0.0324,0.013523,0.002678,0.000431,1.858121
9982000,0.0324,0.013523,0.002678,0.000431,1.898903
9983000,0.0324,0.013523,0.002678,0.000431,1.889148
9984000,0.0324,0.013523,0.002678,0.000431,1.908893
9985000,0.0324,0.013523,0.002678,0.000431,1.770209
9986000,0.0324,0.013523,0.002678,0.000431,1.857533
9987000,0.0324,0.013523,0.002678,0.000431,1.882449
9988000,0.0324,0.013523,0.002678,0.000431,1.967304
9989000,0.0324,0.013523,0.002678,0.000431,1.858356
9990000,0.0324,0.013523,0.002678,0.000431,1.844252
9991000,0.0324,0.013523,0.002678,0.000431,1.878100
9992000,0.0324,0.013523,0.002678,0.000431,1.825800
9993000,0.0324,0.013523,0.002678,0.000431,1.803940
9994000,0.0324,0.013523,0.002678,0.000431,1.690290
9995000,0.0324,0.013523,0.002678,0.000431,1.795596
9996000,0.0324,0.013523,0.002678,0.000431,1.846955
9997000,0.0324,0.013523,0.002678,0.000431,1.981055
9998000,0.0324,0.013523,0.002678,0.000431,1.912301
9999000,0.0324,0.013523,0.002678,0.000431,1.846838
