Cycle,Area(mm^2),PeakDynamic(W),SubthresholdLeakage(W),GateLeakage(W),RunTimeDynamic(W)
16000000,0.0324,0.013523,0.002678,0.000431,0.000000
16000100,0.0324,0.013523,0.002678,0.000431,0.001175
16000200,0.0324,0.013523,0.002678,0.000431,0.000000
16000300,0.0324,0.013523,0.002678,0.000431,0.001175
16000400,0.0324,0.013523,0.002678,0.000431,0.000000
16000500,0.0324,0.013523,0.002678,0.000431,0.001175
16000600,0.0324,0.013523,0.002678,0.000431,0.001175
16000700,0.0324,0.013523,0.002678,0.000431,0.000000
16000800,0.0324,0.013523,0.002678,0.000431,0.000000
16000900,0.0324,0.013523,0.002678,0.000431,0.001175
16001000,0.0324,0.013523,0.002678,0.000431,0.001175
16001100,0.0324,0.013523,0.002678,0.000431,0.000000
16001200,0.0324,0.013523,0.002678,0.000431,0.002351
16001300,0.0324,0.013523,0.002678,0.000431,0.000000
16001400,0.0324,0.013523,0.002678,0.000431,0.000000
16001500,0.0324,0.013523,0.002678,0.000431,0.001175
16001600,0.0324,0.013523,0.002678,0.000431,0.000000
16001700,0.0324,0.013523,0.002678,0.000431,0.001175
16001800,0.0324,0.013523,0.002678,0.000431,0.000000
16001900,0.0324,0.013523,0.002678,0.000431,0.001175
16002000,0.0324,0.013523,0.002678,0.000431,0.001175
16002100,0.0324,0.013523,0.002678,0.000431,0.000000
16002200,0.0324,0.013523,0.002678,0.000431,0.001175
16002300,0.0324,0.013523,0.002678,0.000431,0.001175
16002400,0.0324,0.013523,0.002678,0.000431,0.000000
16002500,0.0324,0.013523,0.002678,0.000431,0.000000
16002600,0.0324,0.013523,0.002678,0.000431,0.001175
16002700,0.0324,0.013523,0.002678,0.000431,0.001175
16002800,0.0324,0.013523,0.002678,0.000431,0.000000
16002900,0.0324,0.013523,0.002678,0.000431,0.000000
16003000,0.0324,0.013523,0.002678,0.000431,0.000000
16003100,0.0324,0.013523,0.002678,0.000431,0.001175
16003200,0.0324,0.013523,0.002678,0.000431,0.001175
16003300,0.0324,0.013523,0.002678,0.000431,0.000000
16003400,0.0324,0.013523,0.002678,0.000431,0.001175
16003500,0.0324,0.013523,0.002678,0.000431,0.000000
16003600,0.0324,0.013523,0.002678,0.000431,0.001175
16003700,0.0324,0.013523,0.002678,0.000431,0.000000
16003800,0.0324,0.013523,0.002678,0.000431,0.000000
16003900,0.0324,0.013523,0.002678,0.000431,0.001175
16004000,0.0324,0.013523,0.002678,0.000431,0.001175
16004100,0.0324,0.013523,0.002678,0.000431,0.000000
16004200,0.0324,0.013523,0.002678,0.000431,0.000000
16004300,0.0324,0.013523,0.002678,0.000431,0.001175
16004400,0.0324,0.013523,0.002678,0.000431,0.000000
16004500,0.0324,0.013523,0.002678,0.000431,0.001175
16004600,0.0324,0.013523,0.002678,0.000431,0.000000
16004700,0.0324,0.013523,0.002678,0.000431,0.000000
16004800,0.0324,0.013523,0.002678,0.000431,0.001175
16004900,0.0324,0.013523,0.002678,0.000431,0.001175
16005000,0.0324,0.013523,0.002678,0.000431,0.000000
16005100,0.0324,0.013523,0.002678,0.000431,0.001175
16005200,0.0324,0.013523,0.002678,0.000431,0.000000
16005300,0.0324,0.013523,0.002678,0.000431,0.001175
16005400,0.0324,0.013523,0.002678,0.000431,0.000000
16005500,0.0324,0.013523,0.002678,0.000431,0.000000
16005600,0.0324,0.013523,0.002678,0.000431,0.001175
16005700,0.0324,0.013523,0.002678,0.000431,0.001175
16005800,0.0324,0.013523,0.002678,0.000431,0.000000
16005900,0.0324,0.013523,0.002678,0.000431,0.001175
16006000,0.0324,0.013523,0.002678,0.000431,0.001175
16006100,0.0324,0.013523,0.002678,0.000431,0.000000
16006200,0.0324,0.013523,0.002678,0.000431,0.001175
16006300,0.0324,0.013523,0.002678,0.000431,0.001175
16006400,0.0324,0.013523,0.002678,0.000431,0.000000
16006500,0.0324,0.013523,0.002678,0.000431,0.001175
16006600,0.0324,0.013523,0.002678,0.000431,0.001175
16006700,0.0324,0.013523,0.002678,0.000431,0.000000
16006800,0.0324,0.013523,0.002678,0.000431,0.000000
16006900,0.0324,0.013523,0.002678,0.000431,0.002351
16007000,0.0324,0.013523,0.002678,0.000431,0.000000
16007100,0.0324,0.013523,0.002678,0.000431,0.001175
16007200,0.0324,0.013523,0.002678,0.000431,0.000000
16007300,0.0324,0.013523,0.002678,0.000431,0.001175
16007400,0.0324,0.013523,0.002678,0.000431,0.000000
16007500,0.0324,0.013523,0.002678,0.000431,0.001175
16007600,0.0324,0.013523,0.002678,0.000431,0.001175
16007700,0.0324,0.013523,0.002678,0.000431,0.000000
16007800,0.0324,0.013523,0.002678,0.000431,0.001175
16007900,0.0324,0.013523,0.002678,0.000431,0.001175
16008000,0.0324,0.013523,0.002678,0.000431,0.000000
16008100,0.0324,0.013523,0.002678,0.000431,0.001175
16008200,0.0324,0.013523,0.002678,0.000431,0.001175
16008300,0.0324,0.013523,0.002678,0.000431,0.000000
16008400,0.0324,0.013523,0.002678,0.000431,0.001175
16008500,0.0324,0.013523,0.002678,0.000431,0.001175
16008600,0.0324,0.013523,0.002678,0.000431,0.000000
16008700,0.0324,0.013523,0.002678,0.000431,0.000000
16008800,0.0324,0.013523,0.002678,0.000431,0.001175
16008900,0.0324,0.013523,0.002678,0.000431,0.000000
16009000,0.0324,0.013523,0.002678,0.000431,0.001175
16009100,0.0324,0.013523,0.002678,0.000431,0.000000
16009200,0.0324,0.013523,0.002678,0.000431,0.000000
16009300,0.0324,0.013523,0.002678,0.000431,0.001175
16009400,0.0324,0.013523,0.002678,0.000431,0.001175
16009500,0.0324,0.013523,0.002678,0.000431,0.000000
16009600,0.0324,0.013523,0.002678,0.000431,0.000000
16009700,0.0324,0.013523,0.002678,0.000431,0.001175
16009800,0.0324,0.013523,0.002678,0.000431,0.001175
16009900,0.0324,0.013523,0.002678,0.000431,0.000000
16010000,0.0324,0.013523,0.002678,0.000431,0.001175
16010100,0.0324,0.013523,0.002678,0.000431,0.001175
16010200,0.0324,0.013523,0.002678,0.000431,0.000000
16010300,0.0324,0.013523,0.002678,0.000431,0.000000
16010400,0.0324,0.013523,0.002678,0.000431,0.000000
16010500,0.0324,0.013523,0.002678,0.000431,0.001175
16010600,0.0324,0.013523,0.002678,0.000431,0.000000
16010700,0.0324,0.013523,0.002678,0.000431,0.000000
16010800,0.0324,0.013523,0.002678,0.000431,0.000000
16010900,0.0324,0.013523,0.002678,0.000431,0.000000
16011000,0.0324,0.013523,0.002678,0.000431,0.001175
16011100,0.0324,0.013523,0.002678,0.000431,0.000000
16011200,0.0324,0.013523,0.002678,0.000431,0.000000
16011300,0.0324,0.013523,0.002678,0.000431,0.001175
16011400,0.0324,0.013523,0.002678,0.000431,0.000000
16011500,0.0324,0.013523,0.002678,0.000431,0.001175
16011600,0.0324,0.013523,0.002678,0.000431,0.000000
16011700,0.0324,0.013523,0.002678,0.000431,0.000000
16011800,0.0324,0.013523,0.002678,0.000431,0.001175
16011900,0.0324,0.013523,0.002678,0.000431,0.000000
16012000,0.0324,0.013523,0.002678,0.000431,0.000000
16012100,0.0324,0.013523,0.002678,0.000431,0.000000
16012200,0.0324,0.013523,0.002678,0.000431,0.000000
16012300,0.0324,0.013523,0.002678,0.000431,0.000000
16012400,0.0324,0.013523,0.002678,0.000431,0.000000
16012500,0.0324,0.013523,0.002678,0.000431,0.001175
16012600,0.0324,0.013523,0.002678,0.000431,0.000000
16012700,0.0324,0.013523,0.002678,0.000431,0.000000
16012800,0.0324,0.013523,0.002678,0.000431,0.001175
16012900,0.0324,0.013523,0.002678,0.000431,0.000000
16013000,0.0324,0.013523,0.002678,0.000431,0.001175
16013100,0.0324,0.013523,0.002678,0.000431,0.000000
16013200,0.0324,0.013523,0.002678,0.000431,0.000000
16013300,0.0324,0.013523,0.002678,0.000431,0.001175
16013400,0.0324,0.013523,0.002678,0.000431,0.000000
16013500,0.0324,0.013523,0.002678,0.000431,0.000000
16013600,0.0324,0.013523,0.002678,0.000431,0.000000
16013700,0.0324,0.013523,0.002678,0.000431,0.000000
16013800,0.0324,0.013523,0.002678,0.000431,0.000000
16013900,0.0324,0.013523,0.002678,0.000431,0.000000
16014000,0.0324,0.013523,0.002678,0.000431,0.001175
16014100,0.0324,0.013523,0.002678,0.000431,0.000000
16014200,0.0324,0.013523,0.002678,0.000431,0.000000
16014300,0.0324,0.013523,0.002678,0.000431,0.001175
16014400,0.0324,0.013523,0.002678,0.000431,0.001175
16014500,0.0324,0.013523,0.002678,0.000431,0.000000
16014600,0.0324,0.013523,0.002678,0.000431,0.000000
16014700,0.0324,0.013523,0.002678,0.000431,0.001175
16014800,0.0324,0.013523,0.002678,0.000431,0.000000
16014900,0.0324,0.013523,0.002678,0.000431,0.000000
16015000,0.0324,0.013523,0.002678,0.000431,0.000000
16015100,0.0324,0.013523,0.002678,0.000431,0.000000
16015200,0.0324,0.013523,0.002678,0.000431,0.000000
16015300,0.0324,0.013523,0.002678,0.000431,0.001175
16015400,0.0324,0.013523,0.002678,0.000431,0.000000
16015500,0.0324,0.013523,0.002678,0.000431,0.000000
16015600,0.0324,0.013523,0.002678,0.000431,0.001175
16015700,0.0324,0.013523,0.002678,0.000431,0.001175
16015800,0.0324,0.013523,0.002678,0.000431,0.000000
16015900,0.0324,0.013523,0.002678,0.000431,0.000000
16016000,0.0324,0.013523,0.002678,0.000431,0.001175
16016100,0.0324,0.013523,0.002678,0.000431,0.000000
16016200,0.0324,0.013523,0.002678,0.000431,0.000000
16016300,0.0324,0.013523,0.002678,0.000431,0.000000
16016400,0.0324,0.013523,0.002678,0.000431,0.000000
16016500,0.0324,0.013523,0.002678,0.000431,0.000000
16016600,0.0324,0.013523,0.002678,0.000431,0.001175
16016700,0.0324,0.013523,0.002678,0.000431,0.000000
16016800,0.0324,0.013523,0.002678,0.000431,0.000000
16016900,0.0324,0.013523,0.002678,0.000431,0.001175
16017000,0.0324,0.013523,0.002678,0.000431,0.000000
16017100,0.0324,0.013523,0.002678,0.000431,0.000000
16017200,0.0324,0.013523,0.002678,0.000431,0.001175
16017300,0.0324,0.013523,0.002678,0.000431,0.000000
16017400,0.0324,0.013523,0.002678,0.000431,0.000000
16017500,0.0324,0.013523,0.002678,0.000431,0.001175
16017600,0.0324,0.013523,0.002678,0.000431,0.000000
16017700,0.0324,0.013523,0.002678,0.000431,0.001175
16017800,0.0324,0.013523,0.002678,0.000431,0.000000
16017900,0.0324,0.013523,0.002678,0.000431,0.000000
16018000,0.0324,0.013523,0.002678,0.000431,0.000000
16018100,0.0324,0.013523,0.002678,0.000431,0.001175
16018200,0.0324,0.013523,0.002678,0.000431,0.000000
16018300,0.0324,0.013523,0.002678,0.000431,0.001175
16018400,0.0324,0.013523,0.002678,0.000431,0.000000
16018500,0.0324,0.013523,0.002678,0.000431,0.000000
16018600,0.0324,0.013523,0.002678,0.000431,0.001175
16018700,0.0324,0.013523,0.002678,0.000431,0.000000
16018800,0.0324,0.013523,0.002678,0.000431,0.000000
16018900,0.0324,0.013523,0.002678,0.000431,0.001175
16019000,0.0324,0.013523,0.002678,0.000431,0.000000
16019100,0.0324,0.013523,0.002678,0.000431,0.000000
16019200,0.0324,0.013523,0.002678,0.000431,0.000000
16019300,0.0324,0.013523,0.002678,0.000431,0.001175
16019400,0.0324,0.013523,0.002678,0.000431,0.000000
16019500,0.0324,0.013523,0.002678,0.000431,0.000000
16019600,0.0324,0.013523,0.002678,0.000431,0.001175
16019700,0.0324,0.013523,0.002678,0.000431,0.000000
16019800,0.0324,0.013523,0.002678,0.000431,0.000000
16019900,0.0324,0.013523,0.002678,0.000431,0.001175
16020000,0.0324,0.013523,0.002678,0.000431,0.000000
16020100,0.0324,0.013523,0.002678,0.000431,0.000000
16020200,0.0324,0.013523,0.002678,0.000431,0.000000
16020300,0.0324,0.013523,0.002678,0.000431,0.000000
16020400,0.0324,0.013523,0.002678,0.000431,0.001175
16020500,0.0324,0.013523,0.002678,0.000431,0.000000
16020600,0.0324,0.013523,0.002678,0.000431,0.000000
16020700,0.0324,0.013523,0.002678,0.000431,0.001175
16020800,0.0324,0.013523,0.002678,0.000431,0.000000
16020900,0.0324,0.013523,0.002678,0.000431,0.000000
16021000,0.0324,0.013523,0.002678,0.000431,0.000000
16021100,0.0324,0.013523,0.002678,0.000431,0.001175
16021200,0.0324,0.013523,0.002678,0.000431,0.000000
16021300,0.0324,0.013523,0.002678,0.000431,0.000000
16021400,0.0324,0.013523,0.002678,0.000431,0.001175
16021500,0.0324,0.013523,0.002678,0.000431,0.000000
16021600,0.0324,0.013523,0.002678,0.000431,0.000000
16021700,0.0324,0.013523,0.002678,0.000431,0.000000
16021800,0.0324,0.013523,0.002678,0.000431,0.000000
16021900,0.0324,0.013523,0.002678,0.000431,0.001175
16022000,0.0324,0.013523,0.002678,0.000431,0.000000
16022100,0.0324,0.013523,0.002678,0.000431,0.000000
16022200,0.0324,0.013523,0.002678,0.000431,0.001175
16022300,0.0324,0.013523,0.002678,0.000431,0.000000
16022400,0.0324,0.013523,0.002678,0.000431,0.001175
16022500,0.0324,0.013523,0.002678,0.000431,0.000000
16022600,0.0324,0.013523,0.002678,0.000431,0.000000
16022700,0.0324,0.013523,0.002678,0.000431,0.001175
16022800,0.0324,0.013523,0.002678,0.000431,0.000000
16022900,0.0324,0.013523,0.002678,0.000431,0.000000
16023000,0.0324,0.013523,0.002678,0.000431,0.000000
16023100,0.0324,0.013523,0.002678,0.000431,0.000000
16023200,0.0324,0.013523,0.002678,0.000431,0.000000
16023300,0.0324,0.013523,0.002678,0.000431,0.001175
16023400,0.0324,0.013523,0.002678,0.000431,0.000000
16023500,0.0324,0.013523,0.002678,0.000431,0.000000
16023600,0.0324,0.013523,0.002678,0.000431,0.001175
16023700,0.0324,0.013523,0.002678,0.000431,0.000000
16023800,0.0324,0.013523,0.002678,0.000431,0.000000
16023900,0.0324,0.013523,0.002678,0.000431,0.001175
16024000,0.0324,0.013523,0.002678,0.000431,0.000000
16024100,0.0324,0.013523,0.002678,0.000431,0.000000
16024200,0.0324,0.013523,0.002678,0.000431,0.001175
16024300,0.0324,0.013523,0.002678,0.000431,0.000000
16024400,0.0324,0.013523,0.002678,0.000431,0.000000
16024500,0.0324,0.013523,0.002678,0.000431,0.000000
16024600,0.0324,0.013523,0.002678,0.000431,0.000000
16024700,0.0324,0.013523,0.002678,0.000431,0.001175
16024800,0.0324,0.013523,0.002678,0.000431,0.000000
16024900,0.0324,0.013523,0.002678,0.000431,0.000000
16025000,0.0324,0.013523,0.002678,0.000431,0.000000
16025100,0.0324,0.013523,0.002678,0.000431,0.001175
16025200,0.0324,0.013523,0.002678,0.000431,0.000000
16025300,0.0324,0.013523,0.002678,0.000431,0.001175
16025400,0.0324,0.013523,0.002678,0.000431,0.000000
16025500,0.0324,0.013523,0.002678,0.000431,0.000000
16025600,0.0324,0.013523,0.002678,0.000431,0.000000
16025700,0.0324,0.013523,0.002678,0.000431,0.001175
16025800,0.0324,0.013523,0.002678,0.000431,0.000000
16025900,0.0324,0.013523,0.002678,0.000431,0.000000
16026000,0.0324,0.013523,0.002678,0.000431,0.000000
16026100,0.0324,0.013523,0.002678,0.000431,0.000000
16026200,0.0324,0.013523,0.002678,0.000431,0.001175
16026300,0.0324,0.013523,0.002678,0.000431,0.000000
16026400,0.0324,0.013523,0.002678,0.000431,0.000000
16026500,0.0324,0.013523,0.002678,0.000431,0.001175
16026600,0.0324,0.013523,0.002678,0.000431,0.000000
16026700,0.0324,0.013523,0.002678,0.000431,0.000000
16026800,0.0324,0.013523,0.002678,0.000431,0.001175
16026900,0.0324,0.013523,0.002678,0.000431,0.000000
16027000,0.0324,0.013523,0.002678,0.000431,0.000000
16027100,0.0324,0.013523,0.002678,0.000431,0.001175
16027200,0.0324,0.013523,0.002678,0.000431,0.000000
16027300,0.0324,0.013523,0.002678,0.000431,0.000000
16027400,0.0324,0.013523,0.002678,0.000431,0.000000
16027500,0.0324,0.013523,0.002678,0.000431,0.000000
16027600,0.0324,0.013523,0.002678,0.000431,0.000000
16027700,0.0324,0.013523,0.002678,0.000431,0.001175
16027800,0.0324,0.013523,0.002678,0.000431,0.000000
16027900,0.0324,0.013523,0.002678,0.000431,0.000000
16028000,0.0324,0.013523,0.002678,0.000431,0.002351
16028100,0.0324,0.013523,0.002678,0.000431,0.000000
16028200,0.0324,0.013523,0.002678,0.000431,0.000000
16028300,0.0324,0.013523,0.002678,0.000431,0.000000
16028400,0.0324,0.013523,0.002678,0.000431,0.001175
16028500,0.0324,0.013523,0.002678,0.000431,0.000000
16028600,0.0324,0.013523,0.002678,0.000431,0.000000
16028700,0.0324,0.013523,0.002678,0.000431,0.000000
16028800,0.0324,0.013523,0.002678,0.000431,0.000000
16028900,0.0324,0.013523,0.002678,0.000431,0.000000
16029000,0.0324,0.013523,0.002678,0.000431,0.001175
16029100,0.0324,0.013523,0.002678,0.000431,0.000000
16029200,0.0324,0.013523,0.002678,0.000431,0.000000
16029300,0.0324,0.013523,0.002678,0.000431,0.001175
16029400,0.0324,0.013523,0.002678,0.000431,0.001175
16029500,0.0324,0.013523,0.002678,0.000431,0.000000
16029600,0.0324,0.013523,0.002678,0.000431,0.000000
16029700,0.0324,0.013523,0.002678,0.000431,0.001175
16029800,0.0324,0.013523,0.002678,0.000431,0.000000
16029900,0.0324,0.013523,0.002678,0.000431,0.000000
16030000,0.0324,0.013523,0.002678,0.000431,0.000000
16030100,0.0324,0.013523,0.002678,0.000431,0.000000
16030200,0.0324,0.013523,0.002678,0.000431,0.001175
16030300,0.0324,0.013523,0.002678,0.000431,0.000000
16030400,0.0324,0.013523,0.002678,0.000431,0.000000
16030500,0.0324,0.013523,0.002678,0.000431,0.001175
16030600,0.0324,0.013523,0.002678,0.000431,0.000000
16030700,0.0324,0.013523,0.002678,0.000431,0.000000
16030800,0.0324,0.013523,0.002678,0.000431,0.000000
16030900,0.0324,0.013523,0.002678,0.000431,0.001175
16031000,0.0324,0.013523,0.002678,0.000431,0.000000
16031100,0.0324,0.013523,0.002678,0.000431,0.000000
16031200,0.0324,0.013523,0.002678,0.000431,0.001175
16031300,0.0324,0.013523,0.002678,0.000431,0.000000
16031400,0.0324,0.013523,0.002678,0.000431,0.000000
16031500,0.0324,0.013523,0.002678,0.000431,0.000000
16031600,0.0324,0.013523,0.002678,0.000431,0.000000
16031700,0.0324,0.013523,0.002678,0.000431,0.001175
16031800,0.0324,0.013523,0.002678,0.000431,0.000000
16031900,0.0324,0.013523,0.002678,0.000431,0.000000
16032000,0.0324,0.013523,0.002678,0.000431,0.001175
16032100,0.0324,0.013523,0.002678,0.000431,0.000000
16032200,0.0324,0.013523,0.002678,0.000431,0.000000
16032300,0.0324,0.013523,0.002678,0.000431,0.000000
16032400,0.0324,0.013523,0.002678,0.000431,0.001175
16032500,0.0324,0.013523,0.002678,0.000431,0.000000
16032600,0.0324,0.013523,0.002678,0.000431,0.000000
16032700,0.0324,0.013523,0.002678,0.000431,0.002351
16032800,0.0324,0.013523,0.002678,0.000431,0.000000
16032900,0.0324,0.013523,0.002678,0.000431,0.000000
16033000,0.0324,0.013523,0.002678,0.000431,0.000000
16033100,0.0324,0.013523,0.002678,0.000431,0.001175
16033200,0.0324,0.013523,0.002678,0.000431,0.001175
16033300,0.0324,0.013523,0.002678,0.000431,0.000000
16033400,0.0324,0.013523,0.002678,0.000431,0.000000
16033500,0.0324,0.013523,0.002678,0.000431,0.001175
16033600,0.0324,0.013523,0.002678,0.000431,0.000000
16033700,0.0324,0.013523,0.002678,0.000431,0.000000
16033800,0.0324,0.013523,0.002678,0.000431,0.000000
16033900,0.0324,0.013523,0.002678,0.000431,0.000000
16034000,0.0324,0.013523,0.002678,0.000431,0.000000
16034100,0.0324,0.013523,0.002678,0.000431,0.001175
16034200,0.0324,0.013523,0.002678,0.000431,0.000000
16034300,0.0324,0.013523,0.002678,0.000431,0.000000
16034400,0.0324,0.013523,0.002678,0.000431,0.001175
16034500,0.0324,0.013523,0.002678,0.000431,0.001175
16034600,0.0324,0.013523,0.002678,0.000431,0.000000
16034700,0.0324,0.013523,0.002678,0.000431,0.000000
16034800,0.0324,0.013523,0.002678,0.000431,0.002351
16034900,0.0324,0.013523,0.002678,0.000431,0.000000
16035000,0.0324,0.013523,0.002678,0.000431,0.000000
16035100,0.0324,0.013523,0.002678,0.000431,0.000000
16035200,0.0324,0.013523,0.002678,0.000431,0.001175
16035300,0.0324,0.013523,0.002678,0.000431,0.000000
16035400,0.0324,0.013523,0.002678,0.000431,0.000000
16035500,0.0324,0.013523,0.002678,0.000431,0.001175
16035600,0.0324,0.013523,0.002678,0.000431,0.000000
16035700,0.0324,0.013523,0.002678,0.000431,0.000000
16035800,0.0324,0.013523,0.002678,0.000431,0.001175
16035900,0.0324,0.013523,0.002678,0.000431,0.000000
16036000,0.0324,0.013523,0.002678,0.000431,0.000000
16036100,0.0324,0.013523,0.002678,0.000431,0.000000
16036200,0.0324,0.013523,0.002678,0.000431,0.000000
16036300,0.0324,0.013523,0.002678,0.000431,0.001175
16036400,0.0324,0.013523,0.002678,0.000431,0.000000
16036500,0.0324,0.013523,0.002678,0.000431,0.000000
16036600,0.0324,0.013523,0.002678,0.000431,0.001175
16036700,0.0324,0.013523,0.002678,0.000431,0.000000
16036800,0.0324,0.013523,0.002678,0.000431,0.000000
16036900,0.0324,0.013523,0.002678,0.000431,0.001175
16037000,0.0324,0.013523,0.002678,0.000431,0.000000
16037100,0.0324,0.013523,0.002678,0.000431,0.000000
16037200,0.0324,0.013523,0.002678,0.000431,0.001175
16037300,0.0324,0.013523,0.002678,0.000431,0.000000
16037400,0.0324,0.013523,0.002678,0.000431,0.000000
16037500,0.0324,0.013523,0.002678,0.000431,0.000000
16037600,0.0324,0.013523,0.002678,0.000431,0.000000
16037700,0.0324,0.013523,0.002678,0.000431,0.001175
16037800,0.0324,0.013523,0.002678,0.000431,0.000000
16037900,0.0324,0.013523,0.002678,0.000431,0.000000
16038000,0.0324,0.013523,0.002678,0.000431,0.002351
16038100,0.0324,0.013523,0.002678,0.000431,0.000000
16038200,0.0324,0.013523,0.002678,0.000431,0.000000
16038300,0.0324,0.013523,0.002678,0.000431,0.000000
16038400,0.0324,0.013523,0.002678,0.000431,0.001175
16038500,0.0324,0.013523,0.002678,0.000431,0.000000
16038600,0.0324,0.013523,0.002678,0.000431,0.000000
16038700,0.0324,0.013523,0.002678,0.000431,0.000000
16038800,0.0324,0.013523,0.002678,0.000431,0.001175
16038900,0.0324,0.013523,0.002678,0.000431,0.000000
16039000,0.0324,0.013523,0.002678,0.000431,0.000000
16039100,0.0324,0.013523,0.002678,0.000431,0.001175
16039200,0.0324,0.013523,0.002678,0.000431,0.000000
16039300,0.0324,0.013523,0.002678,0.000431,0.000000
16039400,0.0324,0.013523,0.002678,0.000431,0.000000
16039500,0.0324,0.013523,0.002678,0.000431,0.001175
16039600,0.0324,0.013523,0.002678,0.000431,0.000000
16039700,0.0324,0.013523,0.002678,0.000431,0.000000
16039800,0.0324,0.013523,0.002678,0.000431,0.001175
16039900,0.0324,0.013523,0.002678,0.000431,0.000000
16040000,0.0324,0.013523,0.002678,0.000431,0.000000
16040100,0.0324,0.013523,0.002678,0.000431,0.000000
16040200,0.0324,0.013523,0.002678,0.000431,0.001175
16040300,0.0324,0.013523,0.002678,0.000431,0.000000
16040400,0.0324,0.013523,0.002678,0.000431,0.000000
16040500,0.0324,0.013523,0.002678,0.000431,0.001175
16040600,0.0324,0.013523,0.002678,0.000431,0.000000
16040700,0.0324,0.013523,0.002678,0.000431,0.000000
16040800,0.0324,0.013523,0.002678,0.000431,0.000000
16040900,0.0324,0.013523,0.002678,0.000431,0.001175
16041000,0.0324,0.013523,0.002678,0.000431,0.000000
16041100,0.0324,0.013523,0.002678,0.000431,0.000000
16041200,0.0324,0.013523,0.002678,0.000431,0.000000
16041300,0.0324,0.013523,0.002678,0.000431,0.001175
16041400,0.0324,0.013523,0.002678,0.000431,0.000000
16041500,0.0324,0.013523,0.002678,0.000431,0.000000
16041600,0.0324,0.013523,0.002678,0.000431,0.001175
16041700,0.0324,0.013523,0.002678,0.000431,0.000000
16041800,0.0324,0.013523,0.002678,0.000431,0.000000
16041900,0.0324,0.013523,0.002678,0.000431,0.001175
16042000,0.0324,0.013523,0.002678,0.000431,0.000000
16042100,0.0324,0.013523,0.002678,0.000431,0.000000
16042200,0.0324,0.013523,0.002678,0.000431,0.000000
16042300,0.0324,0.013523,0.002678,0.000431,0.000000
16042400,0.0324,0.013523,0.002678,0.000431,0.001175
16042500,0.0324,0.013523,0.002678,0.000431,0.000000
16042600,0.0324,0.013523,0.002678,0.000431,0.000000
16042700,0.0324,0.013523,0.002678,0.000431,0.001175
16042800,0.0324,0.013523,0.002678,0.000431,0.000000
16042900,0.0324,0.013523,0.002678,0.000431,0.000000
16043000,0.0324,0.013523,0.002678,0.000431,0.000000
16043100,0.0324,0.013523,0.002678,0.000431,0.001175
16043200,0.0324,0.013523,0.002678,0.000431,0.000000
16043300,0.0324,0.013523,0.002678,0.000431,0.000000
16043400,0.0324,0.013523,0.002678,0.000431,0.001175
16043500,0.0324,0.013523,0.002678,0.000431,0.000000
16043600,0.0324,0.013523,0.002678,0.000431,0.000000
16043700,0.0324,0.013523,0.002678,0.000431,0.000000
16043800,0.0324,0.013523,0.002678,0.000431,0.000000
16043900,0.0324,0.013523,0.002678,0.000431,0.001175
16044000,0.0324,0.013523,0.002678,0.000431,0.000000
16044100,0.0324,0.013523,0.002678,0.000431,0.000000
16044200,0.0324,0.013523,0.002678,0.000431,0.001175
16044300,0.0324,0.013523,0.002678,0.000431,0.000000
16044400,0.0324,0.013523,0.002678,0.000431,0.000000
16044500,0.0324,0.013523,0.002678,0.000431,0.001175
16044600,0.0324,0.013523,0.002678,0.000431,0.000000
16044700,0.0324,0.013523,0.002678,0.000431,0.000000
16044800,0.0324,0.013523,0.002678,0.000431,0.000000
16044900,0.0324,0.013523,0.002678,0.000431,0.001175
16045000,0.0324,0.013523,0.002678,0.000431,0.000000
16045100,0.0324,0.013523,0.002678,0.000431,0.000000
16045200,0.0324,0.013523,0.002678,0.000431,0.000000
16045300,0.0324,0.013523,0.002678,0.000431,0.001175
16045400,0.0324,0.013523,0.002678,0.000431,0.000000
16045500,0.0324,0.013523,0.002678,0.000431,0.000000
16045600,0.0324,0.013523,0.002678,0.000431,0.001175
16045700,0.0324,0.013523,0.002678,0.000431,0.000000
16045800,0.0324,0.013523,0.002678,0.000431,0.000000
16045900,0.0324,0.013523,0.002678,0.000431,0.000000
16046000,0.0324,0.013523,0.002678,0.000431,0.001175
16046100,0.0324,0.013523,0.002678,0.000431,0.000000
16046200,0.0324,0.013523,0.002678,0.000431,0.000000
16046300,0.0324,0.013523,0.002678,0.000431,0.001175
16046400,0.0324,0.013523,0.002678,0.000431,0.000000
16046500,0.0324,0.013523,0.002678,0.000431,0.000000
16046600,0.0324,0.013523,0.002678,0.000431,0.000000
16046700,0.0324,0.013523,0.002678,0.000431,0.000000
16046800,0.0324,0.013523,0.002678,0.000431,0.001175
16046900,0.0324,0.013523,0.002678,0.000431,0.000000
16047000,0.0324,0.013523,0.002678,0.000431,0.000000
16047100,0.0324,0.013523,0.002678,0.000431,0.001175
16047200,0.0324,0.013523,0.002678,0.000431,0.000000
16047300,0.0324,0.013523,0.002678,0.000431,0.000000
16047400,0.0324,0.013523,0.002678,0.000431,0.001175
16047500,0.0324,0.013523,0.002678,0.000431,0.000000
16047600,0.0324,0.013523,0.002678,0.000431,0.000000
16047700,0.0324,0.013523,0.002678,0.000431,0.001175
16047800,0.0324,0.013523,0.002678,0.000431,0.000000
16047900,0.0324,0.013523,0.002678,0.000431,0.000000
16048000,0.0324,0.013523,0.002678,0.000431,0.000000
16048100,0.0324,0.013523,0.002678,0.000431,0.000000
16048200,0.0324,0.013523,0.002678,0.000431,0.001175
16048300,0.0324,0.013523,0.002678,0.000431,0.000000
16048400,0.0324,0.013523,0.002678,0.000431,0.000000
16048500,0.0324,0.013523,0.002678,0.000431,0.001175
16048600,0.0324,0.013523,0.002678,0.000431,0.000000
16048700,0.0324,0.013523,0.002678,0.000431,0.000000
16048800,0.0324,0.013523,0.002678,0.000431,0.000000
16048900,0.0324,0.013523,0.002678,0.000431,0.001175
16049000,0.0324,0.013523,0.002678,0.000431,0.000000
16049100,0.0324,0.013523,0.002678,0.000431,0.000000
16049200,0.0324,0.013523,0.002678,0.000431,0.001175
16049300,0.0324,0.013523,0.002678,0.000431,0.000000
16049400,0.0324,0.013523,0.002678,0.000431,0.000000
16049500,0.0324,0.013523,0.002678,0.000431,0.000000
16049600,0.0324,0.013523,0.002678,0.000431,0.000000
16049700,0.0324,0.013523,0.002678,0.000431,0.001175
16049800,0.0324,0.013523,0.002678,0.000431,0.000000
16049900,0.0324,0.013523,0.002678,0.000431,0.000000
16050000,0.0324,0.013523,0.002678,0.000431,0.001175
16050100,0.0324,0.013523,0.002678,0.000431,0.000000
16050200,0.0324,0.013523,0.002678,0.000431,0.000000
16050300,0.0324,0.013523,0.002678,0.000431,0.000000
16050400,0.0324,0.013523,0.002678,0.000431,0.001175
16050500,0.0324,0.013523,0.002678,0.000431,0.000000
16050600,0.0324,0.013523,0.002678,0.000431,0.000000
16050700,0.0324,0.013523,0.002678,0.000431,0.001175
16050800,0.0324,0.013523,0.002678,0.000431,0.000000
16050900,0.0324,0.013523,0.002678,0.000431,0.000000
16051000,0.0324,0.013523,0.002678,0.000431,0.000000
16051100,0.0324,0.013523,0.002678,0.000431,0.001175
16051200,0.0324,0.013523,0.002678,0.000431,0.000000
16051300,0.0324,0.013523,0.002678,0.000431,0.000000
16051400,0.0324,0.013523,0.002678,0.000431,0.001175
16051500,0.0324,0.013523,0.002678,0.000431,0.000000
16051600,0.0324,0.013523,0.002678,0.000431,0.000000
16051700,0.0324,0.013523,0.002678,0.000431,0.000000
16051800,0.0324,0.013523,0.002678,0.000431,0.001175
16051900,0.0324,0.013523,0.002678,0.000431,0.000000
16052000,0.0324,0.013523,0.002678,0.000431,0.000000
16052100,0.0324,0.013523,0.002678,0.000431,0.001175
16052200,0.0324,0.013523,0.002678,0.000431,0.000000
16052300,0.0324,0.013523,0.002678,0.000431,0.000000
16052400,0.0324,0.013523,0.002678,0.000431,0.000000
16052500,0.0324,0.013523,0.002678,0.000431,0.000000
16052600,0.0324,0.013523,0.002678,0.000431,0.001175
16052700,0.0324,0.013523,0.002678,0.000431,0.000000
16052800,0.0324,0.013523,0.002678,0.000431,0.000000
16052900,0.0324,0.013523,0.002678,0.000431,0.002351
16053000,0.0324,0.013523,0.002678,0.000431,0.000000
16053100,0.0324,0.013523,0.002678,0.000431,0.000000
16053200,0.0324,0.013523,0.002678,0.000431,0.001175
16053300,0.0324,0.013523,0.002678,0.000431,0.000000
16053400,0.0324,0.013523,0.002678,0.000431,0.000000
16053500,0.0324,0.013523,0.002678,0.000431,0.000000
16053600,0.0324,0.013523,0.002678,0.000431,0.000000
16053700,0.0324,0.013523,0.002678,0.000431,0.000000
16053800,0.0324,0.013523,0.002678,0.000431,0.000000
16053900,0.0324,0.013523,0.002678,0.000431,0.001175
16054000,0.0324,0.013523,0.002678,0.000431,0.000000
16054100,0.0324,0.013523,0.002678,0.000431,0.000000
16054200,0.0324,0.013523,0.002678,0.000431,0.001175
16054300,0.0324,0.013523,0.002678,0.000431,0.001175
16054400,0.0324,0.013523,0.002678,0.000431,0.000000
16054500,0.0324,0.013523,0.002678,0.000431,0.000000
16054600,0.0324,0.013523,0.002678,0.000431,0.000000
16054700,0.0324,0.013523,0.002678,0.000431,0.001175
16054800,0.0324,0.013523,0.002678,0.000431,0.000000
16054900,0.0324,0.013523,0.002678,0.000431,0.000000
16055000,0.0324,0.013523,0.002678,0.000431,0.000000
16055100,0.0324,0.013523,0.002678,0.000431,0.000000
16055200,0.0324,0.013523,0.002678,0.000431,0.000000
16055300,0.0324,0.013523,0.002678,0.000431,0.001175
16055400,0.0324,0.013523,0.002678,0.000431,0.000000
16055500,0.0324,0.013523,0.002678,0.000431,0.000000
16055600,0.0324,0.013523,0.002678,0.000431,0.001175
16055700,0.0324,0.013523,0.002678,0.000431,0.000000
16055800,0.0324,0.013523,0.002678,0.000431,0.001175
16055900,0.0324,0.013523,0.002678,0.000431,0.000000
16056000,0.0324,0.013523,0.002678,0.000431,0.000000
16056100,0.0324,0.013523,0.002678,0.000431,0.001175
16056200,0.0324,0.013523,0.002678,0.000431,0.000000
16056300,0.0324,0.013523,0.002678,0.000431,0.000000
16056400,0.0324,0.013523,0.002678,0.000431,0.000000
16056500,0.0324,0.013523,0.002678,0.000431,0.000000
16056600,0.0324,0.013523,0.002678,0.000431,0.000000
16056700,0.0324,0.013523,0.002678,0.000431,0.000000
16056800,0.0324,0.013523,0.002678,0.000431,0.001175
16056900,0.0324,0.013523,0.002678,0.000431,0.000000
16057000,0.0324,0.013523,0.002678,0.000431,0.000000
16057100,0.0324,0.013523,0.002678,0.000431,0.001175
16057200,0.0324,0.013523,0.002678,0.000431,0.001175
16057300,0.0324,0.013523,0.002678,0.000431,0.000000
16057400,0.0324,0.013523,0.002678,0.000431,0.000000
16057500,0.0324,0.013523,0.002678,0.000431,0.001175
16057600,0.0324,0.013523,0.002678,0.000431,0.000000
16057700,0.0324,0.013523,0.002678,0.000431,0.000000
16057800,0.0324,0.013523,0.002678,0.000431,0.000000
16057900,0.0324,0.013523,0.002678,0.000431,0.000000
16058000,0.0324,0.013523,0.002678,0.000431,0.000000
16058100,0.0324,0.013523,0.002678,0.000431,0.000000
16058200,0.0324,0.013523,0.002678,0.000431,0.001175
16058300,0.0324,0.013523,0.002678,0.000431,0.000000
16058400,0.0324,0.013523,0.002678,0.000431,0.000000
16058500,0.0324,0.013523,0.002678,0.000431,0.001175
16058600,0.0324,0.013523,0.002678,0.000431,0.000000
16058700,0.0324,0.013523,0.002678,0.000431,0.001175
16058800,0.0324,0.013523,0.002678,0.000431,0.000000
16058900,0.0324,0.013523,0.002678,0.000431,0.000000
16059000,0.0324,0.013523,0.002678,0.000431,0.001175
16059100,0.0324,0.013523,0.002678,0.000431,0.000000
16059200,0.0324,0.013523,0.002678,0.000431,0.000000
16059300,0.0324,0.013523,0.002678,0.000431,0.000000
16059400,0.0324,0.013523,0.002678,0.000431,0.000000
16059500,0.0324,0.013523,0.002678,0.000431,0.000000
16059600,0.0324,0.013523,0.002678,0.000431,0.000000
16059700,0.0324,0.013523,0.002678,0.000431,0.001175
16059800,0.0324,0.013523,0.002678,0.000431,0.000000
16059900,0.0324,0.013523,0.002678,0.000431,0.000000
16060000,0.0324,0.013523,0.002678,0.000431,0.001175
16060100,0.0324,0.013523,0.002678,0.000431,0.001175
16060200,0.0324,0.013523,0.002678,0.000431,0.000000
16060300,0.0324,0.013523,0.002678,0.000431,0.000000
16060400,0.0324,0.013523,0.002678,0.000431,0.001175
16060500,0.0324,0.013523,0.002678,0.000431,0.000000
16060600,0.0324,0.013523,0.002678,0.000431,0.000000
16060700,0.0324,0.013523,0.002678,0.000431,0.000000
16060800,0.0324,0.013523,0.002678,0.000431,0.000000
16060900,0.0324,0.013523,0.002678,0.000431,0.000000
16061000,0.0324,0.013523,0.002678,0.000431,0.000000
16061100,0.0324,0.013523,0.002678,0.000431,0.001175
16061200,0.0324,0.013523,0.002678,0.000431,0.000000
16061300,0.0324,0.013523,0.002678,0.000431,0.000000
16061400,0.0324,0.013523,0.002678,0.000431,0.001175
16061500,0.0324,0.013523,0.002678,0.000431,0.000000
16061600,0.0324,0.013523,0.002678,0.000431,0.001175
16061700,0.0324,0.013523,0.002678,0.000431,0.000000
16061800,0.0324,0.013523,0.002678,0.000431,0.000000
16061900,0.0324,0.013523,0.002678,0.000431,0.001175
16062000,0.0324,0.013523,0.002678,0.000431,0.000000
16062100,0.0324,0.013523,0.002678,0.000431,0.000000
16062200,0.0324,0.013523,0.002678,0.000431,0.000000
16062300,0.0324,0.013523,0.002678,0.000431,0.000000
16062400,0.0324,0.013523,0.002678,0.000431,0.000000
16062500,0.0324,0.013523,0.002678,0.000431,0.000000
16062600,0.0324,0.013523,0.002678,0.000431,0.001175
16062700,0.0324,0.013523,0.002678,0.000431,0.000000
16062800,0.0324,0.013523,0.002678,0.000431,0.000000
16062900,0.0324,0.013523,0.002678,0.000431,0.001175
16063000,0.0324,0.013523,0.002678,0.000431,0.001175
16063100,0.0324,0.013523,0.002678,0.000431,0.000000
16063200,0.0324,0.013523,0.002678,0.000431,0.000000
16063300,0.0324,0.013523,0.002678,0.000431,0.001175
16063400,0.0324,0.013523,0.002678,0.000431,0.000000
16063500,0.0324,0.013523,0.002678,0.000431,0.000000
16063600,0.0324,0.013523,0.002678,0.000431,0.000000
16063700,0.0324,0.013523,0.002678,0.000431,0.000000
16063800,0.0324,0.013523,0.002678,0.000431,0.000000
16063900,0.0324,0.013523,0.002678,0.000431,0.000000
16064000,0.0324,0.013523,0.002678,0.000431,0.001175
16064100,0.0324,0.013523,0.002678,0.000431,0.000000
16064200,0.0324,0.013523,0.002678,0.000431,0.000000
16064300,0.0324,0.013523,0.002678,0.000431,0.001175
16064400,0.0324,0.013523,0.002678,0.000431,0.000000
16064500,0.0324,0.013523,0.002678,0.000431,0.001175
16064600,0.0324,0.013523,0.002678,0.000431,0.000000
16064700,0.0324,0.013523,0.002678,0.000431,0.000000
16064800,0.0324,0.013523,0.002678,0.000431,0.001175
16064900,0.0324,0.013523,0.002678,0.000431,0.000000
16065000,0.0324,0.013523,0.002678,0.000431,0.000000
16065100,0.0324,0.013523,0.002678,0.000431,0.000000
16065200,0.0324,0.013523,0.002678,0.000431,0.000000
16065300,0.0324,0.013523,0.002678,0.000431,0.000000
16065400,0.0324,0.013523,0.002678,0.000431,0.001175
16065500,0.0324,0.013523,0.002678,0.000431,0.000000
16065600,0.0324,0.013523,0.002678,0.000431,0.000000
16065700,0.0324,0.013523,0.002678,0.000431,0.001175
16065800,0.0324,0.013523,0.002678,0.000431,0.000000
16065900,0.0324,0.013523,0.002678,0.000431,0.001175
16066000,0.0324,0.013523,0.002678,0.000431,0.000000
16066100,0.0324,0.013523,0.002678,0.000431,0.000000
16066200,0.0324,0.013523,0.002678,0.000431,0.001175
16066300,0.0324,0.013523,0.002678,0.000431,0.000000
16066400,0.0324,0.013523,0.002678,0.000431,0.000000
16066500,0.0324,0.013523,0.002678,0.000431,0.000000
16066600,0.0324,0.013523,0.002678,0.000431,0.001175
16066700,0.0324,0.013523,0.002678,0.000431,0.000000
16066800,0.0324,0.013523,0.002678,0.000431,0.000000
16066900,0.0324,0.013523,0.002678,0.000431,0.001175
16067000,0.0324,0.013523,0.002678,0.000431,0.000000
16067100,0.0324,0.013523,0.002678,0.000431,0.000000
16067200,0.0324,0.013523,0.002678,0.000431,0.000000
16067300,0.0324,0.013523,0.002678,0.000431,0.000000
16067400,0.0324,0.013523,0.002678,0.000431,0.001175
16067500,0.0324,0.013523,0.002678,0.000431,0.000000
16067600,0.0324,0.013523,0.002678,0.000431,0.000000
16067700,0.0324,0.013523,0.002678,0.000431,0.001175
16067800,0.0324,0.013523,0.002678,0.000431,0.000000
16067900,0.0324,0.013523,0.002678,0.000431,0.000000
16068000,0.0324,0.013523,0.002678,0.000431,0.000000
16068100,0.0324,0.013523,0.002678,0.000431,0.001175
16068200,0.0324,0.013523,0.002678,0.000431,0.000000
16068300,0.0324,0.013523,0.002678,0.000431,0.000000
16068400,0.0324,0.013523,0.002678,0.000431,0.001175
16068500,0.0324,0.013523,0.002678,0.000431,0.000000
16068600,0.0324,0.013523,0.002678,0.000431,0.000000
16068700,0.0324,0.013523,0.002678,0.000431,0.000000
16068800,0.0324,0.013523,0.002678,0.000431,0.001175
16068900,0.0324,0.013523,0.002678,0.000431,0.000000
16069000,0.0324,0.013523,0.002678,0.000431,0.000000
16069100,0.0324,0.013523,0.002678,0.000431,0.001175
16069200,0.0324,0.013523,0.002678,0.000431,0.000000
16069300,0.0324,0.013523,0.002678,0.000431,0.000000
16069400,0.0324,0.013523,0.002678,0.000431,0.000000
16069500,0.0324,0.013523,0.002678,0.000431,0.001175
16069600,0.0324,0.013523,0.002678,0.000431,0.000000
16069700,0.0324,0.013523,0.002678,0.000431,0.000000
16069800,0.0324,0.013523,0.002678,0.000431,0.001175
16069900,0.0324,0.013523,0.002678,0.000431,0.000000
16070000,0.0324,0.013523,0.002678,0.000431,0.000000
16070100,0.0324,0.013523,0.002678,0.000431,0.000000
16070200,0.0324,0.013523,0.002678,0.000431,0.000000
16070300,0.0324,0.013523,0.002678,0.000431,0.001175
16070400,0.0324,0.013523,0.002678,0.000431,0.000000
16070500,0.0324,0.013523,0.002678,0.000431,0.000000
16070600,0.0324,0.013523,0.002678,0.000431,0.001175
16070700,0.0324,0.013523,0.002678,0.000431,0.000000
16070800,0.0324,0.013523,0.002678,0.000431,0.000000
16070900,0.0324,0.013523,0.002678,0.000431,0.000000
16071000,0.0324,0.013523,0.002678,0.000431,0.001175
16071100,0.0324,0.013523,0.002678,0.000431,0.000000
16071200,0.0324,0.013523,0.002678,0.000431,0.000000
16071300,0.0324,0.013523,0.002678,0.000431,0.001175
16071400,0.0324,0.013523,0.002678,0.000431,0.000000
16071500,0.0324,0.013523,0.002678,0.000431,0.000000
16071600,0.0324,0.013523,0.002678,0.000431,0.000000
16071700,0.0324,0.013523,0.002678,0.000431,0.001175
16071800,0.0324,0.013523,0.002678,0.000431,0.000000
16071900,0.0324,0.013523,0.002678,0.000431,0.000000
16072000,0.0324,0.013523,0.002678,0.000431,0.000000
16072100,0.0324,0.013523,0.002678,0.000431,0.001175
16072200,0.0324,0.013523,0.002678,0.000431,0.000000
16072300,0.0324,0.013523,0.002678,0.000431,0.001175
16072400,0.0324,0.013523,0.002678,0.000431,0.000000
16072500,0.0324,0.013523,0.002678,0.000431,0.000000
16072600,0.0324,0.013523,0.002678,0.000431,0.001175
16072700,0.0324,0.013523,0.002678,0.000431,0.000000
16072800,0.0324,0.013523,0.002678,0.000431,0.000000
16072900,0.0324,0.013523,0.002678,0.000431,0.000000
16073000,0.0324,0.013523,0.002678,0.000431,0.000000
16073100,0.0324,0.013523,0.002678,0.000431,0.000000
16073200,0.0324,0.013523,0.002678,0.000431,0.001175
16073300,0.0324,0.013523,0.002678,0.000431,0.000000
16073400,0.0324,0.013523,0.002678,0.000431,0.000000
16073500,0.0324,0.013523,0.002678,0.000431,0.001175
16073600,0.0324,0.013523,0.002678,0.000431,0.000000
16073700,0.0324,0.013523,0.002678,0.000431,0.000000
16073800,0.0324,0.013523,0.002678,0.000431,0.001175
16073900,0.0324,0.013523,0.002678,0.000431,0.000000
16074000,0.0324,0.013523,0.002678,0.000431,0.000000
16074100,0.0324,0.013523,0.002678,0.000431,0.001175
16074200,0.0324,0.013523,0.002678,0.000431,0.000000
16074300,0.0324,0.013523,0.002678,0.000431,0.000000
16074400,0.0324,0.013523,0.002678,0.000431,0.000000
16074500,0.0324,0.013523,0.002678,0.000431,0.000000
16074600,0.0324,0.013523,0.002678,0.000431,0.001175
16074700,0.0324,0.013523,0.002678,0.000431,0.000000
16074800,0.0324,0.013523,0.002678,0.000431,0.000000
16074900,0.0324,0.013523,0.002678,0.000431,0.001175
16075000,0.0324,0.013523,0.002678,0.000431,0.000000
16075100,0.0324,0.013523,0.002678,0.000431,0.000000
16075200,0.0324,0.013523,0.002678,0.000431,0.001175
16075300,0.0324,0.013523,0.002678,0.000431,0.000000
16075400,0.0324,0.013523,0.002678,0.000431,0.000000
16075500,0.0324,0.013523,0.002678,0.000431,0.001175
16075600,0.0324,0.013523,0.002678,0.000431,0.000000
16075700,0.0324,0.013523,0.002678,0.000431,0.000000
16075800,0.0324,0.013523,0.002678,0.000431,0.000000
16075900,0.0324,0.013523,0.002678,0.000431,0.000000
16076000,0.0324,0.013523,0.002678,0.000431,0.000000
16076100,0.0324,0.013523,0.002678,0.000431,0.001175
16076200,0.0324,0.013523,0.002678,0.000431,0.000000
16076300,0.0324,0.013523,0.002678,0.000431,0.000000
16076400,0.0324,0.013523,0.002678,0.000431,0.002351
16076500,0.0324,0.013523,0.002678,0.000431,0.000000
16076600,0.0324,0.013523,0.002678,0.000431,0.000000
16076700,0.0324,0.013523,0.002678,0.000431,0.000000
16076800,0.0324,0.013523,0.002678,0.000431,0.001175
16076900,0.0324,0.013523,0.002678,0.000431,0.000000
16077000,0.0324,0.013523,0.002678,0.000431,0.000000
16077100,0.0324,0.013523,0.002678,0.000431,0.000000
16077200,0.0324,0.013523,0.002678,0.000431,0.000000
16077300,0.0324,0.013523,0.002678,0.000431,0.001175
16077400,0.0324,0.013523,0.002678,0.000431,0.000000
16077500,0.0324,0.013523,0.002678,0.000431,0.000000
16077600,0.0324,0.013523,0.002678,0.000431,0.001175
16077700,0.0324,0.013523,0.002678,0.000431,0.000000
16077800,0.0324,0.013523,0.002678,0.000431,0.000000
16077900,0.0324,0.013523,0.002678,0.000431,0.001175
16078000,0.0324,0.013523,0.002678,0.000431,0.000000
16078100,0.0324,0.013523,0.002678,0.000431,0.000000
16078200,0.0324,0.013523,0.002678,0.000431,0.001175
16078300,0.0324,0.013523,0.002678,0.000431,0.000000
16078400,0.0324,0.013523,0.002678,0.000431,0.000000
16078500,0.0324,0.013523,0.002678,0.000431,0.001175
16078600,0.0324,0.013523,0.002678,0.000431,0.000000
16078700,0.0324,0.013523,0.002678,0.000431,0.000000
16078800,0.0324,0.013523,0.002678,0.000431,0.000000
16078900,0.0324,0.013523,0.002678,0.000431,0.001175
16079000,0.0324,0.013523,0.002678,0.000431,0.000000
16079100,0.0324,0.013523,0.002678,0.000431,0.000000
16079200,0.0324,0.013523,0.002678,0.000431,0.000000
16079300,0.0324,0.013523,0.002678,0.000431,0.001175
16079400,0.0324,0.013523,0.002678,0.000431,0.000000
16079500,0.0324,0.013523,0.002678,0.000431,0.000000
16079600,0.0324,0.013523,0.002678,0.000431,0.001175
16079700,0.0324,0.013523,0.002678,0.000431,0.000000
16079800,0.0324,0.013523,0.002678,0.000431,0.000000
16079900,0.0324,0.013523,0.002678,0.000431,0.000000
16080000,0.0324,0.013523,0.002678,0.000431,0.001175
16080100,0.0324,0.013523,0.002678,0.000431,0.000000
16080200,0.0324,0.013523,0.002678,0.000431,0.000000
16080300,0.0324,0.013523,0.002678,0.000431,0.001175
16080400,0.0324,0.013523,0.002678,0.000431,0.000000
16080500,0.0324,0.013523,0.002678,0.000431,0.000000
16080600,0.0324,0.013523,0.002678,0.000431,0.000000
16080700,0.0324,0.013523,0.002678,0.000431,0.000000
16080800,0.0324,0.013523,0.002678,0.000431,0.001175
16080900,0.0324,0.013523,0.002678,0.000431,0.000000
16081000,0.0324,0.013523,0.002678,0.000431,0.000000
16081100,0.0324,0.013523,0.002678,0.000431,0.001175
16081200,0.0324,0.013523,0.002678,0.000431,0.000000
16081300,0.0324,0.013523,0.002678,0.000431,0.000000
16081400,0.0324,0.013523,0.002678,0.000431,0.001175
16081500,0.0324,0.013523,0.002678,0.000431,0.000000
16081600,0.0324,0.013523,0.002678,0.000431,0.000000
16081700,0.0324,0.013523,0.002678,0.000431,0.001175
16081800,0.0324,0.013523,0.002678,0.000431,0.000000
16081900,0.0324,0.013523,0.002678,0.000431,0.000000
16082000,0.0324,0.013523,0.002678,0.000431,0.000000
16082100,0.0324,0.013523,0.002678,0.000431,0.000000
16082200,0.0324,0.013523,0.002678,0.000431,0.001175
16082300,0.0324,0.013523,0.002678,0.000431,0.000000
16082400,0.0324,0.013523,0.002678,0.000431,0.000000
16082500,0.0324,0.013523,0.002678,0.000431,0.001175
16082600,0.0324,0.013523,0.002678,0.000431,0.000000
16082700,0.0324,0.013523,0.002678,0.000431,0.000000
16082800,0.0324,0.013523,0.002678,0.000431,0.000000
16082900,0.0324,0.013523,0.002678,0.000431,0.001175
16083000,0.0324,0.013523,0.002678,0.000431,0.000000
16083100,0.0324,0.013523,0.002678,0.000431,0.000000
16083200,0.0324,0.013523,0.002678,0.000431,0.001175
16083300,0.0324,0.013523,0.002678,0.000431,0.000000
16083400,0.0324,0.013523,0.002678,0.000431,0.000000
16083500,0.0324,0.013523,0.002678,0.000431,0.000000
16083600,0.0324,0.013523,0.002678,0.000431,0.001175
16083700,0.0324,0.013523,0.002678,0.000431,0.000000
16083800,0.0324,0.013523,0.002678,0.000431,0.000000
16083900,0.0324,0.013523,0.002678,0.000431,0.000000
16084000,0.0324,0.013523,0.002678,0.000431,0.001175
16084100,0.0324,0.013523,0.002678,0.000431,0.000000
16084200,0.0324,0.013523,0.002678,0.000431,0.001175
16084300,0.0324,0.013523,0.002678,0.000431,0.000000
16084400,0.0324,0.013523,0.002678,0.000431,0.000000
16084500,0.0324,0.013523,0.002678,0.000431,0.001175
16084600,0.0324,0.013523,0.002678,0.000431,0.000000
16084700,0.0324,0.013523,0.002678,0.000431,0.000000
16084800,0.0324,0.013523,0.002678,0.000431,0.000000
16084900,0.0324,0.013523,0.002678,0.000431,0.000000
16085000,0.0324,0.013523,0.002678,0.000431,0.000000
16085100,0.0324,0.013523,0.002678,0.000431,0.001175
16085200,0.0324,0.013523,0.002678,0.000431,0.000000
16085300,0.0324,0.013523,0.002678,0.000431,0.000000
16085400,0.0324,0.013523,0.002678,0.000431,0.001175
16085500,0.0324,0.013523,0.002678,0.000431,0.000000
16085600,0.0324,0.013523,0.002678,0.000431,0.000000
16085700,0.0324,0.013523,0.002678,0.000431,0.001175
16085800,0.0324,0.013523,0.002678,0.000431,0.000000
16085900,0.0324,0.013523,0.002678,0.000431,0.000000
16086000,0.0324,0.013523,0.002678,0.000431,0.001175
16086100,0.0324,0.013523,0.002678,0.000431,0.000000
16086200,0.0324,0.013523,0.002678,0.000431,0.000000
16086300,0.0324,0.013523,0.002678,0.000431,0.000000
16086400,0.0324,0.013523,0.002678,0.000431,0.000000
16086500,0.0324,0.013523,0.002678,0.000431,0.001175
16086600,0.0324,0.013523,0.002678,0.000431,0.000000
16086700,0.0324,0.013523,0.002678,0.000431,0.000000
16086800,0.0324,0.013523,0.002678,0.000431,0.001175
16086900,0.0324,0.013523,0.002678,0.000431,0.000000
16087000,0.0324,0.013523,0.002678,0.000431,0.000000
16087100,0.0324,0.013523,0.002678,0.000431,0.001175
16087200,0.0324,0.013523,0.002678,0.000431,0.000000
16087300,0.0324,0.013523,0.002678,0.000431,0.000000
16087400,0.0324,0.013523,0.002678,0.000431,0.001175
16087500,0.0324,0.013523,0.002678,0.000431,0.000000
16087600,0.0324,0.013523,0.002678,0.000431,0.000000
16087700,0.0324,0.013523,0.002678,0.000431,0.000000
16087800,0.0324,0.013523,0.002678,0.000431,0.000000
16087900,0.0324,0.013523,0.002678,0.000431,0.000000
16088000,0.0324,0.013523,0.002678,0.000431,0.001175
16088100,0.0324,0.013523,0.002678,0.000431,0.000000
16088200,0.0324,0.013523,0.002678,0.000431,0.000000
16088300,0.0324,0.013523,0.002678,0.000431,0.001175
16088400,0.0324,0.013523,0.002678,0.000431,0.000000
16088500,0.0324,0.013523,0.002678,0.000431,0.001175
16088600,0.0324,0.013523,0.002678,0.000431,0.000000
16088700,0.0324,0.013523,0.002678,0.000431,0.000000
16088800,0.0324,0.013523,0.002678,0.000431,0.001175
16088900,0.0324,0.013523,0.002678,0.000431,0.000000
16089000,0.0324,0.013523,0.002678,0.000431,0.000000
16089100,0.0324,0.013523,0.002678,0.000431,0.000000
16089200,0.0324,0.013523,0.002678,0.000431,0.000000
16089300,0.0324,0.013523,0.002678,0.000431,0.000000
16089400,0.0324,0.013523,0.002678,0.000431,0.001175
16089500,0.0324,0.013523,0.002678,0.000431,0.000000
16089600,0.0324,0.013523,0.002678,0.000431,0.000000
16089700,0.0324,0.013523,0.002678,0.000431,0.001175
16089800,0.0324,0.013523,0.002678,0.000431,0.001175
16089900,0.0324,0.013523,0.002678,0.000431,0.000000
16090000,0.0324,0.013523,0.002678,0.000431,0.000000
16090100,0.0324,0.013523,0.002678,0.000431,0.001175
16090200,0.0324,0.013523,0.002678,0.000431,0.000000
16090300,0.0324,0.013523,0.002678,0.000431,0.000000
16090400,0.0324,0.013523,0.002678,0.000431,0.000000
16090500,0.0324,0.013523,0.002678,0.000431,0.000000
16090600,0.0324,0.013523,0.002678,0.000431,0.000000
16090700,0.0324,0.013523,0.002678,0.000431,0.001175
16090800,0.0324,0.013523,0.002678,0.000431,0.000000
16090900,0.0324,0.013523,0.002678,0.000431,0.000000
16091000,0.0324,0.013523,0.002678,0.000431,0.001175
16091100,0.0324,0.013523,0.002678,0.000431,0.000000
16091200,0.0324,0.013523,0.002678,0.000431,0.001175
16091300,0.0324,0.013523,0.002678,0.000431,0.000000
16091400,0.0324,0.013523,0.002678,0.000431,0.000000
16091500,0.0324,0.013523,0.002678,0.000431,0.001175
16091600,0.0324,0.013523,0.002678,0.000431,0.000000
16091700,0.0324,0.013523,0.002678,0.000431,0.000000
16091800,0.0324,0.013523,0.002678,0.000431,0.000000
16091900,0.0324,0.013523,0.002678,0.000431,0.001175
16092000,0.0324,0.013523,0.002678,0.000431,0.000000
16092100,0.0324,0.013523,0.002678,0.000431,0.000000
16092200,0.0324,0.013523,0.002678,0.000431,0.001175
16092300,0.0324,0.013523,0.002678,0.000431,0.000000
16092400,0.0324,0.013523,0.002678,0.000431,0.000000
16092500,0.0324,0.013523,0.002678,0.000431,0.000000
16092600,0.0324,0.013523,0.002678,0.000431,0.001175
16092700,0.0324,0.013523,0.002678,0.000431,0.000000
16092800,0.0324,0.013523,0.002678,0.000431,0.000000
16092900,0.0324,0.013523,0.002678,0.000431,0.001175
16093000,0.0324,0.013523,0.002678,0.000431,0.000000
16093100,0.0324,0.013523,0.002678,0.000431,0.000000
16093200,0.0324,0.013523,0.002678,0.000431,0.001175
16093300,0.0324,0.013523,0.002678,0.000431,0.000000
16093400,0.0324,0.013523,0.002678,0.000431,0.000000
16093500,0.0324,0.013523,0.002678,0.000431,0.001175
16093600,0.0324,0.013523,0.002678,0.000431,0.000000
16093700,0.0324,0.013523,0.002678,0.000431,0.000000
16093800,0.0324,0.013523,0.002678,0.000431,0.000000
16093900,0.0324,0.013523,0.002678,0.000431,0.000000
16094000,0.0324,0.013523,0.002678,0.000431,0.000000
16094100,0.0324,0.013523,0.002678,0.000431,0.001175
16094200,0.0324,0.013523,0.002678,0.000431,0.000000
16094300,0.0324,0.013523,0.002678,0.000431,0.000000
16094400,0.0324,0.013523,0.002678,0.000431,0.001175
16094500,0.0324,0.013523,0.002678,0.000431,0.000000
16094600,0.0324,0.013523,0.002678,0.000431,0.001175
16094700,0.0324,0.013523,0.002678,0.000431,0.000000
16094800,0.0324,0.013523,0.002678,0.000431,0.000000
16094900,0.0324,0.013523,0.002678,0.000431,0.000000
16095000,0.0324,0.013523,0.002678,0.000431,0.001175
16095100,0.0324,0.013523,0.002678,0.000431,0.000000
16095200,0.0324,0.013523,0.002678,0.000431,0.000000
16095300,0.0324,0.013523,0.002678,0.000431,0.000000
16095400,0.0324,0.013523,0.002678,0.000431,0.000000
16095500,0.0324,0.013523,0.002678,0.000431,0.001175
16095600,0.0324,0.013523,0.002678,0.000431,0.000000
16095700,0.0324,0.013523,0.002678,0.000431,0.000000
16095800,0.0324,0.013523,0.002678,0.000431,0.001175
16095900,0.0324,0.013523,0.002678,0.000431,0.001175
16096000,0.0324,0.013523,0.002678,0.000431,0.000000
16096100,0.0324,0.013523,0.002678,0.000431,0.000000
16096200,0.0324,0.013523,0.002678,0.000431,0.001175
16096300,0.0324,0.013523,0.002678,0.000431,0.000000
16096400,0.0324,0.013523,0.002678,0.000431,0.000000
16096500,0.0324,0.013523,0.002678,0.000431,0.000000
16096600,0.0324,0.013523,0.002678,0.000431,0.000000
16096700,0.0324,0.013523,0.002678,0.000431,0.000000
16096800,0.0324,0.013523,0.002678,0.000431,0.000000
16096900,0.0324,0.013523,0.002678,0.000431,0.001175
16097000,0.0324,0.013523,0.002678,0.000431,0.000000
16097100,0.0324,0.013523,0.002678,0.000431,0.000000
16097200,0.0324,0.013523,0.002678,0.000431,0.001175
16097300,0.0324,0.013523,0.002678,0.000431,0.001175
16097400,0.0324,0.013523,0.002678,0.000431,0.000000
16097500,0.0324,0.013523,0.002678,0.000431,0.000000
16097600,0.0324,0.013523,0.002678,0.000431,0.001175
16097700,0.0324,0.013523,0.002678,0.000431,0.000000
16097800,0.0324,0.013523,0.002678,0.000431,0.000000
16097900,0.0324,0.013523,0.002678,0.000431,0.000000
16098000,0.0324,0.013523,0.002678,0.000431,0.000000
16098100,0.0324,0.013523,0.002678,0.000431,0.000000
16098200,0.0324,0.013523,0.002678,0.000431,0.000000
16098300,0.0324,0.013523,0.002678,0.000431,0.001175
16098400,0.0324,0.013523,0.002678,0.000431,0.000000
16098500,0.0324,0.013523,0.002678,0.000431,0.000000
16098600,0.0324,0.013523,0.002678,0.000431,0.001175
16098700,0.0324,0.013523,0.002678,0.000431,0.001175
16098800,0.0324,0.013523,0.002678,0.000431,0.000000
16098900,0.0324,0.013523,0.002678,0.000431,0.000000
16099000,0.0324,0.013523,0.002678,0.000431,0.001175
16099100,0.0324,0.013523,0.002678,0.000431,0.000000
16099200,0.0324,0.013523,0.002678,0.000431,0.000000
16099300,0.0324,0.013523,0.002678,0.000431,0.000000
16099400,0.0324,0.013523,0.002678,0.000431,0.000000
16099500,0.0324,0.013523,0.002678,0.000431,0.000000
16099600,0.0324,0.013523,0.002678,0.000431,0.001175
16099700,0.0324,0.013523,0.002678,0.000431,0.000000
16099800,0.0324,0.013523,0.002678,0.000431,0.000000
16099900,0.0324,0.013523,0.002678,0.000431,0.001175
16100000,0.0324,0.013523,0.002678,0.000431,0.000000
16100100,0.0324,0.013523,0.002678,0.000431,0.000000
16100200,0.0324,0.013523,0.002678,0.000431,0.001175
16100300,0.0324,0.013523,0.002678,0.000431,0.000000
16100400,0.0324,0.013523,0.002678,0.000431,0.000000
16100500,0.0324,0.013523,0.002678,0.000431,0.001175
16100600,0.0324,0.013523,0.002678,0.000431,0.000000
16100700,0.0324,0.013523,0.002678,0.000431,0.000000
16100800,0.0324,0.013523,0.002678,0.000431,0.000000
16100900,0.0324,0.013523,0.002678,0.000431,0.001175
16101000,0.0324,0.013523,0.002678,0.000431,0.000000
16101100,0.0324,0.013523,0.002678,0.000431,0.000000
16101200,0.0324,0.013523,0.002678,0.000431,0.001175
16101300,0.0324,0.013523,0.002678,0.000431,0.000000
16101400,0.0324,0.013523,0.002678,0.000431,0.000000
16101500,0.0324,0.013523,0.002678,0.000431,0.000000
16101600,0.0324,0.013523,0.002678,0.000431,0.001175
16101700,0.0324,0.013523,0.002678,0.000431,0.000000
16101800,0.0324,0.013523,0.002678,0.000431,0.000000
16101900,0.0324,0.013523,0.002678,0.000431,0.001175
16102000,0.0324,0.013523,0.002678,0.000431,0.000000
16102100,0.0324,0.013523,0.002678,0.000431,0.000000
16102200,0.0324,0.013523,0.002678,0.000431,0.001175
16102300,0.0324,0.013523,0.002678,0.000431,0.000000
16102400,0.0324,0.013523,0.002678,0.000431,0.000000
16102500,0.0324,0.013523,0.002678,0.000431,0.001175
16102600,0.0324,0.013523,0.002678,0.000431,0.000000
16102700,0.0324,0.013523,0.002678,0.000431,0.000000
16102800,0.0324,0.013523,0.002678,0.000431,0.000000
16102900,0.0324,0.013523,0.002678,0.000431,0.000000
16103000,0.0324,0.013523,0.002678,0.000431,0.001175
16103100,0.0324,0.013523,0.002678,0.000431,0.000000
16103200,0.0324,0.013523,0.002678,0.000431,0.000000
16103300,0.0324,0.013523,0.002678,0.000431,0.000000
16103400,0.0324,0.013523,0.002678,0.000431,0.002351
16103500,0.0324,0.013523,0.002678,0.000431,0.000000
16103600,0.0324,0.013523,0.002678,0.000431,0.000000
16103700,0.0324,0.013523,0.002678,0.000431,0.001175
16103800,0.0324,0.013523,0.002678,0.000431,0.000000
16103900,0.0324,0.013523,0.002678,0.000431,0.000000
16104000,0.0324,0.013523,0.002678,0.000431,0.000000
16104100,0.0324,0.013523,0.002678,0.000431,0.000000
16104200,0.0324,0.013523,0.002678,0.000431,0.000000
16104300,0.0324,0.013523,0.002678,0.000431,0.000000
16104400,0.0324,0.013523,0.002678,0.000431,0.000000
16104500,0.0324,0.013523,0.002678,0.000431,0.001175
16104600,0.0324,0.013523,0.002678,0.000431,0.000000
16104700,0.0324,0.013523,0.002678,0.000431,0.000000
16104800,0.0324,0.013523,0.002678,0.000431,0.002351
16104900,0.0324,0.013523,0.002678,0.000431,0.000000
16105000,0.0324,0.013523,0.002678,0.000431,0.000000
16105100,0.0324,0.013523,0.002678,0.000431,0.001175
16105200,0.0324,0.013523,0.002678,0.000431,0.000000
16105300,0.0324,0.013523,0.002678,0.000431,0.000000
16105400,0.0324,0.013523,0.002678,0.000431,0.000000
16105500,0.0324,0.013523,0.002678,0.000431,0.000000
16105600,0.0324,0.013523,0.002678,0.000431,0.000000
16105700,0.0324,0.013523,0.002678,0.000431,0.000000
16105800,0.0324,0.013523,0.002678,0.000431,0.000000
16105900,0.0324,0.013523,0.002678,0.000431,0.001175
16106000,0.0324,0.013523,0.002678,0.000431,0.000000
16106100,0.0324,0.013523,0.002678,0.000431,0.000000
16106200,0.0324,0.013523,0.002678,0.000431,0.001175
16106300,0.0324,0.013523,0.002678,0.000431,0.001175
16106400,0.0324,0.013523,0.002678,0.000431,0.000000
16106500,0.0324,0.013523,0.002678,0.000431,0.000000
16106600,0.0324,0.013523,0.002678,0.000431,0.001175
16106700,0.0324,0.013523,0.002678,0.000431,0.000000
16106800,0.0324,0.013523,0.002678,0.000431,0.000000
16106900,0.0324,0.013523,0.002678,0.000431,0.000000
16107000,0.0324,0.013523,0.002678,0.000431,0.000000
16107100,0.0324,0.013523,0.002678,0.000431,0.000000
16107200,0.0324,0.013523,0.002678,0.000431,0.000000
16107300,0.0324,0.013523,0.002678,0.000431,0.000000
16107400,0.0324,0.013523,0.002678,0.000431,0.001175
16107500,0.0324,0.013523,0.002678,0.000431,0.000000
16107600,0.0324,0.013523,0.002678,0.000431,0.000000
16107700,0.0324,0.013523,0.002678,0.000431,0.002351
16107800,0.0324,0.013523,0.002678,0.000431,0.000000
16107900,0.0324,0.013523,0.002678,0.000431,0.000000
16108000,0.0324,0.013523,0.002678,0.000431,0.001175
16108100,0.0324,0.013523,0.002678,0.000431,0.000000
16108200,0.0324,0.013523,0.002678,0.000431,0.000000
16108300,0.0324,0.013523,0.002678,0.000431,0.000000
16108400,0.0324,0.013523,0.002678,0.000431,0.000000
16108500,0.0324,0.013523,0.002678,0.000431,0.000000
16108600,0.0324,0.013523,0.002678,0.000431,0.000000
16108700,0.0324,0.013523,0.002678,0.000431,0.001175
16108800,0.0324,0.013523,0.002678,0.000431,0.000000
16108900,0.0324,0.013523,0.002678,0.000431,0.000000
16109000,0.0324,0.013523,0.002678,0.000431,0.001175
16109100,0.0324,0.013523,0.002678,0.000431,0.000000
16109200,0.0324,0.013523,0.002678,0.000431,0.001175
16109300,0.0324,0.013523,0.002678,0.000431,0.000000
16109400,0.0324,0.013523,0.002678,0.000431,0.000000
16109500,0.0324,0.013523,0.002678,0.000431,0.001175
16109600,0.0324,0.013523,0.002678,0.000431,0.000000
16109700,0.0324,0.013523,0.002678,0.000431,0.000000
16109800,0.0324,0.013523,0.002678,0.000431,0.001175
16109900,0.0324,0.013523,0.002678,0.000431,0.000000
16110000,0.0324,0.013523,0.002678,0.000431,0.000000
16110100,0.0324,0.013523,0.002678,0.000431,0.000000
16110200,0.0324,0.013523,0.002678,0.000431,0.001175
16110300,0.0324,0.013523,0.002678,0.000431,0.000000
16110400,0.0324,0.013523,0.002678,0.000431,0.000000
16110500,0.0324,0.013523,0.002678,0.000431,0.000000
16110600,0.0324,0.013523,0.002678,0.000431,0.001175
16110700,0.0324,0.013523,0.002678,0.000431,0.000000
16110800,0.0324,0.013523,0.002678,0.000431,0.000000
16110900,0.0324,0.013523,0.002678,0.000431,0.001175
16111000,0.0324,0.013523,0.002678,0.000431,0.000000
16111100,0.0324,0.013523,0.002678,0.000431,0.000000
16111200,0.0324,0.013523,0.002678,0.000431,0.000000
16111300,0.0324,0.013523,0.002678,0.000431,0.001175
16111400,0.0324,0.013523,0.002678,0.000431,0.000000
16111500,0.0324,0.013523,0.002678,0.000431,0.000000
16111600,0.0324,0.013523,0.002678,0.000431,0.001175
16111700,0.0324,0.013523,0.002678,0.000431,0.000000
16111800,0.0324,0.013523,0.002678,0.000431,0.000000
16111900,0.0324,0.013523,0.002678,0.000431,0.000000
16112000,0.0324,0.013523,0.002678,0.000431,0.000000
16112100,0.0324,0.013523,0.002678,0.000431,0.001175
16112200,0.0324,0.013523,0.002678,0.000431,0.000000
16112300,0.0324,0.013523,0.002678,0.000431,0.000000
16112400,0.0324,0.013523,0.002678,0.000431,0.001175
16112500,0.0324,0.013523,0.002678,0.000431,0.000000
16112600,0.0324,0.013523,0.002678,0.000431,0.000000
16112700,0.0324,0.013523,0.002678,0.000431,0.001175
16112800,0.0324,0.013523,0.002678,0.000431,0.000000
16112900,0.0324,0.013523,0.002678,0.000431,0.000000
16113000,0.0324,0.013523,0.002678,0.000431,0.001175
16113100,0.0324,0.013523,0.002678,0.000431,0.000000
16113200,0.0324,0.013523,0.002678,0.000431,0.000000
16113300,0.0324,0.013523,0.002678,0.000431,0.000000
16113400,0.0324,0.013523,0.002678,0.000431,0.000000
16113500,0.0324,0.013523,0.002678,0.000431,0.001175
16113600,0.0324,0.013523,0.002678,0.000431,0.000000
16113700,0.0324,0.013523,0.002678,0.000431,0.000000
16113800,0.0324,0.013523,0.002678,0.000431,0.001175
16113900,0.0324,0.013523,0.002678,0.000431,0.001175
16114000,0.0324,0.013523,0.002678,0.000431,0.000000
16114100,0.0324,0.013523,0.002678,0.000431,0.000000
16114200,0.0324,0.013523,0.002678,0.000431,0.001175
16114300,0.0324,0.013523,0.002678,0.000431,0.000000
16114400,0.0324,0.013523,0.002678,0.000431,0.000000
16114500,0.0324,0.013523,0.002678,0.000431,0.000000
16114600,0.0324,0.013523,0.002678,0.000431,0.001175
16114700,0.0324,0.013523,0.002678,0.000431,0.000000
16114800,0.0324,0.013523,0.002678,0.000431,0.000000
16114900,0.0324,0.013523,0.002678,0.000431,0.001175
16115000,0.0324,0.013523,0.002678,0.000431,0.000000
16115100,0.0324,0.013523,0.002678,0.000431,0.000000
16115200,0.0324,0.013523,0.002678,0.000431,0.000000
16115300,0.0324,0.013523,0.002678,0.000431,0.001175
16115400,0.0324,0.013523,0.002678,0.000431,0.000000
16115500,0.0324,0.013523,0.002678,0.000431,0.000000
16115600,0.0324,0.013523,0.002678,0.000431,0.001175
16115700,0.0324,0.013523,0.002678,0.000431,0.000000
16115800,0.0324,0.013523,0.002678,0.000431,0.000000
16115900,0.0324,0.013523,0.002678,0.000431,0.001175
16116000,0.0324,0.013523,0.002678,0.000431,0.000000
16116100,0.0324,0.013523,0.002678,0.000431,0.000000
16116200,0.0324,0.013523,0.002678,0.000431,0.001175
16116300,0.0324,0.013523,0.002678,0.000431,0.000000
16116400,0.0324,0.013523,0.002678,0.000431,0.000000
16116500,0.0324,0.013523,0.002678,0.000431,0.000000
16116600,0.0324,0.013523,0.002678,0.000431,0.000000
16116700,0.0324,0.013523,0.002678,0.000431,0.001175
16116800,0.0324,0.013523,0.002678,0.000431,0.000000
16116900,0.0324,0.013523,0.002678,0.000431,0.000000
16117000,0.0324,0.013523,0.002678,0.000431,0.001175
16117100,0.0324,0.013523,0.002678,0.000431,0.000000
16117200,0.0324,0.013523,0.002678,0.000431,0.000000
16117300,0.0324,0.013523,0.002678,0.000431,0.001175
16117400,0.0324,0.013523,0.002678,0.000431,0.000000
16117500,0.0324,0.013523,0.002678,0.000431,0.000000
16117600,0.0324,0.013523,0.002678,0.000431,0.001175
16117700,0.0324,0.013523,0.002678,0.000431,0.000000
16117800,0.0324,0.013523,0.002678,0.000431,0.001175
16117900,0.0324,0.013523,0.002678,0.000431,0.000000
16118000,0.0324,0.013523,0.002678,0.000431,0.000000
16118100,0.0324,0.013523,0.002678,0.000431,0.001175
16118200,0.0324,0.013523,0.002678,0.000431,0.000000
16118300,0.0324,0.013523,0.002678,0.000431,0.001175
16118400,0.0324,0.013523,0.002678,0.000431,0.000000
16118500,0.0324,0.013523,0.002678,0.000431,0.000000
16118600,0.0324,0.013523,0.002678,0.000431,0.001175
16118700,0.0324,0.013523,0.002678,0.000431,0.000000
16118800,0.0324,0.013523,0.002678,0.000431,0.001175
16118900,0.0324,0.013523,0.002678,0.000431,0.000000
16119000,0.0324,0.013523,0.002678,0.000431,0.000000
16119100,0.0324,0.013523,0.002678,0.000431,0.001175
16119200,0.0324,0.013523,0.002678,0.000431,0.000000
16119300,0.0324,0.013523,0.002678,0.000431,0.000000
16119400,0.0324,0.013523,0.002678,0.000431,0.001175
16119500,0.0324,0.013523,0.002678,0.000431,0.000000
16119600,0.0324,0.013523,0.002678,0.000431,0.000000
16119700,0.0324,0.013523,0.002678,0.000431,0.001175
16119800,0.0324,0.013523,0.002678,0.000431,0.000000
16119900,0.0324,0.013523,0.002678,0.000431,0.000000
16120000,0.0324,0.013523,0.002678,0.000431,0.000000
16120100,0.0324,0.013523,0.002678,0.000431,0.000000
16120200,0.0324,0.013523,0.002678,0.000431,0.000000
16120300,0.0324,0.013523,0.002678,0.000431,0.001175
16120400,0.0324,0.013523,0.002678,0.000431,0.000000
16120500,0.0324,0.013523,0.002678,0.000431,0.000000
16120600,0.0324,0.013523,0.002678,0.000431,0.001175
16120700,0.0324,0.013523,0.002678,0.000431,0.000000
16120800,0.0324,0.013523,0.002678,0.000431,0.001175
16120900,0.0324,0.013523,0.002678,0.000431,0.000000
16121000,0.0324,0.013523,0.002678,0.000431,0.000000
16121100,0.0324,0.013523,0.002678,0.000431,0.001175
16121200,0.0324,0.013523,0.002678,0.000431,0.000000
16121300,0.0324,0.013523,0.002678,0.000431,0.000000
16121400,0.0324,0.013523,0.002678,0.000431,0.000000
16121500,0.0324,0.013523,0.002678,0.000431,0.000000
16121600,0.0324,0.013523,0.002678,0.000431,0.000000
16121700,0.0324,0.013523,0.002678,0.000431,0.001175
16121800,0.0324,0.013523,0.002678,0.000431,0.000000
16121900,0.0324,0.013523,0.002678,0.000431,0.000000
16122000,0.0324,0.013523,0.002678,0.000431,0.001175
16122100,0.0324,0.013523,0.002678,0.000431,0.000000
16122200,0.0324,0.013523,0.002678,0.000431,0.000000
16122300,0.0324,0.013523,0.002678,0.000431,0.001175
16122400,0.0324,0.013523,0.002678,0.000431,0.000000
16122500,0.0324,0.013523,0.002678,0.000431,0.000000
16122600,0.0324,0.013523,0.002678,0.000431,0.001175
16122700,0.0324,0.013523,0.002678,0.000431,0.000000
16122800,0.0324,0.013523,0.002678,0.000431,0.000000
16122900,0.0324,0.013523,0.002678,0.000431,0.000000
16123000,0.0324,0.013523,0.002678,0.000431,0.000000
16123100,0.0324,0.013523,0.002678,0.000431,0.001175
16123200,0.0324,0.013523,0.002678,0.000431,0.000000
16123300,0.0324,0.013523,0.002678,0.000431,0.000000
16123400,0.0324,0.013523,0.002678,0.000431,0.001175
16123500,0.0324,0.013523,0.002678,0.000431,0.000000
16123600,0.0324,0.013523,0.002678,0.000431,0.000000
16123700,0.0324,0.013523,0.002678,0.000431,0.001175
16123800,0.0324,0.013523,0.002678,0.000431,0.000000
16123900,0.0324,0.013523,0.002678,0.000431,0.000000
16124000,0.0324,0.013523,0.002678,0.000431,0.001175
16124100,0.0324,0.013523,0.002678,0.000431,0.000000
16124200,0.0324,0.013523,0.002678,0.000431,0.000000
16124300,0.0324,0.013523,0.002678,0.000431,0.000000
16124400,0.0324,0.013523,0.002678,0.000431,0.000000
16124500,0.0324,0.013523,0.002678,0.000431,0.000000
16124600,0.0324,0.013523,0.002678,0.000431,0.001175
16124700,0.0324,0.013523,0.002678,0.000431,0.000000
16124800,0.0324,0.013523,0.002678,0.000431,0.000000
16124900,0.0324,0.013523,0.002678,0.000431,0.001175
16125000,0.0324,0.013523,0.002678,0.000431,0.000000
16125100,0.0324,0.013523,0.002678,0.000431,0.000000
16125200,0.0324,0.013523,0.002678,0.000431,0.001175
16125300,0.0324,0.013523,0.002678,0.000431,0.000000
16125400,0.0324,0.013523,0.002678,0.000431,0.000000
16125500,0.0324,0.013523,0.002678,0.000431,0.001175
16125600,0.0324,0.013523,0.002678,0.000431,0.000000
16125700,0.0324,0.013523,0.002678,0.000431,0.000000
16125800,0.0324,0.013523,0.002678,0.000431,0.000000
16125900,0.0324,0.013523,0.002678,0.000431,0.000000
16126000,0.0324,0.013523,0.002678,0.000431,0.001175
16126100,0.0324,0.013523,0.002678,0.000431,0.000000
16126200,0.0324,0.013523,0.002678,0.000431,0.000000
16126300,0.0324,0.013523,0.002678,0.000431,0.001175
16126400,0.0324,0.013523,0.002678,0.000431,0.000000
16126500,0.0324,0.013523,0.002678,0.000431,0.000000
16126600,0.0324,0.013523,0.002678,0.000431,0.001175
16126700,0.0324,0.013523,0.002678,0.000431,0.000000
16126800,0.0324,0.013523,0.002678,0.000431,0.000000
16126900,0.0324,0.013523,0.002678,0.000431,0.001175
16127000,0.0324,0.013523,0.002678,0.000431,0.000000
16127100,0.0324,0.013523,0.002678,0.000431,0.000000
16127200,0.0324,0.013523,0.002678,0.000431,0.000000
16127300,0.0324,0.013523,0.002678,0.000431,0.000000
16127400,0.0324,0.013523,0.002678,0.000431,0.000000
16127500,0.0324,0.013523,0.002678,0.000431,0.001175
16127600,0.0324,0.013523,0.002678,0.000431,0.000000
16127700,0.0324,0.013523,0.002678,0.000431,0.000000
16127800,0.0324,0.013523,0.002678,0.000431,0.001175
16127900,0.0324,0.013523,0.002678,0.000431,0.000000
16128000,0.0324,0.013523,0.002678,0.000431,0.001175
16128100,0.0324,0.013523,0.002678,0.000431,0.000000
16128200,0.0324,0.013523,0.002678,0.000431,0.000000
16128300,0.0324,0.013523,0.002678,0.000431,0.000000
16128400,0.0324,0.013523,0.002678,0.000431,0.001175
16128500,0.0324,0.013523,0.002678,0.000431,0.001175
16128600,0.0324,0.013523,0.002678,0.000431,0.000000
16128700,0.0324,0.013523,0.002678,0.000431,0.000000
16128800,0.0324,0.013523,0.002678,0.000431,0.001175
16128900,0.0324,0.013523,0.002678,0.000431,0.001175
16129000,0.0324,0.013523,0.002678,0.000431,0.000000
16129100,0.0324,0.013523,0.002678,0.000431,0.000000
16129200,0.0324,0.013523,0.002678,0.000431,0.001175
16129300,0.0324,0.013523,0.002678,0.000431,0.001175
16129400,0.0324,0.013523,0.002678,0.000431,0.000000
16129500,0.0324,0.013523,0.002678,0.000431,0.000000
16129600,0.0324,0.013523,0.002678,0.000431,0.001175
16129700,0.0324,0.013523,0.002678,0.000431,0.000000
16129800,0.0324,0.013523,0.002678,0.000431,0.000000
16129900,0.0324,0.013523,0.002678,0.000431,0.001175
16130000,0.0324,0.013523,0.002678,0.000431,0.000000
16130100,0.0324,0.013523,0.002678,0.000431,0.000000
16130200,0.0324,0.013523,0.002678,0.000431,0.002351
16130300,0.0324,0.013523,0.002678,0.000431,0.000000
16130400,0.0324,0.013523,0.002678,0.000431,0.000000
16130500,0.0324,0.013523,0.002678,0.000431,0.001175
16130600,0.0324,0.013523,0.002678,0.000431,0.000000
16130700,0.0324,0.013523,0.002678,0.000431,0.001175
16130800,0.0324,0.013523,0.002678,0.000431,0.000000
16130900,0.0324,0.013523,0.002678,0.000431,0.000000
16131000,0.0324,0.013523,0.002678,0.000431,0.001175
16131100,0.0324,0.013523,0.002678,0.000431,0.000000
16131200,0.0324,0.013523,0.002678,0.000431,0.000000
16131300,0.0324,0.013523,0.002678,0.000431,0.000000
16131400,0.0324,0.013523,0.002678,0.000431,0.000000
16131500,0.0324,0.013523,0.002678,0.000431,0.000000
16131600,0.0324,0.013523,0.002678,0.000431,0.001175
16131700,0.0324,0.013523,0.002678,0.000431,0.000000
16131800,0.0324,0.013523,0.002678,0.000431,0.000000
16131900,0.0324,0.013523,0.002678,0.000431,0.001175
16132000,0.0324,0.013523,0.002678,0.000431,0.000000
16132100,0.0324,0.013523,0.002678,0.000431,0.001175
16132200,0.0324,0.013523,0.002678,0.000431,0.000000
16132300,0.0324,0.013523,0.002678,0.000431,0.000000
16132400,0.0324,0.013523,0.002678,0.000431,0.001175
16132500,0.0324,0.013523,0.002678,0.000431,0.000000
16132600,0.0324,0.013523,0.002678,0.000431,0.000000
16132700,0.0324,0.013523,0.002678,0.000431,0.000000
16132800,0.0324,0.013523,0.002678,0.000431,0.000000
16132900,0.0324,0.013523,0.002678,0.000431,0.000000
16133000,0.0324,0.013523,0.002678,0.000431,0.000000
16133100,0.0324,0.013523,0.002678,0.000431,0.001175
16133200,0.0324,0.013523,0.002678,0.000431,0.000000
16133300,0.0324,0.013523,0.002678,0.000431,0.000000
16133400,0.0324,0.013523,0.002678,0.000431,0.001175
16133500,0.0324,0.013523,0.002678,0.000431,0.001175
16133600,0.0324,0.013523,0.002678,0.000431,0.000000
16133700,0.0324,0.013523,0.002678,0.000431,0.001175
16133800,0.0324,0.013523,0.002678,0.000431,0.000000
16133900,0.0324,0.013523,0.002678,0.000431,0.000000
16134000,0.0324,0.013523,0.002678,0.000431,0.000000
16134100,0.0324,0.013523,0.002678,0.000431,0.000000
16134200,0.0324,0.013523,0.002678,0.000431,0.000000
16134300,0.0324,0.013523,0.002678,0.000431,0.000000
16134400,0.0324,0.013523,0.002678,0.000431,0.001175
16134500,0.0324,0.013523,0.002678,0.000431,0.000000
16134600,0.0324,0.013523,0.002678,0.000431,0.000000
16134700,0.0324,0.013523,0.002678,0.000431,0.001175
16134800,0.0324,0.013523,0.002678,0.000431,0.001175
16134900,0.0324,0.013523,0.002678,0.000431,0.000000
16135000,0.0324,0.013523,0.002678,0.000431,0.000000
16135100,0.0324,0.013523,0.002678,0.000431,0.001175
16135200,0.0324,0.013523,0.002678,0.000431,0.001175
16135300,0.0324,0.013523,0.002678,0.000431,0.000000
16135400,0.0324,0.013523,0.002678,0.000431,0.001175
16135500,0.0324,0.013523,0.002678,0.000431,0.000000
16135600,0.0324,0.013523,0.002678,0.000431,0.001175
16135700,0.0324,0.013523,0.002678,0.000431,0.000000
16135800,0.0324,0.013523,0.002678,0.000431,0.000000
16135900,0.0324,0.013523,0.002678,0.000431,0.001175
16136000,0.0324,0.013523,0.002678,0.000431,0.000000
16136100,0.0324,0.013523,0.002678,0.000431,0.000000
16136200,0.0324,0.013523,0.002678,0.000431,0.000000
16136300,0.0324,0.013523,0.002678,0.000431,0.001175
16136400,0.0324,0.013523,0.002678,0.000431,0.000000
16136500,0.0324,0.013523,0.002678,0.000431,0.000000
16136600,0.0324,0.013523,0.002678,0.000431,0.001175
16136700,0.0324,0.013523,0.002678,0.000431,0.001175
16136800,0.0324,0.013523,0.002678,0.000431,0.000000
16136900,0.0324,0.013523,0.002678,0.000431,0.000000
16137000,0.0324,0.013523,0.002678,0.000431,0.001175
16137100,0.0324,0.013523,0.002678,0.000431,0.000000
16137200,0.0324,0.013523,0.002678,0.000431,0.000000
16137300,0.0324,0.013523,0.002678,0.000431,0.000000
16137400,0.0324,0.013523,0.002678,0.000431,0.001175
16137500,0.0324,0.013523,0.002678,0.000431,0.000000
16137600,0.0324,0.013523,0.002678,0.000431,0.000000
16137700,0.0324,0.013523,0.002678,0.000431,0.001175
16137800,0.0324,0.013523,0.002678,0.000431,0.001175
16137900,0.0324,0.013523,0.002678,0.000431,0.000000
16138000,0.0324,0.013523,0.002678,0.000431,0.000000
16138100,0.0324,0.013523,0.002678,0.000431,0.001175
16138200,0.0324,0.013523,0.002678,0.000431,0.000000
16138300,0.0324,0.013523,0.002678,0.000431,0.000000
16138400,0.0324,0.013523,0.002678,0.000431,0.001175
16138500,0.0324,0.013523,0.002678,0.000431,0.000000
16138600,0.0324,0.013523,0.002678,0.000431,0.000000
16138700,0.0324,0.013523,0.002678,0.000431,0.001175
16138800,0.0324,0.013523,0.002678,0.000431,0.000000
16138900,0.0324,0.013523,0.002678,0.000431,0.001175
16139000,0.0324,0.013523,0.002678,0.000431,0.000000
16139100,0.0324,0.013523,0.002678,0.000431,0.000000
16139200,0.0324,0.013523,0.002678,0.000431,0.001175
16139300,0.0324,0.013523,0.002678,0.000431,0.000000
16139400,0.0324,0.013523,0.002678,0.000431,0.000000
16139500,0.0324,0.013523,0.002678,0.000431,0.000000
16139600,0.0324,0.013523,0.002678,0.000431,0.000000
16139700,0.0324,0.013523,0.002678,0.000431,0.000000
16139800,0.0324,0.013523,0.002678,0.000431,0.000000
16139900,0.0324,0.013523,0.002678,0.000431,0.001175
16140000,0.0324,0.013523,0.002678,0.000431,0.000000
16140100,0.0324,0.013523,0.002678,0.000431,0.000000
16140200,0.0324,0.013523,0.002678,0.000431,0.002351
16140300,0.0324,0.013523,0.002678,0.000431,0.000000
16140400,0.0324,0.013523,0.002678,0.000431,0.000000
16140500,0.0324,0.013523,0.002678,0.000431,0.000000
16140600,0.0324,0.013523,0.002678,0.000431,0.001175
16140700,0.0324,0.013523,0.002678,0.000431,0.000000
16140800,0.0324,0.013523,0.002678,0.000431,0.000000
16140900,0.0324,0.013523,0.002678,0.000431,0.000000
16141000,0.0324,0.013523,0.002678,0.000431,0.000000
16141100,0.0324,0.013523,0.002678,0.000431,0.000000
16141200,0.0324,0.013523,0.002678,0.000431,0.000000
16141300,0.0324,0.013523,0.002678,0.000431,0.001175
16141400,0.0324,0.013523,0.002678,0.000431,0.000000
16141500,0.0324,0.013523,0.002678,0.000431,0.000000
16141600,0.0324,0.013523,0.002678,0.000431,0.001175
16141700,0.0324,0.013523,0.002678,0.000431,0.001175
16141800,0.0324,0.013523,0.002678,0.000431,0.000000
16141900,0.0324,0.013523,0.002678,0.000431,0.000000
16142000,0.0324,0.013523,0.002678,0.000431,0.001175
16142100,0.0324,0.013523,0.002678,0.000431,0.000000
16142200,0.0324,0.013523,0.002678,0.000431,0.000000
16142300,0.0324,0.013523,0.002678,0.000431,0.000000
16142400,0.0324,0.013523,0.002678,0.000431,0.000000
16142500,0.0324,0.013523,0.002678,0.000431,0.001175
16142600,0.0324,0.013523,0.002678,0.000431,0.000000
16142700,0.0324,0.013523,0.002678,0.000431,0.000000
16142800,0.0324,0.013523,0.002678,0.000431,0.001175
16142900,0.0324,0.013523,0.002678,0.000431,0.000000
16143000,0.0324,0.013523,0.002678,0.000431,0.000000
16143100,0.0324,0.013523,0.002678,0.000431,0.001175
16143200,0.0324,0.013523,0.002678,0.000431,0.000000
16143300,0.0324,0.013523,0.002678,0.000431,0.000000
16143400,0.0324,0.013523,0.002678,0.000431,0.001175
16143500,0.0324,0.013523,0.002678,0.000431,0.000000
16143600,0.0324,0.013523,0.002678,0.000431,0.001175
16143700,0.0324,0.013523,0.002678,0.000431,0.000000
16143800,0.0324,0.013523,0.002678,0.000431,0.000000
16143900,0.0324,0.013523,0.002678,0.000431,0.001175
16144000,0.0324,0.013523,0.002678,0.000431,0.001175
16144100,0.0324,0.013523,0.002678,0.000431,0.000000
16144200,0.0324,0.013523,0.002678,0.000431,0.000000
16144300,0.0324,0.013523,0.002678,0.000431,0.001175
16144400,0.0324,0.013523,0.002678,0.000431,0.000000
16144500,0.0324,0.013523,0.002678,0.000431,0.001175
16144600,0.0324,0.013523,0.002678,0.000431,0.000000
16144700,0.0324,0.013523,0.002678,0.000431,0.000000
16144800,0.0324,0.013523,0.002678,0.000431,0.001175
16144900,0.0324,0.013523,0.002678,0.000431,0.000000
16145000,0.0324,0.013523,0.002678,0.000431,0.000000
16145100,0.0324,0.013523,0.002678,0.000431,0.001175
16145200,0.0324,0.013523,0.002678,0.000431,0.000000
16145300,0.0324,0.013523,0.002678,0.000431,0.000000
16145400,0.0324,0.013523,0.002678,0.000431,0.001175
16145500,0.0324,0.013523,0.002678,0.000431,0.001175
16145600,0.0324,0.013523,0.002678,0.000431,0.000000
16145700,0.0324,0.013523,0.002678,0.000431,0.000000
16145800,0.0324,0.013523,0.002678,0.000431,0.001175
16145900,0.0324,0.013523,0.002678,0.000431,0.000000
16146000,0.0324,0.013523,0.002678,0.000431,0.000000
16146100,0.0324,0.013523,0.002678,0.000431,0.000000
16146200,0.0324,0.013523,0.002678,0.000431,0.000000
16146300,0.0324,0.013523,0.002678,0.000431,0.000000
16146400,0.0324,0.013523,0.002678,0.000431,0.000000
16146500,0.0324,0.013523,0.002678,0.000431,0.001175
16146600,0.0324,0.013523,0.002678,0.000431,0.000000
16146700,0.0324,0.013523,0.002678,0.000431,0.000000
16146800,0.0324,0.013523,0.002678,0.000431,0.000000
16146900,0.0324,0.013523,0.002678,0.000431,0.002351
16147000,0.0324,0.013523,0.002678,0.000431,0.000000
16147100,0.0324,0.013523,0.002678,0.000431,0.000000
16147200,0.0324,0.013523,0.002678,0.000431,0.001175
16147300,0.0324,0.013523,0.002678,0.000431,0.000000
16147400,0.0324,0.013523,0.002678,0.000431,0.000000
16147500,0.0324,0.013523,0.002678,0.000431,0.000000
16147600,0.0324,0.013523,0.002678,0.000431,0.000000
16147700,0.0324,0.013523,0.002678,0.000431,0.001175
16147800,0.0324,0.013523,0.002678,0.000431,0.000000
16147900,0.0324,0.013523,0.002678,0.000431,0.000000
16148000,0.0324,0.013523,0.002678,0.000431,0.001175
16148100,0.0324,0.013523,0.002678,0.000431,0.000000
16148200,0.0324,0.013523,0.002678,0.000431,0.000000
16148300,0.0324,0.013523,0.002678,0.000431,0.001175
16148400,0.0324,0.013523,0.002678,0.000431,0.000000
16148500,0.0324,0.013523,0.002678,0.000431,0.000000
16148600,0.0324,0.013523,0.002678,0.000431,0.001175
16148700,0.0324,0.013523,0.002678,0.000431,0.001175
16148800,0.0324,0.013523,0.002678,0.000431,0.000000
16148900,0.0324,0.013523,0.002678,0.000431,0.000000
16149000,0.0324,0.013523,0.002678,0.000431,0.001175
16149100,0.0324,0.013523,0.002678,0.000431,0.000000
16149200,0.0324,0.013523,0.002678,0.000431,0.000000
16149300,0.0324,0.013523,0.002678,0.000431,0.000000
16149400,0.0324,0.013523,0.002678,0.000431,0.001175
16149500,0.0324,0.013523,0.002678,0.000431,0.000000
16149600,0.0324,0.013523,0.002678,0.000431,0.000000
16149700,0.0324,0.013523,0.002678,0.000431,0.001175
16149800,0.0324,0.013523,0.002678,0.000431,0.000000
16149900,0.0324,0.013523,0.002678,0.000431,0.000000
16150000,0.0324,0.013523,0.002678,0.000431,0.000000
16150100,0.0324,0.013523,0.002678,0.000431,0.001175
16150200,0.0324,0.013523,0.002678,0.000431,0.000000
16150300,0.0324,0.013523,0.002678,0.000431,0.000000
16150400,0.0324,0.013523,0.002678,0.000431,0.001175
16150500,0.0324,0.013523,0.002678,0.000431,0.000000
16150600,0.0324,0.013523,0.002678,0.000431,0.001175
16150700,0.0324,0.013523,0.002678,0.000431,0.000000
16150800,0.0324,0.013523,0.002678,0.000431,0.000000
16150900,0.0324,0.013523,0.002678,0.000431,0.001175
16151000,0.0324,0.013523,0.002678,0.000431,0.000000
16151100,0.0324,0.013523,0.002678,0.000431,0.000000
16151200,0.0324,0.013523,0.002678,0.000431,0.000000
16151300,0.0324,0.013523,0.002678,0.000431,0.000000
16151400,0.0324,0.013523,0.002678,0.000431,0.000000
16151500,0.0324,0.013523,0.002678,0.000431,0.001175
16151600,0.0324,0.013523,0.002678,0.000431,0.000000
16151700,0.0324,0.013523,0.002678,0.000431,0.000000
16151800,0.0324,0.013523,0.002678,0.000431,0.000000
16151900,0.0324,0.013523,0.002678,0.000431,0.002351
16152000,0.0324,0.013523,0.002678,0.000431,0.000000
16152100,0.0324,0.013523,0.002678,0.000431,0.000000
16152200,0.0324,0.013523,0.002678,0.000431,0.001175
16152300,0.0324,0.013523,0.002678,0.000431,0.000000
16152400,0.0324,0.013523,0.002678,0.000431,0.000000
16152500,0.0324,0.013523,0.002678,0.000431,0.000000
16152600,0.0324,0.013523,0.002678,0.000431,0.000000
16152700,0.0324,0.013523,0.002678,0.000431,0.000000
16152800,0.0324,0.013523,0.002678,0.000431,0.000000
16152900,0.0324,0.013523,0.002678,0.000431,0.000000
16153000,0.0324,0.013523,0.002678,0.000431,0.001175
16153100,0.0324,0.013523,0.002678,0.000431,0.000000
16153200,0.0324,0.013523,0.002678,0.000431,0.000000
16153300,0.0324,0.013523,0.002678,0.000431,0.001175
16153400,0.0324,0.013523,0.002678,0.000431,0.001175
16153500,0.0324,0.013523,0.002678,0.000431,0.000000
16153600,0.0324,0.013523,0.002678,0.000431,0.000000
16153700,0.0324,0.013523,0.002678,0.000431,0.001175
16153800,0.0324,0.013523,0.002678,0.000431,0.000000
16153900,0.0324,0.013523,0.002678,0.000431,0.000000
16154000,0.0324,0.013523,0.002678,0.000431,0.000000
16154100,0.0324,0.013523,0.002678,0.000431,0.000000
16154200,0.0324,0.013523,0.002678,0.000431,0.000000
16154300,0.0324,0.013523,0.002678,0.000431,0.000000
16154400,0.0324,0.013523,0.002678,0.000431,0.001175
16154500,0.0324,0.013523,0.002678,0.000431,0.000000
16154600,0.0324,0.013523,0.002678,0.000431,0.000000
16154700,0.0324,0.013523,0.002678,0.000431,0.001175
16154800,0.0324,0.013523,0.002678,0.000431,0.001175
16154900,0.0324,0.013523,0.002678,0.000431,0.000000
16155000,0.0324,0.013523,0.002678,0.000431,0.000000
16155100,0.0324,0.013523,0.002678,0.000431,0.001175
16155200,0.0324,0.013523,0.002678,0.000431,0.000000
16155300,0.0324,0.013523,0.002678,0.000431,0.000000
16155400,0.0324,0.013523,0.002678,0.000431,0.000000
16155500,0.0324,0.013523,0.002678,0.000431,0.000000
16155600,0.0324,0.013523,0.002678,0.000431,0.004701
16155700,0.0324,0.013523,0.002678,0.000431,0.000000
