Cycle,Area(mm^2),PeakDynamic(W),SubthresholdLeakage(W),GateLeakage(W),RunTimeDynamic(W)
1000,0.0324,0.013523,0.002678,0.000431,0.000000
2000,0.0324,0.013523,0.002678,0.000431,0.000000
3000,0.0324,0.013523,0.002678,0.000431,0.000000
4000,0.0324,0.013523,0.002678,0.000431,0.000000
5000,0.0324,0.013523,0.002678,0.000431,0.000000
6000,0.0324,0.013523,0.002678,0.000431,1.731190
7000,0.0324,0.013523,0.002678,0.000431,1.312085
8000,0.0324,0.013523,0.002678,0.000431,2.235269
9000,0.0324,0.013523,0.002678,0.000431,1.262370
10000,0.0324,0.013523,0.002678,0.000431,1.048939
11000,0.0324,0.013523,0.002678,0.000431,1.006981
12000,0.0324,0.013523,0.002678,0.000431,0.727852
13000,0.0324,0.013523,0.002678,0.000431,0.708107
14000,0.0324,0.013523,0.002678,0.000431,0.603272
15000,0.0324,0.013523,0.002678,0.000431,0.592577
16000,0.0324,0.013523,0.002678,0.000431,0.570952
17000,0.0324,0.013523,0.002678,0.000431,0.471876
18000,0.0324,0.013523,0.002678,0.000431,0.426392
19000,0.0324,0.013523,0.002678,0.000431,0.430623
20000,0.0324,0.013523,0.002678,0.000431,0.465999
21000,0.0324,0.013523,0.002678,0.000431,0.545096
22000,0.0324,0.013523,0.002678,0.000431,0.525116
23000,0.0324,0.013523,0.002678,0.000431,0.430388
24000,0.0324,0.013523,0.002678,0.000431,0.428273
25000,0.0324,0.013523,0.002678,0.000431,0.413229
26000,0.0324,0.013523,0.002678,0.000431,0.367393
27000,0.0324,0.013523,0.002678,0.000431,0.385022
28000,0.0324,0.013523,0.002678,0.000431,0.372212
29000,0.0324,0.013523,0.002678,0.000431,0.379969
30000,0.0324,0.013523,0.002678,0.000431,0.329431
31000,0.0324,0.013523,0.002678,0.000431,0.404297
32000,0.0324,0.013523,0.002678,0.000431,0.406883
33000,0.0324,0.013523,0.002678,0.000431,0.377383
34000,0.0324,0.013523,0.002678,0.000431,0.395482
35000,0.0324,0.013523,0.002678,0.000431,0.463179
36000,0.0324,0.013523,0.002678,0.000431,0.379616
37000,0.0324,0.013523,0.002678,0.000431,0.342712
38000,0.0324,0.013523,0.002678,0.000431,0.421691
39000,0.0324,0.013523,0.002678,0.000431,0.380204
40000,0.0324,0.013523,0.002678,0.000431,0.339774
41000,0.0324,0.013523,0.002678,0.000431,0.393367
42000,0.0324,0.013523,0.002678,0.000431,0.449428
43000,0.0324,0.013523,0.002678,0.000431,0.353055
44000,0.0324,0.013523,0.002678,0.000431,0.285123
45000,0.0324,0.013523,0.002678,0.000431,0.315798
46000,0.0324,0.013523,0.002678,0.000431,0.283713
47000,0.0324,0.013523,0.002678,0.000431,0.358814
48000,0.0324,0.013523,0.002678,0.000431,0.373622
49000,0.0324,0.013523,0.002678,0.000431,0.386433
50000,0.0324,0.013523,0.002678,0.000431,0.433797
51000,0.0324,0.013523,0.002678,0.000431,0.342712
52000,0.0324,0.013523,0.002678,0.000431,0.320617
53000,0.0324,0.013523,0.002678,0.000431,0.384905
54000,0.0324,0.013523,0.002678,0.000431,0.440613
55000,0.0324,0.013523,0.002678,0.000431,0.409586
56000,0.0324,0.013523,0.002678,0.000431,0.429918
57000,0.0324,0.013523,0.002678,0.000431,0.385257
58000,0.0324,0.013523,0.002678,0.000431,0.294643
59000,0.0324,0.013523,0.002678,0.000431,0.272900
60000,0.0324,0.013523,0.002678,0.000431,0.326141
61000,0.0324,0.013523,0.002678,0.000431,0.436970
62000,0.0324,0.013523,0.002678,0.000431,0.631126
63000,0.0324,0.013523,0.002678,0.000431,0.576593
64000,0.0324,0.013523,0.002678,0.000431,0.521943
65000,0.0324,0.013523,0.002678,0.000431,0.543098
66000,0.0324,0.013523,0.002678,0.000431,0.614672
67000,0.0324,0.013523,0.002678,0.000431,0.453071
68000,0.0324,0.013523,0.002678,0.000431,0.477399
69000,0.0324,0.013523,0.002678,0.000431,0.446490
70000,0.0324,0.013523,0.002678,0.000431,0.438615
71000,0.0324,0.013523,0.002678,0.000431,0.517124
72000,0.0324,0.013523,0.002678,0.000431,0.589991
73000,0.0324,0.013523,0.002678,0.000431,0.518064
74000,0.0324,0.013523,0.002678,0.000431,0.578239
75000,0.0324,0.013523,0.002678,0.000431,0.683426
76000,0.0324,0.013523,0.002678,0.000431,0.624545
77000,0.0324,0.013523,0.002678,0.000431,0.531697
78000,0.0324,0.013523,0.002678,0.000431,0.635122
79000,0.0324,0.013523,0.002678,0.000431,0.677197
80000,0.0324,0.013523,0.002678,0.000431,0.725619
81000,0.0324,0.013523,0.002678,0.000431,0.668618
82000,0.0324,0.013523,0.002678,0.000431,0.767929
83000,0.0324,0.013523,0.002678,0.000431,0.840914
84000,0.0324,0.013523,0.002678,0.000431,0.907553
85000,0.0324,0.013523,0.002678,0.000431,0.951508
86000,0.0324,0.013523,0.002678,0.000431,0.899678
87000,0.0324,0.013523,0.002678,0.000431,0.764638
88000,0.0324,0.013523,0.002678,0.000431,1.080084
89000,0.0324,0.013523,0.002678,0.000431,0.941871
90000,0.0324,0.013523,0.002678,0.000431,0.965141
91000,0.0324,0.013523,0.002678,0.000431,0.989940
92000,0.0324,0.013523,0.002678,0.000431,1.084785
93000,0.0324,0.013523,0.002678,0.000431,1.031662
94000,0.0324,0.013523,0.002678,0.000431,1.172696
95000,0.0324,0.013523,0.002678,0.000431,1.041417
96000,0.0324,0.013523,0.002678,0.000431,1.141551
97000,0.0324,0.013523,0.002678,0.000431,1.028959
98000,0.0324,0.013523,0.002678,0.000431,1.155067
99000,0.0324,0.013523,0.002678,0.000431,0.984063
100000,0.0324,0.013523,0.002678,0.000431,1.256611
101000,0.0324,0.013523,0.002678,0.000431,1.146487
102000,0.0324,0.013523,0.002678,0.000431,1.156007
103000,0.0324,0.013523,0.002678,0.000431,1.270010
104000,0.0324,0.013523,0.002678,0.000431,1.143667
105000,0.0324,0.013523,0.002678,0.000431,1.427850
106000,0.0324,0.013523,0.002678,0.000431,1.192911
107000,0.0324,0.013523,0.002678,0.000431,1.427615
108000,0.0324,0.013523,0.002678,0.000431,1.201608
109000,0.0324,0.013523,0.002678,0.000431,1.277414
110000,0.0324,0.013523,0.002678,0.000431,1.358391
111000,0.0324,0.013523,0.002678,0.000431,1.304915
112000,0.0324,0.013523,0.002678,0.000431,1.430200
113000,0.0324,0.013523,0.002678,0.000431,1.316316
114000,0.0324,0.013523,0.002678,0.000431,1.375667
115000,0.0324,0.013523,0.002678,0.000431,1.328304
116000,0.0324,0.013523,0.002678,0.000431,1.524576
117000,0.0324,0.013523,0.002678,0.000431,1.421738
118000,0.0324,0.013523,0.002678,0.000431,1.161413
119000,0.0324,0.013523,0.002678,0.000431,0.111887
120000,0.0324,0.013523,0.002678,0.000431,0.022918
121000,0.0324,0.013523,0.002678,0.000431,0.015279
122000,0.0324,0.013523,0.002678,0.000431,0.017629
123000,0.0324,0.013523,0.002678,0.000431,0.018805
124000,0.0324,0.013523,0.002678,0.000431,0.017629
125000,0.0324,0.013523,0.002678,0.000431,0.014221
126000,0.0324,0.013523,0.002678,0.000431,0.015866
127000,0.0324,0.013523,0.002678,0.000431,0.016454
128000,0.0324,0.013523,0.002678,0.000431,0.011753
129000,0.0324,0.013523,0.002678,0.000431,0.012693
130000,0.0324,0.013523,0.002678,0.000431,0.014103
131000,0.0324,0.013523,0.002678,0.000431,0.011988
132000,0.0324,0.013523,0.002678,0.000431,0.011165
133000,0.0324,0.013523,0.002678,0.000431,0.011753
134000,0.0324,0.013523,0.002678,0.000431,0.012223
135000,0.0324,0.013523,0.002678,0.000431,0.011283
136000,0.0324,0.013523,0.002678,0.000431,0.011400
137000,0.0324,0.013523,0.002678,0.000431,0.011988
138000,0.0324,0.013523,0.002678,0.000431,0.012223
139000,0.0324,0.013523,0.002678,0.000431,0.011048
140000,0.0324,0.013523,0.002678,0.000431,0.012811
141000,0.0324,0.013523,0.002678,0.000431,0.010930
142000,0.0324,0.013523,0.002678,0.000431,0.010342
143000,0.0324,0.013523,0.002678,0.000431,0.011400
144000,0.0324,0.013523,0.002678,0.000431,0.010578
145000,0.0324,0.013523,0.002678,0.000431,0.009755
146000,0.0324,0.013523,0.002678,0.000431,0.010107
147000,0.0324,0.013523,0.002678,0.000431,0.011400
148000,0.0324,0.013523,0.002678,0.000431,0.009755
149000,0.0324,0.013523,0.002678,0.000431,0.009755
150000,0.0324,0.013523,0.002678,0.000431,0.011518
151000,0.0324,0.013523,0.002678,0.000431,0.010107
152000,0.0324,0.013523,0.002678,0.000431,0.009637
153000,0.0324,0.013523,0.002678,0.000431,0.009402
154000,0.0324,0.013523,0.002678,0.000431,0.010930
155000,0.0324,0.013523,0.002678,0.000431,0.009872
156000,0.0324,0.013523,0.002678,0.000431,0.009637
157000,0.0324,0.013523,0.002678,0.000431,0.010460
158000,0.0324,0.013523,0.002678,0.000431,0.009402
159000,0.0324,0.013523,0.002678,0.000431,0.009050
160000,0.0324,0.013523,0.002678,0.000431,0.008109
161000,0.0324,0.013523,0.002678,0.000431,0.007287
162000,0.0324,0.013523,0.002678,0.000431,0.007052
163000,0.0324,0.013523,0.002678,0.000431,0.007522
164000,0.0324,0.013523,0.002678,0.000431,0.008227
165000,0.0324,0.013523,0.002678,0.000431,0.006582
166000,0.0324,0.013523,0.002678,0.000431,0.006582
167000,0.0324,0.013523,0.002678,0.000431,0.007287
168000,0.0324,0.013523,0.002678,0.000431,0.006347
169000,0.0324,0.013523,0.002678,0.000431,0.005759
170000,0.0324,0.013523,0.002678,0.000431,0.006817
171000,0.0324,0.013523,0.002678,0.000431,0.005759
172000,0.0324,0.013523,0.002678,0.000431,0.005524
173000,0.0324,0.013523,0.002678,0.000431,0.005524
174000,0.0324,0.013523,0.002678,0.000431,0.005994
175000,0.0324,0.013523,0.002678,0.000431,0.005994
176000,0.0324,0.013523,0.002678,0.000431,0.005641
177000,0.0324,0.013523,0.002678,0.000431,0.005406
178000,0.0324,0.013523,0.002678,0.000431,0.005759
179000,0.0324,0.013523,0.002678,0.000431,0.005289
180000,0.0324,0.013523,0.002678,0.000431,0.006817
181000,0.0324,0.013523,0.002678,0.000431,0.005289
182000,0.0324,0.013523,0.002678,0.000431,0.006347
183000,0.0324,0.013523,0.002678,0.000431,0.004584
184000,0.0324,0.013523,0.002678,0.000431,0.005054
185000,0.0324,0.013523,0.002678,0.000431,0.004584
186000,0.0324,0.013523,0.002678,0.000431,0.004349
187000,0.0324,0.013523,0.002678,0.000431,0.004113
188000,0.0324,0.013523,0.002678,0.000431,0.004466
189000,0.0324,0.013523,0.002678,0.000431,0.004466
190000,0.0324,0.013523,0.002678,0.000431,0.003878
191000,0.0324,0.013523,0.002678,0.000431,0.004113
192000,0.0324,0.013523,0.002678,0.000431,0.005641
193000,0.0324,0.013523,0.002678,0.000431,0.003526
194000,0.0324,0.013523,0.002678,0.000431,0.003761
195000,0.0324,0.013523,0.002678,0.000431,0.003643
196000,0.0324,0.013523,0.002678,0.000431,0.004231
197000,0.0324,0.013523,0.002678,0.000431,0.003056
198000,0.0324,0.013523,0.002678,0.000431,0.004231
199000,0.0324,0.013523,0.002678,0.000431,0.004113
200000,0.0324,0.013523,0.002678,0.000431,0.003761
201000,0.0324,0.013523,0.002678,0.000431,0.003173
202000,0.0324,0.013523,0.002678,0.000431,0.004231
203000,0.0324,0.013523,0.002678,0.000431,0.003643
204000,0.0324,0.013523,0.002678,0.000431,0.003526
205000,0.0324,0.013523,0.002678,0.000431,0.004113
206000,0.0324,0.013523,0.002678,0.000431,0.004231
207000,0.0324,0.013523,0.002678,0.000431,0.003173
208000,0.0324,0.013523,0.002678,0.000431,0.003643
209000,0.0324,0.013523,0.002678,0.000431,0.004231
210000,0.0324,0.013523,0.002678,0.000431,0.003878
211000,0.0324,0.013523,0.002678,0.000431,0.003408
212000,0.0324,0.013523,0.002678,0.000431,0.004466
213000,0.0324,0.013523,0.002678,0.000431,0.003996
214000,0.0324,0.013523,0.002678,0.000431,0.003291
215000,0.0324,0.013523,0.002678,0.000431,0.003291
216000,0.0324,0.013523,0.002678,0.000431,0.003996
217000,0.0324,0.013523,0.002678,0.000431,0.003291
218000,0.0324,0.013523,0.002678,0.000431,0.003408
219000,0.0324,0.013523,0.002678,0.000431,0.003526
220000,0.0324,0.013523,0.002678,0.000431,0.003291
221000,0.0324,0.013523,0.002678,0.000431,0.003291
222000,0.0324,0.013523,0.002678,0.000431,0.003526
223000,0.0324,0.013523,0.002678,0.000431,0.003996
224000,0.0324,0.013523,0.002678,0.000431,0.003291
225000,0.0324,0.013523,0.002678,0.000431,0.003291
226000,0.0324,0.013523,0.002678,0.000431,0.003408
227000,0.0324,0.013523,0.002678,0.000431,0.003643
228000,0.0324,0.013523,0.002678,0.000431,0.003056
229000,0.0324,0.013523,0.002678,0.000431,0.003878
230000,0.0324,0.013523,0.002678,0.000431,0.003761
231000,0.0324,0.013523,0.002678,0.000431,0.003173
232000,0.0324,0.013523,0.002678,0.000431,0.002938
233000,0.0324,0.013523,0.002678,0.000431,0.004113
234000,0.0324,0.013523,0.002678,0.000431,0.003291
235000,0.0324,0.013523,0.002678,0.000431,0.003408
236000,0.0324,0.013523,0.002678,0.000431,0.003643
237000,0.0324,0.013523,0.002678,0.000431,0.003643
238000,0.0324,0.013523,0.002678,0.000431,0.002938
239000,0.0324,0.013523,0.002678,0.000431,0.003291
240000,0.0324,0.013523,0.002678,0.000431,0.003996
241000,0.0324,0.013523,0.002678,0.000431,0.003408
242000,0.0324,0.013523,0.002678,0.000431,0.003056
243000,0.0324,0.013523,0.002678,0.000431,0.004113
244000,0.0324,0.013523,0.002678,0.000431,0.003056
245000,0.0324,0.013523,0.002678,0.000431,0.002938
246000,0.0324,0.013523,0.002678,0.000431,0.003526
247000,0.0324,0.013523,0.002678,0.000431,0.003878
248000,0.0324,0.013523,0.002678,0.000431,0.002821
249000,0.0324,0.013523,0.002678,0.000431,0.003408
250000,0.0324,0.013523,0.002678,0.000431,0.004113
251000,0.0324,0.013523,0.002678,0.000431,0.003173
252000,0.0324,0.013523,0.002678,0.000431,0.002586
253000,0.0324,0.013523,0.002678,0.000431,0.003408
254000,0.0324,0.013523,0.002678,0.000431,0.003291
255000,0.0324,0.013523,0.002678,0.000431,0.002233
256000,0.0324,0.013523,0.002678,0.000431,0.003173
257000,0.0324,0.013523,0.002678,0.000431,0.003526
258000,0.0324,0.013523,0.002678,0.000431,0.002821
259000,0.0324,0.013523,0.002678,0.000431,0.002703
260000,0.0324,0.013523,0.002678,0.000431,0.003408
261000,0.0324,0.013523,0.002678,0.000431,0.002938
262000,0.0324,0.013523,0.002678,0.000431,0.002468
263000,0.0324,0.013523,0.002678,0.000431,0.003291
264000,0.0324,0.013523,0.002678,0.000431,0.003408
265000,0.0324,0.013523,0.002678,0.000431,0.002821
266000,0.0324,0.013523,0.002678,0.000431,0.002821
267000,0.0324,0.013523,0.002678,0.000431,0.003173
268000,0.0324,0.013523,0.002678,0.000431,0.002938
269000,0.0324,0.013523,0.002678,0.000431,0.002468
270000,0.0324,0.013523,0.002678,0.000431,0.003408
271000,0.0324,0.013523,0.002678,0.000431,0.003408
272000,0.0324,0.013523,0.002678,0.000431,0.002703
273000,0.0324,0.013523,0.002678,0.000431,0.002821
274000,0.0324,0.013523,0.002678,0.000431,0.003408
275000,0.0324,0.013523,0.002678,0.000431,0.002821
276000,0.0324,0.013523,0.002678,0.000431,0.002468
277000,0.0324,0.013523,0.002678,0.000431,0.003408
278000,0.0324,0.013523,0.002678,0.000431,0.003526
279000,0.0324,0.013523,0.002678,0.000431,0.002351
280000,0.0324,0.013523,0.002678,0.000431,0.003056
281000,0.0324,0.013523,0.002678,0.000431,0.003408
282000,0.0324,0.013523,0.002678,0.000431,0.002821
283000,0.0324,0.013523,0.002678,0.000431,0.002586
284000,0.0324,0.013523,0.002678,0.000431,0.003408
285000,0.0324,0.013523,0.002678,0.000431,0.003056
286000,0.0324,0.013523,0.002678,0.000431,0.002586
287000,0.0324,0.013523,0.002678,0.000431,0.003056
288000,0.0324,0.013523,0.002678,0.000431,0.003643
289000,0.0324,0.013523,0.002678,0.000431,0.002703
290000,0.0324,0.013523,0.002678,0.000431,0.002703
291000,0.0324,0.013523,0.002678,0.000431,0.003291
292000,0.0324,0.013523,0.002678,0.000431,0.002821
293000,0.0324,0.013523,0.002678,0.000431,0.002703
294000,0.0324,0.013523,0.002678,0.000431,0.004113
295000,0.0324,0.013523,0.002678,0.000431,0.003173
296000,0.0324,0.013523,0.002678,0.000431,0.003056
297000,0.0324,0.013523,0.002678,0.000431,0.002233
298000,0.0324,0.013523,0.002678,0.000431,0.002703
299000,0.0324,0.013523,0.002678,0.000431,0.002233
300000,0.0324,0.013523,0.002678,0.000431,0.001998
301000,0.0324,0.013523,0.002678,0.000431,0.002468
302000,0.0324,0.013523,0.002678,0.000431,0.002703
303000,0.0324,0.013523,0.002678,0.000431,0.001998
304000,0.0324,0.013523,0.002678,0.000431,0.002586
305000,0.0324,0.013523,0.002678,0.000431,0.002821
306000,0.0324,0.013523,0.002678,0.000431,0.002116
307000,0.0324,0.013523,0.002678,0.000431,0.001763
308000,0.0324,0.013523,0.002678,0.000431,0.002821
309000,0.0324,0.013523,0.002678,0.000431,0.001998
310000,0.0324,0.013523,0.002678,0.000431,0.001293
311000,0.0324,0.013523,0.002678,0.000431,0.001528
312000,0.0324,0.013523,0.002678,0.000431,0.002116
313000,0.0324,0.013523,0.002678,0.000431,0.001528
314000,0.0324,0.013523,0.002678,0.000431,0.001293
315000,0.0324,0.013523,0.002678,0.000431,0.001998
316000,0.0324,0.013523,0.002678,0.000431,0.001880
317000,0.0324,0.013523,0.002678,0.000431,0.001293
318000,0.0324,0.013523,0.002678,0.000431,0.001645
319000,0.0324,0.013523,0.002678,0.000431,0.001998
320000,0.0324,0.013523,0.002678,0.000431,0.001528
321000,0.0324,0.013523,0.002678,0.000431,0.001410
322000,0.0324,0.013523,0.002678,0.000431,0.001998
323000,0.0324,0.013523,0.002678,0.000431,0.001880
324000,0.0324,0.013523,0.002678,0.000431,0.001175
325000,0.0324,0.013523,0.002678,0.000431,0.001763
326000,0.0324,0.013523,0.002678,0.000431,0.001880
327000,0.0324,0.013523,0.002678,0.000431,0.001528
328000,0.0324,0.013523,0.002678,0.000431,0.001410
329000,0.0324,0.013523,0.002678,0.000431,0.002116
330000,0.0324,0.013523,0.002678,0.000431,0.001763
331000,0.0324,0.013523,0.002678,0.000431,0.001175
332000,0.0324,0.013523,0.002678,0.000431,0.001880
333000,0.0324,0.013523,0.002678,0.000431,0.001880
334000,0.0324,0.013523,0.002678,0.000431,0.002233
335000,0.0324,0.013523,0.002678,0.000431,0.001175
336000,0.0324,0.013523,0.002678,0.000431,0.001645
337000,0.0324,0.013523,0.002678,0.000431,0.001528
338000,0.0324,0.013523,0.002678,0.000431,0.000823
339000,0.0324,0.013523,0.002678,0.000431,0.001528
340000,0.0324,0.013523,0.002678,0.000431,0.001528
341000,0.0324,0.013523,0.002678,0.000431,0.001058
342000,0.0324,0.013523,0.002678,0.000431,0.001175
343000,0.0324,0.013523,0.002678,0.000431,0.001763
344000,0.0324,0.013523,0.002678,0.000431,0.001293
345000,0.0324,0.013523,0.002678,0.000431,0.001058
346000,0.0324,0.013523,0.002678,0.000431,0.001528
347000,0.0324,0.013523,0.002678,0.000431,0.001410
348000,0.0324,0.013523,0.002678,0.000431,0.001058
349000,0.0324,0.013523,0.002678,0.000431,0.001293
350000,0.0324,0.013523,0.002678,0.000431,0.001763
351000,0.0324,0.013523,0.002678,0.000431,0.001175
352000,0.0324,0.013523,0.002678,0.000431,0.001998
353000,0.0324,0.013523,0.002678,0.000431,0.001175
354000,0.0324,0.013523,0.002678,0.000431,0.001058
355000,0.0324,0.013523,0.002678,0.000431,0.000823
356000,0.0324,0.013523,0.002678,0.000431,0.000940
357000,0.0324,0.013523,0.002678,0.000431,0.001293
358000,0.0324,0.013523,0.002678,0.000431,0.000823
359000,0.0324,0.013523,0.002678,0.000431,0.000940
360000,0.0324,0.013523,0.002678,0.000431,0.001058
361000,0.0324,0.013523,0.002678,0.000431,0.001175
362000,0.0324,0.013523,0.002678,0.000431,0.000823
363000,0.0324,0.013523,0.002678,0.000431,0.000940
364000,0.0324,0.013523,0.002678,0.000431,0.001175
365000,0.0324,0.013523,0.002678,0.000431,0.000823
366000,0.0324,0.013523,0.002678,0.000431,0.000940
367000,0.0324,0.013523,0.002678,0.000431,0.001175
368000,0.0324,0.013523,0.002678,0.000431,0.001175
369000,0.0324,0.013523,0.002678,0.000431,0.000823
370000,0.0324,0.013523,0.002678,0.000431,0.000940
371000,0.0324,0.013523,0.002678,0.000431,0.001058
372000,0.0324,0.013523,0.002678,0.000431,0.000940
373000,0.0324,0.013523,0.002678,0.000431,0.000940
374000,0.0324,0.013523,0.002678,0.000431,0.001175
375000,0.0324,0.013523,0.002678,0.000431,0.001175
376000,0.0324,0.013523,0.002678,0.000431,0.000823
377000,0.0324,0.013523,0.002678,0.000431,0.000940
378000,0.0324,0.013523,0.002678,0.000431,0.001058
379000,0.0324,0.013523,0.002678,0.000431,0.000823
380000,0.0324,0.013523,0.002678,0.000431,0.000940
381000,0.0324,0.013523,0.002678,0.000431,0.001293
382000,0.0324,0.013523,0.002678,0.000431,0.001058
383000,0.0324,0.013523,0.002678,0.000431,0.000823
384000,0.0324,0.013523,0.002678,0.000431,0.001058
385000,0.0324,0.013523,0.002678,0.000431,0.001058
386000,0.0324,0.013523,0.002678,0.000431,0.000823
387000,0.0324,0.013523,0.002678,0.000431,0.000940
388000,0.0324,0.013523,0.002678,0.000431,0.001175
389000,0.0324,0.013523,0.002678,0.000431,0.001058
390000,0.0324,0.013523,0.002678,0.000431,0.000823
391000,0.0324,0.013523,0.002678,0.000431,0.001175
392000,0.0324,0.013523,0.002678,0.000431,0.001058
393000,0.0324,0.013523,0.002678,0.000431,0.000823
394000,0.0324,0.013523,0.002678,0.000431,0.000940
395000,0.0324,0.013523,0.002678,0.000431,0.001175
396000,0.0324,0.013523,0.002678,0.000431,0.001058
397000,0.0324,0.013523,0.002678,0.000431,0.000823
398000,0.0324,0.013523,0.002678,0.000431,0.001175
399000,0.0324,0.013523,0.002678,0.000431,0.001058
400000,0.0324,0.013523,0.002678,0.000431,0.000705
401000,0.0324,0.013523,0.002678,0.000431,0.001058
402000,0.0324,0.013523,0.002678,0.000431,0.001175
403000,0.0324,0.013523,0.002678,0.000431,0.000940
404000,0.0324,0.013523,0.002678,0.000431,0.000940
405000,0.0324,0.013523,0.002678,0.000431,0.001175
406000,0.0324,0.013523,0.002678,0.000431,0.000940
407000,0.0324,0.013523,0.002678,0.000431,0.000823
408000,0.0324,0.013523,0.002678,0.000431,0.001058
409000,0.0324,0.013523,0.002678,0.000431,0.001175
410000,0.0324,0.013523,0.002678,0.000431,0.000940
411000,0.0324,0.013523,0.002678,0.000431,0.000940
412000,0.0324,0.013523,0.002678,0.000431,0.001058
413000,0.0324,0.013523,0.002678,0.000431,0.001058
414000,0.0324,0.013523,0.002678,0.000431,0.000823
415000,0.0324,0.013523,0.002678,0.000431,0.001058
416000,0.0324,0.013523,0.002678,0.000431,0.001175
417000,0.0324,0.013523,0.002678,0.000431,0.000823
418000,0.0324,0.013523,0.002678,0.000431,0.001058
419000,0.0324,0.013523,0.002678,0.000431,0.001058
420000,0.0324,0.013523,0.002678,0.000431,0.000940
421000,0.0324,0.013523,0.002678,0.000431,0.000940
422000,0.0324,0.013523,0.002678,0.000431,0.001058
423000,0.0324,0.013523,0.002678,0.000431,0.001175
424000,0.0324,0.013523,0.002678,0.000431,0.000823
425000,0.0324,0.013523,0.002678,0.000431,0.001058
426000,0.0324,0.013523,0.002678,0.000431,0.000940
427000,0.0324,0.013523,0.002678,0.000431,0.001058
428000,0.0324,0.013523,0.002678,0.000431,0.000940
429000,0.0324,0.013523,0.002678,0.000431,0.001058
430000,0.0324,0.013523,0.002678,0.000431,0.001058
431000,0.0324,0.013523,0.002678,0.000431,0.000940
432000,0.0324,0.013523,0.002678,0.000431,0.000940
433000,0.0324,0.013523,0.002678,0.000431,0.001058
434000,0.0324,0.013523,0.002678,0.000431,0.001058
435000,0.0324,0.013523,0.002678,0.000431,0.000940
436000,0.0324,0.013523,0.002678,0.000431,0.001058
437000,0.0324,0.013523,0.002678,0.000431,0.001058
438000,0.0324,0.013523,0.002678,0.000431,0.000823
439000,0.0324,0.013523,0.002678,0.000431,0.001058
440000,0.0324,0.013523,0.002678,0.000431,0.001058
441000,0.0324,0.013523,0.002678,0.000431,0.001058
442000,0.0324,0.013523,0.002678,0.000431,0.000940
443000,0.0324,0.013523,0.002678,0.000431,0.001058
444000,0.0324,0.013523,0.002678,0.000431,0.001058
445000,0.0324,0.013523,0.002678,0.000431,0.000823
446000,0.0324,0.013523,0.002678,0.000431,0.000940
447000,0.0324,0.013523,0.002678,0.000431,0.001175
448000,0.0324,0.013523,0.002678,0.000431,0.001058
449000,0.0324,0.013523,0.002678,0.000431,0.000940
450000,0.0324,0.013523,0.002678,0.000431,0.001058
451000,0.0324,0.013523,0.002678,0.000431,0.000940
452000,0.0324,0.013523,0.002678,0.000431,0.000940
453000,0.0324,0.013523,0.002678,0.000431,0.000940
454000,0.0324,0.013523,0.002678,0.000431,0.001175
455000,0.0324,0.013523,0.002678,0.000431,0.001058
456000,0.0324,0.013523,0.002678,0.000431,0.000823
457000,0.0324,0.013523,0.002678,0.000431,0.001175
458000,0.0324,0.013523,0.002678,0.000431,0.000940
459000,0.0324,0.013523,0.002678,0.000431,0.000940
460000,0.0324,0.013523,0.002678,0.000431,0.000940
461000,0.0324,0.013523,0.002678,0.000431,0.001175
462000,0.0324,0.013523,0.002678,0.000431,0.000940
463000,0.0324,0.013523,0.002678,0.000431,0.000940
464000,0.0324,0.013523,0.002678,0.000431,0.001175
465000,0.0324,0.013523,0.002678,0.000431,0.000940
466000,0.0324,0.013523,0.002678,0.000431,0.000823
467000,0.0324,0.013523,0.002678,0.000431,0.001058
468000,0.0324,0.013523,0.002678,0.000431,0.001175
469000,0.0324,0.013523,0.002678,0.000431,0.000940
470000,0.0324,0.013523,0.002678,0.000431,0.000940
471000,0.0324,0.013523,0.002678,0.000431,0.001175
472000,0.0324,0.013523,0.002678,0.000431,0.000940
473000,0.0324,0.013523,0.002678,0.000431,0.000823
474000,0.0324,0.013523,0.002678,0.000431,0.001058
475000,0.0324,0.013523,0.002678,0.000431,0.001175
476000,0.0324,0.013523,0.002678,0.000431,0.000940
477000,0.0324,0.013523,0.002678,0.000431,0.000940
478000,0.0324,0.013523,0.002678,0.000431,0.001175
479000,0.0324,0.013523,0.002678,0.000431,0.000940
480000,0.0324,0.013523,0.002678,0.000431,0.000823
481000,0.0324,0.013523,0.002678,0.000431,0.001058
482000,0.0324,0.013523,0.002678,0.000431,0.001175
483000,0.0324,0.013523,0.002678,0.000431,0.001645
484000,0.0324,0.013523,0.002678,0.000431,0.000705
485000,0.0324,0.013523,0.002678,0.000431,0.000705
486000,0.0324,0.013523,0.002678,0.000431,0.000470
487000,0.0324,0.013523,0.002678,0.000431,0.000705
488000,0.0324,0.013523,0.002678,0.000431,0.000705
489000,0.0324,0.013523,0.002678,0.000431,0.000705
490000,0.0324,0.013523,0.002678,0.000431,0.000705
491000,0.0324,0.013523,0.002678,0.000431,0.000705
492000,0.0324,0.013523,0.002678,0.000431,0.000705
493000,0.0324,0.013523,0.002678,0.000431,0.000470
494000,0.0324,0.013523,0.002678,0.000431,0.000705
495000,0.0324,0.013523,0.002678,0.000431,0.000705
496000,0.0324,0.013523,0.002678,0.000431,0.000705
497000,0.0324,0.013523,0.002678,0.000431,0.000705
498000,0.0324,0.013523,0.002678,0.000431,0.000705
499000,0.0324,0.013523,0.002678,0.000431,0.000588
500000,0.0324,0.013523,0.002678,0.000431,0.000588
501000,0.0324,0.013523,0.002678,0.000431,0.000705
502000,0.0324,0.013523,0.002678,0.000431,0.000705
503000,0.0324,0.013523,0.002678,0.000431,0.000705
504000,0.0324,0.013523,0.002678,0.000431,0.000705
505000,0.0324,0.013523,0.002678,0.000431,0.000705
506000,0.0324,0.013523,0.002678,0.000431,0.000588
507000,0.0324,0.013523,0.002678,0.000431,0.000588
508000,0.0324,0.013523,0.002678,0.000431,0.000705
509000,0.0324,0.013523,0.002678,0.000431,0.000705
510000,0.0324,0.013523,0.002678,0.000431,0.000705
511000,0.0324,0.013523,0.002678,0.000431,0.000705
512000,0.0324,0.013523,0.002678,0.000431,0.000588
513000,0.0324,0.013523,0.002678,0.000431,0.000588
514000,0.0324,0.013523,0.002678,0.000431,0.000705
515000,0.0324,0.013523,0.002678,0.000431,0.000705
516000,0.0324,0.013523,0.002678,0.000431,0.000705
517000,0.0324,0.013523,0.002678,0.000431,0.000705
518000,0.0324,0.013523,0.002678,0.000431,0.000705
519000,0.0324,0.013523,0.002678,0.000431,0.000588
520000,0.0324,0.013523,0.002678,0.000431,0.000588
521000,0.0324,0.013523,0.002678,0.000431,0.000705
522000,0.0324,0.013523,0.002678,0.000431,0.000705
523000,0.0324,0.013523,0.002678,0.000431,0.000705
524000,0.0324,0.013523,0.002678,0.000431,0.000705
525000,0.0324,0.013523,0.002678,0.000431,0.000705
526000,0.0324,0.013523,0.002678,0.000431,0.000588
527000,0.0324,0.013523,0.002678,0.000431,0.000588
528000,0.0324,0.013523,0.002678,0.000431,0.000705
529000,0.0324,0.013523,0.002678,0.000431,0.000705
530000,0.0324,0.013523,0.002678,0.000431,0.000705
531000,0.0324,0.013523,0.002678,0.000431,0.000705
532000,0.0324,0.013523,0.002678,0.000431,0.000705
533000,0.0324,0.013523,0.002678,0.000431,0.000470
534000,0.0324,0.013523,0.002678,0.000431,0.000705
535000,0.0324,0.013523,0.002678,0.000431,0.000705
536000,0.0324,0.013523,0.002678,0.000431,0.000705
537000,0.0324,0.013523,0.002678,0.000431,0.000705
538000,0.0324,0.013523,0.002678,0.000431,0.000705
539000,0.0324,0.013523,0.002678,0.000431,0.000588
540000,0.0324,0.013523,0.002678,0.000431,0.000588
541000,0.0324,0.013523,0.002678,0.000431,0.000705
542000,0.0324,0.013523,0.002678,0.000431,0.000705
543000,0.0324,0.013523,0.002678,0.000431,0.000705
544000,0.0324,0.013523,0.002678,0.000431,0.000705
545000,0.0324,0.013523,0.002678,0.000431,0.000705
546000,0.0324,0.013523,0.002678,0.000431,0.000588
547000,0.0324,0.013523,0.002678,0.000431,0.000588
548000,0.0324,0.013523,0.002678,0.000431,0.000705
549000,0.0324,0.013523,0.002678,0.000431,0.000705
550000,0.0324,0.013523,0.002678,0.000431,0.000705
551000,0.0324,0.013523,0.002678,0.000431,0.000705
552000,0.0324,0.013523,0.002678,0.000431,0.000705
553000,0.0324,0.013523,0.002678,0.000431,0.000588
554000,0.0324,0.013523,0.002678,0.000431,0.000588
555000,0.0324,0.013523,0.002678,0.000431,0.000705
556000,0.0324,0.013523,0.002678,0.000431,0.000705
557000,0.0324,0.013523,0.002678,0.000431,0.000705
558000,0.0324,0.013523,0.002678,0.000431,0.000705
559000,0.0324,0.013523,0.002678,0.000431,0.000705
560000,0.0324,0.013523,0.002678,0.000431,0.000588
561000,0.0324,0.013523,0.002678,0.000431,0.000588
562000,0.0324,0.013523,0.002678,0.000431,0.000705
563000,0.0324,0.013523,0.002678,0.000431,0.000705
564000,0.0324,0.013523,0.002678,0.000431,0.000705
565000,0.0324,0.013523,0.002678,0.000431,0.000705
566000,0.0324,0.013523,0.002678,0.000431,0.000705
567000,0.0324,0.013523,0.002678,0.000431,0.000470
568000,0.0324,0.013523,0.002678,0.000431,0.000705
569000,0.0324,0.013523,0.002678,0.000431,0.000705
570000,0.0324,0.013523,0.002678,0.000431,0.000705
571000,0.0324,0.013523,0.002678,0.000431,0.000705
572000,0.0324,0.013523,0.002678,0.000431,0.000588
573000,0.0324,0.013523,0.002678,0.000431,0.000823
574000,0.0324,0.013523,0.002678,0.000431,0.000470
575000,0.0324,0.013523,0.002678,0.000431,0.000705
576000,0.0324,0.013523,0.002678,0.000431,0.000705
577000,0.0324,0.013523,0.002678,0.000431,0.000705
578000,0.0324,0.013523,0.002678,0.000431,0.000588
579000,0.0324,0.013523,0.002678,0.000431,0.000705
580000,0.0324,0.013523,0.002678,0.000431,0.000823
581000,0.0324,0.013523,0.002678,0.000431,0.000470
582000,0.0324,0.013523,0.002678,0.000431,0.000705
583000,0.0324,0.013523,0.002678,0.000431,0.000705
584000,0.0324,0.013523,0.002678,0.000431,0.000705
585000,0.0324,0.013523,0.002678,0.000431,0.000588
586000,0.0324,0.013523,0.002678,0.000431,0.000705
587000,0.0324,0.013523,0.002678,0.000431,0.000705
588000,0.0324,0.013523,0.002678,0.000431,0.000588
589000,0.0324,0.013523,0.002678,0.000431,0.000705
590000,0.0324,0.013523,0.002678,0.000431,0.000705
591000,0.0324,0.013523,0.002678,0.000431,0.000705
592000,0.0324,0.013523,0.002678,0.000431,0.000588
593000,0.0324,0.013523,0.002678,0.000431,0.000705
594000,0.0324,0.013523,0.002678,0.000431,0.000705
595000,0.0324,0.013523,0.002678,0.000431,0.000588
596000,0.0324,0.013523,0.002678,0.000431,0.000705
597000,0.0324,0.013523,0.002678,0.000431,0.000705
598000,0.0324,0.013523,0.002678,0.000431,0.000705
599000,0.0324,0.013523,0.002678,0.000431,0.000588
600000,0.0324,0.013523,0.002678,0.000431,0.000705
601000,0.0324,0.013523,0.002678,0.000431,0.000705
602000,0.0324,0.013523,0.002678,0.000431,0.000588
603000,0.0324,0.013523,0.002678,0.000431,0.000705
604000,0.0324,0.013523,0.002678,0.000431,0.000705
605000,0.0324,0.013523,0.002678,0.000431,0.000705
606000,0.0324,0.013523,0.002678,0.000431,0.000588
607000,0.0324,0.013523,0.002678,0.000431,0.000705
608000,0.0324,0.013523,0.002678,0.000431,0.000705
609000,0.0324,0.013523,0.002678,0.000431,0.000588
610000,0.0324,0.013523,0.002678,0.000431,0.000705
611000,0.0324,0.013523,0.002678,0.000431,0.000705
612000,0.0324,0.013523,0.002678,0.000431,0.000705
613000,0.0324,0.013523,0.002678,0.000431,0.000470
614000,0.0324,0.013523,0.002678,0.000431,0.000823
615000,0.0324,0.013523,0.002678,0.000431,0.000705
616000,0.0324,0.013523,0.002678,0.000431,0.000588
617000,0.0324,0.013523,0.002678,0.000431,0.000705
618000,0.0324,0.013523,0.002678,0.000431,0.000705
619000,0.0324,0.013523,0.002678,0.000431,0.000705
620000,0.0324,0.013523,0.002678,0.000431,0.000470
621000,0.0324,0.013523,0.002678,0.000431,0.000823
622000,0.0324,0.013523,0.002678,0.000431,0.000705
623000,0.0324,0.013523,0.002678,0.000431,0.000588
624000,0.0324,0.013523,0.002678,0.000431,0.000705
625000,0.0324,0.013523,0.002678,0.000431,0.000705
626000,0.0324,0.013523,0.002678,0.000431,0.000705
627000,0.0324,0.013523,0.002678,0.000431,0.000470
628000,0.0324,0.013523,0.002678,0.000431,0.000823
629000,0.0324,0.013523,0.002678,0.000431,0.000588
630000,0.0324,0.013523,0.002678,0.000431,0.000705
631000,0.0324,0.013523,0.002678,0.000431,0.000705
632000,0.0324,0.013523,0.002678,0.000431,0.000705
633000,0.0324,0.013523,0.002678,0.000431,0.000705
634000,0.0324,0.013523,0.002678,0.000431,0.000470
635000,0.0324,0.013523,0.002678,0.000431,0.000823
636000,0.0324,0.013523,0.002678,0.000431,0.000588
637000,0.0324,0.013523,0.002678,0.000431,0.000705
638000,0.0324,0.013523,0.002678,0.000431,0.000705
639000,0.0324,0.013523,0.002678,0.000431,0.000705
640000,0.0324,0.013523,0.002678,0.000431,0.000588
641000,0.0324,0.013523,0.002678,0.000431,0.000588
642000,0.0324,0.013523,0.002678,0.000431,0.000823
643000,0.0324,0.013523,0.002678,0.000431,0.000588
644000,0.0324,0.013523,0.002678,0.000431,0.000705
645000,0.0324,0.013523,0.002678,0.000431,0.000705
646000,0.0324,0.013523,0.002678,0.000431,0.000705
647000,0.0324,0.013523,0.002678,0.000431,0.000588
648000,0.0324,0.013523,0.002678,0.000431,0.000588
649000,0.0324,0.013523,0.002678,0.000431,0.000823
650000,0.0324,0.013523,0.002678,0.000431,0.000588
651000,0.0324,0.013523,0.002678,0.000431,0.000705
652000,0.0324,0.013523,0.002678,0.000431,0.000705
653000,0.0324,0.013523,0.002678,0.000431,0.000705
654000,0.0324,0.013523,0.002678,0.000431,0.000588
655000,0.0324,0.013523,0.002678,0.000431,0.000588
656000,0.0324,0.013523,0.002678,0.000431,0.000705
657000,0.0324,0.013523,0.002678,0.000431,0.000705
658000,0.0324,0.013523,0.002678,0.000431,0.000705
659000,0.0324,0.013523,0.002678,0.000431,0.000705
660000,0.0324,0.013523,0.002678,0.000431,0.000705
661000,0.0324,0.013523,0.002678,0.000431,0.000588
662000,0.0324,0.013523,0.002678,0.000431,0.000588
663000,0.0324,0.013523,0.002678,0.000431,0.000705
664000,0.0324,0.013523,0.002678,0.000431,0.000705
665000,0.0324,0.013523,0.002678,0.000431,0.000705
666000,0.0324,0.013523,0.002678,0.000431,0.000705
667000,0.0324,0.013523,0.002678,0.000431,0.000705
668000,0.0324,0.013523,0.002678,0.000431,0.000588
669000,0.0324,0.013523,0.002678,0.000431,0.000588
670000,0.0324,0.013523,0.002678,0.000431,0.000705
671000,0.0324,0.013523,0.002678,0.000431,0.000705
672000,0.0324,0.013523,0.002678,0.000431,0.000705
673000,0.0324,0.013523,0.002678,0.000431,0.000705
674000,0.0324,0.013523,0.002678,0.000431,0.000705
675000,0.0324,0.013523,0.002678,0.000431,0.000588
676000,0.0324,0.013523,0.002678,0.000431,0.000588
677000,0.0324,0.013523,0.002678,0.000431,0.000705
678000,0.0324,0.013523,0.002678,0.000431,0.000705
679000,0.0324,0.013523,0.002678,0.000431,0.000705
680000,0.0324,0.013523,0.002678,0.000431,0.000705
681000,0.0324,0.013523,0.002678,0.000431,0.000705
682000,0.0324,0.013523,0.002678,0.000431,0.000588
683000,0.0324,0.013523,0.002678,0.000431,0.000588
684000,0.0324,0.013523,0.002678,0.000431,0.000705
685000,0.0324,0.013523,0.002678,0.000431,0.000705
686000,0.0324,0.013523,0.002678,0.000431,0.000705
687000,0.0324,0.013523,0.002678,0.000431,0.000705
688000,0.0324,0.013523,0.002678,0.000431,0.000705
689000,0.0324,0.013523,0.002678,0.000431,0.000588
690000,0.0324,0.013523,0.002678,0.000431,0.000588
691000,0.0324,0.013523,0.002678,0.000431,0.000705
692000,0.0324,0.013523,0.002678,0.000431,0.000705
693000,0.0324,0.013523,0.002678,0.000431,0.000705
694000,0.0324,0.013523,0.002678,0.000431,0.000588
695000,0.0324,0.013523,0.002678,0.000431,0.000823
696000,0.0324,0.013523,0.002678,0.000431,0.000588
697000,0.0324,0.013523,0.002678,0.000431,0.000588
698000,0.0324,0.013523,0.002678,0.000431,0.000705
699000,0.0324,0.013523,0.002678,0.000431,0.000705
700000,0.0324,0.013523,0.002678,0.000431,0.000705
701000,0.0324,0.013523,0.002678,0.000431,0.000588
702000,0.0324,0.013523,0.002678,0.000431,0.000823
703000,0.0324,0.013523,0.002678,0.000431,0.000470
704000,0.0324,0.013523,0.002678,0.000431,0.000705
705000,0.0324,0.013523,0.002678,0.000431,0.000705
706000,0.0324,0.013523,0.002678,0.000431,0.000705
707000,0.0324,0.013523,0.002678,0.000431,0.000705
708000,0.0324,0.013523,0.002678,0.000431,0.000588
709000,0.0324,0.013523,0.002678,0.000431,0.000823
710000,0.0324,0.013523,0.002678,0.000431,0.000470
711000,0.0324,0.013523,0.002678,0.000431,0.000705
712000,0.0324,0.013523,0.002678,0.000431,0.000705
713000,0.0324,0.013523,0.002678,0.000431,0.000705
714000,0.0324,0.013523,0.002678,0.000431,0.000588
715000,0.0324,0.013523,0.002678,0.000431,0.000705
716000,0.0324,0.013523,0.002678,0.000431,0.000823
717000,0.0324,0.013523,0.002678,0.000431,0.000470
718000,0.0324,0.013523,0.002678,0.000431,0.000705
719000,0.0324,0.013523,0.002678,0.000431,0.000705
720000,0.0324,0.013523,0.002678,0.000431,0.000705
721000,0.0324,0.013523,0.002678,0.000431,0.000588
722000,0.0324,0.013523,0.002678,0.000431,0.000705
723000,0.0324,0.013523,0.002678,0.000431,0.000823
724000,0.0324,0.013523,0.002678,0.000431,0.000470
725000,0.0324,0.013523,0.002678,0.000431,0.000705
726000,0.0324,0.013523,0.002678,0.000431,0.000705
727000,0.0324,0.013523,0.002678,0.000431,0.000705
728000,0.0324,0.013523,0.002678,0.000431,0.000588
729000,0.0324,0.013523,0.002678,0.000431,0.000705
730000,0.0324,0.013523,0.002678,0.000431,0.000705
731000,0.0324,0.013523,0.002678,0.000431,0.000588
732000,0.0324,0.013523,0.002678,0.000431,0.000705
733000,0.0324,0.013523,0.002678,0.000431,0.000705
734000,0.0324,0.013523,0.002678,0.000431,0.000705
735000,0.0324,0.013523,0.002678,0.000431,0.000588
736000,0.0324,0.013523,0.002678,0.000431,0.000705
737000,0.0324,0.013523,0.002678,0.000431,0.000705
738000,0.0324,0.013523,0.002678,0.000431,0.000588
739000,0.0324,0.013523,0.002678,0.000431,0.000705
740000,0.0324,0.013523,0.002678,0.000431,0.000705
741000,0.0324,0.013523,0.002678,0.000431,0.000705
742000,0.0324,0.013523,0.002678,0.000431,0.000588
743000,0.0324,0.013523,0.002678,0.000431,0.001645
744000,0.0324,0.013523,0.002678,0.000431,0.000235
745000,0.0324,0.013523,0.002678,0.000431,0.000235
746000,0.0324,0.013523,0.002678,0.000431,0.000470
747000,0.0324,0.013523,0.002678,0.000431,0.000353
748000,0.0324,0.013523,0.002678,0.000431,0.000235
749000,0.0324,0.013523,0.002678,0.000431,0.000353
750000,0.0324,0.013523,0.002678,0.000431,0.000470
751000,0.0324,0.013523,0.002678,0.000431,0.000235
752000,0.0324,0.013523,0.002678,0.000431,0.000235
753000,0.0324,0.013523,0.002678,0.000431,0.000470
754000,0.0324,0.013523,0.002678,0.000431,0.000353
755000,0.0324,0.013523,0.002678,0.000431,0.000235
756000,0.0324,0.013523,0.002678,0.000431,0.000353
757000,0.0324,0.013523,0.002678,0.000431,0.000470
758000,0.0324,0.013523,0.002678,0.000431,0.000235
759000,0.0324,0.013523,0.002678,0.000431,0.000235
760000,0.0324,0.013523,0.002678,0.000431,0.000470
761000,0.0324,0.013523,0.002678,0.000431,0.000353
762000,0.0324,0.013523,0.002678,0.000431,0.000235
763000,0.0324,0.013523,0.002678,0.000431,0.000353
764000,0.0324,0.013523,0.002678,0.000431,0.000470
765000,0.0324,0.013523,0.002678,0.000431,0.000235
766000,0.0324,0.013523,0.002678,0.000431,0.000235
767000,0.0324,0.013523,0.002678,0.000431,0.000470
768000,0.0324,0.013523,0.002678,0.000431,0.000353
769000,0.0324,0.013523,0.002678,0.000431,0.000235
770000,0.0324,0.013523,0.002678,0.000431,0.000353
771000,0.0324,0.013523,0.002678,0.000431,0.000470
772000,0.0324,0.013523,0.002678,0.000431,0.000118
773000,0.0324,0.013523,0.002678,0.000431,0.000353
774000,0.0324,0.013523,0.002678,0.000431,0.000470
775000,0.0324,0.013523,0.002678,0.000431,0.000353
776000,0.0324,0.013523,0.002678,0.000431,0.000235
777000,0.0324,0.013523,0.002678,0.000431,0.000353
778000,0.0324,0.013523,0.002678,0.000431,0.000470
779000,0.0324,0.013523,0.002678,0.000431,0.000118
780000,0.0324,0.013523,0.002678,0.000431,0.000353
781000,0.0324,0.013523,0.002678,0.000431,0.000470
782000,0.0324,0.013523,0.002678,0.000431,0.000353
783000,0.0324,0.013523,0.002678,0.000431,0.000235
784000,0.0324,0.013523,0.002678,0.000431,0.000353
785000,0.0324,0.013523,0.002678,0.000431,0.000470
786000,0.0324,0.013523,0.002678,0.000431,0.000118
787000,0.0324,0.013523,0.002678,0.000431,0.000353
788000,0.0324,0.013523,0.002678,0.000431,0.000470
789000,0.0324,0.013523,0.002678,0.000431,0.000353
790000,0.0324,0.013523,0.002678,0.000431,0.000235
791000,0.0324,0.013523,0.002678,0.000431,0.000353
792000,0.0324,0.013523,0.002678,0.000431,0.000353
793000,0.0324,0.013523,0.002678,0.000431,0.000235
794000,0.0324,0.013523,0.002678,0.000431,0.000353
795000,0.0324,0.013523,0.002678,0.000431,0.000470
796000,0.0324,0.013523,0.002678,0.000431,0.000353
797000,0.0324,0.013523,0.002678,0.000431,0.000235
798000,0.0324,0.013523,0.002678,0.000431,0.000353
799000,0.0324,0.013523,0.002678,0.000431,0.000353
800000,0.0324,0.013523,0.002678,0.000431,0.000235
801000,0.0324,0.013523,0.002678,0.000431,0.000353
802000,0.0324,0.013523,0.002678,0.000431,0.000470
803000,0.0324,0.013523,0.002678,0.000431,0.000353
804000,0.0324,0.013523,0.002678,0.000431,0.000235
805000,0.0324,0.013523,0.002678,0.000431,0.000353
806000,0.0324,0.013523,0.002678,0.000431,0.000353
807000,0.0324,0.013523,0.002678,0.000431,0.000235
808000,0.0324,0.013523,0.002678,0.000431,0.000353
809000,0.0324,0.013523,0.002678,0.000431,0.000470
810000,0.0324,0.013523,0.002678,0.000431,0.000353
811000,0.0324,0.013523,0.002678,0.000431,0.000235
812000,0.0324,0.013523,0.002678,0.000431,0.000353
813000,0.0324,0.013523,0.002678,0.000431,0.000353
814000,0.0324,0.013523,0.002678,0.000431,0.000235
815000,0.0324,0.013523,0.002678,0.000431,0.000353
816000,0.0324,0.013523,0.002678,0.000431,0.000470
817000,0.0324,0.013523,0.002678,0.000431,0.000353
818000,0.0324,0.013523,0.002678,0.000431,0.000235
819000,0.0324,0.013523,0.002678,0.000431,0.000353
820000,0.0324,0.013523,0.002678,0.000431,0.000353
821000,0.0324,0.013523,0.002678,0.000431,0.000235
822000,0.0324,0.013523,0.002678,0.000431,0.000353
823000,0.0324,0.013523,0.002678,0.000431,0.000470
824000,0.0324,0.013523,0.002678,0.000431,0.000353
825000,0.0324,0.013523,0.002678,0.000431,0.000235
826000,0.0324,0.013523,0.002678,0.000431,0.000353
827000,0.0324,0.013523,0.002678,0.000431,0.000353
828000,0.0324,0.013523,0.002678,0.000431,0.000235
829000,0.0324,0.013523,0.002678,0.000431,0.000353
830000,0.0324,0.013523,0.002678,0.000431,0.000470
831000,0.0324,0.013523,0.002678,0.000431,0.000353
832000,0.0324,0.013523,0.002678,0.000431,0.000235
833000,0.0324,0.013523,0.002678,0.000431,0.000353
834000,0.0324,0.013523,0.002678,0.000431,0.000353
835000,0.0324,0.013523,0.002678,0.000431,0.000235
836000,0.0324,0.013523,0.002678,0.000431,0.000353
837000,0.0324,0.013523,0.002678,0.000431,0.000470
838000,0.0324,0.013523,0.002678,0.000431,0.000353
839000,0.0324,0.013523,0.002678,0.000431,0.000235
840000,0.0324,0.013523,0.002678,0.000431,0.000353
841000,0.0324,0.013523,0.002678,0.000431,0.000353
842000,0.0324,0.013523,0.002678,0.000431,0.000235
843000,0.0324,0.013523,0.002678,0.000431,0.000353
844000,0.0324,0.013523,0.002678,0.000431,0.000470
845000,0.0324,0.013523,0.002678,0.000431,0.000353
846000,0.0324,0.013523,0.002678,0.000431,0.000118
847000,0.0324,0.013523,0.002678,0.000431,0.000470
848000,0.0324,0.013523,0.002678,0.000431,0.000353
849000,0.0324,0.013523,0.002678,0.000431,0.000235
850000,0.0324,0.013523,0.002678,0.000431,0.000353
851000,0.0324,0.013523,0.002678,0.000431,0.000470
852000,0.0324,0.013523,0.002678,0.000431,0.000353
853000,0.0324,0.013523,0.002678,0.000431,0.000118
854000,0.0324,0.013523,0.002678,0.000431,0.000470
855000,0.0324,0.013523,0.002678,0.000431,0.000353
856000,0.0324,0.013523,0.002678,0.000431,0.000235
857000,0.0324,0.013523,0.002678,0.000431,0.000353
858000,0.0324,0.013523,0.002678,0.000431,0.000470
859000,0.0324,0.013523,0.002678,0.000431,0.000353
860000,0.0324,0.013523,0.002678,0.000431,0.000118
861000,0.0324,0.013523,0.002678,0.000431,0.000470
862000,0.0324,0.013523,0.002678,0.000431,0.000353
863000,0.0324,0.013523,0.002678,0.000431,0.000235
864000,0.0324,0.013523,0.002678,0.000431,0.000353
865000,0.0324,0.013523,0.002678,0.000431,0.000470
866000,0.0324,0.013523,0.002678,0.000431,0.000235
867000,0.0324,0.013523,0.002678,0.000431,0.000235
868000,0.0324,0.013523,0.002678,0.000431,0.000470
869000,0.0324,0.013523,0.002678,0.000431,0.000353
870000,0.0324,0.013523,0.002678,0.000431,0.000235
871000,0.0324,0.013523,0.002678,0.000431,0.000353
872000,0.0324,0.013523,0.002678,0.000431,0.000470
873000,0.0324,0.013523,0.002678,0.000431,0.000235
874000,0.0324,0.013523,0.002678,0.000431,0.000235
875000,0.0324,0.013523,0.002678,0.000431,0.000470
876000,0.0324,0.013523,0.002678,0.000431,0.000353
877000,0.0324,0.013523,0.002678,0.000431,0.000235
878000,0.0324,0.013523,0.002678,0.000431,0.000353
879000,0.0324,0.013523,0.002678,0.000431,0.000470
880000,0.0324,0.013523,0.002678,0.000431,0.000235
881000,0.0324,0.013523,0.002678,0.000431,0.000235
882000,0.0324,0.013523,0.002678,0.000431,0.000470
883000,0.0324,0.013523,0.002678,0.000431,0.000353
884000,0.0324,0.013523,0.002678,0.000431,0.000235
885000,0.0324,0.013523,0.002678,0.000431,0.000353
886000,0.0324,0.013523,0.002678,0.000431,0.000470
887000,0.0324,0.013523,0.002678,0.000431,0.000235
888000,0.0324,0.013523,0.002678,0.000431,0.000235
889000,0.0324,0.013523,0.002678,0.000431,0.000470
890000,0.0324,0.013523,0.002678,0.000431,0.000353
891000,0.0324,0.013523,0.002678,0.000431,0.000235
892000,0.0324,0.013523,0.002678,0.000431,0.000353
893000,0.0324,0.013523,0.002678,0.000431,0.000470
894000,0.0324,0.013523,0.002678,0.000431,0.000235
895000,0.0324,0.013523,0.002678,0.000431,0.000235
896000,0.0324,0.013523,0.002678,0.000431,0.000470
897000,0.0324,0.013523,0.002678,0.000431,0.000353
898000,0.0324,0.013523,0.002678,0.000431,0.000235
899000,0.0324,0.013523,0.002678,0.000431,0.000353
900000,0.0324,0.013523,0.002678,0.000431,0.000470
901000,0.0324,0.013523,0.002678,0.000431,0.000235
902000,0.0324,0.013523,0.002678,0.000431,0.000235
903000,0.0324,0.013523,0.002678,0.000431,0.000470
904000,0.0324,0.013523,0.002678,0.000431,0.000353
905000,0.0324,0.013523,0.002678,0.000431,0.000235
906000,0.0324,0.013523,0.002678,0.000431,0.000353
907000,0.0324,0.013523,0.002678,0.000431,0.000470
908000,0.0324,0.013523,0.002678,0.000431,0.000118
909000,0.0324,0.013523,0.002678,0.000431,0.000353
910000,0.0324,0.013523,0.002678,0.000431,0.000470
911000,0.0324,0.013523,0.002678,0.000431,0.000353
912000,0.0324,0.013523,0.002678,0.000431,0.000235
913000,0.0324,0.013523,0.002678,0.000431,0.000353
914000,0.0324,0.013523,0.002678,0.000431,0.000470
915000,0.0324,0.013523,0.002678,0.000431,0.000118
916000,0.0324,0.013523,0.002678,0.000431,0.000353
917000,0.0324,0.013523,0.002678,0.000431,0.000470
918000,0.0324,0.013523,0.002678,0.000431,0.000353
919000,0.0324,0.013523,0.002678,0.000431,0.000235
920000,0.0324,0.013523,0.002678,0.000431,0.000353
921000,0.0324,0.013523,0.002678,0.000431,0.000470
922000,0.0324,0.013523,0.002678,0.000431,0.000118
923000,0.0324,0.013523,0.002678,0.000431,0.000353
924000,0.0324,0.013523,0.002678,0.000431,0.000470
925000,0.0324,0.013523,0.002678,0.000431,0.000353
926000,0.0324,0.013523,0.002678,0.000431,0.000235
927000,0.0324,0.013523,0.002678,0.000431,0.000353
928000,0.0324,0.013523,0.002678,0.000431,0.000470
929000,0.0324,0.013523,0.002678,0.000431,0.000118
930000,0.0324,0.013523,0.002678,0.000431,0.000353
931000,0.0324,0.013523,0.002678,0.000431,0.000470
932000,0.0324,0.013523,0.002678,0.000431,0.000353
933000,0.0324,0.013523,0.002678,0.000431,0.000235
934000,0.0324,0.013523,0.002678,0.000431,0.000353
935000,0.0324,0.013523,0.002678,0.000431,0.000353
936000,0.0324,0.013523,0.002678,0.000431,0.000235
937000,0.0324,0.013523,0.002678,0.000431,0.000353
938000,0.0324,0.013523,0.002678,0.000431,0.000470
939000,0.0324,0.013523,0.002678,0.000431,0.000353
940000,0.0324,0.013523,0.002678,0.000431,0.000235
941000,0.0324,0.013523,0.002678,0.000431,0.000353
942000,0.0324,0.013523,0.002678,0.000431,0.000353
943000,0.0324,0.013523,0.002678,0.000431,0.000235
944000,0.0324,0.013523,0.002678,0.000431,0.000353
945000,0.0324,0.013523,0.002678,0.000431,0.000470
946000,0.0324,0.013523,0.002678,0.000431,0.000353
947000,0.0324,0.013523,0.002678,0.000431,0.000235
948000,0.0324,0.013523,0.002678,0.000431,0.000353
949000,0.0324,0.013523,0.002678,0.000431,0.000353
950000,0.0324,0.013523,0.002678,0.000431,0.000235
951000,0.0324,0.013523,0.002678,0.000431,0.000353
952000,0.0324,0.013523,0.002678,0.000431,0.000470
953000,0.0324,0.013523,0.002678,0.000431,0.000353
954000,0.0324,0.013523,0.002678,0.000431,0.000235
955000,0.0324,0.013523,0.002678,0.000431,0.000353
956000,0.0324,0.013523,0.002678,0.000431,0.000353
957000,0.0324,0.013523,0.002678,0.000431,0.000235
958000,0.0324,0.013523,0.002678,0.000431,0.000353
959000,0.0324,0.013523,0.002678,0.000431,0.000470
960000,0.0324,0.013523,0.002678,0.000431,0.000353
961000,0.0324,0.013523,0.002678,0.000431,0.000235
962000,0.0324,0.013523,0.002678,0.000431,0.000353
963000,0.0324,0.013523,0.002678,0.000431,0.000353
964000,0.0324,0.013523,0.002678,0.000431,0.000235
965000,0.0324,0.013523,0.002678,0.000431,0.000353
966000,0.0324,0.013523,0.002678,0.000431,0.000470
967000,0.0324,0.013523,0.002678,0.000431,0.000353
968000,0.0324,0.013523,0.002678,0.000431,0.000235
969000,0.0324,0.013523,0.002678,0.000431,0.000353
970000,0.0324,0.013523,0.002678,0.000431,0.000353
971000,0.0324,0.013523,0.002678,0.000431,0.000235
972000,0.0324,0.013523,0.002678,0.000431,0.000353
973000,0.0324,0.013523,0.002678,0.000431,0.000470
974000,0.0324,0.013523,0.002678,0.000431,0.000353
975000,0.0324,0.013523,0.002678,0.000431,0.000235
976000,0.0324,0.013523,0.002678,0.000431,0.000353
977000,0.0324,0.013523,0.002678,0.000431,0.000353
978000,0.0324,0.013523,0.002678,0.000431,0.000235
979000,0.0324,0.013523,0.002678,0.000431,0.000353
980000,0.0324,0.013523,0.002678,0.000431,0.000470
981000,0.0324,0.013523,0.002678,0.000431,0.000353
982000,0.0324,0.013523,0.002678,0.000431,0.000118
983000,0.0324,0.013523,0.002678,0.000431,0.000470
984000,0.0324,0.013523,0.002678,0.000431,0.000353
985000,0.0324,0.013523,0.002678,0.000431,0.000235
986000,0.0324,0.013523,0.002678,0.000431,0.000353
987000,0.0324,0.013523,0.002678,0.000431,0.000470
988000,0.0324,0.013523,0.002678,0.000431,0.000353
989000,0.0324,0.013523,0.002678,0.000431,0.000118
990000,0.0324,0.013523,0.002678,0.000431,0.000470
991000,0.0324,0.013523,0.002678,0.000431,0.000353
992000,0.0324,0.013523,0.002678,0.000431,0.000235
993000,0.0324,0.013523,0.002678,0.000431,0.000353
994000,0.0324,0.013523,0.002678,0.000431,0.000470
995000,0.0324,0.013523,0.002678,0.000431,0.000353
996000,0.0324,0.013523,0.002678,0.000431,0.000118
997000,0.0324,0.013523,0.002678,0.000431,0.000470
998000,0.0324,0.013523,0.002678,0.000431,0.000353
999000,0.0324,0.013523,0.002678,0.000431,0.000235
