Cycle,Area(mm^2),PeakDynamic(W),SubthresholdLeakage(W),GateLeakage(W),RunTimeDynamic(W)
1000,0.0324,0.013523,0.002678,0.000431,0.000000
2000,0.0324,0.013523,0.002678,0.000431,0.000000
3000,0.0324,0.013523,0.002678,0.000431,0.000000
4000,0.0324,0.013523,0.002678,0.000431,0.000000
5000,0.0324,0.013523,0.002678,0.000431,0.000000
6000,0.0324,0.013523,0.002678,0.000431,0.661801
7000,0.0324,0.013523,0.002678,0.000431,0.413229
8000,0.0324,0.013523,0.002678,0.000431,0.357286
9000,0.0324,0.013523,0.002678,0.000431,0.290412
10000,0.0324,0.013523,0.002678,0.000431,0.215547
11000,0.0324,0.013523,0.002678,0.000431,0.233646
12000,0.0324,0.013523,0.002678,0.000431,0.219660
13000,0.0324,0.013523,0.002678,0.000431,0.213901
14000,0.0324,0.013523,0.002678,0.000431,0.218132
15000,0.0324,0.013523,0.002678,0.000431,0.216604
16000,0.0324,0.013523,0.002678,0.000431,0.217427
17000,0.0324,0.013523,0.002678,0.000431,0.210140
18000,0.0324,0.013523,0.002678,0.000431,0.218132
19000,0.0324,0.013523,0.002678,0.000431,0.212608
20000,0.0324,0.013523,0.002678,0.000431,0.211551
21000,0.0324,0.013523,0.002678,0.000431,0.210963
22000,0.0324,0.013523,0.002678,0.000431,0.219190
23000,0.0324,0.013523,0.002678,0.000431,0.214606
24000,0.0324,0.013523,0.002678,0.000431,0.206144
25000,0.0324,0.013523,0.002678,0.000431,0.209905
26000,0.0324,0.013523,0.002678,0.000431,0.220130
27000,0.0324,0.013523,0.002678,0.000431,0.203324
28000,0.0324,0.013523,0.002678,0.000431,0.208613
29000,0.0324,0.013523,0.002678,0.000431,0.208965
30000,0.0324,0.013523,0.002678,0.000431,0.196390
31000,0.0324,0.013523,0.002678,0.000431,0.210258
32000,0.0324,0.013523,0.002678,0.000431,0.207907
33000,0.0324,0.013523,0.002678,0.000431,0.204264
34000,0.0324,0.013523,0.002678,0.000431,0.195684
35000,0.0324,0.013523,0.002678,0.000431,0.204029
36000,0.0324,0.013523,0.002678,0.000431,0.204382
37000,0.0324,0.013523,0.002678,0.000431,0.195919
38000,0.0324,0.013523,0.002678,0.000431,0.199445
39000,0.0324,0.013523,0.002678,0.000431,0.203794
40000,0.0324,0.013523,0.002678,0.000431,0.191218
41000,0.0324,0.013523,0.002678,0.000431,0.188163
42000,0.0324,0.013523,0.002678,0.000431,0.196507
43000,0.0324,0.013523,0.002678,0.000431,0.189690
44000,0.0324,0.013523,0.002678,0.000431,0.186635
45000,0.0324,0.013523,0.002678,0.000431,0.187222
46000,0.0324,0.013523,0.002678,0.000431,0.189455
47000,0.0324,0.013523,0.002678,0.000431,0.178290
48000,0.0324,0.013523,0.002678,0.000431,0.180758
49000,0.0324,0.013523,0.002678,0.000431,0.180993
50000,0.0324,0.013523,0.002678,0.000431,0.172414
51000,0.0324,0.013523,0.002678,0.000431,0.174412
52000,0.0324,0.013523,0.002678,0.000431,0.169593
53000,0.0324,0.013523,0.002678,0.000431,0.172884
54000,0.0324,0.013523,0.002678,0.000431,0.173472
55000,0.0324,0.013523,0.002678,0.000431,0.159838
56000,0.0324,0.013523,0.002678,0.000431,0.164539
57000,0.0324,0.013523,0.002678,0.000431,0.163599
58000,0.0324,0.013523,0.002678,0.000431,0.158075
59000,0.0324,0.013523,0.002678,0.000431,0.156077
60000,0.0324,0.013523,0.002678,0.000431,0.156312
61000,0.0324,0.013523,0.002678,0.000431,0.146675
62000,0.0324,0.013523,0.002678,0.000431,0.152552
63000,0.0324,0.013523,0.002678,0.000431,0.148086
64000,0.0324,0.013523,0.002678,0.000431,0.142327
65000,0.0324,0.013523,0.002678,0.000431,0.143149
66000,0.0324,0.013523,0.002678,0.000431,0.141739
67000,0.0324,0.013523,0.002678,0.000431,0.141269
68000,0.0324,0.013523,0.002678,0.000431,0.134687
69000,0.0324,0.013523,0.002678,0.000431,0.135275
70000,0.0324,0.013523,0.002678,0.000431,0.141269
71000,0.0324,0.013523,0.002678,0.000431,0.128693
72000,0.0324,0.013523,0.002678,0.000431,0.125050
73000,0.0324,0.013523,0.002678,0.000431,0.133159
74000,0.0324,0.013523,0.002678,0.000431,0.120936
75000,0.0324,0.013523,0.002678,0.000431,0.124697
76000,0.0324,0.013523,0.002678,0.000431,0.123757
77000,0.0324,0.013523,0.002678,0.000431,0.111299
78000,0.0324,0.013523,0.002678,0.000431,0.121994
79000,0.0324,0.013523,0.002678,0.000431,0.121054
80000,0.0324,0.013523,0.002678,0.000431,0.110359
81000,0.0324,0.013523,0.002678,0.000431,0.111064
82000,0.0324,0.013523,0.002678,0.000431,0.119526
83000,0.0324,0.013523,0.002678,0.000431,0.103542
84000,0.0324,0.013523,0.002678,0.000431,0.109066
85000,0.0324,0.013523,0.002678,0.000431,0.113532
86000,0.0324,0.013523,0.002678,0.000431,0.105423
87000,0.0324,0.013523,0.002678,0.000431,0.104247
88000,0.0324,0.013523,0.002678,0.000431,0.108949
89000,0.0324,0.013523,0.002678,0.000431,0.099781
90000,0.0324,0.013523,0.002678,0.000431,0.102955
91000,0.0324,0.013523,0.002678,0.000431,0.105775
92000,0.0324,0.013523,0.002678,0.000431,0.098254
93000,0.0324,0.013523,0.002678,0.000431,0.096373
94000,0.0324,0.013523,0.002678,0.000431,0.101897
95000,0.0324,0.013523,0.002678,0.000431,0.097783
96000,0.0324,0.013523,0.002678,0.000431,0.089321
97000,0.0324,0.013523,0.002678,0.000431,0.093082
98000,0.0324,0.013523,0.002678,0.000431,0.097901
99000,0.0324,0.013523,0.002678,0.000431,0.087441
100000,0.0324,0.013523,0.002678,0.000431,0.091790
101000,0.0324,0.013523,0.002678,0.000431,0.092377
102000,0.0324,0.013523,0.002678,0.000431,0.085090
103000,0.0324,0.013523,0.002678,0.000431,0.091202
104000,0.0324,0.013523,0.002678,0.000431,0.086383
105000,0.0324,0.013523,0.002678,0.000431,0.083210
106000,0.0324,0.013523,0.002678,0.000431,0.088029
107000,0.0324,0.013523,0.002678,0.000431,0.084268
108000,0.0324,0.013523,0.002678,0.000431,0.082270
109000,0.0324,0.013523,0.002678,0.000431,0.083915
110000,0.0324,0.013523,0.002678,0.000431,0.078391
111000,0.0324,0.013523,0.002678,0.000431,0.083915
112000,0.0324,0.013523,0.002678,0.000431,0.080507
113000,0.0324,0.013523,0.002678,0.000431,0.080977
114000,0.0324,0.013523,0.002678,0.000431,0.076511
115000,0.0324,0.013523,0.002678,0.000431,0.080624
116000,0.0324,0.013523,0.002678,0.000431,0.075571
117000,0.0324,0.013523,0.002678,0.000431,0.075806
118000,0.0324,0.013523,0.002678,0.000431,0.072985
119000,0.0324,0.013523,0.002678,0.000431,0.077334
120000,0.0324,0.013523,0.002678,0.000431,0.071457
121000,0.0324,0.013523,0.002678,0.000431,0.072045
122000,0.0324,0.013523,0.002678,0.000431,0.073455
123000,0.0324,0.013523,0.002678,0.000431,0.072162
124000,0.0324,0.013523,0.002678,0.000431,0.067344
125000,0.0324,0.013523,0.002678,0.000431,0.070164
126000,0.0324,0.013523,0.002678,0.000431,0.063700
127000,0.0324,0.013523,0.002678,0.000431,0.070164
128000,0.0324,0.013523,0.002678,0.000431,0.067814
129000,0.0324,0.013523,0.002678,0.000431,0.064876
130000,0.0324,0.013523,0.002678,0.000431,0.064523
131000,0.0324,0.013523,0.002678,0.000431,0.067344
132000,0.0324,0.013523,0.002678,0.000431,0.062643
133000,0.0324,0.013523,0.002678,0.000431,0.061115
134000,0.0324,0.013523,0.002678,0.000431,0.063818
135000,0.0324,0.013523,0.002678,0.000431,0.061820
136000,0.0324,0.013523,0.002678,0.000431,0.060409
137000,0.0324,0.013523,0.002678,0.000431,0.061937
138000,0.0324,0.013523,0.002678,0.000431,0.058764
139000,0.0324,0.013523,0.002678,0.000431,0.060174
140000,0.0324,0.013523,0.002678,0.000431,0.057236
141000,0.0324,0.013523,0.002678,0.000431,0.063113
142000,0.0324,0.013523,0.002678,0.000431,0.054533
143000,0.0324,0.013523,0.002678,0.000431,0.057471
144000,0.0324,0.013523,0.002678,0.000431,0.058764
145000,0.0324,0.013523,0.002678,0.000431,0.054063
146000,0.0324,0.013523,0.002678,0.000431,0.057119
147000,0.0324,0.013523,0.002678,0.000431,0.058882
148000,0.0324,0.013523,0.002678,0.000431,0.052065
149000,0.0324,0.013523,0.002678,0.000431,0.053240
150000,0.0324,0.013523,0.002678,0.000431,0.057119
151000,0.0324,0.013523,0.002678,0.000431,0.051242
152000,0.0324,0.013523,0.002678,0.000431,0.055826
153000,0.0324,0.013523,0.002678,0.000431,0.053945
154000,0.0324,0.013523,0.002678,0.000431,0.054533
155000,0.0324,0.013523,0.002678,0.000431,0.051830
156000,0.0324,0.013523,0.002678,0.000431,0.054298
157000,0.0324,0.013523,0.002678,0.000431,0.049009
158000,0.0324,0.013523,0.002678,0.000431,0.052183
159000,0.0324,0.013523,0.002678,0.000431,0.053123
160000,0.0324,0.013523,0.002678,0.000431,0.049362
161000,0.0324,0.013523,0.002678,0.000431,0.051125
162000,0.0324,0.013523,0.002678,0.000431,0.052065
163000,0.0324,0.013523,0.002678,0.000431,0.047481
164000,0.0324,0.013523,0.002678,0.000431,0.049597
165000,0.0324,0.013523,0.002678,0.000431,0.047364
166000,0.0324,0.013523,0.002678,0.000431,0.048539
167000,0.0324,0.013523,0.002678,0.000431,0.044308
168000,0.0324,0.013523,0.002678,0.000431,0.050420
169000,0.0324,0.013523,0.002678,0.000431,0.045836
170000,0.0324,0.013523,0.002678,0.000431,0.044778
171000,0.0324,0.013523,0.002678,0.000431,0.047599
172000,0.0324,0.013523,0.002678,0.000431,0.042898
173000,0.0324,0.013523,0.002678,0.000431,0.045366
174000,0.0324,0.013523,0.002678,0.000431,0.045248
175000,0.0324,0.013523,0.002678,0.000431,0.040900
176000,0.0324,0.013523,0.002678,0.000431,0.046071
177000,0.0324,0.013523,0.002678,0.000431,0.042428
178000,0.0324,0.013523,0.002678,0.000431,0.042898
179000,0.0324,0.013523,0.002678,0.000431,0.042663
180000,0.0324,0.013523,0.002678,0.000431,0.040665
181000,0.0324,0.013523,0.002678,0.000431,0.042898
182000,0.0324,0.013523,0.002678,0.000431,0.040665
183000,0.0324,0.013523,0.002678,0.000431,0.042075
184000,0.0324,0.013523,0.002678,0.000431,0.041605
185000,0.0324,0.013523,0.002678,0.000431,0.040077
186000,0.0324,0.013523,0.002678,0.000431,0.039254
187000,0.0324,0.013523,0.002678,0.000431,0.039254
188000,0.0324,0.013523,0.002678,0.000431,0.040900
189000,0.0324,0.013523,0.002678,0.000431,0.039137
190000,0.0324,0.013523,0.002678,0.000431,0.038549
191000,0.0324,0.013523,0.002678,0.000431,0.042428
192000,0.0324,0.013523,0.002678,0.000431,0.033966
193000,0.0324,0.013523,0.002678,0.000431,0.041723
194000,0.0324,0.013523,0.002678,0.000431,0.036316
195000,0.0324,0.013523,0.002678,0.000431,0.038784
196000,0.0324,0.013523,0.002678,0.000431,0.036081
197000,0.0324,0.013523,0.002678,0.000431,0.038432
198000,0.0324,0.013523,0.002678,0.000431,0.035611
199000,0.0324,0.013523,0.002678,0.000431,0.037021
200000,0.0324,0.013523,0.002678,0.000431,0.036316
201000,0.0324,0.013523,0.002678,0.000431,0.032908
202000,0.0324,0.013523,0.002678,0.000431,0.038667
203000,0.0324,0.013523,0.002678,0.000431,0.032555
204000,0.0324,0.013523,0.002678,0.000431,0.037491
205000,0.0324,0.013523,0.002678,0.000431,0.032790
206000,0.0324,0.013523,0.002678,0.000431,0.036551
207000,0.0324,0.013523,0.002678,0.000431,0.033496
208000,0.0324,0.013523,0.002678,0.000431,0.035023
209000,0.0324,0.013523,0.002678,0.000431,0.032673
210000,0.0324,0.013523,0.002678,0.000431,0.037139
211000,0.0324,0.013523,0.002678,0.000431,0.029500
212000,0.0324,0.013523,0.002678,0.000431,0.035141
213000,0.0324,0.013523,0.002678,0.000431,0.032438
214000,0.0324,0.013523,0.002678,0.000431,0.032790
215000,0.0324,0.013523,0.002678,0.000431,0.032203
216000,0.0324,0.013523,0.002678,0.000431,0.033025
217000,0.0324,0.013523,0.002678,0.000431,0.030792
218000,0.0324,0.013523,0.002678,0.000431,0.032438
219000,0.0324,0.013523,0.002678,0.000431,0.030910
220000,0.0324,0.013523,0.002678,0.000431,0.030322
221000,0.0324,0.013523,0.002678,0.000431,0.032438
222000,0.0324,0.013523,0.002678,0.000431,0.027619
223000,0.0324,0.013523,0.002678,0.000431,0.032438
224000,0.0324,0.013523,0.002678,0.000431,0.028442
225000,0.0324,0.013523,0.002678,0.000431,0.030792
226000,0.0324,0.013523,0.002678,0.000431,0.029382
227000,0.0324,0.013523,0.002678,0.000431,0.028089
228000,0.0324,0.013523,0.002678,0.000431,0.029382
229000,0.0324,0.013523,0.002678,0.000431,0.027384
230000,0.0324,0.013523,0.002678,0.000431,0.027737
231000,0.0324,0.013523,0.002678,0.000431,0.028794
232000,0.0324,0.013523,0.002678,0.000431,0.026326
233000,0.0324,0.013523,0.002678,0.000431,0.026914
234000,0.0324,0.013523,0.002678,0.000431,0.026091
235000,0.0324,0.013523,0.002678,0.000431,0.026326
236000,0.0324,0.013523,0.002678,0.000431,0.026914
237000,0.0324,0.013523,0.002678,0.000431,0.024916
238000,0.0324,0.013523,0.002678,0.000431,0.028442
239000,0.0324,0.013523,0.002678,0.000431,0.023388
240000,0.0324,0.013523,0.002678,0.000431,0.026091
241000,0.0324,0.013523,0.002678,0.000431,0.024681
242000,0.0324,0.013523,0.002678,0.000431,0.026561
243000,0.0324,0.013523,0.002678,0.000431,0.023153
244000,0.0324,0.013523,0.002678,0.000431,0.025739
245000,0.0324,0.013523,0.002678,0.000431,0.024446
246000,0.0324,0.013523,0.002678,0.000431,0.023388
247000,0.0324,0.013523,0.002678,0.000431,0.024328
248000,0.0324,0.013523,0.002678,0.000431,0.022683
249000,0.0324,0.013523,0.002678,0.000431,0.025504
250000,0.0324,0.013523,0.002678,0.000431,0.021978
251000,0.0324,0.013523,0.002678,0.000431,0.024681
252000,0.0324,0.013523,0.002678,0.000431,0.023388
253000,0.0324,0.013523,0.002678,0.000431,0.024681
254000,0.0324,0.013523,0.002678,0.000431,0.021743
255000,0.0324,0.013523,0.002678,0.000431,0.024211
256000,0.0324,0.013523,0.002678,0.000431,0.021860
257000,0.0324,0.013523,0.002678,0.000431,0.023271
258000,0.0324,0.013523,0.002678,0.000431,0.021390
259000,0.0324,0.013523,0.002678,0.000431,0.023153
260000,0.0324,0.013523,0.002678,0.000431,0.021860
261000,0.0324,0.013523,0.002678,0.000431,0.021978
262000,0.0324,0.013523,0.002678,0.000431,0.021978
263000,0.0324,0.013523,0.002678,0.000431,0.021390
264000,0.0324,0.013523,0.002678,0.000431,0.021390
265000,0.0324,0.013523,0.002678,0.000431,0.020567
266000,0.0324,0.013523,0.002678,0.000431,0.022683
267000,0.0324,0.013523,0.002678,0.000431,0.019980
268000,0.0324,0.013523,0.002678,0.000431,0.021978
269000,0.0324,0.013523,0.002678,0.000431,0.020332
270000,0.0324,0.013523,0.002678,0.000431,0.021038
271000,0.0324,0.013523,0.002678,0.000431,0.019040
272000,0.0324,0.013523,0.002678,0.000431,0.021038
273000,0.0324,0.013523,0.002678,0.000431,0.021390
274000,0.0324,0.013523,0.002678,0.000431,0.017629
275000,0.0324,0.013523,0.002678,0.000431,0.021390
276000,0.0324,0.013523,0.002678,0.000431,0.018334
277000,0.0324,0.013523,0.002678,0.000431,0.020450
278000,0.0324,0.013523,0.002678,0.000431,0.017512
279000,0.0324,0.013523,0.002678,0.000431,0.019275
280000,0.0324,0.013523,0.002678,0.000431,0.019627
281000,0.0324,0.013523,0.002678,0.000431,0.018099
282000,0.0324,0.013523,0.002678,0.000431,0.019040
283000,0.0324,0.013523,0.002678,0.000431,0.018099
284000,0.0324,0.013523,0.002678,0.000431,0.018334
285000,0.0324,0.013523,0.002678,0.000431,0.019040
286000,0.0324,0.013523,0.002678,0.000431,0.017512
287000,0.0324,0.013523,0.002678,0.000431,0.018099
288000,0.0324,0.013523,0.002678,0.000431,0.019275
289000,0.0324,0.013523,0.002678,0.000431,0.016571
290000,0.0324,0.013523,0.002678,0.000431,0.018569
291000,0.0324,0.013523,0.002678,0.000431,0.017394
292000,0.0324,0.013523,0.002678,0.000431,0.017747
293000,0.0324,0.013523,0.002678,0.000431,0.017747
294000,0.0324,0.013523,0.002678,0.000431,0.016924
295000,0.0324,0.013523,0.002678,0.000431,0.017864
296000,0.0324,0.013523,0.002678,0.000431,0.016336
297000,0.0324,0.013523,0.002678,0.000431,0.018217
298000,0.0324,0.013523,0.002678,0.000431,0.015161
299000,0.0324,0.013523,0.002678,0.000431,0.019157
300000,0.0324,0.013523,0.002678,0.000431,0.014456
301000,0.0324,0.013523,0.002678,0.000431,0.018217
302000,0.0324,0.013523,0.002678,0.000431,0.015984
303000,0.0324,0.013523,0.002678,0.000431,0.016924
304000,0.0324,0.013523,0.002678,0.000431,0.016336
305000,0.0324,0.013523,0.002678,0.000431,0.015984
306000,0.0324,0.013523,0.002678,0.000431,0.016219
307000,0.0324,0.013523,0.002678,0.000431,0.016454
308000,0.0324,0.013523,0.002678,0.000431,0.015161
309000,0.0324,0.013523,0.002678,0.000431,0.017394
310000,0.0324,0.013523,0.002678,0.000431,0.015161
311000,0.0324,0.013523,0.002678,0.000431,0.016101
312000,0.0324,0.013523,0.002678,0.000431,0.015044
313000,0.0324,0.013523,0.002678,0.000431,0.015984
314000,0.0324,0.013523,0.002678,0.000431,0.015161
315000,0.0324,0.013523,0.002678,0.000431,0.014809
316000,0.0324,0.013523,0.002678,0.000431,0.015161
317000,0.0324,0.013523,0.002678,0.000431,0.014573
318000,0.0324,0.013523,0.002678,0.000431,0.015044
319000,0.0324,0.013523,0.002678,0.000431,0.014221
320000,0.0324,0.013523,0.002678,0.000431,0.013633
321000,0.0324,0.013523,0.002678,0.000431,0.015631
322000,0.0324,0.013523,0.002678,0.000431,0.013868
323000,0.0324,0.013523,0.002678,0.000431,0.014338
324000,0.0324,0.013523,0.002678,0.000431,0.014221
325000,0.0324,0.013523,0.002678,0.000431,0.013986
326000,0.0324,0.013523,0.002678,0.000431,0.014456
327000,0.0324,0.013523,0.002678,0.000431,0.012340
328000,0.0324,0.013523,0.002678,0.000431,0.015044
329000,0.0324,0.013523,0.002678,0.000431,0.013281
330000,0.0324,0.013523,0.002678,0.000431,0.014573
331000,0.0324,0.013523,0.002678,0.000431,0.012811
332000,0.0324,0.013523,0.002678,0.000431,0.013633
333000,0.0324,0.013523,0.002678,0.000431,0.013163
334000,0.0324,0.013523,0.002678,0.000431,0.013751
335000,0.0324,0.013523,0.002678,0.000431,0.012928
336000,0.0324,0.013523,0.002678,0.000431,0.011988
337000,0.0324,0.013523,0.002678,0.000431,0.013751
338000,0.0324,0.013523,0.002678,0.000431,0.011518
339000,0.0324,0.013523,0.002678,0.000431,0.013398
340000,0.0324,0.013523,0.002678,0.000431,0.013046
341000,0.0324,0.013523,0.002678,0.000431,0.012105
342000,0.0324,0.013523,0.002678,0.000431,0.013868
343000,0.0324,0.013523,0.002678,0.000431,0.011283
344000,0.0324,0.013523,0.002678,0.000431,0.013281
345000,0.0324,0.013523,0.002678,0.000431,0.011518
346000,0.0324,0.013523,0.002678,0.000431,0.013163
347000,0.0324,0.013523,0.002678,0.000431,0.011870
348000,0.0324,0.013523,0.002678,0.000431,0.012223
349000,0.0324,0.013523,0.002678,0.000431,0.011400
350000,0.0324,0.013523,0.002678,0.000431,0.013046
351000,0.0324,0.013523,0.002678,0.000431,0.009990
352000,0.0324,0.013523,0.002678,0.000431,0.012340
353000,0.0324,0.013523,0.002678,0.000431,0.010930
354000,0.0324,0.013523,0.002678,0.000431,0.011870
355000,0.0324,0.013523,0.002678,0.000431,0.010578
356000,0.0324,0.013523,0.002678,0.000431,0.010695
357000,0.0324,0.013523,0.002678,0.000431,0.010695
358000,0.0324,0.013523,0.002678,0.000431,0.010813
359000,0.0324,0.013523,0.002678,0.000431,0.009637
360000,0.0324,0.013523,0.002678,0.000431,0.010460
361000,0.0324,0.013523,0.002678,0.000431,0.008932
362000,0.0324,0.013523,0.002678,0.000431,0.009872
363000,0.0324,0.013523,0.002678,0.000431,0.009872
364000,0.0324,0.013523,0.002678,0.000431,0.009637
365000,0.0324,0.013523,0.002678,0.000431,0.009050
366000,0.0324,0.013523,0.002678,0.000431,0.009520
367000,0.0324,0.013523,0.002678,0.000431,0.009872
368000,0.0324,0.013523,0.002678,0.000431,0.007757
369000,0.0324,0.013523,0.002678,0.000431,0.009755
370000,0.0324,0.013523,0.002678,0.000431,0.007874
371000,0.0324,0.013523,0.002678,0.000431,0.010107
372000,0.0324,0.013523,0.002678,0.000431,0.007757
373000,0.0324,0.013523,0.002678,0.000431,0.009167
374000,0.0324,0.013523,0.002678,0.000431,0.008109
375000,0.0324,0.013523,0.002678,0.000431,0.009167
376000,0.0324,0.013523,0.002678,0.000431,0.007992
377000,0.0324,0.013523,0.002678,0.000431,0.008227
378000,0.0324,0.013523,0.002678,0.000431,0.008932
379000,0.0324,0.013523,0.002678,0.000431,0.007639
380000,0.0324,0.013523,0.002678,0.000431,0.007992
381000,0.0324,0.013523,0.002678,0.000431,0.008815
382000,0.0324,0.013523,0.002678,0.000431,0.007169
383000,0.0324,0.013523,0.002678,0.000431,0.009050
384000,0.0324,0.013523,0.002678,0.000431,0.005994
385000,0.0324,0.013523,0.002678,0.000431,0.009050
386000,0.0324,0.013523,0.002678,0.000431,0.007052
387000,0.0324,0.013523,0.002678,0.000431,0.007639
388000,0.0324,0.013523,0.002678,0.000431,0.006934
389000,0.0324,0.013523,0.002678,0.000431,0.007287
390000,0.0324,0.013523,0.002678,0.000431,0.007404
391000,0.0324,0.013523,0.002678,0.000431,0.005641
392000,0.0324,0.013523,0.002678,0.000431,0.007874
393000,0.0324,0.013523,0.002678,0.000431,0.007757
394000,0.0324,0.013523,0.002678,0.000431,0.005641
395000,0.0324,0.013523,0.002678,0.000431,0.007992
396000,0.0324,0.013523,0.002678,0.000431,0.006111
397000,0.0324,0.013523,0.002678,0.000431,0.007404
398000,0.0324,0.013523,0.002678,0.000431,0.006347
399000,0.0324,0.013523,0.002678,0.000431,0.007287
400000,0.0324,0.013523,0.002678,0.000431,0.006464
401000,0.0324,0.013523,0.002678,0.000431,0.006464
402000,0.0324,0.013523,0.002678,0.000431,0.006464
403000,0.0324,0.013523,0.002678,0.000431,0.006934
404000,0.0324,0.013523,0.002678,0.000431,0.006347
405000,0.0324,0.013523,0.002678,0.000431,0.005524
406000,0.0324,0.013523,0.002678,0.000431,0.007169
407000,0.0324,0.013523,0.002678,0.000431,0.006229
408000,0.0324,0.013523,0.002678,0.000431,0.006347
409000,0.0324,0.013523,0.002678,0.000431,0.005876
410000,0.0324,0.013523,0.002678,0.000431,0.006347
411000,0.0324,0.013523,0.002678,0.000431,0.006229
412000,0.0324,0.013523,0.002678,0.000431,0.005524
413000,0.0324,0.013523,0.002678,0.000431,0.005759
414000,0.0324,0.013523,0.002678,0.000431,0.005876
415000,0.0324,0.013523,0.002678,0.000431,0.005054
416000,0.0324,0.013523,0.002678,0.000431,0.006347
417000,0.0324,0.013523,0.002678,0.000431,0.004701
418000,0.0324,0.013523,0.002678,0.000431,0.005171
419000,0.0324,0.013523,0.002678,0.000431,0.005406
420000,0.0324,0.013523,0.002678,0.000431,0.005759
421000,0.0324,0.013523,0.002678,0.000431,0.004349
422000,0.0324,0.013523,0.002678,0.000431,0.005289
423000,0.0324,0.013523,0.002678,0.000431,0.005171
424000,0.0324,0.013523,0.002678,0.000431,0.004701
425000,0.0324,0.013523,0.002678,0.000431,0.005759
426000,0.0324,0.013523,0.002678,0.000431,0.003643
427000,0.0324,0.013523,0.002678,0.000431,0.005876
428000,0.0324,0.013523,0.002678,0.000431,0.004466
429000,0.0324,0.013523,0.002678,0.000431,0.004584
430000,0.0324,0.013523,0.002678,0.000431,0.006111
431000,0.0324,0.013523,0.002678,0.000431,0.003291
432000,0.0324,0.013523,0.002678,0.000431,0.005994
433000,0.0324,0.013523,0.002678,0.000431,0.004584
434000,0.0324,0.013523,0.002678,0.000431,0.004349
435000,0.0324,0.013523,0.002678,0.000431,0.003878
436000,0.0324,0.013523,0.002678,0.000431,0.005054
437000,0.0324,0.013523,0.002678,0.000431,0.004349
438000,0.0324,0.013523,0.002678,0.000431,0.003408
439000,0.0324,0.013523,0.002678,0.000431,0.004819
440000,0.0324,0.013523,0.002678,0.000431,0.003878
441000,0.0324,0.013523,0.002678,0.000431,0.004466
442000,0.0324,0.013523,0.002678,0.000431,0.003878
443000,0.0324,0.013523,0.002678,0.000431,0.004231
444000,0.0324,0.013523,0.002678,0.000431,0.004584
445000,0.0324,0.013523,0.002678,0.000431,0.002821
446000,0.0324,0.013523,0.002678,0.000431,0.005171
447000,0.0324,0.013523,0.002678,0.000431,0.003408
448000,0.0324,0.013523,0.002678,0.000431,0.003173
449000,0.0324,0.013523,0.002678,0.000431,0.004231
450000,0.0324,0.013523,0.002678,0.000431,0.002938
451000,0.0324,0.013523,0.002678,0.000431,0.004231
452000,0.0324,0.013523,0.002678,0.000431,0.002703
453000,0.0324,0.013523,0.002678,0.000431,0.004231
454000,0.0324,0.013523,0.002678,0.000431,0.003056
455000,0.0324,0.013523,0.002678,0.000431,0.003878
456000,0.0324,0.013523,0.002678,0.000431,0.003996
457000,0.0324,0.013523,0.002678,0.000431,0.002468
458000,0.0324,0.013523,0.002678,0.000431,0.003878
459000,0.0324,0.013523,0.002678,0.000431,0.003291
460000,0.0324,0.013523,0.002678,0.000431,0.003408
461000,0.0324,0.013523,0.002678,0.000431,0.002938
462000,0.0324,0.013523,0.002678,0.000431,0.004349
463000,0.0324,0.013523,0.002678,0.000431,0.003056
464000,0.0324,0.013523,0.002678,0.000431,0.003056
465000,0.0324,0.013523,0.002678,0.000431,0.003996
466000,0.0324,0.013523,0.002678,0.000431,0.002703
467000,0.0324,0.013523,0.002678,0.000431,0.003878
468000,0.0324,0.013523,0.002678,0.000431,0.002703
469000,0.0324,0.013523,0.002678,0.000431,0.003996
470000,0.0324,0.013523,0.002678,0.000431,0.002703
471000,0.0324,0.013523,0.002678,0.000431,0.002938
472000,0.0324,0.013523,0.002678,0.000431,0.003643
473000,0.0324,0.013523,0.002678,0.000431,0.002233
474000,0.0324,0.013523,0.002678,0.000431,0.003056
475000,0.0324,0.013523,0.002678,0.000431,0.003643
476000,0.0324,0.013523,0.002678,0.000431,0.001880
477000,0.0324,0.013523,0.002678,0.000431,0.003056
478000,0.0324,0.013523,0.002678,0.000431,0.002586
479000,0.0324,0.013523,0.002678,0.000431,0.002938
480000,0.0324,0.013523,0.002678,0.000431,0.002116
481000,0.0324,0.013523,0.002678,0.000431,0.003173
482000,0.0324,0.013523,0.002678,0.000431,0.002703
483000,0.0324,0.013523,0.002678,0.000431,0.001763
484000,0.0324,0.013523,0.002678,0.000431,0.003056
485000,0.0324,0.013523,0.002678,0.000431,0.002821
486000,0.0324,0.013523,0.002678,0.000431,0.001998
487000,0.0324,0.013523,0.002678,0.000431,0.002586
488000,0.0324,0.013523,0.002678,0.000431,0.002821
489000,0.0324,0.013523,0.002678,0.000431,0.002116
490000,0.0324,0.013523,0.002678,0.000431,0.001998
491000,0.0324,0.013523,0.002678,0.000431,0.003056
492000,0.0324,0.013523,0.002678,0.000431,0.001528
493000,0.0324,0.013523,0.002678,0.000431,0.001998
494000,0.0324,0.013523,0.002678,0.000431,0.002351
495000,0.0324,0.013523,0.002678,0.000431,0.002116
496000,0.0324,0.013523,0.002678,0.000431,0.002233
497000,0.0324,0.013523,0.002678,0.000431,0.001763
498000,0.0324,0.013523,0.002678,0.000431,0.002938
499000,0.0324,0.013523,0.002678,0.000431,0.001528
500000,0.0324,0.013523,0.002678,0.000431,0.002351
501000,0.0324,0.013523,0.002678,0.000431,0.002586
502000,0.0324,0.013523,0.002678,0.000431,0.001763
503000,0.0324,0.013523,0.002678,0.000431,0.001880
504000,0.0324,0.013523,0.002678,0.000431,0.002586
505000,0.0324,0.013523,0.002678,0.000431,0.001763
506000,0.0324,0.013523,0.002678,0.000431,0.001763
507000,0.0324,0.013523,0.002678,0.000431,0.001880
508000,0.0324,0.013523,0.002678,0.000431,0.001998
509000,0.0324,0.013523,0.002678,0.000431,0.001410
510000,0.0324,0.013523,0.002678,0.000431,0.001998
511000,0.0324,0.013523,0.002678,0.000431,0.001763
512000,0.0324,0.013523,0.002678,0.000431,0.001410
513000,0.0324,0.013523,0.002678,0.000431,0.001763
514000,0.0324,0.013523,0.002678,0.000431,0.001645
515000,0.0324,0.013523,0.002678,0.000431,0.001410
516000,0.0324,0.013523,0.002678,0.000431,0.001528
517000,0.0324,0.013523,0.002678,0.000431,0.001763
518000,0.0324,0.013523,0.002678,0.000431,0.001528
519000,0.0324,0.013523,0.002678,0.000431,0.001293
520000,0.0324,0.013523,0.002678,0.000431,0.002233
521000,0.0324,0.013523,0.002678,0.000431,0.001058
522000,0.0324,0.013523,0.002678,0.000431,0.001645
523000,0.0324,0.013523,0.002678,0.000431,0.001645
524000,0.0324,0.013523,0.002678,0.000431,0.001763
525000,0.0324,0.013523,0.002678,0.000431,0.001175
526000,0.0324,0.013523,0.002678,0.000431,0.002116
527000,0.0324,0.013523,0.002678,0.000431,0.001175
528000,0.0324,0.013523,0.002678,0.000431,0.001175
529000,0.0324,0.013523,0.002678,0.000431,0.001175
530000,0.0324,0.013523,0.002678,0.000431,0.001763
531000,0.0324,0.013523,0.002678,0.000431,0.001058
532000,0.0324,0.013523,0.002678,0.000431,0.001410
533000,0.0324,0.013523,0.002678,0.000431,0.001645
534000,0.0324,0.013523,0.002678,0.000431,0.001293
535000,0.0324,0.013523,0.002678,0.000431,0.001058
536000,0.0324,0.013523,0.002678,0.000431,0.001880
537000,0.0324,0.013523,0.002678,0.000431,0.000940
538000,0.0324,0.013523,0.002678,0.000431,0.001293
539000,0.0324,0.013523,0.002678,0.000431,0.001528
540000,0.0324,0.013523,0.002678,0.000431,0.001058
541000,0.0324,0.013523,0.002678,0.000431,0.001175
542000,0.0324,0.013523,0.002678,0.000431,0.001410
543000,0.0324,0.013523,0.002678,0.000431,0.001293
544000,0.0324,0.013523,0.002678,0.000431,0.000940
545000,0.0324,0.013523,0.002678,0.000431,0.001058
546000,0.0324,0.013523,0.002678,0.000431,0.001410
547000,0.0324,0.013523,0.002678,0.000431,0.000823
548000,0.0324,0.013523,0.002678,0.000431,0.001058
549000,0.0324,0.013523,0.002678,0.000431,0.001645
550000,0.0324,0.013523,0.002678,0.000431,0.000823
551000,0.0324,0.013523,0.002678,0.000431,0.000940
552000,0.0324,0.013523,0.002678,0.000431,0.001293
553000,0.0324,0.013523,0.002678,0.000431,0.001293
554000,0.0324,0.013523,0.002678,0.000431,0.000823
555000,0.0324,0.013523,0.002678,0.000431,0.001293
556000,0.0324,0.013523,0.002678,0.000431,0.001175
557000,0.0324,0.013523,0.002678,0.000431,0.000823
558000,0.0324,0.013523,0.002678,0.000431,0.001058
559000,0.0324,0.013523,0.002678,0.000431,0.001293
560000,0.0324,0.013523,0.002678,0.000431,0.000705
561000,0.0324,0.013523,0.002678,0.000431,0.000940
562000,0.0324,0.013523,0.002678,0.000431,0.001293
563000,0.0324,0.013523,0.002678,0.000431,0.000588
564000,0.0324,0.013523,0.002678,0.000431,0.000705
565000,0.0324,0.013523,0.002678,0.000431,0.000940
566000,0.0324,0.013523,0.002678,0.000431,0.001058
567000,0.0324,0.013523,0.002678,0.000431,0.000470
568000,0.0324,0.013523,0.002678,0.000431,0.000940
569000,0.0324,0.013523,0.002678,0.000431,0.001058
570000,0.0324,0.013523,0.002678,0.000431,0.000588
571000,0.0324,0.013523,0.002678,0.000431,0.000940
572000,0.0324,0.013523,0.002678,0.000431,0.000940
573000,0.0324,0.013523,0.002678,0.000431,0.000823
574000,0.0324,0.013523,0.002678,0.000431,0.000705
575000,0.0324,0.013523,0.002678,0.000431,0.001058
576000,0.0324,0.013523,0.002678,0.000431,0.000940
577000,0.0324,0.013523,0.002678,0.000431,0.000353
578000,0.0324,0.013523,0.002678,0.000431,0.001058
579000,0.0324,0.013523,0.002678,0.000431,0.001058
580000,0.0324,0.013523,0.002678,0.000431,0.000588
581000,0.0324,0.013523,0.002678,0.000431,0.000940
582000,0.0324,0.013523,0.002678,0.000431,0.000940
583000,0.0324,0.013523,0.002678,0.000431,0.000823
584000,0.0324,0.013523,0.002678,0.000431,0.000588
585000,0.0324,0.013523,0.002678,0.000431,0.001175
586000,0.0324,0.013523,0.002678,0.000431,0.000823
587000,0.0324,0.013523,0.002678,0.000431,0.000470
588000,0.0324,0.013523,0.002678,0.000431,0.001058
589000,0.0324,0.013523,0.002678,0.000431,0.000940
590000,0.0324,0.013523,0.002678,0.000431,0.000705
591000,0.0324,0.013523,0.002678,0.000431,0.000705
592000,0.0324,0.013523,0.002678,0.000431,0.001175
593000,0.0324,0.013523,0.002678,0.000431,0.000705
594000,0.0324,0.013523,0.002678,0.000431,0.000588
595000,0.0324,0.013523,0.002678,0.000431,0.001058
596000,0.0324,0.013523,0.002678,0.000431,0.000588
597000,0.0324,0.013523,0.002678,0.000431,0.000470
598000,0.0324,0.013523,0.002678,0.000431,0.000823
599000,0.0324,0.013523,0.002678,0.000431,0.000823
600000,0.0324,0.013523,0.002678,0.000431,0.000470
601000,0.0324,0.013523,0.002678,0.000431,0.000705
602000,0.0324,0.013523,0.002678,0.000431,0.000940
603000,0.0324,0.013523,0.002678,0.000431,0.000470
604000,0.0324,0.013523,0.002678,0.000431,0.000588
605000,0.0324,0.013523,0.002678,0.000431,0.001058
606000,0.0324,0.013523,0.002678,0.000431,0.000353
607000,0.0324,0.013523,0.002678,0.000431,0.000705
608000,0.0324,0.013523,0.002678,0.000431,0.000940
609000,0.0324,0.013523,0.002678,0.000431,0.000353
610000,0.0324,0.013523,0.002678,0.000431,0.000705
611000,0.0324,0.013523,0.002678,0.000431,0.000705
612000,0.0324,0.013523,0.002678,0.000431,0.000470
613000,0.0324,0.013523,0.002678,0.000431,0.000588
614000,0.0324,0.013523,0.002678,0.000431,0.000823
615000,0.0324,0.013523,0.002678,0.000431,0.000470
616000,0.0324,0.013523,0.002678,0.000431,0.000470
617000,0.0324,0.013523,0.002678,0.000431,0.000940
618000,0.0324,0.013523,0.002678,0.000431,0.000353
619000,0.0324,0.013523,0.002678,0.000431,0.000588
620000,0.0324,0.013523,0.002678,0.000431,0.000705
621000,0.0324,0.013523,0.002678,0.000431,0.000235
622000,0.0324,0.013523,0.002678,0.000431,0.000705
623000,0.0324,0.013523,0.002678,0.000431,0.000470
624000,0.0324,0.013523,0.002678,0.000431,0.000470
625000,0.0324,0.013523,0.002678,0.000431,0.000705
626000,0.0324,0.013523,0.002678,0.000431,0.000470
627000,0.0324,0.013523,0.002678,0.000431,0.000470
628000,0.0324,0.013523,0.002678,0.000431,0.000588
629000,0.0324,0.013523,0.002678,0.000431,0.000705
630000,0.0324,0.013523,0.002678,0.000431,0.000353
631000,0.0324,0.013523,0.002678,0.000431,0.000470
632000,0.0324,0.013523,0.002678,0.000431,0.000823
633000,0.0324,0.013523,0.002678,0.000431,0.000235
634000,0.0324,0.013523,0.002678,0.000431,0.000588
635000,0.0324,0.013523,0.002678,0.000431,0.000588
636000,0.0324,0.013523,0.002678,0.000431,0.000353
637000,0.0324,0.013523,0.002678,0.000431,0.000470
638000,0.0324,0.013523,0.002678,0.000431,0.000118
639000,0.0324,0.013523,0.002678,0.000431,0.000470
640000,0.0324,0.013523,0.002678,0.000431,0.000470
641000,0.0324,0.013523,0.002678,0.000431,0.000118
642000,0.0324,0.013523,0.002678,0.000431,0.000470
643000,0.0324,0.013523,0.002678,0.000431,0.000353
644000,0.0324,0.013523,0.002678,0.000431,0.000353
645000,0.0324,0.013523,0.002678,0.000431,0.000470
646000,0.0324,0.013523,0.002678,0.000431,0.000118
647000,0.0324,0.013523,0.002678,0.000431,0.000470
648000,0.0324,0.013523,0.002678,0.000431,0.000470
649000,0.0324,0.013523,0.002678,0.000431,0.000118
650000,0.0324,0.013523,0.002678,0.000431,0.000470
651000,0.0324,0.013523,0.002678,0.000431,0.000353
652000,0.0324,0.013523,0.002678,0.000431,0.000353
653000,0.0324,0.013523,0.002678,0.000431,0.000470
654000,0.0324,0.013523,0.002678,0.000431,0.000118
655000,0.0324,0.013523,0.002678,0.000431,0.000470
656000,0.0324,0.013523,0.002678,0.000431,0.000470
657000,0.0324,0.013523,0.002678,0.000431,0.000118
658000,0.0324,0.013523,0.002678,0.000431,0.000470
659000,0.0324,0.013523,0.002678,0.000431,0.000353
660000,0.0324,0.013523,0.002678,0.000431,0.000353
661000,0.0324,0.013523,0.002678,0.000431,0.000470
662000,0.0324,0.013523,0.002678,0.000431,0.000118
663000,0.0324,0.013523,0.002678,0.000431,0.000470
664000,0.0324,0.013523,0.002678,0.000431,0.000470
665000,0.0324,0.013523,0.002678,0.000431,0.000118
666000,0.0324,0.013523,0.002678,0.000431,0.000470
667000,0.0324,0.013523,0.002678,0.000431,0.000353
668000,0.0324,0.013523,0.002678,0.000431,0.000235
669000,0.0324,0.013523,0.002678,0.000431,0.000470
670000,0.0324,0.013523,0.002678,0.000431,0.000235
671000,0.0324,0.013523,0.002678,0.000431,0.000353
672000,0.0324,0.013523,0.002678,0.000431,0.000588
673000,0.0324,0.013523,0.002678,0.000431,0.000118
674000,0.0324,0.013523,0.002678,0.000431,0.000470
675000,0.0324,0.013523,0.002678,0.000431,0.000353
676000,0.0324,0.013523,0.002678,0.000431,0.000235
677000,0.0324,0.013523,0.002678,0.000431,0.000470
678000,0.0324,0.013523,0.002678,0.000431,0.000235
679000,0.0324,0.013523,0.002678,0.000431,0.000353
680000,0.0324,0.013523,0.002678,0.000431,0.000470
681000,0.0324,0.013523,0.002678,0.000431,0.000235
682000,0.0324,0.013523,0.002678,0.000431,0.000470
683000,0.0324,0.013523,0.002678,0.000431,0.000353
684000,0.0324,0.013523,0.002678,0.000431,0.000235
685000,0.0324,0.013523,0.002678,0.000431,0.000470
686000,0.0324,0.013523,0.002678,0.000431,0.000235
687000,0.0324,0.013523,0.002678,0.000431,0.000353
688000,0.0324,0.013523,0.002678,0.000431,0.000470
689000,0.0324,0.013523,0.002678,0.000431,0.000235
690000,0.0324,0.013523,0.002678,0.000431,0.000470
691000,0.0324,0.013523,0.002678,0.000431,0.000353
692000,0.0324,0.013523,0.002678,0.000431,0.000235
693000,0.0324,0.013523,0.002678,0.000431,0.000470
694000,0.0324,0.013523,0.002678,0.000431,0.000235
695000,0.0324,0.013523,0.002678,0.000431,0.000353
696000,0.0324,0.013523,0.002678,0.000431,0.000470
697000,0.0324,0.013523,0.002678,0.000431,0.000235
698000,0.0324,0.013523,0.002678,0.000431,0.000470
699000,0.0324,0.013523,0.002678,0.000431,0.000353
700000,0.0324,0.013523,0.002678,0.000431,0.000235
701000,0.0324,0.013523,0.002678,0.000431,0.000470
702000,0.0324,0.013523,0.002678,0.000431,0.000235
703000,0.0324,0.013523,0.002678,0.000431,0.000353
704000,0.0324,0.013523,0.002678,0.000431,0.000470
705000,0.0324,0.013523,0.002678,0.000431,0.000118
706000,0.0324,0.013523,0.002678,0.000431,0.000588
707000,0.0324,0.013523,0.002678,0.000431,0.000353
708000,0.0324,0.013523,0.002678,0.000431,0.000235
709000,0.0324,0.013523,0.002678,0.000431,0.000470
710000,0.0324,0.013523,0.002678,0.000431,0.000235
711000,0.0324,0.013523,0.002678,0.000431,0.000353
712000,0.0324,0.013523,0.002678,0.000431,0.000353
713000,0.0324,0.013523,0.002678,0.000431,0.000118
714000,0.0324,0.013523,0.002678,0.000431,0.000470
715000,0.0324,0.013523,0.002678,0.000431,0.000118
716000,0.0324,0.013523,0.002678,0.000431,0.000470
717000,0.0324,0.013523,0.002678,0.000431,0.000235
718000,0.0324,0.013523,0.002678,0.000431,0.000353
719000,0.0324,0.013523,0.002678,0.000431,0.000353
720000,0.0324,0.013523,0.002678,0.000431,0.000118
721000,0.0324,0.013523,0.002678,0.000431,0.000470
722000,0.0324,0.013523,0.002678,0.000431,0.000118
723000,0.0324,0.013523,0.002678,0.000431,0.000470
724000,0.0324,0.013523,0.002678,0.000431,0.000235
725000,0.0324,0.013523,0.002678,0.000431,0.000353
726000,0.0324,0.013523,0.002678,0.000431,0.000353
727000,0.0324,0.013523,0.002678,0.000431,0.000118
728000,0.0324,0.013523,0.002678,0.000431,0.000470
729000,0.0324,0.013523,0.002678,0.000431,0.000118
730000,0.0324,0.013523,0.002678,0.000431,0.000470
731000,0.0324,0.013523,0.002678,0.000431,0.000235
732000,0.0324,0.013523,0.002678,0.000431,0.000235
733000,0.0324,0.013523,0.002678,0.000431,0.000470
734000,0.0324,0.013523,0.002678,0.000431,0.000118
735000,0.0324,0.013523,0.002678,0.000431,0.000353
736000,0.0324,0.013523,0.002678,0.000431,0.000235
737000,0.0324,0.013523,0.002678,0.000431,0.000353
738000,0.0324,0.013523,0.002678,0.000431,0.000353
739000,0.0324,0.013523,0.002678,0.000431,0.000235
740000,0.0324,0.013523,0.002678,0.000431,0.000353
741000,0.0324,0.013523,0.002678,0.000431,0.000235
742000,0.0324,0.013523,0.002678,0.000431,0.000353
743000,0.0324,0.013523,0.002678,0.000431,0.000235
744000,0.0324,0.013523,0.002678,0.000431,0.000353
745000,0.0324,0.013523,0.002678,0.000431,0.000353
746000,0.0324,0.013523,0.002678,0.000431,0.000235
747000,0.0324,0.013523,0.002678,0.000431,0.000353
748000,0.0324,0.013523,0.002678,0.000431,0.000118
749000,0.0324,0.013523,0.002678,0.000431,0.000470
750000,0.0324,0.013523,0.002678,0.000431,0.000235
751000,0.0324,0.013523,0.002678,0.000431,0.000353
752000,0.0324,0.013523,0.002678,0.000431,0.000353
753000,0.0324,0.013523,0.002678,0.000431,0.000118
754000,0.0324,0.013523,0.002678,0.000431,0.000470
755000,0.0324,0.013523,0.002678,0.000431,0.000118
756000,0.0324,0.013523,0.002678,0.000431,0.000470
757000,0.0324,0.013523,0.002678,0.000431,0.000235
758000,0.0324,0.013523,0.002678,0.000431,0.000353
759000,0.0324,0.013523,0.002678,0.000431,0.000353
760000,0.0324,0.013523,0.002678,0.000431,0.000118
761000,0.0324,0.013523,0.002678,0.000431,0.000470
762000,0.0324,0.013523,0.002678,0.000431,0.000118
763000,0.0324,0.013523,0.002678,0.000431,0.000470
764000,0.0324,0.013523,0.002678,0.000431,0.000235
765000,0.0324,0.013523,0.002678,0.000431,0.000235
766000,0.0324,0.013523,0.002678,0.000431,0.000470
767000,0.0324,0.013523,0.002678,0.000431,0.000118
768000,0.0324,0.013523,0.002678,0.000431,0.000353
769000,0.0324,0.013523,0.002678,0.000431,0.000235
770000,0.0324,0.013523,0.002678,0.000431,0.000353
771000,0.0324,0.013523,0.002678,0.000431,0.000353
772000,0.0324,0.013523,0.002678,0.000431,0.000235
773000,0.0324,0.013523,0.002678,0.000431,0.000353
774000,0.0324,0.013523,0.002678,0.000431,0.000235
775000,0.0324,0.013523,0.002678,0.000431,0.000353
776000,0.0324,0.013523,0.002678,0.000431,0.000235
777000,0.0324,0.013523,0.002678,0.000431,0.000353
778000,0.0324,0.013523,0.002678,0.000431,0.000353
779000,0.0324,0.013523,0.002678,0.000431,0.000235
780000,0.0324,0.013523,0.002678,0.000431,0.000353
781000,0.0324,0.013523,0.002678,0.000431,0.000118
782000,0.0324,0.013523,0.002678,0.000431,0.000470
783000,0.0324,0.013523,0.002678,0.000431,0.000235
784000,0.0324,0.013523,0.002678,0.000431,0.000353
785000,0.0324,0.013523,0.002678,0.000431,0.000353
786000,0.0324,0.013523,0.002678,0.000431,0.000118
787000,0.0324,0.013523,0.002678,0.000431,0.000470
788000,0.0324,0.013523,0.002678,0.000431,0.000118
789000,0.0324,0.013523,0.002678,0.000431,0.000470
790000,0.0324,0.013523,0.002678,0.000431,0.000235
791000,0.0324,0.013523,0.002678,0.000431,0.000353
792000,0.0324,0.013523,0.002678,0.000431,0.000353
793000,0.0324,0.013523,0.002678,0.000431,0.000118
794000,0.0324,0.013523,0.002678,0.000431,0.000470
795000,0.0324,0.013523,0.002678,0.000431,0.000118
796000,0.0324,0.013523,0.002678,0.000431,0.000470
797000,0.0324,0.013523,0.002678,0.000431,0.000235
798000,0.0324,0.013523,0.002678,0.000431,0.000235
799000,0.0324,0.013523,0.002678,0.000431,0.000235
800000,0.0324,0.013523,0.002678,0.000431,0.000235
801000,0.0324,0.013523,0.002678,0.000431,0.000235
802000,0.0324,0.013523,0.002678,0.000431,0.000235
803000,0.0324,0.013523,0.002678,0.000431,0.000235
804000,0.0324,0.013523,0.002678,0.000431,0.000235
805000,0.0324,0.013523,0.002678,0.000431,0.000235
806000,0.0324,0.013523,0.002678,0.000431,0.000235
807000,0.0324,0.013523,0.002678,0.000431,0.000235
808000,0.0324,0.013523,0.002678,0.000431,0.000118
809000,0.0324,0.013523,0.002678,0.000431,0.000353
810000,0.0324,0.013523,0.002678,0.000431,0.000118
811000,0.0324,0.013523,0.002678,0.000431,0.000353
812000,0.0324,0.013523,0.002678,0.000431,0.000118
813000,0.0324,0.013523,0.002678,0.000431,0.000353
814000,0.0324,0.013523,0.002678,0.000431,0.000118
815000,0.0324,0.013523,0.002678,0.000431,0.000353
816000,0.0324,0.013523,0.002678,0.000431,0.000118
817000,0.0324,0.013523,0.002678,0.000431,0.000353
818000,0.0324,0.013523,0.002678,0.000431,0.000118
819000,0.0324,0.013523,0.002678,0.000431,0.000353
820000,0.0324,0.013523,0.002678,0.000431,0.000118
821000,0.0324,0.013523,0.002678,0.000431,0.000353
822000,0.0324,0.013523,0.002678,0.000431,0.000118
823000,0.0324,0.013523,0.002678,0.000431,0.000353
824000,0.0324,0.013523,0.002678,0.000431,0.000000
825000,0.0324,0.013523,0.002678,0.000431,0.000470
826000,0.0324,0.013523,0.002678,0.000431,0.000000
827000,0.0324,0.013523,0.002678,0.000431,0.000470
828000,0.0324,0.013523,0.002678,0.000431,0.000000
829000,0.0324,0.013523,0.002678,0.000431,0.000470
830000,0.0324,0.013523,0.002678,0.000431,0.000000
831000,0.0324,0.013523,0.002678,0.000431,0.000470
832000,0.0324,0.013523,0.002678,0.000431,0.000000
833000,0.0324,0.013523,0.002678,0.000431,0.000470
834000,0.0324,0.013523,0.002678,0.000431,0.000000
835000,0.0324,0.013523,0.002678,0.000431,0.000353
836000,0.0324,0.013523,0.002678,0.000431,0.000118
837000,0.0324,0.013523,0.002678,0.000431,0.000353
838000,0.0324,0.013523,0.002678,0.000431,0.000118
839000,0.0324,0.013523,0.002678,0.000431,0.000353
840000,0.0324,0.013523,0.002678,0.000431,0.000118
841000,0.0324,0.013523,0.002678,0.000431,0.000353
842000,0.0324,0.013523,0.002678,0.000431,0.000118
843000,0.0324,0.013523,0.002678,0.000431,0.000353
844000,0.0324,0.013523,0.002678,0.000431,0.000118
845000,0.0324,0.013523,0.002678,0.000431,0.000353
846000,0.0324,0.013523,0.002678,0.000431,0.000118
847000,0.0324,0.013523,0.002678,0.000431,0.000353
848000,0.0324,0.013523,0.002678,0.000431,0.000118
849000,0.0324,0.013523,0.002678,0.000431,0.000235
850000,0.0324,0.013523,0.002678,0.000431,0.000235
851000,0.0324,0.013523,0.002678,0.000431,0.000235
852000,0.0324,0.013523,0.002678,0.000431,0.000235
853000,0.0324,0.013523,0.002678,0.000431,0.000235
854000,0.0324,0.013523,0.002678,0.000431,0.000235
855000,0.0324,0.013523,0.002678,0.000431,0.000235
856000,0.0324,0.013523,0.002678,0.000431,0.000235
857000,0.0324,0.013523,0.002678,0.000431,0.000235
858000,0.0324,0.013523,0.002678,0.000431,0.000235
859000,0.0324,0.013523,0.002678,0.000431,0.000118
860000,0.0324,0.013523,0.002678,0.000431,0.000353
861000,0.0324,0.013523,0.002678,0.000431,0.000118
862000,0.0324,0.013523,0.002678,0.000431,0.000353
863000,0.0324,0.013523,0.002678,0.000431,0.000118
864000,0.0324,0.013523,0.002678,0.000431,0.000353
865000,0.0324,0.013523,0.002678,0.000431,0.000118
866000,0.0324,0.013523,0.002678,0.000431,0.000353
867000,0.0324,0.013523,0.002678,0.000431,0.000118
868000,0.0324,0.013523,0.002678,0.000431,0.000353
869000,0.0324,0.013523,0.002678,0.000431,0.000118
870000,0.0324,0.013523,0.002678,0.000431,0.000353
871000,0.0324,0.013523,0.002678,0.000431,0.000118
872000,0.0324,0.013523,0.002678,0.000431,0.000353
873000,0.0324,0.013523,0.002678,0.000431,0.000118
874000,0.0324,0.013523,0.002678,0.000431,0.000353
875000,0.0324,0.013523,0.002678,0.000431,0.000000
876000,0.0324,0.013523,0.002678,0.000431,0.000470
877000,0.0324,0.013523,0.002678,0.000431,0.000000
878000,0.0324,0.013523,0.002678,0.000431,0.000470
879000,0.0324,0.013523,0.002678,0.000431,0.000000
880000,0.0324,0.013523,0.002678,0.000431,0.000470
881000,0.0324,0.013523,0.002678,0.000431,0.000000
882000,0.0324,0.013523,0.002678,0.000431,0.000470
883000,0.0324,0.013523,0.002678,0.000431,0.000000
884000,0.0324,0.013523,0.002678,0.000431,0.000470
885000,0.0324,0.013523,0.002678,0.000431,0.000000
886000,0.0324,0.013523,0.002678,0.000431,0.000353
887000,0.0324,0.013523,0.002678,0.000431,0.000118
888000,0.0324,0.013523,0.002678,0.000431,0.000353
889000,0.0324,0.013523,0.002678,0.000431,0.000118
890000,0.0324,0.013523,0.002678,0.000431,0.000353
891000,0.0324,0.013523,0.002678,0.000431,0.000118
892000,0.0324,0.013523,0.002678,0.000431,0.000353
893000,0.0324,0.013523,0.002678,0.000431,0.000118
894000,0.0324,0.013523,0.002678,0.000431,0.000353
895000,0.0324,0.013523,0.002678,0.000431,0.000118
896000,0.0324,0.013523,0.002678,0.000431,0.000353
897000,0.0324,0.013523,0.002678,0.000431,0.000118
898000,0.0324,0.013523,0.002678,0.000431,0.000353
899000,0.0324,0.013523,0.002678,0.000431,0.000118
900000,0.0324,0.013523,0.002678,0.000431,0.000235
901000,0.0324,0.013523,0.002678,0.000431,0.000235
902000,0.0324,0.013523,0.002678,0.000431,0.000235
903000,0.0324,0.013523,0.002678,0.000431,0.000235
904000,0.0324,0.013523,0.002678,0.000431,0.000235
905000,0.0324,0.013523,0.002678,0.000431,0.000235
906000,0.0324,0.013523,0.002678,0.000431,0.000235
907000,0.0324,0.013523,0.002678,0.000431,0.000235
908000,0.0324,0.013523,0.002678,0.000431,0.000235
909000,0.0324,0.013523,0.002678,0.000431,0.000235
910000,0.0324,0.013523,0.002678,0.000431,0.000118
911000,0.0324,0.013523,0.002678,0.000431,0.000353
912000,0.0324,0.013523,0.002678,0.000431,0.000118
913000,0.0324,0.013523,0.002678,0.000431,0.000353
914000,0.0324,0.013523,0.002678,0.000431,0.000118
915000,0.0324,0.013523,0.002678,0.000431,0.000353
916000,0.0324,0.013523,0.002678,0.000431,0.000118
917000,0.0324,0.013523,0.002678,0.000431,0.000353
918000,0.0324,0.013523,0.002678,0.000431,0.000118
919000,0.0324,0.013523,0.002678,0.000431,0.000353
920000,0.0324,0.013523,0.002678,0.000431,0.000118
921000,0.0324,0.013523,0.002678,0.000431,0.000353
922000,0.0324,0.013523,0.002678,0.000431,0.000118
923000,0.0324,0.013523,0.002678,0.000431,0.000353
924000,0.0324,0.013523,0.002678,0.000431,0.000118
925000,0.0324,0.013523,0.002678,0.000431,0.000353
926000,0.0324,0.013523,0.002678,0.000431,0.000000
927000,0.0324,0.013523,0.002678,0.000431,0.000470
928000,0.0324,0.013523,0.002678,0.000431,0.000000
929000,0.0324,0.013523,0.002678,0.000431,0.000470
930000,0.0324,0.013523,0.002678,0.000431,0.000000
931000,0.0324,0.013523,0.002678,0.000431,0.000235
932000,0.0324,0.013523,0.002678,0.000431,0.000000
933000,0.0324,0.013523,0.002678,0.000431,0.000235
934000,0.0324,0.013523,0.002678,0.000431,0.000235
935000,0.0324,0.013523,0.002678,0.000431,0.000000
936000,0.0324,0.013523,0.002678,0.000431,0.000235
937000,0.0324,0.013523,0.002678,0.000431,0.000000
938000,0.0324,0.013523,0.002678,0.000431,0.000235
939000,0.0324,0.013523,0.002678,0.000431,0.000118
940000,0.0324,0.013523,0.002678,0.000431,0.000118
941000,0.0324,0.013523,0.002678,0.000431,0.000235
942000,0.0324,0.013523,0.002678,0.000431,0.000000
943000,0.0324,0.013523,0.002678,0.000431,0.000235
944000,0.0324,0.013523,0.002678,0.000431,0.000000
945000,0.0324,0.013523,0.002678,0.000431,0.000235
946000,0.0324,0.013523,0.002678,0.000431,0.000118
947000,0.0324,0.013523,0.002678,0.000431,0.000118
948000,0.0324,0.013523,0.002678,0.000431,0.000235
949000,0.0324,0.013523,0.002678,0.000431,0.000000
950000,0.0324,0.013523,0.002678,0.000431,0.000235
951000,0.0324,0.013523,0.002678,0.000431,0.000118
952000,0.0324,0.013523,0.002678,0.000431,0.000118
953000,0.0324,0.013523,0.002678,0.000431,0.000235
954000,0.0324,0.013523,0.002678,0.000431,0.000000
955000,0.0324,0.013523,0.002678,0.000431,0.000235
956000,0.0324,0.013523,0.002678,0.000431,0.000000
957000,0.0324,0.013523,0.002678,0.000431,0.000235
958000,0.0324,0.013523,0.002678,0.000431,0.000118
959000,0.0324,0.013523,0.002678,0.000431,0.000118
960000,0.0324,0.013523,0.002678,0.000431,0.000235
961000,0.0324,0.013523,0.002678,0.000431,0.000000
962000,0.0324,0.013523,0.002678,0.000431,0.000235
963000,0.0324,0.013523,0.002678,0.000431,0.000000
964000,0.0324,0.013523,0.002678,0.000431,0.000235
965000,0.0324,0.013523,0.002678,0.000431,0.000235
966000,0.0324,0.013523,0.002678,0.000431,0.000000
967000,0.0324,0.013523,0.002678,0.000431,0.000235
968000,0.0324,0.013523,0.002678,0.000431,0.000000
969000,0.0324,0.013523,0.002678,0.000431,0.000235
970000,0.0324,0.013523,0.002678,0.000431,0.000118
971000,0.0324,0.013523,0.002678,0.000431,0.000118
972000,0.0324,0.013523,0.002678,0.000431,0.000235
973000,0.0324,0.013523,0.002678,0.000431,0.000000
974000,0.0324,0.013523,0.002678,0.000431,0.000235
975000,0.0324,0.013523,0.002678,0.000431,0.000000
976000,0.0324,0.013523,0.002678,0.000431,0.000235
977000,0.0324,0.013523,0.002678,0.000431,0.000118
978000,0.0324,0.013523,0.002678,0.000431,0.000118
979000,0.0324,0.013523,0.002678,0.000431,0.000235
980000,0.0324,0.013523,0.002678,0.000431,0.000000
981000,0.0324,0.013523,0.002678,0.000431,0.000235
982000,0.0324,0.013523,0.002678,0.000431,0.000118
983000,0.0324,0.013523,0.002678,0.000431,0.000118
984000,0.0324,0.013523,0.002678,0.000431,0.000235
985000,0.0324,0.013523,0.002678,0.000431,0.000000
986000,0.0324,0.013523,0.002678,0.000431,0.000235
987000,0.0324,0.013523,0.002678,0.000431,0.000000
988000,0.0324,0.013523,0.002678,0.000431,0.000235
989000,0.0324,0.013523,0.002678,0.000431,0.000118
990000,0.0324,0.013523,0.002678,0.000431,0.000118
991000,0.0324,0.013523,0.002678,0.000431,0.000235
992000,0.0324,0.013523,0.002678,0.000431,0.000000
993000,0.0324,0.013523,0.002678,0.000431,0.000235
