Cycle,Area(mm^2),PeakDynamic(W),SubthresholdLeakage(W),GateLeakage(W),RunTimeDynamic(W)
24000000,0.0324,0.013523,0.002678,0.000431,0.117411
24001000,0.0324,0.013523,0.002678,0.000431,0.070164
24002000,0.0324,0.013523,0.002678,0.000431,0.036551
24003000,0.0324,0.013523,0.002678,0.000431,0.125520
24004000,0.0324,0.013523,0.002678,0.000431,0.058294
24005000,0.0324,0.013523,0.002678,0.000431,0.105423
24006000,0.0324,0.013523,0.002678,0.000431,0.063583
24007000,0.0324,0.013523,0.002678,0.000431,0.171826
24008000,0.0324,0.013523,0.002678,0.000431,0.051477
24009000,0.0324,0.013523,0.002678,0.000431,0.188280
24010000,0.0324,0.013523,0.002678,0.000431,0.123052
24011000,0.0324,0.013523,0.002678,0.000431,0.122934
24012000,0.0324,0.013523,0.002678,0.000431,0.043838
24013000,0.0324,0.013523,0.002678,0.000431,0.068284
24014000,0.0324,0.013523,0.002678,0.000431,0.091202
24015000,0.0324,0.013523,0.002678,0.000431,0.131984
24016000,0.0324,0.013523,0.002678,0.000431,0.122699
24017000,0.0324,0.013523,0.002678,0.000431,0.091437
24018000,0.0324,0.013523,0.002678,0.000431,0.058059
24019000,0.0324,0.013523,0.002678,0.000431,0.092612
24020000,0.0324,0.013523,0.002678,0.000431,0.168183
24021000,0.0324,0.013523,0.002678,0.000431,0.088734
24022000,0.0324,0.013523,0.002678,0.000431,0.096608
24023000,0.0324,0.013523,0.002678,0.000431,0.065581
24024000,0.0324,0.013523,0.002678,0.000431,0.175470
24025000,0.0324,0.013523,0.002678,0.000431,0.116000
24026000,0.0324,0.013523,0.002678,0.000431,0.104483
24027000,0.0324,0.013523,0.002678,0.000431,0.216487
24028000,0.0324,0.013523,0.002678,0.000431,0.047246
24029000,0.0324,0.013523,0.002678,0.000431,0.139388
24030000,0.0324,0.013523,0.002678,0.000431,0.070634
24031000,0.0324,0.013523,0.002678,0.000431,0.085443
24032000,0.0324,0.013523,0.002678,0.000431,0.180053
24033000,0.0324,0.013523,0.002678,0.000431,0.219895
24034000,0.0324,0.013523,0.002678,0.000431,0.062525
24035000,0.0324,0.013523,0.002678,0.000431,0.097431
24036000,0.0324,0.013523,0.002678,0.000431,0.157605
24037000,0.0324,0.013523,0.002678,0.000431,0.170651
24038000,0.0324,0.013523,0.002678,0.000431,0.118821
24039000,0.0324,0.013523,0.002678,0.000431,0.078861
24040000,0.0324,0.013523,0.002678,0.000431,0.137508
24041000,0.0324,0.013523,0.002678,0.000431,0.065228
24042000,0.0324,0.013523,0.002678,0.000431,0.102132
24043000,0.0324,0.013523,0.002678,0.000431,0.057824
24044000,0.0324,0.013523,0.002678,0.000431,0.042428
24045000,0.0324,0.013523,0.002678,0.000431,0.097548
24046000,0.0324,0.013523,0.002678,0.000431,0.045248
24047000,0.0324,0.013523,0.002678,0.000431,0.048774
24048000,0.0324,0.013523,0.002678,0.000431,0.073220
24049000,0.0324,0.013523,0.002678,0.000431,0.076158
24050000,0.0324,0.013523,0.002678,0.000431,0.068754
24051000,0.0324,0.013523,0.002678,0.000431,0.062172
24052000,0.0324,0.013523,0.002678,0.000431,0.124462
24053000,0.0324,0.013523,0.002678,0.000431,0.095668
24054000,0.0324,0.013523,0.002678,0.000431,0.145617
24055000,0.0324,0.013523,0.002678,0.000431,0.172179
24056000,0.0324,0.013523,0.002678,0.000431,0.139623
24057000,0.0324,0.013523,0.002678,0.000431,0.055121
24058000,0.0324,0.013523,0.002678,0.000431,0.087206
24059000,0.0324,0.013523,0.002678,0.000431,0.159486
24060000,0.0324,0.013523,0.002678,0.000431,0.038549
24061000,0.0324,0.013523,0.002678,0.000431,0.082387
24062000,0.0324,0.013523,0.002678,0.000431,0.076158
24063000,0.0324,0.013523,0.002678,0.000431,0.118703
24064000,0.0324,0.013523,0.002678,0.000431,0.174764
24065000,0.0324,0.013523,0.002678,0.000431,0.137038
24066000,0.0324,0.013523,0.002678,0.000431,0.052418
24067000,0.0324,0.013523,0.002678,0.000431,0.068401
24068000,0.0324,0.013523,0.002678,0.000431,0.113650
24069000,0.0324,0.013523,0.002678,0.000431,0.070164
24070000,0.0324,0.013523,0.002678,0.000431,0.054768
24071000,0.0324,0.013523,0.002678,0.000431,0.048304
24072000,0.0324,0.013523,0.002678,0.000431,0.051360
24073000,0.0324,0.013523,0.002678,0.000431,0.036316
24074000,0.0324,0.013523,0.002678,0.000431,0.043485
24075000,0.0324,0.013523,0.002678,0.000431,0.129751
24076000,0.0324,0.013523,0.002678,0.000431,0.086501
24077000,0.0324,0.013523,0.002678,0.000431,0.070752
24078000,0.0324,0.013523,0.002678,0.000431,0.064993
24079000,0.0324,0.013523,0.002678,0.000431,0.063230
24080000,0.0324,0.013523,0.002678,0.000431,0.038432
24081000,0.0324,0.013523,0.002678,0.000431,0.146440
24082000,0.0324,0.013523,0.002678,0.000431,0.082505
24083000,0.0324,0.013523,0.002678,0.000431,0.044661
24084000,0.0324,0.013523,0.002678,0.000431,0.110829
24085000,0.0324,0.013523,0.002678,0.000431,0.122582
24086000,0.0324,0.013523,0.002678,0.000431,0.078626
24087000,0.0324,0.013523,0.002678,0.000431,0.088734
24088000,0.0324,0.013523,0.002678,0.000431,0.133630
24089000,0.0324,0.013523,0.002678,0.000431,0.110829
24090000,0.0324,0.013523,0.002678,0.000431,0.123052
24091000,0.0324,0.013523,0.002678,0.000431,0.140564
24092000,0.0324,0.013523,0.002678,0.000431,0.102955
24093000,0.0324,0.013523,0.002678,0.000431,0.123757
24094000,0.0324,0.013523,0.002678,0.000431,0.057354
24095000,0.0324,0.013523,0.002678,0.000431,0.186047
24096000,0.0324,0.013523,0.002678,0.000431,0.036434
24097000,0.0324,0.013523,0.002678,0.000431,0.085325
24098000,0.0324,0.013523,0.002678,0.000431,0.074865
24099000,0.0324,0.013523,0.002678,0.000431,0.101662
24100000,0.0324,0.013523,0.002678,0.000431,0.061115
24101000,0.0324,0.013523,0.002678,0.000431,0.045954
24102000,0.0324,0.013523,0.002678,0.000431,0.038314
24103000,0.0324,0.013523,0.002678,0.000431,0.045366
24104000,0.0324,0.013523,0.002678,0.000431,0.144090
24105000,0.0324,0.013523,0.002678,0.000431,0.076511
24106000,0.0324,0.013523,0.002678,0.000431,0.058529
24107000,0.0324,0.013523,0.002678,0.000431,0.070164
24108000,0.0324,0.013523,0.002678,0.000431,0.097431
24109000,0.0324,0.013523,0.002678,0.000431,0.043603
24110000,0.0324,0.013523,0.002678,0.000431,0.062055
24111000,0.0324,0.013523,0.002678,0.000431,0.054063
24112000,0.0324,0.013523,0.002678,0.000431,0.069694
24113000,0.0324,0.013523,0.002678,0.000431,0.132219
24114000,0.0324,0.013523,0.002678,0.000431,0.124345
24115000,0.0324,0.013523,0.002678,0.000431,0.089204
24116000,0.0324,0.013523,0.002678,0.000431,0.071927
24117000,0.0324,0.013523,0.002678,0.000431,0.059939
24118000,0.0324,0.013523,0.002678,0.000431,0.039960
24119000,0.0324,0.013523,0.002678,0.000431,0.105423
24120000,0.0324,0.013523,0.002678,0.000431,0.076863
24121000,0.0324,0.013523,0.002678,0.000431,0.037609
24122000,0.0324,0.013523,0.002678,0.000431,0.044191
24123000,0.0324,0.013523,0.002678,0.000431,0.075218
24124000,0.0324,0.013523,0.002678,0.000431,0.151259
24125000,0.0324,0.013523,0.002678,0.000431,0.046306
24126000,0.0324,0.013523,0.002678,0.000431,0.068519
24127000,0.0324,0.013523,0.002678,0.000431,0.133512
24128000,0.0324,0.013523,0.002678,0.000431,0.114120
24129000,0.0324,0.013523,0.002678,0.000431,0.072750
24130000,0.0324,0.013523,0.002678,0.000431,0.071457
24131000,0.0324,0.013523,0.002678,0.000431,0.052065
24132000,0.0324,0.013523,0.002678,0.000431,0.079214
24133000,0.0324,0.013523,0.002678,0.000431,0.125403
24134000,0.0324,0.013523,0.002678,0.000431,0.066991
24135000,0.0324,0.013523,0.002678,0.000431,0.072045
24136000,0.0324,0.013523,0.002678,0.000431,0.114002
24137000,0.0324,0.013523,0.002678,0.000431,0.084738
24138000,0.0324,0.013523,0.002678,0.000431,0.075101
24139000,0.0324,0.013523,0.002678,0.000431,0.101897
24140000,0.0324,0.013523,0.002678,0.000431,0.056178
24141000,0.0324,0.013523,0.002678,0.000431,0.053475
24142000,0.0324,0.013523,0.002678,0.000431,0.058882
24143000,0.0324,0.013523,0.002678,0.000431,0.070047
24144000,0.0324,0.013523,0.002678,0.000431,0.049949
24145000,0.0324,0.013523,0.002678,0.000431,0.164069
24146000,0.0324,0.013523,0.002678,0.000431,0.062995
24147000,0.0324,0.013523,0.002678,0.000431,0.043720
24148000,0.0324,0.013523,0.002678,0.000431,0.044896
24149000,0.0324,0.013523,0.002678,0.000431,0.086148
24150000,0.0324,0.013523,0.002678,0.000431,0.048539
24151000,0.0324,0.013523,0.002678,0.000431,0.045954
24152000,0.0324,0.013523,0.002678,0.000431,0.216957
24153000,0.0324,0.013523,0.002678,0.000431,0.110476
24154000,0.0324,0.013523,0.002678,0.000431,0.054063
24155000,0.0324,0.013523,0.002678,0.000431,0.062643
24156000,0.0324,0.013523,0.002678,0.000431,0.067814
24157000,0.0324,0.013523,0.002678,0.000431,0.036316
24158000,0.0324,0.013523,0.002678,0.000431,0.078744
24159000,0.0324,0.013523,0.002678,0.000431,0.124345
24160000,0.0324,0.013523,0.002678,0.000431,0.060057
24161000,0.0324,0.013523,0.002678,0.000431,0.053710
24162000,0.0324,0.013523,0.002678,0.000431,0.069107
24163000,0.0324,0.013523,0.002678,0.000431,0.046306
24164000,0.0324,0.013523,0.002678,0.000431,0.045836
24165000,0.0324,0.013523,0.002678,0.000431,0.138448
24166000,0.0324,0.013523,0.002678,0.000431,0.064288
24167000,0.0324,0.013523,0.002678,0.000431,0.059704
24168000,0.0324,0.013523,0.002678,0.000431,0.112827
24169000,0.0324,0.013523,0.002678,0.000431,0.101779
24170000,0.0324,0.013523,0.002678,0.000431,0.060645
24171000,0.0324,0.013523,0.002678,0.000431,0.120231
24172000,0.0324,0.013523,0.002678,0.000431,0.157253
24173000,0.0324,0.013523,0.002678,0.000431,0.055591
24174000,0.0324,0.013523,0.002678,0.000431,0.112827
24175000,0.0324,0.013523,0.002678,0.000431,0.139271
24176000,0.0324,0.013523,0.002678,0.000431,0.059822
24177000,0.0324,0.013523,0.002678,0.000431,0.037844
24178000,0.0324,0.013523,0.002678,0.000431,0.103425
24179000,0.0324,0.013523,0.002678,0.000431,0.114825
24180000,0.0324,0.013523,0.002678,0.000431,0.078274
24181000,0.0324,0.013523,0.002678,0.000431,0.123992
24182000,0.0324,0.013523,0.002678,0.000431,0.074983
24183000,0.0324,0.013523,0.002678,0.000431,0.044896
24184000,0.0324,0.013523,0.002678,0.000431,0.098136
24185000,0.0324,0.013523,0.002678,0.000431,0.063583
24186000,0.0324,0.013523,0.002678,0.000431,0.071105
24187000,0.0324,0.013523,0.002678,0.000431,0.037491
24188000,0.0324,0.013523,0.002678,0.000431,0.091319
24189000,0.0324,0.013523,0.002678,0.000431,0.041605
24190000,0.0324,0.013523,0.002678,0.000431,0.052535
24191000,0.0324,0.013523,0.002678,0.000431,0.105893
24192000,0.0324,0.013523,0.002678,0.000431,0.085913
24193000,0.0324,0.013523,0.002678,0.000431,0.046776
24194000,0.0324,0.013523,0.002678,0.000431,0.050420
24195000,0.0324,0.013523,0.002678,0.000431,0.044191
24196000,0.0324,0.013523,0.002678,0.000431,0.039254
24197000,0.0324,0.013523,0.002678,0.000431,0.047481
24198000,0.0324,0.013523,0.002678,0.000431,0.065111
24199000,0.0324,0.013523,0.002678,0.000431,0.116941
24200000,0.0324,0.013523,0.002678,0.000431,0.104247
24201000,0.0324,0.013523,0.002678,0.000431,0.109301
24202000,0.0324,0.013523,0.002678,0.000431,0.042310
24203000,0.0324,0.013523,0.002678,0.000431,0.055591
24204000,0.0324,0.013523,0.002678,0.000431,0.107773
24205000,0.0324,0.013523,0.002678,0.000431,0.140211
24206000,0.0324,0.013523,0.002678,0.000431,0.059939
24207000,0.0324,0.013523,0.002678,0.000431,0.099076
24208000,0.0324,0.013523,0.002678,0.000431,0.094728
24209000,0.0324,0.013523,0.002678,0.000431,0.038197
24210000,0.0324,0.013523,0.002678,0.000431,0.071575
24211000,0.0324,0.013523,0.002678,0.000431,0.113650
24212000,0.0324,0.013523,0.002678,0.000431,0.082387
24213000,0.0324,0.013523,0.002678,0.000431,0.105423
24214000,0.0324,0.013523,0.002678,0.000431,0.086971
24215000,0.0324,0.013523,0.002678,0.000431,0.055356
24216000,0.0324,0.013523,0.002678,0.000431,0.063700
24217000,0.0324,0.013523,0.002678,0.000431,0.053475
24218000,0.0324,0.013523,0.002678,0.000431,0.096373
24219000,0.0324,0.013523,0.002678,0.000431,0.080742
24220000,0.0324,0.013523,0.002678,0.000431,0.149261
24221000,0.0324,0.013523,0.002678,0.000431,0.038784
24222000,0.0324,0.013523,0.002678,0.000431,0.045954
24223000,0.0324,0.013523,0.002678,0.000431,0.065463
24224000,0.0324,0.013523,0.002678,0.000431,0.047129
24225000,0.0324,0.013523,0.002678,0.000431,0.067344
24226000,0.0324,0.013523,0.002678,0.000431,0.083445
24227000,0.0324,0.013523,0.002678,0.000431,0.100604
24228000,0.0324,0.013523,0.002678,0.000431,0.040430
24229000,0.0324,0.013523,0.002678,0.000431,0.045366
24230000,0.0324,0.013523,0.002678,0.000431,0.100957
24231000,0.0324,0.013523,0.002678,0.000431,0.095903
24232000,0.0324,0.013523,0.002678,0.000431,0.088851
24233000,0.0324,0.013523,0.002678,0.000431,0.145852
24234000,0.0324,0.013523,0.002678,0.000431,0.079449
24235000,0.0324,0.013523,0.002678,0.000431,0.037256
24236000,0.0324,0.013523,0.002678,0.000431,0.083327
24237000,0.0324,0.013523,0.002678,0.000431,0.057706
24238000,0.0324,0.013523,0.002678,0.000431,0.076158
24239000,0.0324,0.013523,0.002678,0.000431,0.046424
24240000,0.0324,0.013523,0.002678,0.000431,0.070399
24241000,0.0324,0.013523,0.002678,0.000431,0.061702
24242000,0.0324,0.013523,0.002678,0.000431,0.083563
24243000,0.0324,0.013523,0.002678,0.000431,0.077921
24244000,0.0324,0.013523,0.002678,0.000431,0.066286
24245000,0.0324,0.013523,0.002678,0.000431,0.114237
24246000,0.0324,0.013523,0.002678,0.000431,0.041487
24247000,0.0324,0.013523,0.002678,0.000431,0.150436
24248000,0.0324,0.013523,0.002678,0.000431,0.086618
24249000,0.0324,0.013523,0.002678,0.000431,0.092377
24250000,0.0324,0.013523,0.002678,0.000431,0.068636
24251000,0.0324,0.013523,0.002678,0.000431,0.090849
24252000,0.0324,0.013523,0.002678,0.000431,0.092965
24253000,0.0324,0.013523,0.002678,0.000431,0.074043
24254000,0.0324,0.013523,0.002678,0.000431,0.053945
24255000,0.0324,0.013523,0.002678,0.000431,0.070282
24256000,0.0324,0.013523,0.002678,0.000431,0.047481
24257000,0.0324,0.013523,0.002678,0.000431,0.065463
24258000,0.0324,0.013523,0.002678,0.000431,0.063465
24259000,0.0324,0.013523,0.002678,0.000431,0.065698
24260000,0.0324,0.013523,0.002678,0.000431,0.037962
24261000,0.0324,0.013523,0.002678,0.000431,0.096843
24262000,0.0324,0.013523,0.002678,0.000431,0.060292
24263000,0.0324,0.013523,0.002678,0.000431,0.073103
24264000,0.0324,0.013523,0.002678,0.000431,0.063583
24265000,0.0324,0.013523,0.002678,0.000431,0.104718
24266000,0.0324,0.013523,0.002678,0.000431,0.038549
24267000,0.0324,0.013523,0.002678,0.000431,0.050772
24268000,0.0324,0.013523,0.002678,0.000431,0.124697
24269000,0.0324,0.013523,0.002678,0.000431,0.072515
24270000,0.0324,0.013523,0.002678,0.000431,0.111064
24271000,0.0324,0.013523,0.002678,0.000431,0.077804
24272000,0.0324,0.013523,0.002678,0.000431,0.082857
24273000,0.0324,0.013523,0.002678,0.000431,0.046659
24274000,0.0324,0.013523,0.002678,0.000431,0.040312
24275000,0.0324,0.013523,0.002678,0.000431,0.068872
24276000,0.0324,0.013523,0.002678,0.000431,0.071457
24277000,0.0324,0.013523,0.002678,0.000431,0.053593
24278000,0.0324,0.013523,0.002678,0.000431,0.091084
24279000,0.0324,0.013523,0.002678,0.000431,0.055708
24280000,0.0324,0.013523,0.002678,0.000431,0.062525
24281000,0.0324,0.013523,0.002678,0.000431,0.076393
24282000,0.0324,0.013523,0.002678,0.000431,0.053475
24283000,0.0324,0.013523,0.002678,0.000431,0.048304
24284000,0.0324,0.013523,0.002678,0.000431,0.136333
24285000,0.0324,0.013523,0.002678,0.000431,0.050537
24286000,0.0324,0.013523,0.002678,0.000431,0.046776
24287000,0.0324,0.013523,0.002678,0.000431,0.057236
24288000,0.0324,0.013523,0.002678,0.000431,0.098606
24289000,0.0324,0.013523,0.002678,0.000431,0.048422
24290000,0.0324,0.013523,0.002678,0.000431,0.042310
24291000,0.0324,0.013523,0.002678,0.000431,0.061115
24292000,0.0324,0.013523,0.002678,0.000431,0.047951
24293000,0.0324,0.013523,0.002678,0.000431,0.138683
24294000,0.0324,0.013523,0.002678,0.000431,0.046071
24295000,0.0324,0.013523,0.002678,0.000431,0.090144
24296000,0.0324,0.013523,0.002678,0.000431,0.043250
24297000,0.0324,0.013523,0.002678,0.000431,0.083680
24298000,0.0324,0.013523,0.002678,0.000431,0.046541
24299000,0.0324,0.013523,0.002678,0.000431,0.049832
24300000,0.0324,0.013523,0.002678,0.000431,0.035258
24301000,0.0324,0.013523,0.002678,0.000431,0.102250
24302000,0.0324,0.013523,0.002678,0.000431,0.080154
24303000,0.0324,0.013523,0.002678,0.000431,0.088264
24304000,0.0324,0.013523,0.002678,0.000431,0.147733
24305000,0.0324,0.013523,0.002678,0.000431,0.035258
24306000,0.0324,0.013523,0.002678,0.000431,0.042780
24307000,0.0324,0.013523,0.002678,0.000431,0.035964
24308000,0.0324,0.013523,0.002678,0.000431,0.040547
24309000,0.0324,0.013523,0.002678,0.000431,0.111652
24310000,0.0324,0.013523,0.002678,0.000431,0.117058
24311000,0.0324,0.013523,0.002678,0.000431,0.075101
24312000,0.0324,0.013523,0.002678,0.000431,0.043720
24313000,0.0324,0.013523,0.002678,0.000431,0.065933
24314000,0.0324,0.013523,0.002678,0.000431,0.098136
24315000,0.0324,0.013523,0.002678,0.000431,0.068166
24316000,0.0324,0.013523,0.002678,0.000431,0.062172
24317000,0.0324,0.013523,0.002678,0.000431,0.071575
24318000,0.0324,0.013523,0.002678,0.000431,0.043368
24319000,0.0324,0.013523,0.002678,0.000431,0.058647
24320000,0.0324,0.013523,0.002678,0.000431,0.060762
24321000,0.0324,0.013523,0.002678,0.000431,0.059587
24322000,0.0324,0.013523,0.002678,0.000431,0.041370
24323000,0.0324,0.013523,0.002678,0.000431,0.192746
24324000,0.0324,0.013523,0.002678,0.000431,0.057941
24325000,0.0324,0.013523,0.002678,0.000431,0.055003
24326000,0.0324,0.013523,0.002678,0.000431,0.053593
24327000,0.0324,0.013523,0.002678,0.000431,0.053475
24328000,0.0324,0.013523,0.002678,0.000431,0.062525
24329000,0.0324,0.013523,0.002678,0.000431,0.063113
24330000,0.0324,0.013523,0.002678,0.000431,0.129751
24331000,0.0324,0.013523,0.002678,0.000431,0.041017
24332000,0.0324,0.013523,0.002678,0.000431,0.055356
24333000,0.0324,0.013523,0.002678,0.000431,0.113415
24334000,0.0324,0.013523,0.002678,0.000431,0.054063
24335000,0.0324,0.013523,0.002678,0.000431,0.068754
24336000,0.0324,0.013523,0.002678,0.000431,0.104835
24337000,0.0324,0.013523,0.002678,0.000431,0.038432
24338000,0.0324,0.013523,0.002678,0.000431,0.050537
24339000,0.0324,0.013523,0.002678,0.000431,0.078156
24340000,0.0324,0.013523,0.002678,0.000431,0.076511
24341000,0.0324,0.013523,0.002678,0.000431,0.058882
24342000,0.0324,0.013523,0.002678,0.000431,0.156665
24343000,0.0324,0.013523,0.002678,0.000431,0.045601
24344000,0.0324,0.013523,0.002678,0.000431,0.036669
24345000,0.0324,0.013523,0.002678,0.000431,0.063583
24346000,0.0324,0.013523,0.002678,0.000431,0.097666
24347000,0.0324,0.013523,0.002678,0.000431,0.109184
24348000,0.0324,0.013523,0.002678,0.000431,0.039254
24349000,0.0324,0.013523,0.002678,0.000431,0.076276
24350000,0.0324,0.013523,0.002678,0.000431,0.047364
24351000,0.0324,0.013523,0.002678,0.000431,0.058176
24352000,0.0324,0.013523,0.002678,0.000431,0.104953
24353000,0.0324,0.013523,0.002678,0.000431,0.090614
24354000,0.0324,0.013523,0.002678,0.000431,0.062878
24355000,0.0324,0.013523,0.002678,0.000431,0.039725
24356000,0.0324,0.013523,0.002678,0.000431,0.080154
24357000,0.0324,0.013523,0.002678,0.000431,0.036316
24358000,0.0324,0.013523,0.002678,0.000431,0.034788
24359000,0.0324,0.013523,0.002678,0.000431,0.061585
24360000,0.0324,0.013523,0.002678,0.000431,0.077216
24361000,0.0324,0.013523,0.002678,0.000431,0.055356
24362000,0.0324,0.013523,0.002678,0.000431,0.056414
24363000,0.0324,0.013523,0.002678,0.000431,0.037609
24364000,0.0324,0.013523,0.002678,0.000431,0.045131
24365000,0.0324,0.013523,0.002678,0.000431,0.135275
24366000,0.0324,0.013523,0.002678,0.000431,0.055473
24367000,0.0324,0.013523,0.002678,0.000431,0.045248
24368000,0.0324,0.013523,0.002678,0.000431,0.107303
24369000,0.0324,0.013523,0.002678,0.000431,0.052183
24370000,0.0324,0.013523,0.002678,0.000431,0.039842
24371000,0.0324,0.013523,0.002678,0.000431,0.047481
24372000,0.0324,0.013523,0.002678,0.000431,0.080624
24373000,0.0324,0.013523,0.002678,0.000431,0.050185
24374000,0.0324,0.013523,0.002678,0.000431,0.065228
24375000,0.0324,0.013523,0.002678,0.000431,0.050302
24376000,0.0324,0.013523,0.002678,0.000431,0.035258
24377000,0.0324,0.013523,0.002678,0.000431,0.067109
24378000,0.0324,0.013523,0.002678,0.000431,0.051595
24379000,0.0324,0.013523,0.002678,0.000431,0.078744
24380000,0.0324,0.013523,0.002678,0.000431,0.041487
24381000,0.0324,0.013523,0.002678,0.000431,0.090262
24382000,0.0324,0.013523,0.002678,0.000431,0.056649
24383000,0.0324,0.013523,0.002678,0.000431,0.034083
24384000,0.0324,0.013523,0.002678,0.000431,0.049949
24385000,0.0324,0.013523,0.002678,0.000431,0.058412
24386000,0.0324,0.013523,0.002678,0.000431,0.059352
24387000,0.0324,0.013523,0.002678,0.000431,0.048539
24388000,0.0324,0.013523,0.002678,0.000431,0.099311
24389000,0.0324,0.013523,0.002678,0.000431,0.069577
24390000,0.0324,0.013523,0.002678,0.000431,0.051360
24391000,0.0324,0.013523,0.002678,0.000431,0.066286
24392000,0.0324,0.013523,0.002678,0.000431,0.191101
24393000,0.0324,0.013523,0.002678,0.000431,0.104365
24394000,0.0324,0.013523,0.002678,0.000431,0.106716
24395000,0.0324,0.013523,0.002678,0.000431,0.042428
24396000,0.0324,0.013523,0.002678,0.000431,0.068636
24397000,0.0324,0.013523,0.002678,0.000431,0.088734
24398000,0.0324,0.013523,0.002678,0.000431,0.057471
24399000,0.0324,0.013523,0.002678,0.000431,0.086031
24400000,0.0324,0.013523,0.002678,0.000431,0.062878
24401000,0.0324,0.013523,0.002678,0.000431,0.056649
24402000,0.0324,0.013523,0.002678,0.000431,0.041017
24403000,0.0324,0.013523,0.002678,0.000431,0.075336
24404000,0.0324,0.013523,0.002678,0.000431,0.080742
24405000,0.0324,0.013523,0.002678,0.000431,0.073220
24406000,0.0324,0.013523,0.002678,0.000431,0.212138
24407000,0.0324,0.013523,0.002678,0.000431,0.140329
24408000,0.0324,0.013523,0.002678,0.000431,0.037727
24409000,0.0324,0.013523,0.002678,0.000431,0.034083
24410000,0.0324,0.013523,0.002678,0.000431,0.064170
24411000,0.0324,0.013523,0.002678,0.000431,0.085561
24412000,0.0324,0.013523,0.002678,0.000431,0.041487
24413000,0.0324,0.013523,0.002678,0.000431,0.111887
24414000,0.0324,0.013523,0.002678,0.000431,0.062878
24415000,0.0324,0.013523,0.002678,0.000431,0.116823
24416000,0.0324,0.013523,0.002678,0.000431,0.042428
24417000,0.0324,0.013523,0.002678,0.000431,0.040195
24418000,0.0324,0.013523,0.002678,0.000431,0.049127
24419000,0.0324,0.013523,0.002678,0.000431,0.049362
24420000,0.0324,0.013523,0.002678,0.000431,0.064288
24421000,0.0324,0.013523,0.002678,0.000431,0.042898
24422000,0.0324,0.013523,0.002678,0.000431,0.035729
24423000,0.0324,0.013523,0.002678,0.000431,0.028324
24424000,0.0324,0.013523,0.002678,0.000431,0.029970
24425000,0.0324,0.013523,0.002678,0.000431,0.039960
24426000,0.0324,0.013523,0.002678,0.000431,0.074865
24427000,0.0324,0.013523,0.002678,0.000431,0.051947
24428000,0.0324,0.013523,0.002678,0.000431,0.105423
24429000,0.0324,0.013523,0.002678,0.000431,0.031380
24430000,0.0324,0.013523,0.002678,0.000431,0.043015
24431000,0.0324,0.013523,0.002678,0.000431,0.041840
24432000,0.0324,0.013523,0.002678,0.000431,0.041135
24433000,0.0324,0.013523,0.002678,0.000431,0.049949
24434000,0.0324,0.013523,0.002678,0.000431,0.034436
24435000,0.0324,0.013523,0.002678,0.000431,0.144442
24436000,0.0324,0.013523,0.002678,0.000431,0.044308
24437000,0.0324,0.013523,0.002678,0.000431,0.085913
24438000,0.0324,0.013523,0.002678,0.000431,0.038079
24439000,0.0324,0.013523,0.002678,0.000431,0.072045
24440000,0.0324,0.013523,0.002678,0.000431,0.060880
24441000,0.0324,0.013523,0.002678,0.000431,0.051595
24442000,0.0324,0.013523,0.002678,0.000431,0.055121
24443000,0.0324,0.013523,0.002678,0.000431,0.042075
24444000,0.0324,0.013523,0.002678,0.000431,0.036316
24445000,0.0324,0.013523,0.002678,0.000431,0.066874
24446000,0.0324,0.013523,0.002678,0.000431,0.059822
24447000,0.0324,0.013523,0.002678,0.000431,0.025856
24448000,0.0324,0.013523,0.002678,0.000431,0.070987
24449000,0.0324,0.013523,0.002678,0.000431,0.041723
24450000,0.0324,0.013523,0.002678,0.000431,0.107186
24451000,0.0324,0.013523,0.002678,0.000431,0.037609
24452000,0.0324,0.013523,0.002678,0.000431,0.068519
24453000,0.0324,0.013523,0.002678,0.000431,0.031615
24454000,0.0324,0.013523,0.002678,0.000431,0.048539
24455000,0.0324,0.013523,0.002678,0.000431,0.051477
24456000,0.0324,0.013523,0.002678,0.000431,0.052888
24457000,0.0324,0.013523,0.002678,0.000431,0.173707
24458000,0.0324,0.013523,0.002678,0.000431,0.062995
24459000,0.0324,0.013523,0.002678,0.000431,0.041135
24460000,0.0324,0.013523,0.002678,0.000431,0.027619
24461000,0.0324,0.013523,0.002678,0.000431,0.035141
24462000,0.0324,0.013523,0.002678,0.000431,0.033731
24463000,0.0324,0.013523,0.002678,0.000431,0.076158
24464000,0.0324,0.013523,0.002678,0.000431,0.074395
24465000,0.0324,0.013523,0.002678,0.000431,0.084855
24466000,0.0324,0.013523,0.002678,0.000431,0.018805
24467000,0.0324,0.013523,0.002678,0.000431,0.018452
24468000,0.0324,0.013523,0.002678,0.000431,0.033496
24469000,0.0324,0.013523,0.002678,0.000431,0.018452
24470000,0.0324,0.013523,0.002678,0.000431,0.060645
24471000,0.0324,0.013523,0.002678,0.000431,0.051712
24472000,0.0324,0.013523,0.002678,0.000431,0.249512
24473000,0.0324,0.013523,0.002678,0.000431,0.082975
24474000,0.0324,0.013523,0.002678,0.000431,0.021743
24475000,0.0324,0.013523,0.002678,0.000431,0.052300
24476000,0.0324,0.013523,0.002678,0.000431,0.047834
24477000,0.0324,0.013523,0.002678,0.000431,0.032438
24478000,0.0324,0.013523,0.002678,0.000431,0.070047
24479000,0.0324,0.013523,0.002678,0.000431,0.017629
24480000,0.0324,0.013523,0.002678,0.000431,0.047716
24481000,0.0324,0.013523,0.002678,0.000431,0.024916
24482000,0.0324,0.013523,0.002678,0.000431,0.022095
24483000,0.0324,0.013523,0.002678,0.000431,0.039842
24484000,0.0324,0.013523,0.002678,0.000431,0.022213
24485000,0.0324,0.013523,0.002678,0.000431,0.113062
24486000,0.0324,0.013523,0.002678,0.000431,0.022800
24487000,0.0324,0.013523,0.002678,0.000431,0.021155
24488000,0.0324,0.013523,0.002678,0.000431,0.024211
24489000,0.0324,0.013523,0.002678,0.000431,0.022565
24490000,0.0324,0.013523,0.002678,0.000431,0.019040
24491000,0.0324,0.013523,0.002678,0.000431,0.025151
24492000,0.0324,0.013523,0.002678,0.000431,0.059117
24493000,0.0324,0.013523,0.002678,0.000431,0.021625
24494000,0.0324,0.013523,0.002678,0.000431,0.029147
24495000,0.0324,0.013523,0.002678,0.000431,0.020802
24496000,0.0324,0.013523,0.002678,0.000431,0.042663
24497000,0.0324,0.013523,0.002678,0.000431,0.012576
24498000,0.0324,0.013523,0.002678,0.000431,0.019157
24499000,0.0324,0.013523,0.002678,0.000431,0.019275
24500000,0.0324,0.013523,0.002678,0.000431,0.037256
24501000,0.0324,0.013523,0.002678,0.000431,0.083798
24502000,0.0324,0.013523,0.002678,0.000431,0.019040
24503000,0.0324,0.013523,0.002678,0.000431,0.064876
24504000,0.0324,0.013523,0.002678,0.000431,0.015514
24505000,0.0324,0.013523,0.002678,0.000431,0.043368
24506000,0.0324,0.013523,0.002678,0.000431,0.019980
24507000,0.0324,0.013523,0.002678,0.000431,0.008227
24508000,0.0324,0.013523,0.002678,0.000431,0.008109
24509000,0.0324,0.013523,0.002678,0.000431,0.014573
24510000,0.0324,0.013523,0.002678,0.000431,0.007052
24511000,0.0324,0.013523,0.002678,0.000431,0.018334
24512000,0.0324,0.013523,0.002678,0.000431,0.048422
24513000,0.0324,0.013523,0.002678,0.000431,0.011753
24514000,0.0324,0.013523,0.002678,0.000431,0.057824
24515000,0.0324,0.013523,0.002678,0.000431,0.007052
24516000,0.0324,0.013523,0.002678,0.000431,0.058647
24517000,0.0324,0.013523,0.002678,0.000431,0.005876
24518000,0.0324,0.013523,0.002678,0.000431,0.039489
24519000,0.0324,0.013523,0.002678,0.000431,0.009637
24520000,0.0324,0.013523,0.002678,0.000431,0.032203
24521000,0.0324,0.013523,0.002678,0.000431,0.017159
24522000,0.0324,0.013523,0.002678,0.000431,0.009637
24523000,0.0324,0.013523,0.002678,0.000431,0.009637
24524000,0.0324,0.013523,0.002678,0.000431,0.005876
24525000,0.0324,0.013523,0.002678,0.000431,0.005876
24526000,0.0324,0.013523,0.002678,0.000431,0.008697
24527000,0.0324,0.013523,0.002678,0.000431,0.017864
24528000,0.0324,0.013523,0.002678,0.000431,0.005876
24529000,0.0324,0.013523,0.002678,0.000431,0.013398
24530000,0.0324,0.013523,0.002678,0.000431,0.005876
24531000,0.0324,0.013523,0.002678,0.000431,0.008932
24532000,0.0324,0.013523,0.002678,0.000431,0.005641
24533000,0.0324,0.013523,0.002678,0.000431,0.035964
24534000,0.0324,0.013523,0.002678,0.000431,0.005876
24535000,0.0324,0.013523,0.002678,0.000431,0.005876
24536000,0.0324,0.013523,0.002678,0.000431,0.008932
24537000,0.0324,0.013523,0.002678,0.000431,0.035964
24538000,0.0324,0.013523,0.002678,0.000431,0.051007
24539000,0.0324,0.013523,0.002678,0.000431,0.005876
24540000,0.0324,0.013523,0.002678,0.000431,0.010342
24541000,0.0324,0.013523,0.002678,0.000431,0.021508
24542000,0.0324,0.013523,0.002678,0.000431,0.021978
24543000,0.0324,0.013523,0.002678,0.000431,0.006934
24544000,0.0324,0.013523,0.002678,0.000431,0.007052
24545000,0.0324,0.013523,0.002678,0.000431,0.074748
24546000,0.0324,0.013523,0.002678,0.000431,0.015161
24547000,0.0324,0.013523,0.002678,0.000431,0.005876
24548000,0.0324,0.013523,0.002678,0.000431,0.005876
24549000,0.0324,0.013523,0.002678,0.000431,0.066051
24550000,0.0324,0.013523,0.002678,0.000431,0.005876
24551000,0.0324,0.013523,0.002678,0.000431,0.005876
24552000,0.0324,0.013523,0.002678,0.000431,0.009637
24553000,0.0324,0.013523,0.002678,0.000431,0.027737
24554000,0.0324,0.013523,0.002678,0.000431,0.040430
24555000,0.0324,0.013523,0.002678,0.000431,0.005876
24556000,0.0324,0.013523,0.002678,0.000431,0.005876
24557000,0.0324,0.013523,0.002678,0.000431,0.005876
24558000,0.0324,0.013523,0.002678,0.000431,0.005641
24559000,0.0324,0.013523,0.002678,0.000431,0.020920
24560000,0.0324,0.013523,0.002678,0.000431,0.009637
24561000,0.0324,0.013523,0.002678,0.000431,0.024681
24562000,0.0324,0.013523,0.002678,0.000431,0.005876
24563000,0.0324,0.013523,0.002678,0.000431,0.044778
24564000,0.0324,0.013523,0.002678,0.000431,0.012105
24565000,0.0324,0.013523,0.002678,0.000431,0.005876
24566000,0.0324,0.013523,0.002678,0.000431,0.035964
24567000,0.0324,0.013523,0.002678,0.000431,0.025739
24568000,0.0324,0.013523,0.002678,0.000431,0.008580
24569000,0.0324,0.013523,0.002678,0.000431,0.005876
24570000,0.0324,0.013523,0.002678,0.000431,0.089439
24571000,0.0324,0.013523,0.002678,0.000431,0.121642
24572000,0.0324,0.013523,0.002678,0.000431,0.010930
24573000,0.0324,0.013523,0.002678,0.000431,0.018687
24574000,0.0324,0.013523,0.002678,0.000431,0.029970
24575000,0.0324,0.013523,0.002678,0.000431,0.007052
24576000,0.0324,0.013523,0.002678,0.000431,0.068519
24577000,0.0324,0.013523,0.002678,0.000431,0.023858
24578000,0.0324,0.013523,0.002678,0.000431,0.008109
24579000,0.0324,0.013523,0.002678,0.000431,0.032673
24580000,0.0324,0.013523,0.002678,0.000431,0.085325
24581000,0.0324,0.013523,0.002678,0.000431,0.005876
24582000,0.0324,0.013523,0.002678,0.000431,0.005876
24583000,0.0324,0.013523,0.002678,0.000431,0.010342
24584000,0.0324,0.013523,0.002678,0.000431,0.005876
24585000,0.0324,0.013523,0.002678,0.000431,0.023623
24586000,0.0324,0.013523,0.002678,0.000431,0.054416
24587000,0.0324,0.013523,0.002678,0.000431,0.034553
24588000,0.0324,0.013523,0.002678,0.000431,0.005876
24589000,0.0324,0.013523,0.002678,0.000431,0.005876
24590000,0.0324,0.013523,0.002678,0.000431,0.005876
24591000,0.0324,0.013523,0.002678,0.000431,0.005876
24592000,0.0324,0.013523,0.002678,0.000431,0.009402
24593000,0.0324,0.013523,0.002678,0.000431,0.009637
24594000,0.0324,0.013523,0.002678,0.000431,0.005876
24595000,0.0324,0.013523,0.002678,0.000431,0.005876
24596000,0.0324,0.013523,0.002678,0.000431,0.005876
24597000,0.0324,0.013523,0.002678,0.000431,0.073573
24598000,0.0324,0.013523,0.002678,0.000431,0.005641
24599000,0.0324,0.013523,0.002678,0.000431,0.061585
24600000,0.0324,0.013523,0.002678,0.000431,0.010342
24601000,0.0324,0.013523,0.002678,0.000431,0.005876
24602000,0.0324,0.013523,0.002678,0.000431,0.005876
24603000,0.0324,0.013523,0.002678,0.000431,0.005876
24604000,0.0324,0.013523,0.002678,0.000431,0.005876
24605000,0.0324,0.013523,0.002678,0.000431,0.012811
24606000,0.0324,0.013523,0.002678,0.000431,0.004701
24607000,0.0324,0.013523,0.002678,0.000431,0.004701
24608000,0.0324,0.013523,0.002678,0.000431,0.004701
24609000,0.0324,0.013523,0.002678,0.000431,0.038197
24610000,0.0324,0.013523,0.002678,0.000431,0.143972
24611000,0.0324,0.013523,0.002678,0.000431,0.004466
24612000,0.0324,0.013523,0.002678,0.000431,0.004701
24613000,0.0324,0.013523,0.002678,0.000431,0.012223
24614000,0.0324,0.013523,0.002678,0.000431,0.004584
24615000,0.0324,0.013523,0.002678,0.000431,0.004584
24616000,0.0324,0.013523,0.002678,0.000431,0.110006
24617000,0.0324,0.013523,0.002678,0.000431,0.019745
24618000,0.0324,0.013523,0.002678,0.000431,0.004701
24619000,0.0324,0.013523,0.002678,0.000431,0.013046
24620000,0.0324,0.013523,0.002678,0.000431,0.045954
24621000,0.0324,0.013523,0.002678,0.000431,0.004701
24622000,0.0324,0.013523,0.002678,0.000431,0.013516
24623000,0.0324,0.013523,0.002678,0.000431,0.086148
24624000,0.0324,0.013523,0.002678,0.000431,0.004701
24625000,0.0324,0.013523,0.002678,0.000431,0.012223
24626000,0.0324,0.013523,0.002678,0.000431,0.019627
24627000,0.0324,0.013523,0.002678,0.000431,0.004584
24628000,0.0324,0.013523,0.002678,0.000431,0.004701
24629000,0.0324,0.013523,0.002678,0.000431,0.019745
24630000,0.0324,0.013523,0.002678,0.000431,0.012223
24631000,0.0324,0.013523,0.002678,0.000431,0.004701
24632000,0.0324,0.013523,0.002678,0.000431,0.012223
24633000,0.0324,0.013523,0.002678,0.000431,0.015279
24634000,0.0324,0.013523,0.002678,0.000431,0.004701
24635000,0.0324,0.013523,0.002678,0.000431,0.004701
24636000,0.0324,0.013523,0.002678,0.000431,0.118703
24637000,0.0324,0.013523,0.002678,0.000431,0.086266
24638000,0.0324,0.013523,0.002678,0.000431,0.004584
24639000,0.0324,0.013523,0.002678,0.000431,0.084268
24640000,0.0324,0.013523,0.002678,0.000431,0.004701
24641000,0.0324,0.013523,0.002678,0.000431,0.004701
24642000,0.0324,0.013523,0.002678,0.000431,0.004701
24643000,0.0324,0.013523,0.002678,0.000431,0.017982
24644000,0.0324,0.013523,0.002678,0.000431,0.073925
24645000,0.0324,0.013523,0.002678,0.000431,0.012223
24646000,0.0324,0.013523,0.002678,0.000431,0.004701
24647000,0.0324,0.013523,0.002678,0.000431,0.004701
24648000,0.0324,0.013523,0.002678,0.000431,0.008932
24649000,0.0324,0.013523,0.002678,0.000431,0.017042
24650000,0.0324,0.013523,0.002678,0.000431,0.023858
24651000,0.0324,0.013523,0.002678,0.000431,0.048187
24652000,0.0324,0.013523,0.002678,0.000431,0.049832
24653000,0.0324,0.013523,0.002678,0.000431,0.004701
24654000,0.0324,0.013523,0.002678,0.000431,0.004584
24655000,0.0324,0.013523,0.002678,0.000431,0.057236
24656000,0.0324,0.013523,0.002678,0.000431,0.019745
24657000,0.0324,0.013523,0.002678,0.000431,0.066521
24658000,0.0324,0.013523,0.002678,0.000431,0.018099
24659000,0.0324,0.013523,0.002678,0.000431,0.004701
24660000,0.0324,0.013523,0.002678,0.000431,0.004701
24661000,0.0324,0.013523,0.002678,0.000431,0.004701
24662000,0.0324,0.013523,0.002678,0.000431,0.004701
24663000,0.0324,0.013523,0.002678,0.000431,0.012458
24664000,0.0324,0.013523,0.002678,0.000431,0.019745
24665000,0.0324,0.013523,0.002678,0.000431,0.027267
24666000,0.0324,0.013523,0.002678,0.000431,0.004584
24667000,0.0324,0.013523,0.002678,0.000431,0.004584
24668000,0.0324,0.013523,0.002678,0.000431,0.019745
24669000,0.0324,0.013523,0.002678,0.000431,0.021038
24670000,0.0324,0.013523,0.002678,0.000431,0.213314
24671000,0.0324,0.013523,0.002678,0.000431,0.040547
24672000,0.0324,0.013523,0.002678,0.000431,0.021508
24673000,0.0324,0.013523,0.002678,0.000431,0.004701
24674000,0.0324,0.013523,0.002678,0.000431,0.014691
24675000,0.0324,0.013523,0.002678,0.000431,0.009755
24676000,0.0324,0.013523,0.002678,0.000431,0.004701
24677000,0.0324,0.013523,0.002678,0.000431,0.019745
24678000,0.0324,0.013523,0.002678,0.000431,0.012105
24679000,0.0324,0.013523,0.002678,0.000431,0.004584
24680000,0.0324,0.013523,0.002678,0.000431,0.004936
24681000,0.0324,0.013523,0.002678,0.000431,0.027267
24682000,0.0324,0.013523,0.002678,0.000431,0.004701
24683000,0.0324,0.013523,0.002678,0.000431,0.027737
24684000,0.0324,0.013523,0.002678,0.000431,0.067696
24685000,0.0324,0.013523,0.002678,0.000431,0.124815
24686000,0.0324,0.013523,0.002678,0.000431,0.004701
24687000,0.0324,0.013523,0.002678,0.000431,0.042310
24688000,0.0324,0.013523,0.002678,0.000431,0.004701
24689000,0.0324,0.013523,0.002678,0.000431,0.004701
24690000,0.0324,0.013523,0.002678,0.000431,0.049832
24691000,0.0324,0.013523,0.002678,0.000431,0.004466
24692000,0.0324,0.013523,0.002678,0.000431,0.050067
24693000,0.0324,0.013523,0.002678,0.000431,0.012223
24694000,0.0324,0.013523,0.002678,0.000431,0.042545
24695000,0.0324,0.013523,0.002678,0.000431,0.004701
24696000,0.0324,0.013523,0.002678,0.000431,0.004701
24697000,0.0324,0.013523,0.002678,0.000431,0.012223
24698000,0.0324,0.013523,0.002678,0.000431,0.031027
24699000,0.0324,0.013523,0.002678,0.000431,0.008462
24700000,0.0324,0.013523,0.002678,0.000431,0.004936
24701000,0.0324,0.013523,0.002678,0.000431,0.170651
24702000,0.0324,0.013523,0.002678,0.000431,0.064170
24703000,0.0324,0.013523,0.002678,0.000431,0.010460
24704000,0.0324,0.013523,0.002678,0.000431,0.006464
24705000,0.0324,0.013523,0.002678,0.000431,0.057589
24706000,0.0324,0.013523,0.002678,0.000431,0.004701
24707000,0.0324,0.013523,0.002678,0.000431,0.011988
24708000,0.0324,0.013523,0.002678,0.000431,0.019745
24709000,0.0324,0.013523,0.002678,0.000431,0.004701
24710000,0.0324,0.013523,0.002678,0.000431,0.087676
24711000,0.0324,0.013523,0.002678,0.000431,0.007052
24712000,0.0324,0.013523,0.002678,0.000431,0.005524
24713000,0.0324,0.013523,0.002678,0.000431,0.008109
24714000,0.0324,0.013523,0.002678,0.000431,0.008462
24715000,0.0324,0.013523,0.002678,0.000431,0.046306
24716000,0.0324,0.013523,0.002678,0.000431,0.004701
24717000,0.0324,0.013523,0.002678,0.000431,0.080154
24718000,0.0324,0.013523,0.002678,0.000431,0.004701
24719000,0.0324,0.013523,0.002678,0.000431,0.004701
24720000,0.0324,0.013523,0.002678,0.000431,0.004701
24721000,0.0324,0.013523,0.002678,0.000431,0.012223
24722000,0.0324,0.013523,0.002678,0.000431,0.042545
24723000,0.0324,0.013523,0.002678,0.000431,0.023623
24724000,0.0324,0.013523,0.002678,0.000431,0.008580
24725000,0.0324,0.013523,0.002678,0.000431,0.004701
24726000,0.0324,0.013523,0.002678,0.000431,0.004701
24727000,0.0324,0.013523,0.002678,0.000431,0.004701
24728000,0.0324,0.013523,0.002678,0.000431,0.018569
24729000,0.0324,0.013523,0.002678,0.000431,0.021155
24730000,0.0324,0.013523,0.002678,0.000431,0.042193
24731000,0.0324,0.013523,0.002678,0.000431,0.004584
24732000,0.0324,0.013523,0.002678,0.000431,0.004701
24733000,0.0324,0.013523,0.002678,0.000431,0.004466
24734000,0.0324,0.013523,0.002678,0.000431,0.021625
24735000,0.0324,0.013523,0.002678,0.000431,0.040900
24736000,0.0324,0.013523,0.002678,0.000431,0.017864
24737000,0.0324,0.013523,0.002678,0.000431,0.036669
24738000,0.0324,0.013523,0.002678,0.000431,0.031498
24739000,0.0324,0.013523,0.002678,0.000431,0.004584
24740000,0.0324,0.013523,0.002678,0.000431,0.004584
24741000,0.0324,0.013523,0.002678,0.000431,0.016219
24742000,0.0324,0.013523,0.002678,0.000431,0.004701
24743000,0.0324,0.013523,0.002678,0.000431,0.042663
24744000,0.0324,0.013523,0.002678,0.000431,0.049714
24745000,0.0324,0.013523,0.002678,0.000431,0.004701
24746000,0.0324,0.013523,0.002678,0.000431,0.004701
24747000,0.0324,0.013523,0.002678,0.000431,0.006111
24748000,0.0324,0.013523,0.002678,0.000431,0.041135
24749000,0.0324,0.013523,0.002678,0.000431,0.025739
24750000,0.0324,0.013523,0.002678,0.000431,0.064053
24751000,0.0324,0.013523,0.002678,0.000431,0.119879
24752000,0.0324,0.013523,0.002678,0.000431,0.004701
24753000,0.0324,0.013523,0.002678,0.000431,0.004701
24754000,0.0324,0.013523,0.002678,0.000431,0.049479
24755000,0.0324,0.013523,0.002678,0.000431,0.012576
24756000,0.0324,0.013523,0.002678,0.000431,0.004701
24757000,0.0324,0.013523,0.002678,0.000431,0.004701
24758000,0.0324,0.013523,0.002678,0.000431,0.004584
24759000,0.0324,0.013523,0.002678,0.000431,0.016101
24760000,0.0324,0.013523,0.002678,0.000431,0.061585
24761000,0.0324,0.013523,0.002678,0.000431,0.079684
24762000,0.0324,0.013523,0.002678,0.000431,0.006817
24763000,0.0324,0.013523,0.002678,0.000431,0.007052
24764000,0.0324,0.013523,0.002678,0.000431,0.030557
24765000,0.0324,0.013523,0.002678,0.000431,0.042310
24766000,0.0324,0.013523,0.002678,0.000431,0.004701
24767000,0.0324,0.013523,0.002678,0.000431,0.019745
24768000,0.0324,0.013523,0.002678,0.000431,0.038314
24769000,0.0324,0.013523,0.002678,0.000431,0.027267
24770000,0.0324,0.013523,0.002678,0.000431,0.004701
24771000,0.0324,0.013523,0.002678,0.000431,0.049714
24772000,0.0324,0.013523,0.002678,0.000431,0.068284
24773000,0.0324,0.013523,0.002678,0.000431,0.004701
24774000,0.0324,0.013523,0.002678,0.000431,0.004701
24775000,0.0324,0.013523,0.002678,0.000431,0.052065
24776000,0.0324,0.013523,0.002678,0.000431,0.017747
24777000,0.0324,0.013523,0.002678,0.000431,0.004466
24778000,0.0324,0.013523,0.002678,0.000431,0.012223
24779000,0.0324,0.013523,0.002678,0.000431,0.004466
24780000,0.0324,0.013523,0.002678,0.000431,0.045366
24781000,0.0324,0.013523,0.002678,0.000431,0.004936
24782000,0.0324,0.013523,0.002678,0.000431,0.079919
24783000,0.0324,0.013523,0.002678,0.000431,0.004701
24784000,0.0324,0.013523,0.002678,0.000431,0.036904
24785000,0.0324,0.013523,0.002678,0.000431,0.104600
24786000,0.0324,0.013523,0.002678,0.000431,0.004701
24787000,0.0324,0.013523,0.002678,0.000431,0.004701
24788000,0.0324,0.013523,0.002678,0.000431,0.004701
24789000,0.0324,0.013523,0.002678,0.000431,0.019980
24790000,0.0324,0.013523,0.002678,0.000431,0.004701
24791000,0.0324,0.013523,0.002678,0.000431,0.063465
24792000,0.0324,0.013523,0.002678,0.000431,0.035964
24793000,0.0324,0.013523,0.002678,0.000431,0.004701
24794000,0.0324,0.013523,0.002678,0.000431,0.012458
24795000,0.0324,0.013523,0.002678,0.000431,0.033496
24796000,0.0324,0.013523,0.002678,0.000431,0.006229
24797000,0.0324,0.013523,0.002678,0.000431,0.034788
24798000,0.0324,0.013523,0.002678,0.000431,0.083210
24799000,0.0324,0.013523,0.002678,0.000431,0.004466
24800000,0.0324,0.013523,0.002678,0.000431,0.004701
24801000,0.0324,0.013523,0.002678,0.000431,0.008462
24802000,0.0324,0.013523,0.002678,0.000431,0.104012
24803000,0.0324,0.013523,0.002678,0.000431,0.133394
24804000,0.0324,0.013523,0.002678,0.000431,0.014338
24805000,0.0324,0.013523,0.002678,0.000431,0.006347
24806000,0.0324,0.013523,0.002678,0.000431,0.008462
24807000,0.0324,0.013523,0.002678,0.000431,0.061115
24808000,0.0324,0.013523,0.002678,0.000431,0.004701
24809000,0.0324,0.013523,0.002678,0.000431,0.004701
24810000,0.0324,0.013523,0.002678,0.000431,0.027267
24811000,0.0324,0.013523,0.002678,0.000431,0.031498
24812000,0.0324,0.013523,0.002678,0.000431,0.004701
24813000,0.0324,0.013523,0.002678,0.000431,0.004701
24814000,0.0324,0.013523,0.002678,0.000431,0.004701
24815000,0.0324,0.013523,0.002678,0.000431,0.004701
24816000,0.0324,0.013523,0.002678,0.000431,0.013751
24817000,0.0324,0.013523,0.002678,0.000431,0.044661
24818000,0.0324,0.013523,0.002678,0.000431,0.045954
24819000,0.0324,0.013523,0.002678,0.000431,0.004701
24820000,0.0324,0.013523,0.002678,0.000431,0.034553
24821000,0.0324,0.013523,0.002678,0.000431,0.004701
24822000,0.0324,0.013523,0.002678,0.000431,0.004466
24823000,0.0324,0.013523,0.002678,0.000431,0.004701
24824000,0.0324,0.013523,0.002678,0.000431,0.102485
24825000,0.0324,0.013523,0.002678,0.000431,0.004466
24826000,0.0324,0.013523,0.002678,0.000431,0.004701
24827000,0.0324,0.013523,0.002678,0.000431,0.004701
24828000,0.0324,0.013523,0.002678,0.000431,0.004701
24829000,0.0324,0.013523,0.002678,0.000431,0.008462
24830000,0.0324,0.013523,0.002678,0.000431,0.046071
24831000,0.0324,0.013523,0.002678,0.000431,0.027267
24832000,0.0324,0.013523,0.002678,0.000431,0.008345
24833000,0.0324,0.013523,0.002678,0.000431,0.027854
24834000,0.0324,0.013523,0.002678,0.000431,0.004701
24835000,0.0324,0.013523,0.002678,0.000431,0.006817
24836000,0.0324,0.013523,0.002678,0.000431,0.044426
24837000,0.0324,0.013523,0.002678,0.000431,0.064876
24838000,0.0324,0.013523,0.002678,0.000431,0.019745
24839000,0.0324,0.013523,0.002678,0.000431,0.004466
24840000,0.0324,0.013523,0.002678,0.000431,0.004701
24841000,0.0324,0.013523,0.002678,0.000431,0.004701
24842000,0.0324,0.013523,0.002678,0.000431,0.004701
24843000,0.0324,0.013523,0.002678,0.000431,0.004701
24844000,0.0324,0.013523,0.002678,0.000431,0.162424
24845000,0.0324,0.013523,0.002678,0.000431,0.004701
24846000,0.0324,0.013523,0.002678,0.000431,0.034788
24847000,0.0324,0.013523,0.002678,0.000431,0.008697
24848000,0.0324,0.013523,0.002678,0.000431,0.004584
24849000,0.0324,0.013523,0.002678,0.000431,0.004584
24850000,0.0324,0.013523,0.002678,0.000431,0.012223
24851000,0.0324,0.013523,0.002678,0.000431,0.019745
24852000,0.0324,0.013523,0.002678,0.000431,0.035141
24853000,0.0324,0.013523,0.002678,0.000431,0.034436
24854000,0.0324,0.013523,0.002678,0.000431,0.004701
24855000,0.0324,0.013523,0.002678,0.000431,0.004701
24856000,0.0324,0.013523,0.002678,0.000431,0.004701
24857000,0.0324,0.013523,0.002678,0.000431,0.012223
24858000,0.0324,0.013523,0.002678,0.000431,0.004701
24859000,0.0324,0.013523,0.002678,0.000431,0.027267
24860000,0.0324,0.013523,0.002678,0.000431,0.038197
24861000,0.0324,0.013523,0.002678,0.000431,0.016454
24862000,0.0324,0.013523,0.002678,0.000431,0.041958
24863000,0.0324,0.013523,0.002678,0.000431,0.004701
24864000,0.0324,0.013523,0.002678,0.000431,0.019745
24865000,0.0324,0.013523,0.002678,0.000431,0.004701
24866000,0.0324,0.013523,0.002678,0.000431,0.004701
24867000,0.0324,0.013523,0.002678,0.000431,0.019745
24868000,0.0324,0.013523,0.002678,0.000431,0.019745
24869000,0.0324,0.013523,0.002678,0.000431,0.004701
24870000,0.0324,0.013523,0.002678,0.000431,0.004701
24871000,0.0324,0.013523,0.002678,0.000431,0.004701
24872000,0.0324,0.013523,0.002678,0.000431,0.004701
24873000,0.0324,0.013523,0.002678,0.000431,0.018569
24874000,0.0324,0.013523,0.002678,0.000431,0.080859
24875000,0.0324,0.013523,0.002678,0.000431,0.087441
24876000,0.0324,0.013523,0.002678,0.000431,0.004701
24877000,0.0324,0.013523,0.002678,0.000431,0.019745
24878000,0.0324,0.013523,0.002678,0.000431,0.004701
24879000,0.0324,0.013523,0.002678,0.000431,0.011988
24880000,0.0324,0.013523,0.002678,0.000431,0.012223
24881000,0.0324,0.013523,0.002678,0.000431,0.028089
24882000,0.0324,0.013523,0.002678,0.000431,0.011165
24883000,0.0324,0.013523,0.002678,0.000431,0.008462
24884000,0.0324,0.013523,0.002678,0.000431,0.008462
24885000,0.0324,0.013523,0.002678,0.000431,0.008462
24886000,0.0324,0.013523,0.002678,0.000431,0.023506
24887000,0.0324,0.013523,0.002678,0.000431,0.019745
24888000,0.0324,0.013523,0.002678,0.000431,0.027267
24889000,0.0324,0.013523,0.002678,0.000431,0.004466
24890000,0.0324,0.013523,0.002678,0.000431,0.042310
24891000,0.0324,0.013523,0.002678,0.000431,0.004701
24892000,0.0324,0.013523,0.002678,0.000431,0.061115
24893000,0.0324,0.013523,0.002678,0.000431,0.008462
24894000,0.0324,0.013523,0.002678,0.000431,0.008697
24895000,0.0324,0.013523,0.002678,0.000431,0.038314
24896000,0.0324,0.013523,0.002678,0.000431,0.012458
24897000,0.0324,0.013523,0.002678,0.000431,0.008462
24898000,0.0324,0.013523,0.002678,0.000431,0.004701
24899000,0.0324,0.013523,0.002678,0.000431,0.004701
24900000,0.0324,0.013523,0.002678,0.000431,0.012223
24901000,0.0324,0.013523,0.002678,0.000431,0.027619
24902000,0.0324,0.013523,0.002678,0.000431,0.041723
24903000,0.0324,0.013523,0.002678,0.000431,0.053593
24904000,0.0324,0.013523,0.002678,0.000431,0.008462
24905000,0.0324,0.013523,0.002678,0.000431,0.004701
24906000,0.0324,0.013523,0.002678,0.000431,0.004701
24907000,0.0324,0.013523,0.002678,0.000431,0.004466
24908000,0.0324,0.013523,0.002678,0.000431,0.070399
24909000,0.0324,0.013523,0.002678,0.000431,0.066874
24910000,0.0324,0.013523,0.002678,0.000431,0.004701
24911000,0.0324,0.013523,0.002678,0.000431,0.004701
24912000,0.0324,0.013523,0.002678,0.000431,0.004701
24913000,0.0324,0.013523,0.002678,0.000431,0.004701
24914000,0.0324,0.013523,0.002678,0.000431,0.015984
24915000,0.0324,0.013523,0.002678,0.000431,0.031027
24916000,0.0324,0.013523,0.002678,0.000431,0.026796
24917000,0.0324,0.013523,0.002678,0.000431,0.042780
24918000,0.0324,0.013523,0.002678,0.000431,0.004701
24919000,0.0324,0.013523,0.002678,0.000431,0.004466
24920000,0.0324,0.013523,0.002678,0.000431,0.057354
24921000,0.0324,0.013523,0.002678,0.000431,0.031850
24922000,0.0324,0.013523,0.002678,0.000431,0.030205
24923000,0.0324,0.013523,0.002678,0.000431,0.019745
24924000,0.0324,0.013523,0.002678,0.000431,0.004701
24925000,0.0324,0.013523,0.002678,0.000431,0.004701
24926000,0.0324,0.013523,0.002678,0.000431,0.004701
24927000,0.0324,0.013523,0.002678,0.000431,0.004701
24928000,0.0324,0.013523,0.002678,0.000431,0.034788
24929000,0.0324,0.013523,0.002678,0.000431,0.011988
24930000,0.0324,0.013523,0.002678,0.000431,0.004701
24931000,0.0324,0.013523,0.002678,0.000431,0.004701
24932000,0.0324,0.013523,0.002678,0.000431,0.012223
24933000,0.0324,0.013523,0.002678,0.000431,0.042310
24934000,0.0324,0.013523,0.002678,0.000431,0.005406
24935000,0.0324,0.013523,0.002678,0.000431,0.011518
24936000,0.0324,0.013523,0.002678,0.000431,0.053593
24937000,0.0324,0.013523,0.002678,0.000431,0.053475
24938000,0.0324,0.013523,0.002678,0.000431,0.011165
24939000,0.0324,0.013523,0.002678,0.000431,0.004701
24940000,0.0324,0.013523,0.002678,0.000431,0.004701
24941000,0.0324,0.013523,0.002678,0.000431,0.037727
24942000,0.0324,0.013523,0.002678,0.000431,0.016689
24943000,0.0324,0.013523,0.002678,0.000431,0.004584
24944000,0.0324,0.013523,0.002678,0.000431,0.004701
24945000,0.0324,0.013523,0.002678,0.000431,0.004701
24946000,0.0324,0.013523,0.002678,0.000431,0.012223
24947000,0.0324,0.013523,0.002678,0.000431,0.008227
24948000,0.0324,0.013523,0.002678,0.000431,0.015984
24949000,0.0324,0.013523,0.002678,0.000431,0.004701
24950000,0.0324,0.013523,0.002678,0.000431,0.004701
24951000,0.0324,0.013523,0.002678,0.000431,0.004701
24952000,0.0324,0.013523,0.002678,0.000431,0.032555
24953000,0.0324,0.013523,0.002678,0.000431,0.052065
24954000,0.0324,0.013523,0.002678,0.000431,0.033378
24955000,0.0324,0.013523,0.002678,0.000431,0.051477
24956000,0.0324,0.013523,0.002678,0.000431,0.004701
24957000,0.0324,0.013523,0.002678,0.000431,0.019745
24958000,0.0324,0.013523,0.002678,0.000431,0.004701
24959000,0.0324,0.013523,0.002678,0.000431,0.004466
24960000,0.0324,0.013523,0.002678,0.000431,0.004701
24961000,0.0324,0.013523,0.002678,0.000431,0.034788
24962000,0.0324,0.013523,0.002678,0.000431,0.004701
24963000,0.0324,0.013523,0.002678,0.000431,0.004701
24964000,0.0324,0.013523,0.002678,0.000431,0.004701
24965000,0.0324,0.013523,0.002678,0.000431,0.018099
24966000,0.0324,0.013523,0.002678,0.000431,0.028912
24967000,0.0324,0.013523,0.002678,0.000431,0.033613
24968000,0.0324,0.013523,0.002678,0.000431,0.014809
24969000,0.0324,0.013523,0.002678,0.000431,0.004231
24970000,0.0324,0.013523,0.002678,0.000431,0.048657
24971000,0.0324,0.013523,0.002678,0.000431,0.004701
24972000,0.0324,0.013523,0.002678,0.000431,0.012223
24973000,0.0324,0.013523,0.002678,0.000431,0.012223
24974000,0.0324,0.013523,0.002678,0.000431,0.115648
24975000,0.0324,0.013523,0.002678,0.000431,0.013633
24976000,0.0324,0.013523,0.002678,0.000431,0.004701
24977000,0.0324,0.013523,0.002678,0.000431,0.004701
24978000,0.0324,0.013523,0.002678,0.000431,0.004701
24979000,0.0324,0.013523,0.002678,0.000431,0.012223
24980000,0.0324,0.013523,0.002678,0.000431,0.034788
24981000,0.0324,0.013523,0.002678,0.000431,0.004701
24982000,0.0324,0.013523,0.002678,0.000431,0.004701
24983000,0.0324,0.013523,0.002678,0.000431,0.004701
24984000,0.0324,0.013523,0.002678,0.000431,0.042545
24985000,0.0324,0.013523,0.002678,0.000431,0.004701
24986000,0.0324,0.013523,0.002678,0.000431,0.027267
24987000,0.0324,0.013523,0.002678,0.000431,0.019745
24988000,0.0324,0.013523,0.002678,0.000431,0.004701
24989000,0.0324,0.013523,0.002678,0.000431,0.004701
24990000,0.0324,0.013523,0.002678,0.000431,0.004701
24991000,0.0324,0.013523,0.002678,0.000431,0.012223
24992000,0.0324,0.013523,0.002678,0.000431,0.004701
24993000,0.0324,0.013523,0.002678,0.000431,0.019745
24994000,0.0324,0.013523,0.002678,0.000431,0.048657
24995000,0.0324,0.013523,0.002678,0.000431,0.004701
24996000,0.0324,0.013523,0.002678,0.000431,0.004701
24997000,0.0324,0.013523,0.002678,0.000431,0.012223
24998000,0.0324,0.013523,0.002678,0.000431,0.042310
24999000,0.0324,0.013523,0.002678,0.000431,0.004231
