Cycle,Area(mm^2),PeakDynamic(W),SubthresholdLeakage(W),GateLeakage(W),RunTimeDynamic(W)
19000000,0.0324,0.013523,0.002678,0.000431,0.068049
19001000,0.0324,0.013523,0.002678,0.000431,0.125403
19002000,0.0324,0.013523,0.002678,0.000431,0.166772
19003000,0.0324,0.013523,0.002678,0.000431,0.095433
19004000,0.0324,0.013523,0.002678,0.000431,0.120349
19005000,0.0324,0.013523,0.002678,0.000431,0.084150
19006000,0.0324,0.013523,0.002678,0.000431,0.034906
19007000,0.0324,0.013523,0.002678,0.000431,0.094728
19008000,0.0324,0.013523,0.002678,0.000431,0.128223
19009000,0.0324,0.013523,0.002678,0.000431,0.098371
19010000,0.0324,0.013523,0.002678,0.000431,0.161366
19011000,0.0324,0.013523,0.002678,0.000431,0.289119
19012000,0.0324,0.013523,0.002678,0.000431,0.102955
19013000,0.0324,0.013523,0.002678,0.000431,0.121407
19014000,0.0324,0.013523,0.002678,0.000431,0.138331
19015000,0.0324,0.013523,0.002678,0.000431,0.195919
19016000,0.0324,0.013523,0.002678,0.000431,0.183579
19017000,0.0324,0.013523,0.002678,0.000431,0.156312
19018000,0.0324,0.013523,0.002678,0.000431,0.082505
19019000,0.0324,0.013523,0.002678,0.000431,0.063113
19020000,0.0324,0.013523,0.002678,0.000431,0.184754
19021000,0.0324,0.013523,0.002678,0.000431,0.217192
19022000,0.0324,0.013523,0.002678,0.000431,0.177585
19023000,0.0324,0.013523,0.002678,0.000431,0.123287
19024000,0.0324,0.013523,0.002678,0.000431,0.225889
19025000,0.0324,0.013523,0.002678,0.000431,0.108008
19026000,0.0324,0.013523,0.002678,0.000431,0.143854
19027000,0.0324,0.013523,0.002678,0.000431,0.122582
19028000,0.0324,0.013523,0.002678,0.000431,0.221188
19029000,0.0324,0.013523,0.002678,0.000431,0.159368
19030000,0.0324,0.013523,0.002678,0.000431,0.216134
19031000,0.0324,0.013523,0.002678,0.000431,0.100604
19032000,0.0324,0.013523,0.002678,0.000431,0.202501
19033000,0.0324,0.013523,0.002678,0.000431,0.065346
19034000,0.0324,0.013523,0.002678,0.000431,0.200973
19035000,0.0324,0.013523,0.002678,0.000431,0.110241
19036000,0.0324,0.013523,0.002678,0.000431,0.247749
19037000,0.0324,0.013523,0.002678,0.000431,0.183579
19038000,0.0324,0.013523,0.002678,0.000431,0.045718
19039000,0.0324,0.013523,0.002678,0.000431,0.076511
19040000,0.0324,0.013523,0.002678,0.000431,0.110124
19041000,0.0324,0.013523,0.002678,0.000431,0.102955
19042000,0.0324,0.013523,0.002678,0.000431,0.122582
19043000,0.0324,0.013523,0.002678,0.000431,0.098136
19044000,0.0324,0.013523,0.002678,0.000431,0.094610
19045000,0.0324,0.013523,0.002678,0.000431,0.109654
19046000,0.0324,0.013523,0.002678,0.000431,0.122464
19047000,0.0324,0.013523,0.002678,0.000431,0.139271
19048000,0.0324,0.013523,0.002678,0.000431,0.084385
19049000,0.0324,0.013523,0.002678,0.000431,0.089556
19050000,0.0324,0.013523,0.002678,0.000431,0.159368
19051000,0.0324,0.013523,0.002678,0.000431,0.174529
19052000,0.0324,0.013523,0.002678,0.000431,0.232236
19053000,0.0324,0.013523,0.002678,0.000431,0.135863
19054000,0.0324,0.013523,0.002678,0.000431,0.118351
19055000,0.0324,0.013523,0.002678,0.000431,0.077686
19056000,0.0324,0.013523,0.002678,0.000431,0.132337
19057000,0.0324,0.013523,0.002678,0.000431,0.167948
19058000,0.0324,0.013523,0.002678,0.000431,0.091202
19059000,0.0324,0.013523,0.002678,0.000431,0.285006
19060000,0.0324,0.013523,0.002678,0.000431,0.200150
19061000,0.0324,0.013523,0.002678,0.000431,0.093670
19062000,0.0324,0.013523,0.002678,0.000431,0.106598
19063000,0.0324,0.013523,0.002678,0.000431,0.130456
19064000,0.0324,0.013523,0.002678,0.000431,0.089204
19065000,0.0324,0.013523,0.002678,0.000431,0.139976
19066000,0.0324,0.013523,0.002678,0.000431,0.124815
19067000,0.0324,0.013523,0.002678,0.000431,0.163952
19068000,0.0324,0.013523,0.002678,0.000431,0.198505
19069000,0.0324,0.013523,0.002678,0.000431,0.035258
19070000,0.0324,0.013523,0.002678,0.000431,0.118821
19071000,0.0324,0.013523,0.002678,0.000431,0.119291
19072000,0.0324,0.013523,0.002678,0.000431,0.161601
19073000,0.0324,0.013523,0.002678,0.000431,0.230238
19074000,0.0324,0.013523,0.002678,0.000431,0.147850
19075000,0.0324,0.013523,0.002678,0.000431,0.095198
19076000,0.0324,0.013523,0.002678,0.000431,0.058647
19077000,0.0324,0.013523,0.002678,0.000431,0.169711
19078000,0.0324,0.013523,0.002678,0.000431,0.088969
19079000,0.0324,0.013523,0.002678,0.000431,0.180758
19080000,0.0324,0.013523,0.002678,0.000431,0.202971
19081000,0.0324,0.013523,0.002678,0.000431,0.112945
19082000,0.0324,0.013523,0.002678,0.000431,0.082505
19083000,0.0324,0.013523,0.002678,0.000431,0.226359
19084000,0.0324,0.013523,0.002678,0.000431,0.056061
19085000,0.0324,0.013523,0.002678,0.000431,0.113297
19086000,0.0324,0.013523,0.002678,0.000431,0.158546
19087000,0.0324,0.013523,0.002678,0.000431,0.185695
19088000,0.0324,0.013523,0.002678,0.000431,0.107656
19089000,0.0324,0.013523,0.002678,0.000431,0.046776
19090000,0.0324,0.013523,0.002678,0.000431,0.126460
19091000,0.0324,0.013523,0.002678,0.000431,0.118351
19092000,0.0324,0.013523,0.002678,0.000431,0.129986
19093000,0.0324,0.013523,0.002678,0.000431,0.272900
19094000,0.0324,0.013523,0.002678,0.000431,0.151964
19095000,0.0324,0.013523,0.002678,0.000431,0.086266
19096000,0.0324,0.013523,0.002678,0.000431,0.142092
19097000,0.0324,0.013523,0.002678,0.000431,0.075571
19098000,0.0324,0.013523,0.002678,0.000431,0.238465
19099000,0.0324,0.013523,0.002678,0.000431,0.325906
19100000,0.0324,0.013523,0.002678,0.000431,0.181111
19101000,0.0324,0.013523,0.002678,0.000431,0.087794
19102000,0.0324,0.013523,0.002678,0.000431,0.112710
19103000,0.0324,0.013523,0.002678,0.000431,0.124815
19104000,0.0324,0.013523,0.002678,0.000431,0.091319
19105000,0.0324,0.013523,0.002678,0.000431,0.134687
19106000,0.0324,0.013523,0.002678,0.000431,0.099781
19107000,0.0324,0.013523,0.002678,0.000431,0.043838
19108000,0.0324,0.013523,0.002678,0.000431,0.063113
19109000,0.0324,0.013523,0.002678,0.000431,0.127283
19110000,0.0324,0.013523,0.002678,0.000431,0.085678
19111000,0.0324,0.013523,0.002678,0.000431,0.202619
19112000,0.0324,0.013523,0.002678,0.000431,0.144090
19113000,0.0324,0.013523,0.002678,0.000431,0.092495
19114000,0.0324,0.013523,0.002678,0.000431,0.110476
19115000,0.0324,0.013523,0.002678,0.000431,0.215782
19116000,0.0324,0.013523,0.002678,0.000431,0.198388
19117000,0.0324,0.013523,0.002678,0.000431,0.061350
19118000,0.0324,0.013523,0.002678,0.000431,0.116588
19119000,0.0324,0.013523,0.002678,0.000431,0.062525
19120000,0.0324,0.013523,0.002678,0.000431,0.087794
19121000,0.0324,0.013523,0.002678,0.000431,0.122582
19122000,0.0324,0.013523,0.002678,0.000431,0.241168
19123000,0.0324,0.013523,0.002678,0.000431,0.139388
19124000,0.0324,0.013523,0.002678,0.000431,0.293938
19125000,0.0324,0.013523,0.002678,0.000431,0.316386
19126000,0.0324,0.013523,0.002678,0.000431,0.069694
19127000,0.0324,0.013523,0.002678,0.000431,0.103072
19128000,0.0324,0.013523,0.002678,0.000431,0.252686
19129000,0.0324,0.013523,0.002678,0.000431,0.203206
19130000,0.0324,0.013523,0.002678,0.000431,0.173001
19131000,0.0324,0.013523,0.002678,0.000431,0.080037
19132000,0.0324,0.013523,0.002678,0.000431,0.205087
19133000,0.0324,0.013523,0.002678,0.000431,0.087676
19134000,0.0324,0.013523,0.002678,0.000431,0.122934
19135000,0.0324,0.013523,0.002678,0.000431,0.098724
19136000,0.0324,0.013523,0.002678,0.000431,0.147498
19137000,0.0324,0.013523,0.002678,0.000431,0.143032
19138000,0.0324,0.013523,0.002678,0.000431,0.100134
19139000,0.0324,0.013523,0.002678,0.000431,0.101427
19140000,0.0324,0.013523,0.002678,0.000431,0.113062
19141000,0.0324,0.013523,0.002678,0.000431,0.143149
19142000,0.0324,0.013523,0.002678,0.000431,0.161601
19143000,0.0324,0.013523,0.002678,0.000431,0.188633
19144000,0.0324,0.013523,0.002678,0.000431,0.141857
19145000,0.0324,0.013523,0.002678,0.000431,0.114002
19146000,0.0324,0.013523,0.002678,0.000431,0.110241
19147000,0.0324,0.013523,0.002678,0.000431,0.117763
19148000,0.0324,0.013523,0.002678,0.000431,0.072750
19149000,0.0324,0.013523,0.002678,0.000431,0.126343
19150000,0.0324,0.013523,0.002678,0.000431,0.167125
19151000,0.0324,0.013523,0.002678,0.000431,0.065816
19152000,0.0324,0.013523,0.002678,0.000431,0.155372
19153000,0.0324,0.013523,0.002678,0.000431,0.090262
19154000,0.0324,0.013523,0.002678,0.000431,0.146558
19155000,0.0324,0.013523,0.002678,0.000431,0.135980
19156000,0.0324,0.013523,0.002678,0.000431,0.065111
19157000,0.0324,0.013523,0.002678,0.000431,0.117763
19158000,0.0324,0.013523,0.002678,0.000431,0.076041
19159000,0.0324,0.013523,0.002678,0.000431,0.091554
19160000,0.0324,0.013523,0.002678,0.000431,0.118351
19161000,0.0324,0.013523,0.002678,0.000431,0.042193
19162000,0.0324,0.013523,0.002678,0.000431,0.152199
19163000,0.0324,0.013523,0.002678,0.000431,0.132807
19164000,0.0324,0.013523,0.002678,0.000431,0.076628
19165000,0.0324,0.013523,0.002678,0.000431,0.142562
19166000,0.0324,0.013523,0.002678,0.000431,0.109419
19167000,0.0324,0.013523,0.002678,0.000431,0.205909
19168000,0.0324,0.013523,0.002678,0.000431,0.167008
19169000,0.0324,0.013523,0.002678,0.000431,0.243753
19170000,0.0324,0.013523,0.002678,0.000431,0.064758
19171000,0.0324,0.013523,0.002678,0.000431,0.091672
19172000,0.0324,0.013523,0.002678,0.000431,0.068989
19173000,0.0324,0.013523,0.002678,0.000431,0.163482
19174000,0.0324,0.013523,0.002678,0.000431,0.121994
19175000,0.0324,0.013523,0.002678,0.000431,0.227887
19176000,0.0324,0.013523,0.002678,0.000431,0.134922
19177000,0.0324,0.013523,0.002678,0.000431,0.122817
19178000,0.0324,0.013523,0.002678,0.000431,0.218720
19179000,0.0324,0.013523,0.002678,0.000431,0.198388
19180000,0.0324,0.013523,0.002678,0.000431,0.335778
19181000,0.0324,0.013523,0.002678,0.000431,0.168183
19182000,0.0324,0.013523,0.002678,0.000431,0.177820
19183000,0.0324,0.013523,0.002678,0.000431,0.119291
19184000,0.0324,0.013523,0.002678,0.000431,0.113650
19185000,0.0324,0.013523,0.002678,0.000431,0.078626
19186000,0.0324,0.013523,0.002678,0.000431,0.254566
19187000,0.0324,0.013523,0.002678,0.000431,0.116823
19188000,0.0324,0.013523,0.002678,0.000431,0.324848
19189000,0.0324,0.013523,0.002678,0.000431,0.108479
19190000,0.0324,0.013523,0.002678,0.000431,0.105775
19191000,0.0324,0.013523,0.002678,0.000431,0.140681
19192000,0.0324,0.013523,0.002678,0.000431,0.221776
19193000,0.0324,0.013523,0.002678,0.000431,0.170416
19194000,0.0324,0.013523,0.002678,0.000431,0.166185
19195000,0.0324,0.013523,0.002678,0.000431,0.098841
19196000,0.0324,0.013523,0.002678,0.000431,0.145735
19197000,0.0324,0.013523,0.002678,0.000431,0.217545
19198000,0.0324,0.013523,0.002678,0.000431,0.127988
19199000,0.0324,0.013523,0.002678,0.000431,0.189103
19200000,0.0324,0.013523,0.002678,0.000431,0.089674
19201000,0.0324,0.013523,0.002678,0.000431,0.373740
19202000,0.0324,0.013523,0.002678,0.000431,0.155607
19203000,0.0324,0.013523,0.002678,0.000431,0.076511
19204000,0.0324,0.013523,0.002678,0.000431,0.293350
19205000,0.0324,0.013523,0.002678,0.000431,0.131397
19206000,0.0324,0.013523,0.002678,0.000431,0.253391
19207000,0.0324,0.013523,0.002678,0.000431,0.167360
19208000,0.0324,0.013523,0.002678,0.000431,0.166185
19209000,0.0324,0.013523,0.002678,0.000431,0.232118
19210000,0.0324,0.013523,0.002678,0.000431,0.172649
19211000,0.0324,0.013523,0.002678,0.000431,0.080037
19212000,0.0324,0.013523,0.002678,0.000431,0.087323
19213000,0.0324,0.013523,0.002678,0.000431,0.168888
19214000,0.0324,0.013523,0.002678,0.000431,0.199563
19215000,0.0324,0.013523,0.002678,0.000431,0.114120
19216000,0.0324,0.013523,0.002678,0.000431,0.141739
19217000,0.0324,0.013523,0.002678,0.000431,0.116353
19218000,0.0324,0.013523,0.002678,0.000431,0.139506
19219000,0.0324,0.013523,0.002678,0.000431,0.076628
19220000,0.0324,0.013523,0.002678,0.000431,0.210846
19221000,0.0324,0.013523,0.002678,0.000431,0.136920
19222000,0.0324,0.013523,0.002678,0.000431,0.138096
19223000,0.0324,0.013523,0.002678,0.000431,0.203559
19224000,0.0324,0.013523,0.002678,0.000431,0.236467
19225000,0.0324,0.013523,0.002678,0.000431,0.081447
19226000,0.0324,0.013523,0.002678,0.000431,0.178995
19227000,0.0324,0.013523,0.002678,0.000431,0.273253
19228000,0.0324,0.013523,0.002678,0.000431,0.067696
19229000,0.0324,0.013523,0.002678,0.000431,0.234939
19230000,0.0324,0.013523,0.002678,0.000431,0.084620
19231000,0.0324,0.013523,0.002678,0.000431,0.172296
19232000,0.0324,0.013523,0.002678,0.000431,0.098959
19233000,0.0324,0.013523,0.002678,0.000431,0.186282
19234000,0.0324,0.013523,0.002678,0.000431,0.147145
19235000,0.0324,0.013523,0.002678,0.000431,0.113885
19236000,0.0324,0.013523,0.002678,0.000431,0.301930
19237000,0.0324,0.013523,0.002678,0.000431,0.203676
19238000,0.0324,0.013523,0.002678,0.000431,0.319089
19239000,0.0324,0.013523,0.002678,0.000431,0.144207
19240000,0.0324,0.013523,0.002678,0.000431,0.087794
19241000,0.0324,0.013523,0.002678,0.000431,0.117646
19242000,0.0324,0.013523,0.002678,0.000431,0.164422
19243000,0.0324,0.013523,0.002678,0.000431,0.210963
19244000,0.0324,0.013523,0.002678,0.000431,0.299579
19245000,0.0324,0.013523,0.002678,0.000431,0.316268
19246000,0.0324,0.013523,0.002678,0.000431,0.058647
19247000,0.0324,0.013523,0.002678,0.000431,0.158663
19248000,0.0324,0.013523,0.002678,0.000431,0.188045
19249000,0.0324,0.013523,0.002678,0.000431,0.316621
19250000,0.0324,0.013523,0.002678,0.000431,0.067931
19251000,0.0324,0.013523,0.002678,0.000431,0.106363
19252000,0.0324,0.013523,0.002678,0.000431,0.128458
19253000,0.0324,0.013523,0.002678,0.000431,0.133159
19254000,0.0324,0.013523,0.002678,0.000431,0.152787
19255000,0.0324,0.013523,0.002678,0.000431,0.112827
19256000,0.0324,0.013523,0.002678,0.000431,0.165127
19257000,0.0324,0.013523,0.002678,0.000431,0.266084
19258000,0.0324,0.013523,0.002678,0.000431,0.133159
19259000,0.0324,0.013523,0.002678,0.000431,0.144912
19260000,0.0324,0.013523,0.002678,0.000431,0.370331
19261000,0.0324,0.013523,0.002678,0.000431,0.226477
19262000,0.0324,0.013523,0.002678,0.000431,0.168418
19263000,0.0324,0.013523,0.002678,0.000431,0.071457
19264000,0.0324,0.013523,0.002678,0.000431,0.202619
19265000,0.0324,0.013523,0.002678,0.000431,0.228710
19266000,0.0324,0.013523,0.002678,0.000431,0.099781
19267000,0.0324,0.013523,0.002678,0.000431,0.128928
19268000,0.0324,0.013523,0.002678,0.000431,0.085561
19269000,0.0324,0.013523,0.002678,0.000431,0.083915
19270000,0.0324,0.013523,0.002678,0.000431,0.146910
19271000,0.0324,0.013523,0.002678,0.000431,0.230473
19272000,0.0324,0.013523,0.002678,0.000431,0.318854
19273000,0.0324,0.013523,0.002678,0.000431,0.082505
19274000,0.0324,0.013523,0.002678,0.000431,0.086383
19275000,0.0324,0.013523,0.002678,0.000431,0.154315
19276000,0.0324,0.013523,0.002678,0.000431,0.066403
19277000,0.0324,0.013523,0.002678,0.000431,0.260207
19278000,0.0324,0.013523,0.002678,0.000431,0.197330
19279000,0.0324,0.013523,0.002678,0.000431,0.133982
19280000,0.0324,0.013523,0.002678,0.000431,0.219778
19281000,0.0324,0.013523,0.002678,0.000431,0.192746
19282000,0.0324,0.013523,0.002678,0.000431,0.137038
19283000,0.0324,0.013523,0.002678,0.000431,0.103777
19284000,0.0324,0.013523,0.002678,0.000431,0.184402
19285000,0.0324,0.013523,0.002678,0.000431,0.080389
19286000,0.0324,0.013523,0.002678,0.000431,0.095198
19287000,0.0324,0.013523,0.002678,0.000431,0.083680
19288000,0.0324,0.013523,0.002678,0.000431,0.114708
19289000,0.0324,0.013523,0.002678,0.000431,0.216134
19290000,0.0324,0.013523,0.002678,0.000431,0.099076
19291000,0.0324,0.013523,0.002678,0.000431,0.106245
19292000,0.0324,0.013523,0.002678,0.000431,0.148791
19293000,0.0324,0.013523,0.002678,0.000431,0.065346
19294000,0.0324,0.013523,0.002678,0.000431,0.076041
19295000,0.0324,0.013523,0.002678,0.000431,0.152081
19296000,0.0324,0.013523,0.002678,0.000431,0.230355
19297000,0.0324,0.013523,0.002678,0.000431,0.307454
19298000,0.0324,0.013523,0.002678,0.000431,0.204499
19299000,0.0324,0.013523,0.002678,0.000431,0.118351
19300000,0.0324,0.013523,0.002678,0.000431,0.164892
19301000,0.0324,0.013523,0.002678,0.000431,0.080154
19302000,0.0324,0.013523,0.002678,0.000431,0.118116
19303000,0.0324,0.013523,0.002678,0.000431,0.133277
19304000,0.0324,0.013523,0.002678,0.000431,0.191806
19305000,0.0324,0.013523,0.002678,0.000431,0.144325
19306000,0.0324,0.013523,0.002678,0.000431,0.043838
19307000,0.0324,0.013523,0.002678,0.000431,0.085796
19308000,0.0324,0.013523,0.002678,0.000431,0.134452
19309000,0.0324,0.013523,0.002678,0.000431,0.134922
19310000,0.0324,0.013523,0.002678,0.000431,0.150789
19311000,0.0324,0.013523,0.002678,0.000431,0.154315
19312000,0.0324,0.013523,0.002678,0.000431,0.179230
19313000,0.0324,0.013523,0.002678,0.000431,0.065111
19314000,0.0324,0.013523,0.002678,0.000431,0.106716
19315000,0.0324,0.013523,0.002678,0.000431,0.129634
19316000,0.0324,0.013523,0.002678,0.000431,0.381261
19317000,0.0324,0.013523,0.002678,0.000431,0.143267
19318000,0.0324,0.013523,0.002678,0.000431,0.177820
19319000,0.0324,0.013523,0.002678,0.000431,0.085678
19320000,0.0324,0.013523,0.002678,0.000431,0.114943
19321000,0.0324,0.013523,0.002678,0.000431,0.204264
19322000,0.0324,0.013523,0.002678,0.000431,0.158310
19323000,0.0324,0.013523,0.002678,0.000431,0.231531
19324000,0.0324,0.013523,0.002678,0.000431,0.293233
19325000,0.0324,0.013523,0.002678,0.000431,0.174764
19326000,0.0324,0.013523,0.002678,0.000431,0.105540
19327000,0.0324,0.013523,0.002678,0.000431,0.119996
19328000,0.0324,0.013523,0.002678,0.000431,0.142914
19329000,0.0324,0.013523,0.002678,0.000431,0.129281
19330000,0.0324,0.013523,0.002678,0.000431,0.220483
19331000,0.0324,0.013523,0.002678,0.000431,0.203794
19332000,0.0324,0.013523,0.002678,0.000431,0.114237
19333000,0.0324,0.013523,0.002678,0.000431,0.084150
19334000,0.0324,0.013523,0.002678,0.000431,0.282773
19335000,0.0324,0.013523,0.002678,0.000431,0.253508
19336000,0.0324,0.013523,0.002678,0.000431,0.175587
19337000,0.0324,0.013523,0.002678,0.000431,0.150906
19338000,0.0324,0.013523,0.002678,0.000431,0.217310
19339000,0.0324,0.013523,0.002678,0.000431,0.128693
19340000,0.0324,0.013523,0.002678,0.000431,0.129516
19341000,0.0324,0.013523,0.002678,0.000431,0.098136
19342000,0.0324,0.013523,0.002678,0.000431,0.207672
19343000,0.0324,0.013523,0.002678,0.000431,0.141857
19344000,0.0324,0.013523,0.002678,0.000431,0.110006
19345000,0.0324,0.013523,0.002678,0.000431,0.151024
19346000,0.0324,0.013523,0.002678,0.000431,0.107068
19347000,0.0324,0.013523,0.002678,0.000431,0.082975
19348000,0.0324,0.013523,0.002678,0.000431,0.187340
19349000,0.0324,0.013523,0.002678,0.000431,0.192159
19350000,0.0324,0.013523,0.002678,0.000431,0.303340
19351000,0.0324,0.013523,0.002678,0.000431,0.071692
19352000,0.0324,0.013523,0.002678,0.000431,0.078274
19353000,0.0324,0.013523,0.002678,0.000431,0.082387
19354000,0.0324,0.013523,0.002678,0.000431,0.114472
19355000,0.0324,0.013523,0.002678,0.000431,0.303810
19356000,0.0324,0.013523,0.002678,0.000431,0.336366
19357000,0.0324,0.013523,0.002678,0.000431,0.122347
19358000,0.0324,0.013523,0.002678,0.000431,0.129281
19359000,0.0324,0.013523,0.002678,0.000431,0.141739
19360000,0.0324,0.013523,0.002678,0.000431,0.071575
19361000,0.0324,0.013523,0.002678,0.000431,0.250335
19362000,0.0324,0.013523,0.002678,0.000431,0.098606
19363000,0.0324,0.013523,0.002678,0.000431,0.155960
19364000,0.0324,0.013523,0.002678,0.000431,0.125520
19365000,0.0324,0.013523,0.002678,0.000431,0.107303
19366000,0.0324,0.013523,0.002678,0.000431,0.088734
19367000,0.0324,0.013523,0.002678,0.000431,0.128106
19368000,0.0324,0.013523,0.002678,0.000431,0.194157
19369000,0.0324,0.013523,0.002678,0.000431,0.214724
19370000,0.0324,0.013523,0.002678,0.000431,0.181934
19371000,0.0324,0.013523,0.002678,0.000431,0.079919
19372000,0.0324,0.013523,0.002678,0.000431,0.055356
19373000,0.0324,0.013523,0.002678,0.000431,0.071340
19374000,0.0324,0.013523,0.002678,0.000431,0.208495
19375000,0.0324,0.013523,0.002678,0.000431,0.172296
19376000,0.0324,0.013523,0.002678,0.000431,0.132807
19377000,0.0324,0.013523,0.002678,0.000431,0.175235
19378000,0.0324,0.013523,0.002678,0.000431,0.066756
19379000,0.0324,0.013523,0.002678,0.000431,0.135745
19380000,0.0324,0.013523,0.002678,0.000431,0.082505
19381000,0.0324,0.013523,0.002678,0.000431,0.229062
19382000,0.0324,0.013523,0.002678,0.000431,0.284888
19383000,0.0324,0.013523,0.002678,0.000431,0.086266
19384000,0.0324,0.013523,0.002678,0.000431,0.107891
19385000,0.0324,0.013523,0.002678,0.000431,0.085325
19386000,0.0324,0.013523,0.002678,0.000431,0.212021
19387000,0.0324,0.013523,0.002678,0.000431,0.382084
19388000,0.0324,0.013523,0.002678,0.000431,0.383142
19389000,0.0324,0.013523,0.002678,0.000431,0.202501
19390000,0.0324,0.013523,0.002678,0.000431,0.090027
19391000,0.0324,0.013523,0.002678,0.000431,0.076158
19392000,0.0324,0.013523,0.002678,0.000431,0.209083
19393000,0.0324,0.013523,0.002678,0.000431,0.233293
19394000,0.0324,0.013523,0.002678,0.000431,0.130926
19395000,0.0324,0.013523,0.002678,0.000431,0.376325
19396000,0.0324,0.013523,0.002678,0.000431,0.089909
19397000,0.0324,0.013523,0.002678,0.000431,0.127401
19398000,0.0324,0.013523,0.002678,0.000431,0.125638
19399000,0.0324,0.013523,0.002678,0.000431,0.125403
19400000,0.0324,0.013523,0.002678,0.000431,0.175587
19401000,0.0324,0.013523,0.002678,0.000431,0.221306
19402000,0.0324,0.013523,0.002678,0.000431,0.076981
19403000,0.0324,0.013523,0.002678,0.000431,0.050185
19404000,0.0324,0.013523,0.002678,0.000431,0.072867
19405000,0.0324,0.013523,0.002678,0.000431,0.091437
19406000,0.0324,0.013523,0.002678,0.000431,0.254566
19407000,0.0324,0.013523,0.002678,0.000431,0.159486
19408000,0.0324,0.013523,0.002678,0.000431,0.205204
19409000,0.0324,0.013523,0.002678,0.000431,0.054651
19410000,0.0324,0.013523,0.002678,0.000431,0.144912
19411000,0.0324,0.013523,0.002678,0.000431,0.089674
19412000,0.0324,0.013523,0.002678,0.000431,0.147145
19413000,0.0324,0.013523,0.002678,0.000431,0.211316
19414000,0.0324,0.013523,0.002678,0.000431,0.283831
19415000,0.0324,0.013523,0.002678,0.000431,0.110359
19416000,0.0324,0.013523,0.002678,0.000431,0.213079
19417000,0.0324,0.013523,0.002678,0.000431,0.115765
19418000,0.0324,0.013523,0.002678,0.000431,0.121524
19419000,0.0324,0.013523,0.002678,0.000431,0.174412
19420000,0.0324,0.013523,0.002678,0.000431,0.315563
19421000,0.0324,0.013523,0.002678,0.000431,0.227064
19422000,0.0324,0.013523,0.002678,0.000431,0.197682
19423000,0.0324,0.013523,0.002678,0.000431,0.109301
19424000,0.0324,0.013523,0.002678,0.000431,0.104365
19425000,0.0324,0.013523,0.002678,0.000431,0.307806
19426000,0.0324,0.013523,0.002678,0.000431,0.304751
19427000,0.0324,0.013523,0.002678,0.000431,0.301695
19428000,0.0324,0.013523,0.002678,0.000431,0.144795
19429000,0.0324,0.013523,0.002678,0.000431,0.136568
19430000,0.0324,0.013523,0.002678,0.000431,0.079214
19431000,0.0324,0.013523,0.002678,0.000431,0.092377
19432000,0.0324,0.013523,0.002678,0.000431,0.162541
19433000,0.0324,0.013523,0.002678,0.000431,0.225184
19434000,0.0324,0.013523,0.002678,0.000431,0.226829
19435000,0.0324,0.013523,0.002678,0.000431,0.227064
19436000,0.0324,0.013523,0.002678,0.000431,0.089909
19437000,0.0324,0.013523,0.002678,0.000431,0.065346
19438000,0.0324,0.013523,0.002678,0.000431,0.089792
19439000,0.0324,0.013523,0.002678,0.000431,0.427450
19440000,0.0324,0.013523,0.002678,0.000431,0.300285
19441000,0.0324,0.013523,0.002678,0.000431,0.094610
19442000,0.0324,0.013523,0.002678,0.000431,0.176057
19443000,0.0324,0.013523,0.002678,0.000431,0.129163
19444000,0.0324,0.013523,0.002678,0.000431,0.055356
19445000,0.0324,0.013523,0.002678,0.000431,0.117293
19446000,0.0324,0.013523,0.002678,0.000431,0.265614
19447000,0.0324,0.013523,0.002678,0.000431,0.360694
19448000,0.0324,0.013523,0.002678,0.000431,0.050890
19449000,0.0324,0.013523,0.002678,0.000431,0.168535
19450000,0.0324,0.013523,0.002678,0.000431,0.074865
19451000,0.0324,0.013523,0.002678,0.000431,0.100487
19452000,0.0324,0.013523,0.002678,0.000431,0.191571
19453000,0.0324,0.013523,0.002678,0.000431,0.228005
19454000,0.0324,0.013523,0.002678,0.000431,0.262793
19455000,0.0324,0.013523,0.002678,0.000431,0.157018
19456000,0.0324,0.013523,0.002678,0.000431,0.068754
19457000,0.0324,0.013523,0.002678,0.000431,0.046541
19458000,0.0324,0.013523,0.002678,0.000431,0.114472
19459000,0.0324,0.013523,0.002678,0.000431,0.072867
19460000,0.0324,0.013523,0.002678,0.000431,0.162189
19461000,0.0324,0.013523,0.002678,0.000431,0.156783
19462000,0.0324,0.013523,0.002678,0.000431,0.144090
19463000,0.0324,0.013523,0.002678,0.000431,0.072867
19464000,0.0324,0.013523,0.002678,0.000431,0.150789
19465000,0.0324,0.013523,0.002678,0.000431,0.111182
19466000,0.0324,0.013523,0.002678,0.000431,0.088264
19467000,0.0324,0.013523,0.002678,0.000431,0.151494
19468000,0.0324,0.013523,0.002678,0.000431,0.121289
19469000,0.0324,0.013523,0.002678,0.000431,0.148673
19470000,0.0324,0.013523,0.002678,0.000431,0.038902
19471000,0.0324,0.013523,0.002678,0.000431,0.111064
19472000,0.0324,0.013523,0.002678,0.000431,0.137626
19473000,0.0324,0.013523,0.002678,0.000431,0.078979
19474000,0.0324,0.013523,0.002678,0.000431,0.191924
19475000,0.0324,0.013523,0.002678,0.000431,0.148203
19476000,0.0324,0.013523,0.002678,0.000431,0.187810
19477000,0.0324,0.013523,0.002678,0.000431,0.139153
19478000,0.0324,0.013523,0.002678,0.000431,0.247514
19479000,0.0324,0.013523,0.002678,0.000431,0.118821
19480000,0.0324,0.013523,0.002678,0.000431,0.232353
19481000,0.0324,0.013523,0.002678,0.000431,0.138801
19482000,0.0324,0.013523,0.002678,0.000431,0.079802
19483000,0.0324,0.013523,0.002678,0.000431,0.053945
19484000,0.0324,0.013523,0.002678,0.000431,0.076863
19485000,0.0324,0.013523,0.002678,0.000431,0.203441
19486000,0.0324,0.013523,0.002678,0.000431,0.259267
19487000,0.0324,0.013523,0.002678,0.000431,0.130926
19488000,0.0324,0.013523,0.002678,0.000431,0.260442
19489000,0.0324,0.013523,0.002678,0.000431,0.114355
19490000,0.0324,0.013523,0.002678,0.000431,0.263498
19491000,0.0324,0.013523,0.002678,0.000431,0.289002
19492000,0.0324,0.013523,0.002678,0.000431,0.117763
19493000,0.0324,0.013523,0.002678,0.000431,0.093435
19494000,0.0324,0.013523,0.002678,0.000431,0.195567
19495000,0.0324,0.013523,0.002678,0.000431,0.088029
19496000,0.0324,0.013523,0.002678,0.000431,0.077216
19497000,0.0324,0.013523,0.002678,0.000431,0.165245
19498000,0.0324,0.013523,0.002678,0.000431,0.126225
19499000,0.0324,0.013523,0.002678,0.000431,0.163012
19500000,0.0324,0.013523,0.002678,0.000431,0.072750
19501000,0.0324,0.013523,0.002678,0.000431,0.125755
19502000,0.0324,0.013523,0.002678,0.000431,0.067344
19503000,0.0324,0.013523,0.002678,0.000431,0.175587
19504000,0.0324,0.013523,0.002678,0.000431,0.338716
19505000,0.0324,0.013523,0.002678,0.000431,0.185812
19506000,0.0324,0.013523,0.002678,0.000431,0.212961
19507000,0.0324,0.013523,0.002678,0.000431,0.053593
19508000,0.0324,0.013523,0.002678,0.000431,0.111417
19509000,0.0324,0.013523,0.002678,0.000431,0.211786
19510000,0.0324,0.013523,0.002678,0.000431,0.162424
19511000,0.0324,0.013523,0.002678,0.000431,0.264673
19512000,0.0324,0.013523,0.002678,0.000431,0.175352
19513000,0.0324,0.013523,0.002678,0.000431,0.203559
19514000,0.0324,0.013523,0.002678,0.000431,0.076511
19515000,0.0324,0.013523,0.002678,0.000431,0.168418
19516000,0.0324,0.013523,0.002678,0.000431,0.098959
19517000,0.0324,0.013523,0.002678,0.000431,0.152552
19518000,0.0324,0.013523,0.002678,0.000431,0.246104
19519000,0.0324,0.013523,0.002678,0.000431,0.177115
19520000,0.0324,0.013523,0.002678,0.000431,0.057706
19521000,0.0324,0.013523,0.002678,0.000431,0.035376
19522000,0.0324,0.013523,0.002678,0.000431,0.181464
19523000,0.0324,0.013523,0.002678,0.000431,0.070047
19524000,0.0324,0.013523,0.002678,0.000431,0.114472
19525000,0.0324,0.013523,0.002678,0.000431,0.072867
19526000,0.0324,0.013523,0.002678,0.000431,0.053945
19527000,0.0324,0.013523,0.002678,0.000431,0.076981
19528000,0.0324,0.013523,0.002678,0.000431,0.146323
19529000,0.0324,0.013523,0.002678,0.000431,0.207907
19530000,0.0324,0.013523,0.002678,0.000431,0.129516
19531000,0.0324,0.013523,0.002678,0.000431,0.231413
19532000,0.0324,0.013523,0.002678,0.000431,0.138683
19533000,0.0324,0.013523,0.002678,0.000431,0.038784
19534000,0.0324,0.013523,0.002678,0.000431,0.091672
19535000,0.0324,0.013523,0.002678,0.000431,0.117528
19536000,0.0324,0.013523,0.002678,0.000431,0.095668
19537000,0.0324,0.013523,0.002678,0.000431,0.123522
19538000,0.0324,0.013523,0.002678,0.000431,0.125050
19539000,0.0324,0.013523,0.002678,0.000431,0.199563
19540000,0.0324,0.013523,0.002678,0.000431,0.072750
19541000,0.0324,0.013523,0.002678,0.000431,0.071927
19542000,0.0324,0.013523,0.002678,0.000431,0.274781
19543000,0.0324,0.013523,0.002678,0.000431,0.226124
19544000,0.0324,0.013523,0.002678,0.000431,0.072867
19545000,0.0324,0.013523,0.002678,0.000431,0.103542
19546000,0.0324,0.013523,0.002678,0.000431,0.046189
19547000,0.0324,0.013523,0.002678,0.000431,0.227300
19548000,0.0324,0.013523,0.002678,0.000431,0.125050
19549000,0.0324,0.013523,0.002678,0.000431,0.165480
19550000,0.0324,0.013523,0.002678,0.000431,0.283831
19551000,0.0324,0.013523,0.002678,0.000431,0.141739
19552000,0.0324,0.013523,0.002678,0.000431,0.038902
19553000,0.0324,0.013523,0.002678,0.000431,0.035023
19554000,0.0324,0.013523,0.002678,0.000431,0.098606
19555000,0.0324,0.013523,0.002678,0.000431,0.302870
19556000,0.0324,0.013523,0.002678,0.000431,0.272430
19557000,0.0324,0.013523,0.002678,0.000431,0.144207
19558000,0.0324,0.013523,0.002678,0.000431,0.111064
19559000,0.0324,0.013523,0.002678,0.000431,0.050185
19560000,0.0324,0.013523,0.002678,0.000431,0.140564
19561000,0.0324,0.013523,0.002678,0.000431,0.151964
19562000,0.0324,0.013523,0.002678,0.000431,0.264673
19563000,0.0324,0.013523,0.002678,0.000431,0.080624
19564000,0.0324,0.013523,0.002678,0.000431,0.102955
19565000,0.0324,0.013523,0.002678,0.000431,0.057471
19566000,0.0324,0.013523,0.002678,0.000431,0.154785
19567000,0.0324,0.013523,0.002678,0.000431,0.178760
19568000,0.0324,0.013523,0.002678,0.000431,0.112592
19569000,0.0324,0.013523,0.002678,0.000431,0.182286
19570000,0.0324,0.013523,0.002678,0.000431,0.150906
19571000,0.0324,0.013523,0.002678,0.000431,0.082857
19572000,0.0324,0.013523,0.002678,0.000431,0.061585
19573000,0.0324,0.013523,0.002678,0.000431,0.065346
19574000,0.0324,0.013523,0.002678,0.000431,0.224009
19575000,0.0324,0.013523,0.002678,0.000431,0.182639
19576000,0.0324,0.013523,0.002678,0.000431,0.186047
19577000,0.0324,0.013523,0.002678,0.000431,0.155372
19578000,0.0324,0.013523,0.002678,0.000431,0.231531
19579000,0.0324,0.013523,0.002678,0.000431,0.095198
19580000,0.0324,0.013523,0.002678,0.000431,0.087794
19581000,0.0324,0.013523,0.002678,0.000431,0.125520
19582000,0.0324,0.013523,0.002678,0.000431,0.122817
19583000,0.0324,0.013523,0.002678,0.000431,0.138801
19584000,0.0324,0.013523,0.002678,0.000431,0.085678
19585000,0.0324,0.013523,0.002678,0.000431,0.035141
19586000,0.0324,0.013523,0.002678,0.000431,0.064993
19587000,0.0324,0.013523,0.002678,0.000431,0.204734
19588000,0.0324,0.013523,0.002678,0.000431,0.209083
19589000,0.0324,0.013523,0.002678,0.000431,0.131749
19590000,0.0324,0.013523,0.002678,0.000431,0.196977
19591000,0.0324,0.013523,0.002678,0.000431,0.043485
19592000,0.0324,0.013523,0.002678,0.000431,0.159603
19593000,0.0324,0.013523,0.002678,0.000431,0.090144
19594000,0.0324,0.013523,0.002678,0.000431,0.080037
19595000,0.0324,0.013523,0.002678,0.000431,0.208495
19596000,0.0324,0.013523,0.002678,0.000431,0.132219
19597000,0.0324,0.013523,0.002678,0.000431,0.084738
19598000,0.0324,0.013523,0.002678,0.000431,0.175587
19599000,0.0324,0.013523,0.002678,0.000431,0.062525
19600000,0.0324,0.013523,0.002678,0.000431,0.110712
19601000,0.0324,0.013523,0.002678,0.000431,0.059704
19602000,0.0324,0.013523,0.002678,0.000431,0.165245
19603000,0.0324,0.013523,0.002678,0.000431,0.039019
19604000,0.0324,0.013523,0.002678,0.000431,0.063465
19605000,0.0324,0.013523,0.002678,0.000431,0.138566
19606000,0.0324,0.013523,0.002678,0.000431,0.274311
19607000,0.0324,0.013523,0.002678,0.000431,0.139506
19608000,0.0324,0.013523,0.002678,0.000431,0.282773
19609000,0.0324,0.013523,0.002678,0.000431,0.163129
19610000,0.0324,0.013523,0.002678,0.000431,0.042310
19611000,0.0324,0.013523,0.002678,0.000431,0.102955
19612000,0.0324,0.013523,0.002678,0.000431,0.046776
19613000,0.0324,0.013523,0.002678,0.000431,0.321087
19614000,0.0324,0.013523,0.002678,0.000431,0.164539
19615000,0.0324,0.013523,0.002678,0.000431,0.115178
19616000,0.0324,0.013523,0.002678,0.000431,0.072867
19617000,0.0324,0.013523,0.002678,0.000431,0.153257
19618000,0.0324,0.013523,0.002678,0.000431,0.084268
19619000,0.0324,0.013523,0.002678,0.000431,0.076511
19620000,0.0324,0.013523,0.002678,0.000431,0.114472
19621000,0.0324,0.013523,0.002678,0.000431,0.190396
19622000,0.0324,0.013523,0.002678,0.000431,0.326376
19623000,0.0324,0.013523,0.002678,0.000431,0.100957
19624000,0.0324,0.013523,0.002678,0.000431,0.121172
19625000,0.0324,0.013523,0.002678,0.000431,0.131514
19626000,0.0324,0.013523,0.002678,0.000431,0.089792
19627000,0.0324,0.013523,0.002678,0.000431,0.222481
19628000,0.0324,0.013523,0.002678,0.000431,0.120936
19629000,0.0324,0.013523,0.002678,0.000431,0.092612
19630000,0.0324,0.013523,0.002678,0.000431,0.070047
19631000,0.0324,0.013523,0.002678,0.000431,0.075336
19632000,0.0324,0.013523,0.002678,0.000431,0.143972
19633000,0.0324,0.013523,0.002678,0.000431,0.214371
19634000,0.0324,0.013523,0.002678,0.000431,0.169593
19635000,0.0324,0.013523,0.002678,0.000431,0.191218
19636000,0.0324,0.013523,0.002678,0.000431,0.125403
19637000,0.0324,0.013523,0.002678,0.000431,0.087794
19638000,0.0324,0.013523,0.002678,0.000431,0.118586
19639000,0.0324,0.013523,0.002678,0.000431,0.139976
19640000,0.0324,0.013523,0.002678,0.000431,0.080389
19641000,0.0324,0.013523,0.002678,0.000431,0.237642
19642000,0.0324,0.013523,0.002678,0.000431,0.112122
19643000,0.0324,0.013523,0.002678,0.000431,0.065346
19644000,0.0324,0.013523,0.002678,0.000431,0.153257
19645000,0.0324,0.013523,0.002678,0.000431,0.174177
19646000,0.0324,0.013523,0.002678,0.000431,0.324378
19647000,0.0324,0.013523,0.002678,0.000431,0.202031
19648000,0.0324,0.013523,0.002678,0.000431,0.104012
19649000,0.0324,0.013523,0.002678,0.000431,0.244811
19650000,0.0324,0.013523,0.002678,0.000431,0.125520
19651000,0.0324,0.013523,0.002678,0.000431,0.081212
19652000,0.0324,0.013523,0.002678,0.000431,0.141621
19653000,0.0324,0.013523,0.002678,0.000431,0.158193
19654000,0.0324,0.013523,0.002678,0.000431,0.107068
19655000,0.0324,0.013523,0.002678,0.000431,0.084620
19656000,0.0324,0.013523,0.002678,0.000431,0.140329
19657000,0.0324,0.013523,0.002678,0.000431,0.049949
19658000,0.0324,0.013523,0.002678,0.000431,0.087794
19659000,0.0324,0.013523,0.002678,0.000431,0.275956
19660000,0.0324,0.013523,0.002678,0.000431,0.220483
19661000,0.0324,0.013523,0.002678,0.000431,0.144560
19662000,0.0324,0.013523,0.002678,0.000431,0.122934
19663000,0.0324,0.013523,0.002678,0.000431,0.169241
19664000,0.0324,0.013523,0.002678,0.000431,0.056414
19665000,0.0324,0.013523,0.002678,0.000431,0.176410
19666000,0.0324,0.013523,0.002678,0.000431,0.193451
19667000,0.0324,0.013523,0.002678,0.000431,0.231295
19668000,0.0324,0.013523,0.002678,0.000431,0.112474
19669000,0.0324,0.013523,0.002678,0.000431,0.159368
19670000,0.0324,0.013523,0.002678,0.000431,0.088969
19671000,0.0324,0.013523,0.002678,0.000431,0.062760
19672000,0.0324,0.013523,0.002678,0.000431,0.149261
19673000,0.0324,0.013523,0.002678,0.000431,0.198505
19674000,0.0324,0.013523,0.002678,0.000431,0.053593
19675000,0.0324,0.013523,0.002678,0.000431,0.042780
19676000,0.0324,0.013523,0.002678,0.000431,0.072867
19677000,0.0324,0.013523,0.002678,0.000431,0.087911
19678000,0.0324,0.013523,0.002678,0.000431,0.290765
19679000,0.0324,0.013523,0.002678,0.000431,0.245869
19680000,0.0324,0.013523,0.002678,0.000431,0.167008
19681000,0.0324,0.013523,0.002678,0.000431,0.092260
19682000,0.0324,0.013523,0.002678,0.000431,0.035258
19683000,0.0324,0.013523,0.002678,0.000431,0.132807
19684000,0.0324,0.013523,0.002678,0.000431,0.095198
19685000,0.0324,0.013523,0.002678,0.000431,0.154079
19686000,0.0324,0.013523,0.002678,0.000431,0.287944
19687000,0.0324,0.013523,0.002678,0.000431,0.129516
19688000,0.0324,0.013523,0.002678,0.000431,0.035141
19689000,0.0324,0.013523,0.002678,0.000431,0.110241
19690000,0.0324,0.013523,0.002678,0.000431,0.060174
19691000,0.0324,0.013523,0.002678,0.000431,0.112122
19692000,0.0324,0.013523,0.002678,0.000431,0.211551
19693000,0.0324,0.013523,0.002678,0.000431,0.215664
19694000,0.0324,0.013523,0.002678,0.000431,0.092377
19695000,0.0324,0.013523,0.002678,0.000431,0.143737
19696000,0.0324,0.013523,0.002678,0.000431,0.139976
19697000,0.0324,0.013523,0.002678,0.000431,0.125873
19698000,0.0324,0.013523,0.002678,0.000431,0.050302
19699000,0.0324,0.013523,0.002678,0.000431,0.102250
19700000,0.0324,0.013523,0.002678,0.000431,0.072750
19701000,0.0324,0.013523,0.002678,0.000431,0.080037
19702000,0.0324,0.013523,0.002678,0.000431,0.110476
19703000,0.0324,0.013523,0.002678,0.000431,0.072632
19704000,0.0324,0.013523,0.002678,0.000431,0.264438
19705000,0.0324,0.013523,0.002678,0.000431,0.149261
19706000,0.0324,0.013523,0.002678,0.000431,0.175235
19707000,0.0324,0.013523,0.002678,0.000431,0.078861
19708000,0.0324,0.013523,0.002678,0.000431,0.065463
19709000,0.0324,0.013523,0.002678,0.000431,0.177820
19710000,0.0324,0.013523,0.002678,0.000431,0.143502
19711000,0.0324,0.013523,0.002678,0.000431,0.172531
19712000,0.0324,0.013523,0.002678,0.000431,0.192041
19713000,0.0324,0.013523,0.002678,0.000431,0.054180
19714000,0.0324,0.013523,0.002678,0.000431,0.045131
19715000,0.0324,0.013523,0.002678,0.000431,0.229533
19716000,0.0324,0.013523,0.002678,0.000431,0.185930
19717000,0.0324,0.013523,0.002678,0.000431,0.084033
19718000,0.0324,0.013523,0.002678,0.000431,0.210846
19719000,0.0324,0.013523,0.002678,0.000431,0.230473
19720000,0.0324,0.013523,0.002678,0.000431,0.072750
19721000,0.0324,0.013523,0.002678,0.000431,0.114237
19722000,0.0324,0.013523,0.002678,0.000431,0.152081
19723000,0.0324,0.013523,0.002678,0.000431,0.141151
19724000,0.0324,0.013523,0.002678,0.000431,0.205204
19725000,0.0324,0.013523,0.002678,0.000431,0.254801
19726000,0.0324,0.013523,0.002678,0.000431,0.149143
19727000,0.0324,0.013523,0.002678,0.000431,0.071222
19728000,0.0324,0.013523,0.002678,0.000431,0.145617
19729000,0.0324,0.013523,0.002678,0.000431,0.122347
19730000,0.0324,0.013523,0.002678,0.000431,0.102837
19731000,0.0324,0.013523,0.002678,0.000431,0.185695
19732000,0.0324,0.013523,0.002678,0.000431,0.153139
19733000,0.0324,0.013523,0.002678,0.000431,0.038079
19734000,0.0324,0.013523,0.002678,0.000431,0.107303
19735000,0.0324,0.013523,0.002678,0.000431,0.135863
19736000,0.0324,0.013523,0.002678,0.000431,0.162894
19737000,0.0324,0.013523,0.002678,0.000431,0.172061
19738000,0.0324,0.013523,0.002678,0.000431,0.211081
19739000,0.0324,0.013523,0.002678,0.000431,0.128576
19740000,0.0324,0.013523,0.002678,0.000431,0.085325
19741000,0.0324,0.013523,0.002678,0.000431,0.089909
19742000,0.0324,0.013523,0.002678,0.000431,0.133042
19743000,0.0324,0.013523,0.002678,0.000431,0.114237
19744000,0.0324,0.013523,0.002678,0.000431,0.121524
19745000,0.0324,0.013523,0.002678,0.000431,0.106363
19746000,0.0324,0.013523,0.002678,0.000431,0.099429
19747000,0.0324,0.013523,0.002678,0.000431,0.038902
19748000,0.0324,0.013523,0.002678,0.000431,0.061467
19749000,0.0324,0.013523,0.002678,0.000431,0.237642
19750000,0.0324,0.013523,0.002678,0.000431,0.181111
19751000,0.0324,0.013523,0.002678,0.000431,0.124932
19752000,0.0324,0.013523,0.002678,0.000431,0.106716
19753000,0.0324,0.013523,0.002678,0.000431,0.097901
19754000,0.0324,0.013523,0.002678,0.000431,0.102367
19755000,0.0324,0.013523,0.002678,0.000431,0.110241
19756000,0.0324,0.013523,0.002678,0.000431,0.187693
19757000,0.0324,0.013523,0.002678,0.000431,0.101544
19758000,0.0324,0.013523,0.002678,0.000431,0.137155
19759000,0.0324,0.013523,0.002678,0.000431,0.166537
19760000,0.0324,0.013523,0.002678,0.000431,0.129163
19761000,0.0324,0.013523,0.002678,0.000431,0.125873
19762000,0.0324,0.013523,0.002678,0.000431,0.248220
19763000,0.0324,0.013523,0.002678,0.000431,0.096373
19764000,0.0324,0.013523,0.002678,0.000431,0.090027
19765000,0.0324,0.013523,0.002678,0.000431,0.079214
19766000,0.0324,0.013523,0.002678,0.000431,0.131984
19767000,0.0324,0.013523,0.002678,0.000431,0.109419
19768000,0.0324,0.013523,0.002678,0.000431,0.211786
19769000,0.0324,0.013523,0.002678,0.000431,0.170651
19770000,0.0324,0.013523,0.002678,0.000431,0.054651
19771000,0.0324,0.013523,0.002678,0.000431,0.098606
19772000,0.0324,0.013523,0.002678,0.000431,0.174882
19773000,0.0324,0.013523,0.002678,0.000431,0.185812
19774000,0.0324,0.013523,0.002678,0.000431,0.085090
19775000,0.0324,0.013523,0.002678,0.000431,0.188398
19776000,0.0324,0.013523,0.002678,0.000431,0.072397
19777000,0.0324,0.013523,0.002678,0.000431,0.076393
19778000,0.0324,0.013523,0.002678,0.000431,0.195684
19779000,0.0324,0.013523,0.002678,0.000431,0.173707
19780000,0.0324,0.013523,0.002678,0.000431,0.259502
19781000,0.0324,0.013523,0.002678,0.000431,0.179348
19782000,0.0324,0.013523,0.002678,0.000431,0.074043
19783000,0.0324,0.013523,0.002678,0.000431,0.150319
19784000,0.0324,0.013523,0.002678,0.000431,0.193451
19785000,0.0324,0.013523,0.002678,0.000431,0.125873
19786000,0.0324,0.013523,0.002678,0.000431,0.152081
19787000,0.0324,0.013523,0.002678,0.000431,0.148086
19788000,0.0324,0.013523,0.002678,0.000431,0.336483
19789000,0.0324,0.013523,0.002678,0.000431,0.093200
19790000,0.0324,0.013523,0.002678,0.000431,0.118116
19791000,0.0324,0.013523,0.002678,0.000431,0.057589
19792000,0.0324,0.013523,0.002678,0.000431,0.086736
19793000,0.0324,0.013523,0.002678,0.000431,0.133865
19794000,0.0324,0.013523,0.002678,0.000431,0.266319
19795000,0.0324,0.013523,0.002678,0.000431,0.112474
19796000,0.0324,0.013523,0.002678,0.000431,0.035258
19797000,0.0324,0.013523,0.002678,0.000431,0.101544
19798000,0.0324,0.013523,0.002678,0.000431,0.130691
19799000,0.0324,0.013523,0.002678,0.000431,0.102837
19800000,0.0324,0.013523,0.002678,0.000431,0.153727
19801000,0.0324,0.013523,0.002678,0.000431,0.343535
19802000,0.0324,0.013523,0.002678,0.000431,0.136450
19803000,0.0324,0.013523,0.002678,0.000431,0.188163
19804000,0.0324,0.013523,0.002678,0.000431,0.150906
19805000,0.0324,0.013523,0.002678,0.000431,0.195449
19806000,0.0324,0.013523,0.002678,0.000431,0.074865
19807000,0.0324,0.013523,0.002678,0.000431,0.208260
19808000,0.0324,0.013523,0.002678,0.000431,0.110241
19809000,0.0324,0.013523,0.002678,0.000431,0.130104
19810000,0.0324,0.013523,0.002678,0.000431,0.097901
19811000,0.0324,0.013523,0.002678,0.000431,0.080624
19812000,0.0324,0.013523,0.002678,0.000431,0.072867
19813000,0.0324,0.013523,0.002678,0.000431,0.081917
19814000,0.0324,0.013523,0.002678,0.000431,0.191806
19815000,0.0324,0.013523,0.002678,0.000431,0.147850
19816000,0.0324,0.013523,0.002678,0.000431,0.180523
19817000,0.0324,0.013523,0.002678,0.000431,0.115178
19818000,0.0324,0.013523,0.002678,0.000431,0.084150
19819000,0.0324,0.013523,0.002678,0.000431,0.149496
19820000,0.0324,0.013523,0.002678,0.000431,0.245516
19821000,0.0324,0.013523,0.002678,0.000431,0.090732
19822000,0.0324,0.013523,0.002678,0.000431,0.050185
19823000,0.0324,0.013523,0.002678,0.000431,0.087676
19824000,0.0324,0.013523,0.002678,0.000431,0.050420
19825000,0.0324,0.013523,0.002678,0.000431,0.141034
19826000,0.0324,0.013523,0.002678,0.000431,0.151846
19827000,0.0324,0.013523,0.002678,0.000431,0.144912
19828000,0.0324,0.013523,0.002678,0.000431,0.140681
19829000,0.0324,0.013523,0.002678,0.000431,0.161366
19830000,0.0324,0.013523,0.002678,0.000431,0.086031
19831000,0.0324,0.013523,0.002678,0.000431,0.140799
19832000,0.0324,0.013523,0.002678,0.000431,0.135040
19833000,0.0324,0.013523,0.002678,0.000431,0.157018
19834000,0.0324,0.013523,0.002678,0.000431,0.188163
19835000,0.0324,0.013523,0.002678,0.000431,0.113062
19836000,0.0324,0.013523,0.002678,0.000431,0.172531
19837000,0.0324,0.013523,0.002678,0.000431,0.170063
19838000,0.0324,0.013523,0.002678,0.000431,0.103425
19839000,0.0324,0.013523,0.002678,0.000431,0.095433
19840000,0.0324,0.013523,0.002678,0.000431,0.136920
19841000,0.0324,0.013523,0.002678,0.000431,0.221188
19842000,0.0324,0.013523,0.002678,0.000431,0.163952
19843000,0.0324,0.013523,0.002678,0.000431,0.187222
19844000,0.0324,0.013523,0.002678,0.000431,0.128458
19845000,0.0324,0.013523,0.002678,0.000431,0.100839
19846000,0.0324,0.013523,0.002678,0.000431,0.104718
19847000,0.0324,0.013523,0.002678,0.000431,0.214959
19848000,0.0324,0.013523,0.002678,0.000431,0.236467
19849000,0.0324,0.013523,0.002678,0.000431,0.109301
19850000,0.0324,0.013523,0.002678,0.000431,0.091907
19851000,0.0324,0.013523,0.002678,0.000431,0.089674
19852000,0.0324,0.013523,0.002678,0.000431,0.198858
19853000,0.0324,0.013523,0.002678,0.000431,0.108596
19854000,0.0324,0.013523,0.002678,0.000431,0.119761
19855000,0.0324,0.013523,0.002678,0.000431,0.042428
19856000,0.0324,0.013523,0.002678,0.000431,0.080507
19857000,0.0324,0.013523,0.002678,0.000431,0.102837
19858000,0.0324,0.013523,0.002678,0.000431,0.102132
19859000,0.0324,0.013523,0.002678,0.000431,0.125990
19860000,0.0324,0.013523,0.002678,0.000431,0.304751
19861000,0.0324,0.013523,0.002678,0.000431,0.134335
19862000,0.0324,0.013523,0.002678,0.000431,0.117881
19863000,0.0324,0.013523,0.002678,0.000431,0.087676
19864000,0.0324,0.013523,0.002678,0.000431,0.076746
19865000,0.0324,0.013523,0.002678,0.000431,0.228475
19866000,0.0324,0.013523,0.002678,0.000431,0.171356
19867000,0.0324,0.013523,0.002678,0.000431,0.230120
19868000,0.0324,0.013523,0.002678,0.000431,0.205792
19869000,0.0324,0.013523,0.002678,0.000431,0.194744
19870000,0.0324,0.013523,0.002678,0.000431,0.155372
19871000,0.0324,0.013523,0.002678,0.000431,0.130926
19872000,0.0324,0.013523,0.002678,0.000431,0.137861
19873000,0.0324,0.013523,0.002678,0.000431,0.141386
19874000,0.0324,0.013523,0.002678,0.000431,0.084150
19875000,0.0324,0.013523,0.002678,0.000431,0.072867
19876000,0.0324,0.013523,0.002678,0.000431,0.160661
19877000,0.0324,0.013523,0.002678,0.000431,0.212491
19878000,0.0324,0.013523,0.002678,0.000431,0.123757
19879000,0.0324,0.013523,0.002678,0.000431,0.170768
19880000,0.0324,0.013523,0.002678,0.000431,0.080389
19881000,0.0324,0.013523,0.002678,0.000431,0.105775
19882000,0.0324,0.013523,0.002678,0.000431,0.205087
19883000,0.0324,0.013523,0.002678,0.000431,0.184284
19884000,0.0324,0.013523,0.002678,0.000431,0.058999
19885000,0.0324,0.013523,0.002678,0.000431,0.218015
19886000,0.0324,0.013523,0.002678,0.000431,0.245399
19887000,0.0324,0.013523,0.002678,0.000431,0.341419
19888000,0.0324,0.013523,0.002678,0.000431,0.160661
19889000,0.0324,0.013523,0.002678,0.000431,0.117528
19890000,0.0324,0.013523,0.002678,0.000431,0.275604
19891000,0.0324,0.013523,0.002678,0.000431,0.105775
19892000,0.0324,0.013523,0.002678,0.000431,0.177468
19893000,0.0324,0.013523,0.002678,0.000431,0.099194
19894000,0.0324,0.013523,0.002678,0.000431,0.076276
19895000,0.0324,0.013523,0.002678,0.000431,0.095785
19896000,0.0324,0.013523,0.002678,0.000431,0.193099
19897000,0.0324,0.013523,0.002678,0.000431,0.110241
19898000,0.0324,0.013523,0.002678,0.000431,0.125168
19899000,0.0324,0.013523,0.002678,0.000431,0.114943
19900000,0.0324,0.013523,0.002678,0.000431,0.121994
19901000,0.0324,0.013523,0.002678,0.000431,0.087794
19902000,0.0324,0.013523,0.002678,0.000431,0.117646
19903000,0.0324,0.013523,0.002678,0.000431,0.137038
19904000,0.0324,0.013523,0.002678,0.000431,0.072867
19905000,0.0324,0.013523,0.002678,0.000431,0.348236
19906000,0.0324,0.013523,0.002678,0.000431,0.076158
19907000,0.0324,0.013523,0.002678,0.000431,0.077451
19908000,0.0324,0.013523,0.002678,0.000431,0.115765
19909000,0.0324,0.013523,0.002678,0.000431,0.324025
19910000,0.0324,0.013523,0.002678,0.000431,0.087911
19911000,0.0324,0.013523,0.002678,0.000431,0.163012
19912000,0.0324,0.013523,0.002678,0.000431,0.086736
19913000,0.0324,0.013523,0.002678,0.000431,0.201796
19914000,0.0324,0.013523,0.002678,0.000431,0.050302
19915000,0.0324,0.013523,0.002678,0.000431,0.154432
19916000,0.0324,0.013523,0.002678,0.000431,0.171826
19917000,0.0324,0.013523,0.002678,0.000431,0.101662
19918000,0.0324,0.013523,0.002678,0.000431,0.349529
19919000,0.0324,0.013523,0.002678,0.000431,0.219660
19920000,0.0324,0.013523,0.002678,0.000431,0.229650
19921000,0.0324,0.013523,0.002678,0.000431,0.065228
19922000,0.0324,0.013523,0.002678,0.000431,0.150083
19923000,0.0324,0.013523,0.002678,0.000431,0.068989
19924000,0.0324,0.013523,0.002678,0.000431,0.270550
19925000,0.0324,0.013523,0.002678,0.000431,0.150906
19926000,0.0324,0.013523,0.002678,0.000431,0.242578
19927000,0.0324,0.013523,0.002678,0.000431,0.119409
19928000,0.0324,0.013523,0.002678,0.000431,0.071222
19929000,0.0324,0.013523,0.002678,0.000431,0.118116
19930000,0.0324,0.013523,0.002678,0.000431,0.084503
19931000,0.0324,0.013523,0.002678,0.000431,0.120584
19932000,0.0324,0.013523,0.002678,0.000431,0.132689
19933000,0.0324,0.013523,0.002678,0.000431,0.083680
19934000,0.0324,0.013523,0.002678,0.000431,0.079449
19935000,0.0324,0.013523,0.002678,0.000431,0.291940
19936000,0.0324,0.013523,0.002678,0.000431,0.212726
19937000,0.0324,0.013523,0.002678,0.000431,0.142444
19938000,0.0324,0.013523,0.002678,0.000431,0.190631
19939000,0.0324,0.013523,0.002678,0.000431,0.125755
19940000,0.0324,0.013523,0.002678,0.000431,0.065346
19941000,0.0324,0.013523,0.002678,0.000431,0.169476
19942000,0.0324,0.013523,0.002678,0.000431,0.154197
19943000,0.0324,0.013523,0.002678,0.000431,0.135510
19944000,0.0324,0.013523,0.002678,0.000431,0.186870
19945000,0.0324,0.013523,0.002678,0.000431,0.375385
19946000,0.0324,0.013523,0.002678,0.000431,0.233411
19947000,0.0324,0.013523,0.002678,0.000431,0.100722
19948000,0.0324,0.013523,0.002678,0.000431,0.171944
19949000,0.0324,0.013523,0.002678,0.000431,0.167948
19950000,0.0324,0.013523,0.002678,0.000431,0.094375
19951000,0.0324,0.013523,0.002678,0.000431,0.124815
19952000,0.0324,0.013523,0.002678,0.000431,0.119879
19953000,0.0324,0.013523,0.002678,0.000431,0.057471
19954000,0.0324,0.013523,0.002678,0.000431,0.273135
19955000,0.0324,0.013523,0.002678,0.000431,0.092377
19956000,0.0324,0.013523,0.002678,0.000431,0.141974
19957000,0.0324,0.013523,0.002678,0.000431,0.201443
19958000,0.0324,0.013523,0.002678,0.000431,0.132102
19959000,0.0324,0.013523,0.002678,0.000431,0.266201
19960000,0.0324,0.013523,0.002678,0.000431,0.080272
19961000,0.0324,0.013523,0.002678,0.000431,0.122817
19962000,0.0324,0.013523,0.002678,0.000431,0.180993
19963000,0.0324,0.013523,0.002678,0.000431,0.140094
19964000,0.0324,0.013523,0.002678,0.000431,0.080507
19965000,0.0324,0.013523,0.002678,0.000431,0.043015
19966000,0.0324,0.013523,0.002678,0.000431,0.110476
19967000,0.0324,0.013523,0.002678,0.000431,0.109771
19968000,0.0324,0.013523,0.002678,0.000431,0.173119
19969000,0.0324,0.013523,0.002678,0.000431,0.144912
19970000,0.0324,0.013523,0.002678,0.000431,0.129399
19971000,0.0324,0.013523,0.002678,0.000431,0.110829
19972000,0.0324,0.013523,0.002678,0.000431,0.128458
19973000,0.0324,0.013523,0.002678,0.000431,0.106128
19974000,0.0324,0.013523,0.002678,0.000431,0.180876
19975000,0.0324,0.013523,0.002678,0.000431,0.352349
19976000,0.0324,0.013523,0.002678,0.000431,0.139976
19977000,0.0324,0.013523,0.002678,0.000431,0.058059
19978000,0.0324,0.013523,0.002678,0.000431,0.074043
19979000,0.0324,0.013523,0.002678,0.000431,0.131632
19980000,0.0324,0.013523,0.002678,0.000431,0.216252
19981000,0.0324,0.013523,0.002678,0.000431,0.181816
19982000,0.0324,0.013523,0.002678,0.000431,0.237642
19983000,0.0324,0.013523,0.002678,0.000431,0.053593
19984000,0.0324,0.013523,0.002678,0.000431,0.095903
19985000,0.0324,0.013523,0.002678,0.000431,0.110241
19986000,0.0324,0.013523,0.002678,0.000431,0.316033
19987000,0.0324,0.013523,0.002678,0.000431,0.294996
19988000,0.0324,0.013523,0.002678,0.000431,0.178878
19989000,0.0324,0.013523,0.002678,0.000431,0.216957
19990000,0.0324,0.013523,0.002678,0.000431,0.042428
19991000,0.0324,0.013523,0.002678,0.000431,0.136333
19992000,0.0324,0.013523,0.002678,0.000431,0.167478
19993000,0.0324,0.013523,0.002678,0.000431,0.217310
19994000,0.0324,0.013523,0.002678,0.000431,0.146323
19995000,0.0324,0.013523,0.002678,0.000431,0.149026
19996000,0.0324,0.013523,0.002678,0.000431,0.060762
19997000,0.0324,0.013523,0.002678,0.000431,0.130574
19998000,0.0324,0.013523,0.002678,0.000431,0.067696
19999000,0.0324,0.013523,0.002678,0.000431,0.218485
