Cycle,Area(mm^2),PeakDynamic(W),SubthresholdLeakage(W),GateLeakage(W),RunTimeDynamic(W)
27000000,0.0324,0.013523,0.002678,0.000431,0.041840
27001000,0.0324,0.013523,0.002678,0.000431,0.023271
27002000,0.0324,0.013523,0.002678,0.000431,0.004701
27003000,0.0324,0.013523,0.002678,0.000431,0.129281
27004000,0.0324,0.013523,0.002678,0.000431,0.060645
27005000,0.0324,0.013523,0.002678,0.000431,0.004701
27006000,0.0324,0.013523,0.002678,0.000431,0.019510
27007000,0.0324,0.013523,0.002678,0.000431,0.042310
27008000,0.0324,0.013523,0.002678,0.000431,0.004701
27009000,0.0324,0.013523,0.002678,0.000431,0.004466
27010000,0.0324,0.013523,0.002678,0.000431,0.027267
27011000,0.0324,0.013523,0.002678,0.000431,0.004701
27012000,0.0324,0.013523,0.002678,0.000431,0.023506
27013000,0.0324,0.013523,0.002678,0.000431,0.015984
27014000,0.0324,0.013523,0.002678,0.000431,0.010813
27015000,0.0324,0.013523,0.002678,0.000431,0.008462
27016000,0.0324,0.013523,0.002678,0.000431,0.004701
27017000,0.0324,0.013523,0.002678,0.000431,0.004701
27018000,0.0324,0.013523,0.002678,0.000431,0.004584
27019000,0.0324,0.013523,0.002678,0.000431,0.004584
27020000,0.0324,0.013523,0.002678,0.000431,0.027267
27021000,0.0324,0.013523,0.002678,0.000431,0.042310
27022000,0.0324,0.013523,0.002678,0.000431,0.034788
27023000,0.0324,0.013523,0.002678,0.000431,0.004701
27024000,0.0324,0.013523,0.002678,0.000431,0.004701
27025000,0.0324,0.013523,0.002678,0.000431,0.042545
27026000,0.0324,0.013523,0.002678,0.000431,0.009167
27027000,0.0324,0.013523,0.002678,0.000431,0.015279
27028000,0.0324,0.013523,0.002678,0.000431,0.034788
27029000,0.0324,0.013523,0.002678,0.000431,0.042310
27030000,0.0324,0.013523,0.002678,0.000431,0.004701
27031000,0.0324,0.013523,0.002678,0.000431,0.011165
27032000,0.0324,0.013523,0.002678,0.000431,0.013986
27033000,0.0324,0.013523,0.002678,0.000431,0.026561
27034000,0.0324,0.013523,0.002678,0.000431,0.004701
27035000,0.0324,0.013523,0.002678,0.000431,0.027267
27036000,0.0324,0.013523,0.002678,0.000431,0.004701
27037000,0.0324,0.013523,0.002678,0.000431,0.004701
27038000,0.0324,0.013523,0.002678,0.000431,0.056414
27039000,0.0324,0.013523,0.002678,0.000431,0.028442
27040000,0.0324,0.013523,0.002678,0.000431,0.042310
27041000,0.0324,0.013523,0.002678,0.000431,0.014221
27042000,0.0324,0.013523,0.002678,0.000431,0.070164
27043000,0.0324,0.013523,0.002678,0.000431,0.004701
27044000,0.0324,0.013523,0.002678,0.000431,0.004701
27045000,0.0324,0.013523,0.002678,0.000431,0.031027
27046000,0.0324,0.013523,0.002678,0.000431,0.008345
27047000,0.0324,0.013523,0.002678,0.000431,0.012105
27048000,0.0324,0.013523,0.002678,0.000431,0.064641
27049000,0.0324,0.013523,0.002678,0.000431,0.004466
27050000,0.0324,0.013523,0.002678,0.000431,0.004701
27051000,0.0324,0.013523,0.002678,0.000431,0.004701
27052000,0.0324,0.013523,0.002678,0.000431,0.042310
27053000,0.0324,0.013523,0.002678,0.000431,0.004701
27054000,0.0324,0.013523,0.002678,0.000431,0.004701
27055000,0.0324,0.013523,0.002678,0.000431,0.012223
27056000,0.0324,0.013523,0.002678,0.000431,0.004701
27057000,0.0324,0.013523,0.002678,0.000431,0.004701
27058000,0.0324,0.013523,0.002678,0.000431,0.004701
27059000,0.0324,0.013523,0.002678,0.000431,0.015984
27060000,0.0324,0.013523,0.002678,0.000431,0.015984
27061000,0.0324,0.013523,0.002678,0.000431,0.049832
27062000,0.0324,0.013523,0.002678,0.000431,0.004701
27063000,0.0324,0.013523,0.002678,0.000431,0.004701
27064000,0.0324,0.013523,0.002678,0.000431,0.019745
27065000,0.0324,0.013523,0.002678,0.000431,0.132102
27066000,0.0324,0.013523,0.002678,0.000431,0.125285
27067000,0.0324,0.013523,0.002678,0.000431,0.046894
27068000,0.0324,0.013523,0.002678,0.000431,0.082505
27069000,0.0324,0.013523,0.002678,0.000431,0.004584
27070000,0.0324,0.013523,0.002678,0.000431,0.012223
27071000,0.0324,0.013523,0.002678,0.000431,0.015514
27072000,0.0324,0.013523,0.002678,0.000431,0.023976
27073000,0.0324,0.013523,0.002678,0.000431,0.004701
27074000,0.0324,0.013523,0.002678,0.000431,0.004701
27075000,0.0324,0.013523,0.002678,0.000431,0.004701
27076000,0.0324,0.013523,0.002678,0.000431,0.004701
27077000,0.0324,0.013523,0.002678,0.000431,0.004701
27078000,0.0324,0.013523,0.002678,0.000431,0.004701
27079000,0.0324,0.013523,0.002678,0.000431,0.019745
27080000,0.0324,0.013523,0.002678,0.000431,0.038197
27081000,0.0324,0.013523,0.002678,0.000431,0.038902
27082000,0.0324,0.013523,0.002678,0.000431,0.004701
27083000,0.0324,0.013523,0.002678,0.000431,0.004701
27084000,0.0324,0.013523,0.002678,0.000431,0.027267
27085000,0.0324,0.013523,0.002678,0.000431,0.023506
27086000,0.0324,0.013523,0.002678,0.000431,0.008462
27087000,0.0324,0.013523,0.002678,0.000431,0.019745
27088000,0.0324,0.013523,0.002678,0.000431,0.004701
27089000,0.0324,0.013523,0.002678,0.000431,0.020332
27090000,0.0324,0.013523,0.002678,0.000431,0.026444
27091000,0.0324,0.013523,0.002678,0.000431,0.004466
27092000,0.0324,0.013523,0.002678,0.000431,0.004701
27093000,0.0324,0.013523,0.002678,0.000431,0.004701
27094000,0.0324,0.013523,0.002678,0.000431,0.004701
27095000,0.0324,0.013523,0.002678,0.000431,0.004701
27096000,0.0324,0.013523,0.002678,0.000431,0.042075
27097000,0.0324,0.013523,0.002678,0.000431,0.004701
27098000,0.0324,0.013523,0.002678,0.000431,0.004701
27099000,0.0324,0.013523,0.002678,0.000431,0.004701
27100000,0.0324,0.013523,0.002678,0.000431,0.034788
27101000,0.0324,0.013523,0.002678,0.000431,0.004701
27102000,0.0324,0.013523,0.002678,0.000431,0.035494
27103000,0.0324,0.013523,0.002678,0.000431,0.034083
27104000,0.0324,0.013523,0.002678,0.000431,0.037021
27105000,0.0324,0.013523,0.002678,0.000431,0.032555
27106000,0.0324,0.013523,0.002678,0.000431,0.031027
27107000,0.0324,0.013523,0.002678,0.000431,0.008462
27108000,0.0324,0.013523,0.002678,0.000431,0.004701
27109000,0.0324,0.013523,0.002678,0.000431,0.004466
27110000,0.0324,0.013523,0.002678,0.000431,0.034788
27111000,0.0324,0.013523,0.002678,0.000431,0.004701
27112000,0.0324,0.013523,0.002678,0.000431,0.004701
27113000,0.0324,0.013523,0.002678,0.000431,0.004701
27114000,0.0324,0.013523,0.002678,0.000431,0.004701
27115000,0.0324,0.013523,0.002678,0.000431,0.054416
27116000,0.0324,0.013523,0.002678,0.000431,0.015866
27117000,0.0324,0.013523,0.002678,0.000431,0.045601
27118000,0.0324,0.013523,0.002678,0.000431,0.008462
27119000,0.0324,0.013523,0.002678,0.000431,0.004701
27120000,0.0324,0.013523,0.002678,0.000431,0.059234
27121000,0.0324,0.013523,0.002678,0.000431,0.010578
27122000,0.0324,0.013523,0.002678,0.000431,0.027267
27123000,0.0324,0.013523,0.002678,0.000431,0.047011
27124000,0.0324,0.013523,0.002678,0.000431,0.015279
27125000,0.0324,0.013523,0.002678,0.000431,0.017512
27126000,0.0324,0.013523,0.002678,0.000431,0.007169
27127000,0.0324,0.013523,0.002678,0.000431,0.004701
27128000,0.0324,0.013523,0.002678,0.000431,0.004701
27129000,0.0324,0.013523,0.002678,0.000431,0.029029
27130000,0.0324,0.013523,0.002678,0.000431,0.040077
27131000,0.0324,0.013523,0.002678,0.000431,0.004701
27132000,0.0324,0.013523,0.002678,0.000431,0.034788
27133000,0.0324,0.013523,0.002678,0.000431,0.004701
27134000,0.0324,0.013523,0.002678,0.000431,0.023506
27135000,0.0324,0.013523,0.002678,0.000431,0.023506
27136000,0.0324,0.013523,0.002678,0.000431,0.027031
27137000,0.0324,0.013523,0.002678,0.000431,0.034788
27138000,0.0324,0.013523,0.002678,0.000431,0.041958
27139000,0.0324,0.013523,0.002678,0.000431,0.005054
27140000,0.0324,0.013523,0.002678,0.000431,0.004701
27141000,0.0324,0.013523,0.002678,0.000431,0.004701
27142000,0.0324,0.013523,0.002678,0.000431,0.019745
27143000,0.0324,0.013523,0.002678,0.000431,0.073455
27144000,0.0324,0.013523,0.002678,0.000431,0.085913
27145000,0.0324,0.013523,0.002678,0.000431,0.034788
27146000,0.0324,0.013523,0.002678,0.000431,0.004701
27147000,0.0324,0.013523,0.002678,0.000431,0.004701
27148000,0.0324,0.013523,0.002678,0.000431,0.004701
27149000,0.0324,0.013523,0.002678,0.000431,0.027267
27150000,0.0324,0.013523,0.002678,0.000431,0.012223
27151000,0.0324,0.013523,0.002678,0.000431,0.019745
27152000,0.0324,0.013523,0.002678,0.000431,0.019745
27153000,0.0324,0.013523,0.002678,0.000431,0.004701
27154000,0.0324,0.013523,0.002678,0.000431,0.019745
27155000,0.0324,0.013523,0.002678,0.000431,0.019745
27156000,0.0324,0.013523,0.002678,0.000431,0.004701
27157000,0.0324,0.013523,0.002678,0.000431,0.004701
27158000,0.0324,0.013523,0.002678,0.000431,0.008580
27159000,0.0324,0.013523,0.002678,0.000431,0.008345
27160000,0.0324,0.013523,0.002678,0.000431,0.062525
27161000,0.0324,0.013523,0.002678,0.000431,0.006817
27162000,0.0324,0.013523,0.002678,0.000431,0.057354
27163000,0.0324,0.013523,0.002678,0.000431,0.072162
27164000,0.0324,0.013523,0.002678,0.000431,0.034201
27165000,0.0324,0.013523,0.002678,0.000431,0.005289
27166000,0.0324,0.013523,0.002678,0.000431,0.004701
27167000,0.0324,0.013523,0.002678,0.000431,0.004701
27168000,0.0324,0.013523,0.002678,0.000431,0.042310
27169000,0.0324,0.013523,0.002678,0.000431,0.017042
27170000,0.0324,0.013523,0.002678,0.000431,0.089674
27171000,0.0324,0.013523,0.002678,0.000431,0.020450
27172000,0.0324,0.013523,0.002678,0.000431,0.055003
27173000,0.0324,0.013523,0.002678,0.000431,0.089556
27174000,0.0324,0.013523,0.002678,0.000431,0.004701
27175000,0.0324,0.013523,0.002678,0.000431,0.004701
27176000,0.0324,0.013523,0.002678,0.000431,0.004466
27177000,0.0324,0.013523,0.002678,0.000431,0.012223
27178000,0.0324,0.013523,0.002678,0.000431,0.004701
27179000,0.0324,0.013523,0.002678,0.000431,0.012223
27180000,0.0324,0.013523,0.002678,0.000431,0.004701
27181000,0.0324,0.013523,0.002678,0.000431,0.072162
27182000,0.0324,0.013523,0.002678,0.000431,0.004701
27183000,0.0324,0.013523,0.002678,0.000431,0.019745
27184000,0.0324,0.013523,0.002678,0.000431,0.004701
27185000,0.0324,0.013523,0.002678,0.000431,0.004701
27186000,0.0324,0.013523,0.002678,0.000431,0.031027
27187000,0.0324,0.013523,0.002678,0.000431,0.028324
27188000,0.0324,0.013523,0.002678,0.000431,0.045013
27189000,0.0324,0.013523,0.002678,0.000431,0.004701
27190000,0.0324,0.013523,0.002678,0.000431,0.027267
27191000,0.0324,0.013523,0.002678,0.000431,0.027502
27192000,0.0324,0.013523,0.002678,0.000431,0.019745
27193000,0.0324,0.013523,0.002678,0.000431,0.004701
27194000,0.0324,0.013523,0.002678,0.000431,0.004701
27195000,0.0324,0.013523,0.002678,0.000431,0.036904
27196000,0.0324,0.013523,0.002678,0.000431,0.017629
27197000,0.0324,0.013523,0.002678,0.000431,0.004701
27198000,0.0324,0.013523,0.002678,0.000431,0.049832
27199000,0.0324,0.013523,0.002678,0.000431,0.029382
27200000,0.0324,0.013523,0.002678,0.000431,0.004701
27201000,0.0324,0.013523,0.002678,0.000431,0.004701
27202000,0.0324,0.013523,0.002678,0.000431,0.034788
27203000,0.0324,0.013523,0.002678,0.000431,0.004701
27204000,0.0324,0.013523,0.002678,0.000431,0.004701
27205000,0.0324,0.013523,0.002678,0.000431,0.020215
27206000,0.0324,0.013523,0.002678,0.000431,0.034788
27207000,0.0324,0.013523,0.002678,0.000431,0.004701
27208000,0.0324,0.013523,0.002678,0.000431,0.004701
27209000,0.0324,0.013523,0.002678,0.000431,0.012223
27210000,0.0324,0.013523,0.002678,0.000431,0.004701
27211000,0.0324,0.013523,0.002678,0.000431,0.019745
27212000,0.0324,0.013523,0.002678,0.000431,0.034671
27213000,0.0324,0.013523,0.002678,0.000431,0.004584
27214000,0.0324,0.013523,0.002678,0.000431,0.004701
27215000,0.0324,0.013523,0.002678,0.000431,0.004466
27216000,0.0324,0.013523,0.002678,0.000431,0.012223
27217000,0.0324,0.013523,0.002678,0.000431,0.057354
27218000,0.0324,0.013523,0.002678,0.000431,0.012458
27219000,0.0324,0.013523,0.002678,0.000431,0.042310
27220000,0.0324,0.013523,0.002678,0.000431,0.004701
27221000,0.0324,0.013523,0.002678,0.000431,0.004701
27222000,0.0324,0.013523,0.002678,0.000431,0.027267
27223000,0.0324,0.013523,0.002678,0.000431,0.004701
27224000,0.0324,0.013523,0.002678,0.000431,0.147615
27225000,0.0324,0.013523,0.002678,0.000431,0.004701
27226000,0.0324,0.013523,0.002678,0.000431,0.004466
27227000,0.0324,0.013523,0.002678,0.000431,0.004701
27228000,0.0324,0.013523,0.002678,0.000431,0.008462
27229000,0.0324,0.013523,0.002678,0.000431,0.008462
27230000,0.0324,0.013523,0.002678,0.000431,0.032790
27231000,0.0324,0.013523,0.002678,0.000431,0.111769
27232000,0.0324,0.013523,0.002678,0.000431,0.004701
27233000,0.0324,0.013523,0.002678,0.000431,0.004701
27234000,0.0324,0.013523,0.002678,0.000431,0.004701
27235000,0.0324,0.013523,0.002678,0.000431,0.034788
27236000,0.0324,0.013523,0.002678,0.000431,0.004701
27237000,0.0324,0.013523,0.002678,0.000431,0.042310
27238000,0.0324,0.013523,0.002678,0.000431,0.012223
27239000,0.0324,0.013523,0.002678,0.000431,0.004701
27240000,0.0324,0.013523,0.002678,0.000431,0.004701
27241000,0.0324,0.013523,0.002678,0.000431,0.004701
27242000,0.0324,0.013523,0.002678,0.000431,0.004701
27243000,0.0324,0.013523,0.002678,0.000431,0.007522
27244000,0.0324,0.013523,0.002678,0.000431,0.024328
27245000,0.0324,0.013523,0.002678,0.000431,0.004584
27246000,0.0324,0.013523,0.002678,0.000431,0.004701
27247000,0.0324,0.013523,0.002678,0.000431,0.004701
27248000,0.0324,0.013523,0.002678,0.000431,0.064993
27249000,0.0324,0.013523,0.002678,0.000431,0.004584
27250000,0.0324,0.013523,0.002678,0.000431,0.057589
27251000,0.0324,0.013523,0.002678,0.000431,0.004701
27252000,0.0324,0.013523,0.002678,0.000431,0.004584
27253000,0.0324,0.013523,0.002678,0.000431,0.004584
27254000,0.0324,0.013523,0.002678,0.000431,0.034788
27255000,0.0324,0.013523,0.002678,0.000431,0.004584
27256000,0.0324,0.013523,0.002678,0.000431,0.008345
27257000,0.0324,0.013523,0.002678,0.000431,0.053593
27258000,0.0324,0.013523,0.002678,0.000431,0.012223
27259000,0.0324,0.013523,0.002678,0.000431,0.004701
27260000,0.0324,0.013523,0.002678,0.000431,0.004701
27261000,0.0324,0.013523,0.002678,0.000431,0.004701
27262000,0.0324,0.013523,0.002678,0.000431,0.015984
27263000,0.0324,0.013523,0.002678,0.000431,0.023506
27264000,0.0324,0.013523,0.002678,0.000431,0.034788
27265000,0.0324,0.013523,0.002678,0.000431,0.004701
27266000,0.0324,0.013523,0.002678,0.000431,0.004701
27267000,0.0324,0.013523,0.002678,0.000431,0.004701
27268000,0.0324,0.013523,0.002678,0.000431,0.004701
27269000,0.0324,0.013523,0.002678,0.000431,0.019745
27270000,0.0324,0.013523,0.002678,0.000431,0.027267
27271000,0.0324,0.013523,0.002678,0.000431,0.027267
27272000,0.0324,0.013523,0.002678,0.000431,0.004701
27273000,0.0324,0.013523,0.002678,0.000431,0.012223
27274000,0.0324,0.013523,0.002678,0.000431,0.004701
27275000,0.0324,0.013523,0.002678,0.000431,0.034201
27276000,0.0324,0.013523,0.002678,0.000431,0.095550
27277000,0.0324,0.013523,0.002678,0.000431,0.027267
27278000,0.0324,0.013523,0.002678,0.000431,0.004701
27279000,0.0324,0.013523,0.002678,0.000431,0.076158
27280000,0.0324,0.013523,0.002678,0.000431,0.015984
27281000,0.0324,0.013523,0.002678,0.000431,0.004701
27282000,0.0324,0.013523,0.002678,0.000431,0.042310
27283000,0.0324,0.013523,0.002678,0.000431,0.034553
27284000,0.0324,0.013523,0.002678,0.000431,0.004584
27285000,0.0324,0.013523,0.002678,0.000431,0.042193
27286000,0.0324,0.013523,0.002678,0.000431,0.004701
27287000,0.0324,0.013523,0.002678,0.000431,0.004701
27288000,0.0324,0.013523,0.002678,0.000431,0.048539
27289000,0.0324,0.013523,0.002678,0.000431,0.024798
27290000,0.0324,0.013523,0.002678,0.000431,0.023506
27291000,0.0324,0.013523,0.002678,0.000431,0.027854
27292000,0.0324,0.013523,0.002678,0.000431,0.011635
27293000,0.0324,0.013523,0.002678,0.000431,0.004701
27294000,0.0324,0.013523,0.002678,0.000431,0.004701
27295000,0.0324,0.013523,0.002678,0.000431,0.042310
27296000,0.0324,0.013523,0.002678,0.000431,0.072397
27297000,0.0324,0.013523,0.002678,0.000431,0.004701
27298000,0.0324,0.013523,0.002678,0.000431,0.004701
27299000,0.0324,0.013523,0.002678,0.000431,0.004701
27300000,0.0324,0.013523,0.002678,0.000431,0.004701
27301000,0.0324,0.013523,0.002678,0.000431,0.004701
27302000,0.0324,0.013523,0.002678,0.000431,0.034788
27303000,0.0324,0.013523,0.002678,0.000431,0.004701
27304000,0.0324,0.013523,0.002678,0.000431,0.027267
27305000,0.0324,0.013523,0.002678,0.000431,0.012223
27306000,0.0324,0.013523,0.002678,0.000431,0.004466
27307000,0.0324,0.013523,0.002678,0.000431,0.004701
27308000,0.0324,0.013523,0.002678,0.000431,0.029029
27309000,0.0324,0.013523,0.002678,0.000431,0.048304
27310000,0.0324,0.013523,0.002678,0.000431,0.004701
27311000,0.0324,0.013523,0.002678,0.000431,0.004701
27312000,0.0324,0.013523,0.002678,0.000431,0.004701
27313000,0.0324,0.013523,0.002678,0.000431,0.004701
27314000,0.0324,0.013523,0.002678,0.000431,0.004701
27315000,0.0324,0.013523,0.002678,0.000431,0.104130
27316000,0.0324,0.013523,0.002678,0.000431,0.032908
27317000,0.0324,0.013523,0.002678,0.000431,0.004701
27318000,0.0324,0.013523,0.002678,0.000431,0.004701
27319000,0.0324,0.013523,0.002678,0.000431,0.004701
27320000,0.0324,0.013523,0.002678,0.000431,0.004701
27321000,0.0324,0.013523,0.002678,0.000431,0.013163
27322000,0.0324,0.013523,0.002678,0.000431,0.019040
27323000,0.0324,0.013523,0.002678,0.000431,0.011988
27324000,0.0324,0.013523,0.002678,0.000431,0.004701
27325000,0.0324,0.013523,0.002678,0.000431,0.004701
27326000,0.0324,0.013523,0.002678,0.000431,0.004701
27327000,0.0324,0.013523,0.002678,0.000431,0.004701
27328000,0.0324,0.013523,0.002678,0.000431,0.042310
27329000,0.0324,0.013523,0.002678,0.000431,0.004701
27330000,0.0324,0.013523,0.002678,0.000431,0.004701
27331000,0.0324,0.013523,0.002678,0.000431,0.004701
27332000,0.0324,0.013523,0.002678,0.000431,0.004701
27333000,0.0324,0.013523,0.002678,0.000431,0.004701
27334000,0.0324,0.013523,0.002678,0.000431,0.016807
27335000,0.0324,0.013523,0.002678,0.000431,0.017394
27336000,0.0324,0.013523,0.002678,0.000431,0.024798
27337000,0.0324,0.013523,0.002678,0.000431,0.004701
27338000,0.0324,0.013523,0.002678,0.000431,0.004701
27339000,0.0324,0.013523,0.002678,0.000431,0.004701
27340000,0.0324,0.013523,0.002678,0.000431,0.030557
27341000,0.0324,0.013523,0.002678,0.000431,0.039019
27342000,0.0324,0.013523,0.002678,0.000431,0.004701
27343000,0.0324,0.013523,0.002678,0.000431,0.004701
27344000,0.0324,0.013523,0.002678,0.000431,0.004701
27345000,0.0324,0.013523,0.002678,0.000431,0.004701
27346000,0.0324,0.013523,0.002678,0.000431,0.026914
27347000,0.0324,0.013523,0.002678,0.000431,0.032438
27348000,0.0324,0.013523,0.002678,0.000431,0.029500
27349000,0.0324,0.013523,0.002678,0.000431,0.019745
27350000,0.0324,0.013523,0.002678,0.000431,0.004701
27351000,0.0324,0.013523,0.002678,0.000431,0.004701
27352000,0.0324,0.013523,0.002678,0.000431,0.004701
27353000,0.0324,0.013523,0.002678,0.000431,0.065111
27354000,0.0324,0.013523,0.002678,0.000431,0.004701
27355000,0.0324,0.013523,0.002678,0.000431,0.004701
27356000,0.0324,0.013523,0.002678,0.000431,0.004701
27357000,0.0324,0.013523,0.002678,0.000431,0.004701
27358000,0.0324,0.013523,0.002678,0.000431,0.004701
27359000,0.0324,0.013523,0.002678,0.000431,0.012458
27360000,0.0324,0.013523,0.002678,0.000431,0.055591
27361000,0.0324,0.013523,0.002678,0.000431,0.035846
27362000,0.0324,0.013523,0.002678,0.000431,0.012928
27363000,0.0324,0.013523,0.002678,0.000431,0.004701
27364000,0.0324,0.013523,0.002678,0.000431,0.004701
27365000,0.0324,0.013523,0.002678,0.000431,0.016219
27366000,0.0324,0.013523,0.002678,0.000431,0.023271
27367000,0.0324,0.013523,0.002678,0.000431,0.004701
27368000,0.0324,0.013523,0.002678,0.000431,0.064876
27369000,0.0324,0.013523,0.002678,0.000431,0.004701
27370000,0.0324,0.013523,0.002678,0.000431,0.004701
27371000,0.0324,0.013523,0.002678,0.000431,0.004701
27372000,0.0324,0.013523,0.002678,0.000431,0.086148
27373000,0.0324,0.013523,0.002678,0.000431,0.005759
27374000,0.0324,0.013523,0.002678,0.000431,0.004701
27375000,0.0324,0.013523,0.002678,0.000431,0.004701
27376000,0.0324,0.013523,0.002678,0.000431,0.004701
27377000,0.0324,0.013523,0.002678,0.000431,0.009872
27378000,0.0324,0.013523,0.002678,0.000431,0.053828
27379000,0.0324,0.013523,0.002678,0.000431,0.039725
27380000,0.0324,0.013523,0.002678,0.000431,0.035964
27381000,0.0324,0.013523,0.002678,0.000431,0.004701
27382000,0.0324,0.013523,0.002678,0.000431,0.004701
27383000,0.0324,0.013523,0.002678,0.000431,0.004701
27384000,0.0324,0.013523,0.002678,0.000431,0.004701
27385000,0.0324,0.013523,0.002678,0.000431,0.026914
27386000,0.0324,0.013523,0.002678,0.000431,0.004701
27387000,0.0324,0.013523,0.002678,0.000431,0.034671
27388000,0.0324,0.013523,0.002678,0.000431,0.004701
27389000,0.0324,0.013523,0.002678,0.000431,0.004701
27390000,0.0324,0.013523,0.002678,0.000431,0.004701
27391000,0.0324,0.013523,0.002678,0.000431,0.042075
27392000,0.0324,0.013523,0.002678,0.000431,0.035023
27393000,0.0324,0.013523,0.002678,0.000431,0.004701
27394000,0.0324,0.013523,0.002678,0.000431,0.004701
27395000,0.0324,0.013523,0.002678,0.000431,0.004701
27396000,0.0324,0.013523,0.002678,0.000431,0.004701
27397000,0.0324,0.013523,0.002678,0.000431,0.004584
27398000,0.0324,0.013523,0.002678,0.000431,0.019627
27399000,0.0324,0.013523,0.002678,0.000431,0.034788
27400000,0.0324,0.013523,0.002678,0.000431,0.042310
27401000,0.0324,0.013523,0.002678,0.000431,0.004701
27402000,0.0324,0.013523,0.002678,0.000431,0.004701
27403000,0.0324,0.013523,0.002678,0.000431,0.004701
27404000,0.0324,0.013523,0.002678,0.000431,0.070399
27405000,0.0324,0.013523,0.002678,0.000431,0.007169
27406000,0.0324,0.013523,0.002678,0.000431,0.004701
27407000,0.0324,0.013523,0.002678,0.000431,0.004701
27408000,0.0324,0.013523,0.002678,0.000431,0.004701
27409000,0.0324,0.013523,0.002678,0.000431,0.004701
27410000,0.0324,0.013523,0.002678,0.000431,0.004584
27411000,0.0324,0.013523,0.002678,0.000431,0.064758
27412000,0.0324,0.013523,0.002678,0.000431,0.004701
27413000,0.0324,0.013523,0.002678,0.000431,0.004936
27414000,0.0324,0.013523,0.002678,0.000431,0.004701
27415000,0.0324,0.013523,0.002678,0.000431,0.004701
27416000,0.0324,0.013523,0.002678,0.000431,0.004701
27417000,0.0324,0.013523,0.002678,0.000431,0.012223
27418000,0.0324,0.013523,0.002678,0.000431,0.004701
27419000,0.0324,0.013523,0.002678,0.000431,0.008815
27420000,0.0324,0.013523,0.002678,0.000431,0.053475
27421000,0.0324,0.013523,0.002678,0.000431,0.004701
27422000,0.0324,0.013523,0.002678,0.000431,0.004701
27423000,0.0324,0.013523,0.002678,0.000431,0.009050
27424000,0.0324,0.013523,0.002678,0.000431,0.045483
27425000,0.0324,0.013523,0.002678,0.000431,0.004701
27426000,0.0324,0.013523,0.002678,0.000431,0.079684
27427000,0.0324,0.013523,0.002678,0.000431,0.004466
27428000,0.0324,0.013523,0.002678,0.000431,0.004701
27429000,0.0324,0.013523,0.002678,0.000431,0.004701
27430000,0.0324,0.013523,0.002678,0.000431,0.064876
27431000,0.0324,0.013523,0.002678,0.000431,0.004701
27432000,0.0324,0.013523,0.002678,0.000431,0.027267
27433000,0.0324,0.013523,0.002678,0.000431,0.004701
27434000,0.0324,0.013523,0.002678,0.000431,0.004701
27435000,0.0324,0.013523,0.002678,0.000431,0.004701
27436000,0.0324,0.013523,0.002678,0.000431,0.010225
27437000,0.0324,0.013523,0.002678,0.000431,0.066756
27438000,0.0324,0.013523,0.002678,0.000431,0.004466
27439000,0.0324,0.013523,0.002678,0.000431,0.012105
27440000,0.0324,0.013523,0.002678,0.000431,0.004701
27441000,0.0324,0.013523,0.002678,0.000431,0.004466
27442000,0.0324,0.013523,0.002678,0.000431,0.004701
27443000,0.0324,0.013523,0.002678,0.000431,0.049832
27444000,0.0324,0.013523,0.002678,0.000431,0.004701
27445000,0.0324,0.013523,0.002678,0.000431,0.004701
27446000,0.0324,0.013523,0.002678,0.000431,0.004701
27447000,0.0324,0.013523,0.002678,0.000431,0.004701
27448000,0.0324,0.013523,0.002678,0.000431,0.004701
27449000,0.0324,0.013523,0.002678,0.000431,0.019745
27450000,0.0324,0.013523,0.002678,0.000431,0.012223
27451000,0.0324,0.013523,0.002678,0.000431,0.018217
27452000,0.0324,0.013523,0.002678,0.000431,0.029029
27453000,0.0324,0.013523,0.002678,0.000431,0.004701
27454000,0.0324,0.013523,0.002678,0.000431,0.004701
27455000,0.0324,0.013523,0.002678,0.000431,0.004701
27456000,0.0324,0.013523,0.002678,0.000431,0.034788
27457000,0.0324,0.013523,0.002678,0.000431,0.004701
27458000,0.0324,0.013523,0.002678,0.000431,0.004701
27459000,0.0324,0.013523,0.002678,0.000431,0.004701
27460000,0.0324,0.013523,0.002678,0.000431,0.004701
27461000,0.0324,0.013523,0.002678,0.000431,0.004701
27462000,0.0324,0.013523,0.002678,0.000431,0.079919
27463000,0.0324,0.013523,0.002678,0.000431,0.004701
27464000,0.0324,0.013523,0.002678,0.000431,0.008462
27465000,0.0324,0.013523,0.002678,0.000431,0.008462
27466000,0.0324,0.013523,0.002678,0.000431,0.004701
27467000,0.0324,0.013523,0.002678,0.000431,0.004466
27468000,0.0324,0.013523,0.002678,0.000431,0.009872
27469000,0.0324,0.013523,0.002678,0.000431,0.134922
27470000,0.0324,0.013523,0.002678,0.000431,0.004701
27471000,0.0324,0.013523,0.002678,0.000431,0.057589
27472000,0.0324,0.013523,0.002678,0.000431,0.027267
27473000,0.0324,0.013523,0.002678,0.000431,0.004701
27474000,0.0324,0.013523,0.002678,0.000431,0.014456
27475000,0.0324,0.013523,0.002678,0.000431,0.009872
27476000,0.0324,0.013523,0.002678,0.000431,0.052653
27477000,0.0324,0.013523,0.002678,0.000431,0.046894
27478000,0.0324,0.013523,0.002678,0.000431,0.004466
27479000,0.0324,0.013523,0.002678,0.000431,0.004466
27480000,0.0324,0.013523,0.002678,0.000431,0.004701
27481000,0.0324,0.013523,0.002678,0.000431,0.057354
27482000,0.0324,0.013523,0.002678,0.000431,0.019745
27483000,0.0324,0.013523,0.002678,0.000431,0.057354
27484000,0.0324,0.013523,0.002678,0.000431,0.019745
27485000,0.0324,0.013523,0.002678,0.000431,0.004701
27486000,0.0324,0.013523,0.002678,0.000431,0.004701
27487000,0.0324,0.013523,0.002678,0.000431,0.004701
27488000,0.0324,0.013523,0.002678,0.000431,0.048892
27489000,0.0324,0.013523,0.002678,0.000431,0.035964
27490000,0.0324,0.013523,0.002678,0.000431,0.019745
27491000,0.0324,0.013523,0.002678,0.000431,0.004701
27492000,0.0324,0.013523,0.002678,0.000431,0.004701
27493000,0.0324,0.013523,0.002678,0.000431,0.004701
27494000,0.0324,0.013523,0.002678,0.000431,0.004701
27495000,0.0324,0.013523,0.002678,0.000431,0.004584
27496000,0.0324,0.013523,0.002678,0.000431,0.064758
27497000,0.0324,0.013523,0.002678,0.000431,0.004701
27498000,0.0324,0.013523,0.002678,0.000431,0.004701
27499000,0.0324,0.013523,0.002678,0.000431,0.004701
27500000,0.0324,0.013523,0.002678,0.000431,0.004701
27501000,0.0324,0.013523,0.002678,0.000431,0.034788
27502000,0.0324,0.013523,0.002678,0.000431,0.012223
27503000,0.0324,0.013523,0.002678,0.000431,0.004701
27504000,0.0324,0.013523,0.002678,0.000431,0.004701
27505000,0.0324,0.013523,0.002678,0.000431,0.004701
27506000,0.0324,0.013523,0.002678,0.000431,0.004701
27507000,0.0324,0.013523,0.002678,0.000431,0.010460
27508000,0.0324,0.013523,0.002678,0.000431,0.117881
27509000,0.0324,0.013523,0.002678,0.000431,0.127165
27510000,0.0324,0.013523,0.002678,0.000431,0.004701
27511000,0.0324,0.013523,0.002678,0.000431,0.004701
27512000,0.0324,0.013523,0.002678,0.000431,0.004701
27513000,0.0324,0.013523,0.002678,0.000431,0.004701
27514000,0.0324,0.013523,0.002678,0.000431,0.061115
27515000,0.0324,0.013523,0.002678,0.000431,0.079919
27516000,0.0324,0.013523,0.002678,0.000431,0.061115
27517000,0.0324,0.013523,0.002678,0.000431,0.004701
27518000,0.0324,0.013523,0.002678,0.000431,0.004584
27519000,0.0324,0.013523,0.002678,0.000431,0.004584
27520000,0.0324,0.013523,0.002678,0.000431,0.004701
27521000,0.0324,0.013523,0.002678,0.000431,0.004701
27522000,0.0324,0.013523,0.002678,0.000431,0.034788
27523000,0.0324,0.013523,0.002678,0.000431,0.064523
27524000,0.0324,0.013523,0.002678,0.000431,0.080272
27525000,0.0324,0.013523,0.002678,0.000431,0.004701
27526000,0.0324,0.013523,0.002678,0.000431,0.004701
27527000,0.0324,0.013523,0.002678,0.000431,0.008462
27528000,0.0324,0.013523,0.002678,0.000431,0.011988
27529000,0.0324,0.013523,0.002678,0.000431,0.015984
27530000,0.0324,0.013523,0.002678,0.000431,0.019627
27531000,0.0324,0.013523,0.002678,0.000431,0.004584
27532000,0.0324,0.013523,0.002678,0.000431,0.004701
27533000,0.0324,0.013523,0.002678,0.000431,0.004701
27534000,0.0324,0.013523,0.002678,0.000431,0.004701
27535000,0.0324,0.013523,0.002678,0.000431,0.012223
27536000,0.0324,0.013523,0.002678,0.000431,0.004701
27537000,0.0324,0.013523,0.002678,0.000431,0.004584
27538000,0.0324,0.013523,0.002678,0.000431,0.004584
27539000,0.0324,0.013523,0.002678,0.000431,0.004701
27540000,0.0324,0.013523,0.002678,0.000431,0.004701
27541000,0.0324,0.013523,0.002678,0.000431,0.034788
27542000,0.0324,0.013523,0.002678,0.000431,0.034788
27543000,0.0324,0.013523,0.002678,0.000431,0.004701
27544000,0.0324,0.013523,0.002678,0.000431,0.004701
27545000,0.0324,0.013523,0.002678,0.000431,0.004701
27546000,0.0324,0.013523,0.002678,0.000431,0.004701
27547000,0.0324,0.013523,0.002678,0.000431,0.034788
27548000,0.0324,0.013523,0.002678,0.000431,0.042310
27549000,0.0324,0.013523,0.002678,0.000431,0.004701
27550000,0.0324,0.013523,0.002678,0.000431,0.004701
27551000,0.0324,0.013523,0.002678,0.000431,0.004701
27552000,0.0324,0.013523,0.002678,0.000431,0.004701
27553000,0.0324,0.013523,0.002678,0.000431,0.004701
27554000,0.0324,0.013523,0.002678,0.000431,0.012458
27555000,0.0324,0.013523,0.002678,0.000431,0.004701
27556000,0.0324,0.013523,0.002678,0.000431,0.004701
27557000,0.0324,0.013523,0.002678,0.000431,0.004701
27558000,0.0324,0.013523,0.002678,0.000431,0.004584
27559000,0.0324,0.013523,0.002678,0.000431,0.018805
27560000,0.0324,0.013523,0.002678,0.000431,0.013281
27561000,0.0324,0.013523,0.002678,0.000431,0.012223
27562000,0.0324,0.013523,0.002678,0.000431,0.004701
27563000,0.0324,0.013523,0.002678,0.000431,0.004701
27564000,0.0324,0.013523,0.002678,0.000431,0.004701
27565000,0.0324,0.013523,0.002678,0.000431,0.012223
27566000,0.0324,0.013523,0.002678,0.000431,0.049832
27567000,0.0324,0.013523,0.002678,0.000431,0.083445
27568000,0.0324,0.013523,0.002678,0.000431,0.031027
27569000,0.0324,0.013523,0.002678,0.000431,0.004701
27570000,0.0324,0.013523,0.002678,0.000431,0.004701
27571000,0.0324,0.013523,0.002678,0.000431,0.004466
27572000,0.0324,0.013523,0.002678,0.000431,0.034788
27573000,0.0324,0.013523,0.002678,0.000431,0.034083
27574000,0.0324,0.013523,0.002678,0.000431,0.013163
27575000,0.0324,0.013523,0.002678,0.000431,0.004701
27576000,0.0324,0.013523,0.002678,0.000431,0.004701
27577000,0.0324,0.013523,0.002678,0.000431,0.004584
27578000,0.0324,0.013523,0.002678,0.000431,0.072280
27579000,0.0324,0.013523,0.002678,0.000431,0.064876
27580000,0.0324,0.013523,0.002678,0.000431,0.019745
27581000,0.0324,0.013523,0.002678,0.000431,0.012223
27582000,0.0324,0.013523,0.002678,0.000431,0.004701
27583000,0.0324,0.013523,0.002678,0.000431,0.004701
27584000,0.0324,0.013523,0.002678,0.000431,0.004701
27585000,0.0324,0.013523,0.002678,0.000431,0.087323
27586000,0.0324,0.013523,0.002678,0.000431,0.057706
27587000,0.0324,0.013523,0.002678,0.000431,0.004701
27588000,0.0324,0.013523,0.002678,0.000431,0.004701
27589000,0.0324,0.013523,0.002678,0.000431,0.004701
27590000,0.0324,0.013523,0.002678,0.000431,0.042310
27591000,0.0324,0.013523,0.002678,0.000431,0.004701
27592000,0.0324,0.013523,0.002678,0.000431,0.004701
27593000,0.0324,0.013523,0.002678,0.000431,0.019745
27594000,0.0324,0.013523,0.002678,0.000431,0.004701
27595000,0.0324,0.013523,0.002678,0.000431,0.004701
27596000,0.0324,0.013523,0.002678,0.000431,0.004701
27597000,0.0324,0.013523,0.002678,0.000431,0.004584
27598000,0.0324,0.013523,0.002678,0.000431,0.011988
27599000,0.0324,0.013523,0.002678,0.000431,0.019627
27600000,0.0324,0.013523,0.002678,0.000431,0.012223
27601000,0.0324,0.013523,0.002678,0.000431,0.004701
27602000,0.0324,0.013523,0.002678,0.000431,0.004701
27603000,0.0324,0.013523,0.002678,0.000431,0.042310
27604000,0.0324,0.013523,0.002678,0.000431,0.004701
27605000,0.0324,0.013523,0.002678,0.000431,0.071927
27606000,0.0324,0.013523,0.002678,0.000431,0.035258
27607000,0.0324,0.013523,0.002678,0.000431,0.004701
27608000,0.0324,0.013523,0.002678,0.000431,0.004701
27609000,0.0324,0.013523,0.002678,0.000431,0.004701
27610000,0.0324,0.013523,0.002678,0.000431,0.004701
27611000,0.0324,0.013523,0.002678,0.000431,0.049597
27612000,0.0324,0.013523,0.002678,0.000431,0.019980
27613000,0.0324,0.013523,0.002678,0.000431,0.004701
27614000,0.0324,0.013523,0.002678,0.000431,0.004701
27615000,0.0324,0.013523,0.002678,0.000431,0.004701
27616000,0.0324,0.013523,0.002678,0.000431,0.012223
27617000,0.0324,0.013523,0.002678,0.000431,0.004701
27618000,0.0324,0.013523,0.002678,0.000431,0.011988
27619000,0.0324,0.013523,0.002678,0.000431,0.012223
27620000,0.0324,0.013523,0.002678,0.000431,0.004701
27621000,0.0324,0.013523,0.002678,0.000431,0.004701
27622000,0.0324,0.013523,0.002678,0.000431,0.017864
27623000,0.0324,0.013523,0.002678,0.000431,0.006582
27624000,0.0324,0.013523,0.002678,0.000431,0.004701
27625000,0.0324,0.013523,0.002678,0.000431,0.117293
27626000,0.0324,0.013523,0.002678,0.000431,0.004701
27627000,0.0324,0.013523,0.002678,0.000431,0.004701
27628000,0.0324,0.013523,0.002678,0.000431,0.004701
27629000,0.0324,0.013523,0.002678,0.000431,0.064876
27630000,0.0324,0.013523,0.002678,0.000431,0.004701
27631000,0.0324,0.013523,0.002678,0.000431,0.035023
27632000,0.0324,0.013523,0.002678,0.000431,0.004701
27633000,0.0324,0.013523,0.002678,0.000431,0.004701
27634000,0.0324,0.013523,0.002678,0.000431,0.004701
27635000,0.0324,0.013523,0.002678,0.000431,0.027502
27636000,0.0324,0.013523,0.002678,0.000431,0.004701
27637000,0.0324,0.013523,0.002678,0.000431,0.019627
27638000,0.0324,0.013523,0.002678,0.000431,0.012105
27639000,0.0324,0.013523,0.002678,0.000431,0.004466
27640000,0.0324,0.013523,0.002678,0.000431,0.004701
27641000,0.0324,0.013523,0.002678,0.000431,0.004701
27642000,0.0324,0.013523,0.002678,0.000431,0.027267
27643000,0.0324,0.013523,0.002678,0.000431,0.004701
27644000,0.0324,0.013523,0.002678,0.000431,0.072397
27645000,0.0324,0.013523,0.002678,0.000431,0.012223
27646000,0.0324,0.013523,0.002678,0.000431,0.004701
27647000,0.0324,0.013523,0.002678,0.000431,0.004701
27648000,0.0324,0.013523,0.002678,0.000431,0.019745
27649000,0.0324,0.013523,0.002678,0.000431,0.004701
27650000,0.0324,0.013523,0.002678,0.000431,0.004701
27651000,0.0324,0.013523,0.002678,0.000431,0.004466
27652000,0.0324,0.013523,0.002678,0.000431,0.004701
27653000,0.0324,0.013523,0.002678,0.000431,0.004701
27654000,0.0324,0.013523,0.002678,0.000431,0.004701
27655000,0.0324,0.013523,0.002678,0.000431,0.049832
27656000,0.0324,0.013523,0.002678,0.000431,0.005289
27657000,0.0324,0.013523,0.002678,0.000431,0.026679
27658000,0.0324,0.013523,0.002678,0.000431,0.004466
27659000,0.0324,0.013523,0.002678,0.000431,0.004701
27660000,0.0324,0.013523,0.002678,0.000431,0.004701
27661000,0.0324,0.013523,0.002678,0.000431,0.048422
27662000,0.0324,0.013523,0.002678,0.000431,0.013633
27663000,0.0324,0.013523,0.002678,0.000431,0.004701
27664000,0.0324,0.013523,0.002678,0.000431,0.019745
27665000,0.0324,0.013523,0.002678,0.000431,0.004701
27666000,0.0324,0.013523,0.002678,0.000431,0.004701
27667000,0.0324,0.013523,0.002678,0.000431,0.004701
27668000,0.0324,0.013523,0.002678,0.000431,0.004701
27669000,0.0324,0.013523,0.002678,0.000431,0.004701
27670000,0.0324,0.013523,0.002678,0.000431,0.049832
27671000,0.0324,0.013523,0.002678,0.000431,0.004701
27672000,0.0324,0.013523,0.002678,0.000431,0.004701
27673000,0.0324,0.013523,0.002678,0.000431,0.004701
27674000,0.0324,0.013523,0.002678,0.000431,0.004701
27675000,0.0324,0.013523,0.002678,0.000431,0.004701
27676000,0.0324,0.013523,0.002678,0.000431,0.012223
27677000,0.0324,0.013523,0.002678,0.000431,0.019745
27678000,0.0324,0.013523,0.002678,0.000431,0.004466
27679000,0.0324,0.013523,0.002678,0.000431,0.004466
27680000,0.0324,0.013523,0.002678,0.000431,0.018334
27681000,0.0324,0.013523,0.002678,0.000431,0.051242
27682000,0.0324,0.013523,0.002678,0.000431,0.004701
27683000,0.0324,0.013523,0.002678,0.000431,0.042310
27684000,0.0324,0.013523,0.002678,0.000431,0.004701
27685000,0.0324,0.013523,0.002678,0.000431,0.004701
27686000,0.0324,0.013523,0.002678,0.000431,0.004701
27687000,0.0324,0.013523,0.002678,0.000431,0.042310
27688000,0.0324,0.013523,0.002678,0.000431,0.004701
27689000,0.0324,0.013523,0.002678,0.000431,0.101074
27690000,0.0324,0.013523,0.002678,0.000431,0.185459
27691000,0.0324,0.013523,0.002678,0.000431,0.004466
27692000,0.0324,0.013523,0.002678,0.000431,0.004701
27693000,0.0324,0.013523,0.002678,0.000431,0.083798
27694000,0.0324,0.013523,0.002678,0.000431,0.016101
27695000,0.0324,0.013523,0.002678,0.000431,0.004701
27696000,0.0324,0.013523,0.002678,0.000431,0.042310
27697000,0.0324,0.013523,0.002678,0.000431,0.004701
27698000,0.0324,0.013523,0.002678,0.000431,0.004466
27699000,0.0324,0.013523,0.002678,0.000431,0.004701
27700000,0.0324,0.013523,0.002678,0.000431,0.087441
27701000,0.0324,0.013523,0.002678,0.000431,0.004701
27702000,0.0324,0.013523,0.002678,0.000431,0.025504
27703000,0.0324,0.013523,0.002678,0.000431,0.149613
27704000,0.0324,0.013523,0.002678,0.000431,0.004701
27705000,0.0324,0.013523,0.002678,0.000431,0.004701
27706000,0.0324,0.013523,0.002678,0.000431,0.106481
27707000,0.0324,0.013523,0.002678,0.000431,0.023271
27708000,0.0324,0.013523,0.002678,0.000431,0.008462
27709000,0.0324,0.013523,0.002678,0.000431,0.008462
27710000,0.0324,0.013523,0.002678,0.000431,0.004701
27711000,0.0324,0.013523,0.002678,0.000431,0.004701
27712000,0.0324,0.013523,0.002678,0.000431,0.008580
27713000,0.0324,0.013523,0.002678,0.000431,0.166537
27714000,0.0324,0.013523,0.002678,0.000431,0.004701
27715000,0.0324,0.013523,0.002678,0.000431,0.004701
27716000,0.0324,0.013523,0.002678,0.000431,0.019745
27717000,0.0324,0.013523,0.002678,0.000431,0.004701
27718000,0.0324,0.013523,0.002678,0.000431,0.004584
27719000,0.0324,0.013523,0.002678,0.000431,0.060292
27720000,0.0324,0.013523,0.002678,0.000431,0.024211
27721000,0.0324,0.013523,0.002678,0.000431,0.019745
27722000,0.0324,0.013523,0.002678,0.000431,0.027031
27723000,0.0324,0.013523,0.002678,0.000431,0.004701
27724000,0.0324,0.013523,0.002678,0.000431,0.004701
27725000,0.0324,0.013523,0.002678,0.000431,0.004819
27726000,0.0324,0.013523,0.002678,0.000431,0.012105
27727000,0.0324,0.013523,0.002678,0.000431,0.004701
27728000,0.0324,0.013523,0.002678,0.000431,0.004701
27729000,0.0324,0.013523,0.002678,0.000431,0.019745
27730000,0.0324,0.013523,0.002678,0.000431,0.004701
27731000,0.0324,0.013523,0.002678,0.000431,0.004701
27732000,0.0324,0.013523,0.002678,0.000431,0.011518
27733000,0.0324,0.013523,0.002678,0.000431,0.005171
27734000,0.0324,0.013523,0.002678,0.000431,0.004701
27735000,0.0324,0.013523,0.002678,0.000431,0.049832
27736000,0.0324,0.013523,0.002678,0.000431,0.004701
27737000,0.0324,0.013523,0.002678,0.000431,0.004701
27738000,0.0324,0.013523,0.002678,0.000431,0.004701
27739000,0.0324,0.013523,0.002678,0.000431,0.019745
27740000,0.0324,0.013523,0.002678,0.000431,0.004701
27741000,0.0324,0.013523,0.002678,0.000431,0.016101
27742000,0.0324,0.013523,0.002678,0.000431,0.023388
27743000,0.0324,0.013523,0.002678,0.000431,0.004701
27744000,0.0324,0.013523,0.002678,0.000431,0.004584
27745000,0.0324,0.013523,0.002678,0.000431,0.004584
27746000,0.0324,0.013523,0.002678,0.000431,0.004701
27747000,0.0324,0.013523,0.002678,0.000431,0.004701
27748000,0.0324,0.013523,0.002678,0.000431,0.042310
27749000,0.0324,0.013523,0.002678,0.000431,0.004701
27750000,0.0324,0.013523,0.002678,0.000431,0.004701
27751000,0.0324,0.013523,0.002678,0.000431,0.023506
27752000,0.0324,0.013523,0.002678,0.000431,0.023506
27753000,0.0324,0.013523,0.002678,0.000431,0.004701
27754000,0.0324,0.013523,0.002678,0.000431,0.030557
27755000,0.0324,0.013523,0.002678,0.000431,0.031733
27756000,0.0324,0.013523,0.002678,0.000431,0.004701
27757000,0.0324,0.013523,0.002678,0.000431,0.004701
27758000,0.0324,0.013523,0.002678,0.000431,0.080037
27759000,0.0324,0.013523,0.002678,0.000431,0.004584
27760000,0.0324,0.013523,0.002678,0.000431,0.004701
27761000,0.0324,0.013523,0.002678,0.000431,0.049832
27762000,0.0324,0.013523,0.002678,0.000431,0.004466
27763000,0.0324,0.013523,0.002678,0.000431,0.004701
27764000,0.0324,0.013523,0.002678,0.000431,0.019745
27765000,0.0324,0.013523,0.002678,0.000431,0.004701
27766000,0.0324,0.013523,0.002678,0.000431,0.004466
27767000,0.0324,0.013523,0.002678,0.000431,0.045366
27768000,0.0324,0.013523,0.002678,0.000431,0.046776
27769000,0.0324,0.013523,0.002678,0.000431,0.004701
27770000,0.0324,0.013523,0.002678,0.000431,0.004701
27771000,0.0324,0.013523,0.002678,0.000431,0.144325
27772000,0.0324,0.013523,0.002678,0.000431,0.008462
27773000,0.0324,0.013523,0.002678,0.000431,0.004701
27774000,0.0324,0.013523,0.002678,0.000431,0.012223
27775000,0.0324,0.013523,0.002678,0.000431,0.004701
27776000,0.0324,0.013523,0.002678,0.000431,0.004701
27777000,0.0324,0.013523,0.002678,0.000431,0.004701
27778000,0.0324,0.013523,0.002678,0.000431,0.004701
27779000,0.0324,0.013523,0.002678,0.000431,0.004701
27780000,0.0324,0.013523,0.002678,0.000431,0.039137
27781000,0.0324,0.013523,0.002678,0.000431,0.053005
27782000,0.0324,0.013523,0.002678,0.000431,0.004701
27783000,0.0324,0.013523,0.002678,0.000431,0.012223
27784000,0.0324,0.013523,0.002678,0.000431,0.027149
27785000,0.0324,0.013523,0.002678,0.000431,0.004584
27786000,0.0324,0.013523,0.002678,0.000431,0.004701
27787000,0.0324,0.013523,0.002678,0.000431,0.072867
27788000,0.0324,0.013523,0.002678,0.000431,0.019040
27789000,0.0324,0.013523,0.002678,0.000431,0.004701
27790000,0.0324,0.013523,0.002678,0.000431,0.153609
27791000,0.0324,0.013523,0.002678,0.000431,0.020802
27792000,0.0324,0.013523,0.002678,0.000431,0.004701
27793000,0.0324,0.013523,0.002678,0.000431,0.004701
27794000,0.0324,0.013523,0.002678,0.000431,0.027267
27795000,0.0324,0.013523,0.002678,0.000431,0.004701
27796000,0.0324,0.013523,0.002678,0.000431,0.004701
27797000,0.0324,0.013523,0.002678,0.000431,0.079684
27798000,0.0324,0.013523,0.002678,0.000431,0.004701
27799000,0.0324,0.013523,0.002678,0.000431,0.004701
27800000,0.0324,0.013523,0.002678,0.000431,0.028324
27801000,0.0324,0.013523,0.002678,0.000431,0.041252
27802000,0.0324,0.013523,0.002678,0.000431,0.004466
27803000,0.0324,0.013523,0.002678,0.000431,0.046776
27804000,0.0324,0.013523,0.002678,0.000431,0.007757
27805000,0.0324,0.013523,0.002678,0.000431,0.004701
27806000,0.0324,0.013523,0.002678,0.000431,0.027267
27807000,0.0324,0.013523,0.002678,0.000431,0.027267
27808000,0.0324,0.013523,0.002678,0.000431,0.004701
27809000,0.0324,0.013523,0.002678,0.000431,0.013516
27810000,0.0324,0.013523,0.002678,0.000431,0.041017
27811000,0.0324,0.013523,0.002678,0.000431,0.004701
27812000,0.0324,0.013523,0.002678,0.000431,0.012928
27813000,0.0324,0.013523,0.002678,0.000431,0.065933
27814000,0.0324,0.013523,0.002678,0.000431,0.010460
27815000,0.0324,0.013523,0.002678,0.000431,0.004701
27816000,0.0324,0.013523,0.002678,0.000431,0.121172
27817000,0.0324,0.013523,0.002678,0.000431,0.038197
27818000,0.0324,0.013523,0.002678,0.000431,0.004701
27819000,0.0324,0.013523,0.002678,0.000431,0.034788
27820000,0.0324,0.013523,0.002678,0.000431,0.147145
27821000,0.0324,0.013523,0.002678,0.000431,0.004701
27822000,0.0324,0.013523,0.002678,0.000431,0.004701
27823000,0.0324,0.013523,0.002678,0.000431,0.027267
27824000,0.0324,0.013523,0.002678,0.000431,0.004701
27825000,0.0324,0.013523,0.002678,0.000431,0.013163
27826000,0.0324,0.013523,0.002678,0.000431,0.011165
27827000,0.0324,0.013523,0.002678,0.000431,0.004349
27828000,0.0324,0.013523,0.002678,0.000431,0.004701
27829000,0.0324,0.013523,0.002678,0.000431,0.022448
27830000,0.0324,0.013523,0.002678,0.000431,0.016924
27831000,0.0324,0.013523,0.002678,0.000431,0.004584
27832000,0.0324,0.013523,0.002678,0.000431,0.004701
27833000,0.0324,0.013523,0.002678,0.000431,0.012223
27834000,0.0324,0.013523,0.002678,0.000431,0.004701
27835000,0.0324,0.013523,0.002678,0.000431,0.012223
27836000,0.0324,0.013523,0.002678,0.000431,0.012223
27837000,0.0324,0.013523,0.002678,0.000431,0.004701
27838000,0.0324,0.013523,0.002678,0.000431,0.051242
27839000,0.0324,0.013523,0.002678,0.000431,0.018334
27840000,0.0324,0.013523,0.002678,0.000431,0.019627
27841000,0.0324,0.013523,0.002678,0.000431,0.004584
27842000,0.0324,0.013523,0.002678,0.000431,0.015984
27843000,0.0324,0.013523,0.002678,0.000431,0.008462
27844000,0.0324,0.013523,0.002678,0.000431,0.004701
27845000,0.0324,0.013523,0.002678,0.000431,0.057354
27846000,0.0324,0.013523,0.002678,0.000431,0.034788
27847000,0.0324,0.013523,0.002678,0.000431,0.012223
27848000,0.0324,0.013523,0.002678,0.000431,0.004701
27849000,0.0324,0.013523,0.002678,0.000431,0.019745
27850000,0.0324,0.013523,0.002678,0.000431,0.004701
27851000,0.0324,0.013523,0.002678,0.000431,0.004701
27852000,0.0324,0.013523,0.002678,0.000431,0.004701
27853000,0.0324,0.013523,0.002678,0.000431,0.004701
27854000,0.0324,0.013523,0.002678,0.000431,0.087441
27855000,0.0324,0.013523,0.002678,0.000431,0.012223
27856000,0.0324,0.013523,0.002678,0.000431,0.004701
27857000,0.0324,0.013523,0.002678,0.000431,0.010225
27858000,0.0324,0.013523,0.002678,0.000431,0.081682
27859000,0.0324,0.013523,0.002678,0.000431,0.019745
27860000,0.0324,0.013523,0.002678,0.000431,0.019745
27861000,0.0324,0.013523,0.002678,0.000431,0.004701
27862000,0.0324,0.013523,0.002678,0.000431,0.004701
27863000,0.0324,0.013523,0.002678,0.000431,0.004701
27864000,0.0324,0.013523,0.002678,0.000431,0.004701
27865000,0.0324,0.013523,0.002678,0.000431,0.004701
27866000,0.0324,0.013523,0.002678,0.000431,0.004701
27867000,0.0324,0.013523,0.002678,0.000431,0.004466
27868000,0.0324,0.013523,0.002678,0.000431,0.042310
27869000,0.0324,0.013523,0.002678,0.000431,0.004701
27870000,0.0324,0.013523,0.002678,0.000431,0.012223
27871000,0.0324,0.013523,0.002678,0.000431,0.012223
27872000,0.0324,0.013523,0.002678,0.000431,0.019745
27873000,0.0324,0.013523,0.002678,0.000431,0.089086
27874000,0.0324,0.013523,0.002678,0.000431,0.033378
27875000,0.0324,0.013523,0.002678,0.000431,0.004701
27876000,0.0324,0.013523,0.002678,0.000431,0.004584
27877000,0.0324,0.013523,0.002678,0.000431,0.042193
27878000,0.0324,0.013523,0.002678,0.000431,0.042310
27879000,0.0324,0.013523,0.002678,0.000431,0.004701
27880000,0.0324,0.013523,0.002678,0.000431,0.034671
27881000,0.0324,0.013523,0.002678,0.000431,0.027384
27882000,0.0324,0.013523,0.002678,0.000431,0.004701
27883000,0.0324,0.013523,0.002678,0.000431,0.030557
27884000,0.0324,0.013523,0.002678,0.000431,0.052065
27885000,0.0324,0.013523,0.002678,0.000431,0.037021
27886000,0.0324,0.013523,0.002678,0.000431,0.004701
27887000,0.0324,0.013523,0.002678,0.000431,0.023741
27888000,0.0324,0.013523,0.002678,0.000431,0.068636
27889000,0.0324,0.013523,0.002678,0.000431,0.004466
27890000,0.0324,0.013523,0.002678,0.000431,0.049832
27891000,0.0324,0.013523,0.002678,0.000431,0.042545
27892000,0.0324,0.013523,0.002678,0.000431,0.004701
27893000,0.0324,0.013523,0.002678,0.000431,0.027267
27894000,0.0324,0.013523,0.002678,0.000431,0.027267
27895000,0.0324,0.013523,0.002678,0.000431,0.004701
27896000,0.0324,0.013523,0.002678,0.000431,0.034788
27897000,0.0324,0.013523,0.002678,0.000431,0.010342
27898000,0.0324,0.013523,0.002678,0.000431,0.006582
27899000,0.0324,0.013523,0.002678,0.000431,0.027267
27900000,0.0324,0.013523,0.002678,0.000431,0.046776
27901000,0.0324,0.013523,0.002678,0.000431,0.022800
27902000,0.0324,0.013523,0.002678,0.000431,0.004701
27903000,0.0324,0.013523,0.002678,0.000431,0.004701
27904000,0.0324,0.013523,0.002678,0.000431,0.004701
27905000,0.0324,0.013523,0.002678,0.000431,0.004701
27906000,0.0324,0.013523,0.002678,0.000431,0.008580
27907000,0.0324,0.013523,0.002678,0.000431,0.008345
27908000,0.0324,0.013523,0.002678,0.000431,0.004701
27909000,0.0324,0.013523,0.002678,0.000431,0.034788
27910000,0.0324,0.013523,0.002678,0.000431,0.004701
27911000,0.0324,0.013523,0.002678,0.000431,0.004701
27912000,0.0324,0.013523,0.002678,0.000431,0.004701
27913000,0.0324,0.013523,0.002678,0.000431,0.057354
27914000,0.0324,0.013523,0.002678,0.000431,0.004701
27915000,0.0324,0.013523,0.002678,0.000431,0.008462
27916000,0.0324,0.013523,0.002678,0.000431,0.031027
27917000,0.0324,0.013523,0.002678,0.000431,0.004466
27918000,0.0324,0.013523,0.002678,0.000431,0.117528
27919000,0.0324,0.013523,0.002678,0.000431,0.012223
27920000,0.0324,0.013523,0.002678,0.000431,0.004584
27921000,0.0324,0.013523,0.002678,0.000431,0.004584
27922000,0.0324,0.013523,0.002678,0.000431,0.004701
27923000,0.0324,0.013523,0.002678,0.000431,0.004701
27924000,0.0324,0.013523,0.002678,0.000431,0.008462
27925000,0.0324,0.013523,0.002678,0.000431,0.046071
27926000,0.0324,0.013523,0.002678,0.000431,0.057354
27927000,0.0324,0.013523,0.002678,0.000431,0.004701
27928000,0.0324,0.013523,0.002678,0.000431,0.004701
27929000,0.0324,0.013523,0.002678,0.000431,0.004466
27930000,0.0324,0.013523,0.002678,0.000431,0.004701
27931000,0.0324,0.013523,0.002678,0.000431,0.012223
27932000,0.0324,0.013523,0.002678,0.000431,0.004701
27933000,0.0324,0.013523,0.002678,0.000431,0.004701
27934000,0.0324,0.013523,0.002678,0.000431,0.004701
27935000,0.0324,0.013523,0.002678,0.000431,0.019745
27936000,0.0324,0.013523,0.002678,0.000431,0.004701
27937000,0.0324,0.013523,0.002678,0.000431,0.012223
27938000,0.0324,0.013523,0.002678,0.000431,0.004701
27939000,0.0324,0.013523,0.002678,0.000431,0.050067
27940000,0.0324,0.013523,0.002678,0.000431,0.004701
27941000,0.0324,0.013523,0.002678,0.000431,0.027267
27942000,0.0324,0.013523,0.002678,0.000431,0.004701
27943000,0.0324,0.013523,0.002678,0.000431,0.030910
27944000,0.0324,0.013523,0.002678,0.000431,0.114002
27945000,0.0324,0.013523,0.002678,0.000431,0.012105
27946000,0.0324,0.013523,0.002678,0.000431,0.004701
27947000,0.0324,0.013523,0.002678,0.000431,0.004701
27948000,0.0324,0.013523,0.002678,0.000431,0.004701
27949000,0.0324,0.013523,0.002678,0.000431,0.004701
27950000,0.0324,0.013523,0.002678,0.000431,0.027267
27951000,0.0324,0.013523,0.002678,0.000431,0.004701
27952000,0.0324,0.013523,0.002678,0.000431,0.004701
27953000,0.0324,0.013523,0.002678,0.000431,0.004701
27954000,0.0324,0.013523,0.002678,0.000431,0.070047
27955000,0.0324,0.013523,0.002678,0.000431,0.014338
27956000,0.0324,0.013523,0.002678,0.000431,0.008462
27957000,0.0324,0.013523,0.002678,0.000431,0.053358
27958000,0.0324,0.013523,0.002678,0.000431,0.019745
27959000,0.0324,0.013523,0.002678,0.000431,0.004701
27960000,0.0324,0.013523,0.002678,0.000431,0.005994
27961000,0.0324,0.013523,0.002678,0.000431,0.010695
27962000,0.0324,0.013523,0.002678,0.000431,0.004701
27963000,0.0324,0.013523,0.002678,0.000431,0.031498
27964000,0.0324,0.013523,0.002678,0.000431,0.060409
27965000,0.0324,0.013523,0.002678,0.000431,0.004701
27966000,0.0324,0.013523,0.002678,0.000431,0.004701
27967000,0.0324,0.013523,0.002678,0.000431,0.034788
27968000,0.0324,0.013523,0.002678,0.000431,0.004701
27969000,0.0324,0.013523,0.002678,0.000431,0.004701
27970000,0.0324,0.013523,0.002678,0.000431,0.049832
27971000,0.0324,0.013523,0.002678,0.000431,0.027267
27972000,0.0324,0.013523,0.002678,0.000431,0.004584
27973000,0.0324,0.013523,0.002678,0.000431,0.015866
27974000,0.0324,0.013523,0.002678,0.000431,0.015984
27975000,0.0324,0.013523,0.002678,0.000431,0.004701
27976000,0.0324,0.013523,0.002678,0.000431,0.015984
27977000,0.0324,0.013523,0.002678,0.000431,0.019745
27978000,0.0324,0.013523,0.002678,0.000431,0.008462
27979000,0.0324,0.013523,0.002678,0.000431,0.004701
27980000,0.0324,0.013523,0.002678,0.000431,0.105188
27981000,0.0324,0.013523,0.002678,0.000431,0.009285
27982000,0.0324,0.013523,0.002678,0.000431,0.004701
27983000,0.0324,0.013523,0.002678,0.000431,0.027267
27984000,0.0324,0.013523,0.002678,0.000431,0.004701
27985000,0.0324,0.013523,0.002678,0.000431,0.004701
27986000,0.0324,0.013523,0.002678,0.000431,0.004701
27987000,0.0324,0.013523,0.002678,0.000431,0.004701
27988000,0.0324,0.013523,0.002678,0.000431,0.008345
27989000,0.0324,0.013523,0.002678,0.000431,0.091319
27990000,0.0324,0.013523,0.002678,0.000431,0.004701
27991000,0.0324,0.013523,0.002678,0.000431,0.004701
27992000,0.0324,0.013523,0.002678,0.000431,0.004701
27993000,0.0324,0.013523,0.002678,0.000431,0.027267
27994000,0.0324,0.013523,0.002678,0.000431,0.004701
27995000,0.0324,0.013523,0.002678,0.000431,0.035023
27996000,0.0324,0.013523,0.002678,0.000431,0.007052
27997000,0.0324,0.013523,0.002678,0.000431,0.017394
27998000,0.0324,0.013523,0.002678,0.000431,0.004466
27999000,0.0324,0.013523,0.002678,0.000431,0.023506
