Cycle,Area(mm^2),PeakDynamic(W),SubthresholdLeakage(W),GateLeakage(W),RunTimeDynamic(W)
28000000,0.0324,0.013523,0.002678,0.000431,0.023506
28001000,0.0324,0.013523,0.002678,0.000431,0.008697
28002000,0.0324,0.013523,0.002678,0.000431,0.068166
28003000,0.0324,0.013523,0.002678,0.000431,0.034788
28004000,0.0324,0.013523,0.002678,0.000431,0.004701
28005000,0.0324,0.013523,0.002678,0.000431,0.004701
28006000,0.0324,0.013523,0.002678,0.000431,0.004701
28007000,0.0324,0.013523,0.002678,0.000431,0.004701
28008000,0.0324,0.013523,0.002678,0.000431,0.004701
28009000,0.0324,0.013523,0.002678,0.000431,0.019157
28010000,0.0324,0.013523,0.002678,0.000431,0.042898
28011000,0.0324,0.013523,0.002678,0.000431,0.004701
28012000,0.0324,0.013523,0.002678,0.000431,0.038432
28013000,0.0324,0.013523,0.002678,0.000431,0.015866
28014000,0.0324,0.013523,0.002678,0.000431,0.027972
28015000,0.0324,0.013523,0.002678,0.000431,0.079332
28016000,0.0324,0.013523,0.002678,0.000431,0.027149
28017000,0.0324,0.013523,0.002678,0.000431,0.004701
28018000,0.0324,0.013523,0.002678,0.000431,0.004701
28019000,0.0324,0.013523,0.002678,0.000431,0.019745
28020000,0.0324,0.013523,0.002678,0.000431,0.004701
28021000,0.0324,0.013523,0.002678,0.000431,0.049832
28022000,0.0324,0.013523,0.002678,0.000431,0.012223
28023000,0.0324,0.013523,0.002678,0.000431,0.004701
28024000,0.0324,0.013523,0.002678,0.000431,0.004701
28025000,0.0324,0.013523,0.002678,0.000431,0.019627
28026000,0.0324,0.013523,0.002678,0.000431,0.004819
28027000,0.0324,0.013523,0.002678,0.000431,0.004701
28028000,0.0324,0.013523,0.002678,0.000431,0.004701
28029000,0.0324,0.013523,0.002678,0.000431,0.079919
28030000,0.0324,0.013523,0.002678,0.000431,0.004701
28031000,0.0324,0.013523,0.002678,0.000431,0.008345
28032000,0.0324,0.013523,0.002678,0.000431,0.068754
28033000,0.0324,0.013523,0.002678,0.000431,0.004701
28034000,0.0324,0.013523,0.002678,0.000431,0.018922
28035000,0.0324,0.013523,0.002678,0.000431,0.062878
28036000,0.0324,0.013523,0.002678,0.000431,0.030322
28037000,0.0324,0.013523,0.002678,0.000431,0.004701
28038000,0.0324,0.013523,0.002678,0.000431,0.012223
28039000,0.0324,0.013523,0.002678,0.000431,0.004701
28040000,0.0324,0.013523,0.002678,0.000431,0.012223
28041000,0.0324,0.013523,0.002678,0.000431,0.034788
28042000,0.0324,0.013523,0.002678,0.000431,0.004701
28043000,0.0324,0.013523,0.002678,0.000431,0.035023
28044000,0.0324,0.013523,0.002678,0.000431,0.004701
28045000,0.0324,0.013523,0.002678,0.000431,0.004701
28046000,0.0324,0.013523,0.002678,0.000431,0.009872
28047000,0.0324,0.013523,0.002678,0.000431,0.059939
28048000,0.0324,0.013523,0.002678,0.000431,0.004701
28049000,0.0324,0.013523,0.002678,0.000431,0.027502
28050000,0.0324,0.013523,0.002678,0.000431,0.019510
28051000,0.0324,0.013523,0.002678,0.000431,0.004701
28052000,0.0324,0.013523,0.002678,0.000431,0.004701
28053000,0.0324,0.013523,0.002678,0.000431,0.042310
28054000,0.0324,0.013523,0.002678,0.000431,0.192276
28055000,0.0324,0.013523,0.002678,0.000431,0.019745
28056000,0.0324,0.013523,0.002678,0.000431,0.019392
28057000,0.0324,0.013523,0.002678,0.000431,0.004584
28058000,0.0324,0.013523,0.002678,0.000431,0.004701
28059000,0.0324,0.013523,0.002678,0.000431,0.012223
28060000,0.0324,0.013523,0.002678,0.000431,0.012223
28061000,0.0324,0.013523,0.002678,0.000431,0.004701
28062000,0.0324,0.013523,0.002678,0.000431,0.004584
28063000,0.0324,0.013523,0.002678,0.000431,0.004584
28064000,0.0324,0.013523,0.002678,0.000431,0.019745
28065000,0.0324,0.013523,0.002678,0.000431,0.004701
28066000,0.0324,0.013523,0.002678,0.000431,0.004701
28067000,0.0324,0.013523,0.002678,0.000431,0.004701
28068000,0.0324,0.013523,0.002678,0.000431,0.004701
28069000,0.0324,0.013523,0.002678,0.000431,0.004701
28070000,0.0324,0.013523,0.002678,0.000431,0.027267
28071000,0.0324,0.013523,0.002678,0.000431,0.004701
28072000,0.0324,0.013523,0.002678,0.000431,0.004701
28073000,0.0324,0.013523,0.002678,0.000431,0.008462
28074000,0.0324,0.013523,0.002678,0.000431,0.023506
28075000,0.0324,0.013523,0.002678,0.000431,0.004701
28076000,0.0324,0.013523,0.002678,0.000431,0.004701
28077000,0.0324,0.013523,0.002678,0.000431,0.087441
28078000,0.0324,0.013523,0.002678,0.000431,0.004701
28079000,0.0324,0.013523,0.002678,0.000431,0.004701
28080000,0.0324,0.013523,0.002678,0.000431,0.004701
28081000,0.0324,0.013523,0.002678,0.000431,0.012223
28082000,0.0324,0.013523,0.002678,0.000431,0.012223
28083000,0.0324,0.013523,0.002678,0.000431,0.056061
28084000,0.0324,0.013523,0.002678,0.000431,0.028089
28085000,0.0324,0.013523,0.002678,0.000431,0.012223
28086000,0.0324,0.013523,0.002678,0.000431,0.021978
28087000,0.0324,0.013523,0.002678,0.000431,0.009990
28088000,0.0324,0.013523,0.002678,0.000431,0.004701
28089000,0.0324,0.013523,0.002678,0.000431,0.004701
28090000,0.0324,0.013523,0.002678,0.000431,0.004701
28091000,0.0324,0.013523,0.002678,0.000431,0.004701
28092000,0.0324,0.013523,0.002678,0.000431,0.012223
28093000,0.0324,0.013523,0.002678,0.000431,0.012223
28094000,0.0324,0.013523,0.002678,0.000431,0.008462
28095000,0.0324,0.013523,0.002678,0.000431,0.008462
28096000,0.0324,0.013523,0.002678,0.000431,0.011988
28097000,0.0324,0.013523,0.002678,0.000431,0.004466
28098000,0.0324,0.013523,0.002678,0.000431,0.004701
28099000,0.0324,0.013523,0.002678,0.000431,0.034788
28100000,0.0324,0.013523,0.002678,0.000431,0.004701
28101000,0.0324,0.013523,0.002678,0.000431,0.102955
28102000,0.0324,0.013523,0.002678,0.000431,0.004701
28103000,0.0324,0.013523,0.002678,0.000431,0.027267
28104000,0.0324,0.013523,0.002678,0.000431,0.008462
28105000,0.0324,0.013523,0.002678,0.000431,0.008462
28106000,0.0324,0.013523,0.002678,0.000431,0.004701
28107000,0.0324,0.013523,0.002678,0.000431,0.004701
28108000,0.0324,0.013523,0.002678,0.000431,0.004701
28109000,0.0324,0.013523,0.002678,0.000431,0.004701
28110000,0.0324,0.013523,0.002678,0.000431,0.004701
28111000,0.0324,0.013523,0.002678,0.000431,0.034788
28112000,0.0324,0.013523,0.002678,0.000431,0.034788
28113000,0.0324,0.013523,0.002678,0.000431,0.004701
28114000,0.0324,0.013523,0.002678,0.000431,0.019745
28115000,0.0324,0.013523,0.002678,0.000431,0.004701
28116000,0.0324,0.013523,0.002678,0.000431,0.004701
28117000,0.0324,0.013523,0.002678,0.000431,0.031145
28118000,0.0324,0.013523,0.002678,0.000431,0.033848
28119000,0.0324,0.013523,0.002678,0.000431,0.062290
28120000,0.0324,0.013523,0.002678,0.000431,0.039725
28121000,0.0324,0.013523,0.002678,0.000431,0.007169
28122000,0.0324,0.013523,0.002678,0.000431,0.012105
28123000,0.0324,0.013523,0.002678,0.000431,0.004584
28124000,0.0324,0.013523,0.002678,0.000431,0.057119
28125000,0.0324,0.013523,0.002678,0.000431,0.004701
28126000,0.0324,0.013523,0.002678,0.000431,0.004701
28127000,0.0324,0.013523,0.002678,0.000431,0.019745
28128000,0.0324,0.013523,0.002678,0.000431,0.004701
28129000,0.0324,0.013523,0.002678,0.000431,0.012223
28130000,0.0324,0.013523,0.002678,0.000431,0.004701
28131000,0.0324,0.013523,0.002678,0.000431,0.004701
28132000,0.0324,0.013523,0.002678,0.000431,0.004701
28133000,0.0324,0.013523,0.002678,0.000431,0.034788
28134000,0.0324,0.013523,0.002678,0.000431,0.004701
28135000,0.0324,0.013523,0.002678,0.000431,0.004701
28136000,0.0324,0.013523,0.002678,0.000431,0.004701
28137000,0.0324,0.013523,0.002678,0.000431,0.034553
28138000,0.0324,0.013523,0.002678,0.000431,0.012223
28139000,0.0324,0.013523,0.002678,0.000431,0.012340
28140000,0.0324,0.013523,0.002678,0.000431,0.019862
28141000,0.0324,0.013523,0.002678,0.000431,0.022918
28142000,0.0324,0.013523,0.002678,0.000431,0.009285
28143000,0.0324,0.013523,0.002678,0.000431,0.004701
28144000,0.0324,0.013523,0.002678,0.000431,0.019745
28145000,0.0324,0.013523,0.002678,0.000431,0.004701
28146000,0.0324,0.013523,0.002678,0.000431,0.004701
28147000,0.0324,0.013523,0.002678,0.000431,0.004701
28148000,0.0324,0.013523,0.002678,0.000431,0.004701
28149000,0.0324,0.013523,0.002678,0.000431,0.008462
28150000,0.0324,0.013523,0.002678,0.000431,0.015984
28151000,0.0324,0.013523,0.002678,0.000431,0.042310
28152000,0.0324,0.013523,0.002678,0.000431,0.004701
28153000,0.0324,0.013523,0.002678,0.000431,0.004701
28154000,0.0324,0.013523,0.002678,0.000431,0.076276
28155000,0.0324,0.013523,0.002678,0.000431,0.030440
28156000,0.0324,0.013523,0.002678,0.000431,0.012223
28157000,0.0324,0.013523,0.002678,0.000431,0.065346
28158000,0.0324,0.013523,0.002678,0.000431,0.012105
28159000,0.0324,0.013523,0.002678,0.000431,0.034671
28160000,0.0324,0.013523,0.002678,0.000431,0.004701
28161000,0.0324,0.013523,0.002678,0.000431,0.079684
28162000,0.0324,0.013523,0.002678,0.000431,0.019745
28163000,0.0324,0.013523,0.002678,0.000431,0.019392
28164000,0.0324,0.013523,0.002678,0.000431,0.012105
28165000,0.0324,0.013523,0.002678,0.000431,0.027267
28166000,0.0324,0.013523,0.002678,0.000431,0.012223
28167000,0.0324,0.013523,0.002678,0.000431,0.004701
28168000,0.0324,0.013523,0.002678,0.000431,0.034788
28169000,0.0324,0.013523,0.002678,0.000431,0.031027
28170000,0.0324,0.013523,0.002678,0.000431,0.061115
28171000,0.0324,0.013523,0.002678,0.000431,0.004701
28172000,0.0324,0.013523,0.002678,0.000431,0.004701
28173000,0.0324,0.013523,0.002678,0.000431,0.004701
28174000,0.0324,0.013523,0.002678,0.000431,0.012223
28175000,0.0324,0.013523,0.002678,0.000431,0.004701
28176000,0.0324,0.013523,0.002678,0.000431,0.027267
28177000,0.0324,0.013523,0.002678,0.000431,0.012223
28178000,0.0324,0.013523,0.002678,0.000431,0.019745
28179000,0.0324,0.013523,0.002678,0.000431,0.004701
28180000,0.0324,0.013523,0.002678,0.000431,0.004701
28181000,0.0324,0.013523,0.002678,0.000431,0.004701
28182000,0.0324,0.013523,0.002678,0.000431,0.004584
28183000,0.0324,0.013523,0.002678,0.000431,0.004584
28184000,0.0324,0.013523,0.002678,0.000431,0.004701
28185000,0.0324,0.013523,0.002678,0.000431,0.027267
28186000,0.0324,0.013523,0.002678,0.000431,0.004701
28187000,0.0324,0.013523,0.002678,0.000431,0.004701
28188000,0.0324,0.013523,0.002678,0.000431,0.004701
28189000,0.0324,0.013523,0.002678,0.000431,0.012223
28190000,0.0324,0.013523,0.002678,0.000431,0.004701
28191000,0.0324,0.013523,0.002678,0.000431,0.012223
28192000,0.0324,0.013523,0.002678,0.000431,0.004701
28193000,0.0324,0.013523,0.002678,0.000431,0.004701
28194000,0.0324,0.013523,0.002678,0.000431,0.004701
28195000,0.0324,0.013523,0.002678,0.000431,0.004701
28196000,0.0324,0.013523,0.002678,0.000431,0.034553
28197000,0.0324,0.013523,0.002678,0.000431,0.004701
28198000,0.0324,0.013523,0.002678,0.000431,0.004701
28199000,0.0324,0.013523,0.002678,0.000431,0.004466
28200000,0.0324,0.013523,0.002678,0.000431,0.004701
28201000,0.0324,0.013523,0.002678,0.000431,0.042310
28202000,0.0324,0.013523,0.002678,0.000431,0.004701
28203000,0.0324,0.013523,0.002678,0.000431,0.004349
28204000,0.0324,0.013523,0.002678,0.000431,0.027149
28205000,0.0324,0.013523,0.002678,0.000431,0.004701
28206000,0.0324,0.013523,0.002678,0.000431,0.072397
28207000,0.0324,0.013523,0.002678,0.000431,0.022918
28208000,0.0324,0.013523,0.002678,0.000431,0.046424
28209000,0.0324,0.013523,0.002678,0.000431,0.004701
28210000,0.0324,0.013523,0.002678,0.000431,0.012223
28211000,0.0324,0.013523,0.002678,0.000431,0.004466
28212000,0.0324,0.013523,0.002678,0.000431,0.019862
28213000,0.0324,0.013523,0.002678,0.000431,0.035141
28214000,0.0324,0.013523,0.002678,0.000431,0.019745
28215000,0.0324,0.013523,0.002678,0.000431,0.078039
28216000,0.0324,0.013523,0.002678,0.000431,0.006347
28217000,0.0324,0.013523,0.002678,0.000431,0.012223
28218000,0.0324,0.013523,0.002678,0.000431,0.004701
28219000,0.0324,0.013523,0.002678,0.000431,0.004701
28220000,0.0324,0.013523,0.002678,0.000431,0.004701
28221000,0.0324,0.013523,0.002678,0.000431,0.004701
28222000,0.0324,0.013523,0.002678,0.000431,0.027267
28223000,0.0324,0.013523,0.002678,0.000431,0.034788
28224000,0.0324,0.013523,0.002678,0.000431,0.004701
28225000,0.0324,0.013523,0.002678,0.000431,0.023036
28226000,0.0324,0.013523,0.002678,0.000431,0.008932
28227000,0.0324,0.013523,0.002678,0.000431,0.004701
28228000,0.0324,0.013523,0.002678,0.000431,0.042310
28229000,0.0324,0.013523,0.002678,0.000431,0.012576
28230000,0.0324,0.013523,0.002678,0.000431,0.049479
28231000,0.0324,0.013523,0.002678,0.000431,0.004701
28232000,0.0324,0.013523,0.002678,0.000431,0.012223
28233000,0.0324,0.013523,0.002678,0.000431,0.027267
28234000,0.0324,0.013523,0.002678,0.000431,0.008462
28235000,0.0324,0.013523,0.002678,0.000431,0.008462
28236000,0.0324,0.013523,0.002678,0.000431,0.042310
28237000,0.0324,0.013523,0.002678,0.000431,0.004701
28238000,0.0324,0.013523,0.002678,0.000431,0.011988
28239000,0.0324,0.013523,0.002678,0.000431,0.004466
28240000,0.0324,0.013523,0.002678,0.000431,0.012223
28241000,0.0324,0.013523,0.002678,0.000431,0.012223
28242000,0.0324,0.013523,0.002678,0.000431,0.023858
28243000,0.0324,0.013523,0.002678,0.000431,0.022918
28244000,0.0324,0.013523,0.002678,0.000431,0.004701
28245000,0.0324,0.013523,0.002678,0.000431,0.004701
28246000,0.0324,0.013523,0.002678,0.000431,0.090967
28247000,0.0324,0.013523,0.002678,0.000431,0.008697
28248000,0.0324,0.013523,0.002678,0.000431,0.019745
28249000,0.0324,0.013523,0.002678,0.000431,0.027267
28250000,0.0324,0.013523,0.002678,0.000431,0.004701
28251000,0.0324,0.013523,0.002678,0.000431,0.004701
28252000,0.0324,0.013523,0.002678,0.000431,0.004584
28253000,0.0324,0.013523,0.002678,0.000431,0.042193
28254000,0.0324,0.013523,0.002678,0.000431,0.049949
28255000,0.0324,0.013523,0.002678,0.000431,0.004819
28256000,0.0324,0.013523,0.002678,0.000431,0.004701
28257000,0.0324,0.013523,0.002678,0.000431,0.016571
28258000,0.0324,0.013523,0.002678,0.000431,0.037962
28259000,0.0324,0.013523,0.002678,0.000431,0.008462
28260000,0.0324,0.013523,0.002678,0.000431,0.016219
28261000,0.0324,0.013523,0.002678,0.000431,0.012223
28262000,0.0324,0.013523,0.002678,0.000431,0.034788
28263000,0.0324,0.013523,0.002678,0.000431,0.004701
28264000,0.0324,0.013523,0.002678,0.000431,0.019745
28265000,0.0324,0.013523,0.002678,0.000431,0.008580
28266000,0.0324,0.013523,0.002678,0.000431,0.008580
28267000,0.0324,0.013523,0.002678,0.000431,0.004701
28268000,0.0324,0.013523,0.002678,0.000431,0.012223
28269000,0.0324,0.013523,0.002678,0.000431,0.004701
28270000,0.0324,0.013523,0.002678,0.000431,0.036081
28271000,0.0324,0.013523,0.002678,0.000431,0.086148
28272000,0.0324,0.013523,0.002678,0.000431,0.016571
28273000,0.0324,0.013523,0.002678,0.000431,0.053005
28274000,0.0324,0.013523,0.002678,0.000431,0.004701
28275000,0.0324,0.013523,0.002678,0.000431,0.004701
28276000,0.0324,0.013523,0.002678,0.000431,0.004701
28277000,0.0324,0.013523,0.002678,0.000431,0.019745
28278000,0.0324,0.013523,0.002678,0.000431,0.004701
28279000,0.0324,0.013523,0.002678,0.000431,0.008580
28280000,0.0324,0.013523,0.002678,0.000431,0.015866
28281000,0.0324,0.013523,0.002678,0.000431,0.101309
28282000,0.0324,0.013523,0.002678,0.000431,0.013868
28283000,0.0324,0.013523,0.002678,0.000431,0.009755
28284000,0.0324,0.013523,0.002678,0.000431,0.007169
28285000,0.0324,0.013523,0.002678,0.000431,0.004701
28286000,0.0324,0.013523,0.002678,0.000431,0.034553
28287000,0.0324,0.013523,0.002678,0.000431,0.012223
28288000,0.0324,0.013523,0.002678,0.000431,0.012223
28289000,0.0324,0.013523,0.002678,0.000431,0.004701
28290000,0.0324,0.013523,0.002678,0.000431,0.004701
28291000,0.0324,0.013523,0.002678,0.000431,0.019745
28292000,0.0324,0.013523,0.002678,0.000431,0.004584
28293000,0.0324,0.013523,0.002678,0.000431,0.004349
28294000,0.0324,0.013523,0.002678,0.000431,0.004701
28295000,0.0324,0.013523,0.002678,0.000431,0.004701
28296000,0.0324,0.013523,0.002678,0.000431,0.019745
28297000,0.0324,0.013523,0.002678,0.000431,0.004701
28298000,0.0324,0.013523,0.002678,0.000431,0.064876
28299000,0.0324,0.013523,0.002678,0.000431,0.004701
28300000,0.0324,0.013523,0.002678,0.000431,0.025739
28301000,0.0324,0.013523,0.002678,0.000431,0.006229
28302000,0.0324,0.013523,0.002678,0.000431,0.004701
28303000,0.0324,0.013523,0.002678,0.000431,0.012223
28304000,0.0324,0.013523,0.002678,0.000431,0.049832
28305000,0.0324,0.013523,0.002678,0.000431,0.004701
28306000,0.0324,0.013523,0.002678,0.000431,0.004701
28307000,0.0324,0.013523,0.002678,0.000431,0.019745
28308000,0.0324,0.013523,0.002678,0.000431,0.004701
28309000,0.0324,0.013523,0.002678,0.000431,0.012223
28310000,0.0324,0.013523,0.002678,0.000431,0.013633
28311000,0.0324,0.013523,0.002678,0.000431,0.018334
28312000,0.0324,0.013523,0.002678,0.000431,0.004701
28313000,0.0324,0.013523,0.002678,0.000431,0.010578
28314000,0.0324,0.013523,0.002678,0.000431,0.006347
28315000,0.0324,0.013523,0.002678,0.000431,0.008462
28316000,0.0324,0.013523,0.002678,0.000431,0.008462
28317000,0.0324,0.013523,0.002678,0.000431,0.049832
28318000,0.0324,0.013523,0.002678,0.000431,0.069107
28319000,0.0324,0.013523,0.002678,0.000431,0.008462
28320000,0.0324,0.013523,0.002678,0.000431,0.004584
28321000,0.0324,0.013523,0.002678,0.000431,0.004584
28322000,0.0324,0.013523,0.002678,0.000431,0.004701
28323000,0.0324,0.013523,0.002678,0.000431,0.004584
28324000,0.0324,0.013523,0.002678,0.000431,0.004584
28325000,0.0324,0.013523,0.002678,0.000431,0.027502
28326000,0.0324,0.013523,0.002678,0.000431,0.042428
28327000,0.0324,0.013523,0.002678,0.000431,0.004584
28328000,0.0324,0.013523,0.002678,0.000431,0.015984
28329000,0.0324,0.013523,0.002678,0.000431,0.015984
28330000,0.0324,0.013523,0.002678,0.000431,0.004701
28331000,0.0324,0.013523,0.002678,0.000431,0.004701
28332000,0.0324,0.013523,0.002678,0.000431,0.012105
28333000,0.0324,0.013523,0.002678,0.000431,0.012105
28334000,0.0324,0.013523,0.002678,0.000431,0.004701
28335000,0.0324,0.013523,0.002678,0.000431,0.004701
28336000,0.0324,0.013523,0.002678,0.000431,0.019745
28337000,0.0324,0.013523,0.002678,0.000431,0.015984
28338000,0.0324,0.013523,0.002678,0.000431,0.015984
28339000,0.0324,0.013523,0.002678,0.000431,0.049832
28340000,0.0324,0.013523,0.002678,0.000431,0.004701
28341000,0.0324,0.013523,0.002678,0.000431,0.004701
28342000,0.0324,0.013523,0.002678,0.000431,0.004701
28343000,0.0324,0.013523,0.002678,0.000431,0.034788
28344000,0.0324,0.013523,0.002678,0.000431,0.004701
28345000,0.0324,0.013523,0.002678,0.000431,0.023506
28346000,0.0324,0.013523,0.002678,0.000431,0.008462
28347000,0.0324,0.013523,0.002678,0.000431,0.004701
28348000,0.0324,0.013523,0.002678,0.000431,0.072397
28349000,0.0324,0.013523,0.002678,0.000431,0.049832
28350000,0.0324,0.013523,0.002678,0.000431,0.025856
28351000,0.0324,0.013523,0.002678,0.000431,0.013633
28352000,0.0324,0.013523,0.002678,0.000431,0.050067
28353000,0.0324,0.013523,0.002678,0.000431,0.004701
28354000,0.0324,0.013523,0.002678,0.000431,0.004701
28355000,0.0324,0.013523,0.002678,0.000431,0.004701
28356000,0.0324,0.013523,0.002678,0.000431,0.004701
28357000,0.0324,0.013523,0.002678,0.000431,0.034788
28358000,0.0324,0.013523,0.002678,0.000431,0.019745
28359000,0.0324,0.013523,0.002678,0.000431,0.004701
28360000,0.0324,0.013523,0.002678,0.000431,0.008462
28361000,0.0324,0.013523,0.002678,0.000431,0.015749
28362000,0.0324,0.013523,0.002678,0.000431,0.012223
28363000,0.0324,0.013523,0.002678,0.000431,0.019627
28364000,0.0324,0.013523,0.002678,0.000431,0.004584
28365000,0.0324,0.013523,0.002678,0.000431,0.004701
28366000,0.0324,0.013523,0.002678,0.000431,0.004584
28367000,0.0324,0.013523,0.002678,0.000431,0.019627
28368000,0.0324,0.013523,0.002678,0.000431,0.004701
28369000,0.0324,0.013523,0.002678,0.000431,0.004701
28370000,0.0324,0.013523,0.002678,0.000431,0.004701
28371000,0.0324,0.013523,0.002678,0.000431,0.004701
28372000,0.0324,0.013523,0.002678,0.000431,0.004584
28373000,0.0324,0.013523,0.002678,0.000431,0.004584
28374000,0.0324,0.013523,0.002678,0.000431,0.012223
28375000,0.0324,0.013523,0.002678,0.000431,0.012223
28376000,0.0324,0.013523,0.002678,0.000431,0.027267
28377000,0.0324,0.013523,0.002678,0.000431,0.008462
28378000,0.0324,0.013523,0.002678,0.000431,0.008462
28379000,0.0324,0.013523,0.002678,0.000431,0.004701
28380000,0.0324,0.013523,0.002678,0.000431,0.012223
28381000,0.0324,0.013523,0.002678,0.000431,0.034788
28382000,0.0324,0.013523,0.002678,0.000431,0.004701
28383000,0.0324,0.013523,0.002678,0.000431,0.019745
28384000,0.0324,0.013523,0.002678,0.000431,0.057589
28385000,0.0324,0.013523,0.002678,0.000431,0.004701
28386000,0.0324,0.013523,0.002678,0.000431,0.012223
28387000,0.0324,0.013523,0.002678,0.000431,0.012223
28388000,0.0324,0.013523,0.002678,0.000431,0.034788
28389000,0.0324,0.013523,0.002678,0.000431,0.034788
28390000,0.0324,0.013523,0.002678,0.000431,0.004701
28391000,0.0324,0.013523,0.002678,0.000431,0.012223
28392000,0.0324,0.013523,0.002678,0.000431,0.004701
28393000,0.0324,0.013523,0.002678,0.000431,0.034788
28394000,0.0324,0.013523,0.002678,0.000431,0.004701
28395000,0.0324,0.013523,0.002678,0.000431,0.004701
28396000,0.0324,0.013523,0.002678,0.000431,0.004701
28397000,0.0324,0.013523,0.002678,0.000431,0.004701
28398000,0.0324,0.013523,0.002678,0.000431,0.004701
28399000,0.0324,0.013523,0.002678,0.000431,0.019745
28400000,0.0324,0.013523,0.002678,0.000431,0.004701
28401000,0.0324,0.013523,0.002678,0.000431,0.034553
28402000,0.0324,0.013523,0.002678,0.000431,0.019745
28403000,0.0324,0.013523,0.002678,0.000431,0.064405
28404000,0.0324,0.013523,0.002678,0.000431,0.004701
28405000,0.0324,0.013523,0.002678,0.000431,0.008815
28406000,0.0324,0.013523,0.002678,0.000431,0.053123
28407000,0.0324,0.013523,0.002678,0.000431,0.012105
28408000,0.0324,0.013523,0.002678,0.000431,0.019745
28409000,0.0324,0.013523,0.002678,0.000431,0.004701
28410000,0.0324,0.013523,0.002678,0.000431,0.004701
28411000,0.0324,0.013523,0.002678,0.000431,0.004701
28412000,0.0324,0.013523,0.002678,0.000431,0.004701
28413000,0.0324,0.013523,0.002678,0.000431,0.004466
28414000,0.0324,0.013523,0.002678,0.000431,0.012223
28415000,0.0324,0.013523,0.002678,0.000431,0.034788
28416000,0.0324,0.013523,0.002678,0.000431,0.004701
28417000,0.0324,0.013523,0.002678,0.000431,0.004701
28418000,0.0324,0.013523,0.002678,0.000431,0.024211
28419000,0.0324,0.013523,0.002678,0.000431,0.105305
28420000,0.0324,0.013523,0.002678,0.000431,0.049832
28421000,0.0324,0.013523,0.002678,0.000431,0.004701
28422000,0.0324,0.013523,0.002678,0.000431,0.004701
28423000,0.0324,0.013523,0.002678,0.000431,0.004701
28424000,0.0324,0.013523,0.002678,0.000431,0.004701
28425000,0.0324,0.013523,0.002678,0.000431,0.004701
28426000,0.0324,0.013523,0.002678,0.000431,0.019745
28427000,0.0324,0.013523,0.002678,0.000431,0.004701
28428000,0.0324,0.013523,0.002678,0.000431,0.032203
28429000,0.0324,0.013523,0.002678,0.000431,0.014691
28430000,0.0324,0.013523,0.002678,0.000431,0.004584
28431000,0.0324,0.013523,0.002678,0.000431,0.004701
28432000,0.0324,0.013523,0.002678,0.000431,0.012223
28433000,0.0324,0.013523,0.002678,0.000431,0.027267
28434000,0.0324,0.013523,0.002678,0.000431,0.049597
28435000,0.0324,0.013523,0.002678,0.000431,0.004701
28436000,0.0324,0.013523,0.002678,0.000431,0.004701
28437000,0.0324,0.013523,0.002678,0.000431,0.004701
28438000,0.0324,0.013523,0.002678,0.000431,0.004701
28439000,0.0324,0.013523,0.002678,0.000431,0.050302
28440000,0.0324,0.013523,0.002678,0.000431,0.031027
28441000,0.0324,0.013523,0.002678,0.000431,0.022800
28442000,0.0324,0.013523,0.002678,0.000431,0.012223
28443000,0.0324,0.013523,0.002678,0.000431,0.004584
28444000,0.0324,0.013523,0.002678,0.000431,0.004584
28445000,0.0324,0.013523,0.002678,0.000431,0.071692
28446000,0.0324,0.013523,0.002678,0.000431,0.142797
28447000,0.0324,0.013523,0.002678,0.000431,0.055591
28448000,0.0324,0.013523,0.002678,0.000431,0.039960
28449000,0.0324,0.013523,0.002678,0.000431,0.007052
28450000,0.0324,0.013523,0.002678,0.000431,0.004701
28451000,0.0324,0.013523,0.002678,0.000431,0.011400
28452000,0.0324,0.013523,0.002678,0.000431,0.020332
28453000,0.0324,0.013523,0.002678,0.000431,0.064876
28454000,0.0324,0.013523,0.002678,0.000431,0.012223
28455000,0.0324,0.013523,0.002678,0.000431,0.049832
28456000,0.0324,0.013523,0.002678,0.000431,0.004701
28457000,0.0324,0.013523,0.002678,0.000431,0.004701
28458000,0.0324,0.013523,0.002678,0.000431,0.019745
28459000,0.0324,0.013523,0.002678,0.000431,0.004701
28460000,0.0324,0.013523,0.002678,0.000431,0.034788
28461000,0.0324,0.013523,0.002678,0.000431,0.064876
28462000,0.0324,0.013523,0.002678,0.000431,0.004701
28463000,0.0324,0.013523,0.002678,0.000431,0.004701
28464000,0.0324,0.013523,0.002678,0.000431,0.004701
28465000,0.0324,0.013523,0.002678,0.000431,0.004701
28466000,0.0324,0.013523,0.002678,0.000431,0.039725
28467000,0.0324,0.013523,0.002678,0.000431,0.062407
28468000,0.0324,0.013523,0.002678,0.000431,0.024798
28469000,0.0324,0.013523,0.002678,0.000431,0.004701
28470000,0.0324,0.013523,0.002678,0.000431,0.004466
28471000,0.0324,0.013523,0.002678,0.000431,0.042310
28472000,0.0324,0.013523,0.002678,0.000431,0.016807
28473000,0.0324,0.013523,0.002678,0.000431,0.060057
28474000,0.0324,0.013523,0.002678,0.000431,0.042310
28475000,0.0324,0.013523,0.002678,0.000431,0.004701
28476000,0.0324,0.013523,0.002678,0.000431,0.004701
28477000,0.0324,0.013523,0.002678,0.000431,0.049597
28478000,0.0324,0.013523,0.002678,0.000431,0.012458
28479000,0.0324,0.013523,0.002678,0.000431,0.064876
28480000,0.0324,0.013523,0.002678,0.000431,0.019040
28481000,0.0324,0.013523,0.002678,0.000431,0.020685
28482000,0.0324,0.013523,0.002678,0.000431,0.004701
28483000,0.0324,0.013523,0.002678,0.000431,0.004466
28484000,0.0324,0.013523,0.002678,0.000431,0.019745
28485000,0.0324,0.013523,0.002678,0.000431,0.027267
28486000,0.0324,0.013523,0.002678,0.000431,0.004701
28487000,0.0324,0.013523,0.002678,0.000431,0.004701
28488000,0.0324,0.013523,0.002678,0.000431,0.004701
28489000,0.0324,0.013523,0.002678,0.000431,0.004701
28490000,0.0324,0.013523,0.002678,0.000431,0.012223
28491000,0.0324,0.013523,0.002678,0.000431,0.063935
28492000,0.0324,0.013523,0.002678,0.000431,0.043250
28493000,0.0324,0.013523,0.002678,0.000431,0.023036
28494000,0.0324,0.013523,0.002678,0.000431,0.008932
28495000,0.0324,0.013523,0.002678,0.000431,0.004701
28496000,0.0324,0.013523,0.002678,0.000431,0.004701
28497000,0.0324,0.013523,0.002678,0.000431,0.004701
28498000,0.0324,0.013523,0.002678,0.000431,0.042075
28499000,0.0324,0.013523,0.002678,0.000431,0.004701
28500000,0.0324,0.013523,0.002678,0.000431,0.094728
28501000,0.0324,0.013523,0.002678,0.000431,0.004701
28502000,0.0324,0.013523,0.002678,0.000431,0.004701
28503000,0.0324,0.013523,0.002678,0.000431,0.004701
28504000,0.0324,0.013523,0.002678,0.000431,0.011988
28505000,0.0324,0.013523,0.002678,0.000431,0.019510
28506000,0.0324,0.013523,0.002678,0.000431,0.041135
28507000,0.0324,0.013523,0.002678,0.000431,0.043485
28508000,0.0324,0.013523,0.002678,0.000431,0.004701
28509000,0.0324,0.013523,0.002678,0.000431,0.024798
28510000,0.0324,0.013523,0.002678,0.000431,0.082387
28511000,0.0324,0.013523,0.002678,0.000431,0.102485
28512000,0.0324,0.013523,0.002678,0.000431,0.004701
28513000,0.0324,0.013523,0.002678,0.000431,0.049597
28514000,0.0324,0.013523,0.002678,0.000431,0.004701
28515000,0.0324,0.013523,0.002678,0.000431,0.004584
28516000,0.0324,0.013523,0.002678,0.000431,0.012105
28517000,0.0324,0.013523,0.002678,0.000431,0.027502
28518000,0.0324,0.013523,0.002678,0.000431,0.004701
28519000,0.0324,0.013523,0.002678,0.000431,0.012223
28520000,0.0324,0.013523,0.002678,0.000431,0.004466
28521000,0.0324,0.013523,0.002678,0.000431,0.004701
28522000,0.0324,0.013523,0.002678,0.000431,0.004701
28523000,0.0324,0.013523,0.002678,0.000431,0.081330
28524000,0.0324,0.013523,0.002678,0.000431,0.063465
28525000,0.0324,0.013523,0.002678,0.000431,0.004701
28526000,0.0324,0.013523,0.002678,0.000431,0.027267
28527000,0.0324,0.013523,0.002678,0.000431,0.004701
28528000,0.0324,0.013523,0.002678,0.000431,0.004701
28529000,0.0324,0.013523,0.002678,0.000431,0.012223
28530000,0.0324,0.013523,0.002678,0.000431,0.027267
28531000,0.0324,0.013523,0.002678,0.000431,0.027267
28532000,0.0324,0.013523,0.002678,0.000431,0.042310
28533000,0.0324,0.013523,0.002678,0.000431,0.004701
28534000,0.0324,0.013523,0.002678,0.000431,0.004701
28535000,0.0324,0.013523,0.002678,0.000431,0.012223
28536000,0.0324,0.013523,0.002678,0.000431,0.004701
28537000,0.0324,0.013523,0.002678,0.000431,0.027267
28538000,0.0324,0.013523,0.002678,0.000431,0.014573
28539000,0.0324,0.013523,0.002678,0.000431,0.040665
28540000,0.0324,0.013523,0.002678,0.000431,0.004466
28541000,0.0324,0.013523,0.002678,0.000431,0.027267
28542000,0.0324,0.013523,0.002678,0.000431,0.004701
28543000,0.0324,0.013523,0.002678,0.000431,0.004701
28544000,0.0324,0.013523,0.002678,0.000431,0.004701
28545000,0.0324,0.013523,0.002678,0.000431,0.004701
28546000,0.0324,0.013523,0.002678,0.000431,0.004701
28547000,0.0324,0.013523,0.002678,0.000431,0.007992
28548000,0.0324,0.013523,0.002678,0.000431,0.046541
28549000,0.0324,0.013523,0.002678,0.000431,0.012223
28550000,0.0324,0.013523,0.002678,0.000431,0.057354
28551000,0.0324,0.013523,0.002678,0.000431,0.004701
28552000,0.0324,0.013523,0.002678,0.000431,0.012223
28553000,0.0324,0.013523,0.002678,0.000431,0.004584
28554000,0.0324,0.013523,0.002678,0.000431,0.019627
28555000,0.0324,0.013523,0.002678,0.000431,0.014573
28556000,0.0324,0.013523,0.002678,0.000431,0.053358
28557000,0.0324,0.013523,0.002678,0.000431,0.021155
28558000,0.0324,0.013523,0.002678,0.000431,0.019745
28559000,0.0324,0.013523,0.002678,0.000431,0.004701
28560000,0.0324,0.013523,0.002678,0.000431,0.004701
28561000,0.0324,0.013523,0.002678,0.000431,0.004701
28562000,0.0324,0.013523,0.002678,0.000431,0.004701
28563000,0.0324,0.013523,0.002678,0.000431,0.034788
28564000,0.0324,0.013523,0.002678,0.000431,0.015984
28565000,0.0324,0.013523,0.002678,0.000431,0.015984
28566000,0.0324,0.013523,0.002678,0.000431,0.004701
28567000,0.0324,0.013523,0.002678,0.000431,0.019745
28568000,0.0324,0.013523,0.002678,0.000431,0.019745
28569000,0.0324,0.013523,0.002678,0.000431,0.019745
28570000,0.0324,0.013523,0.002678,0.000431,0.004701
28571000,0.0324,0.013523,0.002678,0.000431,0.004701
28572000,0.0324,0.013523,0.002678,0.000431,0.004701
28573000,0.0324,0.013523,0.002678,0.000431,0.004701
28574000,0.0324,0.013523,0.002678,0.000431,0.004701
28575000,0.0324,0.013523,0.002678,0.000431,0.004701
28576000,0.0324,0.013523,0.002678,0.000431,0.019745
28577000,0.0324,0.013523,0.002678,0.000431,0.004701
28578000,0.0324,0.013523,0.002678,0.000431,0.004701
28579000,0.0324,0.013523,0.002678,0.000431,0.004701
28580000,0.0324,0.013523,0.002678,0.000431,0.027267
28581000,0.0324,0.013523,0.002678,0.000431,0.060880
28582000,0.0324,0.013523,0.002678,0.000431,0.068284
28583000,0.0324,0.013523,0.002678,0.000431,0.019862
28584000,0.0324,0.013523,0.002678,0.000431,0.065346
28585000,0.0324,0.013523,0.002678,0.000431,0.004701
28586000,0.0324,0.013523,0.002678,0.000431,0.034788
28587000,0.0324,0.013523,0.002678,0.000431,0.004701
28588000,0.0324,0.013523,0.002678,0.000431,0.004701
28589000,0.0324,0.013523,0.002678,0.000431,0.012223
28590000,0.0324,0.013523,0.002678,0.000431,0.012223
28591000,0.0324,0.013523,0.002678,0.000431,0.004701
28592000,0.0324,0.013523,0.002678,0.000431,0.005171
28593000,0.0324,0.013523,0.002678,0.000431,0.049244
28594000,0.0324,0.013523,0.002678,0.000431,0.076981
28595000,0.0324,0.013523,0.002678,0.000431,0.029852
28596000,0.0324,0.013523,0.002678,0.000431,0.011988
28597000,0.0324,0.013523,0.002678,0.000431,0.004701
28598000,0.0324,0.013523,0.002678,0.000431,0.004701
28599000,0.0324,0.013523,0.002678,0.000431,0.034788
28600000,0.0324,0.013523,0.002678,0.000431,0.004584
28601000,0.0324,0.013523,0.002678,0.000431,0.072750
28602000,0.0324,0.013523,0.002678,0.000431,0.019745
28603000,0.0324,0.013523,0.002678,0.000431,0.019745
28604000,0.0324,0.013523,0.002678,0.000431,0.004701
28605000,0.0324,0.013523,0.002678,0.000431,0.019745
28606000,0.0324,0.013523,0.002678,0.000431,0.049832
28607000,0.0324,0.013523,0.002678,0.000431,0.004701
28608000,0.0324,0.013523,0.002678,0.000431,0.050067
28609000,0.0324,0.013523,0.002678,0.000431,0.042310
28610000,0.0324,0.013523,0.002678,0.000431,0.004701
28611000,0.0324,0.013523,0.002678,0.000431,0.004701
28612000,0.0324,0.013523,0.002678,0.000431,0.034788
28613000,0.0324,0.013523,0.002678,0.000431,0.005876
28614000,0.0324,0.013523,0.002678,0.000431,0.063700
28615000,0.0324,0.013523,0.002678,0.000431,0.027737
28616000,0.0324,0.013523,0.002678,0.000431,0.034083
28617000,0.0324,0.013523,0.002678,0.000431,0.004701
28618000,0.0324,0.013523,0.002678,0.000431,0.004701
28619000,0.0324,0.013523,0.002678,0.000431,0.012223
28620000,0.0324,0.013523,0.002678,0.000431,0.004701
28621000,0.0324,0.013523,0.002678,0.000431,0.019510
28622000,0.0324,0.013523,0.002678,0.000431,0.004701
28623000,0.0324,0.013523,0.002678,0.000431,0.004701
28624000,0.0324,0.013523,0.002678,0.000431,0.004701
28625000,0.0324,0.013523,0.002678,0.000431,0.019745
28626000,0.0324,0.013523,0.002678,0.000431,0.031027
28627000,0.0324,0.013523,0.002678,0.000431,0.104835
28628000,0.0324,0.013523,0.002678,0.000431,0.024916
28629000,0.0324,0.013523,0.002678,0.000431,0.031027
28630000,0.0324,0.013523,0.002678,0.000431,0.004701
28631000,0.0324,0.013523,0.002678,0.000431,0.004701
28632000,0.0324,0.013523,0.002678,0.000431,0.012223
28633000,0.0324,0.013523,0.002678,0.000431,0.004701
28634000,0.0324,0.013523,0.002678,0.000431,0.110006
28635000,0.0324,0.013523,0.002678,0.000431,0.034788
28636000,0.0324,0.013523,0.002678,0.000431,0.004466
28637000,0.0324,0.013523,0.002678,0.000431,0.004701
28638000,0.0324,0.013523,0.002678,0.000431,0.036669
28639000,0.0324,0.013523,0.002678,0.000431,0.010342
28640000,0.0324,0.013523,0.002678,0.000431,0.012223
28641000,0.0324,0.013523,0.002678,0.000431,0.004466
28642000,0.0324,0.013523,0.002678,0.000431,0.004701
28643000,0.0324,0.013523,0.002678,0.000431,0.004701
28644000,0.0324,0.013523,0.002678,0.000431,0.004701
28645000,0.0324,0.013523,0.002678,0.000431,0.094728
28646000,0.0324,0.013523,0.002678,0.000431,0.063348
28647000,0.0324,0.013523,0.002678,0.000431,0.028794
28648000,0.0324,0.013523,0.002678,0.000431,0.027972
28649000,0.0324,0.013523,0.002678,0.000431,0.026561
28650000,0.0324,0.013523,0.002678,0.000431,0.004701
28651000,0.0324,0.013523,0.002678,0.000431,0.004701
28652000,0.0324,0.013523,0.002678,0.000431,0.004701
28653000,0.0324,0.013523,0.002678,0.000431,0.049832
28654000,0.0324,0.013523,0.002678,0.000431,0.004701
28655000,0.0324,0.013523,0.002678,0.000431,0.135745
28656000,0.0324,0.013523,0.002678,0.000431,0.031262
28657000,0.0324,0.013523,0.002678,0.000431,0.004584
28658000,0.0324,0.013523,0.002678,0.000431,0.049832
28659000,0.0324,0.013523,0.002678,0.000431,0.017159
28660000,0.0324,0.013523,0.002678,0.000431,0.029852
28661000,0.0324,0.013523,0.002678,0.000431,0.012223
28662000,0.0324,0.013523,0.002678,0.000431,0.019510
28663000,0.0324,0.013523,0.002678,0.000431,0.004466
28664000,0.0324,0.013523,0.002678,0.000431,0.004701
28665000,0.0324,0.013523,0.002678,0.000431,0.004701
28666000,0.0324,0.013523,0.002678,0.000431,0.042310
28667000,0.0324,0.013523,0.002678,0.000431,0.004701
28668000,0.0324,0.013523,0.002678,0.000431,0.019745
28669000,0.0324,0.013523,0.002678,0.000431,0.004701
28670000,0.0324,0.013523,0.002678,0.000431,0.004701
28671000,0.0324,0.013523,0.002678,0.000431,0.012223
28672000,0.0324,0.013523,0.002678,0.000431,0.078861
28673000,0.0324,0.013523,0.002678,0.000431,0.028324
28674000,0.0324,0.013523,0.002678,0.000431,0.004701
28675000,0.0324,0.013523,0.002678,0.000431,0.004701
28676000,0.0324,0.013523,0.002678,0.000431,0.004701
28677000,0.0324,0.013523,0.002678,0.000431,0.004584
28678000,0.0324,0.013523,0.002678,0.000431,0.004584
28679000,0.0324,0.013523,0.002678,0.000431,0.049832
28680000,0.0324,0.013523,0.002678,0.000431,0.004701
28681000,0.0324,0.013523,0.002678,0.000431,0.012223
28682000,0.0324,0.013523,0.002678,0.000431,0.004701
28683000,0.0324,0.013523,0.002678,0.000431,0.004701
28684000,0.0324,0.013523,0.002678,0.000431,0.125168
28685000,0.0324,0.013523,0.002678,0.000431,0.071575
28686000,0.0324,0.013523,0.002678,0.000431,0.004701
28687000,0.0324,0.013523,0.002678,0.000431,0.033378
28688000,0.0324,0.013523,0.002678,0.000431,0.006111
28689000,0.0324,0.013523,0.002678,0.000431,0.004701
28690000,0.0324,0.013523,0.002678,0.000431,0.004701
28691000,0.0324,0.013523,0.002678,0.000431,0.049832
28692000,0.0324,0.013523,0.002678,0.000431,0.012223
28693000,0.0324,0.013523,0.002678,0.000431,0.004701
28694000,0.0324,0.013523,0.002678,0.000431,0.034788
28695000,0.0324,0.013523,0.002678,0.000431,0.004701
28696000,0.0324,0.013523,0.002678,0.000431,0.004584
28697000,0.0324,0.013523,0.002678,0.000431,0.004584
28698000,0.0324,0.013523,0.002678,0.000431,0.019745
28699000,0.0324,0.013523,0.002678,0.000431,0.004701
28700000,0.0324,0.013523,0.002678,0.000431,0.019745
28701000,0.0324,0.013523,0.002678,0.000431,0.004701
28702000,0.0324,0.013523,0.002678,0.000431,0.004466
28703000,0.0324,0.013523,0.002678,0.000431,0.042310
28704000,0.0324,0.013523,0.002678,0.000431,0.057589
28705000,0.0324,0.013523,0.002678,0.000431,0.019745
28706000,0.0324,0.013523,0.002678,0.000431,0.004701
28707000,0.0324,0.013523,0.002678,0.000431,0.004701
28708000,0.0324,0.013523,0.002678,0.000431,0.004701
28709000,0.0324,0.013523,0.002678,0.000431,0.019745
28710000,0.0324,0.013523,0.002678,0.000431,0.012223
28711000,0.0324,0.013523,0.002678,0.000431,0.102485
28712000,0.0324,0.013523,0.002678,0.000431,0.004584
28713000,0.0324,0.013523,0.002678,0.000431,0.034436
28714000,0.0324,0.013523,0.002678,0.000431,0.004701
28715000,0.0324,0.013523,0.002678,0.000431,0.004701
28716000,0.0324,0.013523,0.002678,0.000431,0.004701
28717000,0.0324,0.013523,0.002678,0.000431,0.041252
28718000,0.0324,0.013523,0.002678,0.000431,0.076981
28719000,0.0324,0.013523,0.002678,0.000431,0.008462
28720000,0.0324,0.013523,0.002678,0.000431,0.019745
28721000,0.0324,0.013523,0.002678,0.000431,0.004701
28722000,0.0324,0.013523,0.002678,0.000431,0.008345
28723000,0.0324,0.013523,0.002678,0.000431,0.008345
28724000,0.0324,0.013523,0.002678,0.000431,0.087441
28725000,0.0324,0.013523,0.002678,0.000431,0.012223
28726000,0.0324,0.013523,0.002678,0.000431,0.110006
28727000,0.0324,0.013523,0.002678,0.000431,0.004701
28728000,0.0324,0.013523,0.002678,0.000431,0.008462
28729000,0.0324,0.013523,0.002678,0.000431,0.023741
28730000,0.0324,0.013523,0.002678,0.000431,0.011988
28731000,0.0324,0.013523,0.002678,0.000431,0.004701
28732000,0.0324,0.013523,0.002678,0.000431,0.015396
28733000,0.0324,0.013523,0.002678,0.000431,0.009050
28734000,0.0324,0.013523,0.002678,0.000431,0.004701
28735000,0.0324,0.013523,0.002678,0.000431,0.024093
28736000,0.0324,0.013523,0.002678,0.000431,0.015514
28737000,0.0324,0.013523,0.002678,0.000431,0.057236
28738000,0.0324,0.013523,0.002678,0.000431,0.004466
28739000,0.0324,0.013523,0.002678,0.000431,0.004701
28740000,0.0324,0.013523,0.002678,0.000431,0.004701
28741000,0.0324,0.013523,0.002678,0.000431,0.040077
28742000,0.0324,0.013523,0.002678,0.000431,0.044543
28743000,0.0324,0.013523,0.002678,0.000431,0.004819
28744000,0.0324,0.013523,0.002678,0.000431,0.027384
28745000,0.0324,0.013523,0.002678,0.000431,0.008462
28746000,0.0324,0.013523,0.002678,0.000431,0.008462
28747000,0.0324,0.013523,0.002678,0.000431,0.004701
28748000,0.0324,0.013523,0.002678,0.000431,0.019980
28749000,0.0324,0.013523,0.002678,0.000431,0.004701
28750000,0.0324,0.013523,0.002678,0.000431,0.004701
28751000,0.0324,0.013523,0.002678,0.000431,0.004701
28752000,0.0324,0.013523,0.002678,0.000431,0.004701
28753000,0.0324,0.013523,0.002678,0.000431,0.004701
28754000,0.0324,0.013523,0.002678,0.000431,0.004701
28755000,0.0324,0.013523,0.002678,0.000431,0.004701
28756000,0.0324,0.013523,0.002678,0.000431,0.012458
28757000,0.0324,0.013523,0.002678,0.000431,0.004701
28758000,0.0324,0.013523,0.002678,0.000431,0.027267
28759000,0.0324,0.013523,0.002678,0.000431,0.004701
28760000,0.0324,0.013523,0.002678,0.000431,0.004701
28761000,0.0324,0.013523,0.002678,0.000431,0.034788
28762000,0.0324,0.013523,0.002678,0.000431,0.004584
28763000,0.0324,0.013523,0.002678,0.000431,0.004584
28764000,0.0324,0.013523,0.002678,0.000431,0.004701
28765000,0.0324,0.013523,0.002678,0.000431,0.004701
28766000,0.0324,0.013523,0.002678,0.000431,0.004701
28767000,0.0324,0.013523,0.002678,0.000431,0.009990
28768000,0.0324,0.013523,0.002678,0.000431,0.029617
28769000,0.0324,0.013523,0.002678,0.000431,0.012340
28770000,0.0324,0.013523,0.002678,0.000431,0.004701
28771000,0.0324,0.013523,0.002678,0.000431,0.049832
28772000,0.0324,0.013523,0.002678,0.000431,0.004701
28773000,0.0324,0.013523,0.002678,0.000431,0.004701
28774000,0.0324,0.013523,0.002678,0.000431,0.079684
28775000,0.0324,0.013523,0.002678,0.000431,0.004701
28776000,0.0324,0.013523,0.002678,0.000431,0.027267
28777000,0.0324,0.013523,0.002678,0.000431,0.004701
28778000,0.0324,0.013523,0.002678,0.000431,0.004466
28779000,0.0324,0.013523,0.002678,0.000431,0.004701
28780000,0.0324,0.013523,0.002678,0.000431,0.018217
28781000,0.0324,0.013523,0.002678,0.000431,0.111534
28782000,0.0324,0.013523,0.002678,0.000431,0.004701
28783000,0.0324,0.013523,0.002678,0.000431,0.004701
28784000,0.0324,0.013523,0.002678,0.000431,0.004701
28785000,0.0324,0.013523,0.002678,0.000431,0.004701
28786000,0.0324,0.013523,0.002678,0.000431,0.017159
28787000,0.0324,0.013523,0.002678,0.000431,0.052418
28788000,0.0324,0.013523,0.002678,0.000431,0.004701
28789000,0.0324,0.013523,0.002678,0.000431,0.012223
28790000,0.0324,0.013523,0.002678,0.000431,0.031615
28791000,0.0324,0.013523,0.002678,0.000431,0.007874
28792000,0.0324,0.013523,0.002678,0.000431,0.004584
28793000,0.0324,0.013523,0.002678,0.000431,0.012105
28794000,0.0324,0.013523,0.002678,0.000431,0.004701
28795000,0.0324,0.013523,0.002678,0.000431,0.004701
28796000,0.0324,0.013523,0.002678,0.000431,0.004701
28797000,0.0324,0.013523,0.002678,0.000431,0.027267
28798000,0.0324,0.013523,0.002678,0.000431,0.004701
28799000,0.0324,0.013523,0.002678,0.000431,0.029265
28800000,0.0324,0.013523,0.002678,0.000431,0.092965
28801000,0.0324,0.013523,0.002678,0.000431,0.004701
28802000,0.0324,0.013523,0.002678,0.000431,0.140329
28803000,0.0324,0.013523,0.002678,0.000431,0.011988
28804000,0.0324,0.013523,0.002678,0.000431,0.004701
28805000,0.0324,0.013523,0.002678,0.000431,0.004701
28806000,0.0324,0.013523,0.002678,0.000431,0.064170
28807000,0.0324,0.013523,0.002678,0.000431,0.027972
28808000,0.0324,0.013523,0.002678,0.000431,0.004701
28809000,0.0324,0.013523,0.002678,0.000431,0.009520
28810000,0.0324,0.013523,0.002678,0.000431,0.052535
28811000,0.0324,0.013523,0.002678,0.000431,0.004701
28812000,0.0324,0.013523,0.002678,0.000431,0.007404
28813000,0.0324,0.013523,0.002678,0.000431,0.069459
28814000,0.0324,0.013523,0.002678,0.000431,0.027737
28815000,0.0324,0.013523,0.002678,0.000431,0.019745
28816000,0.0324,0.013523,0.002678,0.000431,0.042310
28817000,0.0324,0.013523,0.002678,0.000431,0.004701
28818000,0.0324,0.013523,0.002678,0.000431,0.004231
28819000,0.0324,0.013523,0.002678,0.000431,0.023153
28820000,0.0324,0.013523,0.002678,0.000431,0.008815
28821000,0.0324,0.013523,0.002678,0.000431,0.004701
28822000,0.0324,0.013523,0.002678,0.000431,0.008580
28823000,0.0324,0.013523,0.002678,0.000431,0.008580
28824000,0.0324,0.013523,0.002678,0.000431,0.004701
28825000,0.0324,0.013523,0.002678,0.000431,0.004701
28826000,0.0324,0.013523,0.002678,0.000431,0.034671
28827000,0.0324,0.013523,0.002678,0.000431,0.032908
28828000,0.0324,0.013523,0.002678,0.000431,0.014456
28829000,0.0324,0.013523,0.002678,0.000431,0.004701
28830000,0.0324,0.013523,0.002678,0.000431,0.004701
28831000,0.0324,0.013523,0.002678,0.000431,0.004701
28832000,0.0324,0.013523,0.002678,0.000431,0.030675
28833000,0.0324,0.013523,0.002678,0.000431,0.008815
28834000,0.0324,0.013523,0.002678,0.000431,0.004701
28835000,0.0324,0.013523,0.002678,0.000431,0.042310
28836000,0.0324,0.013523,0.002678,0.000431,0.004701
28837000,0.0324,0.013523,0.002678,0.000431,0.004701
28838000,0.0324,0.013523,0.002678,0.000431,0.004701
28839000,0.0324,0.013523,0.002678,0.000431,0.049832
28840000,0.0324,0.013523,0.002678,0.000431,0.091202
28841000,0.0324,0.013523,0.002678,0.000431,0.008462
28842000,0.0324,0.013523,0.002678,0.000431,0.027267
28843000,0.0324,0.013523,0.002678,0.000431,0.004466
28844000,0.0324,0.013523,0.002678,0.000431,0.004701
28845000,0.0324,0.013523,0.002678,0.000431,0.004701
28846000,0.0324,0.013523,0.002678,0.000431,0.004701
28847000,0.0324,0.013523,0.002678,0.000431,0.004701
28848000,0.0324,0.013523,0.002678,0.000431,0.034906
28849000,0.0324,0.013523,0.002678,0.000431,0.042428
28850000,0.0324,0.013523,0.002678,0.000431,0.004701
28851000,0.0324,0.013523,0.002678,0.000431,0.004701
28852000,0.0324,0.013523,0.002678,0.000431,0.015984
28853000,0.0324,0.013523,0.002678,0.000431,0.068636
28854000,0.0324,0.013523,0.002678,0.000431,0.004701
28855000,0.0324,0.013523,0.002678,0.000431,0.012223
28856000,0.0324,0.013523,0.002678,0.000431,0.004701
28857000,0.0324,0.013523,0.002678,0.000431,0.004701
28858000,0.0324,0.013523,0.002678,0.000431,0.076276
28859000,0.0324,0.013523,0.002678,0.000431,0.036316
28860000,0.0324,0.013523,0.002678,0.000431,0.081330
28861000,0.0324,0.013523,0.002678,0.000431,0.012458
28862000,0.0324,0.013523,0.002678,0.000431,0.019745
28863000,0.0324,0.013523,0.002678,0.000431,0.004701
28864000,0.0324,0.013523,0.002678,0.000431,0.004701
28865000,0.0324,0.013523,0.002678,0.000431,0.023976
28866000,0.0324,0.013523,0.002678,0.000431,0.053123
28867000,0.0324,0.013523,0.002678,0.000431,0.004701
28868000,0.0324,0.013523,0.002678,0.000431,0.004701
28869000,0.0324,0.013523,0.002678,0.000431,0.004701
28870000,0.0324,0.013523,0.002678,0.000431,0.004701
28871000,0.0324,0.013523,0.002678,0.000431,0.057589
28872000,0.0324,0.013523,0.002678,0.000431,0.004701
28873000,0.0324,0.013523,0.002678,0.000431,0.012223
28874000,0.0324,0.013523,0.002678,0.000431,0.012223
28875000,0.0324,0.013523,0.002678,0.000431,0.004701
28876000,0.0324,0.013523,0.002678,0.000431,0.004701
28877000,0.0324,0.013523,0.002678,0.000431,0.008462
28878000,0.0324,0.013523,0.002678,0.000431,0.008462
28879000,0.0324,0.013523,0.002678,0.000431,0.019745
28880000,0.0324,0.013523,0.002678,0.000431,0.004701
28881000,0.0324,0.013523,0.002678,0.000431,0.027267
28882000,0.0324,0.013523,0.002678,0.000431,0.004701
28883000,0.0324,0.013523,0.002678,0.000431,0.004701
28884000,0.0324,0.013523,0.002678,0.000431,0.004701
28885000,0.0324,0.013523,0.002678,0.000431,0.012223
28886000,0.0324,0.013523,0.002678,0.000431,0.019510
28887000,0.0324,0.013523,0.002678,0.000431,0.018569
28888000,0.0324,0.013523,0.002678,0.000431,0.013398
28889000,0.0324,0.013523,0.002678,0.000431,0.004701
28890000,0.0324,0.013523,0.002678,0.000431,0.024798
28891000,0.0324,0.013523,0.002678,0.000431,0.026091
28892000,0.0324,0.013523,0.002678,0.000431,0.008580
28893000,0.0324,0.013523,0.002678,0.000431,0.025386
28894000,0.0324,0.013523,0.002678,0.000431,0.028912
28895000,0.0324,0.013523,0.002678,0.000431,0.004701
28896000,0.0324,0.013523,0.002678,0.000431,0.004701
28897000,0.0324,0.013523,0.002678,0.000431,0.087676
28898000,0.0324,0.013523,0.002678,0.000431,0.079684
28899000,0.0324,0.013523,0.002678,0.000431,0.027267
28900000,0.0324,0.013523,0.002678,0.000431,0.041958
28901000,0.0324,0.013523,0.002678,0.000431,0.005289
28902000,0.0324,0.013523,0.002678,0.000431,0.004466
28903000,0.0324,0.013523,0.002678,0.000431,0.012223
28904000,0.0324,0.013523,0.002678,0.000431,0.012223
28905000,0.0324,0.013523,0.002678,0.000431,0.015984
28906000,0.0324,0.013523,0.002678,0.000431,0.015984
28907000,0.0324,0.013523,0.002678,0.000431,0.027267
28908000,0.0324,0.013523,0.002678,0.000431,0.004701
28909000,0.0324,0.013523,0.002678,0.000431,0.004701
28910000,0.0324,0.013523,0.002678,0.000431,0.004701
28911000,0.0324,0.013523,0.002678,0.000431,0.027267
28912000,0.0324,0.013523,0.002678,0.000431,0.004701
28913000,0.0324,0.013523,0.002678,0.000431,0.004701
28914000,0.0324,0.013523,0.002678,0.000431,0.004701
28915000,0.0324,0.013523,0.002678,0.000431,0.004701
28916000,0.0324,0.013523,0.002678,0.000431,0.004701
28917000,0.0324,0.013523,0.002678,0.000431,0.004701
28918000,0.0324,0.013523,0.002678,0.000431,0.080154
28919000,0.0324,0.013523,0.002678,0.000431,0.012223
28920000,0.0324,0.013523,0.002678,0.000431,0.012223
28921000,0.0324,0.013523,0.002678,0.000431,0.004701
28922000,0.0324,0.013523,0.002678,0.000431,0.027267
28923000,0.0324,0.013523,0.002678,0.000431,0.004701
28924000,0.0324,0.013523,0.002678,0.000431,0.034788
28925000,0.0324,0.013523,0.002678,0.000431,0.004701
28926000,0.0324,0.013523,0.002678,0.000431,0.019510
28927000,0.0324,0.013523,0.002678,0.000431,0.004701
28928000,0.0324,0.013523,0.002678,0.000431,0.004701
28929000,0.0324,0.013523,0.002678,0.000431,0.004701
28930000,0.0324,0.013523,0.002678,0.000431,0.042310
28931000,0.0324,0.013523,0.002678,0.000431,0.004701
28932000,0.0324,0.013523,0.002678,0.000431,0.015866
28933000,0.0324,0.013523,0.002678,0.000431,0.031615
28934000,0.0324,0.013523,0.002678,0.000431,0.004584
28935000,0.0324,0.013523,0.002678,0.000431,0.004584
28936000,0.0324,0.013523,0.002678,0.000431,0.012223
28937000,0.0324,0.013523,0.002678,0.000431,0.049832
28938000,0.0324,0.013523,0.002678,0.000431,0.004584
28939000,0.0324,0.013523,0.002678,0.000431,0.004584
28940000,0.0324,0.013523,0.002678,0.000431,0.004701
28941000,0.0324,0.013523,0.002678,0.000431,0.004701
28942000,0.0324,0.013523,0.002678,0.000431,0.004466
28943000,0.0324,0.013523,0.002678,0.000431,0.051477
28944000,0.0324,0.013523,0.002678,0.000431,0.071457
28945000,0.0324,0.013523,0.002678,0.000431,0.027267
28946000,0.0324,0.013523,0.002678,0.000431,0.004701
28947000,0.0324,0.013523,0.002678,0.000431,0.004701
28948000,0.0324,0.013523,0.002678,0.000431,0.012223
28949000,0.0324,0.013523,0.002678,0.000431,0.012223
28950000,0.0324,0.013523,0.002678,0.000431,0.027267
28951000,0.0324,0.013523,0.002678,0.000431,0.076863
28952000,0.0324,0.013523,0.002678,0.000431,0.007757
28953000,0.0324,0.013523,0.002678,0.000431,0.004701
28954000,0.0324,0.013523,0.002678,0.000431,0.031968
28955000,0.0324,0.013523,0.002678,0.000431,0.007522
28956000,0.0324,0.013523,0.002678,0.000431,0.049832
28957000,0.0324,0.013523,0.002678,0.000431,0.004701
28958000,0.0324,0.013523,0.002678,0.000431,0.004701
28959000,0.0324,0.013523,0.002678,0.000431,0.004701
28960000,0.0324,0.013523,0.002678,0.000431,0.004701
28961000,0.0324,0.013523,0.002678,0.000431,0.042545
28962000,0.0324,0.013523,0.002678,0.000431,0.004701
28963000,0.0324,0.013523,0.002678,0.000431,0.042310
28964000,0.0324,0.013523,0.002678,0.000431,0.042310
28965000,0.0324,0.013523,0.002678,0.000431,0.004701
28966000,0.0324,0.013523,0.002678,0.000431,0.004466
28967000,0.0324,0.013523,0.002678,0.000431,0.049832
28968000,0.0324,0.013523,0.002678,0.000431,0.008227
28969000,0.0324,0.013523,0.002678,0.000431,0.046306
28970000,0.0324,0.013523,0.002678,0.000431,0.013163
28971000,0.0324,0.013523,0.002678,0.000431,0.011518
28972000,0.0324,0.013523,0.002678,0.000431,0.004466
28973000,0.0324,0.013523,0.002678,0.000431,0.009755
28974000,0.0324,0.013523,0.002678,0.000431,0.022330
28975000,0.0324,0.013523,0.002678,0.000431,0.004584
28976000,0.0324,0.013523,0.002678,0.000431,0.012223
28977000,0.0324,0.013523,0.002678,0.000431,0.057589
28978000,0.0324,0.013523,0.002678,0.000431,0.004701
28979000,0.0324,0.013523,0.002678,0.000431,0.004701
28980000,0.0324,0.013523,0.002678,0.000431,0.019745
28981000,0.0324,0.013523,0.002678,0.000431,0.004701
28982000,0.0324,0.013523,0.002678,0.000431,0.049714
28983000,0.0324,0.013523,0.002678,0.000431,0.004584
28984000,0.0324,0.013523,0.002678,0.000431,0.004701
28985000,0.0324,0.013523,0.002678,0.000431,0.004701
28986000,0.0324,0.013523,0.002678,0.000431,0.008462
28987000,0.0324,0.013523,0.002678,0.000431,0.008462
28988000,0.0324,0.013523,0.002678,0.000431,0.004701
28989000,0.0324,0.013523,0.002678,0.000431,0.012223
28990000,0.0324,0.013523,0.002678,0.000431,0.042545
28991000,0.0324,0.013523,0.002678,0.000431,0.004701
28992000,0.0324,0.013523,0.002678,0.000431,0.004701
28993000,0.0324,0.013523,0.002678,0.000431,0.027267
28994000,0.0324,0.013523,0.002678,0.000431,0.057589
28995000,0.0324,0.013523,0.002678,0.000431,0.022213
28996000,0.0324,0.013523,0.002678,0.000431,0.032320
28997000,0.0324,0.013523,0.002678,0.000431,0.004701
28998000,0.0324,0.013523,0.002678,0.000431,0.004701
28999000,0.0324,0.013523,0.002678,0.000431,0.008462
