Cycle,Area(mm^2),PeakDynamic(W),SubthresholdLeakage(W),GateLeakage(W),RunTimeDynamic(W)
32000000,0.0324,0.013523,0.002678,0.000431,0.004701
32001000,0.0324,0.013523,0.002678,0.000431,0.004701
32002000,0.0324,0.013523,0.002678,0.000431,0.004701
32003000,0.0324,0.013523,0.002678,0.000431,0.004701
32004000,0.0324,0.013523,0.002678,0.000431,0.004701
32005000,0.0324,0.013523,0.002678,0.000431,0.004701
32006000,0.0324,0.013523,0.002678,0.000431,0.004701
32007000,0.0324,0.013523,0.002678,0.000431,0.004701
32008000,0.0324,0.013523,0.002678,0.000431,0.004701
32009000,0.0324,0.013523,0.002678,0.000431,0.004466
32010000,0.0324,0.013523,0.002678,0.000431,0.004701
32011000,0.0324,0.013523,0.002678,0.000431,0.004701
32012000,0.0324,0.013523,0.002678,0.000431,0.005524
32013000,0.0324,0.013523,0.002678,0.000431,0.005876
32014000,0.0324,0.013523,0.002678,0.000431,0.005641
32015000,0.0324,0.013523,0.002678,0.000431,0.005641
32016000,0.0324,0.013523,0.002678,0.000431,0.005876
32017000,0.0324,0.013523,0.002678,0.000431,0.029147
32018000,0.0324,0.013523,0.002678,0.000431,0.020332
32019000,0.0324,0.013523,0.002678,0.000431,0.004701
32020000,0.0324,0.013523,0.002678,0.000431,0.004701
32021000,0.0324,0.013523,0.002678,0.000431,0.004701
32022000,0.0324,0.013523,0.002678,0.000431,0.004701
32023000,0.0324,0.013523,0.002678,0.000431,0.004701
32024000,0.0324,0.013523,0.002678,0.000431,0.042075
32025000,0.0324,0.013523,0.002678,0.000431,0.005524
32026000,0.0324,0.013523,0.002678,0.000431,0.005876
32027000,0.0324,0.013523,0.002678,0.000431,0.005876
32028000,0.0324,0.013523,0.002678,0.000431,0.005876
32029000,0.0324,0.013523,0.002678,0.000431,0.005876
32030000,0.0324,0.013523,0.002678,0.000431,0.013398
32031000,0.0324,0.013523,0.002678,0.000431,0.012811
32032000,0.0324,0.013523,0.002678,0.000431,0.004701
32033000,0.0324,0.013523,0.002678,0.000431,0.004701
32034000,0.0324,0.013523,0.002678,0.000431,0.004701
32035000,0.0324,0.013523,0.002678,0.000431,0.004701
32036000,0.0324,0.013523,0.002678,0.000431,0.004466
32037000,0.0324,0.013523,0.002678,0.000431,0.005054
32038000,0.0324,0.013523,0.002678,0.000431,0.005641
32039000,0.0324,0.013523,0.002678,0.000431,0.005876
32040000,0.0324,0.013523,0.002678,0.000431,0.006699
32041000,0.0324,0.013523,0.002678,0.000431,0.007052
32042000,0.0324,0.013523,0.002678,0.000431,0.007052
32043000,0.0324,0.013523,0.002678,0.000431,0.022213
32044000,0.0324,0.013523,0.002678,0.000431,0.006699
32045000,0.0324,0.013523,0.002678,0.000431,0.007052
32046000,0.0324,0.013523,0.002678,0.000431,0.014221
32047000,0.0324,0.013523,0.002678,0.000431,0.005876
32048000,0.0324,0.013523,0.002678,0.000431,0.005876
32049000,0.0324,0.013523,0.002678,0.000431,0.005876
32050000,0.0324,0.013523,0.002678,0.000431,0.051712
32051000,0.0324,0.013523,0.002678,0.000431,0.005876
32052000,0.0324,0.013523,0.002678,0.000431,0.005641
32053000,0.0324,0.013523,0.002678,0.000431,0.013398
32054000,0.0324,0.013523,0.002678,0.000431,0.005876
32055000,0.0324,0.013523,0.002678,0.000431,0.005876
32056000,0.0324,0.013523,0.002678,0.000431,0.016689
32057000,0.0324,0.013523,0.002678,0.000431,0.038432
32058000,0.0324,0.013523,0.002678,0.000431,0.004701
32059000,0.0324,0.013523,0.002678,0.000431,0.026914
32060000,0.0324,0.013523,0.002678,0.000431,0.019392
32061000,0.0324,0.013523,0.002678,0.000431,0.004701
32062000,0.0324,0.013523,0.002678,0.000431,0.008462
32063000,0.0324,0.013523,0.002678,0.000431,0.038079
32064000,0.0324,0.013523,0.002678,0.000431,0.012223
32065000,0.0324,0.013523,0.002678,0.000431,0.004466
32066000,0.0324,0.013523,0.002678,0.000431,0.012223
32067000,0.0324,0.013523,0.002678,0.000431,0.004466
32068000,0.0324,0.013523,0.002678,0.000431,0.004701
32069000,0.0324,0.013523,0.002678,0.000431,0.004584
32070000,0.0324,0.013523,0.002678,0.000431,0.012105
32071000,0.0324,0.013523,0.002678,0.000431,0.004701
32072000,0.0324,0.013523,0.002678,0.000431,0.004701
32073000,0.0324,0.013523,0.002678,0.000431,0.004701
32074000,0.0324,0.013523,0.002678,0.000431,0.004701
32075000,0.0324,0.013523,0.002678,0.000431,0.004819
32076000,0.0324,0.013523,0.002678,0.000431,0.009637
32077000,0.0324,0.013523,0.002678,0.000431,0.009637
32078000,0.0324,0.013523,0.002678,0.000431,0.005876
32079000,0.0324,0.013523,0.002678,0.000431,0.005876
32080000,0.0324,0.013523,0.002678,0.000431,0.005876
32081000,0.0324,0.013523,0.002678,0.000431,0.005876
32082000,0.0324,0.013523,0.002678,0.000431,0.027384
32083000,0.0324,0.013523,0.002678,0.000431,0.005524
32084000,0.0324,0.013523,0.002678,0.000431,0.005876
32085000,0.0324,0.013523,0.002678,0.000431,0.005876
32086000,0.0324,0.013523,0.002678,0.000431,0.005876
32087000,0.0324,0.013523,0.002678,0.000431,0.005876
32088000,0.0324,0.013523,0.002678,0.000431,0.010460
32089000,0.0324,0.013523,0.002678,0.000431,0.008462
32090000,0.0324,0.013523,0.002678,0.000431,0.005759
32091000,0.0324,0.013523,0.002678,0.000431,0.005876
32092000,0.0324,0.013523,0.002678,0.000431,0.013163
32093000,0.0324,0.013523,0.002678,0.000431,0.005876
32094000,0.0324,0.013523,0.002678,0.000431,0.005876
32095000,0.0324,0.013523,0.002678,0.000431,0.028442
32096000,0.0324,0.013523,0.002678,0.000431,0.005054
32097000,0.0324,0.013523,0.002678,0.000431,0.004701
32098000,0.0324,0.013523,0.002678,0.000431,0.004701
32099000,0.0324,0.013523,0.002678,0.000431,0.010930
32100000,0.0324,0.013523,0.002678,0.000431,0.003526
32101000,0.0324,0.013523,0.002678,0.000431,0.007639
32102000,0.0324,0.013523,0.002678,0.000431,0.008462
32103000,0.0324,0.013523,0.002678,0.000431,0.004466
32104000,0.0324,0.013523,0.002678,0.000431,0.004701
32105000,0.0324,0.013523,0.002678,0.000431,0.004701
32106000,0.0324,0.013523,0.002678,0.000431,0.004701
32107000,0.0324,0.013523,0.002678,0.000431,0.008462
32108000,0.0324,0.013523,0.002678,0.000431,0.041605
32109000,0.0324,0.013523,0.002678,0.000431,0.005994
32110000,0.0324,0.013523,0.002678,0.000431,0.003526
32111000,0.0324,0.013523,0.002678,0.000431,0.003526
32112000,0.0324,0.013523,0.002678,0.000431,0.003526
32113000,0.0324,0.013523,0.002678,0.000431,0.003526
32114000,0.0324,0.013523,0.002678,0.000431,0.011048
32115000,0.0324,0.013523,0.002678,0.000431,0.029265
32116000,0.0324,0.013523,0.002678,0.000431,0.006934
32117000,0.0324,0.013523,0.002678,0.000431,0.003526
32118000,0.0324,0.013523,0.002678,0.000431,0.003526
32119000,0.0324,0.013523,0.002678,0.000431,0.003526
32120000,0.0324,0.013523,0.002678,0.000431,0.003526
32121000,0.0324,0.013523,0.002678,0.000431,0.003526
32122000,0.0324,0.013523,0.002678,0.000431,0.003526
32123000,0.0324,0.013523,0.002678,0.000431,0.003526
32124000,0.0324,0.013523,0.002678,0.000431,0.003526
32125000,0.0324,0.013523,0.002678,0.000431,0.003526
32126000,0.0324,0.013523,0.002678,0.000431,0.003526
32127000,0.0324,0.013523,0.002678,0.000431,0.018569
32128000,0.0324,0.013523,0.002678,0.000431,0.003878
32129000,0.0324,0.013523,0.002678,0.000431,0.004349
32130000,0.0324,0.013523,0.002678,0.000431,0.004584
32131000,0.0324,0.013523,0.002678,0.000431,0.004701
32132000,0.0324,0.013523,0.002678,0.000431,0.004701
32133000,0.0324,0.013523,0.002678,0.000431,0.004231
32134000,0.0324,0.013523,0.002678,0.000431,0.005054
32135000,0.0324,0.013523,0.002678,0.000431,0.010695
32136000,0.0324,0.013523,0.002678,0.000431,0.002351
32137000,0.0324,0.013523,0.002678,0.000431,0.002351
32138000,0.0324,0.013523,0.002678,0.000431,0.002351
32139000,0.0324,0.013523,0.002678,0.000431,0.002351
32140000,0.0324,0.013523,0.002678,0.000431,0.002351
32141000,0.0324,0.013523,0.002678,0.000431,0.020097
32142000,0.0324,0.013523,0.002678,0.000431,0.005994
32143000,0.0324,0.013523,0.002678,0.000431,0.002351
32144000,0.0324,0.013523,0.002678,0.000431,0.002351
32145000,0.0324,0.013523,0.002678,0.000431,0.002351
32146000,0.0324,0.013523,0.002678,0.000431,0.002351
32147000,0.0324,0.013523,0.002678,0.000431,0.002351
32148000,0.0324,0.013523,0.002678,0.000431,0.002116
32149000,0.0324,0.013523,0.002678,0.000431,0.002351
32150000,0.0324,0.013523,0.002678,0.000431,0.002351
32151000,0.0324,0.013523,0.002678,0.000431,0.002351
32152000,0.0324,0.013523,0.002678,0.000431,0.002351
32153000,0.0324,0.013523,0.002678,0.000431,0.009872
32154000,0.0324,0.013523,0.002678,0.000431,0.002351
32155000,0.0324,0.013523,0.002678,0.000431,0.002351
32156000,0.0324,0.013523,0.002678,0.000431,0.002351
32157000,0.0324,0.013523,0.002678,0.000431,0.002351
32158000,0.0324,0.013523,0.002678,0.000431,0.002351
32159000,0.0324,0.013523,0.002678,0.000431,0.008227
32160000,0.0324,0.013523,0.002678,0.000431,0.003761
32161000,0.0324,0.013523,0.002678,0.000431,0.009285
32162000,0.0324,0.013523,0.002678,0.000431,0.001175
32163000,0.0324,0.013523,0.002678,0.000431,0.001175
32164000,0.0324,0.013523,0.002678,0.000431,0.001175
32165000,0.0324,0.013523,0.002678,0.000431,0.001175
