Cycle,Area(mm^2),PeakDynamic(W),SubthresholdLeakage(W),GateLeakage(W),RunTimeDynamic(W)
31000000,0.0324,0.013523,0.002678,0.000431,0.004701
31001000,0.0324,0.013523,0.002678,0.000431,0.004701
31002000,0.0324,0.013523,0.002678,0.000431,0.004466
31003000,0.0324,0.013523,0.002678,0.000431,0.042310
31004000,0.0324,0.013523,0.002678,0.000431,0.019745
31005000,0.0324,0.013523,0.002678,0.000431,0.004701
31006000,0.0324,0.013523,0.002678,0.000431,0.004701
31007000,0.0324,0.013523,0.002678,0.000431,0.012223
31008000,0.0324,0.013523,0.002678,0.000431,0.004701
31009000,0.0324,0.013523,0.002678,0.000431,0.004701
31010000,0.0324,0.013523,0.002678,0.000431,0.012223
31011000,0.0324,0.013523,0.002678,0.000431,0.004701
31012000,0.0324,0.013523,0.002678,0.000431,0.004701
31013000,0.0324,0.013523,0.002678,0.000431,0.042075
31014000,0.0324,0.013523,0.002678,0.000431,0.004701
31015000,0.0324,0.013523,0.002678,0.000431,0.004701
31016000,0.0324,0.013523,0.002678,0.000431,0.027031
31017000,0.0324,0.013523,0.002678,0.000431,0.004701
31018000,0.0324,0.013523,0.002678,0.000431,0.004701
31019000,0.0324,0.013523,0.002678,0.000431,0.004701
31020000,0.0324,0.013523,0.002678,0.000431,0.038549
31021000,0.0324,0.013523,0.002678,0.000431,0.015984
31022000,0.0324,0.013523,0.002678,0.000431,0.033966
31023000,0.0324,0.013523,0.002678,0.000431,0.043720
31024000,0.0324,0.013523,0.002678,0.000431,0.012105
31025000,0.0324,0.013523,0.002678,0.000431,0.004701
31026000,0.0324,0.013523,0.002678,0.000431,0.087206
31027000,0.0324,0.013523,0.002678,0.000431,0.004584
31028000,0.0324,0.013523,0.002678,0.000431,0.004466
31029000,0.0324,0.013523,0.002678,0.000431,0.004584
31030000,0.0324,0.013523,0.002678,0.000431,0.027267
31031000,0.0324,0.013523,0.002678,0.000431,0.004584
31032000,0.0324,0.013523,0.002678,0.000431,0.004584
31033000,0.0324,0.013523,0.002678,0.000431,0.027267
31034000,0.0324,0.013523,0.002678,0.000431,0.004701
31035000,0.0324,0.013523,0.002678,0.000431,0.042310
31036000,0.0324,0.013523,0.002678,0.000431,0.012223
31037000,0.0324,0.013523,0.002678,0.000431,0.004701
31038000,0.0324,0.013523,0.002678,0.000431,0.080389
31039000,0.0324,0.013523,0.002678,0.000431,0.027267
31040000,0.0324,0.013523,0.002678,0.000431,0.004701
31041000,0.0324,0.013523,0.002678,0.000431,0.027384
31042000,0.0324,0.013523,0.002678,0.000431,0.027149
31043000,0.0324,0.013523,0.002678,0.000431,0.004701
31044000,0.0324,0.013523,0.002678,0.000431,0.004701
31045000,0.0324,0.013523,0.002678,0.000431,0.050067
31046000,0.0324,0.013523,0.002678,0.000431,0.019745
31047000,0.0324,0.013523,0.002678,0.000431,0.035494
31048000,0.0324,0.013523,0.002678,0.000431,0.011518
31049000,0.0324,0.013523,0.002678,0.000431,0.004701
31050000,0.0324,0.013523,0.002678,0.000431,0.004701
31051000,0.0324,0.013523,0.002678,0.000431,0.004701
31052000,0.0324,0.013523,0.002678,0.000431,0.012223
31053000,0.0324,0.013523,0.002678,0.000431,0.004701
31054000,0.0324,0.013523,0.002678,0.000431,0.034788
31055000,0.0324,0.013523,0.002678,0.000431,0.004701
31056000,0.0324,0.013523,0.002678,0.000431,0.019745
31057000,0.0324,0.013523,0.002678,0.000431,0.004701
31058000,0.0324,0.013523,0.002678,0.000431,0.049832
31059000,0.0324,0.013523,0.002678,0.000431,0.004466
31060000,0.0324,0.013523,0.002678,0.000431,0.066403
31061000,0.0324,0.013523,0.002678,0.000431,0.010930
31062000,0.0324,0.013523,0.002678,0.000431,0.004701
31063000,0.0324,0.013523,0.002678,0.000431,0.004701
31064000,0.0324,0.013523,0.002678,0.000431,0.019745
31065000,0.0324,0.013523,0.002678,0.000431,0.004701
31066000,0.0324,0.013523,0.002678,0.000431,0.004701
31067000,0.0324,0.013523,0.002678,0.000431,0.057589
31068000,0.0324,0.013523,0.002678,0.000431,0.004701
31069000,0.0324,0.013523,0.002678,0.000431,0.004701
31070000,0.0324,0.013523,0.002678,0.000431,0.010695
31071000,0.0324,0.013523,0.002678,0.000431,0.081447
31072000,0.0324,0.013523,0.002678,0.000431,0.004701
31073000,0.0324,0.013523,0.002678,0.000431,0.004701
31074000,0.0324,0.013523,0.002678,0.000431,0.027267
31075000,0.0324,0.013523,0.002678,0.000431,0.004701
31076000,0.0324,0.013523,0.002678,0.000431,0.004701
31077000,0.0324,0.013523,0.002678,0.000431,0.004701
31078000,0.0324,0.013523,0.002678,0.000431,0.021625
31079000,0.0324,0.013523,0.002678,0.000431,0.016454
31080000,0.0324,0.013523,0.002678,0.000431,0.028912
31081000,0.0324,0.013523,0.002678,0.000431,0.004701
31082000,0.0324,0.013523,0.002678,0.000431,0.004466
31083000,0.0324,0.013523,0.002678,0.000431,0.004701
31084000,0.0324,0.013523,0.002678,0.000431,0.012458
31085000,0.0324,0.013523,0.002678,0.000431,0.004701
31086000,0.0324,0.013523,0.002678,0.000431,0.019745
31087000,0.0324,0.013523,0.002678,0.000431,0.012223
31088000,0.0324,0.013523,0.002678,0.000431,0.004584
31089000,0.0324,0.013523,0.002678,0.000431,0.004584
31090000,0.0324,0.013523,0.002678,0.000431,0.046189
31091000,0.0324,0.013523,0.002678,0.000431,0.046189
31092000,0.0324,0.013523,0.002678,0.000431,0.008462
31093000,0.0324,0.013523,0.002678,0.000431,0.008462
31094000,0.0324,0.013523,0.002678,0.000431,0.004701
31095000,0.0324,0.013523,0.002678,0.000431,0.004701
31096000,0.0324,0.013523,0.002678,0.000431,0.012340
31097000,0.0324,0.013523,0.002678,0.000431,0.004819
31098000,0.0324,0.013523,0.002678,0.000431,0.004701
31099000,0.0324,0.013523,0.002678,0.000431,0.004466
31100000,0.0324,0.013523,0.002678,0.000431,0.004701
31101000,0.0324,0.013523,0.002678,0.000431,0.004701
31102000,0.0324,0.013523,0.002678,0.000431,0.004701
31103000,0.0324,0.013523,0.002678,0.000431,0.027267
31104000,0.0324,0.013523,0.002678,0.000431,0.004701
31105000,0.0324,0.013523,0.002678,0.000431,0.012223
31106000,0.0324,0.013523,0.002678,0.000431,0.075453
31107000,0.0324,0.013523,0.002678,0.000431,0.009167
31108000,0.0324,0.013523,0.002678,0.000431,0.004701
31109000,0.0324,0.013523,0.002678,0.000431,0.012105
31110000,0.0324,0.013523,0.002678,0.000431,0.012576
31111000,0.0324,0.013523,0.002678,0.000431,0.004701
31112000,0.0324,0.013523,0.002678,0.000431,0.004701
31113000,0.0324,0.013523,0.002678,0.000431,0.012223
31114000,0.0324,0.013523,0.002678,0.000431,0.004701
31115000,0.0324,0.013523,0.002678,0.000431,0.004701
31116000,0.0324,0.013523,0.002678,0.000431,0.042310
31117000,0.0324,0.013523,0.002678,0.000431,0.004701
31118000,0.0324,0.013523,0.002678,0.000431,0.070752
31119000,0.0324,0.013523,0.002678,0.000431,0.077216
31120000,0.0324,0.013523,0.002678,0.000431,0.023858
31121000,0.0324,0.013523,0.002678,0.000431,0.004701
31122000,0.0324,0.013523,0.002678,0.000431,0.007992
31123000,0.0324,0.013523,0.002678,0.000431,0.016219
31124000,0.0324,0.013523,0.002678,0.000431,0.004701
31125000,0.0324,0.013523,0.002678,0.000431,0.015984
31126000,0.0324,0.013523,0.002678,0.000431,0.031027
31127000,0.0324,0.013523,0.002678,0.000431,0.004584
31128000,0.0324,0.013523,0.002678,0.000431,0.004584
31129000,0.0324,0.013523,0.002678,0.000431,0.042075
31130000,0.0324,0.013523,0.002678,0.000431,0.004701
31131000,0.0324,0.013523,0.002678,0.000431,0.004701
31132000,0.0324,0.013523,0.002678,0.000431,0.042310
31133000,0.0324,0.013523,0.002678,0.000431,0.004701
31134000,0.0324,0.013523,0.002678,0.000431,0.004701
31135000,0.0324,0.013523,0.002678,0.000431,0.022330
31136000,0.0324,0.013523,0.002678,0.000431,0.062290
31137000,0.0324,0.013523,0.002678,0.000431,0.004701
31138000,0.0324,0.013523,0.002678,0.000431,0.061115
31139000,0.0324,0.013523,0.002678,0.000431,0.008227
31140000,0.0324,0.013523,0.002678,0.000431,0.004701
31141000,0.0324,0.013523,0.002678,0.000431,0.004701
31142000,0.0324,0.013523,0.002678,0.000431,0.057354
31143000,0.0324,0.013523,0.002678,0.000431,0.004701
31144000,0.0324,0.013523,0.002678,0.000431,0.019745
31145000,0.0324,0.013523,0.002678,0.000431,0.004701
31146000,0.0324,0.013523,0.002678,0.000431,0.004701
31147000,0.0324,0.013523,0.002678,0.000431,0.004701
31148000,0.0324,0.013523,0.002678,0.000431,0.050185
31149000,0.0324,0.013523,0.002678,0.000431,0.011870
31150000,0.0324,0.013523,0.002678,0.000431,0.004701
31151000,0.0324,0.013523,0.002678,0.000431,0.035258
31152000,0.0324,0.013523,0.002678,0.000431,0.004701
31153000,0.0324,0.013523,0.002678,0.000431,0.004701
31154000,0.0324,0.013523,0.002678,0.000431,0.031262
31155000,0.0324,0.013523,0.002678,0.000431,0.023036
31156000,0.0324,0.013523,0.002678,0.000431,0.004701
31157000,0.0324,0.013523,0.002678,0.000431,0.006699
31158000,0.0324,0.013523,0.002678,0.000431,0.085443
31159000,0.0324,0.013523,0.002678,0.000431,0.004701
31160000,0.0324,0.013523,0.002678,0.000431,0.004701
31161000,0.0324,0.013523,0.002678,0.000431,0.004701
31162000,0.0324,0.013523,0.002678,0.000431,0.004466
31163000,0.0324,0.013523,0.002678,0.000431,0.004701
31164000,0.0324,0.013523,0.002678,0.000431,0.049832
31165000,0.0324,0.013523,0.002678,0.000431,0.057354
31166000,0.0324,0.013523,0.002678,0.000431,0.004701
31167000,0.0324,0.013523,0.002678,0.000431,0.042898
31168000,0.0324,0.013523,0.002678,0.000431,0.027149
31169000,0.0324,0.013523,0.002678,0.000431,0.004701
31170000,0.0324,0.013523,0.002678,0.000431,0.004701
31171000,0.0324,0.013523,0.002678,0.000431,0.012223
31172000,0.0324,0.013523,0.002678,0.000431,0.012223
31173000,0.0324,0.013523,0.002678,0.000431,0.004701
31174000,0.0324,0.013523,0.002678,0.000431,0.004701
31175000,0.0324,0.013523,0.002678,0.000431,0.012223
31176000,0.0324,0.013523,0.002678,0.000431,0.004701
31177000,0.0324,0.013523,0.002678,0.000431,0.008462
31178000,0.0324,0.013523,0.002678,0.000431,0.061115
31179000,0.0324,0.013523,0.002678,0.000431,0.004466
31180000,0.0324,0.013523,0.002678,0.000431,0.004466
31181000,0.0324,0.013523,0.002678,0.000431,0.004701
31182000,0.0324,0.013523,0.002678,0.000431,0.027267
31183000,0.0324,0.013523,0.002678,0.000431,0.042310
31184000,0.0324,0.013523,0.002678,0.000431,0.004701
31185000,0.0324,0.013523,0.002678,0.000431,0.019745
31186000,0.0324,0.013523,0.002678,0.000431,0.004701
31187000,0.0324,0.013523,0.002678,0.000431,0.004701
31188000,0.0324,0.013523,0.002678,0.000431,0.004701
31189000,0.0324,0.013523,0.002678,0.000431,0.012223
31190000,0.0324,0.013523,0.002678,0.000431,0.115530
31191000,0.0324,0.013523,0.002678,0.000431,0.014221
31192000,0.0324,0.013523,0.002678,0.000431,0.004701
31193000,0.0324,0.013523,0.002678,0.000431,0.046071
31194000,0.0324,0.013523,0.002678,0.000431,0.008462
31195000,0.0324,0.013523,0.002678,0.000431,0.008227
31196000,0.0324,0.013523,0.002678,0.000431,0.031262
31197000,0.0324,0.013523,0.002678,0.000431,0.017982
31198000,0.0324,0.013523,0.002678,0.000431,0.066638
31199000,0.0324,0.013523,0.002678,0.000431,0.004701
31200000,0.0324,0.013523,0.002678,0.000431,0.012223
31201000,0.0324,0.013523,0.002678,0.000431,0.004701
31202000,0.0324,0.013523,0.002678,0.000431,0.034553
31203000,0.0324,0.013523,0.002678,0.000431,0.004701
31204000,0.0324,0.013523,0.002678,0.000431,0.004701
31205000,0.0324,0.013523,0.002678,0.000431,0.004701
31206000,0.0324,0.013523,0.002678,0.000431,0.013046
31207000,0.0324,0.013523,0.002678,0.000431,0.011400
31208000,0.0324,0.013523,0.002678,0.000431,0.012105
31209000,0.0324,0.013523,0.002678,0.000431,0.023623
31210000,0.0324,0.013523,0.002678,0.000431,0.116235
31211000,0.0324,0.013523,0.002678,0.000431,0.047716
31212000,0.0324,0.013523,0.002678,0.000431,0.038667
31213000,0.0324,0.013523,0.002678,0.000431,0.039019
31214000,0.0324,0.013523,0.002678,0.000431,0.012223
31215000,0.0324,0.013523,0.002678,0.000431,0.012223
31216000,0.0324,0.013523,0.002678,0.000431,0.004701
31217000,0.0324,0.013523,0.002678,0.000431,0.080154
31218000,0.0324,0.013523,0.002678,0.000431,0.004701
31219000,0.0324,0.013523,0.002678,0.000431,0.034788
31220000,0.0324,0.013523,0.002678,0.000431,0.065346
31221000,0.0324,0.013523,0.002678,0.000431,0.004701
31222000,0.0324,0.013523,0.002678,0.000431,0.004584
31223000,0.0324,0.013523,0.002678,0.000431,0.012105
31224000,0.0324,0.013523,0.002678,0.000431,0.004701
31225000,0.0324,0.013523,0.002678,0.000431,0.004701
31226000,0.0324,0.013523,0.002678,0.000431,0.035023
31227000,0.0324,0.013523,0.002678,0.000431,0.004701
31228000,0.0324,0.013523,0.002678,0.000431,0.012458
31229000,0.0324,0.013523,0.002678,0.000431,0.012223
31230000,0.0324,0.013523,0.002678,0.000431,0.004701
31231000,0.0324,0.013523,0.002678,0.000431,0.004466
31232000,0.0324,0.013523,0.002678,0.000431,0.004701
31233000,0.0324,0.013523,0.002678,0.000431,0.004701
31234000,0.0324,0.013523,0.002678,0.000431,0.076746
31235000,0.0324,0.013523,0.002678,0.000431,0.059704
31236000,0.0324,0.013523,0.002678,0.000431,0.111769
31237000,0.0324,0.013523,0.002678,0.000431,0.004466
31238000,0.0324,0.013523,0.002678,0.000431,0.004701
31239000,0.0324,0.013523,0.002678,0.000431,0.004701
31240000,0.0324,0.013523,0.002678,0.000431,0.004819
31241000,0.0324,0.013523,0.002678,0.000431,0.004819
31242000,0.0324,0.013523,0.002678,0.000431,0.049832
31243000,0.0324,0.013523,0.002678,0.000431,0.005171
31244000,0.0324,0.013523,0.002678,0.000431,0.004701
31245000,0.0324,0.013523,0.002678,0.000431,0.004701
31246000,0.0324,0.013523,0.002678,0.000431,0.017277
31247000,0.0324,0.013523,0.002678,0.000431,0.173942
31248000,0.0324,0.013523,0.002678,0.000431,0.011165
31249000,0.0324,0.013523,0.002678,0.000431,0.072397
31250000,0.0324,0.013523,0.002678,0.000431,0.004701
31251000,0.0324,0.013523,0.002678,0.000431,0.004701
31252000,0.0324,0.013523,0.002678,0.000431,0.087206
31253000,0.0324,0.013523,0.002678,0.000431,0.042663
31254000,0.0324,0.013523,0.002678,0.000431,0.056766
31255000,0.0324,0.013523,0.002678,0.000431,0.035023
31256000,0.0324,0.013523,0.002678,0.000431,0.004936
31257000,0.0324,0.013523,0.002678,0.000431,0.012458
31258000,0.0324,0.013523,0.002678,0.000431,0.004701
31259000,0.0324,0.013523,0.002678,0.000431,0.027149
31260000,0.0324,0.013523,0.002678,0.000431,0.064758
31261000,0.0324,0.013523,0.002678,0.000431,0.004701
31262000,0.0324,0.013523,0.002678,0.000431,0.004701
31263000,0.0324,0.013523,0.002678,0.000431,0.041017
31264000,0.0324,0.013523,0.002678,0.000431,0.028559
31265000,0.0324,0.013523,0.002678,0.000431,0.049832
31266000,0.0324,0.013523,0.002678,0.000431,0.022565
31267000,0.0324,0.013523,0.002678,0.000431,0.016924
31268000,0.0324,0.013523,0.002678,0.000431,0.004466
31269000,0.0324,0.013523,0.002678,0.000431,0.004701
31270000,0.0324,0.013523,0.002678,0.000431,0.034788
31271000,0.0324,0.013523,0.002678,0.000431,0.019745
31272000,0.0324,0.013523,0.002678,0.000431,0.004701
31273000,0.0324,0.013523,0.002678,0.000431,0.004701
31274000,0.0324,0.013523,0.002678,0.000431,0.004701
31275000,0.0324,0.013523,0.002678,0.000431,0.004701
31276000,0.0324,0.013523,0.002678,0.000431,0.004701
31277000,0.0324,0.013523,0.002678,0.000431,0.012105
31278000,0.0324,0.013523,0.002678,0.000431,0.012105
31279000,0.0324,0.013523,0.002678,0.000431,0.030440
31280000,0.0324,0.013523,0.002678,0.000431,0.024798
31281000,0.0324,0.013523,0.002678,0.000431,0.065111
31282000,0.0324,0.013523,0.002678,0.000431,0.042310
31283000,0.0324,0.013523,0.002678,0.000431,0.008462
31284000,0.0324,0.013523,0.002678,0.000431,0.014926
31285000,0.0324,0.013523,0.002678,0.000431,0.005759
31286000,0.0324,0.013523,0.002678,0.000431,0.004701
31287000,0.0324,0.013523,0.002678,0.000431,0.015396
31288000,0.0324,0.013523,0.002678,0.000431,0.031850
31289000,0.0324,0.013523,0.002678,0.000431,0.004466
31290000,0.0324,0.013523,0.002678,0.000431,0.004701
31291000,0.0324,0.013523,0.002678,0.000431,0.072397
31292000,0.0324,0.013523,0.002678,0.000431,0.004701
31293000,0.0324,0.013523,0.002678,0.000431,0.004701
31294000,0.0324,0.013523,0.002678,0.000431,0.007169
31295000,0.0324,0.013523,0.002678,0.000431,0.024798
31296000,0.0324,0.013523,0.002678,0.000431,0.012223
31297000,0.0324,0.013523,0.002678,0.000431,0.004701
31298000,0.0324,0.013523,0.002678,0.000431,0.019745
31299000,0.0324,0.013523,0.002678,0.000431,0.004349
31300000,0.0324,0.013523,0.002678,0.000431,0.004584
31301000,0.0324,0.013523,0.002678,0.000431,0.027267
31302000,0.0324,0.013523,0.002678,0.000431,0.004701
31303000,0.0324,0.013523,0.002678,0.000431,0.012223
31304000,0.0324,0.013523,0.002678,0.000431,0.057354
31305000,0.0324,0.013523,0.002678,0.000431,0.004701
31306000,0.0324,0.013523,0.002678,0.000431,0.004701
31307000,0.0324,0.013523,0.002678,0.000431,0.064876
31308000,0.0324,0.013523,0.002678,0.000431,0.072280
31309000,0.0324,0.013523,0.002678,0.000431,0.004584
31310000,0.0324,0.013523,0.002678,0.000431,0.004701
31311000,0.0324,0.013523,0.002678,0.000431,0.004701
31312000,0.0324,0.013523,0.002678,0.000431,0.004701
31313000,0.0324,0.013523,0.002678,0.000431,0.004701
31314000,0.0324,0.013523,0.002678,0.000431,0.034788
31315000,0.0324,0.013523,0.002678,0.000431,0.019745
31316000,0.0324,0.013523,0.002678,0.000431,0.019745
31317000,0.0324,0.013523,0.002678,0.000431,0.004701
31318000,0.0324,0.013523,0.002678,0.000431,0.004701
31319000,0.0324,0.013523,0.002678,0.000431,0.004701
31320000,0.0324,0.013523,0.002678,0.000431,0.040665
31321000,0.0324,0.013523,0.002678,0.000431,0.081565
31322000,0.0324,0.013523,0.002678,0.000431,0.053475
31323000,0.0324,0.013523,0.002678,0.000431,0.061467
31324000,0.0324,0.013523,0.002678,0.000431,0.004701
31325000,0.0324,0.013523,0.002678,0.000431,0.004701
31326000,0.0324,0.013523,0.002678,0.000431,0.004466
31327000,0.0324,0.013523,0.002678,0.000431,0.101897
31328000,0.0324,0.013523,0.002678,0.000431,0.012811
31329000,0.0324,0.013523,0.002678,0.000431,0.049832
31330000,0.0324,0.013523,0.002678,0.000431,0.004701
31331000,0.0324,0.013523,0.002678,0.000431,0.004701
31332000,0.0324,0.013523,0.002678,0.000431,0.004701
31333000,0.0324,0.013523,0.002678,0.000431,0.023506
31334000,0.0324,0.013523,0.002678,0.000431,0.008462
31335000,0.0324,0.013523,0.002678,0.000431,0.033731
31336000,0.0324,0.013523,0.002678,0.000431,0.080977
31337000,0.0324,0.013523,0.002678,0.000431,0.004701
31338000,0.0324,0.013523,0.002678,0.000431,0.004701
31339000,0.0324,0.013523,0.002678,0.000431,0.004701
31340000,0.0324,0.013523,0.002678,0.000431,0.011988
31341000,0.0324,0.013523,0.002678,0.000431,0.004701
31342000,0.0324,0.013523,0.002678,0.000431,0.034788
31343000,0.0324,0.013523,0.002678,0.000431,0.042310
31344000,0.0324,0.013523,0.002678,0.000431,0.004584
31345000,0.0324,0.013523,0.002678,0.000431,0.004584
31346000,0.0324,0.013523,0.002678,0.000431,0.015984
31347000,0.0324,0.013523,0.002678,0.000431,0.015984
31348000,0.0324,0.013523,0.002678,0.000431,0.012223
31349000,0.0324,0.013523,0.002678,0.000431,0.008462
31350000,0.0324,0.013523,0.002678,0.000431,0.008462
31351000,0.0324,0.013523,0.002678,0.000431,0.004701
31352000,0.0324,0.013523,0.002678,0.000431,0.004701
31353000,0.0324,0.013523,0.002678,0.000431,0.004701
31354000,0.0324,0.013523,0.002678,0.000431,0.004701
31355000,0.0324,0.013523,0.002678,0.000431,0.072397
31356000,0.0324,0.013523,0.002678,0.000431,0.034788
31357000,0.0324,0.013523,0.002678,0.000431,0.004701
31358000,0.0324,0.013523,0.002678,0.000431,0.004701
31359000,0.0324,0.013523,0.002678,0.000431,0.012223
31360000,0.0324,0.013523,0.002678,0.000431,0.102485
31361000,0.0324,0.013523,0.002678,0.000431,0.016219
31362000,0.0324,0.013523,0.002678,0.000431,0.053358
31363000,0.0324,0.013523,0.002678,0.000431,0.035258
31364000,0.0324,0.013523,0.002678,0.000431,0.004701
31365000,0.0324,0.013523,0.002678,0.000431,0.031262
31366000,0.0324,0.013523,0.002678,0.000431,0.053358
31367000,0.0324,0.013523,0.002678,0.000431,0.008462
31368000,0.0324,0.013523,0.002678,0.000431,0.008345
31369000,0.0324,0.013523,0.002678,0.000431,0.004584
31370000,0.0324,0.013523,0.002678,0.000431,0.004701
31371000,0.0324,0.013523,0.002678,0.000431,0.004701
31372000,0.0324,0.013523,0.002678,0.000431,0.049832
31373000,0.0324,0.013523,0.002678,0.000431,0.004584
31374000,0.0324,0.013523,0.002678,0.000431,0.012223
31375000,0.0324,0.013523,0.002678,0.000431,0.004584
31376000,0.0324,0.013523,0.002678,0.000431,0.004701
31377000,0.0324,0.013523,0.002678,0.000431,0.004701
31378000,0.0324,0.013523,0.002678,0.000431,0.070164
31379000,0.0324,0.013523,0.002678,0.000431,0.014456
31380000,0.0324,0.013523,0.002678,0.000431,0.015984
31381000,0.0324,0.013523,0.002678,0.000431,0.015984
31382000,0.0324,0.013523,0.002678,0.000431,0.004701
31383000,0.0324,0.013523,0.002678,0.000431,0.004701
31384000,0.0324,0.013523,0.002678,0.000431,0.004584
31385000,0.0324,0.013523,0.002678,0.000431,0.049714
31386000,0.0324,0.013523,0.002678,0.000431,0.004701
31387000,0.0324,0.013523,0.002678,0.000431,0.004701
31388000,0.0324,0.013523,0.002678,0.000431,0.004701
31389000,0.0324,0.013523,0.002678,0.000431,0.004701
31390000,0.0324,0.013523,0.002678,0.000431,0.004701
31391000,0.0324,0.013523,0.002678,0.000431,0.020332
31392000,0.0324,0.013523,0.002678,0.000431,0.034201
31393000,0.0324,0.013523,0.002678,0.000431,0.004701
31394000,0.0324,0.013523,0.002678,0.000431,0.004701
31395000,0.0324,0.013523,0.002678,0.000431,0.004701
31396000,0.0324,0.013523,0.002678,0.000431,0.004701
31397000,0.0324,0.013523,0.002678,0.000431,0.010460
31398000,0.0324,0.013523,0.002678,0.000431,0.126813
31399000,0.0324,0.013523,0.002678,0.000431,0.027267
31400000,0.0324,0.013523,0.002678,0.000431,0.004701
31401000,0.0324,0.013523,0.002678,0.000431,0.011165
31402000,0.0324,0.013523,0.002678,0.000431,0.031850
31403000,0.0324,0.013523,0.002678,0.000431,0.016219
31404000,0.0324,0.013523,0.002678,0.000431,0.071457
31405000,0.0324,0.013523,0.002678,0.000431,0.043250
31406000,0.0324,0.013523,0.002678,0.000431,0.004701
31407000,0.0324,0.013523,0.002678,0.000431,0.004701
31408000,0.0324,0.013523,0.002678,0.000431,0.064641
31409000,0.0324,0.013523,0.002678,0.000431,0.146205
31410000,0.0324,0.013523,0.002678,0.000431,0.070047
31411000,0.0324,0.013523,0.002678,0.000431,0.034436
31412000,0.0324,0.013523,0.002678,0.000431,0.069224
31413000,0.0324,0.013523,0.002678,0.000431,0.004701
31414000,0.0324,0.013523,0.002678,0.000431,0.004701
31415000,0.0324,0.013523,0.002678,0.000431,0.004701
31416000,0.0324,0.013523,0.002678,0.000431,0.004701
31417000,0.0324,0.013523,0.002678,0.000431,0.019510
31418000,0.0324,0.013523,0.002678,0.000431,0.073338
31419000,0.0324,0.013523,0.002678,0.000431,0.012223
31420000,0.0324,0.013523,0.002678,0.000431,0.004701
31421000,0.0324,0.013523,0.002678,0.000431,0.019745
31422000,0.0324,0.013523,0.002678,0.000431,0.004701
31423000,0.0324,0.013523,0.002678,0.000431,0.004466
31424000,0.0324,0.013523,0.002678,0.000431,0.079919
31425000,0.0324,0.013523,0.002678,0.000431,0.125520
31426000,0.0324,0.013523,0.002678,0.000431,0.027267
31427000,0.0324,0.013523,0.002678,0.000431,0.004936
31428000,0.0324,0.013523,0.002678,0.000431,0.023271
31429000,0.0324,0.013523,0.002678,0.000431,0.008462
31430000,0.0324,0.013523,0.002678,0.000431,0.050067
31431000,0.0324,0.013523,0.002678,0.000431,0.012223
31432000,0.0324,0.013523,0.002678,0.000431,0.004701
31433000,0.0324,0.013523,0.002678,0.000431,0.004701
31434000,0.0324,0.013523,0.002678,0.000431,0.004584
31435000,0.0324,0.013523,0.002678,0.000431,0.004584
31436000,0.0324,0.013523,0.002678,0.000431,0.019745
31437000,0.0324,0.013523,0.002678,0.000431,0.015984
31438000,0.0324,0.013523,0.002678,0.000431,0.008227
31439000,0.0324,0.013523,0.002678,0.000431,0.004701
31440000,0.0324,0.013523,0.002678,0.000431,0.104483
31441000,0.0324,0.013523,0.002678,0.000431,0.017512
31442000,0.0324,0.013523,0.002678,0.000431,0.004701
31443000,0.0324,0.013523,0.002678,0.000431,0.012223
31444000,0.0324,0.013523,0.002678,0.000431,0.004466
31445000,0.0324,0.013523,0.002678,0.000431,0.004701
31446000,0.0324,0.013523,0.002678,0.000431,0.004701
31447000,0.0324,0.013523,0.002678,0.000431,0.027267
31448000,0.0324,0.013523,0.002678,0.000431,0.004701
31449000,0.0324,0.013523,0.002678,0.000431,0.012223
31450000,0.0324,0.013523,0.002678,0.000431,0.027267
31451000,0.0324,0.013523,0.002678,0.000431,0.012223
31452000,0.0324,0.013523,0.002678,0.000431,0.004701
31453000,0.0324,0.013523,0.002678,0.000431,0.004701
31454000,0.0324,0.013523,0.002678,0.000431,0.042310
31455000,0.0324,0.013523,0.002678,0.000431,0.008462
31456000,0.0324,0.013523,0.002678,0.000431,0.031027
31457000,0.0324,0.013523,0.002678,0.000431,0.012223
31458000,0.0324,0.013523,0.002678,0.000431,0.012223
31459000,0.0324,0.013523,0.002678,0.000431,0.005171
31460000,0.0324,0.013523,0.002678,0.000431,0.086971
31461000,0.0324,0.013523,0.002678,0.000431,0.004701
31462000,0.0324,0.013523,0.002678,0.000431,0.057941
31463000,0.0324,0.013523,0.002678,0.000431,0.019275
31464000,0.0324,0.013523,0.002678,0.000431,0.018805
31465000,0.0324,0.013523,0.002678,0.000431,0.005524
31466000,0.0324,0.013523,0.002678,0.000431,0.004701
31467000,0.0324,0.013523,0.002678,0.000431,0.004701
31468000,0.0324,0.013523,0.002678,0.000431,0.011988
31469000,0.0324,0.013523,0.002678,0.000431,0.019980
31470000,0.0324,0.013523,0.002678,0.000431,0.057354
31471000,0.0324,0.013523,0.002678,0.000431,0.004701
31472000,0.0324,0.013523,0.002678,0.000431,0.027267
31473000,0.0324,0.013523,0.002678,0.000431,0.004701
31474000,0.0324,0.013523,0.002678,0.000431,0.004701
31475000,0.0324,0.013523,0.002678,0.000431,0.027267
31476000,0.0324,0.013523,0.002678,0.000431,0.034788
31477000,0.0324,0.013523,0.002678,0.000431,0.004701
31478000,0.0324,0.013523,0.002678,0.000431,0.004466
31479000,0.0324,0.013523,0.002678,0.000431,0.004701
31480000,0.0324,0.013523,0.002678,0.000431,0.004701
31481000,0.0324,0.013523,0.002678,0.000431,0.012223
31482000,0.0324,0.013523,0.002678,0.000431,0.049832
31483000,0.0324,0.013523,0.002678,0.000431,0.042193
31484000,0.0324,0.013523,0.002678,0.000431,0.004349
31485000,0.0324,0.013523,0.002678,0.000431,0.019745
31486000,0.0324,0.013523,0.002678,0.000431,0.019745
31487000,0.0324,0.013523,0.002678,0.000431,0.004701
31488000,0.0324,0.013523,0.002678,0.000431,0.004701
31489000,0.0324,0.013523,0.002678,0.000431,0.012223
31490000,0.0324,0.013523,0.002678,0.000431,0.004701
31491000,0.0324,0.013523,0.002678,0.000431,0.016219
31492000,0.0324,0.013523,0.002678,0.000431,0.023741
31493000,0.0324,0.013523,0.002678,0.000431,0.004701
31494000,0.0324,0.013523,0.002678,0.000431,0.062407
31495000,0.0324,0.013523,0.002678,0.000431,0.014691
31496000,0.0324,0.013523,0.002678,0.000431,0.004701
31497000,0.0324,0.013523,0.002678,0.000431,0.004701
31498000,0.0324,0.013523,0.002678,0.000431,0.008462
31499000,0.0324,0.013523,0.002678,0.000431,0.015984
31500000,0.0324,0.013523,0.002678,0.000431,0.043603
31501000,0.0324,0.013523,0.002678,0.000431,0.048539
31502000,0.0324,0.013523,0.002678,0.000431,0.004701
31503000,0.0324,0.013523,0.002678,0.000431,0.004584
31504000,0.0324,0.013523,0.002678,0.000431,0.015866
31505000,0.0324,0.013523,0.002678,0.000431,0.045483
31506000,0.0324,0.013523,0.002678,0.000431,0.005171
31507000,0.0324,0.013523,0.002678,0.000431,0.019627
31508000,0.0324,0.013523,0.002678,0.000431,0.019745
31509000,0.0324,0.013523,0.002678,0.000431,0.066286
31510000,0.0324,0.013523,0.002678,0.000431,0.033143
31511000,0.0324,0.013523,0.002678,0.000431,0.110476
31512000,0.0324,0.013523,0.002678,0.000431,0.004701
31513000,0.0324,0.013523,0.002678,0.000431,0.004701
31514000,0.0324,0.013523,0.002678,0.000431,0.034788
31515000,0.0324,0.013523,0.002678,0.000431,0.004701
31516000,0.0324,0.013523,0.002678,0.000431,0.027972
31517000,0.0324,0.013523,0.002678,0.000431,0.004701
31518000,0.0324,0.013523,0.002678,0.000431,0.004701
31519000,0.0324,0.013523,0.002678,0.000431,0.004701
31520000,0.0324,0.013523,0.002678,0.000431,0.004701
31521000,0.0324,0.013523,0.002678,0.000431,0.034788
31522000,0.0324,0.013523,0.002678,0.000431,0.013163
31523000,0.0324,0.013523,0.002678,0.000431,0.011518
31524000,0.0324,0.013523,0.002678,0.000431,0.026679
31525000,0.0324,0.013523,0.002678,0.000431,0.004584
31526000,0.0324,0.013523,0.002678,0.000431,0.004701
31527000,0.0324,0.013523,0.002678,0.000431,0.004701
31528000,0.0324,0.013523,0.002678,0.000431,0.012223
31529000,0.0324,0.013523,0.002678,0.000431,0.073103
31530000,0.0324,0.013523,0.002678,0.000431,0.004701
31531000,0.0324,0.013523,0.002678,0.000431,0.004701
31532000,0.0324,0.013523,0.002678,0.000431,0.004701
31533000,0.0324,0.013523,0.002678,0.000431,0.019745
31534000,0.0324,0.013523,0.002678,0.000431,0.019745
31535000,0.0324,0.013523,0.002678,0.000431,0.023506
31536000,0.0324,0.013523,0.002678,0.000431,0.019745
31537000,0.0324,0.013523,0.002678,0.000431,0.008345
31538000,0.0324,0.013523,0.002678,0.000431,0.004584
31539000,0.0324,0.013523,0.002678,0.000431,0.004701
31540000,0.0324,0.013523,0.002678,0.000431,0.004701
31541000,0.0324,0.013523,0.002678,0.000431,0.111299
31542000,0.0324,0.013523,0.002678,0.000431,0.088734
31543000,0.0324,0.013523,0.002678,0.000431,0.106716
31544000,0.0324,0.013523,0.002678,0.000431,0.004701
31545000,0.0324,0.013523,0.002678,0.000431,0.004701
31546000,0.0324,0.013523,0.002678,0.000431,0.004701
31547000,0.0324,0.013523,0.002678,0.000431,0.026209
31548000,0.0324,0.013523,0.002678,0.000431,0.024563
31549000,0.0324,0.013523,0.002678,0.000431,0.031262
31550000,0.0324,0.013523,0.002678,0.000431,0.012223
31551000,0.0324,0.013523,0.002678,0.000431,0.004466
31552000,0.0324,0.013523,0.002678,0.000431,0.004701
31553000,0.0324,0.013523,0.002678,0.000431,0.004701
31554000,0.0324,0.013523,0.002678,0.000431,0.012223
31555000,0.0324,0.013523,0.002678,0.000431,0.023976
31556000,0.0324,0.013523,0.002678,0.000431,0.045601
31557000,0.0324,0.013523,0.002678,0.000431,0.004701
31558000,0.0324,0.013523,0.002678,0.000431,0.004584
31559000,0.0324,0.013523,0.002678,0.000431,0.004584
31560000,0.0324,0.013523,0.002678,0.000431,0.004701
31561000,0.0324,0.013523,0.002678,0.000431,0.019980
31562000,0.0324,0.013523,0.002678,0.000431,0.027267
31563000,0.0324,0.013523,0.002678,0.000431,0.004701
31564000,0.0324,0.013523,0.002678,0.000431,0.004584
31565000,0.0324,0.013523,0.002678,0.000431,0.004584
31566000,0.0324,0.013523,0.002678,0.000431,0.004701
31567000,0.0324,0.013523,0.002678,0.000431,0.004701
31568000,0.0324,0.013523,0.002678,0.000431,0.024798
31569000,0.0324,0.013523,0.002678,0.000431,0.007169
31570000,0.0324,0.013523,0.002678,0.000431,0.004701
31571000,0.0324,0.013523,0.002678,0.000431,0.004701
31572000,0.0324,0.013523,0.002678,0.000431,0.004701
31573000,0.0324,0.013523,0.002678,0.000431,0.027267
31574000,0.0324,0.013523,0.002678,0.000431,0.012223
31575000,0.0324,0.013523,0.002678,0.000431,0.012223
31576000,0.0324,0.013523,0.002678,0.000431,0.004701
31577000,0.0324,0.013523,0.002678,0.000431,0.004701
31578000,0.0324,0.013523,0.002678,0.000431,0.004466
31579000,0.0324,0.013523,0.002678,0.000431,0.011988
31580000,0.0324,0.013523,0.002678,0.000431,0.012458
31581000,0.0324,0.013523,0.002678,0.000431,0.004701
31582000,0.0324,0.013523,0.002678,0.000431,0.004701
31583000,0.0324,0.013523,0.002678,0.000431,0.012223
31584000,0.0324,0.013523,0.002678,0.000431,0.004701
31585000,0.0324,0.013523,0.002678,0.000431,0.012223
31586000,0.0324,0.013523,0.002678,0.000431,0.004701
31587000,0.0324,0.013523,0.002678,0.000431,0.004936
31588000,0.0324,0.013523,0.002678,0.000431,0.079449
31589000,0.0324,0.013523,0.002678,0.000431,0.004701
31590000,0.0324,0.013523,0.002678,0.000431,0.004701
31591000,0.0324,0.013523,0.002678,0.000431,0.004701
31592000,0.0324,0.013523,0.002678,0.000431,0.029382
31593000,0.0324,0.013523,0.002678,0.000431,0.032908
31594000,0.0324,0.013523,0.002678,0.000431,0.027267
31595000,0.0324,0.013523,0.002678,0.000431,0.019745
31596000,0.0324,0.013523,0.002678,0.000431,0.004701
31597000,0.0324,0.013523,0.002678,0.000431,0.019745
31598000,0.0324,0.013523,0.002678,0.000431,0.004584
31599000,0.0324,0.013523,0.002678,0.000431,0.019627
31600000,0.0324,0.013523,0.002678,0.000431,0.004701
31601000,0.0324,0.013523,0.002678,0.000431,0.020215
31602000,0.0324,0.013523,0.002678,0.000431,0.004701
31603000,0.0324,0.013523,0.002678,0.000431,0.004701
31604000,0.0324,0.013523,0.002678,0.000431,0.004231
31605000,0.0324,0.013523,0.002678,0.000431,0.004701
31606000,0.0324,0.013523,0.002678,0.000431,0.004701
31607000,0.0324,0.013523,0.002678,0.000431,0.004701
31608000,0.0324,0.013523,0.002678,0.000431,0.004701
31609000,0.0324,0.013523,0.002678,0.000431,0.004701
31610000,0.0324,0.013523,0.002678,0.000431,0.019980
31611000,0.0324,0.013523,0.002678,0.000431,0.011753
31612000,0.0324,0.013523,0.002678,0.000431,0.012223
31613000,0.0324,0.013523,0.002678,0.000431,0.012340
31614000,0.0324,0.013523,0.002678,0.000431,0.042428
31615000,0.0324,0.013523,0.002678,0.000431,0.004701
31616000,0.0324,0.013523,0.002678,0.000431,0.004701
31617000,0.0324,0.013523,0.002678,0.000431,0.012223
31618000,0.0324,0.013523,0.002678,0.000431,0.004466
31619000,0.0324,0.013523,0.002678,0.000431,0.004701
31620000,0.0324,0.013523,0.002678,0.000431,0.004701
31621000,0.0324,0.013523,0.002678,0.000431,0.004701
31622000,0.0324,0.013523,0.002678,0.000431,0.004701
31623000,0.0324,0.013523,0.002678,0.000431,0.004701
31624000,0.0324,0.013523,0.002678,0.000431,0.027267
31625000,0.0324,0.013523,0.002678,0.000431,0.004701
31626000,0.0324,0.013523,0.002678,0.000431,0.028794
31627000,0.0324,0.013523,0.002678,0.000431,0.040782
31628000,0.0324,0.013523,0.002678,0.000431,0.004701
31629000,0.0324,0.013523,0.002678,0.000431,0.019745
31630000,0.0324,0.013523,0.002678,0.000431,0.102485
31631000,0.0324,0.013523,0.002678,0.000431,0.012223
31632000,0.0324,0.013523,0.002678,0.000431,0.004701
31633000,0.0324,0.013523,0.002678,0.000431,0.019745
31634000,0.0324,0.013523,0.002678,0.000431,0.004701
31635000,0.0324,0.013523,0.002678,0.000431,0.004701
31636000,0.0324,0.013523,0.002678,0.000431,0.027267
31637000,0.0324,0.013523,0.002678,0.000431,0.021625
31638000,0.0324,0.013523,0.002678,0.000431,0.040430
31639000,0.0324,0.013523,0.002678,0.000431,0.049479
31640000,0.0324,0.013523,0.002678,0.000431,0.027149
31641000,0.0324,0.013523,0.002678,0.000431,0.049832
31642000,0.0324,0.013523,0.002678,0.000431,0.012458
31643000,0.0324,0.013523,0.002678,0.000431,0.027502
31644000,0.0324,0.013523,0.002678,0.000431,0.011988
31645000,0.0324,0.013523,0.002678,0.000431,0.004701
31646000,0.0324,0.013523,0.002678,0.000431,0.027267
31647000,0.0324,0.013523,0.002678,0.000431,0.004819
31648000,0.0324,0.013523,0.002678,0.000431,0.012340
31649000,0.0324,0.013523,0.002678,0.000431,0.057236
31650000,0.0324,0.013523,0.002678,0.000431,0.046071
31651000,0.0324,0.013523,0.002678,0.000431,0.016101
31652000,0.0324,0.013523,0.002678,0.000431,0.004701
31653000,0.0324,0.013523,0.002678,0.000431,0.004701
31654000,0.0324,0.013523,0.002678,0.000431,0.049832
31655000,0.0324,0.013523,0.002678,0.000431,0.004701
31656000,0.0324,0.013523,0.002678,0.000431,0.004701
31657000,0.0324,0.013523,0.002678,0.000431,0.019745
31658000,0.0324,0.013523,0.002678,0.000431,0.004701
31659000,0.0324,0.013523,0.002678,0.000431,0.012458
31660000,0.0324,0.013523,0.002678,0.000431,0.004701
31661000,0.0324,0.013523,0.002678,0.000431,0.004701
31662000,0.0324,0.013523,0.002678,0.000431,0.012223
31663000,0.0324,0.013523,0.002678,0.000431,0.004701
31664000,0.0324,0.013523,0.002678,0.000431,0.034553
31665000,0.0324,0.013523,0.002678,0.000431,0.005289
31666000,0.0324,0.013523,0.002678,0.000431,0.020920
31667000,0.0324,0.013523,0.002678,0.000431,0.005289
31668000,0.0324,0.013523,0.002678,0.000431,0.024798
31669000,0.0324,0.013523,0.002678,0.000431,0.007169
31670000,0.0324,0.013523,0.002678,0.000431,0.049832
31671000,0.0324,0.013523,0.002678,0.000431,0.004701
31672000,0.0324,0.013523,0.002678,0.000431,0.022800
31673000,0.0324,0.013523,0.002678,0.000431,0.013868
31674000,0.0324,0.013523,0.002678,0.000431,0.007522
31675000,0.0324,0.013523,0.002678,0.000431,0.004936
31676000,0.0324,0.013523,0.002678,0.000431,0.004701
31677000,0.0324,0.013523,0.002678,0.000431,0.004701
31678000,0.0324,0.013523,0.002678,0.000431,0.004701
31679000,0.0324,0.013523,0.002678,0.000431,0.004701
31680000,0.0324,0.013523,0.002678,0.000431,0.004701
31681000,0.0324,0.013523,0.002678,0.000431,0.004701
31682000,0.0324,0.013523,0.002678,0.000431,0.020097
31683000,0.0324,0.013523,0.002678,0.000431,0.034671
31684000,0.0324,0.013523,0.002678,0.000431,0.004466
31685000,0.0324,0.013523,0.002678,0.000431,0.004701
31686000,0.0324,0.013523,0.002678,0.000431,0.004701
31687000,0.0324,0.013523,0.002678,0.000431,0.004701
31688000,0.0324,0.013523,0.002678,0.000431,0.004701
31689000,0.0324,0.013523,0.002678,0.000431,0.035258
31690000,0.0324,0.013523,0.002678,0.000431,0.004466
31691000,0.0324,0.013523,0.002678,0.000431,0.004701
31692000,0.0324,0.013523,0.002678,0.000431,0.004701
31693000,0.0324,0.013523,0.002678,0.000431,0.012223
31694000,0.0324,0.013523,0.002678,0.000431,0.034788
31695000,0.0324,0.013523,0.002678,0.000431,0.004701
31696000,0.0324,0.013523,0.002678,0.000431,0.004701
31697000,0.0324,0.013523,0.002678,0.000431,0.004701
31698000,0.0324,0.013523,0.002678,0.000431,0.004701
31699000,0.0324,0.013523,0.002678,0.000431,0.004701
31700000,0.0324,0.013523,0.002678,0.000431,0.004701
31701000,0.0324,0.013523,0.002678,0.000431,0.012223
31702000,0.0324,0.013523,0.002678,0.000431,0.012458
31703000,0.0324,0.013523,0.002678,0.000431,0.004701
31704000,0.0324,0.013523,0.002678,0.000431,0.004466
31705000,0.0324,0.013523,0.002678,0.000431,0.004701
31706000,0.0324,0.013523,0.002678,0.000431,0.004701
31707000,0.0324,0.013523,0.002678,0.000431,0.012811
31708000,0.0324,0.013523,0.002678,0.000431,0.013398
31709000,0.0324,0.013523,0.002678,0.000431,0.005876
31710000,0.0324,0.013523,0.002678,0.000431,0.005876
31711000,0.0324,0.013523,0.002678,0.000431,0.005876
31712000,0.0324,0.013523,0.002678,0.000431,0.006699
31713000,0.0324,0.013523,0.002678,0.000431,0.012928
31714000,0.0324,0.013523,0.002678,0.000431,0.004701
31715000,0.0324,0.013523,0.002678,0.000431,0.027267
31716000,0.0324,0.013523,0.002678,0.000431,0.004701
31717000,0.0324,0.013523,0.002678,0.000431,0.004584
31718000,0.0324,0.013523,0.002678,0.000431,0.004584
31719000,0.0324,0.013523,0.002678,0.000431,0.019745
31720000,0.0324,0.013523,0.002678,0.000431,0.012223
31721000,0.0324,0.013523,0.002678,0.000431,0.023506
31722000,0.0324,0.013523,0.002678,0.000431,0.008227
31723000,0.0324,0.013523,0.002678,0.000431,0.004701
31724000,0.0324,0.013523,0.002678,0.000431,0.004701
31725000,0.0324,0.013523,0.002678,0.000431,0.013163
31726000,0.0324,0.013523,0.002678,0.000431,0.022095
31727000,0.0324,0.013523,0.002678,0.000431,0.007169
31728000,0.0324,0.013523,0.002678,0.000431,0.010578
31729000,0.0324,0.013523,0.002678,0.000431,0.005876
31730000,0.0324,0.013523,0.002678,0.000431,0.005641
31731000,0.0324,0.013523,0.002678,0.000431,0.005876
31732000,0.0324,0.013523,0.002678,0.000431,0.005054
31733000,0.0324,0.013523,0.002678,0.000431,0.004701
31734000,0.0324,0.013523,0.002678,0.000431,0.004701
31735000,0.0324,0.013523,0.002678,0.000431,0.004701
31736000,0.0324,0.013523,0.002678,0.000431,0.004701
31737000,0.0324,0.013523,0.002678,0.000431,0.004701
31738000,0.0324,0.013523,0.002678,0.000431,0.027267
31739000,0.0324,0.013523,0.002678,0.000431,0.012576
31740000,0.0324,0.013523,0.002678,0.000431,0.005876
31741000,0.0324,0.013523,0.002678,0.000431,0.006464
31742000,0.0324,0.013523,0.002678,0.000431,0.022448
31743000,0.0324,0.013523,0.002678,0.000431,0.007874
31744000,0.0324,0.013523,0.002678,0.000431,0.008109
31745000,0.0324,0.013523,0.002678,0.000431,0.007169
31746000,0.0324,0.013523,0.002678,0.000431,0.014573
31747000,0.0324,0.013523,0.002678,0.000431,0.053475
31748000,0.0324,0.013523,0.002678,0.000431,0.033613
31749000,0.0324,0.013523,0.002678,0.000431,0.010930
31750000,0.0324,0.013523,0.002678,0.000431,0.004701
31751000,0.0324,0.013523,0.002678,0.000431,0.004701
31752000,0.0324,0.013523,0.002678,0.000431,0.004701
31753000,0.0324,0.013523,0.002678,0.000431,0.004701
31754000,0.0324,0.013523,0.002678,0.000431,0.027267
31755000,0.0324,0.013523,0.002678,0.000431,0.004701
31756000,0.0324,0.013523,0.002678,0.000431,0.038432
31757000,0.0324,0.013523,0.002678,0.000431,0.008109
31758000,0.0324,0.013523,0.002678,0.000431,0.004701
31759000,0.0324,0.013523,0.002678,0.000431,0.004701
31760000,0.0324,0.013523,0.002678,0.000431,0.012223
31761000,0.0324,0.013523,0.002678,0.000431,0.004701
31762000,0.0324,0.013523,0.002678,0.000431,0.008462
31763000,0.0324,0.013523,0.002678,0.000431,0.038549
31764000,0.0324,0.013523,0.002678,0.000431,0.004701
31765000,0.0324,0.013523,0.002678,0.000431,0.004701
31766000,0.0324,0.013523,0.002678,0.000431,0.004701
31767000,0.0324,0.013523,0.002678,0.000431,0.015866
31768000,0.0324,0.013523,0.002678,0.000431,0.030910
31769000,0.0324,0.013523,0.002678,0.000431,0.012223
31770000,0.0324,0.013523,0.002678,0.000431,0.004701
31771000,0.0324,0.013523,0.002678,0.000431,0.004701
31772000,0.0324,0.013523,0.002678,0.000431,0.004701
31773000,0.0324,0.013523,0.002678,0.000431,0.012223
31774000,0.0324,0.013523,0.002678,0.000431,0.019745
31775000,0.0324,0.013523,0.002678,0.000431,0.004701
31776000,0.0324,0.013523,0.002678,0.000431,0.004466
31777000,0.0324,0.013523,0.002678,0.000431,0.004701
31778000,0.0324,0.013523,0.002678,0.000431,0.004701
31779000,0.0324,0.013523,0.002678,0.000431,0.038549
31780000,0.0324,0.013523,0.002678,0.000431,0.031027
31781000,0.0324,0.013523,0.002678,0.000431,0.004701
31782000,0.0324,0.013523,0.002678,0.000431,0.034788
31783000,0.0324,0.013523,0.002678,0.000431,0.004701
31784000,0.0324,0.013523,0.002678,0.000431,0.004701
31785000,0.0324,0.013523,0.002678,0.000431,0.004701
31786000,0.0324,0.013523,0.002678,0.000431,0.042310
31787000,0.0324,0.013523,0.002678,0.000431,0.004701
31788000,0.0324,0.013523,0.002678,0.000431,0.004466
31789000,0.0324,0.013523,0.002678,0.000431,0.005759
31790000,0.0324,0.013523,0.002678,0.000431,0.005876
31791000,0.0324,0.013523,0.002678,0.000431,0.005876
31792000,0.0324,0.013523,0.002678,0.000431,0.047246
31793000,0.0324,0.013523,0.002678,0.000431,0.038079
31794000,0.0324,0.013523,0.002678,0.000431,0.022330
31795000,0.0324,0.013523,0.002678,0.000431,0.012811
31796000,0.0324,0.013523,0.002678,0.000431,0.019745
31797000,0.0324,0.013523,0.002678,0.000431,0.004701
31798000,0.0324,0.013523,0.002678,0.000431,0.004701
31799000,0.0324,0.013523,0.002678,0.000431,0.004701
31800000,0.0324,0.013523,0.002678,0.000431,0.004701
31801000,0.0324,0.013523,0.002678,0.000431,0.034788
31802000,0.0324,0.013523,0.002678,0.000431,0.021038
31803000,0.0324,0.013523,0.002678,0.000431,0.019392
31804000,0.0324,0.013523,0.002678,0.000431,0.005759
31805000,0.0324,0.013523,0.002678,0.000431,0.032673
31806000,0.0324,0.013523,0.002678,0.000431,0.005876
31807000,0.0324,0.013523,0.002678,0.000431,0.005876
31808000,0.0324,0.013523,0.002678,0.000431,0.005876
31809000,0.0324,0.013523,0.002678,0.000431,0.005876
31810000,0.0324,0.013523,0.002678,0.000431,0.005876
31811000,0.0324,0.013523,0.002678,0.000431,0.009755
31812000,0.0324,0.013523,0.002678,0.000431,0.023976
31813000,0.0324,0.013523,0.002678,0.000431,0.004701
31814000,0.0324,0.013523,0.002678,0.000431,0.004701
31815000,0.0324,0.013523,0.002678,0.000431,0.004701
31816000,0.0324,0.013523,0.002678,0.000431,0.004701
31817000,0.0324,0.013523,0.002678,0.000431,0.004701
31818000,0.0324,0.013523,0.002678,0.000431,0.034553
31819000,0.0324,0.013523,0.002678,0.000431,0.004701
31820000,0.0324,0.013523,0.002678,0.000431,0.004701
31821000,0.0324,0.013523,0.002678,0.000431,0.004584
31822000,0.0324,0.013523,0.002678,0.000431,0.004349
31823000,0.0324,0.013523,0.002678,0.000431,0.012223
31824000,0.0324,0.013523,0.002678,0.000431,0.015984
31825000,0.0324,0.013523,0.002678,0.000431,0.008462
31826000,0.0324,0.013523,0.002678,0.000431,0.004701
31827000,0.0324,0.013523,0.002678,0.000431,0.004701
31828000,0.0324,0.013523,0.002678,0.000431,0.012811
31829000,0.0324,0.013523,0.002678,0.000431,0.016924
31830000,0.0324,0.013523,0.002678,0.000431,0.011400
31831000,0.0324,0.013523,0.002678,0.000431,0.007874
31832000,0.0324,0.013523,0.002678,0.000431,0.008227
31833000,0.0324,0.013523,0.002678,0.000431,0.008815
31834000,0.0324,0.013523,0.002678,0.000431,0.067461
31835000,0.0324,0.013523,0.002678,0.000431,0.006934
31836000,0.0324,0.013523,0.002678,0.000431,0.006111
31837000,0.0324,0.013523,0.002678,0.000431,0.043133
31838000,0.0324,0.013523,0.002678,0.000431,0.012223
31839000,0.0324,0.013523,0.002678,0.000431,0.004701
31840000,0.0324,0.013523,0.002678,0.000431,0.004701
31841000,0.0324,0.013523,0.002678,0.000431,0.004701
31842000,0.0324,0.013523,0.002678,0.000431,0.004936
31843000,0.0324,0.013523,0.002678,0.000431,0.004701
31844000,0.0324,0.013523,0.002678,0.000431,0.027854
31845000,0.0324,0.013523,0.002678,0.000431,0.005876
31846000,0.0324,0.013523,0.002678,0.000431,0.005876
31847000,0.0324,0.013523,0.002678,0.000431,0.006111
31848000,0.0324,0.013523,0.002678,0.000431,0.005876
31849000,0.0324,0.013523,0.002678,0.000431,0.021625
31850000,0.0324,0.013523,0.002678,0.000431,0.019745
31851000,0.0324,0.013523,0.002678,0.000431,0.065228
31852000,0.0324,0.013523,0.002678,0.000431,0.004701
31853000,0.0324,0.013523,0.002678,0.000431,0.004701
31854000,0.0324,0.013523,0.002678,0.000431,0.012223
31855000,0.0324,0.013523,0.002678,0.000431,0.004584
31856000,0.0324,0.013523,0.002678,0.000431,0.034201
31857000,0.0324,0.013523,0.002678,0.000431,0.035494
31858000,0.0324,0.013523,0.002678,0.000431,0.004701
31859000,0.0324,0.013523,0.002678,0.000431,0.004701
31860000,0.0324,0.013523,0.002678,0.000431,0.012223
31861000,0.0324,0.013523,0.002678,0.000431,0.019627
31862000,0.0324,0.013523,0.002678,0.000431,0.004584
31863000,0.0324,0.013523,0.002678,0.000431,0.004701
31864000,0.0324,0.013523,0.002678,0.000431,0.004701
31865000,0.0324,0.013523,0.002678,0.000431,0.004701
31866000,0.0324,0.013523,0.002678,0.000431,0.004701
31867000,0.0324,0.013523,0.002678,0.000431,0.004701
31868000,0.0324,0.013523,0.002678,0.000431,0.004701
31869000,0.0324,0.013523,0.002678,0.000431,0.004466
31870000,0.0324,0.013523,0.002678,0.000431,0.005054
31871000,0.0324,0.013523,0.002678,0.000431,0.013516
31872000,0.0324,0.013523,0.002678,0.000431,0.007052
31873000,0.0324,0.013523,0.002678,0.000431,0.010813
31874000,0.0324,0.013523,0.002678,0.000431,0.011870
31875000,0.0324,0.013523,0.002678,0.000431,0.008227
31876000,0.0324,0.013523,0.002678,0.000431,0.030910
31877000,0.0324,0.013523,0.002678,0.000431,0.007052
31878000,0.0324,0.013523,0.002678,0.000431,0.006229
31879000,0.0324,0.013523,0.002678,0.000431,0.006464
31880000,0.0324,0.013523,0.002678,0.000431,0.004701
31881000,0.0324,0.013523,0.002678,0.000431,0.004701
31882000,0.0324,0.013523,0.002678,0.000431,0.004701
31883000,0.0324,0.013523,0.002678,0.000431,0.004349
31884000,0.0324,0.013523,0.002678,0.000431,0.004584
31885000,0.0324,0.013523,0.002678,0.000431,0.034671
31886000,0.0324,0.013523,0.002678,0.000431,0.004819
31887000,0.0324,0.013523,0.002678,0.000431,0.004701
31888000,0.0324,0.013523,0.002678,0.000431,0.008462
31889000,0.0324,0.013523,0.002678,0.000431,0.008462
31890000,0.0324,0.013523,0.002678,0.000431,0.004701
31891000,0.0324,0.013523,0.002678,0.000431,0.004701
31892000,0.0324,0.013523,0.002678,0.000431,0.004701
31893000,0.0324,0.013523,0.002678,0.000431,0.004701
31894000,0.0324,0.013523,0.002678,0.000431,0.004701
31895000,0.0324,0.013523,0.002678,0.000431,0.027031
31896000,0.0324,0.013523,0.002678,0.000431,0.004701
31897000,0.0324,0.013523,0.002678,0.000431,0.004701
31898000,0.0324,0.013523,0.002678,0.000431,0.004701
31899000,0.0324,0.013523,0.002678,0.000431,0.004701
31900000,0.0324,0.013523,0.002678,0.000431,0.004701
31901000,0.0324,0.013523,0.002678,0.000431,0.008580
31902000,0.0324,0.013523,0.002678,0.000431,0.054768
31903000,0.0324,0.013523,0.002678,0.000431,0.005876
31904000,0.0324,0.013523,0.002678,0.000431,0.005876
31905000,0.0324,0.013523,0.002678,0.000431,0.005641
31906000,0.0324,0.013523,0.002678,0.000431,0.005641
31907000,0.0324,0.013523,0.002678,0.000431,0.005876
31908000,0.0324,0.013523,0.002678,0.000431,0.012928
31909000,0.0324,0.013523,0.002678,0.000431,0.004819
31910000,0.0324,0.013523,0.002678,0.000431,0.004701
31911000,0.0324,0.013523,0.002678,0.000431,0.004701
31912000,0.0324,0.013523,0.002678,0.000431,0.005524
31913000,0.0324,0.013523,0.002678,0.000431,0.005876
31914000,0.0324,0.013523,0.002678,0.000431,0.005876
31915000,0.0324,0.013523,0.002678,0.000431,0.035964
31916000,0.0324,0.013523,0.002678,0.000431,0.005876
31917000,0.0324,0.013523,0.002678,0.000431,0.005994
31918000,0.0324,0.013523,0.002678,0.000431,0.005171
31919000,0.0324,0.013523,0.002678,0.000431,0.004701
31920000,0.0324,0.013523,0.002678,0.000431,0.004701
31921000,0.0324,0.013523,0.002678,0.000431,0.021390
31922000,0.0324,0.013523,0.002678,0.000431,0.010578
31923000,0.0324,0.013523,0.002678,0.000431,0.004466
31924000,0.0324,0.013523,0.002678,0.000431,0.004701
31925000,0.0324,0.013523,0.002678,0.000431,0.004701
31926000,0.0324,0.013523,0.002678,0.000431,0.004701
31927000,0.0324,0.013523,0.002678,0.000431,0.004701
31928000,0.0324,0.013523,0.002678,0.000431,0.065111
31929000,0.0324,0.013523,0.002678,0.000431,0.004701
31930000,0.0324,0.013523,0.002678,0.000431,0.038549
31931000,0.0324,0.013523,0.002678,0.000431,0.008462
31932000,0.0324,0.013523,0.002678,0.000431,0.004701
31933000,0.0324,0.013523,0.002678,0.000431,0.004701
31934000,0.0324,0.013523,0.002678,0.000431,0.028442
31935000,0.0324,0.013523,0.002678,0.000431,0.005876
31936000,0.0324,0.013523,0.002678,0.000431,0.005759
31937000,0.0324,0.013523,0.002678,0.000431,0.005876
31938000,0.0324,0.013523,0.002678,0.000431,0.005641
31939000,0.0324,0.013523,0.002678,0.000431,0.005641
31940000,0.0324,0.013523,0.002678,0.000431,0.058176
31941000,0.0324,0.013523,0.002678,0.000431,0.004701
31942000,0.0324,0.013523,0.002678,0.000431,0.004701
31943000,0.0324,0.013523,0.002678,0.000431,0.015984
31944000,0.0324,0.013523,0.002678,0.000431,0.008462
31945000,0.0324,0.013523,0.002678,0.000431,0.004701
31946000,0.0324,0.013523,0.002678,0.000431,0.004701
31947000,0.0324,0.013523,0.002678,0.000431,0.079214
31948000,0.0324,0.013523,0.002678,0.000431,0.029735
31949000,0.0324,0.013523,0.002678,0.000431,0.005876
31950000,0.0324,0.013523,0.002678,0.000431,0.020920
31951000,0.0324,0.013523,0.002678,0.000431,0.005641
31952000,0.0324,0.013523,0.002678,0.000431,0.005876
31953000,0.0324,0.013523,0.002678,0.000431,0.006464
31954000,0.0324,0.013523,0.002678,0.000431,0.035141
31955000,0.0324,0.013523,0.002678,0.000431,0.005876
31956000,0.0324,0.013523,0.002678,0.000431,0.006111
31957000,0.0324,0.013523,0.002678,0.000431,0.005641
31958000,0.0324,0.013523,0.002678,0.000431,0.005876
31959000,0.0324,0.013523,0.002678,0.000431,0.005876
31960000,0.0324,0.013523,0.002678,0.000431,0.013751
31961000,0.0324,0.013523,0.002678,0.000431,0.004701
31962000,0.0324,0.013523,0.002678,0.000431,0.004701
31963000,0.0324,0.013523,0.002678,0.000431,0.027267
31964000,0.0324,0.013523,0.002678,0.000431,0.004701
31965000,0.0324,0.013523,0.002678,0.000431,0.004701
31966000,0.0324,0.013523,0.002678,0.000431,0.031027
31967000,0.0324,0.013523,0.002678,0.000431,0.015984
31968000,0.0324,0.013523,0.002678,0.000431,0.004584
31969000,0.0324,0.013523,0.002678,0.000431,0.024211
31970000,0.0324,0.013523,0.002678,0.000431,0.015161
31971000,0.0324,0.013523,0.002678,0.000431,0.004701
31972000,0.0324,0.013523,0.002678,0.000431,0.004701
31973000,0.0324,0.013523,0.002678,0.000431,0.004701
31974000,0.0324,0.013523,0.002678,0.000431,0.004701
31975000,0.0324,0.013523,0.002678,0.000431,0.004701
31976000,0.0324,0.013523,0.002678,0.000431,0.004701
31977000,0.0324,0.013523,0.002678,0.000431,0.004466
31978000,0.0324,0.013523,0.002678,0.000431,0.004701
31979000,0.0324,0.013523,0.002678,0.000431,0.004701
31980000,0.0324,0.013523,0.002678,0.000431,0.004701
31981000,0.0324,0.013523,0.002678,0.000431,0.004701
31982000,0.0324,0.013523,0.002678,0.000431,0.004701
31983000,0.0324,0.013523,0.002678,0.000431,0.004701
31984000,0.0324,0.013523,0.002678,0.000431,0.004701
31985000,0.0324,0.013523,0.002678,0.000431,0.004701
31986000,0.0324,0.013523,0.002678,0.000431,0.012223
31987000,0.0324,0.013523,0.002678,0.000431,0.004701
31988000,0.0324,0.013523,0.002678,0.000431,0.004701
31989000,0.0324,0.013523,0.002678,0.000431,0.013046
31990000,0.0324,0.013523,0.002678,0.000431,0.005406
31991000,0.0324,0.013523,0.002678,0.000431,0.008932
31992000,0.0324,0.013523,0.002678,0.000431,0.017864
31993000,0.0324,0.013523,0.002678,0.000431,0.005876
31994000,0.0324,0.013523,0.002678,0.000431,0.005876
31995000,0.0324,0.013523,0.002678,0.000431,0.005994
31996000,0.0324,0.013523,0.002678,0.000431,0.004701
31997000,0.0324,0.013523,0.002678,0.000431,0.004466
31998000,0.0324,0.013523,0.002678,0.000431,0.004701
31999000,0.0324,0.013523,0.002678,0.000431,0.004701
