Cycle,Area(mm^2),PeakDynamic(W),SubthresholdLeakage(W),GateLeakage(W),RunTimeDynamic(W)
20000000,0.0324,0.013523,0.002678,0.000431,0.285006
20001000,0.0324,0.013523,0.002678,0.000431,0.087911
20002000,0.0324,0.013523,0.002678,0.000431,0.193334
20003000,0.0324,0.013523,0.002678,0.000431,0.081330
20004000,0.0324,0.013523,0.002678,0.000431,0.109419
20005000,0.0324,0.013523,0.002678,0.000431,0.133865
20006000,0.0324,0.013523,0.002678,0.000431,0.322262
20007000,0.0324,0.013523,0.002678,0.000431,0.112945
20008000,0.0324,0.013523,0.002678,0.000431,0.068284
20009000,0.0324,0.013523,0.002678,0.000431,0.072045
20010000,0.0324,0.013523,0.002678,0.000431,0.147968
20011000,0.0324,0.013523,0.002678,0.000431,0.118468
20012000,0.0324,0.013523,0.002678,0.000431,0.180523
20013000,0.0324,0.013523,0.002678,0.000431,0.269257
20014000,0.0324,0.013523,0.002678,0.000431,0.117176
20015000,0.0324,0.013523,0.002678,0.000431,0.061702
20016000,0.0324,0.013523,0.002678,0.000431,0.129281
20017000,0.0324,0.013523,0.002678,0.000431,0.061820
20018000,0.0324,0.013523,0.002678,0.000431,0.152552
20019000,0.0324,0.013523,0.002678,0.000431,0.282068
20020000,0.0324,0.013523,0.002678,0.000431,0.141151
20021000,0.0324,0.013523,0.002678,0.000431,0.071105
20022000,0.0324,0.013523,0.002678,0.000431,0.157135
20023000,0.0324,0.013523,0.002678,0.000431,0.204969
20024000,0.0324,0.013523,0.002678,0.000431,0.090027
20025000,0.0324,0.013523,0.002678,0.000431,0.183697
20026000,0.0324,0.013523,0.002678,0.000431,0.298874
20027000,0.0324,0.013523,0.002678,0.000431,0.160779
20028000,0.0324,0.013523,0.002678,0.000431,0.127283
20029000,0.0324,0.013523,0.002678,0.000431,0.088616
20030000,0.0324,0.013523,0.002678,0.000431,0.147380
20031000,0.0324,0.013523,0.002678,0.000431,0.065111
20032000,0.0324,0.013523,0.002678,0.000431,0.155372
20033000,0.0324,0.013523,0.002678,0.000431,0.103190
20034000,0.0324,0.013523,0.002678,0.000431,0.093082
20035000,0.0324,0.013523,0.002678,0.000431,0.135157
20036000,0.0324,0.013523,0.002678,0.000431,0.101897
20037000,0.0324,0.013523,0.002678,0.000431,0.222011
20038000,0.0324,0.013523,0.002678,0.000431,0.221541
20039000,0.0324,0.013523,0.002678,0.000431,0.259502
20040000,0.0324,0.013523,0.002678,0.000431,0.084973
20041000,0.0324,0.013523,0.002678,0.000431,0.286769
20042000,0.0324,0.013523,0.002678,0.000431,0.091437
20043000,0.0324,0.013523,0.002678,0.000431,0.157958
20044000,0.0324,0.013523,0.002678,0.000431,0.205087
20045000,0.0324,0.013523,0.002678,0.000431,0.223891
20046000,0.0324,0.013523,0.002678,0.000431,0.134452
20047000,0.0324,0.013523,0.002678,0.000431,0.086383
20048000,0.0324,0.013523,0.002678,0.000431,0.097196
20049000,0.0324,0.013523,0.002678,0.000431,0.241638
20050000,0.0324,0.013523,0.002678,0.000431,0.104012
20051000,0.0324,0.013523,0.002678,0.000431,0.194627
20052000,0.0324,0.013523,0.002678,0.000431,0.123640
20053000,0.0324,0.013523,0.002678,0.000431,0.144795
20054000,0.0324,0.013523,0.002678,0.000431,0.087558
20055000,0.0324,0.013523,0.002678,0.000431,0.159133
20056000,0.0324,0.013523,0.002678,0.000431,0.162894
20057000,0.0324,0.013523,0.002678,0.000431,0.104012
20058000,0.0324,0.013523,0.002678,0.000431,0.292998
20059000,0.0324,0.013523,0.002678,0.000431,0.143502
20060000,0.0324,0.013523,0.002678,0.000431,0.127636
20061000,0.0324,0.013523,0.002678,0.000431,0.124110
20062000,0.0324,0.013523,0.002678,0.000431,0.324495
20063000,0.0324,0.013523,0.002678,0.000431,0.163717
20064000,0.0324,0.013523,0.002678,0.000431,0.243401
20065000,0.0324,0.013523,0.002678,0.000431,0.194274
20066000,0.0324,0.013523,0.002678,0.000431,0.187105
20067000,0.0324,0.013523,0.002678,0.000431,0.079919
20068000,0.0324,0.013523,0.002678,0.000431,0.084150
20069000,0.0324,0.013523,0.002678,0.000431,0.174294
20070000,0.0324,0.013523,0.002678,0.000431,0.216252
20071000,0.0324,0.013523,0.002678,0.000431,0.180523
20072000,0.0324,0.013523,0.002678,0.000431,0.248220
20073000,0.0324,0.013523,0.002678,0.000431,0.054298
20074000,0.0324,0.013523,0.002678,0.000431,0.054063
20075000,0.0324,0.013523,0.002678,0.000431,0.074043
20076000,0.0324,0.013523,0.002678,0.000431,0.206967
20077000,0.0324,0.013523,0.002678,0.000431,0.220835
20078000,0.0324,0.013523,0.002678,0.000431,0.132689
20079000,0.0324,0.013523,0.002678,0.000431,0.210375
20080000,0.0324,0.013523,0.002678,0.000431,0.049479
20081000,0.0324,0.013523,0.002678,0.000431,0.132924
20082000,0.0324,0.013523,0.002678,0.000431,0.121407
20083000,0.0324,0.013523,0.002678,0.000431,0.139036
20084000,0.0324,0.013523,0.002678,0.000431,0.273958
20085000,0.0324,0.013523,0.002678,0.000431,0.188985
20086000,0.0324,0.013523,0.002678,0.000431,0.095198
20087000,0.0324,0.013523,0.002678,0.000431,0.068166
20088000,0.0324,0.013523,0.002678,0.000431,0.110829
20089000,0.0324,0.013523,0.002678,0.000431,0.113297
20090000,0.0324,0.013523,0.002678,0.000431,0.241168
20091000,0.0324,0.013523,0.002678,0.000431,0.146910
20092000,0.0324,0.013523,0.002678,0.000431,0.165715
20093000,0.0324,0.013523,0.002678,0.000431,0.149378
20094000,0.0324,0.013523,0.002678,0.000431,0.259502
20095000,0.0324,0.013523,0.002678,0.000431,0.135628
20096000,0.0324,0.013523,0.002678,0.000431,0.134217
20097000,0.0324,0.013523,0.002678,0.000431,0.175117
20098000,0.0324,0.013523,0.002678,0.000431,0.089792
20099000,0.0324,0.013523,0.002678,0.000431,0.084855
20100000,0.0324,0.013523,0.002678,0.000431,0.111064
20101000,0.0324,0.013523,0.002678,0.000431,0.104835
20102000,0.0324,0.013523,0.002678,0.000431,0.167948
20103000,0.0324,0.013523,0.002678,0.000431,0.129869
20104000,0.0324,0.013523,0.002678,0.000431,0.296053
20105000,0.0324,0.013523,0.002678,0.000431,0.085796
20106000,0.0324,0.013523,0.002678,0.000431,0.102720
20107000,0.0324,0.013523,0.002678,0.000431,0.170533
20108000,0.0324,0.013523,0.002678,0.000431,0.190043
20109000,0.0324,0.013523,0.002678,0.000431,0.113297
20110000,0.0324,0.013523,0.002678,0.000431,0.198858
20111000,0.0324,0.013523,0.002678,0.000431,0.188045
20112000,0.0324,0.013523,0.002678,0.000431,0.110476
20113000,0.0324,0.013523,0.002678,0.000431,0.182051
20114000,0.0324,0.013523,0.002678,0.000431,0.200973
20115000,0.0324,0.013523,0.002678,0.000431,0.252215
20116000,0.0324,0.013523,0.002678,0.000431,0.182521
20117000,0.0324,0.013523,0.002678,0.000431,0.179466
20118000,0.0324,0.013523,0.002678,0.000431,0.208025
20119000,0.0324,0.013523,0.002678,0.000431,0.157135
20120000,0.0324,0.013523,0.002678,0.000431,0.085090
20121000,0.0324,0.013523,0.002678,0.000431,0.206027
20122000,0.0324,0.013523,0.002678,0.000431,0.217075
20123000,0.0324,0.013523,0.002678,0.000431,0.135980
20124000,0.0324,0.013523,0.002678,0.000431,0.130691
20125000,0.0324,0.013523,0.002678,0.000431,0.042663
20126000,0.0324,0.013523,0.002678,0.000431,0.152199
20127000,0.0324,0.013523,0.002678,0.000431,0.079802
20128000,0.0324,0.013523,0.002678,0.000431,0.098606
20129000,0.0324,0.013523,0.002678,0.000431,0.072750
20130000,0.0324,0.013523,0.002678,0.000431,0.194862
20131000,0.0324,0.013523,0.002678,0.000431,0.158781
20132000,0.0324,0.013523,0.002678,0.000431,0.090732
20133000,0.0324,0.013523,0.002678,0.000431,0.155725
20134000,0.0324,0.013523,0.002678,0.000431,0.182051
20135000,0.0324,0.013523,0.002678,0.000431,0.180053
20136000,0.0324,0.013523,0.002678,0.000431,0.239875
20137000,0.0324,0.013523,0.002678,0.000431,0.116823
20138000,0.0324,0.013523,0.002678,0.000431,0.129281
20139000,0.0324,0.013523,0.002678,0.000431,0.106010
20140000,0.0324,0.013523,0.002678,0.000431,0.082387
20141000,0.0324,0.013523,0.002678,0.000431,0.235997
20142000,0.0324,0.013523,0.002678,0.000431,0.067931
20143000,0.0324,0.013523,0.002678,0.000431,0.322262
20144000,0.0324,0.013523,0.002678,0.000431,0.064053
20145000,0.0324,0.013523,0.002678,0.000431,0.109301
20146000,0.0324,0.013523,0.002678,0.000431,0.235526
20147000,0.0324,0.013523,0.002678,0.000431,0.182169
20148000,0.0324,0.013523,0.002678,0.000431,0.192864
20149000,0.0324,0.013523,0.002678,0.000431,0.179113
20150000,0.0324,0.013523,0.002678,0.000431,0.131749
20151000,0.0324,0.013523,0.002678,0.000431,0.279012
20152000,0.0324,0.013523,0.002678,0.000431,0.175117
20153000,0.0324,0.013523,0.002678,0.000431,0.164657
20154000,0.0324,0.013523,0.002678,0.000431,0.376208
20155000,0.0324,0.013523,0.002678,0.000431,0.120819
20156000,0.0324,0.013523,0.002678,0.000431,0.152552
20157000,0.0324,0.013523,0.002678,0.000431,0.070634
20158000,0.0324,0.013523,0.002678,0.000431,0.071222
20159000,0.0324,0.013523,0.002678,0.000431,0.186635
20160000,0.0324,0.013523,0.002678,0.000431,0.255859
20161000,0.0324,0.013523,0.002678,0.000431,0.159838
20162000,0.0324,0.013523,0.002678,0.000431,0.157723
20163000,0.0324,0.013523,0.002678,0.000431,0.074043
20164000,0.0324,0.013523,0.002678,0.000431,0.132924
20165000,0.0324,0.013523,0.002678,0.000431,0.077921
20166000,0.0324,0.013523,0.002678,0.000431,0.178643
20167000,0.0324,0.013523,0.002678,0.000431,0.295818
20168000,0.0324,0.013523,0.002678,0.000431,0.079919
20169000,0.0324,0.013523,0.002678,0.000431,0.114237
20170000,0.0324,0.013523,0.002678,0.000431,0.042428
20171000,0.0324,0.013523,0.002678,0.000431,0.108831
20172000,0.0324,0.013523,0.002678,0.000431,0.108243
20173000,0.0324,0.013523,0.002678,0.000431,0.175705
20174000,0.0324,0.013523,0.002678,0.000431,0.122347
20175000,0.0324,0.013523,0.002678,0.000431,0.183226
20176000,0.0324,0.013523,0.002678,0.000431,0.068872
20177000,0.0324,0.013523,0.002678,0.000431,0.072867
20178000,0.0324,0.013523,0.002678,0.000431,0.126930
20179000,0.0324,0.013523,0.002678,0.000431,0.193451
20180000,0.0324,0.013523,0.002678,0.000431,0.198975
20181000,0.0324,0.013523,0.002678,0.000431,0.179936
20182000,0.0324,0.013523,0.002678,0.000431,0.153374
20183000,0.0324,0.013523,0.002678,0.000431,0.057706
20184000,0.0324,0.013523,0.002678,0.000431,0.112827
20185000,0.0324,0.013523,0.002678,0.000431,0.076393
20186000,0.0324,0.013523,0.002678,0.000431,0.232706
20187000,0.0324,0.013523,0.002678,0.000431,0.166537
20188000,0.0324,0.013523,0.002678,0.000431,0.353877
20189000,0.0324,0.013523,0.002678,0.000431,0.089792
20190000,0.0324,0.013523,0.002678,0.000431,0.038432
20191000,0.0324,0.013523,0.002678,0.000431,0.140094
20192000,0.0324,0.013523,0.002678,0.000431,0.299814
20193000,0.0324,0.013523,0.002678,0.000431,0.128811
20194000,0.0324,0.013523,0.002678,0.000431,0.253156
20195000,0.0324,0.013523,0.002678,0.000431,0.132924
20196000,0.0324,0.013523,0.002678,0.000431,0.059939
20197000,0.0324,0.013523,0.002678,0.000431,0.170298
20198000,0.0324,0.013523,0.002678,0.000431,0.092260
20199000,0.0324,0.013523,0.002678,0.000431,0.133042
20200000,0.0324,0.013523,0.002678,0.000431,0.209435
20201000,0.0324,0.013523,0.002678,0.000431,0.203089
20202000,0.0324,0.013523,0.002678,0.000431,0.068989
20203000,0.0324,0.013523,0.002678,0.000431,0.159603
20204000,0.0324,0.013523,0.002678,0.000431,0.204264
20205000,0.0324,0.013523,0.002678,0.000431,0.273018
20206000,0.0324,0.013523,0.002678,0.000431,0.152317
20207000,0.0324,0.013523,0.002678,0.000431,0.187222
20208000,0.0324,0.013523,0.002678,0.000431,0.095198
20209000,0.0324,0.013523,0.002678,0.000431,0.095668
20210000,0.0324,0.013523,0.002678,0.000431,0.098841
20211000,0.0324,0.013523,0.002678,0.000431,0.163834
20212000,0.0324,0.013523,0.002678,0.000431,0.294643
20213000,0.0324,0.013523,0.002678,0.000431,0.240933
20214000,0.0324,0.013523,0.002678,0.000431,0.264321
20215000,0.0324,0.013523,0.002678,0.000431,0.042663
20216000,0.0324,0.013523,0.002678,0.000431,0.096726
20217000,0.0324,0.013523,0.002678,0.000431,0.111652
20218000,0.0324,0.013523,0.002678,0.000431,0.201326
20219000,0.0324,0.013523,0.002678,0.000431,0.143619
20220000,0.0324,0.013523,0.002678,0.000431,0.326728
20221000,0.0324,0.013523,0.002678,0.000431,0.051595
20222000,0.0324,0.013523,0.002678,0.000431,0.159251
20223000,0.0324,0.013523,0.002678,0.000431,0.156430
20224000,0.0324,0.013523,0.002678,0.000431,0.146675
20225000,0.0324,0.013523,0.002678,0.000431,0.138096
20226000,0.0324,0.013523,0.002678,0.000431,0.236467
20227000,0.0324,0.013523,0.002678,0.000431,0.194744
20228000,0.0324,0.013523,0.002678,0.000431,0.113062
20229000,0.0324,0.013523,0.002678,0.000431,0.081212
20230000,0.0324,0.013523,0.002678,0.000431,0.102132
20231000,0.0324,0.013523,0.002678,0.000431,0.156548
20232000,0.0324,0.013523,0.002678,0.000431,0.144090
20233000,0.0324,0.013523,0.002678,0.000431,0.367746
20234000,0.0324,0.013523,0.002678,0.000431,0.048774
20235000,0.0324,0.013523,0.002678,0.000431,0.095668
20236000,0.0324,0.013523,0.002678,0.000431,0.185224
20237000,0.0324,0.013523,0.002678,0.000431,0.095315
20238000,0.0324,0.013523,0.002678,0.000431,0.070517
20239000,0.0324,0.013523,0.002678,0.000431,0.378441
20240000,0.0324,0.013523,0.002678,0.000431,0.100134
20241000,0.0324,0.013523,0.002678,0.000431,0.139741
20242000,0.0324,0.013523,0.002678,0.000431,0.097078
20243000,0.0324,0.013523,0.002678,0.000431,0.063113
20244000,0.0324,0.013523,0.002678,0.000431,0.095198
20245000,0.0324,0.013523,0.002678,0.000431,0.162306
20246000,0.0324,0.013523,0.002678,0.000431,0.232236
20247000,0.0324,0.013523,0.002678,0.000431,0.043603
20248000,0.0324,0.013523,0.002678,0.000431,0.094023
20249000,0.0324,0.013523,0.002678,0.000431,0.087794
20250000,0.0324,0.013523,0.002678,0.000431,0.226712
20251000,0.0324,0.013523,0.002678,0.000431,0.107068
20252000,0.0324,0.013523,0.002678,0.000431,0.209435
20253000,0.0324,0.013523,0.002678,0.000431,0.199210
20254000,0.0324,0.013523,0.002678,0.000431,0.076158
20255000,0.0324,0.013523,0.002678,0.000431,0.171591
20256000,0.0324,0.013523,0.002678,0.000431,0.146558
20257000,0.0324,0.013523,0.002678,0.000431,0.202501
20258000,0.0324,0.013523,0.002678,0.000431,0.092965
20259000,0.0324,0.013523,0.002678,0.000431,0.138566
20260000,0.0324,0.013523,0.002678,0.000431,0.063465
20261000,0.0324,0.013523,0.002678,0.000431,0.074630
20262000,0.0324,0.013523,0.002678,0.000431,0.186400
20263000,0.0324,0.013523,0.002678,0.000431,0.188985
20264000,0.0324,0.013523,0.002678,0.000431,0.219543
20265000,0.0324,0.013523,0.002678,0.000431,0.284418
20266000,0.0324,0.013523,0.002678,0.000431,0.093317
20267000,0.0324,0.013523,0.002678,0.000431,0.042310
20268000,0.0324,0.013523,0.002678,0.000431,0.118939
20269000,0.0324,0.013523,0.002678,0.000431,0.203794
20270000,0.0324,0.013523,0.002678,0.000431,0.323203
20271000,0.0324,0.013523,0.002678,0.000431,0.280775
20272000,0.0324,0.013523,0.002678,0.000431,0.287944
20273000,0.0324,0.013523,0.002678,0.000431,0.072867
20274000,0.0324,0.013523,0.002678,0.000431,0.061350
20275000,0.0324,0.013523,0.002678,0.000431,0.084150
20276000,0.0324,0.013523,0.002678,0.000431,0.196390
20277000,0.0324,0.013523,0.002678,0.000431,0.166772
20278000,0.0324,0.013523,0.002678,0.000431,0.136803
20279000,0.0324,0.013523,0.002678,0.000431,0.038784
20280000,0.0324,0.013523,0.002678,0.000431,0.042780
20281000,0.0324,0.013523,0.002678,0.000431,0.157840
20282000,0.0324,0.013523,0.002678,0.000431,0.180993
20283000,0.0324,0.013523,0.002678,0.000431,0.178525
20284000,0.0324,0.013523,0.002678,0.000431,0.236819
20285000,0.0324,0.013523,0.002678,0.000431,0.150319
20286000,0.0324,0.013523,0.002678,0.000431,0.038902
20287000,0.0324,0.013523,0.002678,0.000431,0.187810
20288000,0.0324,0.013523,0.002678,0.000431,0.241638
20289000,0.0324,0.013523,0.002678,0.000431,0.126225
20290000,0.0324,0.013523,0.002678,0.000431,0.109301
20291000,0.0324,0.013523,0.002678,0.000431,0.246457
20292000,0.0324,0.013523,0.002678,0.000431,0.040900
20293000,0.0324,0.013523,0.002678,0.000431,0.068284
20294000,0.0324,0.013523,0.002678,0.000431,0.097901
20295000,0.0324,0.013523,0.002678,0.000431,0.103072
20296000,0.0324,0.013523,0.002678,0.000431,0.218015
20297000,0.0324,0.013523,0.002678,0.000431,0.130691
20298000,0.0324,0.013523,0.002678,0.000431,0.039019
20299000,0.0324,0.013523,0.002678,0.000431,0.080389
20300000,0.0324,0.013523,0.002678,0.000431,0.133982
20301000,0.0324,0.013523,0.002678,0.000431,0.218485
20302000,0.0324,0.013523,0.002678,0.000431,0.168418
20303000,0.0324,0.013523,0.002678,0.000431,0.164422
20304000,0.0324,0.013523,0.002678,0.000431,0.159016
20305000,0.0324,0.013523,0.002678,0.000431,0.050302
20306000,0.0324,0.013523,0.002678,0.000431,0.102955
20307000,0.0324,0.013523,0.002678,0.000431,0.120936
20308000,0.0324,0.013523,0.002678,0.000431,0.123522
20309000,0.0324,0.013523,0.002678,0.000431,0.143854
20310000,0.0324,0.013523,0.002678,0.000431,0.251863
20311000,0.0324,0.013523,0.002678,0.000431,0.127871
20312000,0.0324,0.013523,0.002678,0.000431,0.068049
20313000,0.0324,0.013523,0.002678,0.000431,0.111064
20314000,0.0324,0.013523,0.002678,0.000431,0.075688
20315000,0.0324,0.013523,0.002678,0.000431,0.140564
20316000,0.0324,0.013523,0.002678,0.000431,0.181464
20317000,0.0324,0.013523,0.002678,0.000431,0.118468
20318000,0.0324,0.013523,0.002678,0.000431,0.065228
20319000,0.0324,0.013523,0.002678,0.000431,0.046659
20320000,0.0324,0.013523,0.002678,0.000431,0.275251
20321000,0.0324,0.013523,0.002678,0.000431,0.208260
20322000,0.0324,0.013523,0.002678,0.000431,0.079919
20323000,0.0324,0.013523,0.002678,0.000431,0.219190
20324000,0.0324,0.013523,0.002678,0.000431,0.035258
20325000,0.0324,0.013523,0.002678,0.000431,0.101662
20326000,0.0324,0.013523,0.002678,0.000431,0.123287
20327000,0.0324,0.013523,0.002678,0.000431,0.212021
20328000,0.0324,0.013523,0.002678,0.000431,0.245399
20329000,0.0324,0.013523,0.002678,0.000431,0.176997
20330000,0.0324,0.013523,0.002678,0.000431,0.209435
20331000,0.0324,0.013523,0.002678,0.000431,0.035258
20332000,0.0324,0.013523,0.002678,0.000431,0.065346
20333000,0.0324,0.013523,0.002678,0.000431,0.054651
20334000,0.0324,0.013523,0.002678,0.000431,0.164539
20335000,0.0324,0.013523,0.002678,0.000431,0.100957
20336000,0.0324,0.013523,0.002678,0.000431,0.128576
20337000,0.0324,0.013523,0.002678,0.000431,0.204499
20338000,0.0324,0.013523,0.002678,0.000431,0.085090
20339000,0.0324,0.013523,0.002678,0.000431,0.065933
20340000,0.0324,0.013523,0.002678,0.000431,0.177585
20341000,0.0324,0.013523,0.002678,0.000431,0.253156
20342000,0.0324,0.013523,0.002678,0.000431,0.154550
20343000,0.0324,0.013523,0.002678,0.000431,0.126343
20344000,0.0324,0.013523,0.002678,0.000431,0.042780
20345000,0.0324,0.013523,0.002678,0.000431,0.102955
20346000,0.0324,0.013523,0.002678,0.000431,0.099664
20347000,0.0324,0.013523,0.002678,0.000431,0.198153
20348000,0.0324,0.013523,0.002678,0.000431,0.162189
20349000,0.0324,0.013523,0.002678,0.000431,0.418165
20350000,0.0324,0.013523,0.002678,0.000431,0.079919
20351000,0.0324,0.013523,0.002678,0.000431,0.092730
20352000,0.0324,0.013523,0.002678,0.000431,0.101897
20353000,0.0324,0.013523,0.002678,0.000431,0.174882
20354000,0.0324,0.013523,0.002678,0.000431,0.133277
20355000,0.0324,0.013523,0.002678,0.000431,0.120231
20356000,0.0324,0.013523,0.002678,0.000431,0.125403
20357000,0.0324,0.013523,0.002678,0.000431,0.061350
20358000,0.0324,0.013523,0.002678,0.000431,0.087676
20359000,0.0324,0.013523,0.002678,0.000431,0.093905
20360000,0.0324,0.013523,0.002678,0.000431,0.323320
20361000,0.0324,0.013523,0.002678,0.000431,0.084620
20362000,0.0324,0.013523,0.002678,0.000431,0.180758
20363000,0.0324,0.013523,0.002678,0.000431,0.076393
20364000,0.0324,0.013523,0.002678,0.000431,0.084620
20365000,0.0324,0.013523,0.002678,0.000431,0.077921
20366000,0.0324,0.013523,0.002678,0.000431,0.120466
20367000,0.0324,0.013523,0.002678,0.000431,0.196625
20368000,0.0324,0.013523,0.002678,0.000431,0.169711
20369000,0.0324,0.013523,0.002678,0.000431,0.098841
20370000,0.0324,0.013523,0.002678,0.000431,0.080154
20371000,0.0324,0.013523,0.002678,0.000431,0.140564
20372000,0.0324,0.013523,0.002678,0.000431,0.127165
20373000,0.0324,0.013523,0.002678,0.000431,0.211668
20374000,0.0324,0.013523,0.002678,0.000431,0.169006
20375000,0.0324,0.013523,0.002678,0.000431,0.076393
20376000,0.0324,0.013523,0.002678,0.000431,0.035141
20377000,0.0324,0.013523,0.002678,0.000431,0.137273
20378000,0.0324,0.013523,0.002678,0.000431,0.096256
20379000,0.0324,0.013523,0.002678,0.000431,0.196625
20380000,0.0324,0.013523,0.002678,0.000431,0.137743
20381000,0.0324,0.013523,0.002678,0.000431,0.206144
20382000,0.0324,0.013523,0.002678,0.000431,0.047716
20383000,0.0324,0.013523,0.002678,0.000431,0.101897
20384000,0.0324,0.013523,0.002678,0.000431,0.119056
20385000,0.0324,0.013523,0.002678,0.000431,0.102837
20386000,0.0324,0.013523,0.002678,0.000431,0.109419
20387000,0.0324,0.013523,0.002678,0.000431,0.143972
20388000,0.0324,0.013523,0.002678,0.000431,0.310745
20389000,0.0324,0.013523,0.002678,0.000431,0.035023
20390000,0.0324,0.013523,0.002678,0.000431,0.079332
20391000,0.0324,0.013523,0.002678,0.000431,0.174059
20392000,0.0324,0.013523,0.002678,0.000431,0.129281
20393000,0.0324,0.013523,0.002678,0.000431,0.160661
20394000,0.0324,0.013523,0.002678,0.000431,0.142562
20395000,0.0324,0.013523,0.002678,0.000431,0.057941
20396000,0.0324,0.013523,0.002678,0.000431,0.057119
20397000,0.0324,0.013523,0.002678,0.000431,0.150319
20398000,0.0324,0.013523,0.002678,0.000431,0.332605
20399000,0.0324,0.013523,0.002678,0.000431,0.066638
20400000,0.0324,0.013523,0.002678,0.000431,0.346708
20401000,0.0324,0.013523,0.002678,0.000431,0.175587
20402000,0.0324,0.013523,0.002678,0.000431,0.050302
20403000,0.0324,0.013523,0.002678,0.000431,0.109889
20404000,0.0324,0.013523,0.002678,0.000431,0.086031
20405000,0.0324,0.013523,0.002678,0.000431,0.188633
20406000,0.0324,0.013523,0.002678,0.000431,0.132924
20407000,0.0324,0.013523,0.002678,0.000431,0.229180
20408000,0.0324,0.013523,0.002678,0.000431,0.042310
20409000,0.0324,0.013523,0.002678,0.000431,0.068519
20410000,0.0324,0.013523,0.002678,0.000431,0.114002
20411000,0.0324,0.013523,0.002678,0.000431,0.165127
20412000,0.0324,0.013523,0.002678,0.000431,0.131514
20413000,0.0324,0.013523,0.002678,0.000431,0.142327
20414000,0.0324,0.013523,0.002678,0.000431,0.146205
20415000,0.0324,0.013523,0.002678,0.000431,0.057354
20416000,0.0324,0.013523,0.002678,0.000431,0.080272
20417000,0.0324,0.013523,0.002678,0.000431,0.125285
20418000,0.0324,0.013523,0.002678,0.000431,0.178290
20419000,0.0324,0.013523,0.002678,0.000431,0.175235
20420000,0.0324,0.013523,0.002678,0.000431,0.238582
20421000,0.0324,0.013523,0.002678,0.000431,0.061115
20422000,0.0324,0.013523,0.002678,0.000431,0.133747
20423000,0.0324,0.013523,0.002678,0.000431,0.109419
20424000,0.0324,0.013523,0.002678,0.000431,0.242813
20425000,0.0324,0.013523,0.002678,0.000431,0.206967
20426000,0.0324,0.013523,0.002678,0.000431,0.140329
20427000,0.0324,0.013523,0.002678,0.000431,0.077804
20428000,0.0324,0.013523,0.002678,0.000431,0.147733
20429000,0.0324,0.013523,0.002678,0.000431,0.080272
20430000,0.0324,0.013523,0.002678,0.000431,0.118351
20431000,0.0324,0.013523,0.002678,0.000431,0.296994
20432000,0.0324,0.013523,0.002678,0.000431,0.132572
20433000,0.0324,0.013523,0.002678,0.000431,0.134452
20434000,0.0324,0.013523,0.002678,0.000431,0.056178
20435000,0.0324,0.013523,0.002678,0.000431,0.130456
20436000,0.0324,0.013523,0.002678,0.000431,0.091319
20437000,0.0324,0.013523,0.002678,0.000431,0.245164
20438000,0.0324,0.013523,0.002678,0.000431,0.121877
20439000,0.0324,0.013523,0.002678,0.000431,0.340127
20440000,0.0324,0.013523,0.002678,0.000431,0.065346
20441000,0.0324,0.013523,0.002678,0.000431,0.035964
20442000,0.0324,0.013523,0.002678,0.000431,0.068401
20443000,0.0324,0.013523,0.002678,0.000431,0.117293
20444000,0.0324,0.013523,0.002678,0.000431,0.136450
20445000,0.0324,0.013523,0.002678,0.000431,0.142914
20446000,0.0324,0.013523,0.002678,0.000431,0.183109
20447000,0.0324,0.013523,0.002678,0.000431,0.071340
20448000,0.0324,0.013523,0.002678,0.000431,0.146440
20449000,0.0324,0.013523,0.002678,0.000431,0.123522
20450000,0.0324,0.013523,0.002678,0.000431,0.187693
20451000,0.0324,0.013523,0.002678,0.000431,0.206967
20452000,0.0324,0.013523,0.002678,0.000431,0.207672
20453000,0.0324,0.013523,0.002678,0.000431,0.121994
20454000,0.0324,0.013523,0.002678,0.000431,0.042780
20455000,0.0324,0.013523,0.002678,0.000431,0.079919
20456000,0.0324,0.013523,0.002678,0.000431,0.196507
20457000,0.0324,0.013523,0.002678,0.000431,0.137978
20458000,0.0324,0.013523,0.002678,0.000431,0.203206
20459000,0.0324,0.013523,0.002678,0.000431,0.168653
20460000,0.0324,0.013523,0.002678,0.000431,0.035141
20461000,0.0324,0.013523,0.002678,0.000431,0.050185
20462000,0.0324,0.013523,0.002678,0.000431,0.081917
20463000,0.0324,0.013523,0.002678,0.000431,0.101779
20464000,0.0324,0.013523,0.002678,0.000431,0.173707
20465000,0.0324,0.013523,0.002678,0.000431,0.151729
20466000,0.0324,0.013523,0.002678,0.000431,0.042780
20467000,0.0324,0.013523,0.002678,0.000431,0.125285
20468000,0.0324,0.013523,0.002678,0.000431,0.062643
20469000,0.0324,0.013523,0.002678,0.000431,0.283243
20470000,0.0324,0.013523,0.002678,0.000431,0.219660
20471000,0.0324,0.013523,0.002678,0.000431,0.398656
20472000,0.0324,0.013523,0.002678,0.000431,0.159838
20473000,0.0324,0.013523,0.002678,0.000431,0.036786
20474000,0.0324,0.013523,0.002678,0.000431,0.108949
20475000,0.0324,0.013523,0.002678,0.000431,0.113885
20476000,0.0324,0.013523,0.002678,0.000431,0.163952
20477000,0.0324,0.013523,0.002678,0.000431,0.117176
20478000,0.0324,0.013523,0.002678,0.000431,0.105423
20479000,0.0324,0.013523,0.002678,0.000431,0.065346
20480000,0.0324,0.013523,0.002678,0.000431,0.118703
20481000,0.0324,0.013523,0.002678,0.000431,0.057824
20482000,0.0324,0.013523,0.002678,0.000431,0.135980
20483000,0.0324,0.013523,0.002678,0.000431,0.084855
20484000,0.0324,0.013523,0.002678,0.000431,0.211786
20485000,0.0324,0.013523,0.002678,0.000431,0.110124
20486000,0.0324,0.013523,0.002678,0.000431,0.048069
20487000,0.0324,0.013523,0.002678,0.000431,0.149848
20488000,0.0324,0.013523,0.002678,0.000431,0.136215
20489000,0.0324,0.013523,0.002678,0.000431,0.091554
20490000,0.0324,0.013523,0.002678,0.000431,0.198153
20491000,0.0324,0.013523,0.002678,0.000431,0.147145
20492000,0.0324,0.013523,0.002678,0.000431,0.039019
20493000,0.0324,0.013523,0.002678,0.000431,0.117881
20494000,0.0324,0.013523,0.002678,0.000431,0.121994
20495000,0.0324,0.013523,0.002678,0.000431,0.131632
20496000,0.0324,0.013523,0.002678,0.000431,0.084503
20497000,0.0324,0.013523,0.002678,0.000431,0.192981
20498000,0.0324,0.013523,0.002678,0.000431,0.080154
20499000,0.0324,0.013523,0.002678,0.000431,0.057119
20500000,0.0324,0.013523,0.002678,0.000431,0.103190
20501000,0.0324,0.013523,0.002678,0.000431,0.186752
20502000,0.0324,0.013523,0.002678,0.000431,0.124580
20503000,0.0324,0.013523,0.002678,0.000431,0.118116
20504000,0.0324,0.013523,0.002678,0.000431,0.117881
20505000,0.0324,0.013523,0.002678,0.000431,0.034906
20506000,0.0324,0.013523,0.002678,0.000431,0.042780
20507000,0.0324,0.013523,0.002678,0.000431,0.094258
20508000,0.0324,0.013523,0.002678,0.000431,0.258092
20509000,0.0324,0.013523,0.002678,0.000431,0.135040
20510000,0.0324,0.013523,0.002678,0.000431,0.461063
20511000,0.0324,0.013523,0.002678,0.000431,0.047129
20512000,0.0324,0.013523,0.002678,0.000431,0.122347
20513000,0.0324,0.013523,0.002678,0.000431,0.103895
20514000,0.0324,0.013523,0.002678,0.000431,0.145030
20515000,0.0324,0.013523,0.002678,0.000431,0.129281
20516000,0.0324,0.013523,0.002678,0.000431,0.249630
20517000,0.0324,0.013523,0.002678,0.000431,0.057354
20518000,0.0324,0.013523,0.002678,0.000431,0.057589
20519000,0.0324,0.013523,0.002678,0.000431,0.110241
20520000,0.0324,0.013523,0.002678,0.000431,0.248102
20521000,0.0324,0.013523,0.002678,0.000431,0.100957
20522000,0.0324,0.013523,0.002678,0.000431,0.066991
20523000,0.0324,0.013523,0.002678,0.000431,0.176527
20524000,0.0324,0.013523,0.002678,0.000431,0.039254
20525000,0.0324,0.013523,0.002678,0.000431,0.068401
20526000,0.0324,0.013523,0.002678,0.000431,0.159251
20527000,0.0324,0.013523,0.002678,0.000431,0.383024
20528000,0.0324,0.013523,0.002678,0.000431,0.110829
20529000,0.0324,0.013523,0.002678,0.000431,0.149143
20530000,0.0324,0.013523,0.002678,0.000431,0.073103
20531000,0.0324,0.013523,0.002678,0.000431,0.057824
20532000,0.0324,0.013523,0.002678,0.000431,0.101897
20533000,0.0324,0.013523,0.002678,0.000431,0.211668
20534000,0.0324,0.013523,0.002678,0.000431,0.151259
20535000,0.0324,0.013523,0.002678,0.000431,0.182404
20536000,0.0324,0.013523,0.002678,0.000431,0.122817
20537000,0.0324,0.013523,0.002678,0.000431,0.047011
20538000,0.0324,0.013523,0.002678,0.000431,0.049479
20539000,0.0324,0.013523,0.002678,0.000431,0.106010
20540000,0.0324,0.013523,0.002678,0.000431,0.136333
20541000,0.0324,0.013523,0.002678,0.000431,0.147968
20542000,0.0324,0.013523,0.002678,0.000431,0.078156
20543000,0.0324,0.013523,0.002678,0.000431,0.093552
20544000,0.0324,0.013523,0.002678,0.000431,0.042663
20545000,0.0324,0.013523,0.002678,0.000431,0.042310
20546000,0.0324,0.013523,0.002678,0.000431,0.133277
20547000,0.0324,0.013523,0.002678,0.000431,0.105658
20548000,0.0324,0.013523,0.002678,0.000431,0.178525
20549000,0.0324,0.013523,0.002678,0.000431,0.461651
20550000,0.0324,0.013523,0.002678,0.000431,0.082740
20551000,0.0324,0.013523,0.002678,0.000431,0.072867
20552000,0.0324,0.013523,0.002678,0.000431,0.053710
20553000,0.0324,0.013523,0.002678,0.000431,0.182169
20554000,0.0324,0.013523,0.002678,0.000431,0.218955
20555000,0.0324,0.013523,0.002678,0.000431,0.245751
20556000,0.0324,0.013523,0.002678,0.000431,0.035141
20557000,0.0324,0.013523,0.002678,0.000431,0.110594
20558000,0.0324,0.013523,0.002678,0.000431,0.245046
20559000,0.0324,0.013523,0.002678,0.000431,0.300285
20560000,0.0324,0.013523,0.002678,0.000431,0.243166
20561000,0.0324,0.013523,0.002678,0.000431,0.159368
20562000,0.0324,0.013523,0.002678,0.000431,0.038784
20563000,0.0324,0.013523,0.002678,0.000431,0.050067
20564000,0.0324,0.013523,0.002678,0.000431,0.094963
20565000,0.0324,0.013523,0.002678,0.000431,0.125520
20566000,0.0324,0.013523,0.002678,0.000431,0.133747
20567000,0.0324,0.013523,0.002678,0.000431,0.089204
20568000,0.0324,0.013523,0.002678,0.000431,0.121172
20569000,0.0324,0.013523,0.002678,0.000431,0.049714
20570000,0.0324,0.013523,0.002678,0.000431,0.059822
20571000,0.0324,0.013523,0.002678,0.000431,0.146793
20572000,0.0324,0.013523,0.002678,0.000431,0.097548
20573000,0.0324,0.013523,0.002678,0.000431,0.162777
20574000,0.0324,0.013523,0.002678,0.000431,0.188045
20575000,0.0324,0.013523,0.002678,0.000431,0.070399
20576000,0.0324,0.013523,0.002678,0.000431,0.034906
20577000,0.0324,0.013523,0.002678,0.000431,0.035376
20578000,0.0324,0.013523,0.002678,0.000431,0.198035
20579000,0.0324,0.013523,0.002678,0.000431,0.176527
20580000,0.0324,0.013523,0.002678,0.000431,0.156900
20581000,0.0324,0.013523,0.002678,0.000431,0.208495
20582000,0.0324,0.013523,0.002678,0.000431,0.164422
20583000,0.0324,0.013523,0.002678,0.000431,0.109654
20584000,0.0324,0.013523,0.002678,0.000431,0.157135
20585000,0.0324,0.013523,0.002678,0.000431,0.294526
20586000,0.0324,0.013523,0.002678,0.000431,0.106363
20587000,0.0324,0.013523,0.002678,0.000431,0.173589
20588000,0.0324,0.013523,0.002678,0.000431,0.092142
20589000,0.0324,0.013523,0.002678,0.000431,0.072867
20590000,0.0324,0.013523,0.002678,0.000431,0.106951
20591000,0.0324,0.013523,0.002678,0.000431,0.073455
20592000,0.0324,0.013523,0.002678,0.000431,0.105423
20593000,0.0324,0.013523,0.002678,0.000431,0.286064
20594000,0.0324,0.013523,0.002678,0.000431,0.137743
20595000,0.0324,0.013523,0.002678,0.000431,0.038432
20596000,0.0324,0.013523,0.002678,0.000431,0.053945
20597000,0.0324,0.013523,0.002678,0.000431,0.092612
20598000,0.0324,0.013523,0.002678,0.000431,0.229768
20599000,0.0324,0.013523,0.002678,0.000431,0.089909
20600000,0.0324,0.013523,0.002678,0.000431,0.198388
20601000,0.0324,0.013523,0.002678,0.000431,0.053828
20602000,0.0324,0.013523,0.002678,0.000431,0.051947
20603000,0.0324,0.013523,0.002678,0.000431,0.108361
20604000,0.0324,0.013523,0.002678,0.000431,0.115295
20605000,0.0324,0.013523,0.002678,0.000431,0.289942
20606000,0.0324,0.013523,0.002678,0.000431,0.121994
20607000,0.0324,0.013523,0.002678,0.000431,0.137273
20608000,0.0324,0.013523,0.002678,0.000431,0.035023
20609000,0.0324,0.013523,0.002678,0.000431,0.072750
20610000,0.0324,0.013523,0.002678,0.000431,0.122112
20611000,0.0324,0.013523,0.002678,0.000431,0.192981
20612000,0.0324,0.013523,0.002678,0.000431,0.161484
20613000,0.0324,0.013523,0.002678,0.000431,0.163599
20614000,0.0324,0.013523,0.002678,0.000431,0.041370
20615000,0.0324,0.013523,0.002678,0.000431,0.059117
20616000,0.0324,0.013523,0.002678,0.000431,0.158075
20617000,0.0324,0.013523,0.002678,0.000431,0.143032
20618000,0.0324,0.013523,0.002678,0.000431,0.252333
20619000,0.0324,0.013523,0.002678,0.000431,0.169476
20620000,0.0324,0.013523,0.002678,0.000431,0.138331
20621000,0.0324,0.013523,0.002678,0.000431,0.038314
20622000,0.0324,0.013523,0.002678,0.000431,0.072397
20623000,0.0324,0.013523,0.002678,0.000431,0.084033
20624000,0.0324,0.013523,0.002678,0.000431,0.201443
20625000,0.0324,0.013523,0.002678,0.000431,0.141269
20626000,0.0324,0.013523,0.002678,0.000431,0.197212
20627000,0.0324,0.013523,0.002678,0.000431,0.044661
20628000,0.0324,0.013523,0.002678,0.000431,0.054651
20629000,0.0324,0.013523,0.002678,0.000431,0.270197
20630000,0.0324,0.013523,0.002678,0.000431,0.128341
20631000,0.0324,0.013523,0.002678,0.000431,0.264673
20632000,0.0324,0.013523,0.002678,0.000431,0.072750
20633000,0.0324,0.013523,0.002678,0.000431,0.049244
20634000,0.0324,0.013523,0.002678,0.000431,0.034906
20635000,0.0324,0.013523,0.002678,0.000431,0.088499
20636000,0.0324,0.013523,0.002678,0.000431,0.104247
20637000,0.0324,0.013523,0.002678,0.000431,0.235997
20638000,0.0324,0.013523,0.002678,0.000431,0.095550
20639000,0.0324,0.013523,0.002678,0.000431,0.200268
20640000,0.0324,0.013523,0.002678,0.000431,0.072632
20641000,0.0324,0.013523,0.002678,0.000431,0.077098
20642000,0.0324,0.013523,0.002678,0.000431,0.278659
20643000,0.0324,0.013523,0.002678,0.000431,0.174529
20644000,0.0324,0.013523,0.002678,0.000431,0.174764
20645000,0.0324,0.013523,0.002678,0.000431,0.181816
20646000,0.0324,0.013523,0.002678,0.000431,0.057471
20647000,0.0324,0.013523,0.002678,0.000431,0.057589
20648000,0.0324,0.013523,0.002678,0.000431,0.181934
20649000,0.0324,0.013523,0.002678,0.000431,0.160191
20650000,0.0324,0.013523,0.002678,0.000431,0.278189
20651000,0.0324,0.013523,0.002678,0.000431,0.246457
20652000,0.0324,0.013523,0.002678,0.000431,0.133630
20653000,0.0324,0.013523,0.002678,0.000431,0.153962
20654000,0.0324,0.013523,0.002678,0.000431,0.083798
20655000,0.0324,0.013523,0.002678,0.000431,0.163129
20656000,0.0324,0.013523,0.002678,0.000431,0.083680
20657000,0.0324,0.013523,0.002678,0.000431,0.171239
20658000,0.0324,0.013523,0.002678,0.000431,0.237760
20659000,0.0324,0.013523,0.002678,0.000431,0.039019
20660000,0.0324,0.013523,0.002678,0.000431,0.046541
20661000,0.0324,0.013523,0.002678,0.000431,0.072750
20662000,0.0324,0.013523,0.002678,0.000431,0.141739
20663000,0.0324,0.013523,0.002678,0.000431,0.343887
20664000,0.0324,0.013523,0.002678,0.000431,0.117646
20665000,0.0324,0.013523,0.002678,0.000431,0.161836
20666000,0.0324,0.013523,0.002678,0.000431,0.068989
20667000,0.0324,0.013523,0.002678,0.000431,0.134687
20668000,0.0324,0.013523,0.002678,0.000431,0.089909
20669000,0.0324,0.013523,0.002678,0.000431,0.079802
20670000,0.0324,0.013523,0.002678,0.000431,0.159251
20671000,0.0324,0.013523,0.002678,0.000431,0.072750
20672000,0.0324,0.013523,0.002678,0.000431,0.039842
20673000,0.0324,0.013523,0.002678,0.000431,0.066874
20674000,0.0324,0.013523,0.002678,0.000431,0.218720
20675000,0.0324,0.013523,0.002678,0.000431,0.184049
20676000,0.0324,0.013523,0.002678,0.000431,0.230825
20677000,0.0324,0.013523,0.002678,0.000431,0.300637
20678000,0.0324,0.013523,0.002678,0.000431,0.096961
20679000,0.0324,0.013523,0.002678,0.000431,0.110124
20680000,0.0324,0.013523,0.002678,0.000431,0.065228
20681000,0.0324,0.013523,0.002678,0.000431,0.164775
20682000,0.0324,0.013523,0.002678,0.000431,0.377618
20683000,0.0324,0.013523,0.002678,0.000431,0.154432
20684000,0.0324,0.013523,0.002678,0.000431,0.230355
20685000,0.0324,0.013523,0.002678,0.000431,0.055121
20686000,0.0324,0.013523,0.002678,0.000431,0.052653
20687000,0.0324,0.013523,0.002678,0.000431,0.117528
20688000,0.0324,0.013523,0.002678,0.000431,0.114002
20689000,0.0324,0.013523,0.002678,0.000431,0.204734
20690000,0.0324,0.013523,0.002678,0.000431,0.095433
20691000,0.0324,0.013523,0.002678,0.000431,0.039019
20692000,0.0324,0.013523,0.002678,0.000431,0.046541
20693000,0.0324,0.013523,0.002678,0.000431,0.091437
20694000,0.0324,0.013523,0.002678,0.000431,0.184049
20695000,0.0324,0.013523,0.002678,0.000431,0.284418
20696000,0.0324,0.013523,0.002678,0.000431,0.155020
20697000,0.0324,0.013523,0.002678,0.000431,0.104012
20698000,0.0324,0.013523,0.002678,0.000431,0.039019
20699000,0.0324,0.013523,0.002678,0.000431,0.053828
20700000,0.0324,0.013523,0.002678,0.000431,0.126108
20701000,0.0324,0.013523,0.002678,0.000431,0.194509
20702000,0.0324,0.013523,0.002678,0.000431,0.234116
20703000,0.0324,0.013523,0.002678,0.000431,0.271020
20704000,0.0324,0.013523,0.002678,0.000431,0.065346
20705000,0.0324,0.013523,0.002678,0.000431,0.057824
20706000,0.0324,0.013523,0.002678,0.000431,0.113297
20707000,0.0324,0.013523,0.002678,0.000431,0.199093
20708000,0.0324,0.013523,0.002678,0.000431,0.255389
20709000,0.0324,0.013523,0.002678,0.000431,0.323790
20710000,0.0324,0.013523,0.002678,0.000431,0.110947
20711000,0.0324,0.013523,0.002678,0.000431,0.087794
20712000,0.0324,0.013523,0.002678,0.000431,0.061467
20713000,0.0324,0.013523,0.002678,0.000431,0.137508
20714000,0.0324,0.013523,0.002678,0.000431,0.248102
20715000,0.0324,0.013523,0.002678,0.000431,0.206850
20716000,0.0324,0.013523,0.002678,0.000431,0.213901
20717000,0.0324,0.013523,0.002678,0.000431,0.082152
20718000,0.0324,0.013523,0.002678,0.000431,0.048187
20719000,0.0324,0.013523,0.002678,0.000431,0.103190
20720000,0.0324,0.013523,0.002678,0.000431,0.118233
20721000,0.0324,0.013523,0.002678,0.000431,0.104718
20722000,0.0324,0.013523,0.002678,0.000431,0.216369
20723000,0.0324,0.013523,0.002678,0.000431,0.228475
20724000,0.0324,0.013523,0.002678,0.000431,0.090849
20725000,0.0324,0.013523,0.002678,0.000431,0.077569
20726000,0.0324,0.013523,0.002678,0.000431,0.187575
20727000,0.0324,0.013523,0.002678,0.000431,0.123052
20728000,0.0324,0.013523,0.002678,0.000431,0.110241
20729000,0.0324,0.013523,0.002678,0.000431,0.095080
20730000,0.0324,0.013523,0.002678,0.000431,0.064993
20731000,0.0324,0.013523,0.002678,0.000431,0.035258
20732000,0.0324,0.013523,0.002678,0.000431,0.145030
20733000,0.0324,0.013523,0.002678,0.000431,0.170768
20734000,0.0324,0.013523,0.002678,0.000431,0.233528
20735000,0.0324,0.013523,0.002678,0.000431,0.117998
20736000,0.0324,0.013523,0.002678,0.000431,0.128811
20737000,0.0324,0.013523,0.002678,0.000431,0.061350
20738000,0.0324,0.013523,0.002678,0.000431,0.061585
20739000,0.0324,0.013523,0.002678,0.000431,0.350704
20740000,0.0324,0.013523,0.002678,0.000431,0.207907
20741000,0.0324,0.013523,0.002678,0.000431,0.197565
20742000,0.0324,0.013523,0.002678,0.000431,0.173707
20743000,0.0324,0.013523,0.002678,0.000431,0.042780
20744000,0.0324,0.013523,0.002678,0.000431,0.133277
20745000,0.0324,0.013523,0.002678,0.000431,0.130339
20746000,0.0324,0.013523,0.002678,0.000431,0.137743
20747000,0.0324,0.013523,0.002678,0.000431,0.235997
20748000,0.0324,0.013523,0.002678,0.000431,0.164187
20749000,0.0324,0.013523,0.002678,0.000431,0.109301
20750000,0.0324,0.013523,0.002678,0.000431,0.053828
20751000,0.0324,0.013523,0.002678,0.000431,0.050420
20752000,0.0324,0.013523,0.002678,0.000431,0.241285
20753000,0.0324,0.013523,0.002678,0.000431,0.221893
20754000,0.0324,0.013523,0.002678,0.000431,0.203324
20755000,0.0324,0.013523,0.002678,0.000431,0.064641
20756000,0.0324,0.013523,0.002678,0.000431,0.050420
20757000,0.0324,0.013523,0.002678,0.000431,0.038784
20758000,0.0324,0.013523,0.002678,0.000431,0.076276
20759000,0.0324,0.013523,0.002678,0.000431,0.140564
20760000,0.0324,0.013523,0.002678,0.000431,0.218485
20761000,0.0324,0.013523,0.002678,0.000431,0.244694
20762000,0.0324,0.013523,0.002678,0.000431,0.103895
20763000,0.0324,0.013523,0.002678,0.000431,0.100839
20764000,0.0324,0.013523,0.002678,0.000431,0.078744
20765000,0.0324,0.013523,0.002678,0.000431,0.230473
20766000,0.0324,0.013523,0.002678,0.000431,0.102837
20767000,0.0324,0.013523,0.002678,0.000431,0.223539
20768000,0.0324,0.013523,0.002678,0.000431,0.162189
20769000,0.0324,0.013523,0.002678,0.000431,0.107773
20770000,0.0324,0.013523,0.002678,0.000431,0.072632
20771000,0.0324,0.013523,0.002678,0.000431,0.169946
20772000,0.0324,0.013523,0.002678,0.000431,0.219778
20773000,0.0324,0.013523,0.002678,0.000431,0.239757
20774000,0.0324,0.013523,0.002678,0.000431,0.259267
20775000,0.0324,0.013523,0.002678,0.000431,0.173589
20776000,0.0324,0.013523,0.002678,0.000431,0.182051
20777000,0.0324,0.013523,0.002678,0.000431,0.065346
20778000,0.0324,0.013523,0.002678,0.000431,0.140564
20779000,0.0324,0.013523,0.002678,0.000431,0.316856
20780000,0.0324,0.013523,0.002678,0.000431,0.436147
20781000,0.0324,0.013523,0.002678,0.000431,0.191688
20782000,0.0324,0.013523,0.002678,0.000431,0.082975
20783000,0.0324,0.013523,0.002678,0.000431,0.118586
20784000,0.0324,0.013523,0.002678,0.000431,0.217545
20785000,0.0324,0.013523,0.002678,0.000431,0.167008
20786000,0.0324,0.013523,0.002678,0.000431,0.110241
20787000,0.0324,0.013523,0.002678,0.000431,0.122934
20788000,0.0324,0.013523,0.002678,0.000431,0.123875
20789000,0.0324,0.013523,0.002678,0.000431,0.068989
20790000,0.0324,0.013523,0.002678,0.000431,0.047716
20791000,0.0324,0.013523,0.002678,0.000431,0.273488
20792000,0.0324,0.013523,0.002678,0.000431,0.177115
20793000,0.0324,0.013523,0.002678,0.000431,0.145617
20794000,0.0324,0.013523,0.002678,0.000431,0.143972
20795000,0.0324,0.013523,0.002678,0.000431,0.035023
20796000,0.0324,0.013523,0.002678,0.000431,0.138801
20797000,0.0324,0.013523,0.002678,0.000431,0.230708
20798000,0.0324,0.013523,0.002678,0.000431,0.317444
20799000,0.0324,0.013523,0.002678,0.000431,0.114120
20800000,0.0324,0.013523,0.002678,0.000431,0.140799
20801000,0.0324,0.013523,0.002678,0.000431,0.091672
20802000,0.0324,0.013523,0.002678,0.000431,0.035141
20803000,0.0324,0.013523,0.002678,0.000431,0.072397
20804000,0.0324,0.013523,0.002678,0.000431,0.112122
20805000,0.0324,0.013523,0.002678,0.000431,0.138801
20806000,0.0324,0.013523,0.002678,0.000431,0.145970
20807000,0.0324,0.013523,0.002678,0.000431,0.119644
20808000,0.0324,0.013523,0.002678,0.000431,0.087911
20809000,0.0324,0.013523,0.002678,0.000431,0.050067
20810000,0.0324,0.013523,0.002678,0.000431,0.152081
20811000,0.0324,0.013523,0.002678,0.000431,0.194979
20812000,0.0324,0.013523,0.002678,0.000431,0.190983
20813000,0.0324,0.013523,0.002678,0.000431,0.207790
20814000,0.0324,0.013523,0.002678,0.000431,0.135863
20815000,0.0324,0.013523,0.002678,0.000431,0.055238
20816000,0.0324,0.013523,0.002678,0.000431,0.182639
20817000,0.0324,0.013523,0.002678,0.000431,0.165950
20818000,0.0324,0.013523,0.002678,0.000431,0.193686
20819000,0.0324,0.013523,0.002678,0.000431,0.226829
20820000,0.0324,0.013523,0.002678,0.000431,0.083680
20821000,0.0324,0.013523,0.002678,0.000431,0.035141
20822000,0.0324,0.013523,0.002678,0.000431,0.057589
20823000,0.0324,0.013523,0.002678,0.000431,0.172649
20824000,0.0324,0.013523,0.002678,0.000431,0.197447
20825000,0.0324,0.013523,0.002678,0.000431,0.086383
20826000,0.0324,0.013523,0.002678,0.000431,0.250923
20827000,0.0324,0.013523,0.002678,0.000431,0.098254
20828000,0.0324,0.013523,0.002678,0.000431,0.119996
20829000,0.0324,0.013523,0.002678,0.000431,0.147145
20830000,0.0324,0.013523,0.002678,0.000431,0.135510
20831000,0.0324,0.013523,0.002678,0.000431,0.242813
20832000,0.0324,0.013523,0.002678,0.000431,0.129163
20833000,0.0324,0.013523,0.002678,0.000431,0.170298
20834000,0.0324,0.013523,0.002678,0.000431,0.087676
20835000,0.0324,0.013523,0.002678,0.000431,0.166655
20836000,0.0324,0.013523,0.002678,0.000431,0.164422
20837000,0.0324,0.013523,0.002678,0.000431,0.092495
20838000,0.0324,0.013523,0.002678,0.000431,0.125403
20839000,0.0324,0.013523,0.002678,0.000431,0.305456
20840000,0.0324,0.013523,0.002678,0.000431,0.114708
20841000,0.0324,0.013523,0.002678,0.000431,0.124227
20842000,0.0324,0.013523,0.002678,0.000431,0.149496
20843000,0.0324,0.013523,0.002678,0.000431,0.050420
20844000,0.0324,0.013523,0.002678,0.000431,0.092377
20845000,0.0324,0.013523,0.002678,0.000431,0.295818
20846000,0.0324,0.013523,0.002678,0.000431,0.095550
20847000,0.0324,0.013523,0.002678,0.000431,0.057824
20848000,0.0324,0.013523,0.002678,0.000431,0.110594
20849000,0.0324,0.013523,0.002678,0.000431,0.399713
20850000,0.0324,0.013523,0.002678,0.000431,0.299227
20851000,0.0324,0.013523,0.002678,0.000431,0.199563
20852000,0.0324,0.013523,0.002678,0.000431,0.102955
20853000,0.0324,0.013523,0.002678,0.000431,0.038197
20854000,0.0324,0.013523,0.002678,0.000431,0.073573
20855000,0.0324,0.013523,0.002678,0.000431,0.159838
20856000,0.0324,0.013523,0.002678,0.000431,0.100957
20857000,0.0324,0.013523,0.002678,0.000431,0.357051
20858000,0.0324,0.013523,0.002678,0.000431,0.202854
20859000,0.0324,0.013523,0.002678,0.000431,0.068989
20860000,0.0324,0.013523,0.002678,0.000431,0.171239
20861000,0.0324,0.013523,0.002678,0.000431,0.147498
20862000,0.0324,0.013523,0.002678,0.000431,0.178055
20863000,0.0324,0.013523,0.002678,0.000431,0.280422
20864000,0.0324,0.013523,0.002678,0.000431,0.212961
20865000,0.0324,0.013523,0.002678,0.000431,0.084503
20866000,0.0324,0.013523,0.002678,0.000431,0.144560
20867000,0.0324,0.013523,0.002678,0.000431,0.171474
20868000,0.0324,0.013523,0.002678,0.000431,0.143149
20869000,0.0324,0.013523,0.002678,0.000431,0.088146
20870000,0.0324,0.013523,0.002678,0.000431,0.141034
20871000,0.0324,0.013523,0.002678,0.000431,0.147850
20872000,0.0324,0.013523,0.002678,0.000431,0.095198
20873000,0.0324,0.013523,0.002678,0.000431,0.148086
20874000,0.0324,0.013523,0.002678,0.000431,0.247867
20875000,0.0324,0.013523,0.002678,0.000431,0.220365
20876000,0.0324,0.013523,0.002678,0.000431,0.229297
20877000,0.0324,0.013523,0.002678,0.000431,0.175470
20878000,0.0324,0.013523,0.002678,0.000431,0.231413
20879000,0.0324,0.013523,0.002678,0.000431,0.269375
20880000,0.0324,0.013523,0.002678,0.000431,0.165715
20881000,0.0324,0.013523,0.002678,0.000431,0.191218
20882000,0.0324,0.013523,0.002678,0.000431,0.165362
20883000,0.0324,0.013523,0.002678,0.000431,0.190748
20884000,0.0324,0.013523,0.002678,0.000431,0.100487
20885000,0.0324,0.013523,0.002678,0.000431,0.258092
20886000,0.0324,0.013523,0.002678,0.000431,0.183932
20887000,0.0324,0.013523,0.002678,0.000431,0.123287
20888000,0.0324,0.013523,0.002678,0.000431,0.148203
20889000,0.0324,0.013523,0.002678,0.000431,0.282068
20890000,0.0324,0.013523,0.002678,0.000431,0.180288
20891000,0.0324,0.013523,0.002678,0.000431,0.086501
20892000,0.0324,0.013523,0.002678,0.000431,0.079919
20893000,0.0324,0.013523,0.002678,0.000431,0.077216
20894000,0.0324,0.013523,0.002678,0.000431,0.080742
20895000,0.0324,0.013523,0.002678,0.000431,0.080742
20896000,0.0324,0.013523,0.002678,0.000431,0.219895
20897000,0.0324,0.013523,0.002678,0.000431,0.090732
20898000,0.0324,0.013523,0.002678,0.000431,0.052418
20899000,0.0324,0.013523,0.002678,0.000431,0.089556
20900000,0.0324,0.013523,0.002678,0.000431,0.136685
20901000,0.0324,0.013523,0.002678,0.000431,0.218955
20902000,0.0324,0.013523,0.002678,0.000431,0.262323
20903000,0.0324,0.013523,0.002678,0.000431,0.141504
20904000,0.0324,0.013523,0.002678,0.000431,0.059117
20905000,0.0324,0.013523,0.002678,0.000431,0.065698
20906000,0.0324,0.013523,0.002678,0.000431,0.140799
20907000,0.0324,0.013523,0.002678,0.000431,0.138683
20908000,0.0324,0.013523,0.002678,0.000431,0.155490
20909000,0.0324,0.013523,0.002678,0.000431,0.343535
20910000,0.0324,0.013523,0.002678,0.000431,0.094728
20911000,0.0324,0.013523,0.002678,0.000431,0.248690
20912000,0.0324,0.013523,0.002678,0.000431,0.090732
20913000,0.0324,0.013523,0.002678,0.000431,0.103660
20914000,0.0324,0.013523,0.002678,0.000431,0.171944
20915000,0.0324,0.013523,0.002678,0.000431,0.306043
20916000,0.0324,0.013523,0.002678,0.000431,0.101779
20917000,0.0324,0.013523,0.002678,0.000431,0.080037
20918000,0.0324,0.013523,0.002678,0.000431,0.215312
20919000,0.0324,0.013523,0.002678,0.000431,0.247397
20920000,0.0324,0.013523,0.002678,0.000431,0.247279
20921000,0.0324,0.013523,0.002678,0.000431,0.110712
20922000,0.0324,0.013523,0.002678,0.000431,0.396305
20923000,0.0324,0.013523,0.002678,0.000431,0.053475
20924000,0.0324,0.013523,0.002678,0.000431,0.096373
20925000,0.0324,0.013523,0.002678,0.000431,0.143737
20926000,0.0324,0.013523,0.002678,0.000431,0.077921
20927000,0.0324,0.013523,0.002678,0.000431,0.140211
20928000,0.0324,0.013523,0.002678,0.000431,0.129163
20929000,0.0324,0.013523,0.002678,0.000431,0.291470
20930000,0.0324,0.013523,0.002678,0.000431,0.091437
20931000,0.0324,0.013523,0.002678,0.000431,0.158898
20932000,0.0324,0.013523,0.002678,0.000431,0.174529
20933000,0.0324,0.013523,0.002678,0.000431,0.134217
20934000,0.0324,0.013523,0.002678,0.000431,0.084503
20935000,0.0324,0.013523,0.002678,0.000431,0.377501
20936000,0.0324,0.013523,0.002678,0.000431,0.114355
20937000,0.0324,0.013523,0.002678,0.000431,0.132219
20938000,0.0324,0.013523,0.002678,0.000431,0.196507
20939000,0.0324,0.013523,0.002678,0.000431,0.150201
20940000,0.0324,0.013523,0.002678,0.000431,0.262323
20941000,0.0324,0.013523,0.002678,0.000431,0.397833
20942000,0.0324,0.013523,0.002678,0.000431,0.086501
20943000,0.0324,0.013523,0.002678,0.000431,0.038432
20944000,0.0324,0.013523,0.002678,0.000431,0.086266
20945000,0.0324,0.013523,0.002678,0.000431,0.102720
20946000,0.0324,0.013523,0.002678,0.000431,0.114237
20947000,0.0324,0.013523,0.002678,0.000431,0.186635
20948000,0.0324,0.013523,0.002678,0.000431,0.228005
20949000,0.0324,0.013523,0.002678,0.000431,0.198975
20950000,0.0324,0.013523,0.002678,0.000431,0.196507
20951000,0.0324,0.013523,0.002678,0.000431,0.251863
20952000,0.0324,0.013523,0.002678,0.000431,0.163129
20953000,0.0324,0.013523,0.002678,0.000431,0.119174
20954000,0.0324,0.013523,0.002678,0.000431,0.318149
20955000,0.0324,0.013523,0.002678,0.000431,0.147850
20956000,0.0324,0.013523,0.002678,0.000431,0.137508
20957000,0.0324,0.013523,0.002678,0.000431,0.161954
20958000,0.0324,0.013523,0.002678,0.000431,0.082270
20959000,0.0324,0.013523,0.002678,0.000431,0.193451
20960000,0.0324,0.013523,0.002678,0.000431,0.150083
20961000,0.0324,0.013523,0.002678,0.000431,0.314505
20962000,0.0324,0.013523,0.002678,0.000431,0.076393
20963000,0.0324,0.013523,0.002678,0.000431,0.099194
20964000,0.0324,0.013523,0.002678,0.000431,0.118703
20965000,0.0324,0.013523,0.002678,0.000431,0.183932
20966000,0.0324,0.013523,0.002678,0.000431,0.116000
20967000,0.0324,0.013523,0.002678,0.000431,0.260678
20968000,0.0324,0.013523,0.002678,0.000431,0.136920
20969000,0.0324,0.013523,0.002678,0.000431,0.187928
20970000,0.0324,0.013523,0.002678,0.000431,0.175352
20971000,0.0324,0.013523,0.002678,0.000431,0.106598
20972000,0.0324,0.013523,0.002678,0.000431,0.099194
20973000,0.0324,0.013523,0.002678,0.000431,0.125990
20974000,0.0324,0.013523,0.002678,0.000431,0.298992
20975000,0.0324,0.013523,0.002678,0.000431,0.131984
20976000,0.0324,0.013523,0.002678,0.000431,0.213666
20977000,0.0324,0.013523,0.002678,0.000431,0.237172
20978000,0.0324,0.013523,0.002678,0.000431,0.122699
20979000,0.0324,0.013523,0.002678,0.000431,0.373034
20980000,0.0324,0.013523,0.002678,0.000431,0.237054
20981000,0.0324,0.013523,0.002678,0.000431,0.218720
20982000,0.0324,0.013523,0.002678,0.000431,0.101074
20983000,0.0324,0.013523,0.002678,0.000431,0.202854
20984000,0.0324,0.013523,0.002678,0.000431,0.088146
20985000,0.0324,0.013523,0.002678,0.000431,0.211668
20986000,0.0324,0.013523,0.002678,0.000431,0.143032
20987000,0.0324,0.013523,0.002678,0.000431,0.127401
20988000,0.0324,0.013523,0.002678,0.000431,0.090732
20989000,0.0324,0.013523,0.002678,0.000431,0.099311
20990000,0.0324,0.013523,0.002678,0.000431,0.095550
20991000,0.0324,0.013523,0.002678,0.000431,0.182051
20992000,0.0324,0.013523,0.002678,0.000431,0.065111
20993000,0.0324,0.013523,0.002678,0.000431,0.438028
20994000,0.0324,0.013523,0.002678,0.000431,0.121172
20995000,0.0324,0.013523,0.002678,0.000431,0.198035
20996000,0.0324,0.013523,0.002678,0.000431,0.094728
20997000,0.0324,0.013523,0.002678,0.000431,0.168418
20998000,0.0324,0.013523,0.002678,0.000431,0.066638
20999000,0.0324,0.013523,0.002678,0.000431,0.165362
