Cycle,Area(mm^2),PeakDynamic(W),SubthresholdLeakage(W),GateLeakage(W),RunTimeDynamic(W)
25000000,0.0324,0.013523,0.002678,0.000431,0.004701
25001000,0.0324,0.013523,0.002678,0.000431,0.008462
25002000,0.0324,0.013523,0.002678,0.000431,0.008462
25003000,0.0324,0.013523,0.002678,0.000431,0.004701
25004000,0.0324,0.013523,0.002678,0.000431,0.004701
25005000,0.0324,0.013523,0.002678,0.000431,0.117293
25006000,0.0324,0.013523,0.002678,0.000431,0.023506
25007000,0.0324,0.013523,0.002678,0.000431,0.008462
25008000,0.0324,0.013523,0.002678,0.000431,0.004701
25009000,0.0324,0.013523,0.002678,0.000431,0.004466
25010000,0.0324,0.013523,0.002678,0.000431,0.035729
25011000,0.0324,0.013523,0.002678,0.000431,0.007874
25012000,0.0324,0.013523,0.002678,0.000431,0.014221
25013000,0.0324,0.013523,0.002678,0.000431,0.036199
25014000,0.0324,0.013523,0.002678,0.000431,0.015984
25015000,0.0324,0.013523,0.002678,0.000431,0.015984
25016000,0.0324,0.013523,0.002678,0.000431,0.019980
25017000,0.0324,0.013523,0.002678,0.000431,0.004701
25018000,0.0324,0.013523,0.002678,0.000431,0.020685
25019000,0.0324,0.013523,0.002678,0.000431,0.004701
25020000,0.0324,0.013523,0.002678,0.000431,0.004701
25021000,0.0324,0.013523,0.002678,0.000431,0.004701
25022000,0.0324,0.013523,0.002678,0.000431,0.073573
25023000,0.0324,0.013523,0.002678,0.000431,0.004584
25024000,0.0324,0.013523,0.002678,0.000431,0.004584
25025000,0.0324,0.013523,0.002678,0.000431,0.064876
25026000,0.0324,0.013523,0.002678,0.000431,0.050067
25027000,0.0324,0.013523,0.002678,0.000431,0.011048
25028000,0.0324,0.013523,0.002678,0.000431,0.043485
25029000,0.0324,0.013523,0.002678,0.000431,0.004701
25030000,0.0324,0.013523,0.002678,0.000431,0.004701
25031000,0.0324,0.013523,0.002678,0.000431,0.008462
25032000,0.0324,0.013523,0.002678,0.000431,0.046306
25033000,0.0324,0.013523,0.002678,0.000431,0.004701
25034000,0.0324,0.013523,0.002678,0.000431,0.045131
25035000,0.0324,0.013523,0.002678,0.000431,0.032203
25036000,0.0324,0.013523,0.002678,0.000431,0.034788
25037000,0.0324,0.013523,0.002678,0.000431,0.004701
25038000,0.0324,0.013523,0.002678,0.000431,0.004584
25039000,0.0324,0.013523,0.002678,0.000431,0.004349
25040000,0.0324,0.013523,0.002678,0.000431,0.004701
25041000,0.0324,0.013523,0.002678,0.000431,0.012223
25042000,0.0324,0.013523,0.002678,0.000431,0.004701
25043000,0.0324,0.013523,0.002678,0.000431,0.004701
25044000,0.0324,0.013523,0.002678,0.000431,0.004701
25045000,0.0324,0.013523,0.002678,0.000431,0.034788
25046000,0.0324,0.013523,0.002678,0.000431,0.004701
25047000,0.0324,0.013523,0.002678,0.000431,0.004701
25048000,0.0324,0.013523,0.002678,0.000431,0.004701
25049000,0.0324,0.013523,0.002678,0.000431,0.004701
25050000,0.0324,0.013523,0.002678,0.000431,0.004701
25051000,0.0324,0.013523,0.002678,0.000431,0.020920
25052000,0.0324,0.013523,0.002678,0.000431,0.004701
25053000,0.0324,0.013523,0.002678,0.000431,0.004701
25054000,0.0324,0.013523,0.002678,0.000431,0.019745
25055000,0.0324,0.013523,0.002678,0.000431,0.041135
25056000,0.0324,0.013523,0.002678,0.000431,0.031027
25057000,0.0324,0.013523,0.002678,0.000431,0.008462
25058000,0.0324,0.013523,0.002678,0.000431,0.004701
25059000,0.0324,0.013523,0.002678,0.000431,0.004466
25060000,0.0324,0.013523,0.002678,0.000431,0.004701
25061000,0.0324,0.013523,0.002678,0.000431,0.004701
25062000,0.0324,0.013523,0.002678,0.000431,0.004701
25063000,0.0324,0.013523,0.002678,0.000431,0.012223
25064000,0.0324,0.013523,0.002678,0.000431,0.011988
25065000,0.0324,0.013523,0.002678,0.000431,0.012223
25066000,0.0324,0.013523,0.002678,0.000431,0.004701
25067000,0.0324,0.013523,0.002678,0.000431,0.004701
25068000,0.0324,0.013523,0.002678,0.000431,0.004701
25069000,0.0324,0.013523,0.002678,0.000431,0.031968
25070000,0.0324,0.013523,0.002678,0.000431,0.030087
25071000,0.0324,0.013523,0.002678,0.000431,0.015984
25072000,0.0324,0.013523,0.002678,0.000431,0.015984
25073000,0.0324,0.013523,0.002678,0.000431,0.012223
25074000,0.0324,0.013523,0.002678,0.000431,0.012223
25075000,0.0324,0.013523,0.002678,0.000431,0.005876
25076000,0.0324,0.013523,0.002678,0.000431,0.004701
25077000,0.0324,0.013523,0.002678,0.000431,0.027502
25078000,0.0324,0.013523,0.002678,0.000431,0.012223
25079000,0.0324,0.013523,0.002678,0.000431,0.004466
25080000,0.0324,0.013523,0.002678,0.000431,0.004701
25081000,0.0324,0.013523,0.002678,0.000431,0.032438
25082000,0.0324,0.013523,0.002678,0.000431,0.022095
25083000,0.0324,0.013523,0.002678,0.000431,0.013633
25084000,0.0324,0.013523,0.002678,0.000431,0.073808
25085000,0.0324,0.013523,0.002678,0.000431,0.008462
25086000,0.0324,0.013523,0.002678,0.000431,0.023388
25087000,0.0324,0.013523,0.002678,0.000431,0.038902
25088000,0.0324,0.013523,0.002678,0.000431,0.019980
25089000,0.0324,0.013523,0.002678,0.000431,0.004701
25090000,0.0324,0.013523,0.002678,0.000431,0.004701
25091000,0.0324,0.013523,0.002678,0.000431,0.019745
25092000,0.0324,0.013523,0.002678,0.000431,0.004701
25093000,0.0324,0.013523,0.002678,0.000431,0.015984
25094000,0.0324,0.013523,0.002678,0.000431,0.008462
25095000,0.0324,0.013523,0.002678,0.000431,0.019745
25096000,0.0324,0.013523,0.002678,0.000431,0.004701
25097000,0.0324,0.013523,0.002678,0.000431,0.008345
25098000,0.0324,0.013523,0.002678,0.000431,0.008815
25099000,0.0324,0.013523,0.002678,0.000431,0.004466
25100000,0.0324,0.013523,0.002678,0.000431,0.050067
25101000,0.0324,0.013523,0.002678,0.000431,0.004701
25102000,0.0324,0.013523,0.002678,0.000431,0.004701
25103000,0.0324,0.013523,0.002678,0.000431,0.049949
25104000,0.0324,0.013523,0.002678,0.000431,0.042193
25105000,0.0324,0.013523,0.002678,0.000431,0.004701
25106000,0.0324,0.013523,0.002678,0.000431,0.042310
25107000,0.0324,0.013523,0.002678,0.000431,0.004701
25108000,0.0324,0.013523,0.002678,0.000431,0.004701
25109000,0.0324,0.013523,0.002678,0.000431,0.004701
25110000,0.0324,0.013523,0.002678,0.000431,0.004701
25111000,0.0324,0.013523,0.002678,0.000431,0.034788
25112000,0.0324,0.013523,0.002678,0.000431,0.004466
25113000,0.0324,0.013523,0.002678,0.000431,0.049597
25114000,0.0324,0.013523,0.002678,0.000431,0.004701
25115000,0.0324,0.013523,0.002678,0.000431,0.004701
25116000,0.0324,0.013523,0.002678,0.000431,0.004701
25117000,0.0324,0.013523,0.002678,0.000431,0.013398
25118000,0.0324,0.013523,0.002678,0.000431,0.011283
25119000,0.0324,0.013523,0.002678,0.000431,0.008462
25120000,0.0324,0.013523,0.002678,0.000431,0.013986
25121000,0.0324,0.013523,0.002678,0.000431,0.051830
25122000,0.0324,0.013523,0.002678,0.000431,0.004701
25123000,0.0324,0.013523,0.002678,0.000431,0.004701
25124000,0.0324,0.013523,0.002678,0.000431,0.057354
25125000,0.0324,0.013523,0.002678,0.000431,0.032203
25126000,0.0324,0.013523,0.002678,0.000431,0.046071
25127000,0.0324,0.013523,0.002678,0.000431,0.012223
25128000,0.0324,0.013523,0.002678,0.000431,0.004701
25129000,0.0324,0.013523,0.002678,0.000431,0.004701
25130000,0.0324,0.013523,0.002678,0.000431,0.058412
25131000,0.0324,0.013523,0.002678,0.000431,0.026209
25132000,0.0324,0.013523,0.002678,0.000431,0.030910
25133000,0.0324,0.013523,0.002678,0.000431,0.008345
25134000,0.0324,0.013523,0.002678,0.000431,0.004701
25135000,0.0324,0.013523,0.002678,0.000431,0.004701
25136000,0.0324,0.013523,0.002678,0.000431,0.004701
25137000,0.0324,0.013523,0.002678,0.000431,0.012223
25138000,0.0324,0.013523,0.002678,0.000431,0.012458
25139000,0.0324,0.013523,0.002678,0.000431,0.027267
25140000,0.0324,0.013523,0.002678,0.000431,0.012223
25141000,0.0324,0.013523,0.002678,0.000431,0.004701
25142000,0.0324,0.013523,0.002678,0.000431,0.004701
25143000,0.0324,0.013523,0.002678,0.000431,0.004584
25144000,0.0324,0.013523,0.002678,0.000431,0.004584
25145000,0.0324,0.013523,0.002678,0.000431,0.012223
25146000,0.0324,0.013523,0.002678,0.000431,0.012223
25147000,0.0324,0.013523,0.002678,0.000431,0.004701
25148000,0.0324,0.013523,0.002678,0.000431,0.004701
25149000,0.0324,0.013523,0.002678,0.000431,0.004701
25150000,0.0324,0.013523,0.002678,0.000431,0.012223
25151000,0.0324,0.013523,0.002678,0.000431,0.012223
25152000,0.0324,0.013523,0.002678,0.000431,0.004701
25153000,0.0324,0.013523,0.002678,0.000431,0.087676
25154000,0.0324,0.013523,0.002678,0.000431,0.004701
25155000,0.0324,0.013523,0.002678,0.000431,0.004701
25156000,0.0324,0.013523,0.002678,0.000431,0.025151
25157000,0.0324,0.013523,0.002678,0.000431,0.051947
25158000,0.0324,0.013523,0.002678,0.000431,0.004701
25159000,0.0324,0.013523,0.002678,0.000431,0.031733
25160000,0.0324,0.013523,0.002678,0.000431,0.045131
25161000,0.0324,0.013523,0.002678,0.000431,0.004701
25162000,0.0324,0.013523,0.002678,0.000431,0.004701
25163000,0.0324,0.013523,0.002678,0.000431,0.068166
25164000,0.0324,0.013523,0.002678,0.000431,0.010342
25165000,0.0324,0.013523,0.002678,0.000431,0.004701
25166000,0.0324,0.013523,0.002678,0.000431,0.087676
25167000,0.0324,0.013523,0.002678,0.000431,0.004701
25168000,0.0324,0.013523,0.002678,0.000431,0.013398
25169000,0.0324,0.013523,0.002678,0.000431,0.004701
25170000,0.0324,0.013523,0.002678,0.000431,0.033613
25171000,0.0324,0.013523,0.002678,0.000431,0.034788
25172000,0.0324,0.013523,0.002678,0.000431,0.004701
25173000,0.0324,0.013523,0.002678,0.000431,0.004584
25174000,0.0324,0.013523,0.002678,0.000431,0.004584
25175000,0.0324,0.013523,0.002678,0.000431,0.049832
25176000,0.0324,0.013523,0.002678,0.000431,0.044661
25177000,0.0324,0.013523,0.002678,0.000431,0.017629
25178000,0.0324,0.013523,0.002678,0.000431,0.004701
25179000,0.0324,0.013523,0.002678,0.000431,0.004701
25180000,0.0324,0.013523,0.002678,0.000431,0.005641
25181000,0.0324,0.013523,0.002678,0.000431,0.004701
25182000,0.0324,0.013523,0.002678,0.000431,0.004701
25183000,0.0324,0.013523,0.002678,0.000431,0.065816
25184000,0.0324,0.013523,0.002678,0.000431,0.011283
25185000,0.0324,0.013523,0.002678,0.000431,0.004466
25186000,0.0324,0.013523,0.002678,0.000431,0.035023
25187000,0.0324,0.013523,0.002678,0.000431,0.035023
25188000,0.0324,0.013523,0.002678,0.000431,0.004701
25189000,0.0324,0.013523,0.002678,0.000431,0.008462
25190000,0.0324,0.013523,0.002678,0.000431,0.008462
25191000,0.0324,0.013523,0.002678,0.000431,0.004701
25192000,0.0324,0.013523,0.002678,0.000431,0.004701
25193000,0.0324,0.013523,0.002678,0.000431,0.004701
25194000,0.0324,0.013523,0.002678,0.000431,0.004701
25195000,0.0324,0.013523,0.002678,0.000431,0.004701
25196000,0.0324,0.013523,0.002678,0.000431,0.019745
25197000,0.0324,0.013523,0.002678,0.000431,0.012223
25198000,0.0324,0.013523,0.002678,0.000431,0.009402
25199000,0.0324,0.013523,0.002678,0.000431,0.015044
25200000,0.0324,0.013523,0.002678,0.000431,0.012223
25201000,0.0324,0.013523,0.002678,0.000431,0.004701
25202000,0.0324,0.013523,0.002678,0.000431,0.004701
25203000,0.0324,0.013523,0.002678,0.000431,0.004701
25204000,0.0324,0.013523,0.002678,0.000431,0.004701
25205000,0.0324,0.013523,0.002678,0.000431,0.004701
25206000,0.0324,0.013523,0.002678,0.000431,0.026679
25207000,0.0324,0.013523,0.002678,0.000431,0.011635
25208000,0.0324,0.013523,0.002678,0.000431,0.004701
25209000,0.0324,0.013523,0.002678,0.000431,0.046189
25210000,0.0324,0.013523,0.002678,0.000431,0.037256
25211000,0.0324,0.013523,0.002678,0.000431,0.004701
25212000,0.0324,0.013523,0.002678,0.000431,0.012223
25213000,0.0324,0.013523,0.002678,0.000431,0.012105
25214000,0.0324,0.013523,0.002678,0.000431,0.004584
25215000,0.0324,0.013523,0.002678,0.000431,0.004701
25216000,0.0324,0.013523,0.002678,0.000431,0.061350
25217000,0.0324,0.013523,0.002678,0.000431,0.046071
25218000,0.0324,0.013523,0.002678,0.000431,0.031262
25219000,0.0324,0.013523,0.002678,0.000431,0.008462
25220000,0.0324,0.013523,0.002678,0.000431,0.004466
25221000,0.0324,0.013523,0.002678,0.000431,0.004701
25222000,0.0324,0.013523,0.002678,0.000431,0.004701
25223000,0.0324,0.013523,0.002678,0.000431,0.057354
25224000,0.0324,0.013523,0.002678,0.000431,0.004466
25225000,0.0324,0.013523,0.002678,0.000431,0.042075
25226000,0.0324,0.013523,0.002678,0.000431,0.027267
25227000,0.0324,0.013523,0.002678,0.000431,0.004701
25228000,0.0324,0.013523,0.002678,0.000431,0.004701
25229000,0.0324,0.013523,0.002678,0.000431,0.042310
25230000,0.0324,0.013523,0.002678,0.000431,0.004701
25231000,0.0324,0.013523,0.002678,0.000431,0.004701
25232000,0.0324,0.013523,0.002678,0.000431,0.012223
25233000,0.0324,0.013523,0.002678,0.000431,0.037374
25234000,0.0324,0.013523,0.002678,0.000431,0.015984
25235000,0.0324,0.013523,0.002678,0.000431,0.004701
25236000,0.0324,0.013523,0.002678,0.000431,0.004701
25237000,0.0324,0.013523,0.002678,0.000431,0.004701
25238000,0.0324,0.013523,0.002678,0.000431,0.004701
25239000,0.0324,0.013523,0.002678,0.000431,0.004701
25240000,0.0324,0.013523,0.002678,0.000431,0.094963
25241000,0.0324,0.013523,0.002678,0.000431,0.004701
25242000,0.0324,0.013523,0.002678,0.000431,0.023506
25243000,0.0324,0.013523,0.002678,0.000431,0.029147
25244000,0.0324,0.013523,0.002678,0.000431,0.006582
25245000,0.0324,0.013523,0.002678,0.000431,0.004701
25246000,0.0324,0.013523,0.002678,0.000431,0.004701
25247000,0.0324,0.013523,0.002678,0.000431,0.004466
25248000,0.0324,0.013523,0.002678,0.000431,0.004701
25249000,0.0324,0.013523,0.002678,0.000431,0.004701
25250000,0.0324,0.013523,0.002678,0.000431,0.094728
25251000,0.0324,0.013523,0.002678,0.000431,0.024798
25252000,0.0324,0.013523,0.002678,0.000431,0.052300
25253000,0.0324,0.013523,0.002678,0.000431,0.004701
25254000,0.0324,0.013523,0.002678,0.000431,0.004701
25255000,0.0324,0.013523,0.002678,0.000431,0.004701
25256000,0.0324,0.013523,0.002678,0.000431,0.004701
25257000,0.0324,0.013523,0.002678,0.000431,0.004701
25258000,0.0324,0.013523,0.002678,0.000431,0.019745
25259000,0.0324,0.013523,0.002678,0.000431,0.049832
25260000,0.0324,0.013523,0.002678,0.000431,0.004701
25261000,0.0324,0.013523,0.002678,0.000431,0.011988
25262000,0.0324,0.013523,0.002678,0.000431,0.049832
25263000,0.0324,0.013523,0.002678,0.000431,0.004701
25264000,0.0324,0.013523,0.002678,0.000431,0.004466
25265000,0.0324,0.013523,0.002678,0.000431,0.004466
25266000,0.0324,0.013523,0.002678,0.000431,0.004701
25267000,0.0324,0.013523,0.002678,0.000431,0.004701
25268000,0.0324,0.013523,0.002678,0.000431,0.004701
25269000,0.0324,0.013523,0.002678,0.000431,0.019745
25270000,0.0324,0.013523,0.002678,0.000431,0.004701
25271000,0.0324,0.013523,0.002678,0.000431,0.063465
25272000,0.0324,0.013523,0.002678,0.000431,0.051242
25273000,0.0324,0.013523,0.002678,0.000431,0.004701
25274000,0.0324,0.013523,0.002678,0.000431,0.004701
25275000,0.0324,0.013523,0.002678,0.000431,0.061115
25276000,0.0324,0.013523,0.002678,0.000431,0.031027
25277000,0.0324,0.013523,0.002678,0.000431,0.004701
25278000,0.0324,0.013523,0.002678,0.000431,0.012223
25279000,0.0324,0.013523,0.002678,0.000431,0.004701
25280000,0.0324,0.013523,0.002678,0.000431,0.004701
25281000,0.0324,0.013523,0.002678,0.000431,0.004701
25282000,0.0324,0.013523,0.002678,0.000431,0.162659
25283000,0.0324,0.013523,0.002678,0.000431,0.019745
25284000,0.0324,0.013523,0.002678,0.000431,0.028559
25285000,0.0324,0.013523,0.002678,0.000431,0.010930
25286000,0.0324,0.013523,0.002678,0.000431,0.004701
25287000,0.0324,0.013523,0.002678,0.000431,0.004466
25288000,0.0324,0.013523,0.002678,0.000431,0.015984
25289000,0.0324,0.013523,0.002678,0.000431,0.008462
25290000,0.0324,0.013523,0.002678,0.000431,0.004701
25291000,0.0324,0.013523,0.002678,0.000431,0.017982
25292000,0.0324,0.013523,0.002678,0.000431,0.106951
25293000,0.0324,0.013523,0.002678,0.000431,0.009520
25294000,0.0324,0.013523,0.002678,0.000431,0.004701
25295000,0.0324,0.013523,0.002678,0.000431,0.044191
25296000,0.0324,0.013523,0.002678,0.000431,0.010342
25297000,0.0324,0.013523,0.002678,0.000431,0.004701
25298000,0.0324,0.013523,0.002678,0.000431,0.004701
25299000,0.0324,0.013523,0.002678,0.000431,0.012223
25300000,0.0324,0.013523,0.002678,0.000431,0.004701
25301000,0.0324,0.013523,0.002678,0.000431,0.004466
25302000,0.0324,0.013523,0.002678,0.000431,0.004701
25303000,0.0324,0.013523,0.002678,0.000431,0.008462
25304000,0.0324,0.013523,0.002678,0.000431,0.008227
25305000,0.0324,0.013523,0.002678,0.000431,0.004466
25306000,0.0324,0.013523,0.002678,0.000431,0.004701
25307000,0.0324,0.013523,0.002678,0.000431,0.012223
25308000,0.0324,0.013523,0.002678,0.000431,0.004701
25309000,0.0324,0.013523,0.002678,0.000431,0.004701
25310000,0.0324,0.013523,0.002678,0.000431,0.027267
25311000,0.0324,0.013523,0.002678,0.000431,0.008462
25312000,0.0324,0.013523,0.002678,0.000431,0.008462
25313000,0.0324,0.013523,0.002678,0.000431,0.027267
25314000,0.0324,0.013523,0.002678,0.000431,0.004701
25315000,0.0324,0.013523,0.002678,0.000431,0.004701
25316000,0.0324,0.013523,0.002678,0.000431,0.004701
25317000,0.0324,0.013523,0.002678,0.000431,0.004701
25318000,0.0324,0.013523,0.002678,0.000431,0.034788
25319000,0.0324,0.013523,0.002678,0.000431,0.004701
25320000,0.0324,0.013523,0.002678,0.000431,0.049832
25321000,0.0324,0.013523,0.002678,0.000431,0.004701
25322000,0.0324,0.013523,0.002678,0.000431,0.004701
25323000,0.0324,0.013523,0.002678,0.000431,0.027267
25324000,0.0324,0.013523,0.002678,0.000431,0.012223
25325000,0.0324,0.013523,0.002678,0.000431,0.064876
25326000,0.0324,0.013523,0.002678,0.000431,0.004701
25327000,0.0324,0.013523,0.002678,0.000431,0.004584
25328000,0.0324,0.013523,0.002678,0.000431,0.004584
25329000,0.0324,0.013523,0.002678,0.000431,0.004701
25330000,0.0324,0.013523,0.002678,0.000431,0.027267
25331000,0.0324,0.013523,0.002678,0.000431,0.004701
25332000,0.0324,0.013523,0.002678,0.000431,0.004701
25333000,0.0324,0.013523,0.002678,0.000431,0.034788
25334000,0.0324,0.013523,0.002678,0.000431,0.019745
25335000,0.0324,0.013523,0.002678,0.000431,0.004701
25336000,0.0324,0.013523,0.002678,0.000431,0.008462
25337000,0.0324,0.013523,0.002678,0.000431,0.008462
25338000,0.0324,0.013523,0.002678,0.000431,0.007639
25339000,0.0324,0.013523,0.002678,0.000431,0.040312
25340000,0.0324,0.013523,0.002678,0.000431,0.026679
25341000,0.0324,0.013523,0.002678,0.000431,0.019275
25342000,0.0324,0.013523,0.002678,0.000431,0.004584
25343000,0.0324,0.013523,0.002678,0.000431,0.012223
25344000,0.0324,0.013523,0.002678,0.000431,0.023271
25345000,0.0324,0.013523,0.002678,0.000431,0.038314
25346000,0.0324,0.013523,0.002678,0.000431,0.004701
25347000,0.0324,0.013523,0.002678,0.000431,0.012223
25348000,0.0324,0.013523,0.002678,0.000431,0.004701
25349000,0.0324,0.013523,0.002678,0.000431,0.048187
25350000,0.0324,0.013523,0.002678,0.000431,0.051477
25351000,0.0324,0.013523,0.002678,0.000431,0.004701
25352000,0.0324,0.013523,0.002678,0.000431,0.027267
25353000,0.0324,0.013523,0.002678,0.000431,0.087206
25354000,0.0324,0.013523,0.002678,0.000431,0.057589
25355000,0.0324,0.013523,0.002678,0.000431,0.004701
25356000,0.0324,0.013523,0.002678,0.000431,0.004701
25357000,0.0324,0.013523,0.002678,0.000431,0.004701
25358000,0.0324,0.013523,0.002678,0.000431,0.004701
25359000,0.0324,0.013523,0.002678,0.000431,0.012223
25360000,0.0324,0.013523,0.002678,0.000431,0.110006
25361000,0.0324,0.013523,0.002678,0.000431,0.012223
25362000,0.0324,0.013523,0.002678,0.000431,0.007522
25363000,0.0324,0.013523,0.002678,0.000431,0.062055
25364000,0.0324,0.013523,0.002678,0.000431,0.004701
25365000,0.0324,0.013523,0.002678,0.000431,0.004701
25366000,0.0324,0.013523,0.002678,0.000431,0.004701
25367000,0.0324,0.013523,0.002678,0.000431,0.012105
25368000,0.0324,0.013523,0.002678,0.000431,0.004584
25369000,0.0324,0.013523,0.002678,0.000431,0.004701
25370000,0.0324,0.013523,0.002678,0.000431,0.012223
25371000,0.0324,0.013523,0.002678,0.000431,0.004701
25372000,0.0324,0.013523,0.002678,0.000431,0.027267
25373000,0.0324,0.013523,0.002678,0.000431,0.057354
25374000,0.0324,0.013523,0.002678,0.000431,0.004701
25375000,0.0324,0.013523,0.002678,0.000431,0.004701
25376000,0.0324,0.013523,0.002678,0.000431,0.019745
25377000,0.0324,0.013523,0.002678,0.000431,0.007874
25378000,0.0324,0.013523,0.002678,0.000431,0.009050
25379000,0.0324,0.013523,0.002678,0.000431,0.004701
25380000,0.0324,0.013523,0.002678,0.000431,0.049832
25381000,0.0324,0.013523,0.002678,0.000431,0.004584
25382000,0.0324,0.013523,0.002678,0.000431,0.034671
25383000,0.0324,0.013523,0.002678,0.000431,0.012223
25384000,0.0324,0.013523,0.002678,0.000431,0.027031
25385000,0.0324,0.013523,0.002678,0.000431,0.004466
25386000,0.0324,0.013523,0.002678,0.000431,0.057354
25387000,0.0324,0.013523,0.002678,0.000431,0.027502
25388000,0.0324,0.013523,0.002678,0.000431,0.004701
25389000,0.0324,0.013523,0.002678,0.000431,0.012223
25390000,0.0324,0.013523,0.002678,0.000431,0.004701
25391000,0.0324,0.013523,0.002678,0.000431,0.012223
25392000,0.0324,0.013523,0.002678,0.000431,0.004701
25393000,0.0324,0.013523,0.002678,0.000431,0.023506
25394000,0.0324,0.013523,0.002678,0.000431,0.008462
25395000,0.0324,0.013523,0.002678,0.000431,0.011400
25396000,0.0324,0.013523,0.002678,0.000431,0.065933
25397000,0.0324,0.013523,0.002678,0.000431,0.004701
25398000,0.0324,0.013523,0.002678,0.000431,0.004701
25399000,0.0324,0.013523,0.002678,0.000431,0.038549
25400000,0.0324,0.013523,0.002678,0.000431,0.023506
25401000,0.0324,0.013523,0.002678,0.000431,0.004466
25402000,0.0324,0.013523,0.002678,0.000431,0.027267
25403000,0.0324,0.013523,0.002678,0.000431,0.004701
25404000,0.0324,0.013523,0.002678,0.000431,0.004701
25405000,0.0324,0.013523,0.002678,0.000431,0.004701
25406000,0.0324,0.013523,0.002678,0.000431,0.021155
25407000,0.0324,0.013523,0.002678,0.000431,0.018334
25408000,0.0324,0.013523,0.002678,0.000431,0.004701
25409000,0.0324,0.013523,0.002678,0.000431,0.131749
25410000,0.0324,0.013523,0.002678,0.000431,0.012811
25411000,0.0324,0.013523,0.002678,0.000431,0.004701
25412000,0.0324,0.013523,0.002678,0.000431,0.031027
25413000,0.0324,0.013523,0.002678,0.000431,0.135863
25414000,0.0324,0.013523,0.002678,0.000431,0.027972
25415000,0.0324,0.013523,0.002678,0.000431,0.004701
25416000,0.0324,0.013523,0.002678,0.000431,0.013046
25417000,0.0324,0.013523,0.002678,0.000431,0.011635
25418000,0.0324,0.013523,0.002678,0.000431,0.004701
25419000,0.0324,0.013523,0.002678,0.000431,0.004701
25420000,0.0324,0.013523,0.002678,0.000431,0.012223
25421000,0.0324,0.013523,0.002678,0.000431,0.004701
25422000,0.0324,0.013523,0.002678,0.000431,0.019745
25423000,0.0324,0.013523,0.002678,0.000431,0.035141
25424000,0.0324,0.013523,0.002678,0.000431,0.026679
25425000,0.0324,0.013523,0.002678,0.000431,0.004584
25426000,0.0324,0.013523,0.002678,0.000431,0.037139
25427000,0.0324,0.013523,0.002678,0.000431,0.032790
25428000,0.0324,0.013523,0.002678,0.000431,0.012458
25429000,0.0324,0.013523,0.002678,0.000431,0.049597
25430000,0.0324,0.013523,0.002678,0.000431,0.107186
25431000,0.0324,0.013523,0.002678,0.000431,0.022330
25432000,0.0324,0.013523,0.002678,0.000431,0.004701
25433000,0.0324,0.013523,0.002678,0.000431,0.004701
25434000,0.0324,0.013523,0.002678,0.000431,0.065111
25435000,0.0324,0.013523,0.002678,0.000431,0.031380
25436000,0.0324,0.013523,0.002678,0.000431,0.023388
25437000,0.0324,0.013523,0.002678,0.000431,0.034788
25438000,0.0324,0.013523,0.002678,0.000431,0.004701
25439000,0.0324,0.013523,0.002678,0.000431,0.019745
25440000,0.0324,0.013523,0.002678,0.000431,0.036199
25441000,0.0324,0.013523,0.002678,0.000431,0.018334
25442000,0.0324,0.013523,0.002678,0.000431,0.012105
25443000,0.0324,0.013523,0.002678,0.000431,0.070987
25444000,0.0324,0.013523,0.002678,0.000431,0.108008
25445000,0.0324,0.013523,0.002678,0.000431,0.038549
25446000,0.0324,0.013523,0.002678,0.000431,0.004701
25447000,0.0324,0.013523,0.002678,0.000431,0.027267
25448000,0.0324,0.013523,0.002678,0.000431,0.004701
25449000,0.0324,0.013523,0.002678,0.000431,0.004701
25450000,0.0324,0.013523,0.002678,0.000431,0.004701
25451000,0.0324,0.013523,0.002678,0.000431,0.065816
25452000,0.0324,0.013523,0.002678,0.000431,0.019040
25453000,0.0324,0.013523,0.002678,0.000431,0.021978
25454000,0.0324,0.013523,0.002678,0.000431,0.100252
25455000,0.0324,0.013523,0.002678,0.000431,0.004701
25456000,0.0324,0.013523,0.002678,0.000431,0.004701
25457000,0.0324,0.013523,0.002678,0.000431,0.027384
25458000,0.0324,0.013523,0.002678,0.000431,0.094845
25459000,0.0324,0.013523,0.002678,0.000431,0.004701
25460000,0.0324,0.013523,0.002678,0.000431,0.018452
25461000,0.0324,0.013523,0.002678,0.000431,0.013516
25462000,0.0324,0.013523,0.002678,0.000431,0.004701
25463000,0.0324,0.013523,0.002678,0.000431,0.060645
25464000,0.0324,0.013523,0.002678,0.000431,0.023976
25465000,0.0324,0.013523,0.002678,0.000431,0.004701
25466000,0.0324,0.013523,0.002678,0.000431,0.004701
25467000,0.0324,0.013523,0.002678,0.000431,0.004701
25468000,0.0324,0.013523,0.002678,0.000431,0.034788
25469000,0.0324,0.013523,0.002678,0.000431,0.004701
25470000,0.0324,0.013523,0.002678,0.000431,0.019745
25471000,0.0324,0.013523,0.002678,0.000431,0.019745
25472000,0.0324,0.013523,0.002678,0.000431,0.004584
25473000,0.0324,0.013523,0.002678,0.000431,0.004584
25474000,0.0324,0.013523,0.002678,0.000431,0.004701
25475000,0.0324,0.013523,0.002678,0.000431,0.004701
25476000,0.0324,0.013523,0.002678,0.000431,0.015044
25477000,0.0324,0.013523,0.002678,0.000431,0.029500
25478000,0.0324,0.013523,0.002678,0.000431,0.014926
25479000,0.0324,0.013523,0.002678,0.000431,0.004701
25480000,0.0324,0.013523,0.002678,0.000431,0.031027
25481000,0.0324,0.013523,0.002678,0.000431,0.008462
25482000,0.0324,0.013523,0.002678,0.000431,0.057589
25483000,0.0324,0.013523,0.002678,0.000431,0.041252
25484000,0.0324,0.013523,0.002678,0.000431,0.043368
25485000,0.0324,0.013523,0.002678,0.000431,0.004701
25486000,0.0324,0.013523,0.002678,0.000431,0.004466
25487000,0.0324,0.013523,0.002678,0.000431,0.004701
25488000,0.0324,0.013523,0.002678,0.000431,0.004701
25489000,0.0324,0.013523,0.002678,0.000431,0.004701
25490000,0.0324,0.013523,0.002678,0.000431,0.004701
25491000,0.0324,0.013523,0.002678,0.000431,0.117528
25492000,0.0324,0.013523,0.002678,0.000431,0.027267
25493000,0.0324,0.013523,0.002678,0.000431,0.012223
25494000,0.0324,0.013523,0.002678,0.000431,0.012458
25495000,0.0324,0.013523,0.002678,0.000431,0.004701
25496000,0.0324,0.013523,0.002678,0.000431,0.004584
25497000,0.0324,0.013523,0.002678,0.000431,0.004349
25498000,0.0324,0.013523,0.002678,0.000431,0.087676
25499000,0.0324,0.013523,0.002678,0.000431,0.004701
25500000,0.0324,0.013523,0.002678,0.000431,0.027267
25501000,0.0324,0.013523,0.002678,0.000431,0.004701
25502000,0.0324,0.013523,0.002678,0.000431,0.004701
25503000,0.0324,0.013523,0.002678,0.000431,0.004701
25504000,0.0324,0.013523,0.002678,0.000431,0.102485
25505000,0.0324,0.013523,0.002678,0.000431,0.004701
25506000,0.0324,0.013523,0.002678,0.000431,0.004701
25507000,0.0324,0.013523,0.002678,0.000431,0.004701
25508000,0.0324,0.013523,0.002678,0.000431,0.034788
25509000,0.0324,0.013523,0.002678,0.000431,0.004701
25510000,0.0324,0.013523,0.002678,0.000431,0.034788
25511000,0.0324,0.013523,0.002678,0.000431,0.020567
25512000,0.0324,0.013523,0.002678,0.000431,0.011283
25513000,0.0324,0.013523,0.002678,0.000431,0.042428
25514000,0.0324,0.013523,0.002678,0.000431,0.004701
25515000,0.0324,0.013523,0.002678,0.000431,0.004701
25516000,0.0324,0.013523,0.002678,0.000431,0.004701
25517000,0.0324,0.013523,0.002678,0.000431,0.034788
25518000,0.0324,0.013523,0.002678,0.000431,0.027267
25519000,0.0324,0.013523,0.002678,0.000431,0.015984
25520000,0.0324,0.013523,0.002678,0.000431,0.015984
25521000,0.0324,0.013523,0.002678,0.000431,0.101427
25522000,0.0324,0.013523,0.002678,0.000431,0.013281
25523000,0.0324,0.013523,0.002678,0.000431,0.020920
25524000,0.0324,0.013523,0.002678,0.000431,0.022800
25525000,0.0324,0.013523,0.002678,0.000431,0.023036
25526000,0.0324,0.013523,0.002678,0.000431,0.011870
25527000,0.0324,0.013523,0.002678,0.000431,0.020097
25528000,0.0324,0.013523,0.002678,0.000431,0.027267
25529000,0.0324,0.013523,0.002678,0.000431,0.004701
25530000,0.0324,0.013523,0.002678,0.000431,0.004701
25531000,0.0324,0.013523,0.002678,0.000431,0.050067
25532000,0.0324,0.013523,0.002678,0.000431,0.034553
25533000,0.0324,0.013523,0.002678,0.000431,0.102485
25534000,0.0324,0.013523,0.002678,0.000431,0.038079
25535000,0.0324,0.013523,0.002678,0.000431,0.031733
25536000,0.0324,0.013523,0.002678,0.000431,0.004701
25537000,0.0324,0.013523,0.002678,0.000431,0.012223
25538000,0.0324,0.013523,0.002678,0.000431,0.144677
25539000,0.0324,0.013523,0.002678,0.000431,0.026796
25540000,0.0324,0.013523,0.002678,0.000431,0.008345
25541000,0.0324,0.013523,0.002678,0.000431,0.004701
25542000,0.0324,0.013523,0.002678,0.000431,0.004701
25543000,0.0324,0.013523,0.002678,0.000431,0.004701
25544000,0.0324,0.013523,0.002678,0.000431,0.043720
25545000,0.0324,0.013523,0.002678,0.000431,0.033613
25546000,0.0324,0.013523,0.002678,0.000431,0.079919
25547000,0.0324,0.013523,0.002678,0.000431,0.004701
25548000,0.0324,0.013523,0.002678,0.000431,0.012223
25549000,0.0324,0.013523,0.002678,0.000431,0.004701
25550000,0.0324,0.013523,0.002678,0.000431,0.004701
25551000,0.0324,0.013523,0.002678,0.000431,0.027267
25552000,0.0324,0.013523,0.002678,0.000431,0.012223
25553000,0.0324,0.013523,0.002678,0.000431,0.027031
25554000,0.0324,0.013523,0.002678,0.000431,0.004701
25555000,0.0324,0.013523,0.002678,0.000431,0.004701
25556000,0.0324,0.013523,0.002678,0.000431,0.004701
25557000,0.0324,0.013523,0.002678,0.000431,0.049832
25558000,0.0324,0.013523,0.002678,0.000431,0.019745
25559000,0.0324,0.013523,0.002678,0.000431,0.008462
25560000,0.0324,0.013523,0.002678,0.000431,0.008462
25561000,0.0324,0.013523,0.002678,0.000431,0.004701
25562000,0.0324,0.013523,0.002678,0.000431,0.004701
25563000,0.0324,0.013523,0.002678,0.000431,0.004701
25564000,0.0324,0.013523,0.002678,0.000431,0.088969
25565000,0.0324,0.013523,0.002678,0.000431,0.098489
25566000,0.0324,0.013523,0.002678,0.000431,0.014456
25567000,0.0324,0.013523,0.002678,0.000431,0.027267
25568000,0.0324,0.013523,0.002678,0.000431,0.004701
25569000,0.0324,0.013523,0.002678,0.000431,0.004701
25570000,0.0324,0.013523,0.002678,0.000431,0.034788
25571000,0.0324,0.013523,0.002678,0.000431,0.004701
25572000,0.0324,0.013523,0.002678,0.000431,0.004466
25573000,0.0324,0.013523,0.002678,0.000431,0.019745
25574000,0.0324,0.013523,0.002678,0.000431,0.019745
25575000,0.0324,0.013523,0.002678,0.000431,0.004584
25576000,0.0324,0.013523,0.002678,0.000431,0.027031
25577000,0.0324,0.013523,0.002678,0.000431,0.040077
25578000,0.0324,0.013523,0.002678,0.000431,0.044661
25579000,0.0324,0.013523,0.002678,0.000431,0.019745
25580000,0.0324,0.013523,0.002678,0.000431,0.106951
25581000,0.0324,0.013523,0.002678,0.000431,0.030322
25582000,0.0324,0.013523,0.002678,0.000431,0.004701
25583000,0.0324,0.013523,0.002678,0.000431,0.004701
25584000,0.0324,0.013523,0.002678,0.000431,0.034318
25585000,0.0324,0.013523,0.002678,0.000431,0.012693
25586000,0.0324,0.013523,0.002678,0.000431,0.004701
25587000,0.0324,0.013523,0.002678,0.000431,0.094963
25588000,0.0324,0.013523,0.002678,0.000431,0.004466
25589000,0.0324,0.013523,0.002678,0.000431,0.004701
25590000,0.0324,0.013523,0.002678,0.000431,0.004701
25591000,0.0324,0.013523,0.002678,0.000431,0.131984
25592000,0.0324,0.013523,0.002678,0.000431,0.035376
25593000,0.0324,0.013523,0.002678,0.000431,0.004584
25594000,0.0324,0.013523,0.002678,0.000431,0.034906
25595000,0.0324,0.013523,0.002678,0.000431,0.004701
25596000,0.0324,0.013523,0.002678,0.000431,0.019980
25597000,0.0324,0.013523,0.002678,0.000431,0.004701
25598000,0.0324,0.013523,0.002678,0.000431,0.042310
25599000,0.0324,0.013523,0.002678,0.000431,0.004466
25600000,0.0324,0.013523,0.002678,0.000431,0.027267
25601000,0.0324,0.013523,0.002678,0.000431,0.004701
25602000,0.0324,0.013523,0.002678,0.000431,0.004701
25603000,0.0324,0.013523,0.002678,0.000431,0.004701
25604000,0.0324,0.013523,0.002678,0.000431,0.052535
25605000,0.0324,0.013523,0.002678,0.000431,0.009520
25606000,0.0324,0.013523,0.002678,0.000431,0.004701
25607000,0.0324,0.013523,0.002678,0.000431,0.019745
25608000,0.0324,0.013523,0.002678,0.000431,0.004701
25609000,0.0324,0.013523,0.002678,0.000431,0.004701
25610000,0.0324,0.013523,0.002678,0.000431,0.007287
25611000,0.0324,0.013523,0.002678,0.000431,0.054768
25612000,0.0324,0.013523,0.002678,0.000431,0.004701
25613000,0.0324,0.013523,0.002678,0.000431,0.019745
25614000,0.0324,0.013523,0.002678,0.000431,0.004701
25615000,0.0324,0.013523,0.002678,0.000431,0.067696
25616000,0.0324,0.013523,0.002678,0.000431,0.016924
25617000,0.0324,0.013523,0.002678,0.000431,0.042310
25618000,0.0324,0.013523,0.002678,0.000431,0.004701
25619000,0.0324,0.013523,0.002678,0.000431,0.009402
25620000,0.0324,0.013523,0.002678,0.000431,0.067696
25621000,0.0324,0.013523,0.002678,0.000431,0.004701
25622000,0.0324,0.013523,0.002678,0.000431,0.012223
25623000,0.0324,0.013523,0.002678,0.000431,0.015984
25624000,0.0324,0.013523,0.002678,0.000431,0.076158
25625000,0.0324,0.013523,0.002678,0.000431,0.004701
25626000,0.0324,0.013523,0.002678,0.000431,0.004701
25627000,0.0324,0.013523,0.002678,0.000431,0.027267
25628000,0.0324,0.013523,0.002678,0.000431,0.019510
25629000,0.0324,0.013523,0.002678,0.000431,0.004701
25630000,0.0324,0.013523,0.002678,0.000431,0.034788
25631000,0.0324,0.013523,0.002678,0.000431,0.004701
25632000,0.0324,0.013523,0.002678,0.000431,0.004701
25633000,0.0324,0.013523,0.002678,0.000431,0.004701
25634000,0.0324,0.013523,0.002678,0.000431,0.012223
25635000,0.0324,0.013523,0.002678,0.000431,0.042310
25636000,0.0324,0.013523,0.002678,0.000431,0.004701
25637000,0.0324,0.013523,0.002678,0.000431,0.057354
25638000,0.0324,0.013523,0.002678,0.000431,0.004701
25639000,0.0324,0.013523,0.002678,0.000431,0.027031
25640000,0.0324,0.013523,0.002678,0.000431,0.004701
25641000,0.0324,0.013523,0.002678,0.000431,0.012223
25642000,0.0324,0.013523,0.002678,0.000431,0.004701
25643000,0.0324,0.013523,0.002678,0.000431,0.004701
25644000,0.0324,0.013523,0.002678,0.000431,0.019745
25645000,0.0324,0.013523,0.002678,0.000431,0.004701
25646000,0.0324,0.013523,0.002678,0.000431,0.027267
25647000,0.0324,0.013523,0.002678,0.000431,0.008462
25648000,0.0324,0.013523,0.002678,0.000431,0.008462
25649000,0.0324,0.013523,0.002678,0.000431,0.019627
25650000,0.0324,0.013523,0.002678,0.000431,0.027031
25651000,0.0324,0.013523,0.002678,0.000431,0.004819
25652000,0.0324,0.013523,0.002678,0.000431,0.019745
25653000,0.0324,0.013523,0.002678,0.000431,0.004701
25654000,0.0324,0.013523,0.002678,0.000431,0.064876
25655000,0.0324,0.013523,0.002678,0.000431,0.019745
25656000,0.0324,0.013523,0.002678,0.000431,0.012223
25657000,0.0324,0.013523,0.002678,0.000431,0.012223
25658000,0.0324,0.013523,0.002678,0.000431,0.004701
25659000,0.0324,0.013523,0.002678,0.000431,0.004701
25660000,0.0324,0.013523,0.002678,0.000431,0.004701
25661000,0.0324,0.013523,0.002678,0.000431,0.042310
25662000,0.0324,0.013523,0.002678,0.000431,0.004701
25663000,0.0324,0.013523,0.002678,0.000431,0.004701
25664000,0.0324,0.013523,0.002678,0.000431,0.004701
25665000,0.0324,0.013523,0.002678,0.000431,0.019627
25666000,0.0324,0.013523,0.002678,0.000431,0.012105
25667000,0.0324,0.013523,0.002678,0.000431,0.004701
25668000,0.0324,0.013523,0.002678,0.000431,0.173472
25669000,0.0324,0.013523,0.002678,0.000431,0.019980
25670000,0.0324,0.013523,0.002678,0.000431,0.008462
25671000,0.0324,0.013523,0.002678,0.000431,0.004466
25672000,0.0324,0.013523,0.002678,0.000431,0.004701
25673000,0.0324,0.013523,0.002678,0.000431,0.004701
25674000,0.0324,0.013523,0.002678,0.000431,0.004701
25675000,0.0324,0.013523,0.002678,0.000431,0.094963
25676000,0.0324,0.013523,0.002678,0.000431,0.004701
25677000,0.0324,0.013523,0.002678,0.000431,0.004701
25678000,0.0324,0.013523,0.002678,0.000431,0.025386
25679000,0.0324,0.013523,0.002678,0.000431,0.006582
25680000,0.0324,0.013523,0.002678,0.000431,0.004701
25681000,0.0324,0.013523,0.002678,0.000431,0.027267
25682000,0.0324,0.013523,0.002678,0.000431,0.004701
25683000,0.0324,0.013523,0.002678,0.000431,0.004701
25684000,0.0324,0.013523,0.002678,0.000431,0.004701
25685000,0.0324,0.013523,0.002678,0.000431,0.004701
25686000,0.0324,0.013523,0.002678,0.000431,0.004701
25687000,0.0324,0.013523,0.002678,0.000431,0.004701
25688000,0.0324,0.013523,0.002678,0.000431,0.012223
25689000,0.0324,0.013523,0.002678,0.000431,0.004584
25690000,0.0324,0.013523,0.002678,0.000431,0.004584
25691000,0.0324,0.013523,0.002678,0.000431,0.004701
25692000,0.0324,0.013523,0.002678,0.000431,0.004701
25693000,0.0324,0.013523,0.002678,0.000431,0.023036
25694000,0.0324,0.013523,0.002678,0.000431,0.016454
25695000,0.0324,0.013523,0.002678,0.000431,0.015984
25696000,0.0324,0.013523,0.002678,0.000431,0.015984
25697000,0.0324,0.013523,0.002678,0.000431,0.008462
25698000,0.0324,0.013523,0.002678,0.000431,0.031027
25699000,0.0324,0.013523,0.002678,0.000431,0.004466
25700000,0.0324,0.013523,0.002678,0.000431,0.010578
25701000,0.0324,0.013523,0.002678,0.000431,0.021390
25702000,0.0324,0.013523,0.002678,0.000431,0.004701
25703000,0.0324,0.013523,0.002678,0.000431,0.004701
25704000,0.0324,0.013523,0.002678,0.000431,0.056884
25705000,0.0324,0.013523,0.002678,0.000431,0.005406
25706000,0.0324,0.013523,0.002678,0.000431,0.004701
25707000,0.0324,0.013523,0.002678,0.000431,0.019745
25708000,0.0324,0.013523,0.002678,0.000431,0.004466
25709000,0.0324,0.013523,0.002678,0.000431,0.004701
25710000,0.0324,0.013523,0.002678,0.000431,0.004701
25711000,0.0324,0.013523,0.002678,0.000431,0.004584
25712000,0.0324,0.013523,0.002678,0.000431,0.004584
25713000,0.0324,0.013523,0.002678,0.000431,0.027267
25714000,0.0324,0.013523,0.002678,0.000431,0.004701
25715000,0.0324,0.013523,0.002678,0.000431,0.079919
25716000,0.0324,0.013523,0.002678,0.000431,0.004701
25717000,0.0324,0.013523,0.002678,0.000431,0.012223
25718000,0.0324,0.013523,0.002678,0.000431,0.004701
25719000,0.0324,0.013523,0.002678,0.000431,0.031262
25720000,0.0324,0.013523,0.002678,0.000431,0.045836
25721000,0.0324,0.013523,0.002678,0.000431,0.004701
25722000,0.0324,0.013523,0.002678,0.000431,0.087206
25723000,0.0324,0.013523,0.002678,0.000431,0.008462
25724000,0.0324,0.013523,0.002678,0.000431,0.038549
25725000,0.0324,0.013523,0.002678,0.000431,0.004701
25726000,0.0324,0.013523,0.002678,0.000431,0.042310
25727000,0.0324,0.013523,0.002678,0.000431,0.012223
25728000,0.0324,0.013523,0.002678,0.000431,0.019745
25729000,0.0324,0.013523,0.002678,0.000431,0.027267
25730000,0.0324,0.013523,0.002678,0.000431,0.004701
25731000,0.0324,0.013523,0.002678,0.000431,0.004701
25732000,0.0324,0.013523,0.002678,0.000431,0.020097
25733000,0.0324,0.013523,0.002678,0.000431,0.019627
25734000,0.0324,0.013523,0.002678,0.000431,0.004701
25735000,0.0324,0.013523,0.002678,0.000431,0.012458
25736000,0.0324,0.013523,0.002678,0.000431,0.007639
25737000,0.0324,0.013523,0.002678,0.000431,0.009520
25738000,0.0324,0.013523,0.002678,0.000431,0.004701
25739000,0.0324,0.013523,0.002678,0.000431,0.010930
25740000,0.0324,0.013523,0.002678,0.000431,0.103307
25741000,0.0324,0.013523,0.002678,0.000431,0.004701
25742000,0.0324,0.013523,0.002678,0.000431,0.012223
25743000,0.0324,0.013523,0.002678,0.000431,0.034788
25744000,0.0324,0.013523,0.002678,0.000431,0.004701
25745000,0.0324,0.013523,0.002678,0.000431,0.004701
25746000,0.0324,0.013523,0.002678,0.000431,0.004701
25747000,0.0324,0.013523,0.002678,0.000431,0.004701
25748000,0.0324,0.013523,0.002678,0.000431,0.004466
25749000,0.0324,0.013523,0.002678,0.000431,0.004701
25750000,0.0324,0.013523,0.002678,0.000431,0.012223
25751000,0.0324,0.013523,0.002678,0.000431,0.004701
25752000,0.0324,0.013523,0.002678,0.000431,0.049832
25753000,0.0324,0.013523,0.002678,0.000431,0.004466
25754000,0.0324,0.013523,0.002678,0.000431,0.004701
25755000,0.0324,0.013523,0.002678,0.000431,0.027267
25756000,0.0324,0.013523,0.002678,0.000431,0.057354
25757000,0.0324,0.013523,0.002678,0.000431,0.004701
25758000,0.0324,0.013523,0.002678,0.000431,0.004701
25759000,0.0324,0.013523,0.002678,0.000431,0.061820
25760000,0.0324,0.013523,0.002678,0.000431,0.015279
25761000,0.0324,0.013523,0.002678,0.000431,0.004584
25762000,0.0324,0.013523,0.002678,0.000431,0.019627
25763000,0.0324,0.013523,0.002678,0.000431,0.012223
25764000,0.0324,0.013523,0.002678,0.000431,0.004701
25765000,0.0324,0.013523,0.002678,0.000431,0.004701
25766000,0.0324,0.013523,0.002678,0.000431,0.094963
25767000,0.0324,0.013523,0.002678,0.000431,0.004701
25768000,0.0324,0.013523,0.002678,0.000431,0.004701
25769000,0.0324,0.013523,0.002678,0.000431,0.027502
25770000,0.0324,0.013523,0.002678,0.000431,0.004701
25771000,0.0324,0.013523,0.002678,0.000431,0.004701
25772000,0.0324,0.013523,0.002678,0.000431,0.012576
25773000,0.0324,0.013523,0.002678,0.000431,0.012340
25774000,0.0324,0.013523,0.002678,0.000431,0.004701
25775000,0.0324,0.013523,0.002678,0.000431,0.042310
25776000,0.0324,0.013523,0.002678,0.000431,0.012223
25777000,0.0324,0.013523,0.002678,0.000431,0.004701
25778000,0.0324,0.013523,0.002678,0.000431,0.004701
25779000,0.0324,0.013523,0.002678,0.000431,0.012105
25780000,0.0324,0.013523,0.002678,0.000431,0.004584
25781000,0.0324,0.013523,0.002678,0.000431,0.004701
25782000,0.0324,0.013523,0.002678,0.000431,0.004701
25783000,0.0324,0.013523,0.002678,0.000431,0.004701
25784000,0.0324,0.013523,0.002678,0.000431,0.004701
25785000,0.0324,0.013523,0.002678,0.000431,0.012223
25786000,0.0324,0.013523,0.002678,0.000431,0.004701
25787000,0.0324,0.013523,0.002678,0.000431,0.004701
25788000,0.0324,0.013523,0.002678,0.000431,0.087323
25789000,0.0324,0.013523,0.002678,0.000431,0.004584
25790000,0.0324,0.013523,0.002678,0.000431,0.004701
25791000,0.0324,0.013523,0.002678,0.000431,0.004701
25792000,0.0324,0.013523,0.002678,0.000431,0.042310
25793000,0.0324,0.013523,0.002678,0.000431,0.004466
25794000,0.0324,0.013523,0.002678,0.000431,0.009402
25795000,0.0324,0.013523,0.002678,0.000431,0.007522
25796000,0.0324,0.013523,0.002678,0.000431,0.012223
25797000,0.0324,0.013523,0.002678,0.000431,0.004701
25798000,0.0324,0.013523,0.002678,0.000431,0.027267
25799000,0.0324,0.013523,0.002678,0.000431,0.027267
25800000,0.0324,0.013523,0.002678,0.000431,0.004701
25801000,0.0324,0.013523,0.002678,0.000431,0.004701
25802000,0.0324,0.013523,0.002678,0.000431,0.019627
25803000,0.0324,0.013523,0.002678,0.000431,0.004584
25804000,0.0324,0.013523,0.002678,0.000431,0.004701
25805000,0.0324,0.013523,0.002678,0.000431,0.087441
25806000,0.0324,0.013523,0.002678,0.000431,0.004701
25807000,0.0324,0.013523,0.002678,0.000431,0.004701
25808000,0.0324,0.013523,0.002678,0.000431,0.057354
25809000,0.0324,0.013523,0.002678,0.000431,0.004701
25810000,0.0324,0.013523,0.002678,0.000431,0.004701
25811000,0.0324,0.013523,0.002678,0.000431,0.021038
25812000,0.0324,0.013523,0.002678,0.000431,0.018687
25813000,0.0324,0.013523,0.002678,0.000431,0.004701
25814000,0.0324,0.013523,0.002678,0.000431,0.035258
25815000,0.0324,0.013523,0.002678,0.000431,0.041840
25816000,0.0324,0.013523,0.002678,0.000431,0.004701
25817000,0.0324,0.013523,0.002678,0.000431,0.004701
25818000,0.0324,0.013523,0.002678,0.000431,0.012223
25819000,0.0324,0.013523,0.002678,0.000431,0.004584
25820000,0.0324,0.013523,0.002678,0.000431,0.004584
25821000,0.0324,0.013523,0.002678,0.000431,0.004701
25822000,0.0324,0.013523,0.002678,0.000431,0.004701
25823000,0.0324,0.013523,0.002678,0.000431,0.004701
25824000,0.0324,0.013523,0.002678,0.000431,0.023506
25825000,0.0324,0.013523,0.002678,0.000431,0.008462
25826000,0.0324,0.013523,0.002678,0.000431,0.008462
25827000,0.0324,0.013523,0.002678,0.000431,0.008462
25828000,0.0324,0.013523,0.002678,0.000431,0.004584
25829000,0.0324,0.013523,0.002678,0.000431,0.004584
25830000,0.0324,0.013523,0.002678,0.000431,0.004701
25831000,0.0324,0.013523,0.002678,0.000431,0.027502
25832000,0.0324,0.013523,0.002678,0.000431,0.004701
25833000,0.0324,0.013523,0.002678,0.000431,0.019627
25834000,0.0324,0.013523,0.002678,0.000431,0.027149
25835000,0.0324,0.013523,0.002678,0.000431,0.004701
25836000,0.0324,0.013523,0.002678,0.000431,0.004701
25837000,0.0324,0.013523,0.002678,0.000431,0.015984
25838000,0.0324,0.013523,0.002678,0.000431,0.023506
25839000,0.0324,0.013523,0.002678,0.000431,0.010342
25840000,0.0324,0.013523,0.002678,0.000431,0.006582
25841000,0.0324,0.013523,0.002678,0.000431,0.057354
25842000,0.0324,0.013523,0.002678,0.000431,0.004584
25843000,0.0324,0.013523,0.002678,0.000431,0.004584
25844000,0.0324,0.013523,0.002678,0.000431,0.033143
25845000,0.0324,0.013523,0.002678,0.000431,0.006347
25846000,0.0324,0.013523,0.002678,0.000431,0.053593
25847000,0.0324,0.013523,0.002678,0.000431,0.028207
25848000,0.0324,0.013523,0.002678,0.000431,0.007522
25849000,0.0324,0.013523,0.002678,0.000431,0.004701
25850000,0.0324,0.013523,0.002678,0.000431,0.031027
25851000,0.0324,0.013523,0.002678,0.000431,0.015984
25852000,0.0324,0.013523,0.002678,0.000431,0.019745
25853000,0.0324,0.013523,0.002678,0.000431,0.042310
25854000,0.0324,0.013523,0.002678,0.000431,0.057354
25855000,0.0324,0.013523,0.002678,0.000431,0.004701
25856000,0.0324,0.013523,0.002678,0.000431,0.004701
25857000,0.0324,0.013523,0.002678,0.000431,0.040430
25858000,0.0324,0.013523,0.002678,0.000431,0.006582
25859000,0.0324,0.013523,0.002678,0.000431,0.004701
25860000,0.0324,0.013523,0.002678,0.000431,0.008227
25861000,0.0324,0.013523,0.002678,0.000431,0.046071
25862000,0.0324,0.013523,0.002678,0.000431,0.004701
25863000,0.0324,0.013523,0.002678,0.000431,0.027267
25864000,0.0324,0.013523,0.002678,0.000431,0.027267
25865000,0.0324,0.013523,0.002678,0.000431,0.004701
25866000,0.0324,0.013523,0.002678,0.000431,0.004701
25867000,0.0324,0.013523,0.002678,0.000431,0.027267
25868000,0.0324,0.013523,0.002678,0.000431,0.004584
25869000,0.0324,0.013523,0.002678,0.000431,0.004584
25870000,0.0324,0.013523,0.002678,0.000431,0.049832
25871000,0.0324,0.013523,0.002678,0.000431,0.004701
25872000,0.0324,0.013523,0.002678,0.000431,0.027267
25873000,0.0324,0.013523,0.002678,0.000431,0.004584
25874000,0.0324,0.013523,0.002678,0.000431,0.004584
25875000,0.0324,0.013523,0.002678,0.000431,0.004701
25876000,0.0324,0.013523,0.002678,0.000431,0.004701
25877000,0.0324,0.013523,0.002678,0.000431,0.004701
25878000,0.0324,0.013523,0.002678,0.000431,0.007052
25879000,0.0324,0.013523,0.002678,0.000431,0.009872
25880000,0.0324,0.013523,0.002678,0.000431,0.004701
25881000,0.0324,0.013523,0.002678,0.000431,0.004701
25882000,0.0324,0.013523,0.002678,0.000431,0.012223
25883000,0.0324,0.013523,0.002678,0.000431,0.027031
25884000,0.0324,0.013523,0.002678,0.000431,0.004701
25885000,0.0324,0.013523,0.002678,0.000431,0.004701
25886000,0.0324,0.013523,0.002678,0.000431,0.019745
25887000,0.0324,0.013523,0.002678,0.000431,0.004701
25888000,0.0324,0.013523,0.002678,0.000431,0.004701
25889000,0.0324,0.013523,0.002678,0.000431,0.004701
25890000,0.0324,0.013523,0.002678,0.000431,0.012223
25891000,0.0324,0.013523,0.002678,0.000431,0.008462
25892000,0.0324,0.013523,0.002678,0.000431,0.038549
25893000,0.0324,0.013523,0.002678,0.000431,0.004701
25894000,0.0324,0.013523,0.002678,0.000431,0.004701
25895000,0.0324,0.013523,0.002678,0.000431,0.011165
25896000,0.0324,0.013523,0.002678,0.000431,0.005759
25897000,0.0324,0.013523,0.002678,0.000431,0.004701
25898000,0.0324,0.013523,0.002678,0.000431,0.004701
25899000,0.0324,0.013523,0.002678,0.000431,0.004701
25900000,0.0324,0.013523,0.002678,0.000431,0.004466
25901000,0.0324,0.013523,0.002678,0.000431,0.004701
25902000,0.0324,0.013523,0.002678,0.000431,0.019745
25903000,0.0324,0.013523,0.002678,0.000431,0.042310
25904000,0.0324,0.013523,0.002678,0.000431,0.015161
25905000,0.0324,0.013523,0.002678,0.000431,0.076981
25906000,0.0324,0.013523,0.002678,0.000431,0.012223
25907000,0.0324,0.013523,0.002678,0.000431,0.004701
25908000,0.0324,0.013523,0.002678,0.000431,0.012105
25909000,0.0324,0.013523,0.002678,0.000431,0.029735
25910000,0.0324,0.013523,0.002678,0.000431,0.017159
25911000,0.0324,0.013523,0.002678,0.000431,0.027267
25912000,0.0324,0.013523,0.002678,0.000431,0.012223
25913000,0.0324,0.013523,0.002678,0.000431,0.004701
25914000,0.0324,0.013523,0.002678,0.000431,0.004466
25915000,0.0324,0.013523,0.002678,0.000431,0.042310
25916000,0.0324,0.013523,0.002678,0.000431,0.034788
25917000,0.0324,0.013523,0.002678,0.000431,0.004701
25918000,0.0324,0.013523,0.002678,0.000431,0.012223
25919000,0.0324,0.013523,0.002678,0.000431,0.019745
25920000,0.0324,0.013523,0.002678,0.000431,0.004701
25921000,0.0324,0.013523,0.002678,0.000431,0.012223
25922000,0.0324,0.013523,0.002678,0.000431,0.015984
25923000,0.0324,0.013523,0.002678,0.000431,0.015749
25924000,0.0324,0.013523,0.002678,0.000431,0.012223
25925000,0.0324,0.013523,0.002678,0.000431,0.004701
25926000,0.0324,0.013523,0.002678,0.000431,0.004701
25927000,0.0324,0.013523,0.002678,0.000431,0.004701
25928000,0.0324,0.013523,0.002678,0.000431,0.012223
25929000,0.0324,0.013523,0.002678,0.000431,0.079919
25930000,0.0324,0.013523,0.002678,0.000431,0.012223
25931000,0.0324,0.013523,0.002678,0.000431,0.022213
25932000,0.0324,0.013523,0.002678,0.000431,0.047364
25933000,0.0324,0.013523,0.002678,0.000431,0.004701
25934000,0.0324,0.013523,0.002678,0.000431,0.027267
25935000,0.0324,0.013523,0.002678,0.000431,0.004701
25936000,0.0324,0.013523,0.002678,0.000431,0.034788
25937000,0.0324,0.013523,0.002678,0.000431,0.004701
25938000,0.0324,0.013523,0.002678,0.000431,0.042310
25939000,0.0324,0.013523,0.002678,0.000431,0.004701
25940000,0.0324,0.013523,0.002678,0.000431,0.004466
25941000,0.0324,0.013523,0.002678,0.000431,0.034788
25942000,0.0324,0.013523,0.002678,0.000431,0.007287
25943000,0.0324,0.013523,0.002678,0.000431,0.017159
25944000,0.0324,0.013523,0.002678,0.000431,0.004701
25945000,0.0324,0.013523,0.002678,0.000431,0.012223
25946000,0.0324,0.013523,0.002678,0.000431,0.004701
25947000,0.0324,0.013523,0.002678,0.000431,0.004701
25948000,0.0324,0.013523,0.002678,0.000431,0.004701
25949000,0.0324,0.013523,0.002678,0.000431,0.019510
25950000,0.0324,0.013523,0.002678,0.000431,0.027267
25951000,0.0324,0.013523,0.002678,0.000431,0.004701
25952000,0.0324,0.013523,0.002678,0.000431,0.004701
25953000,0.0324,0.013523,0.002678,0.000431,0.004701
25954000,0.0324,0.013523,0.002678,0.000431,0.034553
25955000,0.0324,0.013523,0.002678,0.000431,0.004701
25956000,0.0324,0.013523,0.002678,0.000431,0.012223
25957000,0.0324,0.013523,0.002678,0.000431,0.004701
25958000,0.0324,0.013523,0.002678,0.000431,0.004701
25959000,0.0324,0.013523,0.002678,0.000431,0.004701
25960000,0.0324,0.013523,0.002678,0.000431,0.050185
25961000,0.0324,0.013523,0.002678,0.000431,0.079332
25962000,0.0324,0.013523,0.002678,0.000431,0.012105
25963000,0.0324,0.013523,0.002678,0.000431,0.026914
25964000,0.0324,0.013523,0.002678,0.000431,0.109419
25965000,0.0324,0.013523,0.002678,0.000431,0.035141
25966000,0.0324,0.013523,0.002678,0.000431,0.004701
25967000,0.0324,0.013523,0.002678,0.000431,0.027267
25968000,0.0324,0.013523,0.002678,0.000431,0.004701
25969000,0.0324,0.013523,0.002678,0.000431,0.004701
25970000,0.0324,0.013523,0.002678,0.000431,0.004701
25971000,0.0324,0.013523,0.002678,0.000431,0.034788
25972000,0.0324,0.013523,0.002678,0.000431,0.004701
25973000,0.0324,0.013523,0.002678,0.000431,0.004701
25974000,0.0324,0.013523,0.002678,0.000431,0.053240
25975000,0.0324,0.013523,0.002678,0.000431,0.043603
25976000,0.0324,0.013523,0.002678,0.000431,0.037609
25977000,0.0324,0.013523,0.002678,0.000431,0.015984
25978000,0.0324,0.013523,0.002678,0.000431,0.031027
25979000,0.0324,0.013523,0.002678,0.000431,0.004701
25980000,0.0324,0.013523,0.002678,0.000431,0.004701
25981000,0.0324,0.013523,0.002678,0.000431,0.004701
25982000,0.0324,0.013523,0.002678,0.000431,0.049832
25983000,0.0324,0.013523,0.002678,0.000431,0.004701
25984000,0.0324,0.013523,0.002678,0.000431,0.004701
25985000,0.0324,0.013523,0.002678,0.000431,0.004701
25986000,0.0324,0.013523,0.002678,0.000431,0.004701
25987000,0.0324,0.013523,0.002678,0.000431,0.046071
25988000,0.0324,0.013523,0.002678,0.000431,0.043838
25989000,0.0324,0.013523,0.002678,0.000431,0.044543
25990000,0.0324,0.013523,0.002678,0.000431,0.020332
25991000,0.0324,0.013523,0.002678,0.000431,0.011635
25992000,0.0324,0.013523,0.002678,0.000431,0.004701
25993000,0.0324,0.013523,0.002678,0.000431,0.009520
25994000,0.0324,0.013523,0.002678,0.000431,0.044778
25995000,0.0324,0.013523,0.002678,0.000431,0.034788
25996000,0.0324,0.013523,0.002678,0.000431,0.004701
25997000,0.0324,0.013523,0.002678,0.000431,0.004701
25998000,0.0324,0.013523,0.002678,0.000431,0.004466
25999000,0.0324,0.013523,0.002678,0.000431,0.004701
