Cycle,Area(mm^2),PeakDynamic(W),SubthresholdLeakage(W),GateLeakage(W),RunTimeDynamic(W)
18000000,0.0324,0.013523,0.002678,0.000431,0.132924
18001000,0.0324,0.013523,0.002678,0.000431,0.055826
18002000,0.0324,0.013523,0.002678,0.000431,0.112122
18003000,0.0324,0.013523,0.002678,0.000431,0.087911
18004000,0.0324,0.013523,0.002678,0.000431,0.186870
18005000,0.0324,0.013523,0.002678,0.000431,0.056414
18006000,0.0324,0.013523,0.002678,0.000431,0.184989
18007000,0.0324,0.013523,0.002678,0.000431,0.396540
18008000,0.0324,0.013523,0.002678,0.000431,0.163129
18009000,0.0324,0.013523,0.002678,0.000431,0.088029
18010000,0.0324,0.013523,0.002678,0.000431,0.110829
18011000,0.0324,0.013523,0.002678,0.000431,0.220600
18012000,0.0324,0.013523,0.002678,0.000431,0.104483
18013000,0.0324,0.013523,0.002678,0.000431,0.149261
18014000,0.0324,0.013523,0.002678,0.000431,0.162659
18015000,0.0324,0.013523,0.002678,0.000431,0.049127
18016000,0.0324,0.013523,0.002678,0.000431,0.170886
18017000,0.0324,0.013523,0.002678,0.000431,0.083915
18018000,0.0324,0.013523,0.002678,0.000431,0.136803
18019000,0.0324,0.013523,0.002678,0.000431,0.082505
18020000,0.0324,0.013523,0.002678,0.000431,0.167360
18021000,0.0324,0.013523,0.002678,0.000431,0.155372
18022000,0.0324,0.013523,0.002678,0.000431,0.046541
18023000,0.0324,0.013523,0.002678,0.000431,0.046541
18024000,0.0324,0.013523,0.002678,0.000431,0.088499
18025000,0.0324,0.013523,0.002678,0.000431,0.109536
18026000,0.0324,0.013523,0.002678,0.000431,0.096726
18027000,0.0324,0.013523,0.002678,0.000431,0.176527
18028000,0.0324,0.013523,0.002678,0.000431,0.042193
18029000,0.0324,0.013523,0.002678,0.000431,0.155137
18030000,0.0324,0.013523,0.002678,0.000431,0.110594
18031000,0.0324,0.013523,0.002678,0.000431,0.103190
18032000,0.0324,0.013523,0.002678,0.000431,0.088616
18033000,0.0324,0.013523,0.002678,0.000431,0.222598
18034000,0.0324,0.013523,0.002678,0.000431,0.133512
18035000,0.0324,0.013523,0.002678,0.000431,0.048657
18036000,0.0324,0.013523,0.002678,0.000431,0.073455
18037000,0.0324,0.013523,0.002678,0.000431,0.154902
18038000,0.0324,0.013523,0.002678,0.000431,0.081447
18039000,0.0324,0.013523,0.002678,0.000431,0.201678
18040000,0.0324,0.013523,0.002678,0.000431,0.224714
18041000,0.0324,0.013523,0.002678,0.000431,0.047834
18042000,0.0324,0.013523,0.002678,0.000431,0.034906
18043000,0.0324,0.013523,0.002678,0.000431,0.057706
18044000,0.0324,0.013523,0.002678,0.000431,0.174294
18045000,0.0324,0.013523,0.002678,0.000431,0.102720
18046000,0.0324,0.013523,0.002678,0.000431,0.163129
18047000,0.0324,0.013523,0.002678,0.000431,0.091202
18048000,0.0324,0.013523,0.002678,0.000431,0.080154
18049000,0.0324,0.013523,0.002678,0.000431,0.080389
18050000,0.0324,0.013523,0.002678,0.000431,0.138096
18051000,0.0324,0.013523,0.002678,0.000431,0.105423
18052000,0.0324,0.013523,0.002678,0.000431,0.166655
18053000,0.0324,0.013523,0.002678,0.000431,0.098724
18054000,0.0324,0.013523,0.002678,0.000431,0.061585
18055000,0.0324,0.013523,0.002678,0.000431,0.069342
18056000,0.0324,0.013523,0.002678,0.000431,0.037021
18057000,0.0324,0.013523,0.002678,0.000431,0.142327
18058000,0.0324,0.013523,0.002678,0.000431,0.107538
18059000,0.0324,0.013523,0.002678,0.000431,0.305221
18060000,0.0324,0.013523,0.002678,0.000431,0.109066
18061000,0.0324,0.013523,0.002678,0.000431,0.156783
18062000,0.0324,0.013523,0.002678,0.000431,0.064170
18063000,0.0324,0.013523,0.002678,0.000431,0.095433
18064000,0.0324,0.013523,0.002678,0.000431,0.050420
18065000,0.0324,0.013523,0.002678,0.000431,0.190983
18066000,0.0324,0.013523,0.002678,0.000431,0.104835
18067000,0.0324,0.013523,0.002678,0.000431,0.046189
18068000,0.0324,0.013523,0.002678,0.000431,0.106363
18069000,0.0324,0.013523,0.002678,0.000431,0.162894
18070000,0.0324,0.013523,0.002678,0.000431,0.099546
18071000,0.0324,0.013523,0.002678,0.000431,0.107068
18072000,0.0324,0.013523,0.002678,0.000431,0.211551
18073000,0.0324,0.013523,0.002678,0.000431,0.069107
18074000,0.0324,0.013523,0.002678,0.000431,0.050302
18075000,0.0324,0.013523,0.002678,0.000431,0.053593
18076000,0.0324,0.013523,0.002678,0.000431,0.091554
18077000,0.0324,0.013523,0.002678,0.000431,0.148203
18078000,0.0324,0.013523,0.002678,0.000431,0.198740
18079000,0.0324,0.013523,0.002678,0.000431,0.089909
18080000,0.0324,0.013523,0.002678,0.000431,0.082270
18081000,0.0324,0.013523,0.002678,0.000431,0.078156
18082000,0.0324,0.013523,0.002678,0.000431,0.169123
18083000,0.0324,0.013523,0.002678,0.000431,0.100016
18084000,0.0324,0.013523,0.002678,0.000431,0.090497
18085000,0.0324,0.013523,0.002678,0.000431,0.203559
18086000,0.0324,0.013523,0.002678,0.000431,0.055473
18087000,0.0324,0.013523,0.002678,0.000431,0.161249
18088000,0.0324,0.013523,0.002678,0.000431,0.119761
18089000,0.0324,0.013523,0.002678,0.000431,0.103190
18090000,0.0324,0.013523,0.002678,0.000431,0.103190
18091000,0.0324,0.013523,0.002678,0.000431,0.287709
18092000,0.0324,0.013523,0.002678,0.000431,0.170886
18093000,0.0324,0.013523,0.002678,0.000431,0.103895
18094000,0.0324,0.013523,0.002678,0.000431,0.156548
18095000,0.0324,0.013523,0.002678,0.000431,0.115883
18096000,0.0324,0.013523,0.002678,0.000431,0.087558
18097000,0.0324,0.013523,0.002678,0.000431,0.088851
18098000,0.0324,0.013523,0.002678,0.000431,0.209200
18099000,0.0324,0.013523,0.002678,0.000431,0.095550
18100000,0.0324,0.013523,0.002678,0.000431,0.057706
18101000,0.0324,0.013523,0.002678,0.000431,0.134452
18102000,0.0324,0.013523,0.002678,0.000431,0.146323
18103000,0.0324,0.013523,0.002678,0.000431,0.194627
18104000,0.0324,0.013523,0.002678,0.000431,0.217662
18105000,0.0324,0.013523,0.002678,0.000431,0.099899
18106000,0.0324,0.013523,0.002678,0.000431,0.050302
18107000,0.0324,0.013523,0.002678,0.000431,0.155020
18108000,0.0324,0.013523,0.002678,0.000431,0.103307
18109000,0.0324,0.013523,0.002678,0.000431,0.098841
18110000,0.0324,0.013523,0.002678,0.000431,0.096256
18111000,0.0324,0.013523,0.002678,0.000431,0.230708
18112000,0.0324,0.013523,0.002678,0.000431,0.058999
18113000,0.0324,0.013523,0.002678,0.000431,0.135510
18114000,0.0324,0.013523,0.002678,0.000431,0.050067
18115000,0.0324,0.013523,0.002678,0.000431,0.144912
18116000,0.0324,0.013523,0.002678,0.000431,0.139741
18117000,0.0324,0.013523,0.002678,0.000431,0.241285
18118000,0.0324,0.013523,0.002678,0.000431,0.066403
18119000,0.0324,0.013523,0.002678,0.000431,0.035258
18120000,0.0324,0.013523,0.002678,0.000431,0.094963
18121000,0.0324,0.013523,0.002678,0.000431,0.102720
18122000,0.0324,0.013523,0.002678,0.000431,0.042663
18123000,0.0324,0.013523,0.002678,0.000431,0.085443
18124000,0.0324,0.013523,0.002678,0.000431,0.192041
18125000,0.0324,0.013523,0.002678,0.000431,0.060409
18126000,0.0324,0.013523,0.002678,0.000431,0.068754
18127000,0.0324,0.013523,0.002678,0.000431,0.068872
18128000,0.0324,0.013523,0.002678,0.000431,0.080389
18129000,0.0324,0.013523,0.002678,0.000431,0.087794
18130000,0.0324,0.013523,0.002678,0.000431,0.294408
18131000,0.0324,0.013523,0.002678,0.000431,0.099781
18132000,0.0324,0.013523,0.002678,0.000431,0.042663
18133000,0.0324,0.013523,0.002678,0.000431,0.090967
18134000,0.0324,0.013523,0.002678,0.000431,0.230473
18135000,0.0324,0.013523,0.002678,0.000431,0.099311
18136000,0.0324,0.013523,0.002678,0.000431,0.199093
18137000,0.0324,0.013523,0.002678,0.000431,0.179348
18138000,0.0324,0.013523,0.002678,0.000431,0.042663
18139000,0.0324,0.013523,0.002678,0.000431,0.117646
18140000,0.0324,0.013523,0.002678,0.000431,0.095315
18141000,0.0324,0.013523,0.002678,0.000431,0.052065
18142000,0.0324,0.013523,0.002678,0.000431,0.056178
18143000,0.0324,0.013523,0.002678,0.000431,0.155255
18144000,0.0324,0.013523,0.002678,0.000431,0.102955
18145000,0.0324,0.013523,0.002678,0.000431,0.042545
18146000,0.0324,0.013523,0.002678,0.000431,0.086148
18147000,0.0324,0.013523,0.002678,0.000431,0.090614
18148000,0.0324,0.013523,0.002678,0.000431,0.079332
18149000,0.0324,0.013523,0.002678,0.000431,0.104600
18150000,0.0324,0.013523,0.002678,0.000431,0.190983
18151000,0.0324,0.013523,0.002678,0.000431,0.125520
18152000,0.0324,0.013523,0.002678,0.000431,0.166890
18153000,0.0324,0.013523,0.002678,0.000431,0.121642
18154000,0.0324,0.013523,0.002678,0.000431,0.130691
18155000,0.0324,0.013523,0.002678,0.000431,0.162894
18156000,0.0324,0.013523,0.002678,0.000431,0.235056
18157000,0.0324,0.013523,0.002678,0.000431,0.177703
18158000,0.0324,0.013523,0.002678,0.000431,0.124462
18159000,0.0324,0.013523,0.002678,0.000431,0.064405
18160000,0.0324,0.013523,0.002678,0.000431,0.169241
18161000,0.0324,0.013523,0.002678,0.000431,0.116470
18162000,0.0324,0.013523,0.002678,0.000431,0.211668
18163000,0.0324,0.013523,0.002678,0.000431,0.154667
18164000,0.0324,0.013523,0.002678,0.000431,0.034553
18165000,0.0324,0.013523,0.002678,0.000431,0.072867
18166000,0.0324,0.013523,0.002678,0.000431,0.113767
18167000,0.0324,0.013523,0.002678,0.000431,0.121524
18168000,0.0324,0.013523,0.002678,0.000431,0.089439
18169000,0.0324,0.013523,0.002678,0.000431,0.303810
18170000,0.0324,0.013523,0.002678,0.000431,0.058529
18171000,0.0324,0.013523,0.002678,0.000431,0.055121
18172000,0.0324,0.013523,0.002678,0.000431,0.053123
18173000,0.0324,0.013523,0.002678,0.000431,0.243048
18174000,0.0324,0.013523,0.002678,0.000431,0.075923
18175000,0.0324,0.013523,0.002678,0.000431,0.132102
18176000,0.0324,0.013523,0.002678,0.000431,0.298404
18177000,0.0324,0.013523,0.002678,0.000431,0.087911
18178000,0.0324,0.013523,0.002678,0.000431,0.065816
18179000,0.0324,0.013523,0.002678,0.000431,0.079332
18180000,0.0324,0.013523,0.002678,0.000431,0.076393
18181000,0.0324,0.013523,0.002678,0.000431,0.054180
18182000,0.0324,0.013523,0.002678,0.000431,0.272548
18183000,0.0324,0.013523,0.002678,0.000431,0.068519
18184000,0.0324,0.013523,0.002678,0.000431,0.042780
18185000,0.0324,0.013523,0.002678,0.000431,0.081565
18186000,0.0324,0.013523,0.002678,0.000431,0.103542
18187000,0.0324,0.013523,0.002678,0.000431,0.056296
18188000,0.0324,0.013523,0.002678,0.000431,0.138096
18189000,0.0324,0.013523,0.002678,0.000431,0.210023
18190000,0.0324,0.013523,0.002678,0.000431,0.065111
18191000,0.0324,0.013523,0.002678,0.000431,0.057824
18192000,0.0324,0.013523,0.002678,0.000431,0.035258
18193000,0.0324,0.013523,0.002678,0.000431,0.072867
18194000,0.0324,0.013523,0.002678,0.000431,0.181699
18195000,0.0324,0.013523,0.002678,0.000431,0.289824
18196000,0.0324,0.013523,0.002678,0.000431,0.133630
18197000,0.0324,0.013523,0.002678,0.000431,0.068519
18198000,0.0324,0.013523,0.002678,0.000431,0.242108
18199000,0.0324,0.013523,0.002678,0.000431,0.077804
18200000,0.0324,0.013523,0.002678,0.000431,0.044896
18201000,0.0324,0.013523,0.002678,0.000431,0.142209
18202000,0.0324,0.013523,0.002678,0.000431,0.157253
18203000,0.0324,0.013523,0.002678,0.000431,0.050067
18204000,0.0324,0.013523,0.002678,0.000431,0.081682
18205000,0.0324,0.013523,0.002678,0.000431,0.108714
18206000,0.0324,0.013523,0.002678,0.000431,0.178290
18207000,0.0324,0.013523,0.002678,0.000431,0.102602
18208000,0.0324,0.013523,0.002678,0.000431,0.325906
18209000,0.0324,0.013523,0.002678,0.000431,0.093787
18210000,0.0324,0.013523,0.002678,0.000431,0.090027
18211000,0.0324,0.013523,0.002678,0.000431,0.091202
18212000,0.0324,0.013523,0.002678,0.000431,0.090849
18213000,0.0324,0.013523,0.002678,0.000431,0.098606
18214000,0.0324,0.013523,0.002678,0.000431,0.110006
18215000,0.0324,0.013523,0.002678,0.000431,0.147968
18216000,0.0324,0.013523,0.002678,0.000431,0.102602
18217000,0.0324,0.013523,0.002678,0.000431,0.132924
18218000,0.0324,0.013523,0.002678,0.000431,0.102720
18219000,0.0324,0.013523,0.002678,0.000431,0.062525
18220000,0.0324,0.013523,0.002678,0.000431,0.225772
18221000,0.0324,0.013523,0.002678,0.000431,0.280070
18222000,0.0324,0.013523,0.002678,0.000431,0.121172
18223000,0.0324,0.013523,0.002678,0.000431,0.042663
18224000,0.0324,0.013523,0.002678,0.000431,0.140564
18225000,0.0324,0.013523,0.002678,0.000431,0.209435
18226000,0.0324,0.013523,0.002678,0.000431,0.112122
18227000,0.0324,0.013523,0.002678,0.000431,0.267377
18228000,0.0324,0.013523,0.002678,0.000431,0.241638
18229000,0.0324,0.013523,0.002678,0.000431,0.088734
18230000,0.0324,0.013523,0.002678,0.000431,0.064523
18231000,0.0324,0.013523,0.002678,0.000431,0.072162
18232000,0.0324,0.013523,0.002678,0.000431,0.089439
18233000,0.0324,0.013523,0.002678,0.000431,0.129281
18234000,0.0324,0.013523,0.002678,0.000431,0.083915
18235000,0.0324,0.013523,0.002678,0.000431,0.117881
18236000,0.0324,0.013523,0.002678,0.000431,0.054063
18237000,0.0324,0.013523,0.002678,0.000431,0.061232
18238000,0.0324,0.013523,0.002678,0.000431,0.073455
18239000,0.0324,0.013523,0.002678,0.000431,0.205322
18240000,0.0324,0.013523,0.002678,0.000431,0.102132
18241000,0.0324,0.013523,0.002678,0.000431,0.184049
18242000,0.0324,0.013523,0.002678,0.000431,0.038667
18243000,0.0324,0.013523,0.002678,0.000431,0.121642
18244000,0.0324,0.013523,0.002678,0.000431,0.105070
18245000,0.0324,0.013523,0.002678,0.000431,0.077216
18246000,0.0324,0.013523,0.002678,0.000431,0.076511
18247000,0.0324,0.013523,0.002678,0.000431,0.106481
18248000,0.0324,0.013523,0.002678,0.000431,0.151494
18249000,0.0324,0.013523,0.002678,0.000431,0.058764
18250000,0.0324,0.013523,0.002678,0.000431,0.146910
18251000,0.0324,0.013523,0.002678,0.000431,0.122934
18252000,0.0324,0.013523,0.002678,0.000431,0.183814
18253000,0.0324,0.013523,0.002678,0.000431,0.109654
18254000,0.0324,0.013523,0.002678,0.000431,0.220835
18255000,0.0324,0.013523,0.002678,0.000431,0.035023
18256000,0.0324,0.013523,0.002678,0.000431,0.140799
18257000,0.0324,0.013523,0.002678,0.000431,0.075923
18258000,0.0324,0.013523,0.002678,0.000431,0.166655
18259000,0.0324,0.013523,0.002678,0.000431,0.088734
18260000,0.0324,0.013523,0.002678,0.000431,0.116941
18261000,0.0324,0.013523,0.002678,0.000431,0.099664
18262000,0.0324,0.013523,0.002678,0.000431,0.087441
18263000,0.0324,0.013523,0.002678,0.000431,0.256564
18264000,0.0324,0.013523,0.002678,0.000431,0.084855
18265000,0.0324,0.013523,0.002678,0.000431,0.143149
18266000,0.0324,0.013523,0.002678,0.000431,0.180171
18267000,0.0324,0.013523,0.002678,0.000431,0.191101
18268000,0.0324,0.013523,0.002678,0.000431,0.140446
18269000,0.0324,0.013523,0.002678,0.000431,0.125285
18270000,0.0324,0.013523,0.002678,0.000431,0.057471
18271000,0.0324,0.013523,0.002678,0.000431,0.144560
18272000,0.0324,0.013523,0.002678,0.000431,0.225302
18273000,0.0324,0.013523,0.002678,0.000431,0.156783
18274000,0.0324,0.013523,0.002678,0.000431,0.161484
18275000,0.0324,0.013523,0.002678,0.000431,0.092495
18276000,0.0324,0.013523,0.002678,0.000431,0.168653
18277000,0.0324,0.013523,0.002678,0.000431,0.112945
18278000,0.0324,0.013523,0.002678,0.000431,0.128693
18279000,0.0324,0.013523,0.002678,0.000431,0.305103
18280000,0.0324,0.013523,0.002678,0.000431,0.111887
18281000,0.0324,0.013523,0.002678,0.000431,0.115295
18282000,0.0324,0.013523,0.002678,0.000431,0.226242
18283000,0.0324,0.013523,0.002678,0.000431,0.057589
18284000,0.0324,0.013523,0.002678,0.000431,0.084268
18285000,0.0324,0.013523,0.002678,0.000431,0.116000
18286000,0.0324,0.013523,0.002678,0.000431,0.198388
18287000,0.0324,0.013523,0.002678,0.000431,0.059469
18288000,0.0324,0.013523,0.002678,0.000431,0.163247
18289000,0.0324,0.013523,0.002678,0.000431,0.156548
18290000,0.0324,0.013523,0.002678,0.000431,0.081800
18291000,0.0324,0.013523,0.002678,0.000431,0.233176
18292000,0.0324,0.013523,0.002678,0.000431,0.204969
18293000,0.0324,0.013523,0.002678,0.000431,0.135628
18294000,0.0324,0.013523,0.002678,0.000431,0.072750
18295000,0.0324,0.013523,0.002678,0.000431,0.129163
18296000,0.0324,0.013523,0.002678,0.000431,0.084150
18297000,0.0324,0.013523,0.002678,0.000431,0.123170
18298000,0.0324,0.013523,0.002678,0.000431,0.180171
18299000,0.0324,0.013523,0.002678,0.000431,0.196390
18300000,0.0324,0.013523,0.002678,0.000431,0.061585
18301000,0.0324,0.013523,0.002678,0.000431,0.057824
18302000,0.0324,0.013523,0.002678,0.000431,0.125873
18303000,0.0324,0.013523,0.002678,0.000431,0.102837
18304000,0.0324,0.013523,0.002678,0.000431,0.117293
18305000,0.0324,0.013523,0.002678,0.000431,0.192041
18306000,0.0324,0.013523,0.002678,0.000431,0.105658
18307000,0.0324,0.013523,0.002678,0.000431,0.059587
18308000,0.0324,0.013523,0.002678,0.000431,0.095080
18309000,0.0324,0.013523,0.002678,0.000431,0.155607
18310000,0.0324,0.013523,0.002678,0.000431,0.181816
18311000,0.0324,0.013523,0.002678,0.000431,0.253626
18312000,0.0324,0.013523,0.002678,0.000431,0.116823
18313000,0.0324,0.013523,0.002678,0.000431,0.035258
18314000,0.0324,0.013523,0.002678,0.000431,0.065346
18315000,0.0324,0.013523,0.002678,0.000431,0.077216
18316000,0.0324,0.013523,0.002678,0.000431,0.113297
18317000,0.0324,0.013523,0.002678,0.000431,0.148086
18318000,0.0324,0.013523,0.002678,0.000431,0.169711
18319000,0.0324,0.013523,0.002678,0.000431,0.061702
18320000,0.0324,0.013523,0.002678,0.000431,0.089086
18321000,0.0324,0.013523,0.002678,0.000431,0.112827
18322000,0.0324,0.013523,0.002678,0.000431,0.047951
18323000,0.0324,0.013523,0.002678,0.000431,0.148908
18324000,0.0324,0.013523,0.002678,0.000431,0.103307
18325000,0.0324,0.013523,0.002678,0.000431,0.140329
18326000,0.0324,0.013523,0.002678,0.000431,0.106128
18327000,0.0324,0.013523,0.002678,0.000431,0.101897
18328000,0.0324,0.013523,0.002678,0.000431,0.085561
18329000,0.0324,0.013523,0.002678,0.000431,0.102837
18330000,0.0324,0.013523,0.002678,0.000431,0.178525
18331000,0.0324,0.013523,0.002678,0.000431,0.155372
18332000,0.0324,0.013523,0.002678,0.000431,0.064170
18333000,0.0324,0.013523,0.002678,0.000431,0.058529
18334000,0.0324,0.013523,0.002678,0.000431,0.208260
18335000,0.0324,0.013523,0.002678,0.000431,0.086031
18336000,0.0324,0.013523,0.002678,0.000431,0.247044
18337000,0.0324,0.013523,0.002678,0.000431,0.129986
18338000,0.0324,0.013523,0.002678,0.000431,0.332252
18339000,0.0324,0.013523,0.002678,0.000431,0.094140
18340000,0.0324,0.013523,0.002678,0.000431,0.110947
18341000,0.0324,0.013523,0.002678,0.000431,0.050302
18342000,0.0324,0.013523,0.002678,0.000431,0.146440
18343000,0.0324,0.013523,0.002678,0.000431,0.223891
18344000,0.0324,0.013523,0.002678,0.000431,0.243753
18345000,0.0324,0.013523,0.002678,0.000431,0.171944
18346000,0.0324,0.013523,0.002678,0.000431,0.163834
18347000,0.0324,0.013523,0.002678,0.000431,0.080389
18348000,0.0324,0.013523,0.002678,0.000431,0.046424
18349000,0.0324,0.013523,0.002678,0.000431,0.143972
18350000,0.0324,0.013523,0.002678,0.000431,0.251745
18351000,0.0324,0.013523,0.002678,0.000431,0.241520
18352000,0.0324,0.013523,0.002678,0.000431,0.078626
18353000,0.0324,0.013523,0.002678,0.000431,0.129516
18354000,0.0324,0.013523,0.002678,0.000431,0.201561
18355000,0.0324,0.013523,0.002678,0.000431,0.224009
18356000,0.0324,0.013523,0.002678,0.000431,0.165245
18357000,0.0324,0.013523,0.002678,0.000431,0.123170
18358000,0.0324,0.013523,0.002678,0.000431,0.051712
18359000,0.0324,0.013523,0.002678,0.000431,0.098136
18360000,0.0324,0.013523,0.002678,0.000431,0.180053
18361000,0.0324,0.013523,0.002678,0.000431,0.185342
18362000,0.0324,0.013523,0.002678,0.000431,0.241755
18363000,0.0324,0.013523,0.002678,0.000431,0.275251
18364000,0.0324,0.013523,0.002678,0.000431,0.049949
18365000,0.0324,0.013523,0.002678,0.000431,0.125168
18366000,0.0324,0.013523,0.002678,0.000431,0.242226
18367000,0.0324,0.013523,0.002678,0.000431,0.070752
18368000,0.0324,0.013523,0.002678,0.000431,0.146088
18369000,0.0324,0.013523,0.002678,0.000431,0.178055
18370000,0.0324,0.013523,0.002678,0.000431,0.072750
18371000,0.0324,0.013523,0.002678,0.000431,0.035141
18372000,0.0324,0.013523,0.002678,0.000431,0.042545
18373000,0.0324,0.013523,0.002678,0.000431,0.134570
18374000,0.0324,0.013523,0.002678,0.000431,0.190513
18375000,0.0324,0.013523,0.002678,0.000431,0.194274
18376000,0.0324,0.013523,0.002678,0.000431,0.281833
18377000,0.0324,0.013523,0.002678,0.000431,0.227300
18378000,0.0324,0.013523,0.002678,0.000431,0.057824
18379000,0.0324,0.013523,0.002678,0.000431,0.129046
18380000,0.0324,0.013523,0.002678,0.000431,0.072632
18381000,0.0324,0.013523,0.002678,0.000431,0.103777
18382000,0.0324,0.013523,0.002678,0.000431,0.295348
18383000,0.0324,0.013523,0.002678,0.000431,0.188280
18384000,0.0324,0.013523,0.002678,0.000431,0.061115
18385000,0.0324,0.013523,0.002678,0.000431,0.046306
18386000,0.0324,0.013523,0.002678,0.000431,0.076158
18387000,0.0324,0.013523,0.002678,0.000431,0.105188
18388000,0.0324,0.013523,0.002678,0.000431,0.126460
18389000,0.0324,0.013523,0.002678,0.000431,0.291117
18390000,0.0324,0.013523,0.002678,0.000431,0.035258
18391000,0.0324,0.013523,0.002678,0.000431,0.065346
18392000,0.0324,0.013523,0.002678,0.000431,0.065228
18393000,0.0324,0.013523,0.002678,0.000431,0.125168
18394000,0.0324,0.013523,0.002678,0.000431,0.261383
18395000,0.0324,0.013523,0.002678,0.000431,0.171944
18396000,0.0324,0.013523,0.002678,0.000431,0.105070
18397000,0.0324,0.013523,0.002678,0.000431,0.074630
18398000,0.0324,0.013523,0.002678,0.000431,0.104600
18399000,0.0324,0.013523,0.002678,0.000431,0.050067
18400000,0.0324,0.013523,0.002678,0.000431,0.110241
18401000,0.0324,0.013523,0.002678,0.000431,0.194509
18402000,0.0324,0.013523,0.002678,0.000431,0.260442
18403000,0.0324,0.013523,0.002678,0.000431,0.095080
18404000,0.0324,0.013523,0.002678,0.000431,0.162541
18405000,0.0324,0.013523,0.002678,0.000431,0.125285
18406000,0.0324,0.013523,0.002678,0.000431,0.200150
18407000,0.0324,0.013523,0.002678,0.000431,0.098724
18408000,0.0324,0.013523,0.002678,0.000431,0.201678
18409000,0.0324,0.013523,0.002678,0.000431,0.315798
18410000,0.0324,0.013523,0.002678,0.000431,0.050185
18411000,0.0324,0.013523,0.002678,0.000431,0.152787
18412000,0.0324,0.013523,0.002678,0.000431,0.105658
18413000,0.0324,0.013523,0.002678,0.000431,0.108361
18414000,0.0324,0.013523,0.002678,0.000431,0.089086
18415000,0.0324,0.013523,0.002678,0.000431,0.163012
18416000,0.0324,0.013523,0.002678,0.000431,0.065346
18417000,0.0324,0.013523,0.002678,0.000431,0.042780
18418000,0.0324,0.013523,0.002678,0.000431,0.072867
18419000,0.0324,0.013523,0.002678,0.000431,0.152199
18420000,0.0324,0.013523,0.002678,0.000431,0.341772
18421000,0.0324,0.013523,0.002678,0.000431,0.167713
18422000,0.0324,0.013523,0.002678,0.000431,0.178055
18423000,0.0324,0.013523,0.002678,0.000431,0.061467
18424000,0.0324,0.013523,0.002678,0.000431,0.153962
18425000,0.0324,0.013523,0.002678,0.000431,0.055121
18426000,0.0324,0.013523,0.002678,0.000431,0.259032
18427000,0.0324,0.013523,0.002678,0.000431,0.119761
18428000,0.0324,0.013523,0.002678,0.000431,0.118233
18429000,0.0324,0.013523,0.002678,0.000431,0.042663
18430000,0.0324,0.013523,0.002678,0.000431,0.114355
18431000,0.0324,0.013523,0.002678,0.000431,0.166420
18432000,0.0324,0.013523,0.002678,0.000431,0.190983
18433000,0.0324,0.013523,0.002678,0.000431,0.175235
18434000,0.0324,0.013523,0.002678,0.000431,0.092730
18435000,0.0324,0.013523,0.002678,0.000431,0.076276
18436000,0.0324,0.013523,0.002678,0.000431,0.046541
18437000,0.0324,0.013523,0.002678,0.000431,0.050302
18438000,0.0324,0.013523,0.002678,0.000431,0.073808
18439000,0.0324,0.013523,0.002678,0.000431,0.161484
18440000,0.0324,0.013523,0.002678,0.000431,0.170651
18441000,0.0324,0.013523,0.002678,0.000431,0.182639
18442000,0.0324,0.013523,0.002678,0.000431,0.061467
18443000,0.0324,0.013523,0.002678,0.000431,0.075923
18444000,0.0324,0.013523,0.002678,0.000431,0.137390
18445000,0.0324,0.013523,0.002678,0.000431,0.091319
18446000,0.0324,0.013523,0.002678,0.000431,0.186635
18447000,0.0324,0.013523,0.002678,0.000431,0.294408
18448000,0.0324,0.013523,0.002678,0.000431,0.173472
18449000,0.0324,0.013523,0.002678,0.000431,0.073808
18450000,0.0324,0.013523,0.002678,0.000431,0.204146
18451000,0.0324,0.013523,0.002678,0.000431,0.227182
18452000,0.0324,0.013523,0.002678,0.000431,0.137978
18453000,0.0324,0.013523,0.002678,0.000431,0.159251
18454000,0.0324,0.013523,0.002678,0.000431,0.363045
18455000,0.0324,0.013523,0.002678,0.000431,0.166067
18456000,0.0324,0.013523,0.002678,0.000431,0.080037
18457000,0.0324,0.013523,0.002678,0.000431,0.121524
18458000,0.0324,0.013523,0.002678,0.000431,0.247749
18459000,0.0324,0.013523,0.002678,0.000431,0.138801
18460000,0.0324,0.013523,0.002678,0.000431,0.283125
18461000,0.0324,0.013523,0.002678,0.000431,0.137390
18462000,0.0324,0.013523,0.002678,0.000431,0.209083
18463000,0.0324,0.013523,0.002678,0.000431,0.100839
18464000,0.0324,0.013523,0.002678,0.000431,0.118116
18465000,0.0324,0.013523,0.002678,0.000431,0.278542
18466000,0.0324,0.013523,0.002678,0.000431,0.300637
18467000,0.0324,0.013523,0.002678,0.000431,0.283008
18468000,0.0324,0.013523,0.002678,0.000431,0.128458
18469000,0.0324,0.013523,0.002678,0.000431,0.111417
18470000,0.0324,0.013523,0.002678,0.000431,0.057589
18471000,0.0324,0.013523,0.002678,0.000431,0.243636
18472000,0.0324,0.013523,0.002678,0.000431,0.198505
18473000,0.0324,0.013523,0.002678,0.000431,0.098724
18474000,0.0324,0.013523,0.002678,0.000431,0.088029
18475000,0.0324,0.013523,0.002678,0.000431,0.073338
18476000,0.0324,0.013523,0.002678,0.000431,0.147733
18477000,0.0324,0.013523,0.002678,0.000431,0.124462
18478000,0.0324,0.013523,0.002678,0.000431,0.275604
18479000,0.0324,0.013523,0.002678,0.000431,0.231766
18480000,0.0324,0.013523,0.002678,0.000431,0.215547
18481000,0.0324,0.013523,0.002678,0.000431,0.057824
18482000,0.0324,0.013523,0.002678,0.000431,0.106128
18483000,0.0324,0.013523,0.002678,0.000431,0.091907
18484000,0.0324,0.013523,0.002678,0.000431,0.363867
18485000,0.0324,0.013523,0.002678,0.000431,0.249277
18486000,0.0324,0.013523,0.002678,0.000431,0.168770
18487000,0.0324,0.013523,0.002678,0.000431,0.193451
18488000,0.0324,0.013523,0.002678,0.000431,0.091907
18489000,0.0324,0.013523,0.002678,0.000431,0.068166
18490000,0.0324,0.013523,0.002678,0.000431,0.087794
18491000,0.0324,0.013523,0.002678,0.000431,0.135745
18492000,0.0324,0.013523,0.002678,0.000431,0.133865
18493000,0.0324,0.013523,0.002678,0.000431,0.129046
18494000,0.0324,0.013523,0.002678,0.000431,0.114355
18495000,0.0324,0.013523,0.002678,0.000431,0.166420
18496000,0.0324,0.013523,0.002678,0.000431,0.131984
18497000,0.0324,0.013523,0.002678,0.000431,0.313800
18498000,0.0324,0.013523,0.002678,0.000431,0.188045
18499000,0.0324,0.013523,0.002678,0.000431,0.304163
18500000,0.0324,0.013523,0.002678,0.000431,0.064405
18501000,0.0324,0.013523,0.002678,0.000431,0.137978
18502000,0.0324,0.013523,0.002678,0.000431,0.239757
18503000,0.0324,0.013523,0.002678,0.000431,0.133042
18504000,0.0324,0.013523,0.002678,0.000431,0.149613
18505000,0.0324,0.013523,0.002678,0.000431,0.167243
18506000,0.0324,0.013523,0.002678,0.000431,0.181346
18507000,0.0324,0.013523,0.002678,0.000431,0.082035
18508000,0.0324,0.013523,0.002678,0.000431,0.156548
18509000,0.0324,0.013523,0.002678,0.000431,0.091672
18510000,0.0324,0.013523,0.002678,0.000431,0.283478
18511000,0.0324,0.013523,0.002678,0.000431,0.303575
18512000,0.0324,0.013523,0.002678,0.000431,0.222011
18513000,0.0324,0.013523,0.002678,0.000431,0.075923
18514000,0.0324,0.013523,0.002678,0.000431,0.050067
18515000,0.0324,0.013523,0.002678,0.000431,0.185459
18516000,0.0324,0.013523,0.002678,0.000431,0.125050
18517000,0.0324,0.013523,0.002678,0.000431,0.045366
18518000,0.0324,0.013523,0.002678,0.000431,0.237877
18519000,0.0324,0.013523,0.002678,0.000431,0.115178
18520000,0.0324,0.013523,0.002678,0.000431,0.065111
18521000,0.0324,0.013523,0.002678,0.000431,0.149496
18522000,0.0324,0.013523,0.002678,0.000431,0.103895
18523000,0.0324,0.013523,0.002678,0.000431,0.221541
18524000,0.0324,0.013523,0.002678,0.000431,0.292528
18525000,0.0324,0.013523,0.002678,0.000431,0.131161
18526000,0.0324,0.013523,0.002678,0.000431,0.042663
18527000,0.0324,0.013523,0.002678,0.000431,0.102602
18528000,0.0324,0.013523,0.002678,0.000431,0.177703
18529000,0.0324,0.013523,0.002678,0.000431,0.105658
18530000,0.0324,0.013523,0.002678,0.000431,0.237407
18531000,0.0324,0.013523,0.002678,0.000431,0.404885
18532000,0.0324,0.013523,0.002678,0.000431,0.129281
18533000,0.0324,0.013523,0.002678,0.000431,0.110241
18534000,0.0324,0.013523,0.002678,0.000431,0.065346
18535000,0.0324,0.013523,0.002678,0.000431,0.211786
18536000,0.0324,0.013523,0.002678,0.000431,0.509720
18537000,0.0324,0.013523,0.002678,0.000431,0.158898
18538000,0.0324,0.013523,0.002678,0.000431,0.238230
18539000,0.0324,0.013523,0.002678,0.000431,0.139623
18540000,0.0324,0.013523,0.002678,0.000431,0.167243
18541000,0.0324,0.013523,0.002678,0.000431,0.101662
18542000,0.0324,0.013523,0.002678,0.000431,0.147850
18543000,0.0324,0.013523,0.002678,0.000431,0.136215
18544000,0.0324,0.013523,0.002678,0.000431,0.309804
18545000,0.0324,0.013523,0.002678,0.000431,0.072632
18546000,0.0324,0.013523,0.002678,0.000431,0.224596
18547000,0.0324,0.013523,0.002678,0.000431,0.147145
18548000,0.0324,0.013523,0.002678,0.000431,0.142914
18549000,0.0324,0.013523,0.002678,0.000431,0.088851
18550000,0.0324,0.013523,0.002678,0.000431,0.187457
18551000,0.0324,0.013523,0.002678,0.000431,0.243871
18552000,0.0324,0.013523,0.002678,0.000431,0.095080
18553000,0.0324,0.013523,0.002678,0.000431,0.193804
18554000,0.0324,0.013523,0.002678,0.000431,0.138918
18555000,0.0324,0.013523,0.002678,0.000431,0.258915
18556000,0.0324,0.013523,0.002678,0.000431,0.142797
18557000,0.0324,0.013523,0.002678,0.000431,0.176997
18558000,0.0324,0.013523,0.002678,0.000431,0.128341
18559000,0.0324,0.013523,0.002678,0.000431,0.060527
18560000,0.0324,0.013523,0.002678,0.000431,0.088146
18561000,0.0324,0.013523,0.002678,0.000431,0.182756
18562000,0.0324,0.013523,0.002678,0.000431,0.203324
18563000,0.0324,0.013523,0.002678,0.000431,0.139036
18564000,0.0324,0.013523,0.002678,0.000431,0.321675
18565000,0.0324,0.013523,0.002678,0.000431,0.117881
18566000,0.0324,0.013523,0.002678,0.000431,0.061115
18567000,0.0324,0.013523,0.002678,0.000431,0.159368
18568000,0.0324,0.013523,0.002678,0.000431,0.308394
18569000,0.0324,0.013523,0.002678,0.000431,0.153022
18570000,0.0324,0.013523,0.002678,0.000431,0.170533
18571000,0.0324,0.013523,0.002678,0.000431,0.071927
18572000,0.0324,0.013523,0.002678,0.000431,0.145382
18573000,0.0324,0.013523,0.002678,0.000431,0.086383
18574000,0.0324,0.013523,0.002678,0.000431,0.069577
18575000,0.0324,0.013523,0.002678,0.000431,0.189455
18576000,0.0324,0.013523,0.002678,0.000431,0.189220
18577000,0.0324,0.013523,0.002678,0.000431,0.162777
18578000,0.0324,0.013523,0.002678,0.000431,0.053593
18579000,0.0324,0.013523,0.002678,0.000431,0.238347
18580000,0.0324,0.013523,0.002678,0.000431,0.183461
18581000,0.0324,0.013523,0.002678,0.000431,0.194627
18582000,0.0324,0.013523,0.002678,0.000431,0.108126
18583000,0.0324,0.013523,0.002678,0.000431,0.177820
18584000,0.0324,0.013523,0.002678,0.000431,0.173119
18585000,0.0324,0.013523,0.002678,0.000431,0.065346
18586000,0.0324,0.013523,0.002678,0.000431,0.058882
18587000,0.0324,0.013523,0.002678,0.000431,0.175822
18588000,0.0324,0.013523,0.002678,0.000431,0.212608
18589000,0.0324,0.013523,0.002678,0.000431,0.272313
18590000,0.0324,0.013523,0.002678,0.000431,0.167008
18591000,0.0324,0.013523,0.002678,0.000431,0.117881
18592000,0.0324,0.013523,0.002678,0.000431,0.084268
18593000,0.0324,0.013523,0.002678,0.000431,0.144090
18594000,0.0324,0.013523,0.002678,0.000431,0.293938
18595000,0.0324,0.013523,0.002678,0.000431,0.249747
18596000,0.0324,0.013523,0.002678,0.000431,0.107891
18597000,0.0324,0.013523,0.002678,0.000431,0.147850
18598000,0.0324,0.013523,0.002678,0.000431,0.066874
18599000,0.0324,0.013523,0.002678,0.000431,0.080389
18600000,0.0324,0.013523,0.002678,0.000431,0.180993
18601000,0.0324,0.013523,0.002678,0.000431,0.082035
18602000,0.0324,0.013523,0.002678,0.000431,0.171121
18603000,0.0324,0.013523,0.002678,0.000431,0.130809
18604000,0.0324,0.013523,0.002678,0.000431,0.242696
18605000,0.0324,0.013523,0.002678,0.000431,0.069812
18606000,0.0324,0.013523,0.002678,0.000431,0.091907
18607000,0.0324,0.013523,0.002678,0.000431,0.149143
18608000,0.0324,0.013523,0.002678,0.000431,0.194744
18609000,0.0324,0.013523,0.002678,0.000431,0.246104
18610000,0.0324,0.013523,0.002678,0.000431,0.102720
18611000,0.0324,0.013523,0.002678,0.000431,0.129163
18612000,0.0324,0.013523,0.002678,0.000431,0.127283
18613000,0.0324,0.013523,0.002678,0.000431,0.175940
18614000,0.0324,0.013523,0.002678,0.000431,0.238230
18615000,0.0324,0.013523,0.002678,0.000431,0.228945
18616000,0.0324,0.013523,0.002678,0.000431,0.078391
18617000,0.0324,0.013523,0.002678,0.000431,0.172296
18618000,0.0324,0.013523,0.002678,0.000431,0.173824
18619000,0.0324,0.013523,0.002678,0.000431,0.101192
18620000,0.0324,0.013523,0.002678,0.000431,0.227064
18621000,0.0324,0.013523,0.002678,0.000431,0.148556
18622000,0.0324,0.013523,0.002678,0.000431,0.088146
18623000,0.0324,0.013523,0.002678,0.000431,0.136568
18624000,0.0324,0.013523,0.002678,0.000431,0.121524
18625000,0.0324,0.013523,0.002678,0.000431,0.158781
18626000,0.0324,0.013523,0.002678,0.000431,0.275486
18627000,0.0324,0.013523,0.002678,0.000431,0.274428
18628000,0.0324,0.013523,0.002678,0.000431,0.227770
18629000,0.0324,0.013523,0.002678,0.000431,0.100487
18630000,0.0324,0.013523,0.002678,0.000431,0.233411
18631000,0.0324,0.013523,0.002678,0.000431,0.211198
18632000,0.0324,0.013523,0.002678,0.000431,0.221188
18633000,0.0324,0.013523,0.002678,0.000431,0.323673
18634000,0.0324,0.013523,0.002678,0.000431,0.146675
18635000,0.0324,0.013523,0.002678,0.000431,0.271490
18636000,0.0324,0.013523,0.002678,0.000431,0.135392
18637000,0.0324,0.013523,0.002678,0.000431,0.138683
18638000,0.0324,0.013523,0.002678,0.000431,0.086266
18639000,0.0324,0.013523,0.002678,0.000431,0.318501
18640000,0.0324,0.013523,0.002678,0.000431,0.086383
18641000,0.0324,0.013523,0.002678,0.000431,0.125638
18642000,0.0324,0.013523,0.002678,0.000431,0.122464
18643000,0.0324,0.013523,0.002678,0.000431,0.045601
18644000,0.0324,0.013523,0.002678,0.000431,0.090144
18645000,0.0324,0.013523,0.002678,0.000431,0.196507
18646000,0.0324,0.013523,0.002678,0.000431,0.285476
18647000,0.0324,0.013523,0.002678,0.000431,0.238112
18648000,0.0324,0.013523,0.002678,0.000431,0.143149
18649000,0.0324,0.013523,0.002678,0.000431,0.154785
18650000,0.0324,0.013523,0.002678,0.000431,0.146205
18651000,0.0324,0.013523,0.002678,0.000431,0.042310
18652000,0.0324,0.013523,0.002678,0.000431,0.223186
18653000,0.0324,0.013523,0.002678,0.000431,0.169241
18654000,0.0324,0.013523,0.002678,0.000431,0.111652
18655000,0.0324,0.013523,0.002678,0.000431,0.050302
18656000,0.0324,0.013523,0.002678,0.000431,0.294526
18657000,0.0324,0.013523,0.002678,0.000431,0.061115
18658000,0.0324,0.013523,0.002678,0.000431,0.152434
18659000,0.0324,0.013523,0.002678,0.000431,0.200150
18660000,0.0324,0.013523,0.002678,0.000431,0.223186
18661000,0.0324,0.013523,0.002678,0.000431,0.143737
18662000,0.0324,0.013523,0.002678,0.000431,0.118233
18663000,0.0324,0.013523,0.002678,0.000431,0.104012
18664000,0.0324,0.013523,0.002678,0.000431,0.070047
18665000,0.0324,0.013523,0.002678,0.000431,0.155607
18666000,0.0324,0.013523,0.002678,0.000431,0.277602
18667000,0.0324,0.013523,0.002678,0.000431,0.104247
18668000,0.0324,0.013523,0.002678,0.000431,0.095315
18669000,0.0324,0.013523,0.002678,0.000431,0.114120
18670000,0.0324,0.013523,0.002678,0.000431,0.203794
18671000,0.0324,0.013523,0.002678,0.000431,0.155842
18672000,0.0324,0.013523,0.002678,0.000431,0.137861
18673000,0.0324,0.013523,0.002678,0.000431,0.326611
18674000,0.0324,0.013523,0.002678,0.000431,0.163129
18675000,0.0324,0.013523,0.002678,0.000431,0.091672
18676000,0.0324,0.013523,0.002678,0.000431,0.239052
18677000,0.0324,0.013523,0.002678,0.000431,0.149966
18678000,0.0324,0.013523,0.002678,0.000431,0.217192
18679000,0.0324,0.013523,0.002678,0.000431,0.204264
18680000,0.0324,0.013523,0.002678,0.000431,0.177703
18681000,0.0324,0.013523,0.002678,0.000431,0.133512
18682000,0.0324,0.013523,0.002678,0.000431,0.135980
18683000,0.0324,0.013523,0.002678,0.000431,0.269727
18684000,0.0324,0.013523,0.002678,0.000431,0.293820
18685000,0.0324,0.013523,0.002678,0.000431,0.160661
18686000,0.0324,0.013523,0.002678,0.000431,0.142327
18687000,0.0324,0.013523,0.002678,0.000431,0.215547
18688000,0.0324,0.013523,0.002678,0.000431,0.087676
18689000,0.0324,0.013523,0.002678,0.000431,0.058059
18690000,0.0324,0.013523,0.002678,0.000431,0.087911
18691000,0.0324,0.013523,0.002678,0.000431,0.133042
18692000,0.0324,0.013523,0.002678,0.000431,0.091554
18693000,0.0324,0.013523,0.002678,0.000431,0.080037
18694000,0.0324,0.013523,0.002678,0.000431,0.133042
18695000,0.0324,0.013523,0.002678,0.000431,0.222598
18696000,0.0324,0.013523,0.002678,0.000431,0.102837
18697000,0.0324,0.013523,0.002678,0.000431,0.264321
18698000,0.0324,0.013523,0.002678,0.000431,0.114120
18699000,0.0324,0.013523,0.002678,0.000431,0.263498
18700000,0.0324,0.013523,0.002678,0.000431,0.085443
18701000,0.0324,0.013523,0.002678,0.000431,0.084150
18702000,0.0324,0.013523,0.002678,0.000431,0.042780
18703000,0.0324,0.013523,0.002678,0.000431,0.080389
18704000,0.0324,0.013523,0.002678,0.000431,0.262088
18705000,0.0324,0.013523,0.002678,0.000431,0.240110
18706000,0.0324,0.013523,0.002678,0.000431,0.190748
18707000,0.0324,0.013523,0.002678,0.000431,0.083092
18708000,0.0324,0.013523,0.002678,0.000431,0.121994
18709000,0.0324,0.013523,0.002678,0.000431,0.106128
18710000,0.0324,0.013523,0.002678,0.000431,0.096138
18711000,0.0324,0.013523,0.002678,0.000431,0.202619
18712000,0.0324,0.013523,0.002678,0.000431,0.266319
18713000,0.0324,0.013523,0.002678,0.000431,0.052770
18714000,0.0324,0.013523,0.002678,0.000431,0.065933
18715000,0.0324,0.013523,0.002678,0.000431,0.036551
18716000,0.0324,0.013523,0.002678,0.000431,0.142679
18717000,0.0324,0.013523,0.002678,0.000431,0.150319
18718000,0.0324,0.013523,0.002678,0.000431,0.108008
18719000,0.0324,0.013523,0.002678,0.000431,0.253508
18720000,0.0324,0.013523,0.002678,0.000431,0.123522
18721000,0.0324,0.013523,0.002678,0.000431,0.230355
18722000,0.0324,0.013523,0.002678,0.000431,0.117646
18723000,0.0324,0.013523,0.002678,0.000431,0.240110
18724000,0.0324,0.013523,0.002678,0.000431,0.131632
18725000,0.0324,0.013523,0.002678,0.000431,0.141974
18726000,0.0324,0.013523,0.002678,0.000431,0.085208
18727000,0.0324,0.013523,0.002678,0.000431,0.198388
18728000,0.0324,0.013523,0.002678,0.000431,0.157370
18729000,0.0324,0.013523,0.002678,0.000431,0.216134
18730000,0.0324,0.013523,0.002678,0.000431,0.155842
18731000,0.0324,0.013523,0.002678,0.000431,0.195332
18732000,0.0324,0.013523,0.002678,0.000431,0.089792
18733000,0.0324,0.013523,0.002678,0.000431,0.140329
18734000,0.0324,0.013523,0.002678,0.000431,0.136568
18735000,0.0324,0.013523,0.002678,0.000431,0.098136
18736000,0.0324,0.013523,0.002678,0.000431,0.238230
18737000,0.0324,0.013523,0.002678,0.000431,0.146910
18738000,0.0324,0.013523,0.002678,0.000431,0.274076
18739000,0.0324,0.013523,0.002678,0.000431,0.074983
18740000,0.0324,0.013523,0.002678,0.000431,0.100957
18741000,0.0324,0.013523,0.002678,0.000431,0.065228
18742000,0.0324,0.013523,0.002678,0.000431,0.162894
18743000,0.0324,0.013523,0.002678,0.000431,0.155372
18744000,0.0324,0.013523,0.002678,0.000431,0.178055
18745000,0.0324,0.013523,0.002678,0.000431,0.218367
18746000,0.0324,0.013523,0.002678,0.000431,0.063113
18747000,0.0324,0.013523,0.002678,0.000431,0.065581
18748000,0.0324,0.013523,0.002678,0.000431,0.141974
18749000,0.0324,0.013523,0.002678,0.000431,0.281010
18750000,0.0324,0.013523,0.002678,0.000431,0.134335
18751000,0.0324,0.013523,0.002678,0.000431,0.207085
18752000,0.0324,0.013523,0.002678,0.000431,0.241520
18753000,0.0324,0.013523,0.002678,0.000431,0.290530
18754000,0.0324,0.013523,0.002678,0.000431,0.068284
18755000,0.0324,0.013523,0.002678,0.000431,0.122112
18756000,0.0324,0.013523,0.002678,0.000431,0.167008
18757000,0.0324,0.013523,0.002678,0.000431,0.298757
18758000,0.0324,0.013523,0.002678,0.000431,0.035258
18759000,0.0324,0.013523,0.002678,0.000431,0.167595
18760000,0.0324,0.013523,0.002678,0.000431,0.143737
18761000,0.0324,0.013523,0.002678,0.000431,0.141151
18762000,0.0324,0.013523,0.002678,0.000431,0.173001
18763000,0.0324,0.013523,0.002678,0.000431,0.082270
18764000,0.0324,0.013523,0.002678,0.000431,0.102485
18765000,0.0324,0.013523,0.002678,0.000431,0.137626
18766000,0.0324,0.013523,0.002678,0.000431,0.198505
18767000,0.0324,0.013523,0.002678,0.000431,0.200268
18768000,0.0324,0.013523,0.002678,0.000431,0.182404
18769000,0.0324,0.013523,0.002678,0.000431,0.084385
18770000,0.0324,0.013523,0.002678,0.000431,0.245516
18771000,0.0324,0.013523,0.002678,0.000431,0.163247
18772000,0.0324,0.013523,0.002678,0.000431,0.102837
18773000,0.0324,0.013523,0.002678,0.000431,0.169123
18774000,0.0324,0.013523,0.002678,0.000431,0.306161
18775000,0.0324,0.013523,0.002678,0.000431,0.070282
18776000,0.0324,0.013523,0.002678,0.000431,0.136920
18777000,0.0324,0.013523,0.002678,0.000431,0.104365
18778000,0.0324,0.013523,0.002678,0.000431,0.147968
18779000,0.0324,0.013523,0.002678,0.000431,0.178290
18780000,0.0324,0.013523,0.002678,0.000431,0.185812
18781000,0.0324,0.013523,0.002678,0.000431,0.117763
18782000,0.0324,0.013523,0.002678,0.000431,0.214371
18783000,0.0324,0.013523,0.002678,0.000431,0.306161
18784000,0.0324,0.013523,0.002678,0.000431,0.125520
18785000,0.0324,0.013523,0.002678,0.000431,0.145030
18786000,0.0324,0.013523,0.002678,0.000431,0.079449
18787000,0.0324,0.013523,0.002678,0.000431,0.091554
18788000,0.0324,0.013523,0.002678,0.000431,0.170181
18789000,0.0324,0.013523,0.002678,0.000431,0.141034
18790000,0.0324,0.013523,0.002678,0.000431,0.079567
18791000,0.0324,0.013523,0.002678,0.000431,0.080977
18792000,0.0324,0.013523,0.002678,0.000431,0.192394
18793000,0.0324,0.013523,0.002678,0.000431,0.120936
18794000,0.0324,0.013523,0.002678,0.000431,0.154785
18795000,0.0324,0.013523,0.002678,0.000431,0.125638
18796000,0.0324,0.013523,0.002678,0.000431,0.197330
18797000,0.0324,0.013523,0.002678,0.000431,0.095198
18798000,0.0324,0.013523,0.002678,0.000431,0.166185
18799000,0.0324,0.013523,0.002678,0.000431,0.182874
18800000,0.0324,0.013523,0.002678,0.000431,0.148556
18801000,0.0324,0.013523,0.002678,0.000431,0.116353
18802000,0.0324,0.013523,0.002678,0.000431,0.102955
18803000,0.0324,0.013523,0.002678,0.000431,0.065228
18804000,0.0324,0.013523,0.002678,0.000431,0.110594
18805000,0.0324,0.013523,0.002678,0.000431,0.095433
18806000,0.0324,0.013523,0.002678,0.000431,0.094963
18807000,0.0324,0.013523,0.002678,0.000431,0.133277
18808000,0.0324,0.013523,0.002678,0.000431,0.073573
18809000,0.0324,0.013523,0.002678,0.000431,0.116353
18810000,0.0324,0.013523,0.002678,0.000431,0.100134
18811000,0.0324,0.013523,0.002678,0.000431,0.340479
18812000,0.0324,0.013523,0.002678,0.000431,0.197565
18813000,0.0324,0.013523,0.002678,0.000431,0.087911
18814000,0.0324,0.013523,0.002678,0.000431,0.145030
18815000,0.0324,0.013523,0.002678,0.000431,0.241050
18816000,0.0324,0.013523,0.002678,0.000431,0.222481
18817000,0.0324,0.013523,0.002678,0.000431,0.225302
18818000,0.0324,0.013523,0.002678,0.000431,0.199680
18819000,0.0324,0.013523,0.002678,0.000431,0.181346
18820000,0.0324,0.013523,0.002678,0.000431,0.121642
18821000,0.0324,0.013523,0.002678,0.000431,0.098724
18822000,0.0324,0.013523,0.002678,0.000431,0.099429
18823000,0.0324,0.013523,0.002678,0.000431,0.100722
18824000,0.0324,0.013523,0.002678,0.000431,0.247514
18825000,0.0324,0.013523,0.002678,0.000431,0.229180
18826000,0.0324,0.013523,0.002678,0.000431,0.175705
18827000,0.0324,0.013523,0.002678,0.000431,0.041605
18828000,0.0324,0.013523,0.002678,0.000431,0.128811
18829000,0.0324,0.013523,0.002678,0.000431,0.157488
18830000,0.0324,0.013523,0.002678,0.000431,0.101074
18831000,0.0324,0.013523,0.002678,0.000431,0.169006
18832000,0.0324,0.013523,0.002678,0.000431,0.101309
18833000,0.0324,0.013523,0.002678,0.000431,0.133512
18834000,0.0324,0.013523,0.002678,0.000431,0.139271
18835000,0.0324,0.013523,0.002678,0.000431,0.196860
18836000,0.0324,0.013523,0.002678,0.000431,0.163364
18837000,0.0324,0.013523,0.002678,0.000431,0.078156
18838000,0.0324,0.013523,0.002678,0.000431,0.128458
18839000,0.0324,0.013523,0.002678,0.000431,0.102014
18840000,0.0324,0.013523,0.002678,0.000431,0.089909
18841000,0.0324,0.013523,0.002678,0.000431,0.152552
18842000,0.0324,0.013523,0.002678,0.000431,0.119996
18843000,0.0324,0.013523,0.002678,0.000431,0.127871
18844000,0.0324,0.013523,0.002678,0.000431,0.107891
18845000,0.0324,0.013523,0.002678,0.000431,0.150436
18846000,0.0324,0.013523,0.002678,0.000431,0.108361
18847000,0.0324,0.013523,0.002678,0.000431,0.165010
18848000,0.0324,0.013523,0.002678,0.000431,0.059469
18849000,0.0324,0.013523,0.002678,0.000431,0.131867
18850000,0.0324,0.013523,0.002678,0.000431,0.186635
18851000,0.0324,0.013523,0.002678,0.000431,0.086266
18852000,0.0324,0.013523,0.002678,0.000431,0.212608
18853000,0.0324,0.013523,0.002678,0.000431,0.088029
18854000,0.0324,0.013523,0.002678,0.000431,0.170416
18855000,0.0324,0.013523,0.002678,0.000431,0.057706
18856000,0.0324,0.013523,0.002678,0.000431,0.179701
18857000,0.0324,0.013523,0.002678,0.000431,0.146088
18858000,0.0324,0.013523,0.002678,0.000431,0.112239
18859000,0.0324,0.013523,0.002678,0.000431,0.144677
18860000,0.0324,0.013523,0.002678,0.000431,0.097783
18861000,0.0324,0.013523,0.002678,0.000431,0.073925
18862000,0.0324,0.013523,0.002678,0.000431,0.087558
18863000,0.0324,0.013523,0.002678,0.000431,0.092495
18864000,0.0324,0.013523,0.002678,0.000431,0.118233
18865000,0.0324,0.013523,0.002678,0.000431,0.283948
18866000,0.0324,0.013523,0.002678,0.000431,0.180641
18867000,0.0324,0.013523,0.002678,0.000431,0.173354
18868000,0.0324,0.013523,0.002678,0.000431,0.049949
18869000,0.0324,0.013523,0.002678,0.000431,0.138096
18870000,0.0324,0.013523,0.002678,0.000431,0.091319
18871000,0.0324,0.013523,0.002678,0.000431,0.174999
18872000,0.0324,0.013523,0.002678,0.000431,0.060762
18873000,0.0324,0.013523,0.002678,0.000431,0.166067
18874000,0.0324,0.013523,0.002678,0.000431,0.178290
18875000,0.0324,0.013523,0.002678,0.000431,0.109301
18876000,0.0324,0.013523,0.002678,0.000431,0.210493
18877000,0.0324,0.013523,0.002678,0.000431,0.250100
18878000,0.0324,0.013523,0.002678,0.000431,0.144090
18879000,0.0324,0.013523,0.002678,0.000431,0.087558
18880000,0.0324,0.013523,0.002678,0.000431,0.080977
18881000,0.0324,0.013523,0.002678,0.000431,0.046424
18882000,0.0324,0.013523,0.002678,0.000431,0.105070
18883000,0.0324,0.013523,0.002678,0.000431,0.167595
18884000,0.0324,0.013523,0.002678,0.000431,0.154079
18885000,0.0324,0.013523,0.002678,0.000431,0.042663
18886000,0.0324,0.013523,0.002678,0.000431,0.197565
18887000,0.0324,0.013523,0.002678,0.000431,0.165597
18888000,0.0324,0.013523,0.002678,0.000431,0.095315
18889000,0.0324,0.013523,0.002678,0.000431,0.192746
18890000,0.0324,0.013523,0.002678,0.000431,0.213666
18891000,0.0324,0.013523,0.002678,0.000431,0.204734
18892000,0.0324,0.013523,0.002678,0.000431,0.078509
18893000,0.0324,0.013523,0.002678,0.000431,0.135157
18894000,0.0324,0.013523,0.002678,0.000431,0.195684
18895000,0.0324,0.013523,0.002678,0.000431,0.072045
18896000,0.0324,0.013523,0.002678,0.000431,0.121759
18897000,0.0324,0.013523,0.002678,0.000431,0.215664
18898000,0.0324,0.013523,0.002678,0.000431,0.089792
18899000,0.0324,0.013523,0.002678,0.000431,0.080037
18900000,0.0324,0.013523,0.002678,0.000431,0.039019
18901000,0.0324,0.013523,0.002678,0.000431,0.173472
18902000,0.0324,0.013523,0.002678,0.000431,0.162659
18903000,0.0324,0.013523,0.002678,0.000431,0.144325
18904000,0.0324,0.013523,0.002678,0.000431,0.085678
18905000,0.0324,0.013523,0.002678,0.000431,0.125050
18906000,0.0324,0.013523,0.002678,0.000431,0.056414
18907000,0.0324,0.013523,0.002678,0.000431,0.171239
18908000,0.0324,0.013523,0.002678,0.000431,0.110947
18909000,0.0324,0.013523,0.002678,0.000431,0.105423
18910000,0.0324,0.013523,0.002678,0.000431,0.340479
18911000,0.0324,0.013523,0.002678,0.000431,0.046306
18912000,0.0324,0.013523,0.002678,0.000431,0.065346
18913000,0.0324,0.013523,0.002678,0.000431,0.065111
18914000,0.0324,0.013523,0.002678,0.000431,0.069107
18915000,0.0324,0.013523,0.002678,0.000431,0.082622
18916000,0.0324,0.013523,0.002678,0.000431,0.117528
18917000,0.0324,0.013523,0.002678,0.000431,0.082152
18918000,0.0324,0.013523,0.002678,0.000431,0.080272
18919000,0.0324,0.013523,0.002678,0.000431,0.072515
18920000,0.0324,0.013523,0.002678,0.000431,0.069107
18921000,0.0324,0.013523,0.002678,0.000431,0.119291
18922000,0.0324,0.013523,0.002678,0.000431,0.146675
18923000,0.0324,0.013523,0.002678,0.000431,0.096608
18924000,0.0324,0.013523,0.002678,0.000431,0.135745
18925000,0.0324,0.013523,0.002678,0.000431,0.038902
18926000,0.0324,0.013523,0.002678,0.000431,0.066286
18927000,0.0324,0.013523,0.002678,0.000431,0.137155
18928000,0.0324,0.013523,0.002678,0.000431,0.228945
18929000,0.0324,0.013523,0.002678,0.000431,0.132689
18930000,0.0324,0.013523,0.002678,0.000431,0.057354
18931000,0.0324,0.013523,0.002678,0.000431,0.171356
18932000,0.0324,0.013523,0.002678,0.000431,0.074630
18933000,0.0324,0.013523,0.002678,0.000431,0.247162
18934000,0.0324,0.013523,0.002678,0.000431,0.137508
18935000,0.0324,0.013523,0.002678,0.000431,0.169946
18936000,0.0324,0.013523,0.002678,0.000431,0.068636
18937000,0.0324,0.013523,0.002678,0.000431,0.130104
18938000,0.0324,0.013523,0.002678,0.000431,0.151611
18939000,0.0324,0.013523,0.002678,0.000431,0.114472
18940000,0.0324,0.013523,0.002678,0.000431,0.257387
18941000,0.0324,0.013523,0.002678,0.000431,0.106010
18942000,0.0324,0.013523,0.002678,0.000431,0.078039
18943000,0.0324,0.013523,0.002678,0.000431,0.124345
18944000,0.0324,0.013523,0.002678,0.000431,0.267142
18945000,0.0324,0.013523,0.002678,0.000431,0.188633
18946000,0.0324,0.013523,0.002678,0.000431,0.227064
18947000,0.0324,0.013523,0.002678,0.000431,0.091672
18948000,0.0324,0.013523,0.002678,0.000431,0.122817
18949000,0.0324,0.013523,0.002678,0.000431,0.092495
18950000,0.0324,0.013523,0.002678,0.000431,0.201678
18951000,0.0324,0.013523,0.002678,0.000431,0.057824
18952000,0.0324,0.013523,0.002678,0.000431,0.092847
18953000,0.0324,0.013523,0.002678,0.000431,0.195567
18954000,0.0324,0.013523,0.002678,0.000431,0.100839
18955000,0.0324,0.013523,0.002678,0.000431,0.210846
18956000,0.0324,0.013523,0.002678,0.000431,0.289589
18957000,0.0324,0.013523,0.002678,0.000431,0.246339
18958000,0.0324,0.013523,0.002678,0.000431,0.107773
18959000,0.0324,0.013523,0.002678,0.000431,0.044661
18960000,0.0324,0.013523,0.002678,0.000431,0.188868
18961000,0.0324,0.013523,0.002678,0.000431,0.218837
18962000,0.0324,0.013523,0.002678,0.000431,0.210846
18963000,0.0324,0.013523,0.002678,0.000431,0.191101
18964000,0.0324,0.013523,0.002678,0.000431,0.072867
18965000,0.0324,0.013523,0.002678,0.000431,0.112827
18966000,0.0324,0.013523,0.002678,0.000431,0.095433
18967000,0.0324,0.013523,0.002678,0.000431,0.036199
18968000,0.0324,0.013523,0.002678,0.000431,0.080859
18969000,0.0324,0.013523,0.002678,0.000431,0.228475
18970000,0.0324,0.013523,0.002678,0.000431,0.181699
18971000,0.0324,0.013523,0.002678,0.000431,0.037139
18972000,0.0324,0.013523,0.002678,0.000431,0.087558
18973000,0.0324,0.013523,0.002678,0.000431,0.115530
18974000,0.0324,0.013523,0.002678,0.000431,0.184872
18975000,0.0324,0.013523,0.002678,0.000431,0.108831
18976000,0.0324,0.013523,0.002678,0.000431,0.203441
18977000,0.0324,0.013523,0.002678,0.000431,0.050537
18978000,0.0324,0.013523,0.002678,0.000431,0.096961
18979000,0.0324,0.013523,0.002678,0.000431,0.161249
18980000,0.0324,0.013523,0.002678,0.000431,0.110947
18981000,0.0324,0.013523,0.002678,0.000431,0.153962
18982000,0.0324,0.013523,0.002678,0.000431,0.180171
18983000,0.0324,0.013523,0.002678,0.000431,0.112122
18984000,0.0324,0.013523,0.002678,0.000431,0.228827
18985000,0.0324,0.013523,0.002678,0.000431,0.306631
18986000,0.0324,0.013523,0.002678,0.000431,0.096138
18987000,0.0324,0.013523,0.002678,0.000431,0.130339
18988000,0.0324,0.013523,0.002678,0.000431,0.099664
18989000,0.0324,0.013523,0.002678,0.000431,0.163717
18990000,0.0324,0.013523,0.002678,0.000431,0.076158
18991000,0.0324,0.013523,0.002678,0.000431,0.155725
18992000,0.0324,0.013523,0.002678,0.000431,0.164187
18993000,0.0324,0.013523,0.002678,0.000431,0.110712
18994000,0.0324,0.013523,0.002678,0.000431,0.056178
18995000,0.0324,0.013523,0.002678,0.000431,0.124697
18996000,0.0324,0.013523,0.002678,0.000431,0.106716
18997000,0.0324,0.013523,0.002678,0.000431,0.193922
18998000,0.0324,0.013523,0.002678,0.000431,0.207907
18999000,0.0324,0.013523,0.002678,0.000431,0.096961
