Cycle,Area(mm^2),PeakDynamic(W),SubthresholdLeakage(W),GateLeakage(W),RunTimeDynamic(W)
30000000,0.0324,0.013523,0.002678,0.000431,0.049832
30001000,0.0324,0.013523,0.002678,0.000431,0.004701
30002000,0.0324,0.013523,0.002678,0.000431,0.004701
30003000,0.0324,0.013523,0.002678,0.000431,0.007757
30004000,0.0324,0.013523,0.002678,0.000431,0.084150
30005000,0.0324,0.013523,0.002678,0.000431,0.012223
30006000,0.0324,0.013523,0.002678,0.000431,0.064170
30007000,0.0324,0.013523,0.002678,0.000431,0.012928
30008000,0.0324,0.013523,0.002678,0.000431,0.004701
30009000,0.0324,0.013523,0.002678,0.000431,0.004701
30010000,0.0324,0.013523,0.002678,0.000431,0.015161
30011000,0.0324,0.013523,0.002678,0.000431,0.047129
30012000,0.0324,0.013523,0.002678,0.000431,0.004701
30013000,0.0324,0.013523,0.002678,0.000431,0.004701
30014000,0.0324,0.013523,0.002678,0.000431,0.004701
30015000,0.0324,0.013523,0.002678,0.000431,0.052065
30016000,0.0324,0.013523,0.002678,0.000431,0.039842
30017000,0.0324,0.013523,0.002678,0.000431,0.061820
30018000,0.0324,0.013523,0.002678,0.000431,0.149731
30019000,0.0324,0.013523,0.002678,0.000431,0.012223
30020000,0.0324,0.013523,0.002678,0.000431,0.004701
30021000,0.0324,0.013523,0.002678,0.000431,0.004701
30022000,0.0324,0.013523,0.002678,0.000431,0.027267
30023000,0.0324,0.013523,0.002678,0.000431,0.004701
30024000,0.0324,0.013523,0.002678,0.000431,0.008462
30025000,0.0324,0.013523,0.002678,0.000431,0.119174
30026000,0.0324,0.013523,0.002678,0.000431,0.013633
30027000,0.0324,0.013523,0.002678,0.000431,0.004701
30028000,0.0324,0.013523,0.002678,0.000431,0.004701
30029000,0.0324,0.013523,0.002678,0.000431,0.057589
30030000,0.0324,0.013523,0.002678,0.000431,0.004701
30031000,0.0324,0.013523,0.002678,0.000431,0.012105
30032000,0.0324,0.013523,0.002678,0.000431,0.034671
30033000,0.0324,0.013523,0.002678,0.000431,0.004701
30034000,0.0324,0.013523,0.002678,0.000431,0.004701
30035000,0.0324,0.013523,0.002678,0.000431,0.028794
30036000,0.0324,0.013523,0.002678,0.000431,0.176175
30037000,0.0324,0.013523,0.002678,0.000431,0.033848
30038000,0.0324,0.013523,0.002678,0.000431,0.012223
30039000,0.0324,0.013523,0.002678,0.000431,0.004701
30040000,0.0324,0.013523,0.002678,0.000431,0.004701
30041000,0.0324,0.013523,0.002678,0.000431,0.004701
30042000,0.0324,0.013523,0.002678,0.000431,0.004701
30043000,0.0324,0.013523,0.002678,0.000431,0.034788
30044000,0.0324,0.013523,0.002678,0.000431,0.004701
30045000,0.0324,0.013523,0.002678,0.000431,0.056531
30046000,0.0324,0.013523,0.002678,0.000431,0.012811
30047000,0.0324,0.013523,0.002678,0.000431,0.004701
30048000,0.0324,0.013523,0.002678,0.000431,0.004701
30049000,0.0324,0.013523,0.002678,0.000431,0.004701
30050000,0.0324,0.013523,0.002678,0.000431,0.004701
30051000,0.0324,0.013523,0.002678,0.000431,0.057354
30052000,0.0324,0.013523,0.002678,0.000431,0.019745
30053000,0.0324,0.013523,0.002678,0.000431,0.004701
30054000,0.0324,0.013523,0.002678,0.000431,0.004701
30055000,0.0324,0.013523,0.002678,0.000431,0.004701
30056000,0.0324,0.013523,0.002678,0.000431,0.019745
30057000,0.0324,0.013523,0.002678,0.000431,0.019510
30058000,0.0324,0.013523,0.002678,0.000431,0.019745
30059000,0.0324,0.013523,0.002678,0.000431,0.004701
30060000,0.0324,0.013523,0.002678,0.000431,0.004466
30061000,0.0324,0.013523,0.002678,0.000431,0.004466
30062000,0.0324,0.013523,0.002678,0.000431,0.019745
30063000,0.0324,0.013523,0.002678,0.000431,0.019745
30064000,0.0324,0.013523,0.002678,0.000431,0.106363
30065000,0.0324,0.013523,0.002678,0.000431,0.030205
30066000,0.0324,0.013523,0.002678,0.000431,0.004701
30067000,0.0324,0.013523,0.002678,0.000431,0.004701
30068000,0.0324,0.013523,0.002678,0.000431,0.004701
30069000,0.0324,0.013523,0.002678,0.000431,0.004701
30070000,0.0324,0.013523,0.002678,0.000431,0.004701
30071000,0.0324,0.013523,0.002678,0.000431,0.027149
30072000,0.0324,0.013523,0.002678,0.000431,0.004584
30073000,0.0324,0.013523,0.002678,0.000431,0.004701
30074000,0.0324,0.013523,0.002678,0.000431,0.004701
30075000,0.0324,0.013523,0.002678,0.000431,0.012223
30076000,0.0324,0.013523,0.002678,0.000431,0.004701
30077000,0.0324,0.013523,0.002678,0.000431,0.031145
30078000,0.0324,0.013523,0.002678,0.000431,0.031145
30079000,0.0324,0.013523,0.002678,0.000431,0.004701
30080000,0.0324,0.013523,0.002678,0.000431,0.004701
30081000,0.0324,0.013523,0.002678,0.000431,0.004701
30082000,0.0324,0.013523,0.002678,0.000431,0.019745
30083000,0.0324,0.013523,0.002678,0.000431,0.004701
30084000,0.0324,0.013523,0.002678,0.000431,0.043720
30085000,0.0324,0.013523,0.002678,0.000431,0.070987
30086000,0.0324,0.013523,0.002678,0.000431,0.004701
30087000,0.0324,0.013523,0.002678,0.000431,0.004701
30088000,0.0324,0.013523,0.002678,0.000431,0.004701
30089000,0.0324,0.013523,0.002678,0.000431,0.004701
30090000,0.0324,0.013523,0.002678,0.000431,0.052183
30091000,0.0324,0.013523,0.002678,0.000431,0.054768
30092000,0.0324,0.013523,0.002678,0.000431,0.004701
30093000,0.0324,0.013523,0.002678,0.000431,0.004701
30094000,0.0324,0.013523,0.002678,0.000431,0.004701
30095000,0.0324,0.013523,0.002678,0.000431,0.019510
30096000,0.0324,0.013523,0.002678,0.000431,0.012223
30097000,0.0324,0.013523,0.002678,0.000431,0.057471
30098000,0.0324,0.013523,0.002678,0.000431,0.019627
30099000,0.0324,0.013523,0.002678,0.000431,0.004701
30100000,0.0324,0.013523,0.002678,0.000431,0.004701
30101000,0.0324,0.013523,0.002678,0.000431,0.004466
30102000,0.0324,0.013523,0.002678,0.000431,0.004701
30103000,0.0324,0.013523,0.002678,0.000431,0.004701
30104000,0.0324,0.013523,0.002678,0.000431,0.019745
30105000,0.0324,0.013523,0.002678,0.000431,0.004701
30106000,0.0324,0.013523,0.002678,0.000431,0.004701
30107000,0.0324,0.013523,0.002678,0.000431,0.004701
30108000,0.0324,0.013523,0.002678,0.000431,0.004701
30109000,0.0324,0.013523,0.002678,0.000431,0.012693
30110000,0.0324,0.013523,0.002678,0.000431,0.079567
30111000,0.0324,0.013523,0.002678,0.000431,0.004584
30112000,0.0324,0.013523,0.002678,0.000431,0.004701
30113000,0.0324,0.013523,0.002678,0.000431,0.004701
30114000,0.0324,0.013523,0.002678,0.000431,0.004701
30115000,0.0324,0.013523,0.002678,0.000431,0.004701
30116000,0.0324,0.013523,0.002678,0.000431,0.105188
30117000,0.0324,0.013523,0.002678,0.000431,0.031615
30118000,0.0324,0.013523,0.002678,0.000431,0.004701
30119000,0.0324,0.013523,0.002678,0.000431,0.004701
30120000,0.0324,0.013523,0.002678,0.000431,0.008580
30121000,0.0324,0.013523,0.002678,0.000431,0.083563
30122000,0.0324,0.013523,0.002678,0.000431,0.004701
30123000,0.0324,0.013523,0.002678,0.000431,0.023506
30124000,0.0324,0.013523,0.002678,0.000431,0.012223
30125000,0.0324,0.013523,0.002678,0.000431,0.064641
30126000,0.0324,0.013523,0.002678,0.000431,0.015984
30127000,0.0324,0.013523,0.002678,0.000431,0.030792
30128000,0.0324,0.013523,0.002678,0.000431,0.098489
30129000,0.0324,0.013523,0.002678,0.000431,0.004701
30130000,0.0324,0.013523,0.002678,0.000431,0.004701
30131000,0.0324,0.013523,0.002678,0.000431,0.004701
30132000,0.0324,0.013523,0.002678,0.000431,0.034788
30133000,0.0324,0.013523,0.002678,0.000431,0.004466
30134000,0.0324,0.013523,0.002678,0.000431,0.043485
30135000,0.0324,0.013523,0.002678,0.000431,0.033613
30136000,0.0324,0.013523,0.002678,0.000431,0.019627
30137000,0.0324,0.013523,0.002678,0.000431,0.019862
30138000,0.0324,0.013523,0.002678,0.000431,0.004701
30139000,0.0324,0.013523,0.002678,0.000431,0.004701
30140000,0.0324,0.013523,0.002678,0.000431,0.004701
30141000,0.0324,0.013523,0.002678,0.000431,0.004701
30142000,0.0324,0.013523,0.002678,0.000431,0.004701
30143000,0.0324,0.013523,0.002678,0.000431,0.012811
30144000,0.0324,0.013523,0.002678,0.000431,0.011635
30145000,0.0324,0.013523,0.002678,0.000431,0.004936
30146000,0.0324,0.013523,0.002678,0.000431,0.004701
30147000,0.0324,0.013523,0.002678,0.000431,0.015866
30148000,0.0324,0.013523,0.002678,0.000431,0.008345
30149000,0.0324,0.013523,0.002678,0.000431,0.012223
30150000,0.0324,0.013523,0.002678,0.000431,0.004701
30151000,0.0324,0.013523,0.002678,0.000431,0.019627
30152000,0.0324,0.013523,0.002678,0.000431,0.019862
30153000,0.0324,0.013523,0.002678,0.000431,0.004701
30154000,0.0324,0.013523,0.002678,0.000431,0.004701
30155000,0.0324,0.013523,0.002678,0.000431,0.004701
30156000,0.0324,0.013523,0.002678,0.000431,0.004701
30157000,0.0324,0.013523,0.002678,0.000431,0.004701
30158000,0.0324,0.013523,0.002678,0.000431,0.004701
30159000,0.0324,0.013523,0.002678,0.000431,0.004701
30160000,0.0324,0.013523,0.002678,0.000431,0.004701
30161000,0.0324,0.013523,0.002678,0.000431,0.004701
30162000,0.0324,0.013523,0.002678,0.000431,0.004701
30163000,0.0324,0.013523,0.002678,0.000431,0.004701
30164000,0.0324,0.013523,0.002678,0.000431,0.004701
30165000,0.0324,0.013523,0.002678,0.000431,0.004701
30166000,0.0324,0.013523,0.002678,0.000431,0.004701
30167000,0.0324,0.013523,0.002678,0.000431,0.004701
30168000,0.0324,0.013523,0.002678,0.000431,0.027267
30169000,0.0324,0.013523,0.002678,0.000431,0.004701
30170000,0.0324,0.013523,0.002678,0.000431,0.004701
30171000,0.0324,0.013523,0.002678,0.000431,0.042310
30172000,0.0324,0.013523,0.002678,0.000431,0.004701
30173000,0.0324,0.013523,0.002678,0.000431,0.004584
30174000,0.0324,0.013523,0.002678,0.000431,0.004584
30175000,0.0324,0.013523,0.002678,0.000431,0.004701
30176000,0.0324,0.013523,0.002678,0.000431,0.004701
30177000,0.0324,0.013523,0.002678,0.000431,0.004466
30178000,0.0324,0.013523,0.002678,0.000431,0.012223
30179000,0.0324,0.013523,0.002678,0.000431,0.008462
30180000,0.0324,0.013523,0.002678,0.000431,0.016219
30181000,0.0324,0.013523,0.002678,0.000431,0.004701
30182000,0.0324,0.013523,0.002678,0.000431,0.025974
30183000,0.0324,0.013523,0.002678,0.000431,0.028559
30184000,0.0324,0.013523,0.002678,0.000431,0.004701
30185000,0.0324,0.013523,0.002678,0.000431,0.012223
30186000,0.0324,0.013523,0.002678,0.000431,0.004701
30187000,0.0324,0.013523,0.002678,0.000431,0.027149
30188000,0.0324,0.013523,0.002678,0.000431,0.004584
30189000,0.0324,0.013523,0.002678,0.000431,0.004701
30190000,0.0324,0.013523,0.002678,0.000431,0.004701
30191000,0.0324,0.013523,0.002678,0.000431,0.019510
30192000,0.0324,0.013523,0.002678,0.000431,0.004701
30193000,0.0324,0.013523,0.002678,0.000431,0.004701
30194000,0.0324,0.013523,0.002678,0.000431,0.004701
30195000,0.0324,0.013523,0.002678,0.000431,0.004701
30196000,0.0324,0.013523,0.002678,0.000431,0.057354
30197000,0.0324,0.013523,0.002678,0.000431,0.004701
30198000,0.0324,0.013523,0.002678,0.000431,0.004701
30199000,0.0324,0.013523,0.002678,0.000431,0.004701
30200000,0.0324,0.013523,0.002678,0.000431,0.004701
30201000,0.0324,0.013523,0.002678,0.000431,0.004701
30202000,0.0324,0.013523,0.002678,0.000431,0.023506
30203000,0.0324,0.013523,0.002678,0.000431,0.008462
30204000,0.0324,0.013523,0.002678,0.000431,0.012223
30205000,0.0324,0.013523,0.002678,0.000431,0.004701
30206000,0.0324,0.013523,0.002678,0.000431,0.004701
30207000,0.0324,0.013523,0.002678,0.000431,0.004701
30208000,0.0324,0.013523,0.002678,0.000431,0.004701
30209000,0.0324,0.013523,0.002678,0.000431,0.042310
30210000,0.0324,0.013523,0.002678,0.000431,0.004701
30211000,0.0324,0.013523,0.002678,0.000431,0.004701
30212000,0.0324,0.013523,0.002678,0.000431,0.004701
30213000,0.0324,0.013523,0.002678,0.000431,0.004584
30214000,0.0324,0.013523,0.002678,0.000431,0.004584
30215000,0.0324,0.013523,0.002678,0.000431,0.023271
30216000,0.0324,0.013523,0.002678,0.000431,0.023976
30217000,0.0324,0.013523,0.002678,0.000431,0.011988
30218000,0.0324,0.013523,0.002678,0.000431,0.004701
30219000,0.0324,0.013523,0.002678,0.000431,0.004701
30220000,0.0324,0.013523,0.002678,0.000431,0.016571
30221000,0.0324,0.013523,0.002678,0.000431,0.007874
30222000,0.0324,0.013523,0.002678,0.000431,0.004701
30223000,0.0324,0.013523,0.002678,0.000431,0.004701
30224000,0.0324,0.013523,0.002678,0.000431,0.004701
30225000,0.0324,0.013523,0.002678,0.000431,0.004701
30226000,0.0324,0.013523,0.002678,0.000431,0.091084
30227000,0.0324,0.013523,0.002678,0.000431,0.015984
30228000,0.0324,0.013523,0.002678,0.000431,0.012105
30229000,0.0324,0.013523,0.002678,0.000431,0.019745
30230000,0.0324,0.013523,0.002678,0.000431,0.095433
30231000,0.0324,0.013523,0.002678,0.000431,0.071692
30232000,0.0324,0.013523,0.002678,0.000431,0.004701
30233000,0.0324,0.013523,0.002678,0.000431,0.050067
30234000,0.0324,0.013523,0.002678,0.000431,0.004701
30235000,0.0324,0.013523,0.002678,0.000431,0.004701
30236000,0.0324,0.013523,0.002678,0.000431,0.004701
30237000,0.0324,0.013523,0.002678,0.000431,0.027267
30238000,0.0324,0.013523,0.002678,0.000431,0.004701
30239000,0.0324,0.013523,0.002678,0.000431,0.004701
30240000,0.0324,0.013523,0.002678,0.000431,0.004701
30241000,0.0324,0.013523,0.002678,0.000431,0.049832
30242000,0.0324,0.013523,0.002678,0.000431,0.004701
30243000,0.0324,0.013523,0.002678,0.000431,0.008580
30244000,0.0324,0.013523,0.002678,0.000431,0.016101
30245000,0.0324,0.013523,0.002678,0.000431,0.004701
30246000,0.0324,0.013523,0.002678,0.000431,0.008462
30247000,0.0324,0.013523,0.002678,0.000431,0.008462
30248000,0.0324,0.013523,0.002678,0.000431,0.027267
30249000,0.0324,0.013523,0.002678,0.000431,0.004701
30250000,0.0324,0.013523,0.002678,0.000431,0.019745
30251000,0.0324,0.013523,0.002678,0.000431,0.004701
30252000,0.0324,0.013523,0.002678,0.000431,0.004701
30253000,0.0324,0.013523,0.002678,0.000431,0.004701
30254000,0.0324,0.013523,0.002678,0.000431,0.004466
30255000,0.0324,0.013523,0.002678,0.000431,0.004701
30256000,0.0324,0.013523,0.002678,0.000431,0.004701
30257000,0.0324,0.013523,0.002678,0.000431,0.004466
30258000,0.0324,0.013523,0.002678,0.000431,0.004701
30259000,0.0324,0.013523,0.002678,0.000431,0.012223
30260000,0.0324,0.013523,0.002678,0.000431,0.015984
30261000,0.0324,0.013523,0.002678,0.000431,0.015984
30262000,0.0324,0.013523,0.002678,0.000431,0.012223
30263000,0.0324,0.013523,0.002678,0.000431,0.006111
30264000,0.0324,0.013523,0.002678,0.000431,0.070987
30265000,0.0324,0.013523,0.002678,0.000431,0.004466
30266000,0.0324,0.013523,0.002678,0.000431,0.079802
30267000,0.0324,0.013523,0.002678,0.000431,0.034671
30268000,0.0324,0.013523,0.002678,0.000431,0.004701
30269000,0.0324,0.013523,0.002678,0.000431,0.004701
30270000,0.0324,0.013523,0.002678,0.000431,0.004701
30271000,0.0324,0.013523,0.002678,0.000431,0.012223
30272000,0.0324,0.013523,0.002678,0.000431,0.004701
30273000,0.0324,0.013523,0.002678,0.000431,0.012223
30274000,0.0324,0.013523,0.002678,0.000431,0.012223
30275000,0.0324,0.013523,0.002678,0.000431,0.004701
30276000,0.0324,0.013523,0.002678,0.000431,0.004701
30277000,0.0324,0.013523,0.002678,0.000431,0.004701
30278000,0.0324,0.013523,0.002678,0.000431,0.004701
30279000,0.0324,0.013523,0.002678,0.000431,0.057354
30280000,0.0324,0.013523,0.002678,0.000431,0.004701
30281000,0.0324,0.013523,0.002678,0.000431,0.004701
30282000,0.0324,0.013523,0.002678,0.000431,0.030440
30283000,0.0324,0.013523,0.002678,0.000431,0.031615
30284000,0.0324,0.013523,0.002678,0.000431,0.004701
30285000,0.0324,0.013523,0.002678,0.000431,0.011400
30286000,0.0324,0.013523,0.002678,0.000431,0.080742
30287000,0.0324,0.013523,0.002678,0.000431,0.057354
30288000,0.0324,0.013523,0.002678,0.000431,0.042545
30289000,0.0324,0.013523,0.002678,0.000431,0.004701
30290000,0.0324,0.013523,0.002678,0.000431,0.004701
30291000,0.0324,0.013523,0.002678,0.000431,0.004701
30292000,0.0324,0.013523,0.002678,0.000431,0.004701
30293000,0.0324,0.013523,0.002678,0.000431,0.057354
30294000,0.0324,0.013523,0.002678,0.000431,0.049832
30295000,0.0324,0.013523,0.002678,0.000431,0.004701
30296000,0.0324,0.013523,0.002678,0.000431,0.079567
30297000,0.0324,0.013523,0.002678,0.000431,0.004584
30298000,0.0324,0.013523,0.002678,0.000431,0.004701
30299000,0.0324,0.013523,0.002678,0.000431,0.004701
30300000,0.0324,0.013523,0.002678,0.000431,0.004701
30301000,0.0324,0.013523,0.002678,0.000431,0.004701
30302000,0.0324,0.013523,0.002678,0.000431,0.004701
30303000,0.0324,0.013523,0.002678,0.000431,0.049832
30304000,0.0324,0.013523,0.002678,0.000431,0.004701
30305000,0.0324,0.013523,0.002678,0.000431,0.004466
30306000,0.0324,0.013523,0.002678,0.000431,0.064876
30307000,0.0324,0.013523,0.002678,0.000431,0.004701
30308000,0.0324,0.013523,0.002678,0.000431,0.004701
30309000,0.0324,0.013523,0.002678,0.000431,0.019627
30310000,0.0324,0.013523,0.002678,0.000431,0.057471
30311000,0.0324,0.013523,0.002678,0.000431,0.004701
30312000,0.0324,0.013523,0.002678,0.000431,0.013281
30313000,0.0324,0.013523,0.002678,0.000431,0.041723
30314000,0.0324,0.013523,0.002678,0.000431,0.004701
30315000,0.0324,0.013523,0.002678,0.000431,0.016807
30316000,0.0324,0.013523,0.002678,0.000431,0.053005
30317000,0.0324,0.013523,0.002678,0.000431,0.004701
30318000,0.0324,0.013523,0.002678,0.000431,0.004701
30319000,0.0324,0.013523,0.002678,0.000431,0.034788
30320000,0.0324,0.013523,0.002678,0.000431,0.004701
30321000,0.0324,0.013523,0.002678,0.000431,0.004701
30322000,0.0324,0.013523,0.002678,0.000431,0.027267
30323000,0.0324,0.013523,0.002678,0.000431,0.004701
30324000,0.0324,0.013523,0.002678,0.000431,0.004701
30325000,0.0324,0.013523,0.002678,0.000431,0.020920
30326000,0.0324,0.013523,0.002678,0.000431,0.011048
30327000,0.0324,0.013523,0.002678,0.000431,0.126460
30328000,0.0324,0.013523,0.002678,0.000431,0.072162
30329000,0.0324,0.013523,0.002678,0.000431,0.048892
30330000,0.0324,0.013523,0.002678,0.000431,0.004701
30331000,0.0324,0.013523,0.002678,0.000431,0.004701
30332000,0.0324,0.013523,0.002678,0.000431,0.014926
30333000,0.0324,0.013523,0.002678,0.000431,0.100487
30334000,0.0324,0.013523,0.002678,0.000431,0.110829
30335000,0.0324,0.013523,0.002678,0.000431,0.010930
30336000,0.0324,0.013523,0.002678,0.000431,0.004584
30337000,0.0324,0.013523,0.002678,0.000431,0.004584
30338000,0.0324,0.013523,0.002678,0.000431,0.046189
30339000,0.0324,0.013523,0.002678,0.000431,0.038549
30340000,0.0324,0.013523,0.002678,0.000431,0.004819
30341000,0.0324,0.013523,0.002678,0.000431,0.012223
30342000,0.0324,0.013523,0.002678,0.000431,0.004701
30343000,0.0324,0.013523,0.002678,0.000431,0.004701
30344000,0.0324,0.013523,0.002678,0.000431,0.004701
30345000,0.0324,0.013523,0.002678,0.000431,0.054886
30346000,0.0324,0.013523,0.002678,0.000431,0.022683
30347000,0.0324,0.013523,0.002678,0.000431,0.004701
30348000,0.0324,0.013523,0.002678,0.000431,0.004701
30349000,0.0324,0.013523,0.002678,0.000431,0.004701
30350000,0.0324,0.013523,0.002678,0.000431,0.004701
30351000,0.0324,0.013523,0.002678,0.000431,0.027502
30352000,0.0324,0.013523,0.002678,0.000431,0.057354
30353000,0.0324,0.013523,0.002678,0.000431,0.012223
30354000,0.0324,0.013523,0.002678,0.000431,0.004936
30355000,0.0324,0.013523,0.002678,0.000431,0.027267
30356000,0.0324,0.013523,0.002678,0.000431,0.004701
30357000,0.0324,0.013523,0.002678,0.000431,0.004701
30358000,0.0324,0.013523,0.002678,0.000431,0.012223
30359000,0.0324,0.013523,0.002678,0.000431,0.079919
30360000,0.0324,0.013523,0.002678,0.000431,0.035023
30361000,0.0324,0.013523,0.002678,0.000431,0.004701
30362000,0.0324,0.013523,0.002678,0.000431,0.004701
30363000,0.0324,0.013523,0.002678,0.000431,0.004466
30364000,0.0324,0.013523,0.002678,0.000431,0.055708
30365000,0.0324,0.013523,0.002678,0.000431,0.109889
30366000,0.0324,0.013523,0.002678,0.000431,0.013986
30367000,0.0324,0.013523,0.002678,0.000431,0.004701
30368000,0.0324,0.013523,0.002678,0.000431,0.042310
30369000,0.0324,0.013523,0.002678,0.000431,0.009050
30370000,0.0324,0.013523,0.002678,0.000431,0.068049
30371000,0.0324,0.013523,0.002678,0.000431,0.004701
30372000,0.0324,0.013523,0.002678,0.000431,0.050067
30373000,0.0324,0.013523,0.002678,0.000431,0.076158
30374000,0.0324,0.013523,0.002678,0.000431,0.008227
30375000,0.0324,0.013523,0.002678,0.000431,0.004701
30376000,0.0324,0.013523,0.002678,0.000431,0.004701
30377000,0.0324,0.013523,0.002678,0.000431,0.064758
30378000,0.0324,0.013523,0.002678,0.000431,0.057354
30379000,0.0324,0.013523,0.002678,0.000431,0.071222
30380000,0.0324,0.013523,0.002678,0.000431,0.021038
30381000,0.0324,0.013523,0.002678,0.000431,0.012223
30382000,0.0324,0.013523,0.002678,0.000431,0.004701
30383000,0.0324,0.013523,0.002678,0.000431,0.004701
30384000,0.0324,0.013523,0.002678,0.000431,0.042310
30385000,0.0324,0.013523,0.002678,0.000431,0.004701
30386000,0.0324,0.013523,0.002678,0.000431,0.004701
30387000,0.0324,0.013523,0.002678,0.000431,0.073808
30388000,0.0324,0.013523,0.002678,0.000431,0.042663
30389000,0.0324,0.013523,0.002678,0.000431,0.018452
30390000,0.0324,0.013523,0.002678,0.000431,0.012223
30391000,0.0324,0.013523,0.002678,0.000431,0.004701
30392000,0.0324,0.013523,0.002678,0.000431,0.004584
30393000,0.0324,0.013523,0.002678,0.000431,0.004584
30394000,0.0324,0.013523,0.002678,0.000431,0.019745
30395000,0.0324,0.013523,0.002678,0.000431,0.027267
30396000,0.0324,0.013523,0.002678,0.000431,0.004701
30397000,0.0324,0.013523,0.002678,0.000431,0.004701
30398000,0.0324,0.013523,0.002678,0.000431,0.004701
30399000,0.0324,0.013523,0.002678,0.000431,0.004701
30400000,0.0324,0.013523,0.002678,0.000431,0.038549
30401000,0.0324,0.013523,0.002678,0.000431,0.008345
30402000,0.0324,0.013523,0.002678,0.000431,0.004584
30403000,0.0324,0.013523,0.002678,0.000431,0.012223
30404000,0.0324,0.013523,0.002678,0.000431,0.004701
30405000,0.0324,0.013523,0.002678,0.000431,0.004701
30406000,0.0324,0.013523,0.002678,0.000431,0.012223
30407000,0.0324,0.013523,0.002678,0.000431,0.012223
30408000,0.0324,0.013523,0.002678,0.000431,0.034788
30409000,0.0324,0.013523,0.002678,0.000431,0.006817
30410000,0.0324,0.013523,0.002678,0.000431,0.085561
30411000,0.0324,0.013523,0.002678,0.000431,0.019745
30412000,0.0324,0.013523,0.002678,0.000431,0.008462
30413000,0.0324,0.013523,0.002678,0.000431,0.008345
30414000,0.0324,0.013523,0.002678,0.000431,0.049714
30415000,0.0324,0.013523,0.002678,0.000431,0.012223
30416000,0.0324,0.013523,0.002678,0.000431,0.004936
30417000,0.0324,0.013523,0.002678,0.000431,0.004701
30418000,0.0324,0.013523,0.002678,0.000431,0.019745
30419000,0.0324,0.013523,0.002678,0.000431,0.012223
30420000,0.0324,0.013523,0.002678,0.000431,0.004701
30421000,0.0324,0.013523,0.002678,0.000431,0.004701
30422000,0.0324,0.013523,0.002678,0.000431,0.008462
30423000,0.0324,0.013523,0.002678,0.000431,0.008462
30424000,0.0324,0.013523,0.002678,0.000431,0.004701
30425000,0.0324,0.013523,0.002678,0.000431,0.034788
30426000,0.0324,0.013523,0.002678,0.000431,0.004701
30427000,0.0324,0.013523,0.002678,0.000431,0.004701
30428000,0.0324,0.013523,0.002678,0.000431,0.004701
30429000,0.0324,0.013523,0.002678,0.000431,0.004701
30430000,0.0324,0.013523,0.002678,0.000431,0.004701
30431000,0.0324,0.013523,0.002678,0.000431,0.027267
30432000,0.0324,0.013523,0.002678,0.000431,0.019745
30433000,0.0324,0.013523,0.002678,0.000431,0.004466
30434000,0.0324,0.013523,0.002678,0.000431,0.012223
30435000,0.0324,0.013523,0.002678,0.000431,0.012223
30436000,0.0324,0.013523,0.002678,0.000431,0.004701
30437000,0.0324,0.013523,0.002678,0.000431,0.006934
30438000,0.0324,0.013523,0.002678,0.000431,0.062643
30439000,0.0324,0.013523,0.002678,0.000431,0.004701
30440000,0.0324,0.013523,0.002678,0.000431,0.004701
30441000,0.0324,0.013523,0.002678,0.000431,0.004701
30442000,0.0324,0.013523,0.002678,0.000431,0.012223
30443000,0.0324,0.013523,0.002678,0.000431,0.116941
30444000,0.0324,0.013523,0.002678,0.000431,0.020097
30445000,0.0324,0.013523,0.002678,0.000431,0.019745
30446000,0.0324,0.013523,0.002678,0.000431,0.004701
30447000,0.0324,0.013523,0.002678,0.000431,0.004701
30448000,0.0324,0.013523,0.002678,0.000431,0.019745
30449000,0.0324,0.013523,0.002678,0.000431,0.004701
30450000,0.0324,0.013523,0.002678,0.000431,0.011635
30451000,0.0324,0.013523,0.002678,0.000431,0.020567
30452000,0.0324,0.013523,0.002678,0.000431,0.004701
30453000,0.0324,0.013523,0.002678,0.000431,0.004584
30454000,0.0324,0.013523,0.002678,0.000431,0.004584
30455000,0.0324,0.013523,0.002678,0.000431,0.050067
30456000,0.0324,0.013523,0.002678,0.000431,0.019745
30457000,0.0324,0.013523,0.002678,0.000431,0.042310
30458000,0.0324,0.013523,0.002678,0.000431,0.094728
30459000,0.0324,0.013523,0.002678,0.000431,0.004701
30460000,0.0324,0.013523,0.002678,0.000431,0.072397
30461000,0.0324,0.013523,0.002678,0.000431,0.004701
30462000,0.0324,0.013523,0.002678,0.000431,0.004701
30463000,0.0324,0.013523,0.002678,0.000431,0.014338
30464000,0.0324,0.013523,0.002678,0.000431,0.050302
30465000,0.0324,0.013523,0.002678,0.000431,0.069812
30466000,0.0324,0.013523,0.002678,0.000431,0.019745
30467000,0.0324,0.013523,0.002678,0.000431,0.023506
30468000,0.0324,0.013523,0.002678,0.000431,0.053593
30469000,0.0324,0.013523,0.002678,0.000431,0.004701
30470000,0.0324,0.013523,0.002678,0.000431,0.012223
30471000,0.0324,0.013523,0.002678,0.000431,0.004701
30472000,0.0324,0.013523,0.002678,0.000431,0.004701
30473000,0.0324,0.013523,0.002678,0.000431,0.011870
30474000,0.0324,0.013523,0.002678,0.000431,0.049714
30475000,0.0324,0.013523,0.002678,0.000431,0.004701
30476000,0.0324,0.013523,0.002678,0.000431,0.057354
30477000,0.0324,0.013523,0.002678,0.000431,0.049832
30478000,0.0324,0.013523,0.002678,0.000431,0.094728
30479000,0.0324,0.013523,0.002678,0.000431,0.015984
30480000,0.0324,0.013523,0.002678,0.000431,0.008462
30481000,0.0324,0.013523,0.002678,0.000431,0.004701
30482000,0.0324,0.013523,0.002678,0.000431,0.013986
30483000,0.0324,0.013523,0.002678,0.000431,0.055826
30484000,0.0324,0.013523,0.002678,0.000431,0.008462
30485000,0.0324,0.013523,0.002678,0.000431,0.038432
30486000,0.0324,0.013523,0.002678,0.000431,0.019627
30487000,0.0324,0.013523,0.002678,0.000431,0.004701
30488000,0.0324,0.013523,0.002678,0.000431,0.004701
30489000,0.0324,0.013523,0.002678,0.000431,0.076628
30490000,0.0324,0.013523,0.002678,0.000431,0.007992
30491000,0.0324,0.013523,0.002678,0.000431,0.004701
30492000,0.0324,0.013523,0.002678,0.000431,0.035258
30493000,0.0324,0.013523,0.002678,0.000431,0.004701
30494000,0.0324,0.013523,0.002678,0.000431,0.027502
30495000,0.0324,0.013523,0.002678,0.000431,0.005994
30496000,0.0324,0.013523,0.002678,0.000431,0.048539
30497000,0.0324,0.013523,0.002678,0.000431,0.027031
30498000,0.0324,0.013523,0.002678,0.000431,0.027031
30499000,0.0324,0.013523,0.002678,0.000431,0.019745
30500000,0.0324,0.013523,0.002678,0.000431,0.004701
30501000,0.0324,0.013523,0.002678,0.000431,0.004701
30502000,0.0324,0.013523,0.002678,0.000431,0.004701
30503000,0.0324,0.013523,0.002678,0.000431,0.008462
30504000,0.0324,0.013523,0.002678,0.000431,0.053593
30505000,0.0324,0.013523,0.002678,0.000431,0.049832
30506000,0.0324,0.013523,0.002678,0.000431,0.004701
30507000,0.0324,0.013523,0.002678,0.000431,0.004701
30508000,0.0324,0.013523,0.002678,0.000431,0.004701
30509000,0.0324,0.013523,0.002678,0.000431,0.059117
30510000,0.0324,0.013523,0.002678,0.000431,0.048422
30511000,0.0324,0.013523,0.002678,0.000431,0.019392
30512000,0.0324,0.013523,0.002678,0.000431,0.017864
30513000,0.0324,0.013523,0.002678,0.000431,0.074043
30514000,0.0324,0.013523,0.002678,0.000431,0.004701
30515000,0.0324,0.013523,0.002678,0.000431,0.009990
30516000,0.0324,0.013523,0.002678,0.000431,0.127518
30517000,0.0324,0.013523,0.002678,0.000431,0.034788
30518000,0.0324,0.013523,0.002678,0.000431,0.004701
30519000,0.0324,0.013523,0.002678,0.000431,0.035258
30520000,0.0324,0.013523,0.002678,0.000431,0.004701
30521000,0.0324,0.013523,0.002678,0.000431,0.004701
30522000,0.0324,0.013523,0.002678,0.000431,0.008227
30523000,0.0324,0.013523,0.002678,0.000431,0.008462
30524000,0.0324,0.013523,0.002678,0.000431,0.027267
30525000,0.0324,0.013523,0.002678,0.000431,0.015984
30526000,0.0324,0.013523,0.002678,0.000431,0.008462
30527000,0.0324,0.013523,0.002678,0.000431,0.004701
30528000,0.0324,0.013523,0.002678,0.000431,0.004701
30529000,0.0324,0.013523,0.002678,0.000431,0.015514
30530000,0.0324,0.013523,0.002678,0.000431,0.053828
30531000,0.0324,0.013523,0.002678,0.000431,0.004936
30532000,0.0324,0.013523,0.002678,0.000431,0.004701
30533000,0.0324,0.013523,0.002678,0.000431,0.004701
30534000,0.0324,0.013523,0.002678,0.000431,0.004701
30535000,0.0324,0.013523,0.002678,0.000431,0.004701
30536000,0.0324,0.013523,0.002678,0.000431,0.004701
30537000,0.0324,0.013523,0.002678,0.000431,0.047599
30538000,0.0324,0.013523,0.002678,0.000431,0.096961
30539000,0.0324,0.013523,0.002678,0.000431,0.012223
30540000,0.0324,0.013523,0.002678,0.000431,0.008227
30541000,0.0324,0.013523,0.002678,0.000431,0.016219
30542000,0.0324,0.013523,0.002678,0.000431,0.019745
30543000,0.0324,0.013523,0.002678,0.000431,0.004701
30544000,0.0324,0.013523,0.002678,0.000431,0.004701
30545000,0.0324,0.013523,0.002678,0.000431,0.019745
30546000,0.0324,0.013523,0.002678,0.000431,0.019745
30547000,0.0324,0.013523,0.002678,0.000431,0.004701
30548000,0.0324,0.013523,0.002678,0.000431,0.004701
30549000,0.0324,0.013523,0.002678,0.000431,0.031027
30550000,0.0324,0.013523,0.002678,0.000431,0.098136
30551000,0.0324,0.013523,0.002678,0.000431,0.045954
30552000,0.0324,0.013523,0.002678,0.000431,0.008462
30553000,0.0324,0.013523,0.002678,0.000431,0.004701
30554000,0.0324,0.013523,0.002678,0.000431,0.004701
30555000,0.0324,0.013523,0.002678,0.000431,0.038784
30556000,0.0324,0.013523,0.002678,0.000431,0.023271
30557000,0.0324,0.013523,0.002678,0.000431,0.067814
30558000,0.0324,0.013523,0.002678,0.000431,0.024563
30559000,0.0324,0.013523,0.002678,0.000431,0.004701
30560000,0.0324,0.013523,0.002678,0.000431,0.004701
30561000,0.0324,0.013523,0.002678,0.000431,0.004701
30562000,0.0324,0.013523,0.002678,0.000431,0.027031
30563000,0.0324,0.013523,0.002678,0.000431,0.004819
30564000,0.0324,0.013523,0.002678,0.000431,0.012105
30565000,0.0324,0.013523,0.002678,0.000431,0.027267
30566000,0.0324,0.013523,0.002678,0.000431,0.004701
30567000,0.0324,0.013523,0.002678,0.000431,0.006229
30568000,0.0324,0.013523,0.002678,0.000431,0.025739
30569000,0.0324,0.013523,0.002678,0.000431,0.004701
30570000,0.0324,0.013523,0.002678,0.000431,0.004584
30571000,0.0324,0.013523,0.002678,0.000431,0.012105
30572000,0.0324,0.013523,0.002678,0.000431,0.004701
30573000,0.0324,0.013523,0.002678,0.000431,0.004701
30574000,0.0324,0.013523,0.002678,0.000431,0.012223
30575000,0.0324,0.013523,0.002678,0.000431,0.012223
30576000,0.0324,0.013523,0.002678,0.000431,0.004701
30577000,0.0324,0.013523,0.002678,0.000431,0.004701
30578000,0.0324,0.013523,0.002678,0.000431,0.011988
30579000,0.0324,0.013523,0.002678,0.000431,0.012223
30580000,0.0324,0.013523,0.002678,0.000431,0.015984
30581000,0.0324,0.013523,0.002678,0.000431,0.083680
30582000,0.0324,0.013523,0.002678,0.000431,0.004701
30583000,0.0324,0.013523,0.002678,0.000431,0.036551
30584000,0.0324,0.013523,0.002678,0.000431,0.017982
30585000,0.0324,0.013523,0.002678,0.000431,0.004701
30586000,0.0324,0.013523,0.002678,0.000431,0.004701
30587000,0.0324,0.013523,0.002678,0.000431,0.043956
30588000,0.0324,0.013523,0.002678,0.000431,0.108126
30589000,0.0324,0.013523,0.002678,0.000431,0.004701
30590000,0.0324,0.013523,0.002678,0.000431,0.004701
30591000,0.0324,0.013523,0.002678,0.000431,0.004701
30592000,0.0324,0.013523,0.002678,0.000431,0.004701
30593000,0.0324,0.013523,0.002678,0.000431,0.023506
30594000,0.0324,0.013523,0.002678,0.000431,0.015984
30595000,0.0324,0.013523,0.002678,0.000431,0.008462
30596000,0.0324,0.013523,0.002678,0.000431,0.057354
30597000,0.0324,0.013523,0.002678,0.000431,0.008462
30598000,0.0324,0.013523,0.002678,0.000431,0.004701
30599000,0.0324,0.013523,0.002678,0.000431,0.004701
30600000,0.0324,0.013523,0.002678,0.000431,0.079802
30601000,0.0324,0.013523,0.002678,0.000431,0.019627
30602000,0.0324,0.013523,0.002678,0.000431,0.019745
30603000,0.0324,0.013523,0.002678,0.000431,0.027031
30604000,0.0324,0.013523,0.002678,0.000431,0.004466
30605000,0.0324,0.013523,0.002678,0.000431,0.004701
30606000,0.0324,0.013523,0.002678,0.000431,0.058176
30607000,0.0324,0.013523,0.002678,0.000431,0.018922
30608000,0.0324,0.013523,0.002678,0.000431,0.004701
30609000,0.0324,0.013523,0.002678,0.000431,0.096256
30610000,0.0324,0.013523,0.002678,0.000431,0.093905
30611000,0.0324,0.013523,0.002678,0.000431,0.004466
30612000,0.0324,0.013523,0.002678,0.000431,0.004701
30613000,0.0324,0.013523,0.002678,0.000431,0.040430
30614000,0.0324,0.013523,0.002678,0.000431,0.036904
30615000,0.0324,0.013523,0.002678,0.000431,0.004819
30616000,0.0324,0.013523,0.002678,0.000431,0.004819
30617000,0.0324,0.013523,0.002678,0.000431,0.004701
30618000,0.0324,0.013523,0.002678,0.000431,0.004701
30619000,0.0324,0.013523,0.002678,0.000431,0.024211
30620000,0.0324,0.013523,0.002678,0.000431,0.007992
30621000,0.0324,0.013523,0.002678,0.000431,0.004701
30622000,0.0324,0.013523,0.002678,0.000431,0.004701
30623000,0.0324,0.013523,0.002678,0.000431,0.004701
30624000,0.0324,0.013523,0.002678,0.000431,0.019745
30625000,0.0324,0.013523,0.002678,0.000431,0.004466
30626000,0.0324,0.013523,0.002678,0.000431,0.017394
30627000,0.0324,0.013523,0.002678,0.000431,0.007052
30628000,0.0324,0.013523,0.002678,0.000431,0.004701
30629000,0.0324,0.013523,0.002678,0.000431,0.004701
30630000,0.0324,0.013523,0.002678,0.000431,0.004701
30631000,0.0324,0.013523,0.002678,0.000431,0.004701
30632000,0.0324,0.013523,0.002678,0.000431,0.012223
30633000,0.0324,0.013523,0.002678,0.000431,0.012223
30634000,0.0324,0.013523,0.002678,0.000431,0.042310
30635000,0.0324,0.013523,0.002678,0.000431,0.004701
30636000,0.0324,0.013523,0.002678,0.000431,0.004701
30637000,0.0324,0.013523,0.002678,0.000431,0.004701
30638000,0.0324,0.013523,0.002678,0.000431,0.004701
30639000,0.0324,0.013523,0.002678,0.000431,0.034788
30640000,0.0324,0.013523,0.002678,0.000431,0.006817
30641000,0.0324,0.013523,0.002678,0.000431,0.010342
30642000,0.0324,0.013523,0.002678,0.000431,0.004701
30643000,0.0324,0.013523,0.002678,0.000431,0.004701
30644000,0.0324,0.013523,0.002678,0.000431,0.004349
30645000,0.0324,0.013523,0.002678,0.000431,0.012105
30646000,0.0324,0.013523,0.002678,0.000431,0.012223
30647000,0.0324,0.013523,0.002678,0.000431,0.104012
30648000,0.0324,0.013523,0.002678,0.000431,0.182991
30649000,0.0324,0.013523,0.002678,0.000431,0.004701
30650000,0.0324,0.013523,0.002678,0.000431,0.004701
30651000,0.0324,0.013523,0.002678,0.000431,0.017512
30652000,0.0324,0.013523,0.002678,0.000431,0.022213
30653000,0.0324,0.013523,0.002678,0.000431,0.004701
30654000,0.0324,0.013523,0.002678,0.000431,0.004466
30655000,0.0324,0.013523,0.002678,0.000431,0.004701
30656000,0.0324,0.013523,0.002678,0.000431,0.004701
30657000,0.0324,0.013523,0.002678,0.000431,0.004701
30658000,0.0324,0.013523,0.002678,0.000431,0.018334
30659000,0.0324,0.013523,0.002678,0.000431,0.043720
30660000,0.0324,0.013523,0.002678,0.000431,0.004701
30661000,0.0324,0.013523,0.002678,0.000431,0.042310
30662000,0.0324,0.013523,0.002678,0.000431,0.004701
30663000,0.0324,0.013523,0.002678,0.000431,0.004701
30664000,0.0324,0.013523,0.002678,0.000431,0.055121
30665000,0.0324,0.013523,0.002678,0.000431,0.044191
30666000,0.0324,0.013523,0.002678,0.000431,0.004584
30667000,0.0324,0.013523,0.002678,0.000431,0.004701
30668000,0.0324,0.013523,0.002678,0.000431,0.004701
30669000,0.0324,0.013523,0.002678,0.000431,0.004701
30670000,0.0324,0.013523,0.002678,0.000431,0.004701
30671000,0.0324,0.013523,0.002678,0.000431,0.019745
30672000,0.0324,0.013523,0.002678,0.000431,0.004701
30673000,0.0324,0.013523,0.002678,0.000431,0.022800
30674000,0.0324,0.013523,0.002678,0.000431,0.024211
30675000,0.0324,0.013523,0.002678,0.000431,0.004701
30676000,0.0324,0.013523,0.002678,0.000431,0.004701
30677000,0.0324,0.013523,0.002678,0.000431,0.031027
30678000,0.0324,0.013523,0.002678,0.000431,0.165832
30679000,0.0324,0.013523,0.002678,0.000431,0.019392
30680000,0.0324,0.013523,0.002678,0.000431,0.012223
30681000,0.0324,0.013523,0.002678,0.000431,0.004701
30682000,0.0324,0.013523,0.002678,0.000431,0.004701
30683000,0.0324,0.013523,0.002678,0.000431,0.004701
30684000,0.0324,0.013523,0.002678,0.000431,0.042310
30685000,0.0324,0.013523,0.002678,0.000431,0.012223
30686000,0.0324,0.013523,0.002678,0.000431,0.038079
30687000,0.0324,0.013523,0.002678,0.000431,0.016689
30688000,0.0324,0.013523,0.002678,0.000431,0.004701
30689000,0.0324,0.013523,0.002678,0.000431,0.004701
30690000,0.0324,0.013523,0.002678,0.000431,0.099076
30691000,0.0324,0.013523,0.002678,0.000431,0.022918
30692000,0.0324,0.013523,0.002678,0.000431,0.004701
30693000,0.0324,0.013523,0.002678,0.000431,0.027149
30694000,0.0324,0.013523,0.002678,0.000431,0.004584
30695000,0.0324,0.013523,0.002678,0.000431,0.004701
30696000,0.0324,0.013523,0.002678,0.000431,0.004701
30697000,0.0324,0.013523,0.002678,0.000431,0.019745
30698000,0.0324,0.013523,0.002678,0.000431,0.012223
30699000,0.0324,0.013523,0.002678,0.000431,0.004701
30700000,0.0324,0.013523,0.002678,0.000431,0.004701
30701000,0.0324,0.013523,0.002678,0.000431,0.004701
30702000,0.0324,0.013523,0.002678,0.000431,0.004701
30703000,0.0324,0.013523,0.002678,0.000431,0.027737
30704000,0.0324,0.013523,0.002678,0.000431,0.093082
30705000,0.0324,0.013523,0.002678,0.000431,0.020802
30706000,0.0324,0.013523,0.002678,0.000431,0.176410
30707000,0.0324,0.013523,0.002678,0.000431,0.020215
30708000,0.0324,0.013523,0.002678,0.000431,0.004701
30709000,0.0324,0.013523,0.002678,0.000431,0.004701
30710000,0.0324,0.013523,0.002678,0.000431,0.023388
30711000,0.0324,0.013523,0.002678,0.000431,0.038667
30712000,0.0324,0.013523,0.002678,0.000431,0.011988
30713000,0.0324,0.013523,0.002678,0.000431,0.004701
30714000,0.0324,0.013523,0.002678,0.000431,0.022918
30715000,0.0324,0.013523,0.002678,0.000431,0.016571
30716000,0.0324,0.013523,0.002678,0.000431,0.004701
30717000,0.0324,0.013523,0.002678,0.000431,0.012223
30718000,0.0324,0.013523,0.002678,0.000431,0.004701
30719000,0.0324,0.013523,0.002678,0.000431,0.004701
30720000,0.0324,0.013523,0.002678,0.000431,0.004701
30721000,0.0324,0.013523,0.002678,0.000431,0.004701
30722000,0.0324,0.013523,0.002678,0.000431,0.008462
30723000,0.0324,0.013523,0.002678,0.000431,0.031027
30724000,0.0324,0.013523,0.002678,0.000431,0.004701
30725000,0.0324,0.013523,0.002678,0.000431,0.004701
30726000,0.0324,0.013523,0.002678,0.000431,0.004466
30727000,0.0324,0.013523,0.002678,0.000431,0.004701
30728000,0.0324,0.013523,0.002678,0.000431,0.004701
30729000,0.0324,0.013523,0.002678,0.000431,0.012223
30730000,0.0324,0.013523,0.002678,0.000431,0.023506
30731000,0.0324,0.013523,0.002678,0.000431,0.012223
30732000,0.0324,0.013523,0.002678,0.000431,0.103307
30733000,0.0324,0.013523,0.002678,0.000431,0.045131
30734000,0.0324,0.013523,0.002678,0.000431,0.004584
30735000,0.0324,0.013523,0.002678,0.000431,0.004701
30736000,0.0324,0.013523,0.002678,0.000431,0.047129
30737000,0.0324,0.013523,0.002678,0.000431,0.007404
30738000,0.0324,0.013523,0.002678,0.000431,0.019510
30739000,0.0324,0.013523,0.002678,0.000431,0.004701
30740000,0.0324,0.013523,0.002678,0.000431,0.004701
30741000,0.0324,0.013523,0.002678,0.000431,0.004701
30742000,0.0324,0.013523,0.002678,0.000431,0.027267
30743000,0.0324,0.013523,0.002678,0.000431,0.012223
30744000,0.0324,0.013523,0.002678,0.000431,0.024798
30745000,0.0324,0.013523,0.002678,0.000431,0.186282
30746000,0.0324,0.013523,0.002678,0.000431,0.088381
30747000,0.0324,0.013523,0.002678,0.000431,0.004701
30748000,0.0324,0.013523,0.002678,0.000431,0.004701
30749000,0.0324,0.013523,0.002678,0.000431,0.019745
30750000,0.0324,0.013523,0.002678,0.000431,0.004701
30751000,0.0324,0.013523,0.002678,0.000431,0.046541
30752000,0.0324,0.013523,0.002678,0.000431,0.030322
30753000,0.0324,0.013523,0.002678,0.000431,0.004701
30754000,0.0324,0.013523,0.002678,0.000431,0.004701
30755000,0.0324,0.013523,0.002678,0.000431,0.008462
30756000,0.0324,0.013523,0.002678,0.000431,0.008462
30757000,0.0324,0.013523,0.002678,0.000431,0.004701
30758000,0.0324,0.013523,0.002678,0.000431,0.031027
30759000,0.0324,0.013523,0.002678,0.000431,0.008462
30760000,0.0324,0.013523,0.002678,0.000431,0.004936
30761000,0.0324,0.013523,0.002678,0.000431,0.035023
30762000,0.0324,0.013523,0.002678,0.000431,0.004701
30763000,0.0324,0.013523,0.002678,0.000431,0.004701
30764000,0.0324,0.013523,0.002678,0.000431,0.019745
30765000,0.0324,0.013523,0.002678,0.000431,0.004701
30766000,0.0324,0.013523,0.002678,0.000431,0.004701
30767000,0.0324,0.013523,0.002678,0.000431,0.036434
30768000,0.0324,0.013523,0.002678,0.000431,0.072632
30769000,0.0324,0.013523,0.002678,0.000431,0.032908
30770000,0.0324,0.013523,0.002678,0.000431,0.004701
30771000,0.0324,0.013523,0.002678,0.000431,0.012223
30772000,0.0324,0.013523,0.002678,0.000431,0.004466
30773000,0.0324,0.013523,0.002678,0.000431,0.004701
30774000,0.0324,0.013523,0.002678,0.000431,0.034788
30775000,0.0324,0.013523,0.002678,0.000431,0.042310
30776000,0.0324,0.013523,0.002678,0.000431,0.004701
30777000,0.0324,0.013523,0.002678,0.000431,0.019745
30778000,0.0324,0.013523,0.002678,0.000431,0.004466
30779000,0.0324,0.013523,0.002678,0.000431,0.004701
30780000,0.0324,0.013523,0.002678,0.000431,0.031027
30781000,0.0324,0.013523,0.002678,0.000431,0.015984
30782000,0.0324,0.013523,0.002678,0.000431,0.004701
30783000,0.0324,0.013523,0.002678,0.000431,0.004701
30784000,0.0324,0.013523,0.002678,0.000431,0.083680
30785000,0.0324,0.013523,0.002678,0.000431,0.015866
30786000,0.0324,0.013523,0.002678,0.000431,0.004584
30787000,0.0324,0.013523,0.002678,0.000431,0.027267
30788000,0.0324,0.013523,0.002678,0.000431,0.012223
30789000,0.0324,0.013523,0.002678,0.000431,0.004701
30790000,0.0324,0.013523,0.002678,0.000431,0.019745
30791000,0.0324,0.013523,0.002678,0.000431,0.004701
30792000,0.0324,0.013523,0.002678,0.000431,0.004701
30793000,0.0324,0.013523,0.002678,0.000431,0.004701
30794000,0.0324,0.013523,0.002678,0.000431,0.082622
30795000,0.0324,0.013523,0.002678,0.000431,0.031850
30796000,0.0324,0.013523,0.002678,0.000431,0.012223
30797000,0.0324,0.013523,0.002678,0.000431,0.012458
30798000,0.0324,0.013523,0.002678,0.000431,0.004701
30799000,0.0324,0.013523,0.002678,0.000431,0.004701
30800000,0.0324,0.013523,0.002678,0.000431,0.019745
30801000,0.0324,0.013523,0.002678,0.000431,0.004466
30802000,0.0324,0.013523,0.002678,0.000431,0.004701
30803000,0.0324,0.013523,0.002678,0.000431,0.030322
30804000,0.0324,0.013523,0.002678,0.000431,0.016689
30805000,0.0324,0.013523,0.002678,0.000431,0.004701
30806000,0.0324,0.013523,0.002678,0.000431,0.136098
30807000,0.0324,0.013523,0.002678,0.000431,0.030322
30808000,0.0324,0.013523,0.002678,0.000431,0.004701
30809000,0.0324,0.013523,0.002678,0.000431,0.012223
30810000,0.0324,0.013523,0.002678,0.000431,0.064876
30811000,0.0324,0.013523,0.002678,0.000431,0.004701
30812000,0.0324,0.013523,0.002678,0.000431,0.004701
30813000,0.0324,0.013523,0.002678,0.000431,0.012223
30814000,0.0324,0.013523,0.002678,0.000431,0.004701
30815000,0.0324,0.013523,0.002678,0.000431,0.019980
30816000,0.0324,0.013523,0.002678,0.000431,0.012223
30817000,0.0324,0.013523,0.002678,0.000431,0.004701
30818000,0.0324,0.013523,0.002678,0.000431,0.004466
30819000,0.0324,0.013523,0.002678,0.000431,0.004701
30820000,0.0324,0.013523,0.002678,0.000431,0.042310
30821000,0.0324,0.013523,0.002678,0.000431,0.004701
30822000,0.0324,0.013523,0.002678,0.000431,0.004701
30823000,0.0324,0.013523,0.002678,0.000431,0.124815
30824000,0.0324,0.013523,0.002678,0.000431,0.004701
30825000,0.0324,0.013523,0.002678,0.000431,0.004701
30826000,0.0324,0.013523,0.002678,0.000431,0.004701
30827000,0.0324,0.013523,0.002678,0.000431,0.004701
30828000,0.0324,0.013523,0.002678,0.000431,0.012223
30829000,0.0324,0.013523,0.002678,0.000431,0.012223
30830000,0.0324,0.013523,0.002678,0.000431,0.004701
30831000,0.0324,0.013523,0.002678,0.000431,0.004701
30832000,0.0324,0.013523,0.002678,0.000431,0.004701
30833000,0.0324,0.013523,0.002678,0.000431,0.049832
30834000,0.0324,0.013523,0.002678,0.000431,0.008462
30835000,0.0324,0.013523,0.002678,0.000431,0.053593
30836000,0.0324,0.013523,0.002678,0.000431,0.004584
30837000,0.0324,0.013523,0.002678,0.000431,0.004349
30838000,0.0324,0.013523,0.002678,0.000431,0.004701
30839000,0.0324,0.013523,0.002678,0.000431,0.008462
30840000,0.0324,0.013523,0.002678,0.000431,0.008462
30841000,0.0324,0.013523,0.002678,0.000431,0.019275
30842000,0.0324,0.013523,0.002678,0.000431,0.186870
30843000,0.0324,0.013523,0.002678,0.000431,0.025621
30844000,0.0324,0.013523,0.002678,0.000431,0.004701
30845000,0.0324,0.013523,0.002678,0.000431,0.004701
30846000,0.0324,0.013523,0.002678,0.000431,0.004701
30847000,0.0324,0.013523,0.002678,0.000431,0.004701
30848000,0.0324,0.013523,0.002678,0.000431,0.004701
30849000,0.0324,0.013523,0.002678,0.000431,0.035023
30850000,0.0324,0.013523,0.002678,0.000431,0.004701
30851000,0.0324,0.013523,0.002678,0.000431,0.004701
30852000,0.0324,0.013523,0.002678,0.000431,0.034788
30853000,0.0324,0.013523,0.002678,0.000431,0.004701
30854000,0.0324,0.013523,0.002678,0.000431,0.040430
30855000,0.0324,0.013523,0.002678,0.000431,0.029382
30856000,0.0324,0.013523,0.002678,0.000431,0.004701
30857000,0.0324,0.013523,0.002678,0.000431,0.004701
30858000,0.0324,0.013523,0.002678,0.000431,0.034788
30859000,0.0324,0.013523,0.002678,0.000431,0.004701
30860000,0.0324,0.013523,0.002678,0.000431,0.004701
30861000,0.0324,0.013523,0.002678,0.000431,0.049832
30862000,0.0324,0.013523,0.002678,0.000431,0.004701
30863000,0.0324,0.013523,0.002678,0.000431,0.004701
30864000,0.0324,0.013523,0.002678,0.000431,0.004701
30865000,0.0324,0.013523,0.002678,0.000431,0.034788
30866000,0.0324,0.013523,0.002678,0.000431,0.004701
30867000,0.0324,0.013523,0.002678,0.000431,0.019627
30868000,0.0324,0.013523,0.002678,0.000431,0.004584
30869000,0.0324,0.013523,0.002678,0.000431,0.004701
30870000,0.0324,0.013523,0.002678,0.000431,0.004701
30871000,0.0324,0.013523,0.002678,0.000431,0.006464
30872000,0.0324,0.013523,0.002678,0.000431,0.010460
30873000,0.0324,0.013523,0.002678,0.000431,0.004701
30874000,0.0324,0.013523,0.002678,0.000431,0.004936
30875000,0.0324,0.013523,0.002678,0.000431,0.012223
30876000,0.0324,0.013523,0.002678,0.000431,0.004701
30877000,0.0324,0.013523,0.002678,0.000431,0.004466
30878000,0.0324,0.013523,0.002678,0.000431,0.004701
30879000,0.0324,0.013523,0.002678,0.000431,0.004701
30880000,0.0324,0.013523,0.002678,0.000431,0.027502
30881000,0.0324,0.013523,0.002678,0.000431,0.004349
30882000,0.0324,0.013523,0.002678,0.000431,0.004584
30883000,0.0324,0.013523,0.002678,0.000431,0.004701
30884000,0.0324,0.013523,0.002678,0.000431,0.031027
30885000,0.0324,0.013523,0.002678,0.000431,0.008462
30886000,0.0324,0.013523,0.002678,0.000431,0.004701
30887000,0.0324,0.013523,0.002678,0.000431,0.004701
30888000,0.0324,0.013523,0.002678,0.000431,0.004701
30889000,0.0324,0.013523,0.002678,0.000431,0.004701
30890000,0.0324,0.013523,0.002678,0.000431,0.015984
30891000,0.0324,0.013523,0.002678,0.000431,0.008462
30892000,0.0324,0.013523,0.002678,0.000431,0.004701
30893000,0.0324,0.013523,0.002678,0.000431,0.004701
30894000,0.0324,0.013523,0.002678,0.000431,0.012223
30895000,0.0324,0.013523,0.002678,0.000431,0.004701
30896000,0.0324,0.013523,0.002678,0.000431,0.008462
30897000,0.0324,0.013523,0.002678,0.000431,0.008462
30898000,0.0324,0.013523,0.002678,0.000431,0.034788
30899000,0.0324,0.013523,0.002678,0.000431,0.004701
30900000,0.0324,0.013523,0.002678,0.000431,0.004701
30901000,0.0324,0.013523,0.002678,0.000431,0.004701
30902000,0.0324,0.013523,0.002678,0.000431,0.004701
30903000,0.0324,0.013523,0.002678,0.000431,0.019745
30904000,0.0324,0.013523,0.002678,0.000431,0.004701
30905000,0.0324,0.013523,0.002678,0.000431,0.019745
30906000,0.0324,0.013523,0.002678,0.000431,0.004701
30907000,0.0324,0.013523,0.002678,0.000431,0.004584
30908000,0.0324,0.013523,0.002678,0.000431,0.004584
30909000,0.0324,0.013523,0.002678,0.000431,0.012223
30910000,0.0324,0.013523,0.002678,0.000431,0.004701
30911000,0.0324,0.013523,0.002678,0.000431,0.006347
30912000,0.0324,0.013523,0.002678,0.000431,0.025621
30913000,0.0324,0.013523,0.002678,0.000431,0.012223
30914000,0.0324,0.013523,0.002678,0.000431,0.004701
30915000,0.0324,0.013523,0.002678,0.000431,0.004701
30916000,0.0324,0.013523,0.002678,0.000431,0.004701
30917000,0.0324,0.013523,0.002678,0.000431,0.004466
30918000,0.0324,0.013523,0.002678,0.000431,0.034788
30919000,0.0324,0.013523,0.002678,0.000431,0.034201
30920000,0.0324,0.013523,0.002678,0.000431,0.042898
30921000,0.0324,0.013523,0.002678,0.000431,0.004466
30922000,0.0324,0.013523,0.002678,0.000431,0.004466
30923000,0.0324,0.013523,0.002678,0.000431,0.019745
30924000,0.0324,0.013523,0.002678,0.000431,0.004701
30925000,0.0324,0.013523,0.002678,0.000431,0.004701
30926000,0.0324,0.013523,0.002678,0.000431,0.008462
30927000,0.0324,0.013523,0.002678,0.000431,0.008462
30928000,0.0324,0.013523,0.002678,0.000431,0.004701
30929000,0.0324,0.013523,0.002678,0.000431,0.064876
30930000,0.0324,0.013523,0.002678,0.000431,0.004701
30931000,0.0324,0.013523,0.002678,0.000431,0.034788
30932000,0.0324,0.013523,0.002678,0.000431,0.004701
30933000,0.0324,0.013523,0.002678,0.000431,0.004701
30934000,0.0324,0.013523,0.002678,0.000431,0.004701
30935000,0.0324,0.013523,0.002678,0.000431,0.019745
30936000,0.0324,0.013523,0.002678,0.000431,0.004701
30937000,0.0324,0.013523,0.002678,0.000431,0.033378
30938000,0.0324,0.013523,0.002678,0.000431,0.013633
30939000,0.0324,0.013523,0.002678,0.000431,0.004701
30940000,0.0324,0.013523,0.002678,0.000431,0.004701
30941000,0.0324,0.013523,0.002678,0.000431,0.004701
30942000,0.0324,0.013523,0.002678,0.000431,0.019745
30943000,0.0324,0.013523,0.002678,0.000431,0.004701
30944000,0.0324,0.013523,0.002678,0.000431,0.004701
30945000,0.0324,0.013523,0.002678,0.000431,0.012223
30946000,0.0324,0.013523,0.002678,0.000431,0.022683
30947000,0.0324,0.013523,0.002678,0.000431,0.107068
30948000,0.0324,0.013523,0.002678,0.000431,0.004466
30949000,0.0324,0.013523,0.002678,0.000431,0.004701
30950000,0.0324,0.013523,0.002678,0.000431,0.012223
30951000,0.0324,0.013523,0.002678,0.000431,0.004466
30952000,0.0324,0.013523,0.002678,0.000431,0.019745
30953000,0.0324,0.013523,0.002678,0.000431,0.004701
30954000,0.0324,0.013523,0.002678,0.000431,0.027737
30955000,0.0324,0.013523,0.002678,0.000431,0.049832
30956000,0.0324,0.013523,0.002678,0.000431,0.004701
30957000,0.0324,0.013523,0.002678,0.000431,0.004701
30958000,0.0324,0.013523,0.002678,0.000431,0.004701
30959000,0.0324,0.013523,0.002678,0.000431,0.004701
30960000,0.0324,0.013523,0.002678,0.000431,0.004701
30961000,0.0324,0.013523,0.002678,0.000431,0.049714
30962000,0.0324,0.013523,0.002678,0.000431,0.026914
30963000,0.0324,0.013523,0.002678,0.000431,0.004701
30964000,0.0324,0.013523,0.002678,0.000431,0.004701
30965000,0.0324,0.013523,0.002678,0.000431,0.004701
30966000,0.0324,0.013523,0.002678,0.000431,0.019745
30967000,0.0324,0.013523,0.002678,0.000431,0.042780
30968000,0.0324,0.013523,0.002678,0.000431,0.042310
30969000,0.0324,0.013523,0.002678,0.000431,0.004701
30970000,0.0324,0.013523,0.002678,0.000431,0.004701
30971000,0.0324,0.013523,0.002678,0.000431,0.008462
30972000,0.0324,0.013523,0.002678,0.000431,0.008462
30973000,0.0324,0.013523,0.002678,0.000431,0.004701
30974000,0.0324,0.013523,0.002678,0.000431,0.057354
30975000,0.0324,0.013523,0.002678,0.000431,0.004701
30976000,0.0324,0.013523,0.002678,0.000431,0.004701
30977000,0.0324,0.013523,0.002678,0.000431,0.004701
30978000,0.0324,0.013523,0.002678,0.000431,0.004701
30979000,0.0324,0.013523,0.002678,0.000431,0.034788
30980000,0.0324,0.013523,0.002678,0.000431,0.004701
30981000,0.0324,0.013523,0.002678,0.000431,0.012223
30982000,0.0324,0.013523,0.002678,0.000431,0.004701
30983000,0.0324,0.013523,0.002678,0.000431,0.004701
30984000,0.0324,0.013523,0.002678,0.000431,0.073690
30985000,0.0324,0.013523,0.002678,0.000431,0.078861
30986000,0.0324,0.013523,0.002678,0.000431,0.005524
30987000,0.0324,0.013523,0.002678,0.000431,0.011283
30988000,0.0324,0.013523,0.002678,0.000431,0.004349
30989000,0.0324,0.013523,0.002678,0.000431,0.004701
30990000,0.0324,0.013523,0.002678,0.000431,0.004701
30991000,0.0324,0.013523,0.002678,0.000431,0.027149
30992000,0.0324,0.013523,0.002678,0.000431,0.012105
30993000,0.0324,0.013523,0.002678,0.000431,0.004701
30994000,0.0324,0.013523,0.002678,0.000431,0.042780
30995000,0.0324,0.013523,0.002678,0.000431,0.004701
30996000,0.0324,0.013523,0.002678,0.000431,0.004701
30997000,0.0324,0.013523,0.002678,0.000431,0.027502
30998000,0.0324,0.013523,0.002678,0.000431,0.004701
30999000,0.0324,0.013523,0.002678,0.000431,0.004701
