Cycle,Area(mm^2),PeakDynamic(W),SubthresholdLeakage(W),GateLeakage(W),RunTimeDynamic(W)
29000000,0.0324,0.013523,0.002678,0.000431,0.015984
29001000,0.0324,0.013523,0.002678,0.000431,0.042310
29002000,0.0324,0.013523,0.002678,0.000431,0.013868
29003000,0.0324,0.013523,0.002678,0.000431,0.018334
29004000,0.0324,0.013523,0.002678,0.000431,0.004701
29005000,0.0324,0.013523,0.002678,0.000431,0.004701
29006000,0.0324,0.013523,0.002678,0.000431,0.072162
29007000,0.0324,0.013523,0.002678,0.000431,0.012223
29008000,0.0324,0.013523,0.002678,0.000431,0.012458
29009000,0.0324,0.013523,0.002678,0.000431,0.004701
29010000,0.0324,0.013523,0.002678,0.000431,0.004701
29011000,0.0324,0.013523,0.002678,0.000431,0.004701
29012000,0.0324,0.013523,0.002678,0.000431,0.004584
29013000,0.0324,0.013523,0.002678,0.000431,0.004819
29014000,0.0324,0.013523,0.002678,0.000431,0.004701
29015000,0.0324,0.013523,0.002678,0.000431,0.012105
29016000,0.0324,0.013523,0.002678,0.000431,0.004584
29017000,0.0324,0.013523,0.002678,0.000431,0.004701
29018000,0.0324,0.013523,0.002678,0.000431,0.004701
29019000,0.0324,0.013523,0.002678,0.000431,0.019745
29020000,0.0324,0.013523,0.002678,0.000431,0.064876
29021000,0.0324,0.013523,0.002678,0.000431,0.004701
29022000,0.0324,0.013523,0.002678,0.000431,0.019627
29023000,0.0324,0.013523,0.002678,0.000431,0.004584
29024000,0.0324,0.013523,0.002678,0.000431,0.004701
29025000,0.0324,0.013523,0.002678,0.000431,0.027267
29026000,0.0324,0.013523,0.002678,0.000431,0.023506
29027000,0.0324,0.013523,0.002678,0.000431,0.061115
29028000,0.0324,0.013523,0.002678,0.000431,0.004701
29029000,0.0324,0.013523,0.002678,0.000431,0.004701
29030000,0.0324,0.013523,0.002678,0.000431,0.004701
29031000,0.0324,0.013523,0.002678,0.000431,0.004701
29032000,0.0324,0.013523,0.002678,0.000431,0.027267
29033000,0.0324,0.013523,0.002678,0.000431,0.004819
29034000,0.0324,0.013523,0.002678,0.000431,0.004819
29035000,0.0324,0.013523,0.002678,0.000431,0.004701
29036000,0.0324,0.013523,0.002678,0.000431,0.004701
29037000,0.0324,0.013523,0.002678,0.000431,0.004701
29038000,0.0324,0.013523,0.002678,0.000431,0.004701
29039000,0.0324,0.013523,0.002678,0.000431,0.027267
29040000,0.0324,0.013523,0.002678,0.000431,0.019980
29041000,0.0324,0.013523,0.002678,0.000431,0.012223
29042000,0.0324,0.013523,0.002678,0.000431,0.004701
29043000,0.0324,0.013523,0.002678,0.000431,0.004701
29044000,0.0324,0.013523,0.002678,0.000431,0.004701
29045000,0.0324,0.013523,0.002678,0.000431,0.034788
29046000,0.0324,0.013523,0.002678,0.000431,0.011988
29047000,0.0324,0.013523,0.002678,0.000431,0.012223
29048000,0.0324,0.013523,0.002678,0.000431,0.004701
29049000,0.0324,0.013523,0.002678,0.000431,0.004701
29050000,0.0324,0.013523,0.002678,0.000431,0.004584
29051000,0.0324,0.013523,0.002678,0.000431,0.027384
29052000,0.0324,0.013523,0.002678,0.000431,0.065816
29053000,0.0324,0.013523,0.002678,0.000431,0.027267
29054000,0.0324,0.013523,0.002678,0.000431,0.004701
29055000,0.0324,0.013523,0.002678,0.000431,0.004701
29056000,0.0324,0.013523,0.002678,0.000431,0.004701
29057000,0.0324,0.013523,0.002678,0.000431,0.004701
29058000,0.0324,0.013523,0.002678,0.000431,0.035141
29059000,0.0324,0.013523,0.002678,0.000431,0.027384
29060000,0.0324,0.013523,0.002678,0.000431,0.004701
29061000,0.0324,0.013523,0.002678,0.000431,0.004701
29062000,0.0324,0.013523,0.002678,0.000431,0.004701
29063000,0.0324,0.013523,0.002678,0.000431,0.004466
29064000,0.0324,0.013523,0.002678,0.000431,0.027502
29065000,0.0324,0.013523,0.002678,0.000431,0.027267
29066000,0.0324,0.013523,0.002678,0.000431,0.004701
29067000,0.0324,0.013523,0.002678,0.000431,0.004936
29068000,0.0324,0.013523,0.002678,0.000431,0.004701
29069000,0.0324,0.013523,0.002678,0.000431,0.004701
29070000,0.0324,0.013523,0.002678,0.000431,0.053475
29071000,0.0324,0.013523,0.002678,0.000431,0.023623
29072000,0.0324,0.013523,0.002678,0.000431,0.004701
29073000,0.0324,0.013523,0.002678,0.000431,0.005171
29074000,0.0324,0.013523,0.002678,0.000431,0.019157
29075000,0.0324,0.013523,0.002678,0.000431,0.015161
29076000,0.0324,0.013523,0.002678,0.000431,0.004701
29077000,0.0324,0.013523,0.002678,0.000431,0.012223
29078000,0.0324,0.013523,0.002678,0.000431,0.012223
29079000,0.0324,0.013523,0.002678,0.000431,0.004701
29080000,0.0324,0.013523,0.002678,0.000431,0.045366
29081000,0.0324,0.013523,0.002678,0.000431,0.024211
29082000,0.0324,0.013523,0.002678,0.000431,0.004701
29083000,0.0324,0.013523,0.002678,0.000431,0.042310
29084000,0.0324,0.013523,0.002678,0.000431,0.004701
29085000,0.0324,0.013523,0.002678,0.000431,0.004701
29086000,0.0324,0.013523,0.002678,0.000431,0.004584
29087000,0.0324,0.013523,0.002678,0.000431,0.004584
29088000,0.0324,0.013523,0.002678,0.000431,0.004701
29089000,0.0324,0.013523,0.002678,0.000431,0.012340
29090000,0.0324,0.013523,0.002678,0.000431,0.034553
29091000,0.0324,0.013523,0.002678,0.000431,0.004584
29092000,0.0324,0.013523,0.002678,0.000431,0.004701
29093000,0.0324,0.013523,0.002678,0.000431,0.004701
29094000,0.0324,0.013523,0.002678,0.000431,0.004701
29095000,0.0324,0.013523,0.002678,0.000431,0.004701
29096000,0.0324,0.013523,0.002678,0.000431,0.012223
29097000,0.0324,0.013523,0.002678,0.000431,0.004701
29098000,0.0324,0.013523,0.002678,0.000431,0.004701
29099000,0.0324,0.013523,0.002678,0.000431,0.004701
29100000,0.0324,0.013523,0.002678,0.000431,0.004701
29101000,0.0324,0.013523,0.002678,0.000431,0.004701
29102000,0.0324,0.013523,0.002678,0.000431,0.004701
29103000,0.0324,0.013523,0.002678,0.000431,0.077569
29104000,0.0324,0.013523,0.002678,0.000431,0.044191
29105000,0.0324,0.013523,0.002678,0.000431,0.004701
29106000,0.0324,0.013523,0.002678,0.000431,0.004936
29107000,0.0324,0.013523,0.002678,0.000431,0.004701
29108000,0.0324,0.013523,0.002678,0.000431,0.004701
29109000,0.0324,0.013523,0.002678,0.000431,0.007287
29110000,0.0324,0.013523,0.002678,0.000431,0.105188
29111000,0.0324,0.013523,0.002678,0.000431,0.006934
29112000,0.0324,0.013523,0.002678,0.000431,0.004701
29113000,0.0324,0.013523,0.002678,0.000431,0.005524
29114000,0.0324,0.013523,0.002678,0.000431,0.005876
29115000,0.0324,0.013523,0.002678,0.000431,0.005641
29116000,0.0324,0.013523,0.002678,0.000431,0.013398
29117000,0.0324,0.013523,0.002678,0.000431,0.035376
29118000,0.0324,0.013523,0.002678,0.000431,0.004701
29119000,0.0324,0.013523,0.002678,0.000431,0.004701
29120000,0.0324,0.013523,0.002678,0.000431,0.004701
29121000,0.0324,0.013523,0.002678,0.000431,0.004701
29122000,0.0324,0.013523,0.002678,0.000431,0.007757
29123000,0.0324,0.013523,0.002678,0.000431,0.022800
29124000,0.0324,0.013523,0.002678,0.000431,0.004701
29125000,0.0324,0.013523,0.002678,0.000431,0.004701
29126000,0.0324,0.013523,0.002678,0.000431,0.027149
29127000,0.0324,0.013523,0.002678,0.000431,0.049714
29128000,0.0324,0.013523,0.002678,0.000431,0.004701
29129000,0.0324,0.013523,0.002678,0.000431,0.004701
29130000,0.0324,0.013523,0.002678,0.000431,0.004701
29131000,0.0324,0.013523,0.002678,0.000431,0.004701
29132000,0.0324,0.013523,0.002678,0.000431,0.012458
29133000,0.0324,0.013523,0.002678,0.000431,0.004701
29134000,0.0324,0.013523,0.002678,0.000431,0.004701
29135000,0.0324,0.013523,0.002678,0.000431,0.042310
29136000,0.0324,0.013523,0.002678,0.000431,0.045248
29137000,0.0324,0.013523,0.002678,0.000431,0.017277
29138000,0.0324,0.013523,0.002678,0.000431,0.004701
29139000,0.0324,0.013523,0.002678,0.000431,0.004701
29140000,0.0324,0.013523,0.002678,0.000431,0.004701
29141000,0.0324,0.013523,0.002678,0.000431,0.079919
29142000,0.0324,0.013523,0.002678,0.000431,0.080154
29143000,0.0324,0.013523,0.002678,0.000431,0.132924
29144000,0.0324,0.013523,0.002678,0.000431,0.042193
29145000,0.0324,0.013523,0.002678,0.000431,0.004701
29146000,0.0324,0.013523,0.002678,0.000431,0.004701
29147000,0.0324,0.013523,0.002678,0.000431,0.004466
29148000,0.0324,0.013523,0.002678,0.000431,0.050302
29149000,0.0324,0.013523,0.002678,0.000431,0.015984
29150000,0.0324,0.013523,0.002678,0.000431,0.015749
29151000,0.0324,0.013523,0.002678,0.000431,0.004701
29152000,0.0324,0.013523,0.002678,0.000431,0.004701
29153000,0.0324,0.013523,0.002678,0.000431,0.004701
29154000,0.0324,0.013523,0.002678,0.000431,0.035494
29155000,0.0324,0.013523,0.002678,0.000431,0.018922
29156000,0.0324,0.013523,0.002678,0.000431,0.019862
29157000,0.0324,0.013523,0.002678,0.000431,0.004701
29158000,0.0324,0.013523,0.002678,0.000431,0.004701
29159000,0.0324,0.013523,0.002678,0.000431,0.004701
29160000,0.0324,0.013523,0.002678,0.000431,0.008462
29161000,0.0324,0.013523,0.002678,0.000431,0.061115
29162000,0.0324,0.013523,0.002678,0.000431,0.004701
29163000,0.0324,0.013523,0.002678,0.000431,0.004701
29164000,0.0324,0.013523,0.002678,0.000431,0.004701
29165000,0.0324,0.013523,0.002678,0.000431,0.004701
29166000,0.0324,0.013523,0.002678,0.000431,0.004701
29167000,0.0324,0.013523,0.002678,0.000431,0.012223
29168000,0.0324,0.013523,0.002678,0.000431,0.080389
29169000,0.0324,0.013523,0.002678,0.000431,0.004701
29170000,0.0324,0.013523,0.002678,0.000431,0.004701
29171000,0.0324,0.013523,0.002678,0.000431,0.004701
29172000,0.0324,0.013523,0.002678,0.000431,0.004701
29173000,0.0324,0.013523,0.002678,0.000431,0.017864
29174000,0.0324,0.013523,0.002678,0.000431,0.082270
29175000,0.0324,0.013523,0.002678,0.000431,0.019745
29176000,0.0324,0.013523,0.002678,0.000431,0.004701
29177000,0.0324,0.013523,0.002678,0.000431,0.004701
29178000,0.0324,0.013523,0.002678,0.000431,0.004701
29179000,0.0324,0.013523,0.002678,0.000431,0.004701
29180000,0.0324,0.013523,0.002678,0.000431,0.004936
29181000,0.0324,0.013523,0.002678,0.000431,0.026914
29182000,0.0324,0.013523,0.002678,0.000431,0.020097
29183000,0.0324,0.013523,0.002678,0.000431,0.004466
29184000,0.0324,0.013523,0.002678,0.000431,0.004701
29185000,0.0324,0.013523,0.002678,0.000431,0.004701
29186000,0.0324,0.013523,0.002678,0.000431,0.017512
29187000,0.0324,0.013523,0.002678,0.000431,0.036786
29188000,0.0324,0.013523,0.002678,0.000431,0.019745
29189000,0.0324,0.013523,0.002678,0.000431,0.004701
29190000,0.0324,0.013523,0.002678,0.000431,0.004701
29191000,0.0324,0.013523,0.002678,0.000431,0.004701
29192000,0.0324,0.013523,0.002678,0.000431,0.004701
29193000,0.0324,0.013523,0.002678,0.000431,0.021978
29194000,0.0324,0.013523,0.002678,0.000431,0.017512
29195000,0.0324,0.013523,0.002678,0.000431,0.004701
29196000,0.0324,0.013523,0.002678,0.000431,0.090262
29197000,0.0324,0.013523,0.002678,0.000431,0.004701
29198000,0.0324,0.013523,0.002678,0.000431,0.004701
29199000,0.0324,0.013523,0.002678,0.000431,0.004936
29200000,0.0324,0.013523,0.002678,0.000431,0.004701
29201000,0.0324,0.013523,0.002678,0.000431,0.012458
29202000,0.0324,0.013523,0.002678,0.000431,0.087206
29203000,0.0324,0.013523,0.002678,0.000431,0.004701
29204000,0.0324,0.013523,0.002678,0.000431,0.004701
29205000,0.0324,0.013523,0.002678,0.000431,0.030205
29206000,0.0324,0.013523,0.002678,0.000431,0.016807
29207000,0.0324,0.013523,0.002678,0.000431,0.019745
29208000,0.0324,0.013523,0.002678,0.000431,0.004701
29209000,0.0324,0.013523,0.002678,0.000431,0.087206
29210000,0.0324,0.013523,0.002678,0.000431,0.004701
29211000,0.0324,0.013523,0.002678,0.000431,0.004466
29212000,0.0324,0.013523,0.002678,0.000431,0.012223
29213000,0.0324,0.013523,0.002678,0.000431,0.004701
29214000,0.0324,0.013523,0.002678,0.000431,0.004701
29215000,0.0324,0.013523,0.002678,0.000431,0.049949
29216000,0.0324,0.013523,0.002678,0.000431,0.004819
29217000,0.0324,0.013523,0.002678,0.000431,0.004701
29218000,0.0324,0.013523,0.002678,0.000431,0.019980
29219000,0.0324,0.013523,0.002678,0.000431,0.004701
29220000,0.0324,0.013523,0.002678,0.000431,0.012223
29221000,0.0324,0.013523,0.002678,0.000431,0.004701
29222000,0.0324,0.013523,0.002678,0.000431,0.004936
29223000,0.0324,0.013523,0.002678,0.000431,0.004466
29224000,0.0324,0.013523,0.002678,0.000431,0.004701
29225000,0.0324,0.013523,0.002678,0.000431,0.012223
29226000,0.0324,0.013523,0.002678,0.000431,0.008815
29227000,0.0324,0.013523,0.002678,0.000431,0.007757
29228000,0.0324,0.013523,0.002678,0.000431,0.034671
29229000,0.0324,0.013523,0.002678,0.000431,0.004701
29230000,0.0324,0.013523,0.002678,0.000431,0.004701
29231000,0.0324,0.013523,0.002678,0.000431,0.019745
29232000,0.0324,0.013523,0.002678,0.000431,0.004701
29233000,0.0324,0.013523,0.002678,0.000431,0.012223
29234000,0.0324,0.013523,0.002678,0.000431,0.004584
29235000,0.0324,0.013523,0.002678,0.000431,0.012105
29236000,0.0324,0.013523,0.002678,0.000431,0.005524
29237000,0.0324,0.013523,0.002678,0.000431,0.035964
29238000,0.0324,0.013523,0.002678,0.000431,0.005876
29239000,0.0324,0.013523,0.002678,0.000431,0.013046
29240000,0.0324,0.013523,0.002678,0.000431,0.004701
29241000,0.0324,0.013523,0.002678,0.000431,0.004701
29242000,0.0324,0.013523,0.002678,0.000431,0.004701
29243000,0.0324,0.013523,0.002678,0.000431,0.045013
29244000,0.0324,0.013523,0.002678,0.000431,0.088029
29245000,0.0324,0.013523,0.002678,0.000431,0.004701
29246000,0.0324,0.013523,0.002678,0.000431,0.042310
29247000,0.0324,0.013523,0.002678,0.000431,0.004701
29248000,0.0324,0.013523,0.002678,0.000431,0.004701
29249000,0.0324,0.013523,0.002678,0.000431,0.004701
29250000,0.0324,0.013523,0.002678,0.000431,0.019862
29251000,0.0324,0.013523,0.002678,0.000431,0.004584
29252000,0.0324,0.013523,0.002678,0.000431,0.004701
29253000,0.0324,0.013523,0.002678,0.000431,0.004701
29254000,0.0324,0.013523,0.002678,0.000431,0.034788
29255000,0.0324,0.013523,0.002678,0.000431,0.004701
29256000,0.0324,0.013523,0.002678,0.000431,0.004701
29257000,0.0324,0.013523,0.002678,0.000431,0.064876
29258000,0.0324,0.013523,0.002678,0.000431,0.004701
29259000,0.0324,0.013523,0.002678,0.000431,0.004701
29260000,0.0324,0.013523,0.002678,0.000431,0.012223
29261000,0.0324,0.013523,0.002678,0.000431,0.012223
29262000,0.0324,0.013523,0.002678,0.000431,0.004701
29263000,0.0324,0.013523,0.002678,0.000431,0.036081
29264000,0.0324,0.013523,0.002678,0.000431,0.005994
29265000,0.0324,0.013523,0.002678,0.000431,0.064758
29266000,0.0324,0.013523,0.002678,0.000431,0.012105
29267000,0.0324,0.013523,0.002678,0.000431,0.012223
29268000,0.0324,0.013523,0.002678,0.000431,0.004701
29269000,0.0324,0.013523,0.002678,0.000431,0.027267
29270000,0.0324,0.013523,0.002678,0.000431,0.004701
29271000,0.0324,0.013523,0.002678,0.000431,0.004701
29272000,0.0324,0.013523,0.002678,0.000431,0.004936
29273000,0.0324,0.013523,0.002678,0.000431,0.004701
29274000,0.0324,0.013523,0.002678,0.000431,0.004701
29275000,0.0324,0.013523,0.002678,0.000431,0.019510
29276000,0.0324,0.013523,0.002678,0.000431,0.023506
29277000,0.0324,0.013523,0.002678,0.000431,0.008462
29278000,0.0324,0.013523,0.002678,0.000431,0.004701
29279000,0.0324,0.013523,0.002678,0.000431,0.004701
29280000,0.0324,0.013523,0.002678,0.000431,0.012223
29281000,0.0324,0.013523,0.002678,0.000431,0.004701
29282000,0.0324,0.013523,0.002678,0.000431,0.004819
29283000,0.0324,0.013523,0.002678,0.000431,0.004819
29284000,0.0324,0.013523,0.002678,0.000431,0.004701
29285000,0.0324,0.013523,0.002678,0.000431,0.004701
29286000,0.0324,0.013523,0.002678,0.000431,0.027267
29287000,0.0324,0.013523,0.002678,0.000431,0.004701
29288000,0.0324,0.013523,0.002678,0.000431,0.004701
29289000,0.0324,0.013523,0.002678,0.000431,0.012223
29290000,0.0324,0.013523,0.002678,0.000431,0.019745
29291000,0.0324,0.013523,0.002678,0.000431,0.012105
29292000,0.0324,0.013523,0.002678,0.000431,0.027149
29293000,0.0324,0.013523,0.002678,0.000431,0.005054
29294000,0.0324,0.013523,0.002678,0.000431,0.005876
29295000,0.0324,0.013523,0.002678,0.000431,0.005876
29296000,0.0324,0.013523,0.002678,0.000431,0.008932
29297000,0.0324,0.013523,0.002678,0.000431,0.012576
29298000,0.0324,0.013523,0.002678,0.000431,0.004701
29299000,0.0324,0.013523,0.002678,0.000431,0.004936
29300000,0.0324,0.013523,0.002678,0.000431,0.004701
29301000,0.0324,0.013523,0.002678,0.000431,0.004584
29302000,0.0324,0.013523,0.002678,0.000431,0.004584
29303000,0.0324,0.013523,0.002678,0.000431,0.027149
29304000,0.0324,0.013523,0.002678,0.000431,0.027149
29305000,0.0324,0.013523,0.002678,0.000431,0.012223
29306000,0.0324,0.013523,0.002678,0.000431,0.027267
29307000,0.0324,0.013523,0.002678,0.000431,0.004701
29308000,0.0324,0.013523,0.002678,0.000431,0.004701
29309000,0.0324,0.013523,0.002678,0.000431,0.004701
29310000,0.0324,0.013523,0.002678,0.000431,0.004701
29311000,0.0324,0.013523,0.002678,0.000431,0.023741
29312000,0.0324,0.013523,0.002678,0.000431,0.015984
29313000,0.0324,0.013523,0.002678,0.000431,0.034788
29314000,0.0324,0.013523,0.002678,0.000431,0.004584
29315000,0.0324,0.013523,0.002678,0.000431,0.004349
29316000,0.0324,0.013523,0.002678,0.000431,0.064641
29317000,0.0324,0.013523,0.002678,0.000431,0.004701
29318000,0.0324,0.013523,0.002678,0.000431,0.004701
29319000,0.0324,0.013523,0.002678,0.000431,0.087323
29320000,0.0324,0.013523,0.002678,0.000431,0.012340
29321000,0.0324,0.013523,0.002678,0.000431,0.004701
29322000,0.0324,0.013523,0.002678,0.000431,0.053123
29323000,0.0324,0.013523,0.002678,0.000431,0.031733
29324000,0.0324,0.013523,0.002678,0.000431,0.004701
29325000,0.0324,0.013523,0.002678,0.000431,0.008462
29326000,0.0324,0.013523,0.002678,0.000431,0.023741
29327000,0.0324,0.013523,0.002678,0.000431,0.004701
29328000,0.0324,0.013523,0.002678,0.000431,0.008697
29329000,0.0324,0.013523,0.002678,0.000431,0.015514
29330000,0.0324,0.013523,0.002678,0.000431,0.004701
29331000,0.0324,0.013523,0.002678,0.000431,0.019862
29332000,0.0324,0.013523,0.002678,0.000431,0.019862
29333000,0.0324,0.013523,0.002678,0.000431,0.016689
29334000,0.0324,0.013523,0.002678,0.000431,0.004701
29335000,0.0324,0.013523,0.002678,0.000431,0.041840
29336000,0.0324,0.013523,0.002678,0.000431,0.004819
29337000,0.0324,0.013523,0.002678,0.000431,0.011870
29338000,0.0324,0.013523,0.002678,0.000431,0.011518
29339000,0.0324,0.013523,0.002678,0.000431,0.023506
29340000,0.0324,0.013523,0.002678,0.000431,0.004701
29341000,0.0324,0.013523,0.002678,0.000431,0.008697
29342000,0.0324,0.013523,0.002678,0.000431,0.015514
29343000,0.0324,0.013523,0.002678,0.000431,0.013516
29344000,0.0324,0.013523,0.002678,0.000431,0.024563
29345000,0.0324,0.013523,0.002678,0.000431,0.011988
29346000,0.0324,0.013523,0.002678,0.000431,0.019745
29347000,0.0324,0.013523,0.002678,0.000431,0.004701
29348000,0.0324,0.013523,0.002678,0.000431,0.049597
29349000,0.0324,0.013523,0.002678,0.000431,0.004701
29350000,0.0324,0.013523,0.002678,0.000431,0.004701
29351000,0.0324,0.013523,0.002678,0.000431,0.019040
29352000,0.0324,0.013523,0.002678,0.000431,0.004701
29353000,0.0324,0.013523,0.002678,0.000431,0.004936
29354000,0.0324,0.013523,0.002678,0.000431,0.008462
29355000,0.0324,0.013523,0.002678,0.000431,0.008462
29356000,0.0324,0.013523,0.002678,0.000431,0.004701
29357000,0.0324,0.013523,0.002678,0.000431,0.004701
29358000,0.0324,0.013523,0.002678,0.000431,0.004936
29359000,0.0324,0.013523,0.002678,0.000431,0.004701
29360000,0.0324,0.013523,0.002678,0.000431,0.065228
29361000,0.0324,0.013523,0.002678,0.000431,0.012340
29362000,0.0324,0.013523,0.002678,0.000431,0.004701
29363000,0.0324,0.013523,0.002678,0.000431,0.004701
29364000,0.0324,0.013523,0.002678,0.000431,0.015631
29365000,0.0324,0.013523,0.002678,0.000431,0.029852
29366000,0.0324,0.013523,0.002678,0.000431,0.004584
29367000,0.0324,0.013523,0.002678,0.000431,0.031262
29368000,0.0324,0.013523,0.002678,0.000431,0.007757
29369000,0.0324,0.013523,0.002678,0.000431,0.004701
29370000,0.0324,0.013523,0.002678,0.000431,0.004701
29371000,0.0324,0.013523,0.002678,0.000431,0.004701
29372000,0.0324,0.013523,0.002678,0.000431,0.019157
29373000,0.0324,0.013523,0.002678,0.000431,0.004584
29374000,0.0324,0.013523,0.002678,0.000431,0.019745
29375000,0.0324,0.013523,0.002678,0.000431,0.004701
29376000,0.0324,0.013523,0.002678,0.000431,0.004701
29377000,0.0324,0.013523,0.002678,0.000431,0.004701
29378000,0.0324,0.013523,0.002678,0.000431,0.004701
29379000,0.0324,0.013523,0.002678,0.000431,0.004936
29380000,0.0324,0.013523,0.002678,0.000431,0.004701
29381000,0.0324,0.013523,0.002678,0.000431,0.004701
29382000,0.0324,0.013523,0.002678,0.000431,0.004701
29383000,0.0324,0.013523,0.002678,0.000431,0.011635
29384000,0.0324,0.013523,0.002678,0.000431,0.008345
29385000,0.0324,0.013523,0.002678,0.000431,0.004701
29386000,0.0324,0.013523,0.002678,0.000431,0.004701
29387000,0.0324,0.013523,0.002678,0.000431,0.012223
29388000,0.0324,0.013523,0.002678,0.000431,0.004701
29389000,0.0324,0.013523,0.002678,0.000431,0.004701
29390000,0.0324,0.013523,0.002678,0.000431,0.004701
29391000,0.0324,0.013523,0.002678,0.000431,0.004701
29392000,0.0324,0.013523,0.002678,0.000431,0.008345
29393000,0.0324,0.013523,0.002678,0.000431,0.060997
29394000,0.0324,0.013523,0.002678,0.000431,0.004701
29395000,0.0324,0.013523,0.002678,0.000431,0.004701
29396000,0.0324,0.013523,0.002678,0.000431,0.004701
29397000,0.0324,0.013523,0.002678,0.000431,0.004701
29398000,0.0324,0.013523,0.002678,0.000431,0.004701
29399000,0.0324,0.013523,0.002678,0.000431,0.011988
29400000,0.0324,0.013523,0.002678,0.000431,0.004701
29401000,0.0324,0.013523,0.002678,0.000431,0.004701
29402000,0.0324,0.013523,0.002678,0.000431,0.004701
29403000,0.0324,0.013523,0.002678,0.000431,0.004701
29404000,0.0324,0.013523,0.002678,0.000431,0.004701
29405000,0.0324,0.013523,0.002678,0.000431,0.004701
29406000,0.0324,0.013523,0.002678,0.000431,0.045013
29407000,0.0324,0.013523,0.002678,0.000431,0.008345
29408000,0.0324,0.013523,0.002678,0.000431,0.004584
29409000,0.0324,0.013523,0.002678,0.000431,0.033848
29410000,0.0324,0.013523,0.002678,0.000431,0.004584
29411000,0.0324,0.013523,0.002678,0.000431,0.004466
29412000,0.0324,0.013523,0.002678,0.000431,0.004701
29413000,0.0324,0.013523,0.002678,0.000431,0.015396
29414000,0.0324,0.013523,0.002678,0.000431,0.008109
29415000,0.0324,0.013523,0.002678,0.000431,0.004701
29416000,0.0324,0.013523,0.002678,0.000431,0.004701
29417000,0.0324,0.013523,0.002678,0.000431,0.004701
29418000,0.0324,0.013523,0.002678,0.000431,0.004701
29419000,0.0324,0.013523,0.002678,0.000431,0.004701
29420000,0.0324,0.013523,0.002678,0.000431,0.004936
29421000,0.0324,0.013523,0.002678,0.000431,0.004701
29422000,0.0324,0.013523,0.002678,0.000431,0.004701
29423000,0.0324,0.013523,0.002678,0.000431,0.004701
29424000,0.0324,0.013523,0.002678,0.000431,0.004701
29425000,0.0324,0.013523,0.002678,0.000431,0.004701
29426000,0.0324,0.013523,0.002678,0.000431,0.034553
29427000,0.0324,0.013523,0.002678,0.000431,0.015749
29428000,0.0324,0.013523,0.002678,0.000431,0.004466
29429000,0.0324,0.013523,0.002678,0.000431,0.004701
29430000,0.0324,0.013523,0.002678,0.000431,0.004701
29431000,0.0324,0.013523,0.002678,0.000431,0.004466
29432000,0.0324,0.013523,0.002678,0.000431,0.004701
29433000,0.0324,0.013523,0.002678,0.000431,0.011988
29434000,0.0324,0.013523,0.002678,0.000431,0.004701
29435000,0.0324,0.013523,0.002678,0.000431,0.004701
29436000,0.0324,0.013523,0.002678,0.000431,0.004701
29437000,0.0324,0.013523,0.002678,0.000431,0.004701
29438000,0.0324,0.013523,0.002678,0.000431,0.042310
29439000,0.0324,0.013523,0.002678,0.000431,0.038549
29440000,0.0324,0.013523,0.002678,0.000431,0.170298
29441000,0.0324,0.013523,0.002678,0.000431,0.044778
29442000,0.0324,0.013523,0.002678,0.000431,0.004701
29443000,0.0324,0.013523,0.002678,0.000431,0.004701
29444000,0.0324,0.013523,0.002678,0.000431,0.004701
29445000,0.0324,0.013523,0.002678,0.000431,0.004701
29446000,0.0324,0.013523,0.002678,0.000431,0.004701
29447000,0.0324,0.013523,0.002678,0.000431,0.004701
29448000,0.0324,0.013523,0.002678,0.000431,0.004701
29449000,0.0324,0.013523,0.002678,0.000431,0.046659
29450000,0.0324,0.013523,0.002678,0.000431,0.015161
29451000,0.0324,0.013523,0.002678,0.000431,0.004701
29452000,0.0324,0.013523,0.002678,0.000431,0.004701
29453000,0.0324,0.013523,0.002678,0.000431,0.021625
29454000,0.0324,0.013523,0.002678,0.000431,0.010342
29455000,0.0324,0.013523,0.002678,0.000431,0.004701
29456000,0.0324,0.013523,0.002678,0.000431,0.042310
29457000,0.0324,0.013523,0.002678,0.000431,0.004701
29458000,0.0324,0.013523,0.002678,0.000431,0.004701
29459000,0.0324,0.013523,0.002678,0.000431,0.004701
29460000,0.0324,0.013523,0.002678,0.000431,0.012223
29461000,0.0324,0.013523,0.002678,0.000431,0.004701
29462000,0.0324,0.013523,0.002678,0.000431,0.009402
29463000,0.0324,0.013523,0.002678,0.000431,0.177703
29464000,0.0324,0.013523,0.002678,0.000431,0.072397
29465000,0.0324,0.013523,0.002678,0.000431,0.004701
29466000,0.0324,0.013523,0.002678,0.000431,0.004701
29467000,0.0324,0.013523,0.002678,0.000431,0.012223
29468000,0.0324,0.013523,0.002678,0.000431,0.004701
29469000,0.0324,0.013523,0.002678,0.000431,0.004584
29470000,0.0324,0.013523,0.002678,0.000431,0.012105
29471000,0.0324,0.013523,0.002678,0.000431,0.004466
29472000,0.0324,0.013523,0.002678,0.000431,0.004701
29473000,0.0324,0.013523,0.002678,0.000431,0.004701
29474000,0.0324,0.013523,0.002678,0.000431,0.004701
29475000,0.0324,0.013523,0.002678,0.000431,0.004701
29476000,0.0324,0.013523,0.002678,0.000431,0.004701
29477000,0.0324,0.013523,0.002678,0.000431,0.012223
29478000,0.0324,0.013523,0.002678,0.000431,0.004701
29479000,0.0324,0.013523,0.002678,0.000431,0.004701
29480000,0.0324,0.013523,0.002678,0.000431,0.019745
29481000,0.0324,0.013523,0.002678,0.000431,0.019745
29482000,0.0324,0.013523,0.002678,0.000431,0.004701
29483000,0.0324,0.013523,0.002678,0.000431,0.004701
29484000,0.0324,0.013523,0.002678,0.000431,0.004701
29485000,0.0324,0.013523,0.002678,0.000431,0.004701
29486000,0.0324,0.013523,0.002678,0.000431,0.004701
29487000,0.0324,0.013523,0.002678,0.000431,0.064876
29488000,0.0324,0.013523,0.002678,0.000431,0.078861
29489000,0.0324,0.013523,0.002678,0.000431,0.171004
29490000,0.0324,0.013523,0.002678,0.000431,0.027267
29491000,0.0324,0.013523,0.002678,0.000431,0.004701
29492000,0.0324,0.013523,0.002678,0.000431,0.004701
29493000,0.0324,0.013523,0.002678,0.000431,0.004701
29494000,0.0324,0.013523,0.002678,0.000431,0.004466
29495000,0.0324,0.013523,0.002678,0.000431,0.004701
29496000,0.0324,0.013523,0.002678,0.000431,0.004701
29497000,0.0324,0.013523,0.002678,0.000431,0.004701
29498000,0.0324,0.013523,0.002678,0.000431,0.023153
29499000,0.0324,0.013523,0.002678,0.000431,0.075806
29500000,0.0324,0.013523,0.002678,0.000431,0.004701
29501000,0.0324,0.013523,0.002678,0.000431,0.004701
29502000,0.0324,0.013523,0.002678,0.000431,0.004701
29503000,0.0324,0.013523,0.002678,0.000431,0.004701
29504000,0.0324,0.013523,0.002678,0.000431,0.004701
29505000,0.0324,0.013523,0.002678,0.000431,0.012223
29506000,0.0324,0.013523,0.002678,0.000431,0.047011
29507000,0.0324,0.013523,0.002678,0.000431,0.171239
29508000,0.0324,0.013523,0.002678,0.000431,0.049949
29509000,0.0324,0.013523,0.002678,0.000431,0.004584
29510000,0.0324,0.013523,0.002678,0.000431,0.004584
29511000,0.0324,0.013523,0.002678,0.000431,0.004701
29512000,0.0324,0.013523,0.002678,0.000431,0.004701
29513000,0.0324,0.013523,0.002678,0.000431,0.004701
29514000,0.0324,0.013523,0.002678,0.000431,0.012223
29515000,0.0324,0.013523,0.002678,0.000431,0.004701
29516000,0.0324,0.013523,0.002678,0.000431,0.004701
29517000,0.0324,0.013523,0.002678,0.000431,0.004701
29518000,0.0324,0.013523,0.002678,0.000431,0.004701
29519000,0.0324,0.013523,0.002678,0.000431,0.004701
29520000,0.0324,0.013523,0.002678,0.000431,0.004701
29521000,0.0324,0.013523,0.002678,0.000431,0.004701
29522000,0.0324,0.013523,0.002678,0.000431,0.004701
29523000,0.0324,0.013523,0.002678,0.000431,0.004701
29524000,0.0324,0.013523,0.002678,0.000431,0.004701
29525000,0.0324,0.013523,0.002678,0.000431,0.012223
29526000,0.0324,0.013523,0.002678,0.000431,0.004701
29527000,0.0324,0.013523,0.002678,0.000431,0.004701
29528000,0.0324,0.013523,0.002678,0.000431,0.004701
29529000,0.0324,0.013523,0.002678,0.000431,0.004701
29530000,0.0324,0.013523,0.002678,0.000431,0.004701
29531000,0.0324,0.013523,0.002678,0.000431,0.040430
29532000,0.0324,0.013523,0.002678,0.000431,0.059234
29533000,0.0324,0.013523,0.002678,0.000431,0.004584
29534000,0.0324,0.013523,0.002678,0.000431,0.004466
29535000,0.0324,0.013523,0.002678,0.000431,0.004584
29536000,0.0324,0.013523,0.002678,0.000431,0.011988
29537000,0.0324,0.013523,0.002678,0.000431,0.004701
29538000,0.0324,0.013523,0.002678,0.000431,0.004701
29539000,0.0324,0.013523,0.002678,0.000431,0.004701
29540000,0.0324,0.013523,0.002678,0.000431,0.019745
29541000,0.0324,0.013523,0.002678,0.000431,0.004701
29542000,0.0324,0.013523,0.002678,0.000431,0.008462
29543000,0.0324,0.013523,0.002678,0.000431,0.008462
29544000,0.0324,0.013523,0.002678,0.000431,0.023153
29545000,0.0324,0.013523,0.002678,0.000431,0.169828
29546000,0.0324,0.013523,0.002678,0.000431,0.128106
29547000,0.0324,0.013523,0.002678,0.000431,0.004466
29548000,0.0324,0.013523,0.002678,0.000431,0.004701
29549000,0.0324,0.013523,0.002678,0.000431,0.004701
29550000,0.0324,0.013523,0.002678,0.000431,0.004701
29551000,0.0324,0.013523,0.002678,0.000431,0.004701
29552000,0.0324,0.013523,0.002678,0.000431,0.004701
29553000,0.0324,0.013523,0.002678,0.000431,0.019745
29554000,0.0324,0.013523,0.002678,0.000431,0.004701
29555000,0.0324,0.013523,0.002678,0.000431,0.012223
29556000,0.0324,0.013523,0.002678,0.000431,0.012223
29557000,0.0324,0.013523,0.002678,0.000431,0.004701
29558000,0.0324,0.013523,0.002678,0.000431,0.004701
29559000,0.0324,0.013523,0.002678,0.000431,0.019745
29560000,0.0324,0.013523,0.002678,0.000431,0.004701
29561000,0.0324,0.013523,0.002678,0.000431,0.008462
29562000,0.0324,0.013523,0.002678,0.000431,0.008462
29563000,0.0324,0.013523,0.002678,0.000431,0.004701
29564000,0.0324,0.013523,0.002678,0.000431,0.004701
29565000,0.0324,0.013523,0.002678,0.000431,0.004701
29566000,0.0324,0.013523,0.002678,0.000431,0.016454
29567000,0.0324,0.013523,0.002678,0.000431,0.007992
29568000,0.0324,0.013523,0.002678,0.000431,0.034788
29569000,0.0324,0.013523,0.002678,0.000431,0.140916
29570000,0.0324,0.013523,0.002678,0.000431,0.178408
29571000,0.0324,0.013523,0.002678,0.000431,0.113650
29572000,0.0324,0.013523,0.002678,0.000431,0.019745
29573000,0.0324,0.013523,0.002678,0.000431,0.004584
29574000,0.0324,0.013523,0.002678,0.000431,0.004584
29575000,0.0324,0.013523,0.002678,0.000431,0.019745
29576000,0.0324,0.013523,0.002678,0.000431,0.004701
29577000,0.0324,0.013523,0.002678,0.000431,0.012223
29578000,0.0324,0.013523,0.002678,0.000431,0.012223
29579000,0.0324,0.013523,0.002678,0.000431,0.004701
29580000,0.0324,0.013523,0.002678,0.000431,0.004701
29581000,0.0324,0.013523,0.002678,0.000431,0.004701
29582000,0.0324,0.013523,0.002678,0.000431,0.004701
29583000,0.0324,0.013523,0.002678,0.000431,0.004701
29584000,0.0324,0.013523,0.002678,0.000431,0.012223
29585000,0.0324,0.013523,0.002678,0.000431,0.012223
29586000,0.0324,0.013523,0.002678,0.000431,0.012223
29587000,0.0324,0.013523,0.002678,0.000431,0.004584
29588000,0.0324,0.013523,0.002678,0.000431,0.034671
29589000,0.0324,0.013523,0.002678,0.000431,0.004701
29590000,0.0324,0.013523,0.002678,0.000431,0.012223
29591000,0.0324,0.013523,0.002678,0.000431,0.004701
29592000,0.0324,0.013523,0.002678,0.000431,0.012223
29593000,0.0324,0.013523,0.002678,0.000431,0.004701
29594000,0.0324,0.013523,0.002678,0.000431,0.023036
29595000,0.0324,0.013523,0.002678,0.000431,0.183814
29596000,0.0324,0.013523,0.002678,0.000431,0.136803
29597000,0.0324,0.013523,0.002678,0.000431,0.004701
29598000,0.0324,0.013523,0.002678,0.000431,0.012223
29599000,0.0324,0.013523,0.002678,0.000431,0.004466
29600000,0.0324,0.013523,0.002678,0.000431,0.004701
29601000,0.0324,0.013523,0.002678,0.000431,0.004701
29602000,0.0324,0.013523,0.002678,0.000431,0.008462
29603000,0.0324,0.013523,0.002678,0.000431,0.008462
29604000,0.0324,0.013523,0.002678,0.000431,0.034553
29605000,0.0324,0.013523,0.002678,0.000431,0.009285
29606000,0.0324,0.013523,0.002678,0.000431,0.067579
29607000,0.0324,0.013523,0.002678,0.000431,0.004701
29608000,0.0324,0.013523,0.002678,0.000431,0.004701
29609000,0.0324,0.013523,0.002678,0.000431,0.019745
29610000,0.0324,0.013523,0.002678,0.000431,0.004701
29611000,0.0324,0.013523,0.002678,0.000431,0.012223
29612000,0.0324,0.013523,0.002678,0.000431,0.051830
29613000,0.0324,0.013523,0.002678,0.000431,0.178643
29614000,0.0324,0.013523,0.002678,0.000431,0.113180
29615000,0.0324,0.013523,0.002678,0.000431,0.004701
29616000,0.0324,0.013523,0.002678,0.000431,0.011988
29617000,0.0324,0.013523,0.002678,0.000431,0.012223
29618000,0.0324,0.013523,0.002678,0.000431,0.004701
29619000,0.0324,0.013523,0.002678,0.000431,0.004701
29620000,0.0324,0.013523,0.002678,0.000431,0.004701
29621000,0.0324,0.013523,0.002678,0.000431,0.004701
29622000,0.0324,0.013523,0.002678,0.000431,0.019745
29623000,0.0324,0.013523,0.002678,0.000431,0.012223
29624000,0.0324,0.013523,0.002678,0.000431,0.072397
29625000,0.0324,0.013523,0.002678,0.000431,0.004701
29626000,0.0324,0.013523,0.002678,0.000431,0.004466
29627000,0.0324,0.013523,0.002678,0.000431,0.004701
29628000,0.0324,0.013523,0.002678,0.000431,0.004701
29629000,0.0324,0.013523,0.002678,0.000431,0.004701
29630000,0.0324,0.013523,0.002678,0.000431,0.004701
29631000,0.0324,0.013523,0.002678,0.000431,0.004701
29632000,0.0324,0.013523,0.002678,0.000431,0.004701
29633000,0.0324,0.013523,0.002678,0.000431,0.019745
29634000,0.0324,0.013523,0.002678,0.000431,0.004701
29635000,0.0324,0.013523,0.002678,0.000431,0.004701
29636000,0.0324,0.013523,0.002678,0.000431,0.012223
29637000,0.0324,0.013523,0.002678,0.000431,0.004701
29638000,0.0324,0.013523,0.002678,0.000431,0.004701
29639000,0.0324,0.013523,0.002678,0.000431,0.004584
29640000,0.0324,0.013523,0.002678,0.000431,0.019627
29641000,0.0324,0.013523,0.002678,0.000431,0.004701
29642000,0.0324,0.013523,0.002678,0.000431,0.004701
29643000,0.0324,0.013523,0.002678,0.000431,0.020097
29644000,0.0324,0.013523,0.002678,0.000431,0.094375
29645000,0.0324,0.013523,0.002678,0.000431,0.004701
29646000,0.0324,0.013523,0.002678,0.000431,0.012223
29647000,0.0324,0.013523,0.002678,0.000431,0.004701
29648000,0.0324,0.013523,0.002678,0.000431,0.019745
29649000,0.0324,0.013523,0.002678,0.000431,0.004701
29650000,0.0324,0.013523,0.002678,0.000431,0.064405
29651000,0.0324,0.013523,0.002678,0.000431,0.011988
29652000,0.0324,0.013523,0.002678,0.000431,0.004701
29653000,0.0324,0.013523,0.002678,0.000431,0.004701
29654000,0.0324,0.013523,0.002678,0.000431,0.012223
29655000,0.0324,0.013523,0.002678,0.000431,0.012223
29656000,0.0324,0.013523,0.002678,0.000431,0.004701
29657000,0.0324,0.013523,0.002678,0.000431,0.027267
29658000,0.0324,0.013523,0.002678,0.000431,0.004584
29659000,0.0324,0.013523,0.002678,0.000431,0.004584
29660000,0.0324,0.013523,0.002678,0.000431,0.004701
29661000,0.0324,0.013523,0.002678,0.000431,0.057354
29662000,0.0324,0.013523,0.002678,0.000431,0.004701
29663000,0.0324,0.013523,0.002678,0.000431,0.012223
29664000,0.0324,0.013523,0.002678,0.000431,0.004701
29665000,0.0324,0.013523,0.002678,0.000431,0.004701
29666000,0.0324,0.013523,0.002678,0.000431,0.012223
29667000,0.0324,0.013523,0.002678,0.000431,0.010460
29668000,0.0324,0.013523,0.002678,0.000431,0.054180
29669000,0.0324,0.013523,0.002678,0.000431,0.009637
29670000,0.0324,0.013523,0.002678,0.000431,0.012223
29671000,0.0324,0.013523,0.002678,0.000431,0.004701
29672000,0.0324,0.013523,0.002678,0.000431,0.004701
29673000,0.0324,0.013523,0.002678,0.000431,0.004701
29674000,0.0324,0.013523,0.002678,0.000431,0.012223
29675000,0.0324,0.013523,0.002678,0.000431,0.146440
29676000,0.0324,0.013523,0.002678,0.000431,0.087441
29677000,0.0324,0.013523,0.002678,0.000431,0.004466
29678000,0.0324,0.013523,0.002678,0.000431,0.004701
29679000,0.0324,0.013523,0.002678,0.000431,0.004701
29680000,0.0324,0.013523,0.002678,0.000431,0.019745
29681000,0.0324,0.013523,0.002678,0.000431,0.004701
29682000,0.0324,0.013523,0.002678,0.000431,0.020097
29683000,0.0324,0.013523,0.002678,0.000431,0.011753
29684000,0.0324,0.013523,0.002678,0.000431,0.004584
29685000,0.0324,0.013523,0.002678,0.000431,0.004701
29686000,0.0324,0.013523,0.002678,0.000431,0.004701
29687000,0.0324,0.013523,0.002678,0.000431,0.027267
29688000,0.0324,0.013523,0.002678,0.000431,0.004701
29689000,0.0324,0.013523,0.002678,0.000431,0.019745
29690000,0.0324,0.013523,0.002678,0.000431,0.004701
29691000,0.0324,0.013523,0.002678,0.000431,0.007874
29692000,0.0324,0.013523,0.002678,0.000431,0.031380
29693000,0.0324,0.013523,0.002678,0.000431,0.044896
29694000,0.0324,0.013523,0.002678,0.000431,0.024446
29695000,0.0324,0.013523,0.002678,0.000431,0.012223
29696000,0.0324,0.013523,0.002678,0.000431,0.012223
29697000,0.0324,0.013523,0.002678,0.000431,0.004701
29698000,0.0324,0.013523,0.002678,0.000431,0.004701
29699000,0.0324,0.013523,0.002678,0.000431,0.004701
29700000,0.0324,0.013523,0.002678,0.000431,0.083445
29701000,0.0324,0.013523,0.002678,0.000431,0.008462
29702000,0.0324,0.013523,0.002678,0.000431,0.034788
29703000,0.0324,0.013523,0.002678,0.000431,0.004701
29704000,0.0324,0.013523,0.002678,0.000431,0.012576
29705000,0.0324,0.013523,0.002678,0.000431,0.026679
29706000,0.0324,0.013523,0.002678,0.000431,0.004701
29707000,0.0324,0.013523,0.002678,0.000431,0.057354
29708000,0.0324,0.013523,0.002678,0.000431,0.012223
29709000,0.0324,0.013523,0.002678,0.000431,0.027267
29710000,0.0324,0.013523,0.002678,0.000431,0.004701
29711000,0.0324,0.013523,0.002678,0.000431,0.019745
29712000,0.0324,0.013523,0.002678,0.000431,0.004701
29713000,0.0324,0.013523,0.002678,0.000431,0.018805
29714000,0.0324,0.013523,0.002678,0.000431,0.013163
29715000,0.0324,0.013523,0.002678,0.000431,0.042310
29716000,0.0324,0.013523,0.002678,0.000431,0.004701
29717000,0.0324,0.013523,0.002678,0.000431,0.008462
29718000,0.0324,0.013523,0.002678,0.000431,0.154902
29719000,0.0324,0.013523,0.002678,0.000431,0.104835
29720000,0.0324,0.013523,0.002678,0.000431,0.012223
29721000,0.0324,0.013523,0.002678,0.000431,0.004466
29722000,0.0324,0.013523,0.002678,0.000431,0.012223
29723000,0.0324,0.013523,0.002678,0.000431,0.004584
29724000,0.0324,0.013523,0.002678,0.000431,0.004584
29725000,0.0324,0.013523,0.002678,0.000431,0.004701
29726000,0.0324,0.013523,0.002678,0.000431,0.019745
29727000,0.0324,0.013523,0.002678,0.000431,0.004701
29728000,0.0324,0.013523,0.002678,0.000431,0.012223
29729000,0.0324,0.013523,0.002678,0.000431,0.004701
29730000,0.0324,0.013523,0.002678,0.000431,0.004701
29731000,0.0324,0.013523,0.002678,0.000431,0.004701
29732000,0.0324,0.013523,0.002678,0.000431,0.004701
29733000,0.0324,0.013523,0.002678,0.000431,0.004466
29734000,0.0324,0.013523,0.002678,0.000431,0.012223
29735000,0.0324,0.013523,0.002678,0.000431,0.012223
29736000,0.0324,0.013523,0.002678,0.000431,0.004701
29737000,0.0324,0.013523,0.002678,0.000431,0.004701
29738000,0.0324,0.013523,0.002678,0.000431,0.008462
29739000,0.0324,0.013523,0.002678,0.000431,0.008462
29740000,0.0324,0.013523,0.002678,0.000431,0.004701
29741000,0.0324,0.013523,0.002678,0.000431,0.046071
29742000,0.0324,0.013523,0.002678,0.000431,0.046071
29743000,0.0324,0.013523,0.002678,0.000431,0.012223
29744000,0.0324,0.013523,0.002678,0.000431,0.004701
29745000,0.0324,0.013523,0.002678,0.000431,0.004701
29746000,0.0324,0.013523,0.002678,0.000431,0.004701
29747000,0.0324,0.013523,0.002678,0.000431,0.038549
29748000,0.0324,0.013523,0.002678,0.000431,0.008462
29749000,0.0324,0.013523,0.002678,0.000431,0.042545
29750000,0.0324,0.013523,0.002678,0.000431,0.034553
29751000,0.0324,0.013523,0.002678,0.000431,0.027267
29752000,0.0324,0.013523,0.002678,0.000431,0.015514
29753000,0.0324,0.013523,0.002678,0.000431,0.008932
29754000,0.0324,0.013523,0.002678,0.000431,0.012223
29755000,0.0324,0.013523,0.002678,0.000431,0.004701
29756000,0.0324,0.013523,0.002678,0.000431,0.099781
29757000,0.0324,0.013523,0.002678,0.000431,0.066874
29758000,0.0324,0.013523,0.002678,0.000431,0.004349
29759000,0.0324,0.013523,0.002678,0.000431,0.042193
29760000,0.0324,0.013523,0.002678,0.000431,0.062055
29761000,0.0324,0.013523,0.002678,0.000431,0.007404
29762000,0.0324,0.013523,0.002678,0.000431,0.004584
29763000,0.0324,0.013523,0.002678,0.000431,0.004701
29764000,0.0324,0.013523,0.002678,0.000431,0.008462
29765000,0.0324,0.013523,0.002678,0.000431,0.008462
29766000,0.0324,0.013523,0.002678,0.000431,0.027267
29767000,0.0324,0.013523,0.002678,0.000431,0.004701
29768000,0.0324,0.013523,0.002678,0.000431,0.004701
29769000,0.0324,0.013523,0.002678,0.000431,0.004701
29770000,0.0324,0.013523,0.002678,0.000431,0.012458
29771000,0.0324,0.013523,0.002678,0.000431,0.004701
29772000,0.0324,0.013523,0.002678,0.000431,0.012223
29773000,0.0324,0.013523,0.002678,0.000431,0.019510
29774000,0.0324,0.013523,0.002678,0.000431,0.034788
29775000,0.0324,0.013523,0.002678,0.000431,0.038549
29776000,0.0324,0.013523,0.002678,0.000431,0.083680
29777000,0.0324,0.013523,0.002678,0.000431,0.019745
29778000,0.0324,0.013523,0.002678,0.000431,0.004701
29779000,0.0324,0.013523,0.002678,0.000431,0.004701
29780000,0.0324,0.013523,0.002678,0.000431,0.004701
29781000,0.0324,0.013523,0.002678,0.000431,0.077686
29782000,0.0324,0.013523,0.002678,0.000431,0.153727
29783000,0.0324,0.013523,0.002678,0.000431,0.014456
29784000,0.0324,0.013523,0.002678,0.000431,0.019745
29785000,0.0324,0.013523,0.002678,0.000431,0.004701
29786000,0.0324,0.013523,0.002678,0.000431,0.034788
29787000,0.0324,0.013523,0.002678,0.000431,0.004701
29788000,0.0324,0.013523,0.002678,0.000431,0.004701
29789000,0.0324,0.013523,0.002678,0.000431,0.012223
29790000,0.0324,0.013523,0.002678,0.000431,0.015749
29791000,0.0324,0.013523,0.002678,0.000431,0.008462
29792000,0.0324,0.013523,0.002678,0.000431,0.012223
29793000,0.0324,0.013523,0.002678,0.000431,0.019745
29794000,0.0324,0.013523,0.002678,0.000431,0.004701
29795000,0.0324,0.013523,0.002678,0.000431,0.004701
29796000,0.0324,0.013523,0.002678,0.000431,0.012223
29797000,0.0324,0.013523,0.002678,0.000431,0.012223
29798000,0.0324,0.013523,0.002678,0.000431,0.004584
29799000,0.0324,0.013523,0.002678,0.000431,0.019745
29800000,0.0324,0.013523,0.002678,0.000431,0.056649
29801000,0.0324,0.013523,0.002678,0.000431,0.024211
29802000,0.0324,0.013523,0.002678,0.000431,0.030910
29803000,0.0324,0.013523,0.002678,0.000431,0.027267
29804000,0.0324,0.013523,0.002678,0.000431,0.049832
29805000,0.0324,0.013523,0.002678,0.000431,0.004584
29806000,0.0324,0.013523,0.002678,0.000431,0.004584
29807000,0.0324,0.013523,0.002678,0.000431,0.014221
29808000,0.0324,0.013523,0.002678,0.000431,0.144912
29809000,0.0324,0.013523,0.002678,0.000431,0.004701
29810000,0.0324,0.013523,0.002678,0.000431,0.019745
29811000,0.0324,0.013523,0.002678,0.000431,0.004701
29812000,0.0324,0.013523,0.002678,0.000431,0.004701
29813000,0.0324,0.013523,0.002678,0.000431,0.004701
29814000,0.0324,0.013523,0.002678,0.000431,0.008462
29815000,0.0324,0.013523,0.002678,0.000431,0.008462
29816000,0.0324,0.013523,0.002678,0.000431,0.004701
29817000,0.0324,0.013523,0.002678,0.000431,0.061115
29818000,0.0324,0.013523,0.002678,0.000431,0.061115
29819000,0.0324,0.013523,0.002678,0.000431,0.019745
29820000,0.0324,0.013523,0.002678,0.000431,0.027267
29821000,0.0324,0.013523,0.002678,0.000431,0.038549
29822000,0.0324,0.013523,0.002678,0.000431,0.008462
29823000,0.0324,0.013523,0.002678,0.000431,0.004701
29824000,0.0324,0.013523,0.002678,0.000431,0.004819
29825000,0.0324,0.013523,0.002678,0.000431,0.129281
29826000,0.0324,0.013523,0.002678,0.000431,0.096961
29827000,0.0324,0.013523,0.002678,0.000431,0.004819
29828000,0.0324,0.013523,0.002678,0.000431,0.027149
29829000,0.0324,0.013523,0.002678,0.000431,0.004701
29830000,0.0324,0.013523,0.002678,0.000431,0.004466
29831000,0.0324,0.013523,0.002678,0.000431,0.004701
29832000,0.0324,0.013523,0.002678,0.000431,0.012223
29833000,0.0324,0.013523,0.002678,0.000431,0.004701
29834000,0.0324,0.013523,0.002678,0.000431,0.012223
29835000,0.0324,0.013523,0.002678,0.000431,0.004701
29836000,0.0324,0.013523,0.002678,0.000431,0.004701
29837000,0.0324,0.013523,0.002678,0.000431,0.004701
29838000,0.0324,0.013523,0.002678,0.000431,0.004466
29839000,0.0324,0.013523,0.002678,0.000431,0.012223
29840000,0.0324,0.013523,0.002678,0.000431,0.004701
29841000,0.0324,0.013523,0.002678,0.000431,0.004701
29842000,0.0324,0.013523,0.002678,0.000431,0.004701
29843000,0.0324,0.013523,0.002678,0.000431,0.004466
29844000,0.0324,0.013523,0.002678,0.000431,0.004701
29845000,0.0324,0.013523,0.002678,0.000431,0.004701
29846000,0.0324,0.013523,0.002678,0.000431,0.004701
29847000,0.0324,0.013523,0.002678,0.000431,0.012223
29848000,0.0324,0.013523,0.002678,0.000431,0.004701
29849000,0.0324,0.013523,0.002678,0.000431,0.004701
29850000,0.0324,0.013523,0.002678,0.000431,0.004701
29851000,0.0324,0.013523,0.002678,0.000431,0.004701
29852000,0.0324,0.013523,0.002678,0.000431,0.004701
29853000,0.0324,0.013523,0.002678,0.000431,0.004701
29854000,0.0324,0.013523,0.002678,0.000431,0.128693
29855000,0.0324,0.013523,0.002678,0.000431,0.105070
29856000,0.0324,0.013523,0.002678,0.000431,0.004584
29857000,0.0324,0.013523,0.002678,0.000431,0.004701
29858000,0.0324,0.013523,0.002678,0.000431,0.004701
29859000,0.0324,0.013523,0.002678,0.000431,0.004701
29860000,0.0324,0.013523,0.002678,0.000431,0.049832
29861000,0.0324,0.013523,0.002678,0.000431,0.018569
29862000,0.0324,0.013523,0.002678,0.000431,0.020685
29863000,0.0324,0.013523,0.002678,0.000431,0.004701
29864000,0.0324,0.013523,0.002678,0.000431,0.004701
29865000,0.0324,0.013523,0.002678,0.000431,0.004701
29866000,0.0324,0.013523,0.002678,0.000431,0.027267
29867000,0.0324,0.013523,0.002678,0.000431,0.004701
29868000,0.0324,0.013523,0.002678,0.000431,0.019745
29869000,0.0324,0.013523,0.002678,0.000431,0.004701
29870000,0.0324,0.013523,0.002678,0.000431,0.004701
29871000,0.0324,0.013523,0.002678,0.000431,0.004701
29872000,0.0324,0.013523,0.002678,0.000431,0.007757
29873000,0.0324,0.013523,0.002678,0.000431,0.031733
29874000,0.0324,0.013523,0.002678,0.000431,0.004701
29875000,0.0324,0.013523,0.002678,0.000431,0.004466
29876000,0.0324,0.013523,0.002678,0.000431,0.004701
29877000,0.0324,0.013523,0.002678,0.000431,0.004701
29878000,0.0324,0.013523,0.002678,0.000431,0.004466
29879000,0.0324,0.013523,0.002678,0.000431,0.023388
29880000,0.0324,0.013523,0.002678,0.000431,0.196507
29881000,0.0324,0.013523,0.002678,0.000431,0.063465
29882000,0.0324,0.013523,0.002678,0.000431,0.004584
29883000,0.0324,0.013523,0.002678,0.000431,0.004701
29884000,0.0324,0.013523,0.002678,0.000431,0.004701
29885000,0.0324,0.013523,0.002678,0.000431,0.004701
29886000,0.0324,0.013523,0.002678,0.000431,0.004701
29887000,0.0324,0.013523,0.002678,0.000431,0.022448
29888000,0.0324,0.013523,0.002678,0.000431,0.017042
29889000,0.0324,0.013523,0.002678,0.000431,0.004701
29890000,0.0324,0.013523,0.002678,0.000431,0.019745
29891000,0.0324,0.013523,0.002678,0.000431,0.004701
29892000,0.0324,0.013523,0.002678,0.000431,0.046071
29893000,0.0324,0.013523,0.002678,0.000431,0.031027
29894000,0.0324,0.013523,0.002678,0.000431,0.004701
29895000,0.0324,0.013523,0.002678,0.000431,0.004701
29896000,0.0324,0.013523,0.002678,0.000431,0.004701
29897000,0.0324,0.013523,0.002678,0.000431,0.019510
29898000,0.0324,0.013523,0.002678,0.000431,0.004701
29899000,0.0324,0.013523,0.002678,0.000431,0.027267
29900000,0.0324,0.013523,0.002678,0.000431,0.004701
29901000,0.0324,0.013523,0.002678,0.000431,0.004701
29902000,0.0324,0.013523,0.002678,0.000431,0.004701
29903000,0.0324,0.013523,0.002678,0.000431,0.004701
29904000,0.0324,0.013523,0.002678,0.000431,0.004701
29905000,0.0324,0.013523,0.002678,0.000431,0.027972
29906000,0.0324,0.013523,0.002678,0.000431,0.112592
29907000,0.0324,0.013523,0.002678,0.000431,0.008462
29908000,0.0324,0.013523,0.002678,0.000431,0.004701
29909000,0.0324,0.013523,0.002678,0.000431,0.004466
29910000,0.0324,0.013523,0.002678,0.000431,0.004701
29911000,0.0324,0.013523,0.002678,0.000431,0.004701
29912000,0.0324,0.013523,0.002678,0.000431,0.004701
29913000,0.0324,0.013523,0.002678,0.000431,0.072397
29914000,0.0324,0.013523,0.002678,0.000431,0.004701
29915000,0.0324,0.013523,0.002678,0.000431,0.004584
29916000,0.0324,0.013523,0.002678,0.000431,0.027031
29917000,0.0324,0.013523,0.002678,0.000431,0.101897
29918000,0.0324,0.013523,0.002678,0.000431,0.004701
29919000,0.0324,0.013523,0.002678,0.000431,0.058412
29920000,0.0324,0.013523,0.002678,0.000431,0.010930
29921000,0.0324,0.013523,0.002678,0.000431,0.004701
29922000,0.0324,0.013523,0.002678,0.000431,0.004701
29923000,0.0324,0.013523,0.002678,0.000431,0.012223
29924000,0.0324,0.013523,0.002678,0.000431,0.094963
29925000,0.0324,0.013523,0.002678,0.000431,0.004701
29926000,0.0324,0.013523,0.002678,0.000431,0.012223
29927000,0.0324,0.013523,0.002678,0.000431,0.004701
29928000,0.0324,0.013523,0.002678,0.000431,0.004584
29929000,0.0324,0.013523,0.002678,0.000431,0.004584
29930000,0.0324,0.013523,0.002678,0.000431,0.034436
29931000,0.0324,0.013523,0.002678,0.000431,0.034671
29932000,0.0324,0.013523,0.002678,0.000431,0.017512
29933000,0.0324,0.013523,0.002678,0.000431,0.029500
29934000,0.0324,0.013523,0.002678,0.000431,0.004701
29935000,0.0324,0.013523,0.002678,0.000431,0.004701
29936000,0.0324,0.013523,0.002678,0.000431,0.004701
29937000,0.0324,0.013523,0.002678,0.000431,0.057354
29938000,0.0324,0.013523,0.002678,0.000431,0.004701
29939000,0.0324,0.013523,0.002678,0.000431,0.027267
29940000,0.0324,0.013523,0.002678,0.000431,0.004701
29941000,0.0324,0.013523,0.002678,0.000431,0.004701
29942000,0.0324,0.013523,0.002678,0.000431,0.004701
29943000,0.0324,0.013523,0.002678,0.000431,0.004701
29944000,0.0324,0.013523,0.002678,0.000431,0.004701
29945000,0.0324,0.013523,0.002678,0.000431,0.015984
29946000,0.0324,0.013523,0.002678,0.000431,0.015984
29947000,0.0324,0.013523,0.002678,0.000431,0.004701
29948000,0.0324,0.013523,0.002678,0.000431,0.004701
29949000,0.0324,0.013523,0.002678,0.000431,0.004701
29950000,0.0324,0.013523,0.002678,0.000431,0.004701
29951000,0.0324,0.013523,0.002678,0.000431,0.004701
29952000,0.0324,0.013523,0.002678,0.000431,0.042310
29953000,0.0324,0.013523,0.002678,0.000431,0.004701
29954000,0.0324,0.013523,0.002678,0.000431,0.004701
29955000,0.0324,0.013523,0.002678,0.000431,0.004701
29956000,0.0324,0.013523,0.002678,0.000431,0.004701
29957000,0.0324,0.013523,0.002678,0.000431,0.004466
29958000,0.0324,0.013523,0.002678,0.000431,0.025621
29959000,0.0324,0.013523,0.002678,0.000431,0.160426
29960000,0.0324,0.013523,0.002678,0.000431,0.037962
29961000,0.0324,0.013523,0.002678,0.000431,0.004701
29962000,0.0324,0.013523,0.002678,0.000431,0.012223
29963000,0.0324,0.013523,0.002678,0.000431,0.004701
29964000,0.0324,0.013523,0.002678,0.000431,0.004701
29965000,0.0324,0.013523,0.002678,0.000431,0.019745
29966000,0.0324,0.013523,0.002678,0.000431,0.090027
29967000,0.0324,0.013523,0.002678,0.000431,0.076628
29968000,0.0324,0.013523,0.002678,0.000431,0.004701
29969000,0.0324,0.013523,0.002678,0.000431,0.004466
29970000,0.0324,0.013523,0.002678,0.000431,0.004701
29971000,0.0324,0.013523,0.002678,0.000431,0.004701
29972000,0.0324,0.013523,0.002678,0.000431,0.012223
29973000,0.0324,0.013523,0.002678,0.000431,0.012223
29974000,0.0324,0.013523,0.002678,0.000431,0.004701
29975000,0.0324,0.013523,0.002678,0.000431,0.004701
29976000,0.0324,0.013523,0.002678,0.000431,0.004701
29977000,0.0324,0.013523,0.002678,0.000431,0.004701
29978000,0.0324,0.013523,0.002678,0.000431,0.004701
29979000,0.0324,0.013523,0.002678,0.000431,0.019745
29980000,0.0324,0.013523,0.002678,0.000431,0.004701
29981000,0.0324,0.013523,0.002678,0.000431,0.004701
29982000,0.0324,0.013523,0.002678,0.000431,0.012223
29983000,0.0324,0.013523,0.002678,0.000431,0.004701
29984000,0.0324,0.013523,0.002678,0.000431,0.004701
29985000,0.0324,0.013523,0.002678,0.000431,0.005406
29986000,0.0324,0.013523,0.002678,0.000431,0.176410
29987000,0.0324,0.013523,0.002678,0.000431,0.053240
29988000,0.0324,0.013523,0.002678,0.000431,0.015984
29989000,0.0324,0.013523,0.002678,0.000431,0.012223
29990000,0.0324,0.013523,0.002678,0.000431,0.004701
29991000,0.0324,0.013523,0.002678,0.000431,0.027267
29992000,0.0324,0.013523,0.002678,0.000431,0.005406
29993000,0.0324,0.013523,0.002678,0.000431,0.033966
29994000,0.0324,0.013523,0.002678,0.000431,0.004584
29995000,0.0324,0.013523,0.002678,0.000431,0.009050
29996000,0.0324,0.013523,0.002678,0.000431,0.007874
29997000,0.0324,0.013523,0.002678,0.000431,0.004466
29998000,0.0324,0.013523,0.002678,0.000431,0.004701
29999000,0.0324,0.013523,0.002678,0.000431,0.004701
