Cycle,Area(mm^2),PeakDynamic(W),SubthresholdLeakage(W),GateLeakage(W),RunTimeDynamic(W)
100,0.0324,0.013523,0.002678,0.000431,0.000000
200,0.0324,0.013523,0.002678,0.000431,0.000000
300,0.0324,0.013523,0.002678,0.000431,0.000000
400,0.0324,0.013523,0.002678,0.000431,0.000000
500,0.0324,0.013523,0.002678,0.000431,0.000000
600,0.0324,0.013523,0.002678,0.000431,0.000000
700,0.0324,0.013523,0.002678,0.000431,0.000000
800,0.0324,0.013523,0.002678,0.000431,0.000000
900,0.0324,0.013523,0.002678,0.000431,0.000000
1000,0.0324,0.013523,0.002678,0.000431,0.000000
1100,0.0324,0.013523,0.002678,0.000431,0.000000
1200,0.0324,0.013523,0.002678,0.000431,0.000000
1300,0.0324,0.013523,0.002678,0.000431,0.000000
1400,0.0324,0.013523,0.002678,0.000431,0.000000
1500,0.0324,0.013523,0.002678,0.000431,0.000000
1600,0.0324,0.013523,0.002678,0.000431,0.000000
1700,0.0324,0.013523,0.002678,0.000431,0.000000
1800,0.0324,0.013523,0.002678,0.000431,0.000000
1900,0.0324,0.013523,0.002678,0.000431,0.000000
2000,0.0324,0.013523,0.002678,0.000431,0.000000
2100,0.0324,0.013523,0.002678,0.000431,0.000000
2200,0.0324,0.013523,0.002678,0.000431,0.000000
2300,0.0324,0.013523,0.002678,0.000431,0.000000
2400,0.0324,0.013523,0.002678,0.000431,0.000000
2500,0.0324,0.013523,0.002678,0.000431,0.000000
2600,0.0324,0.013523,0.002678,0.000431,0.000000
2700,0.0324,0.013523,0.002678,0.000431,0.000000
2800,0.0324,0.013523,0.002678,0.000431,0.000000
2900,0.0324,0.013523,0.002678,0.000431,0.000000
3000,0.0324,0.013523,0.002678,0.000431,0.000000
3100,0.0324,0.013523,0.002678,0.000431,0.000000
3200,0.0324,0.013523,0.002678,0.000431,0.000000
3300,0.0324,0.013523,0.002678,0.000431,0.000000
3400,0.0324,0.013523,0.002678,0.000431,0.000000
3500,0.0324,0.013523,0.002678,0.000431,0.000000
3600,0.0324,0.013523,0.002678,0.000431,0.000000
3700,0.0324,0.013523,0.002678,0.000431,0.000000
3800,0.0324,0.013523,0.002678,0.000431,0.000000
3900,0.0324,0.013523,0.002678,0.000431,0.000000
4000,0.0324,0.013523,0.002678,0.000431,0.000000
4100,0.0324,0.013523,0.002678,0.000431,0.000000
4200,0.0324,0.013523,0.002678,0.000431,0.000000
4300,0.0324,0.013523,0.002678,0.000431,0.000000
4400,0.0324,0.013523,0.002678,0.000431,0.000000
4500,0.0324,0.013523,0.002678,0.000431,0.000000
4600,0.0324,0.013523,0.002678,0.000431,0.000000
4700,0.0324,0.013523,0.002678,0.000431,0.000000
4800,0.0324,0.013523,0.002678,0.000431,0.000000
4900,0.0324,0.013523,0.002678,0.000431,0.000000
5000,0.0324,0.013523,0.002678,0.000431,0.000000
5100,0.0324,0.013523,0.002678,0.000431,0.000000
5200,0.0324,0.013523,0.002678,0.000431,0.001175
5300,0.0324,0.013523,0.002678,0.000431,0.000000
5400,0.0324,0.013523,0.002678,0.000431,0.027031
5500,0.0324,0.013523,0.002678,0.000431,0.000000
5600,0.0324,0.013523,0.002678,0.000431,0.024681
5700,0.0324,0.013523,0.002678,0.000431,0.088146
5800,0.0324,0.013523,0.002678,0.000431,0.117528
5900,0.0324,0.013523,0.002678,0.000431,0.078744
6000,0.0324,0.013523,0.002678,0.000431,0.083445
6100,0.0324,0.013523,0.002678,0.000431,0.085796
6200,0.0324,0.013523,0.002678,0.000431,0.055238
6300,0.0324,0.013523,0.002678,0.000431,0.079919
6400,0.0324,0.013523,0.002678,0.000431,0.051712
6500,0.0324,0.013523,0.002678,0.000431,0.047011
6600,0.0324,0.013523,0.002678,0.000431,0.070517
6700,0.0324,0.013523,0.002678,0.000431,0.055238
6800,0.0324,0.013523,0.002678,0.000431,0.097548
6900,0.0324,0.013523,0.002678,0.000431,0.010578
7000,0.0324,0.013523,0.002678,0.000431,0.071692
7100,0.0324,0.013523,0.002678,0.000431,0.008227
7200,0.0324,0.013523,0.002678,0.000431,0.004701
7300,0.0324,0.013523,0.002678,0.000431,0.015279
7400,0.0324,0.013523,0.002678,0.000431,0.016454
7500,0.0324,0.013523,0.002678,0.000431,0.035258
7600,0.0324,0.013523,0.002678,0.000431,0.018805
7700,0.0324,0.013523,0.002678,0.000431,0.016454
7800,0.0324,0.013523,0.002678,0.000431,0.017629
7900,0.0324,0.013523,0.002678,0.000431,0.008227
8000,0.0324,0.013523,0.002678,0.000431,0.011753
8100,0.0324,0.013523,0.002678,0.000431,0.019980
8200,0.0324,0.013523,0.002678,0.000431,0.014103
8300,0.0324,0.013523,0.002678,0.000431,0.015279
8400,0.0324,0.013523,0.002678,0.000431,0.022330
8500,0.0324,0.013523,0.002678,0.000431,0.003526
8600,0.0324,0.013523,0.002678,0.000431,0.014103
8700,0.0324,0.013523,0.002678,0.000431,0.011753
8800,0.0324,0.013523,0.002678,0.000431,0.022330
8900,0.0324,0.013523,0.002678,0.000431,0.016454
9000,0.0324,0.013523,0.002678,0.000431,0.018805
9100,0.0324,0.013523,0.002678,0.000431,0.015279
9200,0.0324,0.013523,0.002678,0.000431,0.016454
9300,0.0324,0.013523,0.002678,0.000431,0.023506
9400,0.0324,0.013523,0.002678,0.000431,0.036434
9500,0.0324,0.013523,0.002678,0.000431,0.014103
9600,0.0324,0.013523,0.002678,0.000431,0.022330
9700,0.0324,0.013523,0.002678,0.000431,0.027031
9800,0.0324,0.013523,0.002678,0.000431,0.019980
9900,0.0324,0.013523,0.002678,0.000431,0.015279
10000,0.0324,0.013523,0.002678,0.000431,0.042310
10100,0.0324,0.013523,0.002678,0.000431,0.037609
10200,0.0324,0.013523,0.002678,0.000431,0.014103
10300,0.0324,0.013523,0.002678,0.000431,0.035258
10400,0.0324,0.013523,0.002678,0.000431,0.011753
10500,0.0324,0.013523,0.002678,0.000431,0.031733
10600,0.0324,0.013523,0.002678,0.000431,0.002351
10700,0.0324,0.013523,0.002678,0.000431,0.031733
10800,0.0324,0.013523,0.002678,0.000431,0.015279
10900,0.0324,0.013523,0.002678,0.000431,0.019980
11000,0.0324,0.013523,0.002678,0.000431,0.012928
11100,0.0324,0.013523,0.002678,0.000431,0.010578
11200,0.0324,0.013523,0.002678,0.000431,0.011753
11300,0.0324,0.013523,0.002678,0.000431,0.037609
11400,0.0324,0.013523,0.002678,0.000431,0.007052
11500,0.0324,0.013523,0.002678,0.000431,0.047011
11600,0.0324,0.013523,0.002678,0.000431,0.009402
11700,0.0324,0.013523,0.002678,0.000431,0.018805
11800,0.0324,0.013523,0.002678,0.000431,0.007052
11900,0.0324,0.013523,0.002678,0.000431,0.021155
12000,0.0324,0.013523,0.002678,0.000431,0.024681
12100,0.0324,0.013523,0.002678,0.000431,0.012928
12200,0.0324,0.013523,0.002678,0.000431,0.030557
12300,0.0324,0.013523,0.002678,0.000431,0.011753
12400,0.0324,0.013523,0.002678,0.000431,0.024681
12500,0.0324,0.013523,0.002678,0.000431,0.010578
12600,0.0324,0.013523,0.002678,0.000431,0.031733
12700,0.0324,0.013523,0.002678,0.000431,0.023506
12800,0.0324,0.013523,0.002678,0.000431,0.017629
12900,0.0324,0.013523,0.002678,0.000431,0.022330
13000,0.0324,0.013523,0.002678,0.000431,0.012928
13100,0.0324,0.013523,0.002678,0.000431,0.007052
13200,0.0324,0.013523,0.002678,0.000431,0.017629
13300,0.0324,0.013523,0.002678,0.000431,0.005876
13400,0.0324,0.013523,0.002678,0.000431,0.019980
13500,0.0324,0.013523,0.002678,0.000431,0.024681
13600,0.0324,0.013523,0.002678,0.000431,0.016454
13700,0.0324,0.013523,0.002678,0.000431,0.021155
13800,0.0324,0.013523,0.002678,0.000431,0.019980
13900,0.0324,0.013523,0.002678,0.000431,0.016454
14000,0.0324,0.013523,0.002678,0.000431,0.009402
14100,0.0324,0.013523,0.002678,0.000431,0.012928
14200,0.0324,0.013523,0.002678,0.000431,0.035258
14300,0.0324,0.013523,0.002678,0.000431,0.010578
14400,0.0324,0.013523,0.002678,0.000431,0.022330
14500,0.0324,0.013523,0.002678,0.000431,0.014103
14600,0.0324,0.013523,0.002678,0.000431,0.014103
14700,0.0324,0.013523,0.002678,0.000431,0.008227
14800,0.0324,0.013523,0.002678,0.000431,0.016454
14900,0.0324,0.013523,0.002678,0.000431,0.018805
15000,0.0324,0.013523,0.002678,0.000431,0.017629
15100,0.0324,0.013523,0.002678,0.000431,0.015279
15200,0.0324,0.013523,0.002678,0.000431,0.027031
15300,0.0324,0.013523,0.002678,0.000431,0.002351
15400,0.0324,0.013523,0.002678,0.000431,0.028207
15500,0.0324,0.013523,0.002678,0.000431,0.012928
15600,0.0324,0.013523,0.002678,0.000431,0.021155
15700,0.0324,0.013523,0.002678,0.000431,0.014103
15800,0.0324,0.013523,0.002678,0.000431,0.021155
15900,0.0324,0.013523,0.002678,0.000431,0.002351
16000,0.0324,0.013523,0.002678,0.000431,0.015279
16100,0.0324,0.013523,0.002678,0.000431,0.012928
16200,0.0324,0.013523,0.002678,0.000431,0.002351
16300,0.0324,0.013523,0.002678,0.000431,0.010578
16400,0.0324,0.013523,0.002678,0.000431,0.011753
16500,0.0324,0.013523,0.002678,0.000431,0.003526
16600,0.0324,0.013523,0.002678,0.000431,0.004701
16700,0.0324,0.013523,0.002678,0.000431,0.010578
16800,0.0324,0.013523,0.002678,0.000431,0.019980
16900,0.0324,0.013523,0.002678,0.000431,0.005876
17000,0.0324,0.013523,0.002678,0.000431,0.019980
17100,0.0324,0.013523,0.002678,0.000431,0.010578
17200,0.0324,0.013523,0.002678,0.000431,0.010578
17300,0.0324,0.013523,0.002678,0.000431,0.011753
17400,0.0324,0.013523,0.002678,0.000431,0.009402
17500,0.0324,0.013523,0.002678,0.000431,0.012928
17600,0.0324,0.013523,0.002678,0.000431,0.008227
17700,0.0324,0.013523,0.002678,0.000431,0.015279
17800,0.0324,0.013523,0.002678,0.000431,0.009402
17900,0.0324,0.013523,0.002678,0.000431,0.014103
18000,0.0324,0.013523,0.002678,0.000431,0.016454
18100,0.0324,0.013523,0.002678,0.000431,0.008227
18200,0.0324,0.013523,0.002678,0.000431,0.014103
18300,0.0324,0.013523,0.002678,0.000431,0.004701
18400,0.0324,0.013523,0.002678,0.000431,0.007052
18500,0.0324,0.013523,0.002678,0.000431,0.005876
18600,0.0324,0.013523,0.002678,0.000431,0.011753
18700,0.0324,0.013523,0.002678,0.000431,0.001175
18800,0.0324,0.013523,0.002678,0.000431,0.010578
18900,0.0324,0.013523,0.002678,0.000431,0.008227
19000,0.0324,0.013523,0.002678,0.000431,0.011753
19100,0.0324,0.013523,0.002678,0.000431,0.008227
19200,0.0324,0.013523,0.002678,0.000431,0.004701
19300,0.0324,0.013523,0.002678,0.000431,0.009402
19400,0.0324,0.013523,0.002678,0.000431,0.010578
19500,0.0324,0.013523,0.002678,0.000431,0.001175
19600,0.0324,0.013523,0.002678,0.000431,0.010578
19700,0.0324,0.013523,0.002678,0.000431,0.010578
19800,0.0324,0.013523,0.002678,0.000431,0.008227
19900,0.0324,0.013523,0.002678,0.000431,0.008227
20000,0.0324,0.013523,0.002678,0.000431,0.016454
20100,0.0324,0.013523,0.002678,0.000431,0.004701
20200,0.0324,0.013523,0.002678,0.000431,0.008227
20300,0.0324,0.013523,0.002678,0.000431,0.015279
20400,0.0324,0.013523,0.002678,0.000431,0.004701
20500,0.0324,0.013523,0.002678,0.000431,0.005876
20600,0.0324,0.013523,0.002678,0.000431,0.010578
20700,0.0324,0.013523,0.002678,0.000431,0.011753
20800,0.0324,0.013523,0.002678,0.000431,0.003526
20900,0.0324,0.013523,0.002678,0.000431,0.015279
21000,0.0324,0.013523,0.002678,0.000431,0.004701
21100,0.0324,0.013523,0.002678,0.000431,0.008227
21200,0.0324,0.013523,0.002678,0.000431,0.007052
21300,0.0324,0.013523,0.002678,0.000431,0.004701
21400,0.0324,0.013523,0.002678,0.000431,0.002351
21500,0.0324,0.013523,0.002678,0.000431,0.003526
21600,0.0324,0.013523,0.002678,0.000431,0.009402
21700,0.0324,0.013523,0.002678,0.000431,0.002351
21800,0.0324,0.013523,0.002678,0.000431,0.007052
21900,0.0324,0.013523,0.002678,0.000431,0.008227
22000,0.0324,0.013523,0.002678,0.000431,0.002351
22100,0.0324,0.013523,0.002678,0.000431,0.004701
22200,0.0324,0.013523,0.002678,0.000431,0.001175
22300,0.0324,0.013523,0.002678,0.000431,0.005876
22400,0.0324,0.013523,0.002678,0.000431,0.007052
22500,0.0324,0.013523,0.002678,0.000431,0.002351
22600,0.0324,0.013523,0.002678,0.000431,0.007052
22700,0.0324,0.013523,0.002678,0.000431,0.003526
22800,0.0324,0.013523,0.002678,0.000431,0.002351
22900,0.0324,0.013523,0.002678,0.000431,0.002351
23000,0.0324,0.013523,0.002678,0.000431,0.002351
23100,0.0324,0.013523,0.002678,0.000431,0.005876
23200,0.0324,0.013523,0.002678,0.000431,0.000000
23300,0.0324,0.013523,0.002678,0.000431,0.003526
23400,0.0324,0.013523,0.002678,0.000431,0.002351
23500,0.0324,0.013523,0.002678,0.000431,0.002351
23600,0.0324,0.013523,0.002678,0.000431,0.001175
23700,0.0324,0.013523,0.002678,0.000431,0.003526
23800,0.0324,0.013523,0.002678,0.000431,0.001175
23900,0.0324,0.013523,0.002678,0.000431,0.003526
24000,0.0324,0.013523,0.002678,0.000431,0.002351
24100,0.0324,0.013523,0.002678,0.000431,0.000000
24200,0.0324,0.013523,0.002678,0.000431,0.003526
24300,0.0324,0.013523,0.002678,0.000431,0.002351
24400,0.0324,0.013523,0.002678,0.000431,0.000000
24500,0.0324,0.013523,0.002678,0.000431,0.003526
24600,0.0324,0.013523,0.002678,0.000431,0.001175
24700,0.0324,0.013523,0.002678,0.000431,0.002351
24800,0.0324,0.013523,0.002678,0.000431,0.001175
24900,0.0324,0.013523,0.002678,0.000431,0.001175
25000,0.0324,0.013523,0.002678,0.000431,0.001175
25100,0.0324,0.013523,0.002678,0.000431,0.000000
25200,0.0324,0.013523,0.002678,0.000431,0.002351
25300,0.0324,0.013523,0.002678,0.000431,0.000000
25400,0.0324,0.013523,0.002678,0.000431,0.001175
25500,0.0324,0.013523,0.002678,0.000431,0.000000
25600,0.0324,0.013523,0.002678,0.000431,0.001175
25700,0.0324,0.013523,0.002678,0.000431,0.000000
25800,0.0324,0.013523,0.002678,0.000431,0.000000
25900,0.0324,0.013523,0.002678,0.000431,0.000000
26000,0.0324,0.013523,0.002678,0.000431,0.002351
26100,0.0324,0.013523,0.002678,0.000431,0.000000
26200,0.0324,0.013523,0.002678,0.000431,0.001175
26300,0.0324,0.013523,0.002678,0.000431,0.001175
26400,0.0324,0.013523,0.002678,0.000431,0.000000
26500,0.0324,0.013523,0.002678,0.000431,0.001175
26600,0.0324,0.013523,0.002678,0.000431,0.001175
26700,0.0324,0.013523,0.002678,0.000431,0.000000
26800,0.0324,0.013523,0.002678,0.000431,0.001175
26900,0.0324,0.013523,0.002678,0.000431,0.001175
27000,0.0324,0.013523,0.002678,0.000431,0.000000
27100,0.0324,0.013523,0.002678,0.000431,0.001175
27200,0.0324,0.013523,0.002678,0.000431,0.001175
27300,0.0324,0.013523,0.002678,0.000431,0.000000
27400,0.0324,0.013523,0.002678,0.000431,0.001175
27500,0.0324,0.013523,0.002678,0.000431,0.001175
27600,0.0324,0.013523,0.002678,0.000431,0.000000
27700,0.0324,0.013523,0.002678,0.000431,0.001175
27800,0.0324,0.013523,0.002678,0.000431,0.001175
27900,0.0324,0.013523,0.002678,0.000431,0.000000
28000,0.0324,0.013523,0.002678,0.000431,0.001175
28100,0.0324,0.013523,0.002678,0.000431,0.001175
28200,0.0324,0.013523,0.002678,0.000431,0.000000
28300,0.0324,0.013523,0.002678,0.000431,0.001175
28400,0.0324,0.013523,0.002678,0.000431,0.001175
28500,0.0324,0.013523,0.002678,0.000431,0.000000
28600,0.0324,0.013523,0.002678,0.000431,0.001175
28700,0.0324,0.013523,0.002678,0.000431,0.001175
28800,0.0324,0.013523,0.002678,0.000431,0.000000
28900,0.0324,0.013523,0.002678,0.000431,0.001175
29000,0.0324,0.013523,0.002678,0.000431,0.001175
29100,0.0324,0.013523,0.002678,0.000431,0.000000
29200,0.0324,0.013523,0.002678,0.000431,0.001175
29300,0.0324,0.013523,0.002678,0.000431,0.000000
29400,0.0324,0.013523,0.002678,0.000431,0.001175
29500,0.0324,0.013523,0.002678,0.000431,0.000000
