Cycle,Area(mm^2),PeakDynamic(W),SubthresholdLeakage(W),GateLeakage(W),RunTimeDynamic(W)
1000000,0.0324,0.013523,0.002678,0.000431,1.519639
1001000,0.0324,0.013523,0.002678,0.000431,1.609431
1002000,0.0324,0.013523,0.002678,0.000431,1.636697
1003000,0.0324,0.013523,0.002678,0.000431,1.642339
1004000,0.0324,0.013523,0.002678,0.000431,1.701808
1005000,0.0324,0.013523,0.002678,0.000431,1.628823
1006000,0.0324,0.013523,0.002678,0.000431,1.632937
1007000,0.0324,0.013523,0.002678,0.000431,1.696872
1008000,0.0324,0.013523,0.002678,0.000431,1.765273
1009000,0.0324,0.013523,0.002678,0.000431,1.556661
1010000,0.0324,0.013523,0.002678,0.000431,1.716147
1011000,0.0324,0.013523,0.002678,0.000431,1.577111
1012000,0.0324,0.013523,0.002678,0.000431,1.701573
1013000,0.0324,0.013523,0.002678,0.000431,1.618363
1014000,0.0324,0.013523,0.002678,0.000431,1.677245
1015000,0.0324,0.013523,0.002678,0.000431,1.666667
1016000,0.0324,0.013523,0.002678,0.000431,1.551019
1017000,0.0324,0.013523,0.002678,0.000431,1.719202
1018000,0.0324,0.013523,0.002678,0.000431,1.573115
1019000,0.0324,0.013523,0.002678,0.000431,1.824860
1020000,0.0324,0.013523,0.002678,0.000431,1.661143
1021000,0.0324,0.013523,0.002678,0.000431,1.747879
1022000,0.0324,0.013523,0.002678,0.000431,1.650566
1023000,0.0324,0.013523,0.002678,0.000431,1.731778
1024000,0.0324,0.013523,0.002678,0.000431,1.737654
1025000,0.0324,0.013523,0.002678,0.000431,1.651388
1026000,0.0324,0.013523,0.002678,0.000431,1.700515
1027000,0.0324,0.013523,0.002678,0.000431,1.774323
1028000,0.0324,0.013523,0.002678,0.000431,1.726489
1029000,0.0324,0.013523,0.002678,0.000431,1.753756
1030000,0.0324,0.013523,0.002678,0.000431,1.565005
1031000,0.0324,0.013523,0.002678,0.000431,1.766566
1032000,0.0324,0.013523,0.002678,0.000431,1.682533
1033000,0.0324,0.013523,0.002678,0.000431,1.714031
1034000,0.0324,0.013523,0.002678,0.000431,1.749054
1035000,0.0324,0.013523,0.002678,0.000431,1.810287
1036000,0.0324,0.013523,0.002678,0.000431,1.801002
1037000,0.0324,0.013523,0.002678,0.000431,1.845780
1038000,0.0324,0.013523,0.002678,0.000431,1.724844
1039000,0.0324,0.013523,0.002678,0.000431,1.787016
1040000,0.0324,0.013523,0.002678,0.000431,1.942153
1041000,0.0324,0.013523,0.002678,0.000431,1.907365
1042000,0.0324,0.013523,0.002678,0.000431,1.814047
1043000,0.0324,0.013523,0.002678,0.000431,1.809111
1044000,0.0324,0.013523,0.002678,0.000431,1.584397
1045000,0.0324,0.013523,0.002678,0.000431,1.781375
1046000,0.0324,0.013523,0.002678,0.000431,1.697342
1047000,0.0324,0.013523,0.002678,0.000431,1.651624
1048000,0.0324,0.013523,0.002678,0.000431,1.657970
1049000,0.0324,0.013523,0.002678,0.000431,1.719907
1050000,0.0324,0.013523,0.002678,0.000431,1.828268
1051000,0.0324,0.013523,0.002678,0.000431,1.669840
1052000,0.0324,0.013523,0.002678,0.000431,1.782315
1053000,0.0324,0.013523,0.002678,0.000431,1.774793
1054000,0.0324,0.013523,0.002678,0.000431,1.705804
1055000,0.0324,0.013523,0.002678,0.000431,1.782432
1056000,0.0324,0.013523,0.002678,0.000431,1.700515
1057000,0.0324,0.013523,0.002678,0.000431,1.714854
1058000,0.0324,0.013523,0.002678,0.000431,1.701220
1059000,0.0324,0.013523,0.002678,0.000431,1.616365
1060000,0.0324,0.013523,0.002678,0.000431,1.706979
1061000,0.0324,0.013523,0.002678,0.000431,1.665374
1062000,0.0324,0.013523,0.002678,0.000431,1.714854
1063000,0.0324,0.013523,0.002678,0.000431,1.712151
1064000,0.0324,0.013523,0.002678,0.000431,1.602379
1065000,0.0324,0.013523,0.002678,0.000431,1.691113
1066000,0.0324,0.013523,0.002678,0.000431,1.706627
1067000,0.0324,0.013523,0.002678,0.000431,1.723198
1068000,0.0324,0.013523,0.002678,0.000431,1.686412
1069000,0.0324,0.013523,0.002678,0.000431,1.757281
1070000,0.0324,0.013523,0.002678,0.000431,1.763158
1071000,0.0324,0.013523,0.002678,0.000431,1.724609
1072000,0.0324,0.013523,0.002678,0.000431,1.776791
1073000,0.0324,0.013523,0.002678,0.000431,1.749172
1074000,0.0324,0.013523,0.002678,0.000431,1.768094
1075000,0.0324,0.013523,0.002678,0.000431,1.847425
1076000,0.0324,0.013523,0.002678,0.000431,1.690525
1077000,0.0324,0.013523,0.002678,0.000431,1.718144
1078000,0.0324,0.013523,0.002678,0.000431,1.691583
1079000,0.0324,0.013523,0.002678,0.000431,1.738477
1080000,0.0324,0.013523,0.002678,0.000431,1.574760
1081000,0.0324,0.013523,0.002678,0.000431,1.693346
1082000,0.0324,0.013523,0.002678,0.000431,1.668900
1083000,0.0324,0.013523,0.002678,0.000431,1.671251
1084000,0.0324,0.013523,0.002678,0.000431,1.736244
1085000,0.0324,0.013523,0.002678,0.000431,1.627413
1086000,0.0324,0.013523,0.002678,0.000431,1.688410
1087000,0.0324,0.013523,0.002678,0.000431,1.684766
1088000,0.0324,0.013523,0.002678,0.000431,1.671016
1089000,0.0324,0.013523,0.002678,0.000431,1.693816
1090000,0.0324,0.013523,0.002678,0.000431,1.620244
1091000,0.0324,0.013523,0.002678,0.000431,1.695932
1092000,0.0324,0.013523,0.002678,0.000431,1.715206
1093000,0.0324,0.013523,0.002678,0.000431,1.694991
1094000,0.0324,0.013523,0.002678,0.000431,1.684531
1095000,0.0324,0.013523,0.002678,0.000431,1.709565
1096000,0.0324,0.013523,0.002678,0.000431,1.770680
1097000,0.0324,0.013523,0.002678,0.000431,1.840844
1098000,0.0324,0.013523,0.002678,0.000431,1.722611
1099000,0.0324,0.013523,0.002678,0.000431,1.784783
1100000,0.0324,0.013523,0.002678,0.000431,1.836025
1101000,0.0324,0.013523,0.002678,0.000431,1.826153
1102000,0.0324,0.013523,0.002678,0.000431,1.788779
1103000,0.0324,0.013523,0.002678,0.000431,1.623064
1104000,0.0324,0.013523,0.002678,0.000431,1.681123
1105000,0.0324,0.013523,0.002678,0.000431,1.746351
1106000,0.0324,0.013523,0.002678,0.000431,1.605552
1107000,0.0324,0.013523,0.002678,0.000431,1.871284
1108000,0.0324,0.013523,0.002678,0.000431,1.680653
1109000,0.0324,0.013523,0.002678,0.000431,1.798886
1110000,0.0324,0.013523,0.002678,0.000431,1.759279
1111000,0.0324,0.013523,0.002678,0.000431,1.738594
1112000,0.0324,0.013523,0.002678,0.000431,1.688527
1113000,0.0324,0.013523,0.002678,0.000431,1.734363
1114000,0.0324,0.013523,0.002678,0.000431,1.692641
1115000,0.0324,0.013523,0.002678,0.000431,1.713913
1116000,0.0324,0.013523,0.002678,0.000431,1.738477
1117000,0.0324,0.013523,0.002678,0.000431,1.775851
1118000,0.0324,0.013523,0.002678,0.000431,1.667255
1119000,0.0324,0.013523,0.002678,0.000431,1.794420
1120000,0.0324,0.013523,0.002678,0.000431,1.749525
1121000,0.0324,0.013523,0.002678,0.000431,1.750230
1122000,0.0324,0.013523,0.002678,0.000431,1.676187
1123000,0.0324,0.013523,0.002678,0.000431,1.601674
1124000,0.0324,0.013523,0.002678,0.000431,1.549021
1125000,0.0324,0.013523,0.002678,0.000431,1.712973
1126000,0.0324,0.013523,0.002678,0.000431,1.633407
1127000,0.0324,0.013523,0.002678,0.000431,1.734951
1128000,0.0324,0.013523,0.002678,0.000431,1.907717
1129000,0.0324,0.013523,0.002678,0.000431,1.614015
1130000,0.0324,0.013523,0.002678,0.000431,1.829326
1131000,0.0324,0.013523,0.002678,0.000431,1.724844
1132000,0.0324,0.013523,0.002678,0.000431,1.666902
1133000,0.0324,0.013523,0.002678,0.000431,1.701926
1134000,0.0324,0.013523,0.002678,0.000431,1.627883
1135000,0.0324,0.013523,0.002678,0.000431,1.625767
1136000,0.0324,0.013523,0.002678,0.000431,1.646805
1137000,0.0324,0.013523,0.002678,0.000431,1.743648
1138000,0.0324,0.013523,0.002678,0.000431,1.632819
1139000,0.0324,0.013523,0.002678,0.000431,1.686529
1140000,0.0324,0.013523,0.002678,0.000431,1.736479
1141000,0.0324,0.013523,0.002678,0.000431,1.803470
1142000,0.0324,0.013523,0.002678,0.000431,1.843782
1143000,0.0324,0.013523,0.002678,0.000431,1.685472
1144000,0.0324,0.013523,0.002678,0.000431,1.683826
1145000,0.0324,0.013523,0.002678,0.000431,1.770562
1146000,0.0324,0.013523,0.002678,0.000431,1.797946
1147000,0.0324,0.013523,0.002678,0.000431,1.733306
1148000,0.0324,0.013523,0.002678,0.000431,1.752463
1149000,0.0324,0.013523,0.002678,0.000431,1.655737
1150000,0.0324,0.013523,0.002678,0.000431,1.775616
1151000,0.0324,0.013523,0.002678,0.000431,1.745411
1152000,0.0324,0.013523,0.002678,0.000431,1.689820
1153000,0.0324,0.013523,0.002678,0.000431,1.548316
1154000,0.0324,0.013523,0.002678,0.000431,1.721318
1155000,0.0324,0.013523,0.002678,0.000431,1.753520
1156000,0.0324,0.013523,0.002678,0.000431,1.665374
1157000,0.0324,0.013523,0.002678,0.000431,1.725549
1158000,0.0324,0.013523,0.002678,0.000431,1.750465
1159000,0.0324,0.013523,0.002678,0.000431,1.708272
1160000,0.0324,0.013523,0.002678,0.000431,1.757281
1161000,0.0324,0.013523,0.002678,0.000431,1.744588
1162000,0.0324,0.013523,0.002678,0.000431,1.710740
1163000,0.0324,0.013523,0.002678,0.000431,1.647745
1164000,0.0324,0.013523,0.002678,0.000431,1.504478
1165000,0.0324,0.013523,0.002678,0.000431,1.596150
1166000,0.0324,0.013523,0.002678,0.000431,1.779377
1167000,0.0324,0.013523,0.002678,0.000431,1.685354
1168000,0.0324,0.013523,0.002678,0.000431,1.804998
1169000,0.0324,0.013523,0.002678,0.000431,1.693346
1170000,0.0324,0.013523,0.002678,0.000431,1.825448
1171000,0.0324,0.013523,0.002678,0.000431,1.753403
1172000,0.0324,0.013523,0.002678,0.000431,1.758809
1173000,0.0324,0.013523,0.002678,0.000431,1.755401
1174000,0.0324,0.013523,0.002678,0.000431,1.789367
1175000,0.0324,0.013523,0.002678,0.000431,1.611311
1176000,0.0324,0.013523,0.002678,0.000431,1.748819
1177000,0.0324,0.013523,0.002678,0.000431,1.802882
1178000,0.0324,0.013523,0.002678,0.000431,1.721318
1179000,0.0324,0.013523,0.002678,0.000431,1.834968
1180000,0.0324,0.013523,0.002678,0.000431,1.680183
1181000,0.0324,0.013523,0.002678,0.000431,1.754578
1182000,0.0324,0.013523,0.002678,0.000431,1.707449
1183000,0.0324,0.013523,0.002678,0.000431,1.766801
1184000,0.0324,0.013523,0.002678,0.000431,1.834615
1185000,0.0324,0.013523,0.002678,0.000431,1.570059
1186000,0.0324,0.013523,0.002678,0.000431,1.662671
1187000,0.0324,0.013523,0.002678,0.000431,1.617305
1188000,0.0324,0.013523,0.002678,0.000431,1.684766
1189000,0.0324,0.013523,0.002678,0.000431,1.667255
1190000,0.0324,0.013523,0.002678,0.000431,1.788896
1191000,0.0324,0.013523,0.002678,0.000431,1.736596
1192000,0.0324,0.013523,0.002678,0.000431,1.694404
1193000,0.0324,0.013523,0.002678,0.000431,1.605317
1194000,0.0324,0.013523,0.002678,0.000431,1.686412
1195000,0.0324,0.013523,0.002678,0.000431,1.660791
1196000,0.0324,0.013523,0.002678,0.000431,1.746939
1197000,0.0324,0.013523,0.002678,0.000431,1.622006
1198000,0.0324,0.013523,0.002678,0.000431,1.686882
1199000,0.0324,0.013523,0.002678,0.000431,1.747056
1200000,0.0324,0.013523,0.002678,0.000431,1.766919
1201000,0.0324,0.013523,0.002678,0.000431,1.736831
1202000,0.0324,0.013523,0.002678,0.000431,1.645982
1203000,0.0324,0.013523,0.002678,0.000431,1.686529
1204000,0.0324,0.013523,0.002678,0.000431,1.705216
1205000,0.0324,0.013523,0.002678,0.000431,1.614367
1206000,0.0324,0.013523,0.002678,0.000431,1.739182
1207000,0.0324,0.013523,0.002678,0.000431,1.829914
1208000,0.0324,0.013523,0.002678,0.000431,1.649508
1209000,0.0324,0.013523,0.002678,0.000431,1.634112
1210000,0.0324,0.013523,0.002678,0.000431,1.751993
1211000,0.0324,0.013523,0.002678,0.000431,1.724021
1212000,0.0324,0.013523,0.002678,0.000431,1.873987
1213000,0.0324,0.013523,0.002678,0.000431,1.655502
1214000,0.0324,0.013523,0.002678,0.000431,1.613544
1215000,0.0324,0.013523,0.002678,0.000431,1.805703
1216000,0.0324,0.013523,0.002678,0.000431,1.722493
1217000,0.0324,0.013523,0.002678,0.000431,1.782903
1218000,0.0324,0.013523,0.002678,0.000431,1.653622
1219000,0.0324,0.013523,0.002678,0.000431,1.710740
1220000,0.0324,0.013523,0.002678,0.000431,1.587806
1221000,0.0324,0.013523,0.002678,0.000431,1.672191
1222000,0.0324,0.013523,0.002678,0.000431,1.593330
1223000,0.0324,0.013523,0.002678,0.000431,1.756811
1224000,0.0324,0.013523,0.002678,0.000431,1.634347
1225000,0.0324,0.013523,0.002678,0.000431,1.718967
1226000,0.0324,0.013523,0.002678,0.000431,1.803000
1227000,0.0324,0.013523,0.002678,0.000431,1.730720
1228000,0.0324,0.013523,0.002678,0.000431,1.720142
1229000,0.0324,0.013523,0.002678,0.000431,1.608373
1230000,0.0324,0.013523,0.002678,0.000431,1.752345
1231000,0.0324,0.013523,0.002678,0.000431,1.772678
1232000,0.0324,0.013523,0.002678,0.000431,1.738712
1233000,0.0324,0.013523,0.002678,0.000431,1.730132
1234000,0.0324,0.013523,0.002678,0.000431,1.880568
1235000,0.0324,0.013523,0.002678,0.000431,1.740357
1236000,0.0324,0.013523,0.002678,0.000431,1.733423
1237000,0.0324,0.013523,0.002678,0.000431,1.621654
1238000,0.0324,0.013523,0.002678,0.000431,1.727429
1239000,0.0324,0.013523,0.002678,0.000431,1.686294
1240000,0.0324,0.013523,0.002678,0.000431,1.691701
1241000,0.0324,0.013523,0.002678,0.000431,1.635992
1242000,0.0324,0.013523,0.002678,0.000431,1.670428
1243000,0.0324,0.013523,0.002678,0.000431,1.783960
1244000,0.0324,0.013523,0.002678,0.000431,1.587688
1245000,0.0324,0.013523,0.002678,0.000431,1.772795
1246000,0.0324,0.013523,0.002678,0.000431,1.712973
1247000,0.0324,0.013523,0.002678,0.000431,1.670428
1248000,0.0324,0.013523,0.002678,0.000431,1.713561
1249000,0.0324,0.013523,0.002678,0.000431,1.593565
1250000,0.0324,0.013523,0.002678,0.000431,1.710740
1251000,0.0324,0.013523,0.002678,0.000431,1.758222
1252000,0.0324,0.013523,0.002678,0.000431,1.710035
1253000,0.0324,0.013523,0.002678,0.000431,1.702396
1254000,0.0324,0.013523,0.002678,0.000431,1.694639
1255000,0.0324,0.013523,0.002678,0.000431,1.777849
1256000,0.0324,0.013523,0.002678,0.000431,1.770562
1257000,0.0324,0.013523,0.002678,0.000431,1.789837
1258000,0.0324,0.013523,0.002678,0.000431,1.646217
1259000,0.0324,0.013523,0.002678,0.000431,1.621771
1260000,0.0324,0.013523,0.002678,0.000431,1.797358
1261000,0.0324,0.013523,0.002678,0.000431,1.742238
1262000,0.0324,0.013523,0.002678,0.000431,1.647040
1263000,0.0324,0.013523,0.002678,0.000431,1.795243
1264000,0.0324,0.013523,0.002678,0.000431,1.773853
1265000,0.0324,0.013523,0.002678,0.000431,1.810874
1266000,0.0324,0.013523,0.002678,0.000431,1.823567
1267000,0.0324,0.013523,0.002678,0.000431,1.926522
1268000,0.0324,0.013523,0.002678,0.000431,1.810287
1269000,0.0324,0.013523,0.002678,0.000431,1.576641
1270000,0.0324,0.013523,0.002678,0.000431,1.780552
1271000,0.0324,0.013523,0.002678,0.000431,1.745529
1272000,0.0324,0.013523,0.002678,0.000431,1.709918
1273000,0.0324,0.013523,0.002678,0.000431,1.810404
1274000,0.0324,0.013523,0.002678,0.000431,1.755283
1275000,0.0324,0.013523,0.002678,0.000431,1.783608
1276000,0.0324,0.013523,0.002678,0.000431,1.889736
1277000,0.0324,0.013523,0.002678,0.000431,1.818631
1278000,0.0324,0.013523,0.002678,0.000431,1.821922
1279000,0.0324,0.013523,0.002678,0.000431,1.722963
1280000,0.0324,0.013523,0.002678,0.000431,1.778084
1281000,0.0324,0.013523,0.002678,0.000431,1.825330
1282000,0.0324,0.013523,0.002678,0.000431,1.734246
1283000,0.0324,0.013523,0.002678,0.000431,1.838728
1284000,0.0324,0.013523,0.002678,0.000431,1.676187
1285000,0.0324,0.013523,0.002678,0.000431,1.753991
1286000,0.0324,0.013523,0.002678,0.000431,1.803705
1287000,0.0324,0.013523,0.002678,0.000431,1.779377
1288000,0.0324,0.013523,0.002678,0.000431,1.775028
1289000,0.0324,0.013523,0.002678,0.000431,1.788426
1290000,0.0324,0.013523,0.002678,0.000431,1.749525
1291000,0.0324,0.013523,0.002678,0.000431,1.810169
1292000,0.0324,0.013523,0.002678,0.000431,1.784078
1293000,0.0324,0.013523,0.002678,0.000431,1.713208
1294000,0.0324,0.013523,0.002678,0.000431,1.811462
1295000,0.0324,0.013523,0.002678,0.000431,1.663964
1296000,0.0324,0.013523,0.002678,0.000431,1.709212
1297000,0.0324,0.013523,0.002678,0.000431,1.747291
1298000,0.0324,0.013523,0.002678,0.000431,1.700045
1299000,0.0324,0.013523,0.002678,0.000431,1.649391
1300000,0.0324,0.013523,0.002678,0.000431,1.629881
1301000,0.0324,0.013523,0.002678,0.000431,1.747056
1302000,0.0324,0.013523,0.002678,0.000431,1.686412
1303000,0.0324,0.013523,0.002678,0.000431,1.752110
1304000,0.0324,0.013523,0.002678,0.000431,1.789954
1305000,0.0324,0.013523,0.002678,0.000431,1.740710
1306000,0.0324,0.013523,0.002678,0.000431,1.698282
1307000,0.0324,0.013523,0.002678,0.000431,1.765978
1308000,0.0324,0.013523,0.002678,0.000431,1.822745
1309000,0.0324,0.013523,0.002678,0.000431,1.755754
1310000,0.0324,0.013523,0.002678,0.000431,1.791600
1311000,0.0324,0.013523,0.002678,0.000431,1.856005
1312000,0.0324,0.013523,0.002678,0.000431,1.806761
1313000,0.0324,0.013523,0.002678,0.000431,1.791365
1314000,0.0324,0.013523,0.002678,0.000431,1.783255
1315000,0.0324,0.013523,0.002678,0.000431,1.698400
1316000,0.0324,0.013523,0.002678,0.000431,1.740945
1317000,0.0324,0.013523,0.002678,0.000431,1.670781
1318000,0.0324,0.013523,0.002678,0.000431,1.702043
1319000,0.0324,0.013523,0.002678,0.000431,1.729075
1320000,0.0324,0.013523,0.002678,0.000431,1.732248
1321000,0.0324,0.013523,0.002678,0.000431,1.611899
1322000,0.0324,0.013523,0.002678,0.000431,1.600851
1323000,0.0324,0.013523,0.002678,0.000431,1.772325
1324000,0.0324,0.013523,0.002678,0.000431,1.735891
1325000,0.0324,0.013523,0.002678,0.000431,1.711680
1326000,0.0324,0.013523,0.002678,0.000431,1.701691
1327000,0.0324,0.013523,0.002678,0.000431,1.686059
1328000,0.0324,0.013523,0.002678,0.000431,1.618598
1329000,0.0324,0.013523,0.002678,0.000431,1.650331
1330000,0.0324,0.013523,0.002678,0.000431,1.570412
1331000,0.0324,0.013523,0.002678,0.000431,1.639871
1332000,0.0324,0.013523,0.002678,0.000431,1.691113
1333000,0.0324,0.013523,0.002678,0.000431,1.729545
1334000,0.0324,0.013523,0.002678,0.000431,1.701103
1335000,0.0324,0.013523,0.002678,0.000431,1.641751
1336000,0.0324,0.013523,0.002678,0.000431,1.703453
1337000,0.0324,0.013523,0.002678,0.000431,1.685002
1338000,0.0324,0.013523,0.002678,0.000431,1.767859
1339000,0.0324,0.013523,0.002678,0.000431,1.577228
1340000,0.0324,0.013523,0.002678,0.000431,1.736714
1341000,0.0324,0.013523,0.002678,0.000431,1.668430
1342000,0.0324,0.013523,0.002678,0.000431,1.702748
1343000,0.0324,0.013523,0.002678,0.000431,1.687705
1344000,0.0324,0.013523,0.002678,0.000431,1.785606
1345000,0.0324,0.013523,0.002678,0.000431,1.744118
1346000,0.0324,0.013523,0.002678,0.000431,1.654679
1347000,0.0324,0.013523,0.002678,0.000431,1.683944
1348000,0.0324,0.013523,0.002678,0.000431,1.745646
1349000,0.0324,0.013523,0.002678,0.000431,1.633172
1350000,0.0324,0.013523,0.002678,0.000431,1.758222
1351000,0.0324,0.013523,0.002678,0.000431,1.799239
1352000,0.0324,0.013523,0.002678,0.000431,1.687822
1353000,0.0324,0.013523,0.002678,0.000431,1.613074
1354000,0.0324,0.013523,0.002678,0.000431,1.788661
1355000,0.0324,0.013523,0.002678,0.000431,1.622947
1356000,0.0324,0.013523,0.002678,0.000431,1.739417
1357000,0.0324,0.013523,0.002678,0.000431,1.694639
1358000,0.0324,0.013523,0.002678,0.000431,1.688762
1359000,0.0324,0.013523,0.002678,0.000431,1.528689
1360000,0.0324,0.013523,0.002678,0.000431,1.735069
1361000,0.0324,0.013523,0.002678,0.000431,1.695462
1362000,0.0324,0.013523,0.002678,0.000431,1.579109
1363000,0.0324,0.013523,0.002678,0.000431,1.606023
1364000,0.0324,0.013523,0.002678,0.000431,1.738712
1365000,0.0324,0.013523,0.002678,0.000431,1.688762
1366000,0.0324,0.013523,0.002678,0.000431,1.728369
1367000,0.0324,0.013523,0.002678,0.000431,1.812755
1368000,0.0324,0.013523,0.002678,0.000431,1.813812
1369000,0.0324,0.013523,0.002678,0.000431,1.705451
1370000,0.0324,0.013523,0.002678,0.000431,1.830501
1371000,0.0324,0.013523,0.002678,0.000431,1.757987
1372000,0.0324,0.013523,0.002678,0.000431,1.734246
1373000,0.0324,0.013523,0.002678,0.000431,1.653739
1374000,0.0324,0.013523,0.002678,0.000431,1.707332
1375000,0.0324,0.013523,0.002678,0.000431,1.548786
1376000,0.0324,0.013523,0.002678,0.000431,1.732953
1377000,0.0324,0.013523,0.002678,0.000431,1.707332
1378000,0.0324,0.013523,0.002678,0.000431,1.614015
1379000,0.0324,0.013523,0.002678,0.000431,1.614367
1380000,0.0324,0.013523,0.002678,0.000431,1.606845
1381000,0.0324,0.013523,0.002678,0.000431,1.668195
1382000,0.0324,0.013523,0.002678,0.000431,1.767624
1383000,0.0324,0.013523,0.002678,0.000431,1.826035
1384000,0.0324,0.013523,0.002678,0.000431,1.757634
1385000,0.0324,0.013523,0.002678,0.000431,1.773853
1386000,0.0324,0.013523,0.002678,0.000431,1.567826
1387000,0.0324,0.013523,0.002678,0.000431,1.615072
1388000,0.0324,0.013523,0.002678,0.000431,1.620361
1389000,0.0324,0.013523,0.002678,0.000431,1.670663
1390000,0.0324,0.013523,0.002678,0.000431,1.806291
1391000,0.0324,0.013523,0.002678,0.000431,1.726019
1392000,0.0324,0.013523,0.002678,0.000431,1.888560
1393000,0.0324,0.013523,0.002678,0.000431,1.723081
1394000,0.0324,0.013523,0.002678,0.000431,1.669253
1395000,0.0324,0.013523,0.002678,0.000431,1.783373
1396000,0.0324,0.013523,0.002678,0.000431,1.741650
1397000,0.0324,0.013523,0.002678,0.000431,1.736126
1398000,0.0324,0.013523,0.002678,0.000431,1.820394
1399000,0.0324,0.013523,0.002678,0.000431,1.723903
1400000,0.0324,0.013523,0.002678,0.000431,1.688410
1401000,0.0324,0.013523,0.002678,0.000431,1.720378
1402000,0.0324,0.013523,0.002678,0.000431,1.782785
1403000,0.0324,0.013523,0.002678,0.000431,1.672191
1404000,0.0324,0.013523,0.002678,0.000431,1.744706
1405000,0.0324,0.013523,0.002678,0.000431,1.770445
1406000,0.0324,0.013523,0.002678,0.000431,1.702748
1407000,0.0324,0.013523,0.002678,0.000431,1.652094
1408000,0.0324,0.013523,0.002678,0.000431,1.583810
1409000,0.0324,0.013523,0.002678,0.000431,1.663729
1410000,0.0324,0.013523,0.002678,0.000431,1.513175
1411000,0.0324,0.013523,0.002678,0.000431,1.454646
1412000,0.0324,0.013523,0.002678,0.000431,1.774676
1413000,0.0324,0.013523,0.002678,0.000431,1.708860
1414000,0.0324,0.013523,0.002678,0.000431,1.792540
1415000,0.0324,0.013523,0.002678,0.000431,1.858591
1416000,0.0324,0.013523,0.002678,0.000431,1.723081
1417000,0.0324,0.013523,0.002678,0.000431,1.737654
1418000,0.0324,0.013523,0.002678,0.000431,1.693464
1419000,0.0324,0.013523,0.002678,0.000431,1.744236
1420000,0.0324,0.013523,0.002678,0.000431,1.747174
1421000,0.0324,0.013523,0.002678,0.000431,1.778672
1422000,0.0324,0.013523,0.002678,0.000431,1.680771
1423000,0.0324,0.013523,0.002678,0.000431,1.753168
1424000,0.0324,0.013523,0.002678,0.000431,1.706274
1425000,0.0324,0.013523,0.002678,0.000431,1.763040
1426000,0.0324,0.013523,0.002678,0.000431,1.810522
1427000,0.0324,0.013523,0.002678,0.000431,1.727899
1428000,0.0324,0.013523,0.002678,0.000431,1.834968
1429000,0.0324,0.013523,0.002678,0.000431,1.696519
1430000,0.0324,0.013523,0.002678,0.000431,1.700163
1431000,0.0324,0.013523,0.002678,0.000431,1.724844
1432000,0.0324,0.013523,0.002678,0.000431,1.633289
1433000,0.0324,0.013523,0.002678,0.000431,1.696284
1434000,0.0324,0.013523,0.002678,0.000431,1.617305
1435000,0.0324,0.013523,0.002678,0.000431,1.737537
1436000,0.0324,0.013523,0.002678,0.000431,1.713326
1437000,0.0324,0.013523,0.002678,0.000431,1.723198
1438000,0.0324,0.013523,0.002678,0.000431,1.644924
1439000,0.0324,0.013523,0.002678,0.000431,1.671956
1440000,0.0324,0.013523,0.002678,0.000431,1.851774
1441000,0.0324,0.013523,0.002678,0.000431,1.741885
1442000,0.0324,0.013523,0.002678,0.000431,1.849306
1443000,0.0324,0.013523,0.002678,0.000431,1.779729
1444000,0.0324,0.013523,0.002678,0.000431,1.572762
1445000,0.0324,0.013523,0.002678,0.000431,1.666785
1446000,0.0324,0.013523,0.002678,0.000431,1.785253
1447000,0.0324,0.013523,0.002678,0.000431,1.841197
1448000,0.0324,0.013523,0.002678,0.000431,1.731425
1449000,0.0324,0.013523,0.002678,0.000431,1.845545
1450000,0.0324,0.013523,0.002678,0.000431,1.923114
1451000,0.0324,0.013523,0.002678,0.000431,1.758927
1452000,0.0324,0.013523,0.002678,0.000431,1.742120
1453000,0.0324,0.013523,0.002678,0.000431,1.763980
1454000,0.0324,0.013523,0.002678,0.000431,1.817456
1455000,0.0324,0.013523,0.002678,0.000431,1.702278
1456000,0.0324,0.013523,0.002678,0.000431,1.618951
1457000,0.0324,0.013523,0.002678,0.000431,1.814988
1458000,0.0324,0.013523,0.002678,0.000431,1.820512
1459000,0.0324,0.013523,0.002678,0.000431,1.712033
1460000,0.0324,0.013523,0.002678,0.000431,1.793950
1461000,0.0324,0.013523,0.002678,0.000431,1.722846
1462000,0.0324,0.013523,0.002678,0.000431,1.718850
1463000,0.0324,0.013523,0.002678,0.000431,1.784901
1464000,0.0324,0.013523,0.002678,0.000431,1.855770
1465000,0.0324,0.013523,0.002678,0.000431,1.808054
1466000,0.0324,0.013523,0.002678,0.000431,1.852244
1467000,0.0324,0.013523,0.002678,0.000431,1.896317
1468000,0.0324,0.013523,0.002678,0.000431,1.810287
1469000,0.0324,0.013523,0.002678,0.000431,1.778084
1470000,0.0324,0.013523,0.002678,0.000431,1.824978
1471000,0.0324,0.013523,0.002678,0.000431,1.831207
1472000,0.0324,0.013523,0.002678,0.000431,1.792657
1473000,0.0324,0.013523,0.002678,0.000431,1.746234
1474000,0.0324,0.013523,0.002678,0.000431,1.753520
1475000,0.0324,0.013523,0.002678,0.000431,1.641634
1476000,0.0324,0.013523,0.002678,0.000431,1.753050
1477000,0.0324,0.013523,0.002678,0.000431,1.803117
1478000,0.0324,0.013523,0.002678,0.000431,1.855770
1479000,0.0324,0.013523,0.002678,0.000431,1.793598
1480000,0.0324,0.013523,0.002678,0.000431,1.838376
1481000,0.0324,0.013523,0.002678,0.000431,1.871989
1482000,0.0324,0.013523,0.002678,0.000431,1.720378
1483000,0.0324,0.013523,0.002678,0.000431,1.860941
1484000,0.0324,0.013523,0.002678,0.000431,1.597561
1485000,0.0324,0.013523,0.002678,0.000431,1.782550
1486000,0.0324,0.013523,0.002678,0.000431,1.782550
1487000,0.0324,0.013523,0.002678,0.000431,1.768329
1488000,0.0324,0.013523,0.002678,0.000431,1.792540
1489000,0.0324,0.013523,0.002678,0.000431,1.878218
1490000,0.0324,0.013523,0.002678,0.000431,1.769622
1491000,0.0324,0.013523,0.002678,0.000431,1.748937
1492000,0.0324,0.013523,0.002678,0.000431,1.830736
1493000,0.0324,0.013523,0.002678,0.000431,1.664317
1494000,0.0324,0.013523,0.002678,0.000431,1.838023
1495000,0.0324,0.013523,0.002678,0.000431,1.715206
1496000,0.0324,0.013523,0.002678,0.000431,1.820864
1497000,0.0324,0.013523,0.002678,0.000431,1.823450
1498000,0.0324,0.013523,0.002678,0.000431,1.661848
1499000,0.0324,0.013523,0.002678,0.000431,1.812990
1500000,0.0324,0.013523,0.002678,0.000431,1.802882
1501000,0.0324,0.013523,0.002678,0.000431,1.829914
1502000,0.0324,0.013523,0.002678,0.000431,1.887973
1503000,0.0324,0.013523,0.002678,0.000431,1.809816
1504000,0.0324,0.013523,0.002678,0.000431,1.880686
1505000,0.0324,0.013523,0.002678,0.000431,1.873869
1506000,0.0324,0.013523,0.002678,0.000431,1.846603
1507000,0.0324,0.013523,0.002678,0.000431,1.712268
1508000,0.0324,0.013523,0.002678,0.000431,1.833205
1509000,0.0324,0.013523,0.002678,0.000431,1.715089
1510000,0.0324,0.013523,0.002678,0.000431,1.729662
1511000,0.0324,0.013523,0.002678,0.000431,1.806408
1512000,0.0324,0.013523,0.002678,0.000431,1.686059
1513000,0.0324,0.013523,0.002678,0.000431,1.726371
1514000,0.0324,0.013523,0.002678,0.000431,1.848366
1515000,0.0324,0.013523,0.002678,0.000431,1.781375
1516000,0.0324,0.013523,0.002678,0.000431,1.661261
1517000,0.0324,0.013523,0.002678,0.000431,1.751405
1518000,0.0324,0.013523,0.002678,0.000431,1.678538
1519000,0.0324,0.013523,0.002678,0.000431,1.697107
1520000,0.0324,0.013523,0.002678,0.000431,1.843194
1521000,0.0324,0.013523,0.002678,0.000431,1.849306
1522000,0.0324,0.013523,0.002678,0.000431,1.767506
1523000,0.0324,0.013523,0.002678,0.000431,1.784901
1524000,0.0324,0.013523,0.002678,0.000431,1.703453
1525000,0.0324,0.013523,0.002678,0.000431,1.786076
1526000,0.0324,0.013523,0.002678,0.000431,1.752345
1527000,0.0324,0.013523,0.002678,0.000431,1.905014
1528000,0.0324,0.013523,0.002678,0.000431,1.855182
1529000,0.0324,0.013523,0.002678,0.000431,1.797711
1530000,0.0324,0.013523,0.002678,0.000431,1.874222
1531000,0.0324,0.013523,0.002678,0.000431,1.692641
1532000,0.0324,0.013523,0.002678,0.000431,1.776203
1533000,0.0324,0.013523,0.002678,0.000431,1.657265
1534000,0.0324,0.013523,0.002678,0.000431,1.818514
1535000,0.0324,0.013523,0.002678,0.000431,1.636580
1536000,0.0324,0.013523,0.002678,0.000431,1.781375
1537000,0.0324,0.013523,0.002678,0.000431,1.595563
1538000,0.0324,0.013523,0.002678,0.000431,1.637050
1539000,0.0324,0.013523,0.002678,0.000431,1.736126
1540000,0.0324,0.013523,0.002678,0.000431,1.656442
1541000,0.0324,0.013523,0.002678,0.000431,1.758222
1542000,0.0324,0.013523,0.002678,0.000431,1.710505
1543000,0.0324,0.013523,0.002678,0.000431,1.721905
1544000,0.0324,0.013523,0.002678,0.000431,1.774911
1545000,0.0324,0.013523,0.002678,0.000431,1.662436
1546000,0.0324,0.013523,0.002678,0.000431,1.689233
1547000,0.0324,0.013523,0.002678,0.000431,1.641869
1548000,0.0324,0.013523,0.002678,0.000431,1.770327
1549000,0.0324,0.013523,0.002678,0.000431,1.732836
1550000,0.0324,0.013523,0.002678,0.000431,1.690173
1551000,0.0324,0.013523,0.002678,0.000431,1.714501
1552000,0.0324,0.013523,0.002678,0.000431,1.584632
1553000,0.0324,0.013523,0.002678,0.000431,1.721553
1554000,0.0324,0.013523,0.002678,0.000431,1.704276
1555000,0.0324,0.013523,0.002678,0.000431,1.784078
1556000,0.0324,0.013523,0.002678,0.000431,1.762688
1557000,0.0324,0.013523,0.002678,0.000431,1.639871
1558000,0.0324,0.013523,0.002678,0.000431,1.621419
1559000,0.0324,0.013523,0.002678,0.000431,1.669135
1560000,0.0324,0.013523,0.002678,0.000431,1.499189
1561000,0.0324,0.013523,0.002678,0.000431,1.656795
1562000,0.0324,0.013523,0.002678,0.000431,1.541030
1563000,0.0324,0.013523,0.002678,0.000431,1.590979
1564000,0.0324,0.013523,0.002678,0.000431,1.626120
1565000,0.0324,0.013523,0.002678,0.000431,1.646335
1566000,0.0324,0.013523,0.002678,0.000431,1.603202
1567000,0.0324,0.013523,0.002678,0.000431,1.629763
1568000,0.0324,0.013523,0.002678,0.000431,1.783960
1569000,0.0324,0.013523,0.002678,0.000431,1.701691
1570000,0.0324,0.013523,0.002678,0.000431,1.674071
1571000,0.0324,0.013523,0.002678,0.000431,1.483558
1572000,0.0324,0.013523,0.002678,0.000431,1.672073
1573000,0.0324,0.013523,0.002678,0.000431,1.610136
1574000,0.0324,0.013523,0.002678,0.000431,1.650448
1575000,0.0324,0.013523,0.002678,0.000431,1.665492
1576000,0.0324,0.013523,0.002678,0.000431,1.719437
1577000,0.0324,0.013523,0.002678,0.000431,1.619656
1578000,0.0324,0.013523,0.002678,0.000431,1.737184
1579000,0.0324,0.013523,0.002678,0.000431,1.679360
1580000,0.0324,0.013523,0.002678,0.000431,1.826270
1581000,0.0324,0.013523,0.002678,0.000431,1.826623
1582000,0.0324,0.013523,0.002678,0.000431,1.653151
1583000,0.0324,0.013523,0.002678,0.000431,1.698635
1584000,0.0324,0.013523,0.002678,0.000431,1.676422
1585000,0.0324,0.013523,0.002678,0.000431,1.596385
1586000,0.0324,0.013523,0.002678,0.000431,1.696049
1587000,0.0324,0.013523,0.002678,0.000431,1.692406
1588000,0.0324,0.013523,0.002678,0.000431,1.799592
1589000,0.0324,0.013523,0.002678,0.000431,1.778084
1590000,0.0324,0.013523,0.002678,0.000431,1.848013
1591000,0.0324,0.013523,0.002678,0.000431,1.737654
1592000,0.0324,0.013523,0.002678,0.000431,1.702513
1593000,0.0324,0.013523,0.002678,0.000431,1.706979
1594000,0.0324,0.013523,0.002678,0.000431,1.830149
1595000,0.0324,0.013523,0.002678,0.000431,1.813930
1596000,0.0324,0.013523,0.002678,0.000431,1.799592
1597000,0.0324,0.013523,0.002678,0.000431,1.661026
1598000,0.0324,0.013523,0.002678,0.000431,1.747291
1599000,0.0324,0.013523,0.002678,0.000431,1.720495
1600000,0.0324,0.013523,0.002678,0.000431,1.788426
1601000,0.0324,0.013523,0.002678,0.000431,1.853419
1602000,0.0324,0.013523,0.002678,0.000431,1.807466
1603000,0.0324,0.013523,0.002678,0.000431,1.663494
1604000,0.0324,0.013523,0.002678,0.000431,1.653739
1605000,0.0324,0.013523,0.002678,0.000431,1.700280
1606000,0.0324,0.013523,0.002678,0.000431,1.622947
1607000,0.0324,0.013523,0.002678,0.000431,1.741533
1608000,0.0324,0.013523,0.002678,0.000431,1.671603
1609000,0.0324,0.013523,0.002678,0.000431,1.555721
1610000,0.0324,0.013523,0.002678,0.000431,1.640693
1611000,0.0324,0.013523,0.002678,0.000431,1.659028
1612000,0.0324,0.013523,0.002678,0.000431,1.700045
1613000,0.0324,0.013523,0.002678,0.000431,1.710975
1614000,0.0324,0.013523,0.002678,0.000431,1.769269
1615000,0.0324,0.013523,0.002678,0.000431,1.797829
1616000,0.0324,0.013523,0.002678,0.000431,1.743648
1617000,0.0324,0.013523,0.002678,0.000431,1.651976
1618000,0.0324,0.013523,0.002678,0.000431,1.737654
1619000,0.0324,0.013523,0.002678,0.000431,1.801590
1620000,0.0324,0.013523,0.002678,0.000431,1.674659
1621000,0.0324,0.013523,0.002678,0.000431,1.830149
1622000,0.0324,0.013523,0.002678,0.000431,1.717204
1623000,0.0324,0.013523,0.002678,0.000431,1.801707
1624000,0.0324,0.013523,0.002678,0.000431,1.764451
1625000,0.0324,0.013523,0.002678,0.000431,1.661378
1626000,0.0324,0.013523,0.002678,0.000431,1.713091
1627000,0.0324,0.013523,0.002678,0.000431,1.758692
1628000,0.0324,0.013523,0.002678,0.000431,1.528336
1629000,0.0324,0.013523,0.002678,0.000431,1.692641
1630000,0.0324,0.013523,0.002678,0.000431,1.699928
1631000,0.0324,0.013523,0.002678,0.000431,1.760807
1632000,0.0324,0.013523,0.002678,0.000431,1.631409
1633000,0.0324,0.013523,0.002678,0.000431,1.566886
1634000,0.0324,0.013523,0.002678,0.000431,1.770209
1635000,0.0324,0.013523,0.002678,0.000431,1.687705
1636000,0.0324,0.013523,0.002678,0.000431,1.774676
1637000,0.0324,0.013523,0.002678,0.000431,1.736009
1638000,0.0324,0.013523,0.002678,0.000431,1.820041
1639000,0.0324,0.013523,0.002678,0.000431,1.787721
1640000,0.0324,0.013523,0.002678,0.000431,1.713796
1641000,0.0324,0.013523,0.002678,0.000431,1.661026
1642000,0.0324,0.013523,0.002678,0.000431,1.752110
1643000,0.0324,0.013523,0.002678,0.000431,1.667490
1644000,0.0324,0.013523,0.002678,0.000431,1.679948
1645000,0.0324,0.013523,0.002678,0.000431,1.643397
1646000,0.0324,0.013523,0.002678,0.000431,1.677010
1647000,0.0324,0.013523,0.002678,0.000431,1.723316
1648000,0.0324,0.013523,0.002678,0.000431,1.781022
1649000,0.0324,0.013523,0.002678,0.000431,1.783725
1650000,0.0324,0.013523,0.002678,0.000431,1.817103
1651000,0.0324,0.013523,0.002678,0.000431,1.748819
1652000,0.0324,0.013523,0.002678,0.000431,1.748114
1653000,0.0324,0.013523,0.002678,0.000431,1.752463
1654000,0.0324,0.013523,0.002678,0.000431,1.626943
1655000,0.0324,0.013523,0.002678,0.000431,1.733893
1656000,0.0324,0.013523,0.002678,0.000431,1.714854
1657000,0.0324,0.013523,0.002678,0.000431,1.708272
1658000,0.0324,0.013523,0.002678,0.000431,1.723198
1659000,0.0324,0.013523,0.002678,0.000431,1.571704
1660000,0.0324,0.013523,0.002678,0.000431,1.816633
1661000,0.0324,0.013523,0.002678,0.000431,1.718262
1662000,0.0324,0.013523,0.002678,0.000431,1.757399
1663000,0.0324,0.013523,0.002678,0.000431,1.785253
1664000,0.0324,0.013523,0.002678,0.000431,1.648568
1665000,0.0324,0.013523,0.002678,0.000431,1.800532
1666000,0.0324,0.013523,0.002678,0.000431,1.722963
1667000,0.0324,0.013523,0.002678,0.000431,1.728957
1668000,0.0324,0.013523,0.002678,0.000431,1.652564
1669000,0.0324,0.013523,0.002678,0.000431,1.697812
1670000,0.0324,0.013523,0.002678,0.000431,1.706274
1671000,0.0324,0.013523,0.002678,0.000431,1.781492
1672000,0.0324,0.013523,0.002678,0.000431,1.727899
1673000,0.0324,0.013523,0.002678,0.000431,1.633994
1674000,0.0324,0.013523,0.002678,0.000431,1.617893
1675000,0.0324,0.013523,0.002678,0.000431,1.737537
1676000,0.0324,0.013523,0.002678,0.000431,1.730485
1677000,0.0324,0.013523,0.002678,0.000431,1.791600
1678000,0.0324,0.013523,0.002678,0.000431,1.750465
1679000,0.0324,0.013523,0.002678,0.000431,1.650331
1680000,0.0324,0.013523,0.002678,0.000431,1.831442
1681000,0.0324,0.013523,0.002678,0.000431,1.700163
1682000,0.0324,0.013523,0.002678,0.000431,1.569824
1683000,0.0324,0.013523,0.002678,0.000431,1.753756
1684000,0.0324,0.013523,0.002678,0.000431,1.538796
1685000,0.0324,0.013523,0.002678,0.000431,1.733658
1686000,0.0324,0.013523,0.002678,0.000431,1.654562
1687000,0.0324,0.013523,0.002678,0.000431,1.659733
1688000,0.0324,0.013523,0.002678,0.000431,1.789719
1689000,0.0324,0.013523,0.002678,0.000431,1.853067
1690000,0.0324,0.013523,0.002678,0.000431,1.719907
1691000,0.0324,0.013523,0.002678,0.000431,1.726607
1692000,0.0324,0.013523,0.002678,0.000431,1.762335
1693000,0.0324,0.013523,0.002678,0.000431,1.788426
1694000,0.0324,0.013523,0.002678,0.000431,1.632584
1695000,0.0324,0.013523,0.002678,0.000431,1.774440
1696000,0.0324,0.013523,0.002678,0.000431,1.658088
1697000,0.0324,0.013523,0.002678,0.000431,1.763628
1698000,0.0324,0.013523,0.002678,0.000431,1.735421
1699000,0.0324,0.013523,0.002678,0.000431,1.740240
1700000,0.0324,0.013523,0.002678,0.000431,1.769387
1701000,0.0324,0.013523,0.002678,0.000431,1.743296
1702000,0.0324,0.013523,0.002678,0.000431,1.814870
1703000,0.0324,0.013523,0.002678,0.000431,1.750700
1704000,0.0324,0.013523,0.002678,0.000431,1.801472
1705000,0.0324,0.013523,0.002678,0.000431,1.756694
1706000,0.0324,0.013523,0.002678,0.000431,1.867993
1707000,0.0324,0.013523,0.002678,0.000431,1.706862
1708000,0.0324,0.013523,0.002678,0.000431,1.884799
1709000,0.0324,0.013523,0.002678,0.000431,1.872929
1710000,0.0324,0.013523,0.002678,0.000431,1.748937
1711000,0.0324,0.013523,0.002678,0.000431,1.751758
1712000,0.0324,0.013523,0.002678,0.000431,1.675482
1713000,0.0324,0.013523,0.002678,0.000431,1.811109
1714000,0.0324,0.013523,0.002678,0.000431,1.726371
1715000,0.0324,0.013523,0.002678,0.000431,1.765508
1716000,0.0324,0.013523,0.002678,0.000431,1.838258
1717000,0.0324,0.013523,0.002678,0.000431,1.877983
1718000,0.0324,0.013523,0.002678,0.000431,1.909833
1719000,0.0324,0.013523,0.002678,0.000431,1.813225
1720000,0.0324,0.013523,0.002678,0.000431,1.715324
1721000,0.0324,0.013523,0.002678,0.000431,1.804763
1722000,0.0324,0.013523,0.002678,0.000431,1.887503
1723000,0.0324,0.013523,0.002678,0.000431,1.917002
1724000,0.0324,0.013523,0.002678,0.000431,1.792422
1725000,0.0324,0.013523,0.002678,0.000431,1.787251
1726000,0.0324,0.013523,0.002678,0.000431,1.911831
1727000,0.0324,0.013523,0.002678,0.000431,1.789719
1728000,0.0324,0.013523,0.002678,0.000431,1.755048
1729000,0.0324,0.013523,0.002678,0.000431,1.723551
1730000,0.0324,0.013523,0.002678,0.000431,1.725549
1731000,0.0324,0.013523,0.002678,0.000431,1.738007
1732000,0.0324,0.013523,0.002678,0.000431,1.674071
1733000,0.0324,0.013523,0.002678,0.000431,1.743178
1734000,0.0324,0.013523,0.002678,0.000431,1.732130
1735000,0.0324,0.013523,0.002678,0.000431,1.777379
1736000,0.0324,0.013523,0.002678,0.000431,1.778907
1737000,0.0324,0.013523,0.002678,0.000431,1.695109
1738000,0.0324,0.013523,0.002678,0.000431,1.531510
1739000,0.0324,0.013523,0.002678,0.000431,1.753520
1740000,0.0324,0.013523,0.002678,0.000431,1.584397
1741000,0.0324,0.013523,0.002678,0.000431,1.737654
1742000,0.0324,0.013523,0.002678,0.000431,1.745646
1743000,0.0324,0.013523,0.002678,0.000431,1.808289
1744000,0.0324,0.013523,0.002678,0.000431,1.684766
1745000,0.0324,0.013523,0.002678,0.000431,1.591567
1746000,0.0324,0.013523,0.002678,0.000431,1.760102
1747000,0.0324,0.013523,0.002678,0.000431,1.741415
1748000,0.0324,0.013523,0.002678,0.000431,1.739887
1749000,0.0324,0.013523,0.002678,0.000431,1.796066
1750000,0.0324,0.013523,0.002678,0.000431,1.662084
1751000,0.0324,0.013523,0.002678,0.000431,1.800649
1752000,0.0324,0.013523,0.002678,0.000431,1.639401
1753000,0.0324,0.013523,0.002678,0.000431,1.770327
1754000,0.0324,0.013523,0.002678,0.000431,1.700045
1755000,0.0324,0.013523,0.002678,0.000431,1.698987
1756000,0.0324,0.013523,0.002678,0.000431,1.727547
1757000,0.0324,0.013523,0.002678,0.000431,1.793598
1758000,0.0324,0.013523,0.002678,0.000431,1.720378
1759000,0.0324,0.013523,0.002678,0.000431,1.588628
1760000,0.0324,0.013523,0.002678,0.000431,1.742238
1761000,0.0324,0.013523,0.002678,0.000431,1.683709
1762000,0.0324,0.013523,0.002678,0.000431,1.659028
1763000,0.0324,0.013523,0.002678,0.000431,1.708860
1764000,0.0324,0.013523,0.002678,0.000431,1.772795
1765000,0.0324,0.013523,0.002678,0.000431,1.651976
1766000,0.0324,0.013523,0.002678,0.000431,1.635992
1767000,0.0324,0.013523,0.002678,0.000431,1.717557
1768000,0.0324,0.013523,0.002678,0.000431,1.749760
1769000,0.0324,0.013523,0.002678,0.000431,1.812755
1770000,0.0324,0.013523,0.002678,0.000431,1.736361
1771000,0.0324,0.013523,0.002678,0.000431,1.759867
1772000,0.0324,0.013523,0.002678,0.000431,1.692758
1773000,0.0324,0.013523,0.002678,0.000431,1.773030
1774000,0.0324,0.013523,0.002678,0.000431,1.760455
1775000,0.0324,0.013523,0.002678,0.000431,1.750935
1776000,0.0324,0.013523,0.002678,0.000431,1.789014
1777000,0.0324,0.013523,0.002678,0.000431,1.707332
1778000,0.0324,0.013523,0.002678,0.000431,1.793833
1779000,0.0324,0.013523,0.002678,0.000431,1.810874
1780000,0.0324,0.013523,0.002678,0.000431,1.726842
1781000,0.0324,0.013523,0.002678,0.000431,1.765391
1782000,0.0324,0.013523,0.002678,0.000431,1.805233
1783000,0.0324,0.013523,0.002678,0.000431,1.683474
1784000,0.0324,0.013523,0.002678,0.000431,1.661143
1785000,0.0324,0.013523,0.002678,0.000431,1.826153
1786000,0.0324,0.013523,0.002678,0.000431,1.734363
1787000,0.0324,0.013523,0.002678,0.000431,1.749760
1788000,0.0324,0.013523,0.002678,0.000431,1.707097
1789000,0.0324,0.013523,0.002678,0.000431,1.728487
1790000,0.0324,0.013523,0.002678,0.000431,1.725901
1791000,0.0324,0.013523,0.002678,0.000431,1.714619
1792000,0.0324,0.013523,0.002678,0.000431,1.766096
1793000,0.0324,0.013523,0.002678,0.000431,1.784078
1794000,0.0324,0.013523,0.002678,0.000431,1.805585
1795000,0.0324,0.013523,0.002678,0.000431,1.638225
1796000,0.0324,0.013523,0.002678,0.000431,1.759397
1797000,0.0324,0.013523,0.002678,0.000431,1.794303
1798000,0.0324,0.013523,0.002678,0.000431,1.792187
1799000,0.0324,0.013523,0.002678,0.000431,1.856240
1800000,0.0324,0.013523,0.002678,0.000431,1.818866
1801000,0.0324,0.013523,0.002678,0.000431,1.832029
1802000,0.0324,0.013523,0.002678,0.000431,1.835320
1803000,0.0324,0.013523,0.002678,0.000431,1.825213
1804000,0.0324,0.013523,0.002678,0.000431,1.877395
1805000,0.0324,0.013523,0.002678,0.000431,1.754108
1806000,0.0324,0.013523,0.002678,0.000431,1.793245
1807000,0.0324,0.013523,0.002678,0.000431,1.841432
1808000,0.0324,0.013523,0.002678,0.000431,1.727429
1809000,0.0324,0.013523,0.002678,0.000431,1.634229
1810000,0.0324,0.013523,0.002678,0.000431,1.662789
1811000,0.0324,0.013523,0.002678,0.000431,1.770797
1812000,0.0324,0.013523,0.002678,0.000431,1.781962
1813000,0.0324,0.013523,0.002678,0.000431,1.799827
1814000,0.0324,0.013523,0.002678,0.000431,1.757399
1815000,0.0324,0.013523,0.002678,0.000431,1.583810
1816000,0.0324,0.013523,0.002678,0.000431,1.643867
1817000,0.0324,0.013523,0.002678,0.000431,1.626002
1818000,0.0324,0.013523,0.002678,0.000431,1.732248
1819000,0.0324,0.013523,0.002678,0.000431,1.804410
1820000,0.0324,0.013523,0.002678,0.000431,1.834262
1821000,0.0324,0.013523,0.002678,0.000431,1.688175
1822000,0.0324,0.013523,0.002678,0.000431,1.614602
1823000,0.0324,0.013523,0.002678,0.000431,1.649391
1824000,0.0324,0.013523,0.002678,0.000431,1.743648
1825000,0.0324,0.013523,0.002678,0.000431,1.702161
1826000,0.0324,0.013523,0.002678,0.000431,1.699222
1827000,0.0324,0.013523,0.002678,0.000431,1.719202
1828000,0.0324,0.013523,0.002678,0.000431,1.723668
1829000,0.0324,0.013523,0.002678,0.000431,1.759397
1830000,0.0324,0.013523,0.002678,0.000431,1.829209
1831000,0.0324,0.013523,0.002678,0.000431,1.729192
1832000,0.0324,0.013523,0.002678,0.000431,1.629411
1833000,0.0324,0.013523,0.002678,0.000431,1.759397
1834000,0.0324,0.013523,0.002678,0.000431,1.665844
1835000,0.0324,0.013523,0.002678,0.000431,1.722846
1836000,0.0324,0.013523,0.002678,0.000431,1.740710
1837000,0.0324,0.013523,0.002678,0.000431,1.784783
1838000,0.0324,0.013523,0.002678,0.000431,1.821099
1839000,0.0324,0.013523,0.002678,0.000431,1.705099
1840000,0.0324,0.013523,0.002678,0.000431,1.770327
1841000,0.0324,0.013523,0.002678,0.000431,1.781845
1842000,0.0324,0.013523,0.002678,0.000431,1.763510
1843000,0.0324,0.013523,0.002678,0.000431,1.742825
1844000,0.0324,0.013523,0.002678,0.000431,1.712856
1845000,0.0324,0.013523,0.002678,0.000431,1.886915
1846000,0.0324,0.013523,0.002678,0.000431,1.811579
1847000,0.0324,0.013523,0.002678,0.000431,1.790424
1848000,0.0324,0.013523,0.002678,0.000431,1.754813
1849000,0.0324,0.013523,0.002678,0.000431,1.682886
1850000,0.0324,0.013523,0.002678,0.000431,1.714031
1851000,0.0324,0.013523,0.002678,0.000431,1.761630
1852000,0.0324,0.013523,0.002678,0.000431,1.645159
1853000,0.0324,0.013523,0.002678,0.000431,1.854830
1854000,0.0324,0.013523,0.002678,0.000431,1.796066
1855000,0.0324,0.013523,0.002678,0.000431,1.792657
1856000,0.0324,0.013523,0.002678,0.000431,1.755283
1857000,0.0324,0.013523,0.002678,0.000431,1.827798
1858000,0.0324,0.013523,0.002678,0.000431,1.719672
1859000,0.0324,0.013523,0.002678,0.000431,1.598501
1860000,0.0324,0.013523,0.002678,0.000431,1.864820
1861000,0.0324,0.013523,0.002678,0.000431,1.678773
1862000,0.0324,0.013523,0.002678,0.000431,1.708742
1863000,0.0324,0.013523,0.002678,0.000431,1.786428
1864000,0.0324,0.013523,0.002678,0.000431,1.715676
1865000,0.0324,0.013523,0.002678,0.000431,1.668195
1866000,0.0324,0.013523,0.002678,0.000431,1.744588
1867000,0.0324,0.013523,0.002678,0.000431,1.771385
1868000,0.0324,0.013523,0.002678,0.000431,1.743060
1869000,0.0324,0.013523,0.002678,0.000431,1.870226
1870000,0.0324,0.013523,0.002678,0.000431,1.710270
1871000,0.0324,0.013523,0.002678,0.000431,1.754696
1872000,0.0324,0.013523,0.002678,0.000431,1.662319
1873000,0.0324,0.013523,0.002678,0.000431,1.729545
1874000,0.0324,0.013523,0.002678,0.000431,1.607786
1875000,0.0324,0.013523,0.002678,0.000431,1.827328
1876000,0.0324,0.013523,0.002678,0.000431,1.645865
1877000,0.0324,0.013523,0.002678,0.000431,1.814047
1878000,0.0324,0.013523,0.002678,0.000431,1.871989
1879000,0.0324,0.013523,0.002678,0.000431,1.714854
1880000,0.0324,0.013523,0.002678,0.000431,1.731308
1881000,0.0324,0.013523,0.002678,0.000431,1.609078
1882000,0.0324,0.013523,0.002678,0.000431,1.692406
1883000,0.0324,0.013523,0.002678,0.000431,1.739535
1884000,0.0324,0.013523,0.002678,0.000431,1.700163
1885000,0.0324,0.013523,0.002678,0.000431,1.749760
1886000,0.0324,0.013523,0.002678,0.000431,1.746586
1887000,0.0324,0.013523,0.002678,0.000431,1.722728
1888000,0.0324,0.013523,0.002678,0.000431,1.705804
1889000,0.0324,0.013523,0.002678,0.000431,1.792657
1890000,0.0324,0.013523,0.002678,0.000431,1.749054
1891000,0.0324,0.013523,0.002678,0.000431,1.684414
1892000,0.0324,0.013523,0.002678,0.000431,1.697812
1893000,0.0324,0.013523,0.002678,0.000431,1.651741
1894000,0.0324,0.013523,0.002678,0.000431,1.802412
1895000,0.0324,0.013523,0.002678,0.000431,1.591684
1896000,0.0324,0.013523,0.002678,0.000431,1.749995
1897000,0.0324,0.013523,0.002678,0.000431,1.800179
1898000,0.0324,0.013523,0.002678,0.000431,1.838258
1899000,0.0324,0.013523,0.002678,0.000431,1.750817
1900000,0.0324,0.013523,0.002678,0.000431,1.752345
1901000,0.0324,0.013523,0.002678,0.000431,1.666902
1902000,0.0324,0.013523,0.002678,0.000431,1.807936
1903000,0.0324,0.013523,0.002678,0.000431,1.828151
1904000,0.0324,0.013523,0.002678,0.000431,1.732365
1905000,0.0324,0.013523,0.002678,0.000431,1.723198
1906000,0.0324,0.013523,0.002678,0.000431,1.895612
1907000,0.0324,0.013523,0.002678,0.000431,1.681828
1908000,0.0324,0.013523,0.002678,0.000431,1.834968
1909000,0.0324,0.013523,0.002678,0.000431,1.776438
1910000,0.0324,0.013523,0.002678,0.000431,1.693934
1911000,0.0324,0.013523,0.002678,0.000431,1.606610
1912000,0.0324,0.013523,0.002678,0.000431,1.726371
1913000,0.0324,0.013523,0.002678,0.000431,1.733541
1914000,0.0324,0.013523,0.002678,0.000431,1.698635
1915000,0.0324,0.013523,0.002678,0.000431,1.737772
1916000,0.0324,0.013523,0.002678,0.000431,1.607786
1917000,0.0324,0.013523,0.002678,0.000431,1.589569
1918000,0.0324,0.013523,0.002678,0.000431,1.637990
1919000,0.0324,0.013523,0.002678,0.000431,1.673719
1920000,0.0324,0.013523,0.002678,0.000431,1.662906
1921000,0.0324,0.013523,0.002678,0.000431,1.773735
1922000,0.0324,0.013523,0.002678,0.000431,1.821217
1923000,0.0324,0.013523,0.002678,0.000431,1.792540
1924000,0.0324,0.013523,0.002678,0.000431,1.740005
1925000,0.0324,0.013523,0.002678,0.000431,1.655267
1926000,0.0324,0.013523,0.002678,0.000431,1.750700
1927000,0.0324,0.013523,0.002678,0.000431,1.799121
1928000,0.0324,0.013523,0.002678,0.000431,1.746351
1929000,0.0324,0.013523,0.002678,0.000431,1.715324
1930000,0.0324,0.013523,0.002678,0.000431,1.640928
1931000,0.0324,0.013523,0.002678,0.000431,1.721553
1932000,0.0324,0.013523,0.002678,0.000431,1.611781
1933000,0.0324,0.013523,0.002678,0.000431,1.677597
1934000,0.0324,0.013523,0.002678,0.000431,1.715441
1935000,0.0324,0.013523,0.002678,0.000431,1.650448
1936000,0.0324,0.013523,0.002678,0.000431,1.692053
1937000,0.0324,0.013523,0.002678,0.000431,1.759632
1938000,0.0324,0.013523,0.002678,0.000431,1.814165
1939000,0.0324,0.013523,0.002678,0.000431,1.667725
1940000,0.0324,0.013523,0.002678,0.000431,1.607550
1941000,0.0324,0.013523,0.002678,0.000431,1.687705
1942000,0.0324,0.013523,0.002678,0.000431,1.802647
1943000,0.0324,0.013523,0.002678,0.000431,1.739887
1944000,0.0324,0.013523,0.002678,0.000431,1.826858
1945000,0.0324,0.013523,0.002678,0.000431,1.798651
1946000,0.0324,0.013523,0.002678,0.000431,1.672426
1947000,0.0324,0.013523,0.002678,0.000431,1.655620
1948000,0.0324,0.013523,0.002678,0.000431,1.704864
1949000,0.0324,0.013523,0.002678,0.000431,1.509179
1950000,0.0324,0.013523,0.002678,0.000431,1.583340
1951000,0.0324,0.013523,0.002678,0.000431,1.712856
1952000,0.0324,0.013523,0.002678,0.000431,1.715089
1953000,0.0324,0.013523,0.002678,0.000431,1.818984
1954000,0.0324,0.013523,0.002678,0.000431,1.763040
1955000,0.0324,0.013523,0.002678,0.000431,1.764216
1956000,0.0324,0.013523,0.002678,0.000431,1.819219
1957000,0.0324,0.013523,0.002678,0.000431,1.646335
1958000,0.0324,0.013523,0.002678,0.000431,1.830501
1959000,0.0324,0.013523,0.002678,0.000431,1.789367
1960000,0.0324,0.013523,0.002678,0.000431,1.649978
1961000,0.0324,0.013523,0.002678,0.000431,1.704394
1962000,0.0324,0.013523,0.002678,0.000431,1.661496
1963000,0.0324,0.013523,0.002678,0.000431,1.654914
1964000,0.0324,0.013523,0.002678,0.000431,1.775733
1965000,0.0324,0.013523,0.002678,0.000431,1.779259
1966000,0.0324,0.013523,0.002678,0.000431,1.806643
1967000,0.0324,0.013523,0.002678,0.000431,1.878453
1968000,0.0324,0.013523,0.002678,0.000431,1.782432
1969000,0.0324,0.013523,0.002678,0.000431,1.707214
1970000,0.0324,0.013523,0.002678,0.000431,1.783960
1971000,0.0324,0.013523,0.002678,0.000431,1.664787
1972000,0.0324,0.013523,0.002678,0.000431,1.732953
1973000,0.0324,0.013523,0.002678,0.000431,1.663024
1974000,0.0324,0.013523,0.002678,0.000431,1.731073
1975000,0.0324,0.013523,0.002678,0.000431,1.709800
1976000,0.0324,0.013523,0.002678,0.000431,1.685824
1977000,0.0324,0.013523,0.002678,0.000431,1.596503
1978000,0.0324,0.013523,0.002678,0.000431,1.736126
1979000,0.0324,0.013523,0.002678,0.000431,1.597443
1980000,0.0324,0.013523,0.002678,0.000431,1.666432
1981000,0.0324,0.013523,0.002678,0.000431,1.577228
1982000,0.0324,0.013523,0.002678,0.000431,1.660438
1983000,0.0324,0.013523,0.002678,0.000431,1.706039
1984000,0.0324,0.013523,0.002678,0.000431,1.832382
1985000,0.0324,0.013523,0.002678,0.000431,1.769504
1986000,0.0324,0.013523,0.002678,0.000431,1.703806
1987000,0.0324,0.013523,0.002678,0.000431,1.786193
1988000,0.0324,0.013523,0.002678,0.000431,1.733893
1989000,0.0324,0.013523,0.002678,0.000431,1.776556
1990000,0.0324,0.013523,0.002678,0.000431,1.563125
1991000,0.0324,0.013523,0.002678,0.000431,1.668900
1992000,0.0324,0.013523,0.002678,0.000431,1.668077
1993000,0.0324,0.013523,0.002678,0.000431,1.679125
1994000,0.0324,0.013523,0.002678,0.000431,1.822157
1995000,0.0324,0.013523,0.002678,0.000431,1.630351
1996000,0.0324,0.013523,0.002678,0.000431,1.638108
1997000,0.0324,0.013523,0.002678,0.000431,1.625885
1998000,0.0324,0.013523,0.002678,0.000431,1.691113
1999000,0.0324,0.013523,0.002678,0.000431,1.761747
