Cycle,Area(mm^2),PeakDynamic(W),SubthresholdLeakage(W),GateLeakage(W),RunTimeDynamic(W)
5000000,0.0324,0.013523,0.002678,0.000431,0.015396
5001000,0.0324,0.013523,0.002678,0.000431,0.028442
5002000,0.0324,0.013523,0.002678,0.000431,0.007757
5003000,0.0324,0.013523,0.002678,0.000431,0.012811
5004000,0.0324,0.013523,0.002678,0.000431,0.008580
5005000,0.0324,0.013523,0.002678,0.000431,0.044543
5006000,0.0324,0.013523,0.002678,0.000431,0.008109
5007000,0.0324,0.013523,0.002678,0.000431,0.015866
5008000,0.0324,0.013523,0.002678,0.000431,0.007404
5009000,0.0324,0.013523,0.002678,0.000431,0.041017
5010000,0.0324,0.013523,0.002678,0.000431,0.011400
5011000,0.0324,0.013523,0.002678,0.000431,0.020332
5012000,0.0324,0.013523,0.002678,0.000431,0.012340
5013000,0.0324,0.013523,0.002678,0.000431,0.035376
5014000,0.0324,0.013523,0.002678,0.000431,0.008815
5015000,0.0324,0.013523,0.002678,0.000431,0.020567
5016000,0.0324,0.013523,0.002678,0.000431,0.011400
5017000,0.0324,0.013523,0.002678,0.000431,0.038432
5018000,0.0324,0.013523,0.002678,0.000431,0.015044
5019000,0.0324,0.013523,0.002678,0.000431,0.022565
5020000,0.0324,0.013523,0.002678,0.000431,0.010460
5021000,0.0324,0.013523,0.002678,0.000431,0.015631
5022000,0.0324,0.013523,0.002678,0.000431,0.019862
5023000,0.0324,0.013523,0.002678,0.000431,0.017982
5024000,0.0324,0.013523,0.002678,0.000431,0.022448
5025000,0.0324,0.013523,0.002678,0.000431,0.011283
5026000,0.0324,0.013523,0.002678,0.000431,0.015866
5027000,0.0324,0.013523,0.002678,0.000431,0.010578
5028000,0.0324,0.013523,0.002678,0.000431,0.019980
5029000,0.0324,0.013523,0.002678,0.000431,0.013868
5030000,0.0324,0.013523,0.002678,0.000431,0.014221
5031000,0.0324,0.013523,0.002678,0.000431,0.018452
5032000,0.0324,0.013523,0.002678,0.000431,0.012223
5033000,0.0324,0.013523,0.002678,0.000431,0.017747
5034000,0.0324,0.013523,0.002678,0.000431,0.012576
5035000,0.0324,0.013523,0.002678,0.000431,0.011635
5036000,0.0324,0.013523,0.002678,0.000431,0.013868
5037000,0.0324,0.013523,0.002678,0.000431,0.010225
5038000,0.0324,0.013523,0.002678,0.000431,0.033143
5039000,0.0324,0.013523,0.002678,0.000431,0.012693
5040000,0.0324,0.013523,0.002678,0.000431,0.017982
5041000,0.0324,0.013523,0.002678,0.000431,0.014809
5042000,0.0324,0.013523,0.002678,0.000431,0.009872
5043000,0.0324,0.013523,0.002678,0.000431,0.010695
5044000,0.0324,0.013523,0.002678,0.000431,0.017982
5045000,0.0324,0.013523,0.002678,0.000431,0.013986
5046000,0.0324,0.013523,0.002678,0.000431,0.011283
5047000,0.0324,0.013523,0.002678,0.000431,0.008697
5048000,0.0324,0.013523,0.002678,0.000431,0.013986
5049000,0.0324,0.013523,0.002678,0.000431,0.016336
5050000,0.0324,0.013523,0.002678,0.000431,0.011400
5051000,0.0324,0.013523,0.002678,0.000431,0.007874
5052000,0.0324,0.013523,0.002678,0.000431,0.014456
5053000,0.0324,0.013523,0.002678,0.000431,0.011988
5054000,0.0324,0.013523,0.002678,0.000431,0.012576
5055000,0.0324,0.013523,0.002678,0.000431,0.013633
5056000,0.0324,0.013523,0.002678,0.000431,0.020802
5057000,0.0324,0.013523,0.002678,0.000431,0.021273
5058000,0.0324,0.013523,0.002678,0.000431,0.012576
5059000,0.0324,0.013523,0.002678,0.000431,0.016336
5060000,0.0324,0.013523,0.002678,0.000431,0.020920
5061000,0.0324,0.013523,0.002678,0.000431,0.014221
5062000,0.0324,0.013523,0.002678,0.000431,0.019510
5063000,0.0324,0.013523,0.002678,0.000431,0.016219
5064000,0.0324,0.013523,0.002678,0.000431,0.009637
5065000,0.0324,0.013523,0.002678,0.000431,0.012223
5066000,0.0324,0.013523,0.002678,0.000431,0.010813
5067000,0.0324,0.013523,0.002678,0.000431,0.013516
5068000,0.0324,0.013523,0.002678,0.000431,0.009990
5069000,0.0324,0.013523,0.002678,0.000431,0.023271
5070000,0.0324,0.013523,0.002678,0.000431,0.014103
5071000,0.0324,0.013523,0.002678,0.000431,0.013046
5072000,0.0324,0.013523,0.002678,0.000431,0.010930
5073000,0.0324,0.013523,0.002678,0.000431,0.012458
5074000,0.0324,0.013523,0.002678,0.000431,0.012576
5075000,0.0324,0.013523,0.002678,0.000431,0.018099
5076000,0.0324,0.013523,0.002678,0.000431,0.014221
5077000,0.0324,0.013523,0.002678,0.000431,0.013163
5078000,0.0324,0.013523,0.002678,0.000431,0.014809
5079000,0.0324,0.013523,0.002678,0.000431,0.017747
5080000,0.0324,0.013523,0.002678,0.000431,0.008815
5081000,0.0324,0.013523,0.002678,0.000431,0.022565
5082000,0.0324,0.013523,0.002678,0.000431,0.013633
5083000,0.0324,0.013523,0.002678,0.000431,0.019040
5084000,0.0324,0.013523,0.002678,0.000431,0.014103
5085000,0.0324,0.013523,0.002678,0.000431,0.014103
5086000,0.0324,0.013523,0.002678,0.000431,0.012928
5087000,0.0324,0.013523,0.002678,0.000431,0.013398
5088000,0.0324,0.013523,0.002678,0.000431,0.017512
5089000,0.0324,0.013523,0.002678,0.000431,0.015044
5090000,0.0324,0.013523,0.002678,0.000431,0.010813
5091000,0.0324,0.013523,0.002678,0.000431,0.008815
5092000,0.0324,0.013523,0.002678,0.000431,0.019392
5093000,0.0324,0.013523,0.002678,0.000431,0.010225
5094000,0.0324,0.013523,0.002678,0.000431,0.017864
5095000,0.0324,0.013523,0.002678,0.000431,0.011635
5096000,0.0324,0.013523,0.002678,0.000431,0.021743
5097000,0.0324,0.013523,0.002678,0.000431,0.007287
5098000,0.0324,0.013523,0.002678,0.000431,0.009990
5099000,0.0324,0.013523,0.002678,0.000431,0.012693
5100000,0.0324,0.013523,0.002678,0.000431,0.009285
5101000,0.0324,0.013523,0.002678,0.000431,0.013163
5102000,0.0324,0.013523,0.002678,0.000431,0.009520
5103000,0.0324,0.013523,0.002678,0.000431,0.008227
5104000,0.0324,0.013523,0.002678,0.000431,0.017747
5105000,0.0324,0.013523,0.002678,0.000431,0.008462
5106000,0.0324,0.013523,0.002678,0.000431,0.018452
5107000,0.0324,0.013523,0.002678,0.000431,0.008815
5108000,0.0324,0.013523,0.002678,0.000431,0.014691
5109000,0.0324,0.013523,0.002678,0.000431,0.008580
5110000,0.0324,0.013523,0.002678,0.000431,0.007052
5111000,0.0324,0.013523,0.002678,0.000431,0.009520
5112000,0.0324,0.013523,0.002678,0.000431,0.011165
5113000,0.0324,0.013523,0.002678,0.000431,0.015396
5114000,0.0324,0.013523,0.002678,0.000431,0.011283
5115000,0.0324,0.013523,0.002678,0.000431,0.012105
5116000,0.0324,0.013523,0.002678,0.000431,0.015161
5117000,0.0324,0.013523,0.002678,0.000431,0.016101
5118000,0.0324,0.013523,0.002678,0.000431,0.009872
5119000,0.0324,0.013523,0.002678,0.000431,0.013633
5120000,0.0324,0.013523,0.002678,0.000431,0.011870
5121000,0.0324,0.013523,0.002678,0.000431,0.018217
5122000,0.0324,0.013523,0.002678,0.000431,0.008109
5123000,0.0324,0.013523,0.002678,0.000431,0.013868
5124000,0.0324,0.013523,0.002678,0.000431,0.007522
5125000,0.0324,0.013523,0.002678,0.000431,0.019275
5126000,0.0324,0.013523,0.002678,0.000431,0.009167
5127000,0.0324,0.013523,0.002678,0.000431,0.010460
5128000,0.0324,0.013523,0.002678,0.000431,0.010695
5129000,0.0324,0.013523,0.002678,0.000431,0.011635
5130000,0.0324,0.013523,0.002678,0.000431,0.011518
5131000,0.0324,0.013523,0.002678,0.000431,0.009402
5132000,0.0324,0.013523,0.002678,0.000431,0.009755
5133000,0.0324,0.013523,0.002678,0.000431,0.006347
5134000,0.0324,0.013523,0.002678,0.000431,0.009637
5135000,0.0324,0.013523,0.002678,0.000431,0.008109
5136000,0.0324,0.013523,0.002678,0.000431,0.008345
5137000,0.0324,0.013523,0.002678,0.000431,0.013986
5138000,0.0324,0.013523,0.002678,0.000431,0.006464
5139000,0.0324,0.013523,0.002678,0.000431,0.011753
5140000,0.0324,0.013523,0.002678,0.000431,0.007639
5141000,0.0324,0.013523,0.002678,0.000431,0.010107
5142000,0.0324,0.013523,0.002678,0.000431,0.006582
5143000,0.0324,0.013523,0.002678,0.000431,0.006817
5144000,0.0324,0.013523,0.002678,0.000431,0.005759
5145000,0.0324,0.013523,0.002678,0.000431,0.006464
5146000,0.0324,0.013523,0.002678,0.000431,0.007992
5147000,0.0324,0.013523,0.002678,0.000431,0.005406
5148000,0.0324,0.013523,0.002678,0.000431,0.015631
5149000,0.0324,0.013523,0.002678,0.000431,0.007639
5150000,0.0324,0.013523,0.002678,0.000431,0.009755
5151000,0.0324,0.013523,0.002678,0.000431,0.005994
5152000,0.0324,0.013523,0.002678,0.000431,0.006347
5153000,0.0324,0.013523,0.002678,0.000431,0.006347
5154000,0.0324,0.013523,0.002678,0.000431,0.009520
5155000,0.0324,0.013523,0.002678,0.000431,0.007404
5156000,0.0324,0.013523,0.002678,0.000431,0.006817
5157000,0.0324,0.013523,0.002678,0.000431,0.005524
5158000,0.0324,0.013523,0.002678,0.000431,0.005406
5159000,0.0324,0.013523,0.002678,0.000431,0.007169
5160000,0.0324,0.013523,0.002678,0.000431,0.006464
5161000,0.0324,0.013523,0.002678,0.000431,0.006699
5162000,0.0324,0.013523,0.002678,0.000431,0.004936
5163000,0.0324,0.013523,0.002678,0.000431,0.006229
5164000,0.0324,0.013523,0.002678,0.000431,0.005876
5165000,0.0324,0.013523,0.002678,0.000431,0.004231
5166000,0.0324,0.013523,0.002678,0.000431,0.006464
5167000,0.0324,0.013523,0.002678,0.000431,0.003761
5168000,0.0324,0.013523,0.002678,0.000431,0.007874
5169000,0.0324,0.013523,0.002678,0.000431,0.007522
5170000,0.0324,0.013523,0.002678,0.000431,0.004349
5171000,0.0324,0.013523,0.002678,0.000431,0.007874
5172000,0.0324,0.013523,0.002678,0.000431,0.006817
5173000,0.0324,0.013523,0.002678,0.000431,0.008697
5174000,0.0324,0.013523,0.002678,0.000431,0.008697
5175000,0.0324,0.013523,0.002678,0.000431,0.006347
5176000,0.0324,0.013523,0.002678,0.000431,0.005876
5177000,0.0324,0.013523,0.002678,0.000431,0.008227
5178000,0.0324,0.013523,0.002678,0.000431,0.009167
5179000,0.0324,0.013523,0.002678,0.000431,0.006347
5180000,0.0324,0.013523,0.002678,0.000431,0.007169
5181000,0.0324,0.013523,0.002678,0.000431,0.003761
5182000,0.0324,0.013523,0.002678,0.000431,0.009520
5183000,0.0324,0.013523,0.002678,0.000431,0.005406
5184000,0.0324,0.013523,0.002678,0.000431,0.008580
5185000,0.0324,0.013523,0.002678,0.000431,0.005759
5186000,0.0324,0.013523,0.002678,0.000431,0.002586
5187000,0.0324,0.013523,0.002678,0.000431,0.006934
5188000,0.0324,0.013523,0.002678,0.000431,0.016101
5189000,0.0324,0.013523,0.002678,0.000431,0.004349
5190000,0.0324,0.013523,0.002678,0.000431,0.006699
5191000,0.0324,0.013523,0.002678,0.000431,0.005641
5192000,0.0324,0.013523,0.002678,0.000431,0.006934
5193000,0.0324,0.013523,0.002678,0.000431,0.007052
5194000,0.0324,0.013523,0.002678,0.000431,0.005524
5195000,0.0324,0.013523,0.002678,0.000431,0.005406
5196000,0.0324,0.013523,0.002678,0.000431,0.004819
5197000,0.0324,0.013523,0.002678,0.000431,0.008462
5198000,0.0324,0.013523,0.002678,0.000431,0.004466
5199000,0.0324,0.013523,0.002678,0.000431,0.005524
5200000,0.0324,0.013523,0.002678,0.000431,0.006699
5201000,0.0324,0.013523,0.002678,0.000431,0.004701
5202000,0.0324,0.013523,0.002678,0.000431,0.004819
5203000,0.0324,0.013523,0.002678,0.000431,0.007522
5204000,0.0324,0.013523,0.002678,0.000431,0.006111
5205000,0.0324,0.013523,0.002678,0.000431,0.005641
5206000,0.0324,0.013523,0.002678,0.000431,0.004936
5207000,0.0324,0.013523,0.002678,0.000431,0.005289
5208000,0.0324,0.013523,0.002678,0.000431,0.004701
5209000,0.0324,0.013523,0.002678,0.000431,0.006229
5210000,0.0324,0.013523,0.002678,0.000431,0.007404
5211000,0.0324,0.013523,0.002678,0.000431,0.004819
5212000,0.0324,0.013523,0.002678,0.000431,0.005289
5213000,0.0324,0.013523,0.002678,0.000431,0.003526
5214000,0.0324,0.013523,0.002678,0.000431,0.007639
5215000,0.0324,0.013523,0.002678,0.000431,0.005524
5216000,0.0324,0.013523,0.002678,0.000431,0.006111
5217000,0.0324,0.013523,0.002678,0.000431,0.004466
5218000,0.0324,0.013523,0.002678,0.000431,0.004466
5219000,0.0324,0.013523,0.002678,0.000431,0.005876
5220000,0.0324,0.013523,0.002678,0.000431,0.005406
5221000,0.0324,0.013523,0.002678,0.000431,0.005054
5222000,0.0324,0.013523,0.002678,0.000431,0.002703
5223000,0.0324,0.013523,0.002678,0.000431,0.003056
5224000,0.0324,0.013523,0.002678,0.000431,0.002468
5225000,0.0324,0.013523,0.002678,0.000431,0.004231
5226000,0.0324,0.013523,0.002678,0.000431,0.002821
5227000,0.0324,0.013523,0.002678,0.000431,0.002233
5228000,0.0324,0.013523,0.002678,0.000431,0.002938
5229000,0.0324,0.013523,0.002678,0.000431,0.000940
5230000,0.0324,0.013523,0.002678,0.000431,0.002703
5231000,0.0324,0.013523,0.002678,0.000431,0.003056
5232000,0.0324,0.013523,0.002678,0.000431,0.000940
5233000,0.0324,0.013523,0.002678,0.000431,0.002821
5234000,0.0324,0.013523,0.002678,0.000431,0.002938
5235000,0.0324,0.013523,0.002678,0.000431,0.000940
5236000,0.0324,0.013523,0.002678,0.000431,0.002938
5237000,0.0324,0.013523,0.002678,0.000431,0.002351
5238000,0.0324,0.013523,0.002678,0.000431,0.001998
5239000,0.0324,0.013523,0.002678,0.000431,0.003408
5240000,0.0324,0.013523,0.002678,0.000431,0.001410
5241000,0.0324,0.013523,0.002678,0.000431,0.002821
5242000,0.0324,0.013523,0.002678,0.000431,0.002116
5243000,0.0324,0.013523,0.002678,0.000431,0.002821
5244000,0.0324,0.013523,0.002678,0.000431,0.001763
5245000,0.0324,0.013523,0.002678,0.000431,0.002938
5246000,0.0324,0.013523,0.002678,0.000431,0.001528
5247000,0.0324,0.013523,0.002678,0.000431,0.002938
5248000,0.0324,0.013523,0.002678,0.000431,0.000940
5249000,0.0324,0.013523,0.002678,0.000431,0.002938
5250000,0.0324,0.013523,0.002678,0.000431,0.002586
5251000,0.0324,0.013523,0.002678,0.000431,0.002351
5252000,0.0324,0.013523,0.002678,0.000431,0.003408
5253000,0.0324,0.013523,0.002678,0.000431,0.001410
5254000,0.0324,0.013523,0.002678,0.000431,0.002821
5255000,0.0324,0.013523,0.002678,0.000431,0.002468
5256000,0.0324,0.013523,0.002678,0.000431,0.000940
5257000,0.0324,0.013523,0.002678,0.000431,0.003173
5258000,0.0324,0.013523,0.002678,0.000431,0.002351
5259000,0.0324,0.013523,0.002678,0.000431,0.002821
5260000,0.0324,0.013523,0.002678,0.000431,0.003173
5261000,0.0324,0.013523,0.002678,0.000431,0.001763
5262000,0.0324,0.013523,0.002678,0.000431,0.003408
5263000,0.0324,0.013523,0.002678,0.000431,0.002116
5264000,0.0324,0.013523,0.002678,0.000431,0.003643
5265000,0.0324,0.013523,0.002678,0.000431,0.001763
5266000,0.0324,0.013523,0.002678,0.000431,0.001645
5267000,0.0324,0.013523,0.002678,0.000431,0.002821
5268000,0.0324,0.013523,0.002678,0.000431,0.003408
5269000,0.0324,0.013523,0.002678,0.000431,0.002703
5270000,0.0324,0.013523,0.002678,0.000431,0.002821
5271000,0.0324,0.013523,0.002678,0.000431,0.002938
5272000,0.0324,0.013523,0.002678,0.000431,0.001763
5273000,0.0324,0.013523,0.002678,0.000431,0.001410
5274000,0.0324,0.013523,0.002678,0.000431,0.002821
5275000,0.0324,0.013523,0.002678,0.000431,0.002821
5276000,0.0324,0.013523,0.002678,0.000431,0.002703
5277000,0.0324,0.013523,0.002678,0.000431,0.002821
5278000,0.0324,0.013523,0.002678,0.000431,0.002468
5279000,0.0324,0.013523,0.002678,0.000431,0.001528
