Cycle,Area(mm^2),PeakDynamic(W),SubthresholdLeakage(W),GateLeakage(W),RunTimeDynamic(W)
4000000,0.0324,0.013523,0.002678,0.000431,0.424512
4001000,0.0324,0.013523,0.002678,0.000431,0.443081
4002000,0.0324,0.013523,0.002678,0.000431,0.536516
4003000,0.0324,0.013523,0.002678,0.000431,0.468820
4004000,0.0324,0.013523,0.002678,0.000431,0.415580
4005000,0.0324,0.013523,0.002678,0.000431,0.430388
4006000,0.0324,0.013523,0.002678,0.000431,0.427450
4007000,0.0324,0.013523,0.002678,0.000431,0.388901
4008000,0.0324,0.013523,0.002678,0.000431,0.404767
4009000,0.0324,0.013523,0.002678,0.000431,0.475754
4010000,0.0324,0.013523,0.002678,0.000431,0.416872
4011000,0.0324,0.013523,0.002678,0.000431,0.486097
4012000,0.0324,0.013523,0.002678,0.000431,0.472581
4013000,0.0324,0.013523,0.002678,0.000431,0.358578
4014000,0.0324,0.013523,0.002678,0.000431,0.492678
4015000,0.0324,0.013523,0.002678,0.000431,0.457655
4016000,0.0324,0.013523,0.002678,0.000431,0.430506
4017000,0.0324,0.013523,0.002678,0.000431,0.429683
4018000,0.0324,0.013523,0.002678,0.000431,0.448723
4019000,0.0324,0.013523,0.002678,0.000431,0.466704
4020000,0.0324,0.013523,0.002678,0.000431,0.425570
4021000,0.0324,0.013523,0.002678,0.000431,0.535811
4022000,0.0324,0.013523,0.002678,0.000431,0.446607
4023000,0.0324,0.013523,0.002678,0.000431,0.463649
4024000,0.0324,0.013523,0.002678,0.000431,0.423689
4025000,0.0324,0.013523,0.002678,0.000431,0.476342
4026000,0.0324,0.013523,0.002678,0.000431,0.423689
4027000,0.0324,0.013523,0.002678,0.000431,0.407000
4028000,0.0324,0.013523,0.002678,0.000431,0.346473
4029000,0.0324,0.013523,0.002678,0.000431,0.339069
4030000,0.0324,0.013523,0.002678,0.000431,0.478927
4031000,0.0324,0.013523,0.002678,0.000431,0.479397
4032000,0.0324,0.013523,0.002678,0.000431,0.305808
4033000,0.0324,0.013523,0.002678,0.000431,0.503726
4034000,0.0324,0.013523,0.002678,0.000431,0.453659
4035000,0.0324,0.013523,0.002678,0.000431,0.349294
4036000,0.0324,0.013523,0.002678,0.000431,0.472933
4037000,0.0324,0.013523,0.002678,0.000431,0.471523
4038000,0.0324,0.013523,0.002678,0.000431,0.529112
4039000,0.0324,0.013523,0.002678,0.000431,0.450956
4040000,0.0324,0.013523,0.002678,0.000431,0.435442
4041000,0.0324,0.013523,0.002678,0.000431,0.442729
4042000,0.0324,0.013523,0.002678,0.000431,0.407470
4043000,0.0324,0.013523,0.002678,0.000431,0.417108
4044000,0.0324,0.013523,0.002678,0.000431,0.374680
4045000,0.0324,0.013523,0.002678,0.000431,0.423219
4046000,0.0324,0.013523,0.002678,0.000431,0.388431
4047000,0.0324,0.013523,0.002678,0.000431,0.324025
4048000,0.0324,0.013523,0.002678,0.000431,0.390429
4049000,0.0324,0.013523,0.002678,0.000431,0.351292
4050000,0.0324,0.013523,0.002678,0.000431,0.341654
4051000,0.0324,0.013523,0.002678,0.000431,0.378323
4052000,0.0324,0.013523,0.002678,0.000431,0.389371
4053000,0.0324,0.013523,0.002678,0.000431,0.393249
4054000,0.0324,0.013523,0.002678,0.000431,0.483628
4055000,0.0324,0.013523,0.002678,0.000431,0.434972
4056000,0.0324,0.013523,0.002678,0.000431,0.353290
4057000,0.0324,0.013523,0.002678,0.000431,0.392897
4058000,0.0324,0.013523,0.002678,0.000431,0.376090
4059000,0.0324,0.013523,0.002678,0.000431,0.450015
4060000,0.0324,0.013523,0.002678,0.000431,0.487742
4061000,0.0324,0.013523,0.002678,0.000431,0.382202
4062000,0.0324,0.013523,0.002678,0.000431,0.350469
4063000,0.0324,0.013523,0.002678,0.000431,0.460005
4064000,0.0324,0.013523,0.002678,0.000431,0.476459
4065000,0.0324,0.013523,0.002678,0.000431,0.387490
4066000,0.0324,0.013523,0.002678,0.000431,0.382319
4067000,0.0324,0.013523,0.002678,0.000431,0.396775
4068000,0.0324,0.013523,0.002678,0.000431,0.376325
4069000,0.0324,0.013523,0.002678,0.000431,0.332252
4070000,0.0324,0.013523,0.002678,0.000431,0.298404
4071000,0.0324,0.013523,0.002678,0.000431,0.405590
4072000,0.0324,0.013523,0.002678,0.000431,0.432269
4073000,0.0324,0.013523,0.002678,0.000431,0.458360
4074000,0.0324,0.013523,0.002678,0.000431,0.333663
4075000,0.0324,0.013523,0.002678,0.000431,0.455187
4076000,0.0324,0.013523,0.002678,0.000431,0.386668
4077000,0.0324,0.013523,0.002678,0.000431,0.524058
4078000,0.0324,0.013523,0.002678,0.000431,0.453541
4079000,0.0324,0.013523,0.002678,0.000431,0.423924
4080000,0.0324,0.013523,0.002678,0.000431,0.427568
4081000,0.0324,0.013523,0.002678,0.000431,0.336836
4082000,0.0324,0.013523,0.002678,0.000431,0.380909
4083000,0.0324,0.013523,0.002678,0.000431,0.343770
4084000,0.0324,0.013523,0.002678,0.000431,0.367746
4085000,0.0324,0.013523,0.002678,0.000431,0.407235
4086000,0.0324,0.013523,0.002678,0.000431,0.387961
4087000,0.0324,0.013523,0.002678,0.000431,0.388901
4088000,0.0324,0.013523,0.002678,0.000431,0.411114
4089000,0.0324,0.013523,0.002678,0.000431,0.401946
4090000,0.0324,0.013523,0.002678,0.000431,0.316151
4091000,0.0324,0.013523,0.002678,0.000431,0.308394
4092000,0.0324,0.013523,0.002678,0.000431,0.369274
4093000,0.0324,0.013523,0.002678,0.000431,0.390664
4094000,0.0324,0.013523,0.002678,0.000431,0.308394
4095000,0.0324,0.013523,0.002678,0.000431,0.325788
4096000,0.0324,0.013523,0.002678,0.000431,0.359754
4097000,0.0324,0.013523,0.002678,0.000431,0.309334
4098000,0.0324,0.013523,0.002678,0.000431,0.358461
4099000,0.0324,0.013523,0.002678,0.000431,0.432151
4100000,0.0324,0.013523,0.002678,0.000431,0.474579
4101000,0.0324,0.013523,0.002678,0.000431,0.331665
4102000,0.0324,0.013523,0.002678,0.000431,0.424042
4103000,0.0324,0.013523,0.002678,0.000431,0.369274
4104000,0.0324,0.013523,0.002678,0.000431,0.390664
4105000,0.0324,0.013523,0.002678,0.000431,0.372447
4106000,0.0324,0.013523,0.002678,0.000431,0.360341
4107000,0.0324,0.013523,0.002678,0.000431,0.465177
4108000,0.0324,0.013523,0.002678,0.000431,0.432034
4109000,0.0324,0.013523,0.002678,0.000431,0.418635
4110000,0.0324,0.013523,0.002678,0.000431,0.275369
4111000,0.0324,0.013523,0.002678,0.000431,0.404414
4112000,0.0324,0.013523,0.002678,0.000431,0.329079
4113000,0.0324,0.013523,0.002678,0.000431,0.391251
4114000,0.0324,0.013523,0.002678,0.000431,0.357403
4115000,0.0324,0.013523,0.002678,0.000431,0.330137
4116000,0.0324,0.013523,0.002678,0.000431,0.429330
4117000,0.0324,0.013523,0.002678,0.000431,0.306396
4118000,0.0324,0.013523,0.002678,0.000431,0.330019
4119000,0.0324,0.013523,0.002678,0.000431,0.343887
4120000,0.0324,0.013523,0.002678,0.000431,0.360812
4121000,0.0324,0.013523,0.002678,0.000431,0.317679
4122000,0.0324,0.013523,0.002678,0.000431,0.429095
4123000,0.0324,0.013523,0.002678,0.000431,0.479280
4124000,0.0324,0.013523,0.002678,0.000431,0.244811
4125000,0.0324,0.013523,0.002678,0.000431,0.329431
4126000,0.0324,0.013523,0.002678,0.000431,0.277367
4127000,0.0324,0.013523,0.002678,0.000431,0.333898
4128000,0.0324,0.013523,0.002678,0.000431,0.372212
4129000,0.0324,0.013523,0.002678,0.000431,0.335778
4130000,0.0324,0.013523,0.002678,0.000431,0.289942
4131000,0.0324,0.013523,0.002678,0.000431,0.355170
4132000,0.0324,0.013523,0.002678,0.000431,0.324495
4133000,0.0324,0.013523,0.002678,0.000431,0.380791
4134000,0.0324,0.013523,0.002678,0.000431,0.373622
4135000,0.0324,0.013523,0.002678,0.000431,0.353055
4136000,0.0324,0.013523,0.002678,0.000431,0.283360
4137000,0.0324,0.013523,0.002678,0.000431,0.342830
4138000,0.0324,0.013523,0.002678,0.000431,0.382202
4139000,0.0324,0.013523,0.002678,0.000431,0.345180
4140000,0.0324,0.013523,0.002678,0.000431,0.321910
4141000,0.0324,0.013523,0.002678,0.000431,0.242108
4142000,0.0324,0.013523,0.002678,0.000431,0.460593
4143000,0.0324,0.013523,0.002678,0.000431,0.309334
4144000,0.0324,0.013523,0.002678,0.000431,0.355993
4145000,0.0324,0.013523,0.002678,0.000431,0.367511
4146000,0.0324,0.013523,0.002678,0.000431,0.379851
4147000,0.0324,0.013523,0.002678,0.000431,0.359519
4148000,0.0324,0.013523,0.002678,0.000431,0.327316
4149000,0.0324,0.013523,0.002678,0.000431,0.349294
4150000,0.0324,0.013523,0.002678,0.000431,0.320382
4151000,0.0324,0.013523,0.002678,0.000431,0.253391
4152000,0.0324,0.013523,0.002678,0.000431,0.350469
4153000,0.0324,0.013523,0.002678,0.000431,0.406530
4154000,0.0324,0.013523,0.002678,0.000431,0.333192
4155000,0.0324,0.013523,0.002678,0.000431,0.409703
4156000,0.0324,0.013523,0.002678,0.000431,0.327316
4157000,0.0324,0.013523,0.002678,0.000431,0.419928
4158000,0.0324,0.013523,0.002678,0.000431,0.327081
4159000,0.0324,0.013523,0.002678,0.000431,0.301930
4160000,0.0324,0.013523,0.002678,0.000431,0.287356
4161000,0.0324,0.013523,0.002678,0.000431,0.337423
4162000,0.0324,0.013523,0.002678,0.000431,0.326493
4163000,0.0324,0.013523,0.002678,0.000431,0.233058
4164000,0.0324,0.013523,0.002678,0.000431,0.359049
4165000,0.0324,0.013523,0.002678,0.000431,0.263146
4166000,0.0324,0.013523,0.002678,0.000431,0.286416
4167000,0.0324,0.013523,0.002678,0.000431,0.297464
4168000,0.0324,0.013523,0.002678,0.000431,0.312272
4169000,0.0324,0.013523,0.002678,0.000431,0.290882
4170000,0.0324,0.013523,0.002678,0.000431,0.241873
4171000,0.0324,0.013523,0.002678,0.000431,0.431916
4172000,0.0324,0.013523,0.002678,0.000431,0.296876
4173000,0.0324,0.013523,0.002678,0.000431,0.310157
4174000,0.0324,0.013523,0.002678,0.000431,0.348236
4175000,0.0324,0.013523,0.002678,0.000431,0.346591
4176000,0.0324,0.013523,0.002678,0.000431,0.212608
4177000,0.0324,0.013523,0.002678,0.000431,0.332605
4178000,0.0324,0.013523,0.002678,0.000431,0.233999
4179000,0.0324,0.013523,0.002678,0.000431,0.339656
4180000,0.0324,0.013523,0.002678,0.000431,0.294878
4181000,0.0324,0.013523,0.002678,0.000431,0.265614
4182000,0.0324,0.013523,0.002678,0.000431,0.367393
4183000,0.0324,0.013523,0.002678,0.000431,0.318501
4184000,0.0324,0.013523,0.002678,0.000431,0.258444
4185000,0.0324,0.013523,0.002678,0.000431,0.258797
4186000,0.0324,0.013523,0.002678,0.000431,0.282773
4187000,0.0324,0.013523,0.002678,0.000431,0.372682
4188000,0.0324,0.013523,0.002678,0.000431,0.281480
4189000,0.0324,0.013523,0.002678,0.000431,0.292763
4190000,0.0324,0.013523,0.002678,0.000431,0.276779
4191000,0.0324,0.013523,0.002678,0.000431,0.303928
4192000,0.0324,0.013523,0.002678,0.000431,0.239405
4193000,0.0324,0.013523,0.002678,0.000431,0.291705
4194000,0.0324,0.013523,0.002678,0.000431,0.368451
4195000,0.0324,0.013523,0.002678,0.000431,0.318736
4196000,0.0324,0.013523,0.002678,0.000431,0.271608
4197000,0.0324,0.013523,0.002678,0.000431,0.309922
4198000,0.0324,0.013523,0.002678,0.000431,0.395012
4199000,0.0324,0.013523,0.002678,0.000431,0.294996
4200000,0.0324,0.013523,0.002678,0.000431,0.286181
4201000,0.0324,0.013523,0.002678,0.000431,0.330724
4202000,0.0324,0.013523,0.002678,0.000431,0.279364
4203000,0.0324,0.013523,0.002678,0.000431,0.356228
4204000,0.0324,0.013523,0.002678,0.000431,0.364807
4205000,0.0324,0.013523,0.002678,0.000431,0.275133
4206000,0.0324,0.013523,0.002678,0.000431,0.264791
4207000,0.0324,0.013523,0.002678,0.000431,0.291470
4208000,0.0324,0.013523,0.002678,0.000431,0.299227
4209000,0.0324,0.013523,0.002678,0.000431,0.287827
4210000,0.0324,0.013523,0.002678,0.000431,0.264203
4211000,0.0324,0.013523,0.002678,0.000431,0.238700
4212000,0.0324,0.013523,0.002678,0.000431,0.348118
4213000,0.0324,0.013523,0.002678,0.000431,0.296759
4214000,0.0324,0.013523,0.002678,0.000431,0.267494
4215000,0.0324,0.013523,0.002678,0.000431,0.299814
4216000,0.0324,0.013523,0.002678,0.000431,0.202971
4217000,0.0324,0.013523,0.002678,0.000431,0.315916
4218000,0.0324,0.013523,0.002678,0.000431,0.320382
4219000,0.0324,0.013523,0.002678,0.000431,0.309217
4220000,0.0324,0.013523,0.002678,0.000431,0.231883
4221000,0.0324,0.013523,0.002678,0.000431,0.229768
4222000,0.0324,0.013523,0.002678,0.000431,0.340362
4223000,0.0324,0.013523,0.002678,0.000431,0.240580
4224000,0.0324,0.013523,0.002678,0.000431,0.250100
4225000,0.0324,0.013523,0.002678,0.000431,0.231883
4226000,0.0324,0.013523,0.002678,0.000431,0.342712
4227000,0.0324,0.013523,0.002678,0.000431,0.219190
4228000,0.0324,0.013523,0.002678,0.000431,0.225772
4229000,0.0324,0.013523,0.002678,0.000431,0.316738
4230000,0.0324,0.013523,0.002678,0.000431,0.307454
4231000,0.0324,0.013523,0.002678,0.000431,0.291352
4232000,0.0324,0.013523,0.002678,0.000431,0.263028
4233000,0.0324,0.013523,0.002678,0.000431,0.366218
4234000,0.0324,0.013523,0.002678,0.000431,0.269610
4235000,0.0324,0.013523,0.002678,0.000431,0.334838
4236000,0.0324,0.013523,0.002678,0.000431,0.290295
4237000,0.0324,0.013523,0.002678,0.000431,0.340832
4238000,0.0324,0.013523,0.002678,0.000431,0.216487
4239000,0.0324,0.013523,0.002678,0.000431,0.254213
4240000,0.0324,0.013523,0.002678,0.000431,0.244224
4241000,0.0324,0.013523,0.002678,0.000431,0.271608
4242000,0.0324,0.013523,0.002678,0.000431,0.240110
4243000,0.0324,0.013523,0.002678,0.000431,0.236349
4244000,0.0324,0.013523,0.002678,0.000431,0.253273
4245000,0.0324,0.013523,0.002678,0.000431,0.233411
4246000,0.0324,0.013523,0.002678,0.000431,0.243871
4247000,0.0324,0.013523,0.002678,0.000431,0.200973
4248000,0.0324,0.013523,0.002678,0.000431,0.229533
4249000,0.0324,0.013523,0.002678,0.000431,0.302870
4250000,0.0324,0.013523,0.002678,0.000431,0.238935
4251000,0.0324,0.013523,0.002678,0.000431,0.223891
4252000,0.0324,0.013523,0.002678,0.000431,0.261265
4253000,0.0324,0.013523,0.002678,0.000431,0.244341
4254000,0.0324,0.013523,0.002678,0.000431,0.193334
4255000,0.0324,0.013523,0.002678,0.000431,0.317561
4256000,0.0324,0.013523,0.002678,0.000431,0.253038
4257000,0.0324,0.013523,0.002678,0.000431,0.245516
4258000,0.0324,0.013523,0.002678,0.000431,0.196272
4259000,0.0324,0.013523,0.002678,0.000431,0.291235
4260000,0.0324,0.013523,0.002678,0.000431,0.268434
4261000,0.0324,0.013523,0.002678,0.000431,0.258327
4262000,0.0324,0.013523,0.002678,0.000431,0.192159
4263000,0.0324,0.013523,0.002678,0.000431,0.268552
4264000,0.0324,0.013523,0.002678,0.000431,0.259150
4265000,0.0324,0.013523,0.002678,0.000431,0.202384
4266000,0.0324,0.013523,0.002678,0.000431,0.280070
4267000,0.0324,0.013523,0.002678,0.000431,0.223539
4268000,0.0324,0.013523,0.002678,0.000431,0.268082
4269000,0.0324,0.013523,0.002678,0.000431,0.330489
4270000,0.0324,0.013523,0.002678,0.000431,0.188985
4271000,0.0324,0.013523,0.002678,0.000431,0.282890
4272000,0.0324,0.013523,0.002678,0.000431,0.286886
4273000,0.0324,0.013523,0.002678,0.000431,0.222128
4274000,0.0324,0.013523,0.002678,0.000431,0.264556
4275000,0.0324,0.013523,0.002678,0.000431,0.227535
4276000,0.0324,0.013523,0.002678,0.000431,0.275721
4277000,0.0324,0.013523,0.002678,0.000431,0.248925
4278000,0.0324,0.013523,0.002678,0.000431,0.278894
4279000,0.0324,0.013523,0.002678,0.000431,0.250100
4280000,0.0324,0.013523,0.002678,0.000431,0.232941
4281000,0.0324,0.013523,0.002678,0.000431,0.271490
4282000,0.0324,0.013523,0.002678,0.000431,0.201091
4283000,0.0324,0.013523,0.002678,0.000431,0.242461
4284000,0.0324,0.013523,0.002678,0.000431,0.235174
4285000,0.0324,0.013523,0.002678,0.000431,0.257622
4286000,0.0324,0.013523,0.002678,0.000431,0.246222
4287000,0.0324,0.013523,0.002678,0.000431,0.242343
4288000,0.0324,0.013523,0.002678,0.000431,0.275721
4289000,0.0324,0.013523,0.002678,0.000431,0.241168
4290000,0.0324,0.013523,0.002678,0.000431,0.259385
4291000,0.0324,0.013523,0.002678,0.000431,0.280540
4292000,0.0324,0.013523,0.002678,0.000431,0.290060
4293000,0.0324,0.013523,0.002678,0.000431,0.209435
4294000,0.0324,0.013523,0.002678,0.000431,0.170416
4295000,0.0324,0.013523,0.002678,0.000431,0.198035
4296000,0.0324,0.013523,0.002678,0.000431,0.288767
4297000,0.0324,0.013523,0.002678,0.000431,0.256564
4298000,0.0324,0.013523,0.002678,0.000431,0.221423
4299000,0.0324,0.013523,0.002678,0.000431,0.277602
4300000,0.0324,0.013523,0.002678,0.000431,0.208730
4301000,0.0324,0.013523,0.002678,0.000431,0.218250
4302000,0.0324,0.013523,0.002678,0.000431,0.265966
4303000,0.0324,0.013523,0.002678,0.000431,0.230825
4304000,0.0324,0.013523,0.002678,0.000431,0.254684
4305000,0.0324,0.013523,0.002678,0.000431,0.191688
4306000,0.0324,0.013523,0.002678,0.000431,0.256094
4307000,0.0324,0.013523,0.002678,0.000431,0.231295
4308000,0.0324,0.013523,0.002678,0.000431,0.258444
4309000,0.0324,0.013523,0.002678,0.000431,0.201091
4310000,0.0324,0.013523,0.002678,0.000431,0.249042
4311000,0.0324,0.013523,0.002678,0.000431,0.248690
4312000,0.0324,0.013523,0.002678,0.000431,0.223774
4313000,0.0324,0.013523,0.002678,0.000431,0.237760
4314000,0.0324,0.013523,0.002678,0.000431,0.271608
4315000,0.0324,0.013523,0.002678,0.000431,0.251158
4316000,0.0324,0.013523,0.002678,0.000431,0.203676
4317000,0.0324,0.013523,0.002678,0.000431,0.228710
4318000,0.0324,0.013523,0.002678,0.000431,0.232823
4319000,0.0324,0.013523,0.002678,0.000431,0.216839
4320000,0.0324,0.013523,0.002678,0.000431,0.251863
4321000,0.0324,0.013523,0.002678,0.000431,0.242108
4322000,0.0324,0.013523,0.002678,0.000431,0.203441
4323000,0.0324,0.013523,0.002678,0.000431,0.190396
4324000,0.0324,0.013523,0.002678,0.000431,0.182051
4325000,0.0324,0.013523,0.002678,0.000431,0.199210
4326000,0.0324,0.013523,0.002678,0.000431,0.157135
4327000,0.0324,0.013523,0.002678,0.000431,0.294761
4328000,0.0324,0.013523,0.002678,0.000431,0.285476
4329000,0.0324,0.013523,0.002678,0.000431,0.203559
4330000,0.0324,0.013523,0.002678,0.000431,0.222833
4331000,0.0324,0.013523,0.002678,0.000431,0.211786
4332000,0.0324,0.013523,0.002678,0.000431,0.167478
4333000,0.0324,0.013523,0.002678,0.000431,0.238700
4334000,0.0324,0.013523,0.002678,0.000431,0.287474
4335000,0.0324,0.013523,0.002678,0.000431,0.195332
4336000,0.0324,0.013523,0.002678,0.000431,0.202148
4337000,0.0324,0.013523,0.002678,0.000431,0.184754
4338000,0.0324,0.013523,0.002678,0.000431,0.195919
4339000,0.0324,0.013523,0.002678,0.000431,0.180053
4340000,0.0324,0.013523,0.002678,0.000431,0.193686
4341000,0.0324,0.013523,0.002678,0.000431,0.193922
4342000,0.0324,0.013523,0.002678,0.000431,0.173354
4343000,0.0324,0.013523,0.002678,0.000431,0.190278
4344000,0.0324,0.013523,0.002678,0.000431,0.201443
4345000,0.0324,0.013523,0.002678,0.000431,0.182521
4346000,0.0324,0.013523,0.002678,0.000431,0.202501
4347000,0.0324,0.013523,0.002678,0.000431,0.272078
4348000,0.0324,0.013523,0.002678,0.000431,0.211551
4349000,0.0324,0.013523,0.002678,0.000431,0.142209
4350000,0.0324,0.013523,0.002678,0.000431,0.230003
4351000,0.0324,0.013523,0.002678,0.000431,0.175352
4352000,0.0324,0.013523,0.002678,0.000431,0.246339
4353000,0.0324,0.013523,0.002678,0.000431,0.228945
4354000,0.0324,0.013523,0.002678,0.000431,0.207085
4355000,0.0324,0.013523,0.002678,0.000431,0.160426
4356000,0.0324,0.013523,0.002678,0.000431,0.247867
4357000,0.0324,0.013523,0.002678,0.000431,0.214489
4358000,0.0324,0.013523,0.002678,0.000431,0.186987
4359000,0.0324,0.013523,0.002678,0.000431,0.221188
4360000,0.0324,0.013523,0.002678,0.000431,0.195684
4361000,0.0324,0.013523,0.002678,0.000431,0.194157
4362000,0.0324,0.013523,0.002678,0.000431,0.165950
4363000,0.0324,0.013523,0.002678,0.000431,0.205557
4364000,0.0324,0.013523,0.002678,0.000431,0.233528
4365000,0.0324,0.013523,0.002678,0.000431,0.117998
4366000,0.0324,0.013523,0.002678,0.000431,0.268317
4367000,0.0324,0.013523,0.002678,0.000431,0.201678
4368000,0.0324,0.013523,0.002678,0.000431,0.148321
4369000,0.0324,0.013523,0.002678,0.000431,0.242461
4370000,0.0324,0.013523,0.002678,0.000431,0.145265
4371000,0.0324,0.013523,0.002678,0.000431,0.214842
4372000,0.0324,0.013523,0.002678,0.000431,0.135863
4373000,0.0324,0.013523,0.002678,0.000431,0.311920
4374000,0.0324,0.013523,0.002678,0.000431,0.114002
4375000,0.0324,0.013523,0.002678,0.000431,0.195684
4376000,0.0324,0.013523,0.002678,0.000431,0.203794
4377000,0.0324,0.013523,0.002678,0.000431,0.213784
4378000,0.0324,0.013523,0.002678,0.000431,0.198388
4379000,0.0324,0.013523,0.002678,0.000431,0.172531
4380000,0.0324,0.013523,0.002678,0.000431,0.244459
4381000,0.0324,0.013523,0.002678,0.000431,0.206497
4382000,0.0324,0.013523,0.002678,0.000431,0.206379
4383000,0.0324,0.013523,0.002678,0.000431,0.227652
4384000,0.0324,0.013523,0.002678,0.000431,0.221541
4385000,0.0324,0.013523,0.002678,0.000431,0.156665
4386000,0.0324,0.013523,0.002678,0.000431,0.215899
4387000,0.0324,0.013523,0.002678,0.000431,0.112474
4388000,0.0324,0.013523,0.002678,0.000431,0.194862
4389000,0.0324,0.013523,0.002678,0.000431,0.200268
4390000,0.0324,0.013523,0.002678,0.000431,0.138801
4391000,0.0324,0.013523,0.002678,0.000431,0.155842
4392000,0.0324,0.013523,0.002678,0.000431,0.159956
4393000,0.0324,0.013523,0.002678,0.000431,0.250570
4394000,0.0324,0.013523,0.002678,0.000431,0.165832
4395000,0.0324,0.013523,0.002678,0.000431,0.180993
4396000,0.0324,0.013523,0.002678,0.000431,0.175587
4397000,0.0324,0.013523,0.002678,0.000431,0.134452
4398000,0.0324,0.013523,0.002678,0.000431,0.240815
4399000,0.0324,0.013523,0.002678,0.000431,0.149143
4400000,0.0324,0.013523,0.002678,0.000431,0.228357
4401000,0.0324,0.013523,0.002678,0.000431,0.260795
4402000,0.0324,0.013523,0.002678,0.000431,0.139388
4403000,0.0324,0.013523,0.002678,0.000431,0.169593
4404000,0.0324,0.013523,0.002678,0.000431,0.193804
4405000,0.0324,0.013523,0.002678,0.000431,0.193922
4406000,0.0324,0.013523,0.002678,0.000431,0.182756
4407000,0.0324,0.013523,0.002678,0.000431,0.226477
4408000,0.0324,0.013523,0.002678,0.000431,0.136098
4409000,0.0324,0.013523,0.002678,0.000431,0.183579
4410000,0.0324,0.013523,0.002678,0.000431,0.174764
4411000,0.0324,0.013523,0.002678,0.000431,0.215194
4412000,0.0324,0.013523,0.002678,0.000431,0.160073
4413000,0.0324,0.013523,0.002678,0.000431,0.190278
4414000,0.0324,0.013523,0.002678,0.000431,0.159486
4415000,0.0324,0.013523,0.002678,0.000431,0.208260
4416000,0.0324,0.013523,0.002678,0.000431,0.157605
4417000,0.0324,0.013523,0.002678,0.000431,0.135040
4418000,0.0324,0.013523,0.002678,0.000431,0.177585
4419000,0.0324,0.013523,0.002678,0.000431,0.203089
4420000,0.0324,0.013523,0.002678,0.000431,0.285829
4421000,0.0324,0.013523,0.002678,0.000431,0.200386
4422000,0.0324,0.013523,0.002678,0.000431,0.228475
4423000,0.0324,0.013523,0.002678,0.000431,0.184872
4424000,0.0324,0.013523,0.002678,0.000431,0.224126
4425000,0.0324,0.013523,0.002678,0.000431,0.188868
4426000,0.0324,0.013523,0.002678,0.000431,0.228945
4427000,0.0324,0.013523,0.002678,0.000431,0.145970
4428000,0.0324,0.013523,0.002678,0.000431,0.182756
4429000,0.0324,0.013523,0.002678,0.000431,0.158310
4430000,0.0324,0.013523,0.002678,0.000431,0.198388
4431000,0.0324,0.013523,0.002678,0.000431,0.171356
4432000,0.0324,0.013523,0.002678,0.000431,0.164892
4433000,0.0324,0.013523,0.002678,0.000431,0.127283
4434000,0.0324,0.013523,0.002678,0.000431,0.125168
4435000,0.0324,0.013523,0.002678,0.000431,0.164539
4436000,0.0324,0.013523,0.002678,0.000431,0.112474
4437000,0.0324,0.013523,0.002678,0.000431,0.112827
4438000,0.0324,0.013523,0.002678,0.000431,0.127283
4439000,0.0324,0.013523,0.002678,0.000431,0.161719
4440000,0.0324,0.013523,0.002678,0.000431,0.198505
4441000,0.0324,0.013523,0.002678,0.000431,0.209553
4442000,0.0324,0.013523,0.002678,0.000431,0.103190
4443000,0.0324,0.013523,0.002678,0.000431,0.164657
4444000,0.0324,0.013523,0.002678,0.000431,0.149026
4445000,0.0324,0.013523,0.002678,0.000431,0.179936
4446000,0.0324,0.013523,0.002678,0.000431,0.155255
4447000,0.0324,0.013523,0.002678,0.000431,0.088029
4448000,0.0324,0.013523,0.002678,0.000431,0.204499
4449000,0.0324,0.013523,0.002678,0.000431,0.125873
4450000,0.0324,0.013523,0.002678,0.000431,0.154315
4451000,0.0324,0.013523,0.002678,0.000431,0.188280
4452000,0.0324,0.013523,0.002678,0.000431,0.146440
4453000,0.0324,0.013523,0.002678,0.000431,0.143854
4454000,0.0324,0.013523,0.002678,0.000431,0.120349
4455000,0.0324,0.013523,0.002678,0.000431,0.174177
4456000,0.0324,0.013523,0.002678,0.000431,0.177350
4457000,0.0324,0.013523,0.002678,0.000431,0.166890
4458000,0.0324,0.013523,0.002678,0.000431,0.197212
4459000,0.0324,0.013523,0.002678,0.000431,0.175352
4460000,0.0324,0.013523,0.002678,0.000431,0.108008
4461000,0.0324,0.013523,0.002678,0.000431,0.086971
4462000,0.0324,0.013523,0.002678,0.000431,0.151729
4463000,0.0324,0.013523,0.002678,0.000431,0.219895
4464000,0.0324,0.013523,0.002678,0.000431,0.122464
4465000,0.0324,0.013523,0.002678,0.000431,0.175587
4466000,0.0324,0.013523,0.002678,0.000431,0.123875
4467000,0.0324,0.013523,0.002678,0.000431,0.102602
4468000,0.0324,0.013523,0.002678,0.000431,0.120936
4469000,0.0324,0.013523,0.002678,0.000431,0.167243
4470000,0.0324,0.013523,0.002678,0.000431,0.137508
4471000,0.0324,0.013523,0.002678,0.000431,0.154432
4472000,0.0324,0.013523,0.002678,0.000431,0.167830
4473000,0.0324,0.013523,0.002678,0.000431,0.108596
4474000,0.0324,0.013523,0.002678,0.000431,0.173824
4475000,0.0324,0.013523,0.002678,0.000431,0.136803
4476000,0.0324,0.013523,0.002678,0.000431,0.133747
4477000,0.0324,0.013523,0.002678,0.000431,0.090027
4478000,0.0324,0.013523,0.002678,0.000431,0.132924
4479000,0.0324,0.013523,0.002678,0.000431,0.103307
4480000,0.0324,0.013523,0.002678,0.000431,0.147028
4481000,0.0324,0.013523,0.002678,0.000431,0.135745
4482000,0.0324,0.013523,0.002678,0.000431,0.110829
4483000,0.0324,0.013523,0.002678,0.000431,0.132572
4484000,0.0324,0.013523,0.002678,0.000431,0.157135
4485000,0.0324,0.013523,0.002678,0.000431,0.135863
4486000,0.0324,0.013523,0.002678,0.000431,0.124580
4487000,0.0324,0.013523,0.002678,0.000431,0.063700
4488000,0.0324,0.013523,0.002678,0.000431,0.165010
4489000,0.0324,0.013523,0.002678,0.000431,0.101427
4490000,0.0324,0.013523,0.002678,0.000431,0.179348
4491000,0.0324,0.013523,0.002678,0.000431,0.112710
4492000,0.0324,0.013523,0.002678,0.000431,0.150789
4493000,0.0324,0.013523,0.002678,0.000431,0.153844
4494000,0.0324,0.013523,0.002678,0.000431,0.095080
4495000,0.0324,0.013523,0.002678,0.000431,0.126695
4496000,0.0324,0.013523,0.002678,0.000431,0.142444
4497000,0.0324,0.013523,0.002678,0.000431,0.119879
4498000,0.0324,0.013523,0.002678,0.000431,0.105893
4499000,0.0324,0.013523,0.002678,0.000431,0.119996
4500000,0.0324,0.013523,0.002678,0.000431,0.149378
4501000,0.0324,0.013523,0.002678,0.000431,0.124462
4502000,0.0324,0.013523,0.002678,0.000431,0.133394
4503000,0.0324,0.013523,0.002678,0.000431,0.146793
4504000,0.0324,0.013523,0.002678,0.000431,0.075688
4505000,0.0324,0.013523,0.002678,0.000431,0.118586
4506000,0.0324,0.013523,0.002678,0.000431,0.063935
4507000,0.0324,0.013523,0.002678,0.000431,0.125755
4508000,0.0324,0.013523,0.002678,0.000431,0.139623
4509000,0.0324,0.013523,0.002678,0.000431,0.090262
4510000,0.0324,0.013523,0.002678,0.000431,0.182639
4511000,0.0324,0.013523,0.002678,0.000431,0.124345
4512000,0.0324,0.013523,0.002678,0.000431,0.060997
4513000,0.0324,0.013523,0.002678,0.000431,0.186517
4514000,0.0324,0.013523,0.002678,0.000431,0.096843
4515000,0.0324,0.013523,0.002678,0.000431,0.132337
4516000,0.0324,0.013523,0.002678,0.000431,0.067109
4517000,0.0324,0.013523,0.002678,0.000431,0.144677
4518000,0.0324,0.013523,0.002678,0.000431,0.136803
4519000,0.0324,0.013523,0.002678,0.000431,0.151611
4520000,0.0324,0.013523,0.002678,0.000431,0.153492
4521000,0.0324,0.013523,0.002678,0.000431,0.161836
4522000,0.0324,0.013523,0.002678,0.000431,0.125638
4523000,0.0324,0.013523,0.002678,0.000431,0.136568
4524000,0.0324,0.013523,0.002678,0.000431,0.108479
4525000,0.0324,0.013523,0.002678,0.000431,0.124462
4526000,0.0324,0.013523,0.002678,0.000431,0.133747
4527000,0.0324,0.013523,0.002678,0.000431,0.088381
4528000,0.0324,0.013523,0.002678,0.000431,0.148438
4529000,0.0324,0.013523,0.002678,0.000431,0.202854
4530000,0.0324,0.013523,0.002678,0.000431,0.141151
4531000,0.0324,0.013523,0.002678,0.000431,0.114943
4532000,0.0324,0.013523,0.002678,0.000431,0.092612
4533000,0.0324,0.013523,0.002678,0.000431,0.099194
4534000,0.0324,0.013523,0.002678,0.000431,0.098371
4535000,0.0324,0.013523,0.002678,0.000431,0.216017
4536000,0.0324,0.013523,0.002678,0.000431,0.067109
4537000,0.0324,0.013523,0.002678,0.000431,0.165127
4538000,0.0324,0.013523,0.002678,0.000431,0.146675
4539000,0.0324,0.013523,0.002678,0.000431,0.122817
4540000,0.0324,0.013523,0.002678,0.000431,0.098606
4541000,0.0324,0.013523,0.002678,0.000431,0.121877
4542000,0.0324,0.013523,0.002678,0.000431,0.141739
4543000,0.0324,0.013523,0.002678,0.000431,0.122347
4544000,0.0324,0.013523,0.002678,0.000431,0.129751
4545000,0.0324,0.013523,0.002678,0.000431,0.156195
4546000,0.0324,0.013523,0.002678,0.000431,0.109419
4547000,0.0324,0.013523,0.002678,0.000431,0.083445
4548000,0.0324,0.013523,0.002678,0.000431,0.138801
4549000,0.0324,0.013523,0.002678,0.000431,0.134217
4550000,0.0324,0.013523,0.002678,0.000431,0.155842
4551000,0.0324,0.013523,0.002678,0.000431,0.099546
4552000,0.0324,0.013523,0.002678,0.000431,0.169123
4553000,0.0324,0.013523,0.002678,0.000431,0.125638
4554000,0.0324,0.013523,0.002678,0.000431,0.084738
4555000,0.0324,0.013523,0.002678,0.000431,0.112004
4556000,0.0324,0.013523,0.002678,0.000431,0.109889
4557000,0.0324,0.013523,0.002678,0.000431,0.146205
4558000,0.0324,0.013523,0.002678,0.000431,0.088499
4559000,0.0324,0.013523,0.002678,0.000431,0.146323
4560000,0.0324,0.013523,0.002678,0.000431,0.088146
4561000,0.0324,0.013523,0.002678,0.000431,0.063935
4562000,0.0324,0.013523,0.002678,0.000431,0.157605
4563000,0.0324,0.013523,0.002678,0.000431,0.064523
4564000,0.0324,0.013523,0.002678,0.000431,0.191453
4565000,0.0324,0.013523,0.002678,0.000431,0.173472
4566000,0.0324,0.013523,0.002678,0.000431,0.088734
4567000,0.0324,0.013523,0.002678,0.000431,0.099429
4568000,0.0324,0.013523,0.002678,0.000431,0.104012
4569000,0.0324,0.013523,0.002678,0.000431,0.108714
4570000,0.0324,0.013523,0.002678,0.000431,0.077686
4571000,0.0324,0.013523,0.002678,0.000431,0.150671
4572000,0.0324,0.013523,0.002678,0.000431,0.073925
4573000,0.0324,0.013523,0.002678,0.000431,0.149496
4574000,0.0324,0.013523,0.002678,0.000431,0.123640
4575000,0.0324,0.013523,0.002678,0.000431,0.083680
4576000,0.0324,0.013523,0.002678,0.000431,0.087911
4577000,0.0324,0.013523,0.002678,0.000431,0.104483
4578000,0.0324,0.013523,0.002678,0.000431,0.140329
4579000,0.0324,0.013523,0.002678,0.000431,0.126460
4580000,0.0324,0.013523,0.002678,0.000431,0.104600
4581000,0.0324,0.013523,0.002678,0.000431,0.153374
4582000,0.0324,0.013523,0.002678,0.000431,0.086383
4583000,0.0324,0.013523,0.002678,0.000431,0.118821
4584000,0.0324,0.013523,0.002678,0.000431,0.091319
4585000,0.0324,0.013523,0.002678,0.000431,0.150319
4586000,0.0324,0.013523,0.002678,0.000431,0.139388
4587000,0.0324,0.013523,0.002678,0.000431,0.132572
4588000,0.0324,0.013523,0.002678,0.000431,0.123757
4589000,0.0324,0.013523,0.002678,0.000431,0.082152
4590000,0.0324,0.013523,0.002678,0.000431,0.068166
4591000,0.0324,0.013523,0.002678,0.000431,0.079214
4592000,0.0324,0.013523,0.002678,0.000431,0.095198
4593000,0.0324,0.013523,0.002678,0.000431,0.109419
4594000,0.0324,0.013523,0.002678,0.000431,0.088969
4595000,0.0324,0.013523,0.002678,0.000431,0.115765
4596000,0.0324,0.013523,0.002678,0.000431,0.045131
4597000,0.0324,0.013523,0.002678,0.000431,0.086971
4598000,0.0324,0.013523,0.002678,0.000431,0.057706
4599000,0.0324,0.013523,0.002678,0.000431,0.098606
4600000,0.0324,0.013523,0.002678,0.000431,0.063230
4601000,0.0324,0.013523,0.002678,0.000431,0.115530
4602000,0.0324,0.013523,0.002678,0.000431,0.102014
4603000,0.0324,0.013523,0.002678,0.000431,0.123405
4604000,0.0324,0.013523,0.002678,0.000431,0.069929
4605000,0.0324,0.013523,0.002678,0.000431,0.106833
4606000,0.0324,0.013523,0.002678,0.000431,0.098841
4607000,0.0324,0.013523,0.002678,0.000431,0.104835
4608000,0.0324,0.013523,0.002678,0.000431,0.086031
4609000,0.0324,0.013523,0.002678,0.000431,0.084150
4610000,0.0324,0.013523,0.002678,0.000431,0.066874
4611000,0.0324,0.013523,0.002678,0.000431,0.177232
4612000,0.0324,0.013523,0.002678,0.000431,0.067814
4613000,0.0324,0.013523,0.002678,0.000431,0.121759
4614000,0.0324,0.013523,0.002678,0.000431,0.145382
4615000,0.0324,0.013523,0.002678,0.000431,0.100722
4616000,0.0324,0.013523,0.002678,0.000431,0.076863
4617000,0.0324,0.013523,0.002678,0.000431,0.101662
4618000,0.0324,0.013523,0.002678,0.000431,0.100487
4619000,0.0324,0.013523,0.002678,0.000431,0.091319
4620000,0.0324,0.013523,0.002678,0.000431,0.131161
4621000,0.0324,0.013523,0.002678,0.000431,0.050302
4622000,0.0324,0.013523,0.002678,0.000431,0.094375
4623000,0.0324,0.013523,0.002678,0.000431,0.160308
4624000,0.0324,0.013523,0.002678,0.000431,0.112357
4625000,0.0324,0.013523,0.002678,0.000431,0.125990
4626000,0.0324,0.013523,0.002678,0.000431,0.090732
4627000,0.0324,0.013523,0.002678,0.000431,0.100722
4628000,0.0324,0.013523,0.002678,0.000431,0.104483
4629000,0.0324,0.013523,0.002678,0.000431,0.063465
4630000,0.0324,0.013523,0.002678,0.000431,0.095668
4631000,0.0324,0.013523,0.002678,0.000431,0.055708
4632000,0.0324,0.013523,0.002678,0.000431,0.141151
4633000,0.0324,0.013523,0.002678,0.000431,0.115295
4634000,0.0324,0.013523,0.002678,0.000431,0.120114
4635000,0.0324,0.013523,0.002678,0.000431,0.052418
4636000,0.0324,0.013523,0.002678,0.000431,0.122347
4637000,0.0324,0.013523,0.002678,0.000431,0.045366
4638000,0.0324,0.013523,0.002678,0.000431,0.089439
4639000,0.0324,0.013523,0.002678,0.000431,0.056414
4640000,0.0324,0.013523,0.002678,0.000431,0.094140
4641000,0.0324,0.013523,0.002678,0.000431,0.076511
4642000,0.0324,0.013523,0.002678,0.000431,0.119761
4643000,0.0324,0.013523,0.002678,0.000431,0.099311
4644000,0.0324,0.013523,0.002678,0.000431,0.086148
4645000,0.0324,0.013523,0.002678,0.000431,0.111534
4646000,0.0324,0.013523,0.002678,0.000431,0.081917
4647000,0.0324,0.013523,0.002678,0.000431,0.068401
4648000,0.0324,0.013523,0.002678,0.000431,0.082035
4649000,0.0324,0.013523,0.002678,0.000431,0.058647
4650000,0.0324,0.013523,0.002678,0.000431,0.155137
4651000,0.0324,0.013523,0.002678,0.000431,0.077334
4652000,0.0324,0.013523,0.002678,0.000431,0.115413
4653000,0.0324,0.013523,0.002678,0.000431,0.069107
4654000,0.0324,0.013523,0.002678,0.000431,0.055591
4655000,0.0324,0.013523,0.002678,0.000431,0.063583
4656000,0.0324,0.013523,0.002678,0.000431,0.082622
4657000,0.0324,0.013523,0.002678,0.000431,0.071105
4658000,0.0324,0.013523,0.002678,0.000431,0.095433
4659000,0.0324,0.013523,0.002678,0.000431,0.059704
4660000,0.0324,0.013523,0.002678,0.000431,0.061232
4661000,0.0324,0.013523,0.002678,0.000431,0.077686
4662000,0.0324,0.013523,0.002678,0.000431,0.096021
4663000,0.0324,0.013523,0.002678,0.000431,0.061467
4664000,0.0324,0.013523,0.002678,0.000431,0.076393
4665000,0.0324,0.013523,0.002678,0.000431,0.101074
4666000,0.0324,0.013523,0.002678,0.000431,0.121289
4667000,0.0324,0.013523,0.002678,0.000431,0.095433
4668000,0.0324,0.013523,0.002678,0.000431,0.088734
4669000,0.0324,0.013523,0.002678,0.000431,0.098136
4670000,0.0324,0.013523,0.002678,0.000431,0.049009
4671000,0.0324,0.013523,0.002678,0.000431,0.075218
4672000,0.0324,0.013523,0.002678,0.000431,0.029852
4673000,0.0324,0.013523,0.002678,0.000431,0.067931
4674000,0.0324,0.013523,0.002678,0.000431,0.091202
4675000,0.0324,0.013523,0.002678,0.000431,0.076863
4676000,0.0324,0.013523,0.002678,0.000431,0.082505
4677000,0.0324,0.013523,0.002678,0.000431,0.075923
4678000,0.0324,0.013523,0.002678,0.000431,0.069694
4679000,0.0324,0.013523,0.002678,0.000431,0.077098
4680000,0.0324,0.013523,0.002678,0.000431,0.092965
4681000,0.0324,0.013523,0.002678,0.000431,0.055943
4682000,0.0324,0.013523,0.002678,0.000431,0.065816
4683000,0.0324,0.013523,0.002678,0.000431,0.096256
4684000,0.0324,0.013523,0.002678,0.000431,0.048069
4685000,0.0324,0.013523,0.002678,0.000431,0.129399
4686000,0.0324,0.013523,0.002678,0.000431,0.085090
4687000,0.0324,0.013523,0.002678,0.000431,0.094375
4688000,0.0324,0.013523,0.002678,0.000431,0.041370
4689000,0.0324,0.013523,0.002678,0.000431,0.053358
4690000,0.0324,0.013523,0.002678,0.000431,0.044896
4691000,0.0324,0.013523,0.002678,0.000431,0.062172
4692000,0.0324,0.013523,0.002678,0.000431,0.044308
4693000,0.0324,0.013523,0.002678,0.000431,0.074983
4694000,0.0324,0.013523,0.002678,0.000431,0.041958
4695000,0.0324,0.013523,0.002678,0.000431,0.062172
4696000,0.0324,0.013523,0.002678,0.000431,0.063348
4697000,0.0324,0.013523,0.002678,0.000431,0.049714
4698000,0.0324,0.013523,0.002678,0.000431,0.080037
4699000,0.0324,0.013523,0.002678,0.000431,0.054533
4700000,0.0324,0.013523,0.002678,0.000431,0.066638
4701000,0.0324,0.013523,0.002678,0.000431,0.057706
4702000,0.0324,0.013523,0.002678,0.000431,0.054886
4703000,0.0324,0.013523,0.002678,0.000431,0.095550
4704000,0.0324,0.013523,0.002678,0.000431,0.039725
4705000,0.0324,0.013523,0.002678,0.000431,0.055473
4706000,0.0324,0.013523,0.002678,0.000431,0.091202
4707000,0.0324,0.013523,0.002678,0.000431,0.034318
4708000,0.0324,0.013523,0.002678,0.000431,0.114002
4709000,0.0324,0.013523,0.002678,0.000431,0.038902
4710000,0.0324,0.013523,0.002678,0.000431,0.096726
4711000,0.0324,0.013523,0.002678,0.000431,0.073925
4712000,0.0324,0.013523,0.002678,0.000431,0.061350
4713000,0.0324,0.013523,0.002678,0.000431,0.031498
4714000,0.0324,0.013523,0.002678,0.000431,0.077686
4715000,0.0324,0.013523,0.002678,0.000431,0.026796
4716000,0.0324,0.013523,0.002678,0.000431,0.092377
4717000,0.0324,0.013523,0.002678,0.000431,0.038667
4718000,0.0324,0.013523,0.002678,0.000431,0.051125
4719000,0.0324,0.013523,0.002678,0.000431,0.036904
4720000,0.0324,0.013523,0.002678,0.000431,0.077216
4721000,0.0324,0.013523,0.002678,0.000431,0.036551
4722000,0.0324,0.013523,0.002678,0.000431,0.058529
4723000,0.0324,0.013523,0.002678,0.000431,0.035964
4724000,0.0324,0.013523,0.002678,0.000431,0.083680
4725000,0.0324,0.013523,0.002678,0.000431,0.038667
4726000,0.0324,0.013523,0.002678,0.000431,0.061820
4727000,0.0324,0.013523,0.002678,0.000431,0.047246
4728000,0.0324,0.013523,0.002678,0.000431,0.077216
4729000,0.0324,0.013523,0.002678,0.000431,0.046776
4730000,0.0324,0.013523,0.002678,0.000431,0.061232
4731000,0.0324,0.013523,0.002678,0.000431,0.065228
4732000,0.0324,0.013523,0.002678,0.000431,0.081330
4733000,0.0324,0.013523,0.002678,0.000431,0.053005
4734000,0.0324,0.013523,0.002678,0.000431,0.064405
4735000,0.0324,0.013523,0.002678,0.000431,0.088616
4736000,0.0324,0.013523,0.002678,0.000431,0.068284
4737000,0.0324,0.013523,0.002678,0.000431,0.028089
4738000,0.0324,0.013523,0.002678,0.000431,0.076746
4739000,0.0324,0.013523,0.002678,0.000431,0.024446
4740000,0.0324,0.013523,0.002678,0.000431,0.076276
4741000,0.0324,0.013523,0.002678,0.000431,0.045601
4742000,0.0324,0.013523,0.002678,0.000431,0.096021
4743000,0.0324,0.013523,0.002678,0.000431,0.057471
4744000,0.0324,0.013523,0.002678,0.000431,0.129281
4745000,0.0324,0.013523,0.002678,0.000431,0.042780
4746000,0.0324,0.013523,0.002678,0.000431,0.042075
4747000,0.0324,0.013523,0.002678,0.000431,0.097196
4748000,0.0324,0.013523,0.002678,0.000431,0.058176
4749000,0.0324,0.013523,0.002678,0.000431,0.088146
4750000,0.0324,0.013523,0.002678,0.000431,0.046424
4751000,0.0324,0.013523,0.002678,0.000431,0.083915
4752000,0.0324,0.013523,0.002678,0.000431,0.036551
4753000,0.0324,0.013523,0.002678,0.000431,0.052770
4754000,0.0324,0.013523,0.002678,0.000431,0.071575
4755000,0.0324,0.013523,0.002678,0.000431,0.028442
4756000,0.0324,0.013523,0.002678,0.000431,0.081565
4757000,0.0324,0.013523,0.002678,0.000431,0.028089
4758000,0.0324,0.013523,0.002678,0.000431,0.076158
4759000,0.0324,0.013523,0.002678,0.000431,0.074983
4760000,0.0324,0.013523,0.002678,0.000431,0.044661
4761000,0.0324,0.013523,0.002678,0.000431,0.048304
4762000,0.0324,0.013523,0.002678,0.000431,0.070164
4763000,0.0324,0.013523,0.002678,0.000431,0.057001
4764000,0.0324,0.013523,0.002678,0.000431,0.088499
4765000,0.0324,0.013523,0.002678,0.000431,0.084620
4766000,0.0324,0.013523,0.002678,0.000431,0.039607
4767000,0.0324,0.013523,0.002678,0.000431,0.052535
4768000,0.0324,0.013523,0.002678,0.000431,0.043956
4769000,0.0324,0.013523,0.002678,0.000431,0.046189
4770000,0.0324,0.013523,0.002678,0.000431,0.056649
4771000,0.0324,0.013523,0.002678,0.000431,0.033731
4772000,0.0324,0.013523,0.002678,0.000431,0.059469
4773000,0.0324,0.013523,0.002678,0.000431,0.040665
4774000,0.0324,0.013523,0.002678,0.000431,0.080154
4775000,0.0324,0.013523,0.002678,0.000431,0.035258
4776000,0.0324,0.013523,0.002678,0.000431,0.049127
4777000,0.0324,0.013523,0.002678,0.000431,0.055591
4778000,0.0324,0.013523,0.002678,0.000431,0.031850
4779000,0.0324,0.013523,0.002678,0.000431,0.065816
4780000,0.0324,0.013523,0.002678,0.000431,0.051947
4781000,0.0324,0.013523,0.002678,0.000431,0.069929
4782000,0.0324,0.013523,0.002678,0.000431,0.031968
4783000,0.0324,0.013523,0.002678,0.000431,0.075453
4784000,0.0324,0.013523,0.002678,0.000431,0.029265
4785000,0.0324,0.013523,0.002678,0.000431,0.046306
4786000,0.0324,0.013523,0.002678,0.000431,0.031145
4787000,0.0324,0.013523,0.002678,0.000431,0.052888
4788000,0.0324,0.013523,0.002678,0.000431,0.022213
4789000,0.0324,0.013523,0.002678,0.000431,0.095433
4790000,0.0324,0.013523,0.002678,0.000431,0.046776
4791000,0.0324,0.013523,0.002678,0.000431,0.043485
4792000,0.0324,0.013523,0.002678,0.000431,0.021743
4793000,0.0324,0.013523,0.002678,0.000431,0.060292
4794000,0.0324,0.013523,0.002678,0.000431,0.050067
4795000,0.0324,0.013523,0.002678,0.000431,0.086618
4796000,0.0324,0.013523,0.002678,0.000431,0.030792
4797000,0.0324,0.013523,0.002678,0.000431,0.061585
4798000,0.0324,0.013523,0.002678,0.000431,0.023153
4799000,0.0324,0.013523,0.002678,0.000431,0.075806
4800000,0.0324,0.013523,0.002678,0.000431,0.054651
4801000,0.0324,0.013523,0.002678,0.000431,0.095433
4802000,0.0324,0.013523,0.002678,0.000431,0.070634
4803000,0.0324,0.013523,0.002678,0.000431,0.022565
4804000,0.0324,0.013523,0.002678,0.000431,0.059704
4805000,0.0324,0.013523,0.002678,0.000431,0.045248
4806000,0.0324,0.013523,0.002678,0.000431,0.042310
4807000,0.0324,0.013523,0.002678,0.000431,0.040665
4808000,0.0324,0.013523,0.002678,0.000431,0.042545
4809000,0.0324,0.013523,0.002678,0.000431,0.040312
4810000,0.0324,0.013523,0.002678,0.000431,0.038784
4811000,0.0324,0.013523,0.002678,0.000431,0.030205
4812000,0.0324,0.013523,0.002678,0.000431,0.067344
4813000,0.0324,0.013523,0.002678,0.000431,0.060174
4814000,0.0324,0.013523,0.002678,0.000431,0.029265
4815000,0.0324,0.013523,0.002678,0.000431,0.023858
4816000,0.0324,0.013523,0.002678,0.000431,0.033496
4817000,0.0324,0.013523,0.002678,0.000431,0.027737
4818000,0.0324,0.013523,0.002678,0.000431,0.029029
4819000,0.0324,0.013523,0.002678,0.000431,0.046776
4820000,0.0324,0.013523,0.002678,0.000431,0.041605
4821000,0.0324,0.013523,0.002678,0.000431,0.036434
4822000,0.0324,0.013523,0.002678,0.000431,0.044778
4823000,0.0324,0.013523,0.002678,0.000431,0.056178
4824000,0.0324,0.013523,0.002678,0.000431,0.031380
4825000,0.0324,0.013523,0.002678,0.000431,0.041370
4826000,0.0324,0.013523,0.002678,0.000431,0.037491
4827000,0.0324,0.013523,0.002678,0.000431,0.033966
4828000,0.0324,0.013523,0.002678,0.000431,0.026326
4829000,0.0324,0.013523,0.002678,0.000431,0.030675
4830000,0.0324,0.013523,0.002678,0.000431,0.032673
4831000,0.0324,0.013523,0.002678,0.000431,0.086031
4832000,0.0324,0.013523,0.002678,0.000431,0.026444
4833000,0.0324,0.013523,0.002678,0.000431,0.037256
4834000,0.0324,0.013523,0.002678,0.000431,0.035258
4835000,0.0324,0.013523,0.002678,0.000431,0.036081
4836000,0.0324,0.013523,0.002678,0.000431,0.047716
4837000,0.0324,0.013523,0.002678,0.000431,0.063230
4838000,0.0324,0.013523,0.002678,0.000431,0.057589
4839000,0.0324,0.013523,0.002678,0.000431,0.031380
4840000,0.0324,0.013523,0.002678,0.000431,0.058412
4841000,0.0324,0.013523,0.002678,0.000431,0.036081
4842000,0.0324,0.013523,0.002678,0.000431,0.071810
4843000,0.0324,0.013523,0.002678,0.000431,0.025034
4844000,0.0324,0.013523,0.002678,0.000431,0.052888
4845000,0.0324,0.013523,0.002678,0.000431,0.021390
4846000,0.0324,0.013523,0.002678,0.000431,0.045366
4847000,0.0324,0.013523,0.002678,0.000431,0.024328
4848000,0.0324,0.013523,0.002678,0.000431,0.035376
4849000,0.0324,0.013523,0.002678,0.000431,0.033731
4850000,0.0324,0.013523,0.002678,0.000431,0.050185
4851000,0.0324,0.013523,0.002678,0.000431,0.029735
4852000,0.0324,0.013523,0.002678,0.000431,0.049714
4853000,0.0324,0.013523,0.002678,0.000431,0.030675
4854000,0.0324,0.013523,0.002678,0.000431,0.069694
4855000,0.0324,0.013523,0.002678,0.000431,0.019275
4856000,0.0324,0.013523,0.002678,0.000431,0.048774
4857000,0.0324,0.013523,0.002678,0.000431,0.018805
4858000,0.0324,0.013523,0.002678,0.000431,0.081330
4859000,0.0324,0.013523,0.002678,0.000431,0.019745
4860000,0.0324,0.013523,0.002678,0.000431,0.044426
4861000,0.0324,0.013523,0.002678,0.000431,0.025269
4862000,0.0324,0.013523,0.002678,0.000431,0.080859
4863000,0.0324,0.013523,0.002678,0.000431,0.022918
4864000,0.0324,0.013523,0.002678,0.000431,0.066638
4865000,0.0324,0.013523,0.002678,0.000431,0.043956
4866000,0.0324,0.013523,0.002678,0.000431,0.031262
4867000,0.0324,0.013523,0.002678,0.000431,0.028089
4868000,0.0324,0.013523,0.002678,0.000431,0.046306
4869000,0.0324,0.013523,0.002678,0.000431,0.033025
4870000,0.0324,0.013523,0.002678,0.000431,0.047011
4871000,0.0324,0.013523,0.002678,0.000431,0.065111
4872000,0.0324,0.013523,0.002678,0.000431,0.049597
4873000,0.0324,0.013523,0.002678,0.000431,0.017982
4874000,0.0324,0.013523,0.002678,0.000431,0.046306
4875000,0.0324,0.013523,0.002678,0.000431,0.017747
4876000,0.0324,0.013523,0.002678,0.000431,0.065346
4877000,0.0324,0.013523,0.002678,0.000431,0.022448
4878000,0.0324,0.013523,0.002678,0.000431,0.063818
4879000,0.0324,0.013523,0.002678,0.000431,0.016571
4880000,0.0324,0.013523,0.002678,0.000431,0.059939
4881000,0.0324,0.013523,0.002678,0.000431,0.032908
4882000,0.0324,0.013523,0.002678,0.000431,0.038902
4883000,0.0324,0.013523,0.002678,0.000431,0.025974
4884000,0.0324,0.013523,0.002678,0.000431,0.036081
4885000,0.0324,0.013523,0.002678,0.000431,0.028442
4886000,0.0324,0.013523,0.002678,0.000431,0.034083
4887000,0.0324,0.013523,0.002678,0.000431,0.050655
4888000,0.0324,0.013523,0.002678,0.000431,0.078274
4889000,0.0324,0.013523,0.002678,0.000431,0.022213
4890000,0.0324,0.013523,0.002678,0.000431,0.041605
4891000,0.0324,0.013523,0.002678,0.000431,0.021743
4892000,0.0324,0.013523,0.002678,0.000431,0.027031
4893000,0.0324,0.013523,0.002678,0.000431,0.023388
4894000,0.0324,0.013523,0.002678,0.000431,0.021155
4895000,0.0324,0.013523,0.002678,0.000431,0.044073
4896000,0.0324,0.013523,0.002678,0.000431,0.030205
4897000,0.0324,0.013523,0.002678,0.000431,0.025269
4898000,0.0324,0.013523,0.002678,0.000431,0.055356
4899000,0.0324,0.013523,0.002678,0.000431,0.020920
4900000,0.0324,0.013523,0.002678,0.000431,0.035729
4901000,0.0324,0.013523,0.002678,0.000431,0.021273
4902000,0.0324,0.013523,0.002678,0.000431,0.041840
4903000,0.0324,0.013523,0.002678,0.000431,0.015396
4904000,0.0324,0.013523,0.002678,0.000431,0.054298
4905000,0.0324,0.013523,0.002678,0.000431,0.048892
4906000,0.0324,0.013523,0.002678,0.000431,0.020685
4907000,0.0324,0.013523,0.002678,0.000431,0.049244
4908000,0.0324,0.013523,0.002678,0.000431,0.014103
4909000,0.0324,0.013523,0.002678,0.000431,0.054768
4910000,0.0324,0.013523,0.002678,0.000431,0.014103
4911000,0.0324,0.013523,0.002678,0.000431,0.056296
4912000,0.0324,0.013523,0.002678,0.000431,0.028912
4913000,0.0324,0.013523,0.002678,0.000431,0.047011
4914000,0.0324,0.013523,0.002678,0.000431,0.048422
4915000,0.0324,0.013523,0.002678,0.000431,0.027384
4916000,0.0324,0.013523,0.002678,0.000431,0.012105
4917000,0.0324,0.013523,0.002678,0.000431,0.031380
4918000,0.0324,0.013523,0.002678,0.000431,0.014456
4919000,0.0324,0.013523,0.002678,0.000431,0.046541
4920000,0.0324,0.013523,0.002678,0.000431,0.012458
4921000,0.0324,0.013523,0.002678,0.000431,0.019157
4922000,0.0324,0.013523,0.002678,0.000431,0.015631
4923000,0.0324,0.013523,0.002678,0.000431,0.040547
4924000,0.0324,0.013523,0.002678,0.000431,0.017159
4925000,0.0324,0.013523,0.002678,0.000431,0.036081
4926000,0.0324,0.013523,0.002678,0.000431,0.012458
4927000,0.0324,0.013523,0.002678,0.000431,0.028442
4928000,0.0324,0.013523,0.002678,0.000431,0.018922
4929000,0.0324,0.013523,0.002678,0.000431,0.023506
4930000,0.0324,0.013523,0.002678,0.000431,0.021625
4931000,0.0324,0.013523,0.002678,0.000431,0.027031
4932000,0.0324,0.013523,0.002678,0.000431,0.026914
4933000,0.0324,0.013523,0.002678,0.000431,0.051712
4934000,0.0324,0.013523,0.002678,0.000431,0.033731
4935000,0.0324,0.013523,0.002678,0.000431,0.022213
4936000,0.0324,0.013523,0.002678,0.000431,0.035729
4937000,0.0324,0.013523,0.002678,0.000431,0.019392
4938000,0.0324,0.013523,0.002678,0.000431,0.028324
4939000,0.0324,0.013523,0.002678,0.000431,0.029970
4940000,0.0324,0.013523,0.002678,0.000431,0.041605
4941000,0.0324,0.013523,0.002678,0.000431,0.024446
4942000,0.0324,0.013523,0.002678,0.000431,0.021508
4943000,0.0324,0.013523,0.002678,0.000431,0.029500
4944000,0.0324,0.013523,0.002678,0.000431,0.033025
4945000,0.0324,0.013523,0.002678,0.000431,0.043368
4946000,0.0324,0.013523,0.002678,0.000431,0.031968
4947000,0.0324,0.013523,0.002678,0.000431,0.021038
4948000,0.0324,0.013523,0.002678,0.000431,0.019862
4949000,0.0324,0.013523,0.002678,0.000431,0.043603
4950000,0.0324,0.013523,0.002678,0.000431,0.029852
4951000,0.0324,0.013523,0.002678,0.000431,0.020802
4952000,0.0324,0.013523,0.002678,0.000431,0.056178
4953000,0.0324,0.013523,0.002678,0.000431,0.012928
4954000,0.0324,0.013523,0.002678,0.000431,0.030440
4955000,0.0324,0.013523,0.002678,0.000431,0.012928
4956000,0.0324,0.013523,0.002678,0.000431,0.020450
4957000,0.0324,0.013523,0.002678,0.000431,0.012576
4958000,0.0324,0.013523,0.002678,0.000431,0.021038
4959000,0.0324,0.013523,0.002678,0.000431,0.018687
4960000,0.0324,0.013523,0.002678,0.000431,0.045248
4961000,0.0324,0.013523,0.002678,0.000431,0.019275
4962000,0.0324,0.013523,0.002678,0.000431,0.019745
4963000,0.0324,0.013523,0.002678,0.000431,0.018452
4964000,0.0324,0.013523,0.002678,0.000431,0.045836
4965000,0.0324,0.013523,0.002678,0.000431,0.011048
4966000,0.0324,0.013523,0.002678,0.000431,0.042545
4967000,0.0324,0.013523,0.002678,0.000431,0.022330
4968000,0.0324,0.013523,0.002678,0.000431,0.019275
4969000,0.0324,0.013523,0.002678,0.000431,0.023036
4970000,0.0324,0.013523,0.002678,0.000431,0.031733
4971000,0.0324,0.013523,0.002678,0.000431,0.016807
4972000,0.0324,0.013523,0.002678,0.000431,0.026679
4973000,0.0324,0.013523,0.002678,0.000431,0.011518
4974000,0.0324,0.013523,0.002678,0.000431,0.036199
4975000,0.0324,0.013523,0.002678,0.000431,0.015396
4976000,0.0324,0.013523,0.002678,0.000431,0.022330
4977000,0.0324,0.013523,0.002678,0.000431,0.013398
4978000,0.0324,0.013523,0.002678,0.000431,0.032320
4979000,0.0324,0.013523,0.002678,0.000431,0.020332
4980000,0.0324,0.013523,0.002678,0.000431,0.023506
4981000,0.0324,0.013523,0.002678,0.000431,0.017747
4982000,0.0324,0.013523,0.002678,0.000431,0.049597
4983000,0.0324,0.013523,0.002678,0.000431,0.013046
4984000,0.0324,0.013523,0.002678,0.000431,0.028324
4985000,0.0324,0.013523,0.002678,0.000431,0.013398
4986000,0.0324,0.013523,0.002678,0.000431,0.029852
4987000,0.0324,0.013523,0.002678,0.000431,0.017747
4988000,0.0324,0.013523,0.002678,0.000431,0.019510
4989000,0.0324,0.013523,0.002678,0.000431,0.022330
4990000,0.0324,0.013523,0.002678,0.000431,0.019275
4991000,0.0324,0.013523,0.002678,0.000431,0.017159
4992000,0.0324,0.013523,0.002678,0.000431,0.020802
4993000,0.0324,0.013523,0.002678,0.000431,0.016101
4994000,0.0324,0.013523,0.002678,0.000431,0.013046
4995000,0.0324,0.013523,0.002678,0.000431,0.033143
4996000,0.0324,0.013523,0.002678,0.000431,0.018805
4997000,0.0324,0.013523,0.002678,0.000431,0.021743
4998000,0.0324,0.013523,0.002678,0.000431,0.020097
4999000,0.0324,0.013523,0.002678,0.000431,0.036199
