Cycle,Area(mm^2),PeakDynamic(W),SubthresholdLeakage(W),GateLeakage(W),RunTimeDynamic(W)
14000000,0.0324,0.013523,0.002678,0.000431,0.000353
14001000,0.0324,0.013523,0.002678,0.000431,0.000235
14002000,0.0324,0.013523,0.002678,0.000431,0.000353
14003000,0.0324,0.013523,0.002678,0.000431,0.000470
14004000,0.0324,0.013523,0.002678,0.000431,0.000118
14005000,0.0324,0.013523,0.002678,0.000431,0.000353
14006000,0.0324,0.013523,0.002678,0.000431,0.000470
14007000,0.0324,0.013523,0.002678,0.000431,0.000353
14008000,0.0324,0.013523,0.002678,0.000431,0.000235
14009000,0.0324,0.013523,0.002678,0.000431,0.000353
14010000,0.0324,0.013523,0.002678,0.000431,0.000470
14011000,0.0324,0.013523,0.002678,0.000431,0.000118
14012000,0.0324,0.013523,0.002678,0.000431,0.000353
14013000,0.0324,0.013523,0.002678,0.000431,0.000470
14014000,0.0324,0.013523,0.002678,0.000431,0.000353
14015000,0.0324,0.013523,0.002678,0.000431,0.000235
14016000,0.0324,0.013523,0.002678,0.000431,0.000353
14017000,0.0324,0.013523,0.002678,0.000431,0.000470
14018000,0.0324,0.013523,0.002678,0.000431,0.000118
14019000,0.0324,0.013523,0.002678,0.000431,0.000353
14020000,0.0324,0.013523,0.002678,0.000431,0.000470
14021000,0.0324,0.013523,0.002678,0.000431,0.000353
14022000,0.0324,0.013523,0.002678,0.000431,0.000235
14023000,0.0324,0.013523,0.002678,0.000431,0.000353
14024000,0.0324,0.013523,0.002678,0.000431,0.000470
14025000,0.0324,0.013523,0.002678,0.000431,0.000118
14026000,0.0324,0.013523,0.002678,0.000431,0.000353
14027000,0.0324,0.013523,0.002678,0.000431,0.000470
14028000,0.0324,0.013523,0.002678,0.000431,0.000353
14029000,0.0324,0.013523,0.002678,0.000431,0.000235
14030000,0.0324,0.013523,0.002678,0.000431,0.000353
14031000,0.0324,0.013523,0.002678,0.000431,0.000353
14032000,0.0324,0.013523,0.002678,0.000431,0.000235
14033000,0.0324,0.013523,0.002678,0.000431,0.000353
14034000,0.0324,0.013523,0.002678,0.000431,0.000470
14035000,0.0324,0.013523,0.002678,0.000431,0.000353
14036000,0.0324,0.013523,0.002678,0.000431,0.000235
14037000,0.0324,0.013523,0.002678,0.000431,0.000353
14038000,0.0324,0.013523,0.002678,0.000431,0.000353
14039000,0.0324,0.013523,0.002678,0.000431,0.000235
14040000,0.0324,0.013523,0.002678,0.000431,0.000353
14041000,0.0324,0.013523,0.002678,0.000431,0.000470
14042000,0.0324,0.013523,0.002678,0.000431,0.000353
14043000,0.0324,0.013523,0.002678,0.000431,0.000235
14044000,0.0324,0.013523,0.002678,0.000431,0.000353
14045000,0.0324,0.013523,0.002678,0.000431,0.000353
14046000,0.0324,0.013523,0.002678,0.000431,0.000235
14047000,0.0324,0.013523,0.002678,0.000431,0.000353
14048000,0.0324,0.013523,0.002678,0.000431,0.000470
14049000,0.0324,0.013523,0.002678,0.000431,0.000353
14050000,0.0324,0.013523,0.002678,0.000431,0.000235
14051000,0.0324,0.013523,0.002678,0.000431,0.000353
14052000,0.0324,0.013523,0.002678,0.000431,0.000353
14053000,0.0324,0.013523,0.002678,0.000431,0.000235
14054000,0.0324,0.013523,0.002678,0.000431,0.000353
14055000,0.0324,0.013523,0.002678,0.000431,0.000470
14056000,0.0324,0.013523,0.002678,0.000431,0.000353
14057000,0.0324,0.013523,0.002678,0.000431,0.000235
14058000,0.0324,0.013523,0.002678,0.000431,0.000353
14059000,0.0324,0.013523,0.002678,0.000431,0.000353
14060000,0.0324,0.013523,0.002678,0.000431,0.000235
14061000,0.0324,0.013523,0.002678,0.000431,0.000353
14062000,0.0324,0.013523,0.002678,0.000431,0.000470
14063000,0.0324,0.013523,0.002678,0.000431,0.000353
14064000,0.0324,0.013523,0.002678,0.000431,0.000235
14065000,0.0324,0.013523,0.002678,0.000431,0.000353
14066000,0.0324,0.013523,0.002678,0.000431,0.000353
14067000,0.0324,0.013523,0.002678,0.000431,0.000235
14068000,0.0324,0.013523,0.002678,0.000431,0.000353
14069000,0.0324,0.013523,0.002678,0.000431,0.000470
14070000,0.0324,0.013523,0.002678,0.000431,0.000353
14071000,0.0324,0.013523,0.002678,0.000431,0.000235
14072000,0.0324,0.013523,0.002678,0.000431,0.000353
14073000,0.0324,0.013523,0.002678,0.000431,0.000353
14074000,0.0324,0.013523,0.002678,0.000431,0.000235
14075000,0.0324,0.013523,0.002678,0.000431,0.000353
14076000,0.0324,0.013523,0.002678,0.000431,0.000470
14077000,0.0324,0.013523,0.002678,0.000431,0.000353
14078000,0.0324,0.013523,0.002678,0.000431,0.000118
14079000,0.0324,0.013523,0.002678,0.000431,0.000470
14080000,0.0324,0.013523,0.002678,0.000431,0.000353
14081000,0.0324,0.013523,0.002678,0.000431,0.000235
14082000,0.0324,0.013523,0.002678,0.000431,0.000353
14083000,0.0324,0.013523,0.002678,0.000431,0.000470
14084000,0.0324,0.013523,0.002678,0.000431,0.000353
14085000,0.0324,0.013523,0.002678,0.000431,0.000118
14086000,0.0324,0.013523,0.002678,0.000431,0.000470
14087000,0.0324,0.013523,0.002678,0.000431,0.000353
14088000,0.0324,0.013523,0.002678,0.000431,0.000235
14089000,0.0324,0.013523,0.002678,0.000431,0.000353
14090000,0.0324,0.013523,0.002678,0.000431,0.000470
14091000,0.0324,0.013523,0.002678,0.000431,0.000353
14092000,0.0324,0.013523,0.002678,0.000431,0.000118
14093000,0.0324,0.013523,0.002678,0.000431,0.000470
14094000,0.0324,0.013523,0.002678,0.000431,0.000353
14095000,0.0324,0.013523,0.002678,0.000431,0.000235
14096000,0.0324,0.013523,0.002678,0.000431,0.000353
14097000,0.0324,0.013523,0.002678,0.000431,0.000470
14098000,0.0324,0.013523,0.002678,0.000431,0.000353
14099000,0.0324,0.013523,0.002678,0.000431,0.000118
14100000,0.0324,0.013523,0.002678,0.000431,0.000470
14101000,0.0324,0.013523,0.002678,0.000431,0.000353
14102000,0.0324,0.013523,0.002678,0.000431,0.000235
14103000,0.0324,0.013523,0.002678,0.000431,0.000353
14104000,0.0324,0.013523,0.002678,0.000431,0.000470
14105000,0.0324,0.013523,0.002678,0.000431,0.000235
14106000,0.0324,0.013523,0.002678,0.000431,0.000235
14107000,0.0324,0.013523,0.002678,0.000431,0.000470
14108000,0.0324,0.013523,0.002678,0.000431,0.000353
14109000,0.0324,0.013523,0.002678,0.000431,0.000235
14110000,0.0324,0.013523,0.002678,0.000431,0.000353
14111000,0.0324,0.013523,0.002678,0.000431,0.000470
14112000,0.0324,0.013523,0.002678,0.000431,0.000235
14113000,0.0324,0.013523,0.002678,0.000431,0.000235
14114000,0.0324,0.013523,0.002678,0.000431,0.000470
14115000,0.0324,0.013523,0.002678,0.000431,0.000353
14116000,0.0324,0.013523,0.002678,0.000431,0.000235
14117000,0.0324,0.013523,0.002678,0.000431,0.000353
14118000,0.0324,0.013523,0.002678,0.000431,0.000470
14119000,0.0324,0.013523,0.002678,0.000431,0.000235
14120000,0.0324,0.013523,0.002678,0.000431,0.000235
14121000,0.0324,0.013523,0.002678,0.000431,0.000470
14122000,0.0324,0.013523,0.002678,0.000431,0.000353
14123000,0.0324,0.013523,0.002678,0.000431,0.000235
14124000,0.0324,0.013523,0.002678,0.000431,0.000353
14125000,0.0324,0.013523,0.002678,0.000431,0.000470
14126000,0.0324,0.013523,0.002678,0.000431,0.000235
14127000,0.0324,0.013523,0.002678,0.000431,0.000235
14128000,0.0324,0.013523,0.002678,0.000431,0.000470
14129000,0.0324,0.013523,0.002678,0.000431,0.000353
14130000,0.0324,0.013523,0.002678,0.000431,0.000235
14131000,0.0324,0.013523,0.002678,0.000431,0.000353
14132000,0.0324,0.013523,0.002678,0.000431,0.000470
14133000,0.0324,0.013523,0.002678,0.000431,0.000235
14134000,0.0324,0.013523,0.002678,0.000431,0.000235
14135000,0.0324,0.013523,0.002678,0.000431,0.000470
14136000,0.0324,0.013523,0.002678,0.000431,0.000353
14137000,0.0324,0.013523,0.002678,0.000431,0.000235
14138000,0.0324,0.013523,0.002678,0.000431,0.000353
14139000,0.0324,0.013523,0.002678,0.000431,0.000470
14140000,0.0324,0.013523,0.002678,0.000431,0.000235
14141000,0.0324,0.013523,0.002678,0.000431,0.000235
14142000,0.0324,0.013523,0.002678,0.000431,0.000470
14143000,0.0324,0.013523,0.002678,0.000431,0.000353
14144000,0.0324,0.013523,0.002678,0.000431,0.000235
14145000,0.0324,0.013523,0.002678,0.000431,0.000353
14146000,0.0324,0.013523,0.002678,0.000431,0.000470
14147000,0.0324,0.013523,0.002678,0.000431,0.000118
14148000,0.0324,0.013523,0.002678,0.000431,0.000353
14149000,0.0324,0.013523,0.002678,0.000431,0.000470
14150000,0.0324,0.013523,0.002678,0.000431,0.000353
14151000,0.0324,0.013523,0.002678,0.000431,0.000235
14152000,0.0324,0.013523,0.002678,0.000431,0.000353
14153000,0.0324,0.013523,0.002678,0.000431,0.000470
14154000,0.0324,0.013523,0.002678,0.000431,0.000118
14155000,0.0324,0.013523,0.002678,0.000431,0.000353
14156000,0.0324,0.013523,0.002678,0.000431,0.000470
14157000,0.0324,0.013523,0.002678,0.000431,0.000353
14158000,0.0324,0.013523,0.002678,0.000431,0.000235
14159000,0.0324,0.013523,0.002678,0.000431,0.000353
14160000,0.0324,0.013523,0.002678,0.000431,0.000470
14161000,0.0324,0.013523,0.002678,0.000431,0.000118
14162000,0.0324,0.013523,0.002678,0.000431,0.000353
14163000,0.0324,0.013523,0.002678,0.000431,0.000470
14164000,0.0324,0.013523,0.002678,0.000431,0.000353
14165000,0.0324,0.013523,0.002678,0.000431,0.000235
14166000,0.0324,0.013523,0.002678,0.000431,0.000353
14167000,0.0324,0.013523,0.002678,0.000431,0.000353
14168000,0.0324,0.013523,0.002678,0.000431,0.000235
14169000,0.0324,0.013523,0.002678,0.000431,0.000353
14170000,0.0324,0.013523,0.002678,0.000431,0.000470
14171000,0.0324,0.013523,0.002678,0.000431,0.000353
14172000,0.0324,0.013523,0.002678,0.000431,0.000235
14173000,0.0324,0.013523,0.002678,0.000431,0.000353
14174000,0.0324,0.013523,0.002678,0.000431,0.000353
14175000,0.0324,0.013523,0.002678,0.000431,0.000235
14176000,0.0324,0.013523,0.002678,0.000431,0.000353
14177000,0.0324,0.013523,0.002678,0.000431,0.000470
14178000,0.0324,0.013523,0.002678,0.000431,0.000353
14179000,0.0324,0.013523,0.002678,0.000431,0.000235
14180000,0.0324,0.013523,0.002678,0.000431,0.000353
14181000,0.0324,0.013523,0.002678,0.000431,0.000353
14182000,0.0324,0.013523,0.002678,0.000431,0.000235
14183000,0.0324,0.013523,0.002678,0.000431,0.000353
14184000,0.0324,0.013523,0.002678,0.000431,0.000470
14185000,0.0324,0.013523,0.002678,0.000431,0.000353
14186000,0.0324,0.013523,0.002678,0.000431,0.000235
14187000,0.0324,0.013523,0.002678,0.000431,0.000353
14188000,0.0324,0.013523,0.002678,0.000431,0.000353
14189000,0.0324,0.013523,0.002678,0.000431,0.000235
14190000,0.0324,0.013523,0.002678,0.000431,0.000353
14191000,0.0324,0.013523,0.002678,0.000431,0.000470
14192000,0.0324,0.013523,0.002678,0.000431,0.000353
14193000,0.0324,0.013523,0.002678,0.000431,0.000235
14194000,0.0324,0.013523,0.002678,0.000431,0.000353
14195000,0.0324,0.013523,0.002678,0.000431,0.000353
14196000,0.0324,0.013523,0.002678,0.000431,0.000235
14197000,0.0324,0.013523,0.002678,0.000431,0.000353
14198000,0.0324,0.013523,0.002678,0.000431,0.000470
14199000,0.0324,0.013523,0.002678,0.000431,0.000353
14200000,0.0324,0.013523,0.002678,0.000431,0.000235
14201000,0.0324,0.013523,0.002678,0.000431,0.000353
14202000,0.0324,0.013523,0.002678,0.000431,0.000353
14203000,0.0324,0.013523,0.002678,0.000431,0.000235
14204000,0.0324,0.013523,0.002678,0.000431,0.000353
14205000,0.0324,0.013523,0.002678,0.000431,0.000470
14206000,0.0324,0.013523,0.002678,0.000431,0.000353
14207000,0.0324,0.013523,0.002678,0.000431,0.000235
14208000,0.0324,0.013523,0.002678,0.000431,0.000353
14209000,0.0324,0.013523,0.002678,0.000431,0.000353
14210000,0.0324,0.013523,0.002678,0.000431,0.000235
14211000,0.0324,0.013523,0.002678,0.000431,0.000353
14212000,0.0324,0.013523,0.002678,0.000431,0.000470
14213000,0.0324,0.013523,0.002678,0.000431,0.000353
14214000,0.0324,0.013523,0.002678,0.000431,0.000235
14215000,0.0324,0.013523,0.002678,0.000431,0.000353
14216000,0.0324,0.013523,0.002678,0.000431,0.000353
14217000,0.0324,0.013523,0.002678,0.000431,0.000235
14218000,0.0324,0.013523,0.002678,0.000431,0.000353
14219000,0.0324,0.013523,0.002678,0.000431,0.000470
14220000,0.0324,0.013523,0.002678,0.000431,0.000353
14221000,0.0324,0.013523,0.002678,0.000431,0.000118
14222000,0.0324,0.013523,0.002678,0.000431,0.000470
14223000,0.0324,0.013523,0.002678,0.000431,0.000353
14224000,0.0324,0.013523,0.002678,0.000431,0.000235
14225000,0.0324,0.013523,0.002678,0.000431,0.000353
14226000,0.0324,0.013523,0.002678,0.000431,0.000470
14227000,0.0324,0.013523,0.002678,0.000431,0.000353
14228000,0.0324,0.013523,0.002678,0.000431,0.000118
14229000,0.0324,0.013523,0.002678,0.000431,0.000470
14230000,0.0324,0.013523,0.002678,0.000431,0.000353
14231000,0.0324,0.013523,0.002678,0.000431,0.000235
14232000,0.0324,0.013523,0.002678,0.000431,0.000353
14233000,0.0324,0.013523,0.002678,0.000431,0.000470
14234000,0.0324,0.013523,0.002678,0.000431,0.000353
14235000,0.0324,0.013523,0.002678,0.000431,0.000118
14236000,0.0324,0.013523,0.002678,0.000431,0.000470
14237000,0.0324,0.013523,0.002678,0.000431,0.000353
14238000,0.0324,0.013523,0.002678,0.000431,0.000235
14239000,0.0324,0.013523,0.002678,0.000431,0.000353
14240000,0.0324,0.013523,0.002678,0.000431,0.000470
14241000,0.0324,0.013523,0.002678,0.000431,0.000353
14242000,0.0324,0.013523,0.002678,0.000431,0.000118
14243000,0.0324,0.013523,0.002678,0.000431,0.000470
14244000,0.0324,0.013523,0.002678,0.000431,0.000353
14245000,0.0324,0.013523,0.002678,0.000431,0.000235
14246000,0.0324,0.013523,0.002678,0.000431,0.000353
14247000,0.0324,0.013523,0.002678,0.000431,0.000470
14248000,0.0324,0.013523,0.002678,0.000431,0.000235
14249000,0.0324,0.013523,0.002678,0.000431,0.000235
14250000,0.0324,0.013523,0.002678,0.000431,0.000470
14251000,0.0324,0.013523,0.002678,0.000431,0.000353
14252000,0.0324,0.013523,0.002678,0.000431,0.000235
14253000,0.0324,0.013523,0.002678,0.000431,0.000353
14254000,0.0324,0.013523,0.002678,0.000431,0.000470
14255000,0.0324,0.013523,0.002678,0.000431,0.000235
14256000,0.0324,0.013523,0.002678,0.000431,0.000235
14257000,0.0324,0.013523,0.002678,0.000431,0.000470
14258000,0.0324,0.013523,0.002678,0.000431,0.000353
14259000,0.0324,0.013523,0.002678,0.000431,0.000235
14260000,0.0324,0.013523,0.002678,0.000431,0.000353
14261000,0.0324,0.013523,0.002678,0.000431,0.000470
14262000,0.0324,0.013523,0.002678,0.000431,0.000235
14263000,0.0324,0.013523,0.002678,0.000431,0.000235
14264000,0.0324,0.013523,0.002678,0.000431,0.000470
14265000,0.0324,0.013523,0.002678,0.000431,0.000353
14266000,0.0324,0.013523,0.002678,0.000431,0.000235
14267000,0.0324,0.013523,0.002678,0.000431,0.000353
14268000,0.0324,0.013523,0.002678,0.000431,0.000470
14269000,0.0324,0.013523,0.002678,0.000431,0.000235
14270000,0.0324,0.013523,0.002678,0.000431,0.000235
14271000,0.0324,0.013523,0.002678,0.000431,0.000470
14272000,0.0324,0.013523,0.002678,0.000431,0.000353
14273000,0.0324,0.013523,0.002678,0.000431,0.000235
14274000,0.0324,0.013523,0.002678,0.000431,0.000353
14275000,0.0324,0.013523,0.002678,0.000431,0.000470
14276000,0.0324,0.013523,0.002678,0.000431,0.000235
14277000,0.0324,0.013523,0.002678,0.000431,0.000235
14278000,0.0324,0.013523,0.002678,0.000431,0.000470
14279000,0.0324,0.013523,0.002678,0.000431,0.000353
14280000,0.0324,0.013523,0.002678,0.000431,0.000235
14281000,0.0324,0.013523,0.002678,0.000431,0.000353
14282000,0.0324,0.013523,0.002678,0.000431,0.000470
14283000,0.0324,0.013523,0.002678,0.000431,0.000118
14284000,0.0324,0.013523,0.002678,0.000431,0.000353
14285000,0.0324,0.013523,0.002678,0.000431,0.000470
14286000,0.0324,0.013523,0.002678,0.000431,0.000353
14287000,0.0324,0.013523,0.002678,0.000431,0.000235
14288000,0.0324,0.013523,0.002678,0.000431,0.000353
14289000,0.0324,0.013523,0.002678,0.000431,0.000470
14290000,0.0324,0.013523,0.002678,0.000431,0.000118
14291000,0.0324,0.013523,0.002678,0.000431,0.000353
14292000,0.0324,0.013523,0.002678,0.000431,0.000470
14293000,0.0324,0.013523,0.002678,0.000431,0.000353
14294000,0.0324,0.013523,0.002678,0.000431,0.000235
14295000,0.0324,0.013523,0.002678,0.000431,0.000353
14296000,0.0324,0.013523,0.002678,0.000431,0.000470
14297000,0.0324,0.013523,0.002678,0.000431,0.000118
14298000,0.0324,0.013523,0.002678,0.000431,0.000353
14299000,0.0324,0.013523,0.002678,0.000431,0.000470
14300000,0.0324,0.013523,0.002678,0.000431,0.000353
14301000,0.0324,0.013523,0.002678,0.000431,0.000235
14302000,0.0324,0.013523,0.002678,0.000431,0.000353
14303000,0.0324,0.013523,0.002678,0.000431,0.000470
14304000,0.0324,0.013523,0.002678,0.000431,0.000118
14305000,0.0324,0.013523,0.002678,0.000431,0.000353
14306000,0.0324,0.013523,0.002678,0.000431,0.000470
14307000,0.0324,0.013523,0.002678,0.000431,0.000353
14308000,0.0324,0.013523,0.002678,0.000431,0.000235
14309000,0.0324,0.013523,0.002678,0.000431,0.000353
14310000,0.0324,0.013523,0.002678,0.000431,0.000353
14311000,0.0324,0.013523,0.002678,0.000431,0.000235
14312000,0.0324,0.013523,0.002678,0.000431,0.000353
14313000,0.0324,0.013523,0.002678,0.000431,0.000470
14314000,0.0324,0.013523,0.002678,0.000431,0.000353
14315000,0.0324,0.013523,0.002678,0.000431,0.000235
14316000,0.0324,0.013523,0.002678,0.000431,0.000353
14317000,0.0324,0.013523,0.002678,0.000431,0.000353
14318000,0.0324,0.013523,0.002678,0.000431,0.000235
14319000,0.0324,0.013523,0.002678,0.000431,0.000353
14320000,0.0324,0.013523,0.002678,0.000431,0.000470
14321000,0.0324,0.013523,0.002678,0.000431,0.000353
14322000,0.0324,0.013523,0.002678,0.000431,0.000235
14323000,0.0324,0.013523,0.002678,0.000431,0.000353
14324000,0.0324,0.013523,0.002678,0.000431,0.000353
14325000,0.0324,0.013523,0.002678,0.000431,0.000235
14326000,0.0324,0.013523,0.002678,0.000431,0.000353
14327000,0.0324,0.013523,0.002678,0.000431,0.000470
14328000,0.0324,0.013523,0.002678,0.000431,0.000353
14329000,0.0324,0.013523,0.002678,0.000431,0.000235
14330000,0.0324,0.013523,0.002678,0.000431,0.000353
14331000,0.0324,0.013523,0.002678,0.000431,0.000353
14332000,0.0324,0.013523,0.002678,0.000431,0.000235
14333000,0.0324,0.013523,0.002678,0.000431,0.000353
14334000,0.0324,0.013523,0.002678,0.000431,0.000470
14335000,0.0324,0.013523,0.002678,0.000431,0.000353
14336000,0.0324,0.013523,0.002678,0.000431,0.000235
14337000,0.0324,0.013523,0.002678,0.000431,0.000353
14338000,0.0324,0.013523,0.002678,0.000431,0.000353
14339000,0.0324,0.013523,0.002678,0.000431,0.000235
14340000,0.0324,0.013523,0.002678,0.000431,0.000353
14341000,0.0324,0.013523,0.002678,0.000431,0.000470
14342000,0.0324,0.013523,0.002678,0.000431,0.000353
14343000,0.0324,0.013523,0.002678,0.000431,0.000235
14344000,0.0324,0.013523,0.002678,0.000431,0.000353
14345000,0.0324,0.013523,0.002678,0.000431,0.000353
14346000,0.0324,0.013523,0.002678,0.000431,0.000235
14347000,0.0324,0.013523,0.002678,0.000431,0.000353
14348000,0.0324,0.013523,0.002678,0.000431,0.000470
14349000,0.0324,0.013523,0.002678,0.000431,0.000353
14350000,0.0324,0.013523,0.002678,0.000431,0.000235
14351000,0.0324,0.013523,0.002678,0.000431,0.000353
14352000,0.0324,0.013523,0.002678,0.000431,0.000353
14353000,0.0324,0.013523,0.002678,0.000431,0.000235
14354000,0.0324,0.013523,0.002678,0.000431,0.000353
14355000,0.0324,0.013523,0.002678,0.000431,0.000470
14356000,0.0324,0.013523,0.002678,0.000431,0.000353
14357000,0.0324,0.013523,0.002678,0.000431,0.000235
14358000,0.0324,0.013523,0.002678,0.000431,0.000353
14359000,0.0324,0.013523,0.002678,0.000431,0.000353
14360000,0.0324,0.013523,0.002678,0.000431,0.000235
14361000,0.0324,0.013523,0.002678,0.000431,0.000353
14362000,0.0324,0.013523,0.002678,0.000431,0.000470
14363000,0.0324,0.013523,0.002678,0.000431,0.000353
14364000,0.0324,0.013523,0.002678,0.000431,0.000118
14365000,0.0324,0.013523,0.002678,0.000431,0.000470
14366000,0.0324,0.013523,0.002678,0.000431,0.000353
14367000,0.0324,0.013523,0.002678,0.000431,0.000235
14368000,0.0324,0.013523,0.002678,0.000431,0.000353
14369000,0.0324,0.013523,0.002678,0.000431,0.000470
14370000,0.0324,0.013523,0.002678,0.000431,0.000353
14371000,0.0324,0.013523,0.002678,0.000431,0.000118
14372000,0.0324,0.013523,0.002678,0.000431,0.000470
14373000,0.0324,0.013523,0.002678,0.000431,0.000353
14374000,0.0324,0.013523,0.002678,0.000431,0.000235
14375000,0.0324,0.013523,0.002678,0.000431,0.000353
14376000,0.0324,0.013523,0.002678,0.000431,0.000470
14377000,0.0324,0.013523,0.002678,0.000431,0.000353
14378000,0.0324,0.013523,0.002678,0.000431,0.000118
14379000,0.0324,0.013523,0.002678,0.000431,0.000470
14380000,0.0324,0.013523,0.002678,0.000431,0.000353
14381000,0.0324,0.013523,0.002678,0.000431,0.000235
14382000,0.0324,0.013523,0.002678,0.000431,0.000353
14383000,0.0324,0.013523,0.002678,0.000431,0.000470
14384000,0.0324,0.013523,0.002678,0.000431,0.000235
14385000,0.0324,0.013523,0.002678,0.000431,0.000235
14386000,0.0324,0.013523,0.002678,0.000431,0.000470
14387000,0.0324,0.013523,0.002678,0.000431,0.000353
14388000,0.0324,0.013523,0.002678,0.000431,0.000235
14389000,0.0324,0.013523,0.002678,0.000431,0.000353
14390000,0.0324,0.013523,0.002678,0.000431,0.000470
14391000,0.0324,0.013523,0.002678,0.000431,0.000235
14392000,0.0324,0.013523,0.002678,0.000431,0.000235
14393000,0.0324,0.013523,0.002678,0.000431,0.000470
14394000,0.0324,0.013523,0.002678,0.000431,0.000353
14395000,0.0324,0.013523,0.002678,0.000431,0.000235
14396000,0.0324,0.013523,0.002678,0.000431,0.000353
14397000,0.0324,0.013523,0.002678,0.000431,0.000470
14398000,0.0324,0.013523,0.002678,0.000431,0.000235
14399000,0.0324,0.013523,0.002678,0.000431,0.000235
14400000,0.0324,0.013523,0.002678,0.000431,0.000470
14401000,0.0324,0.013523,0.002678,0.000431,0.000353
14402000,0.0324,0.013523,0.002678,0.000431,0.000235
14403000,0.0324,0.013523,0.002678,0.000431,0.000353
14404000,0.0324,0.013523,0.002678,0.000431,0.000470
14405000,0.0324,0.013523,0.002678,0.000431,0.000235
14406000,0.0324,0.013523,0.002678,0.000431,0.000235
14407000,0.0324,0.013523,0.002678,0.000431,0.000470
14408000,0.0324,0.013523,0.002678,0.000431,0.000353
14409000,0.0324,0.013523,0.002678,0.000431,0.000235
14410000,0.0324,0.013523,0.002678,0.000431,0.000353
14411000,0.0324,0.013523,0.002678,0.000431,0.000470
14412000,0.0324,0.013523,0.002678,0.000431,0.000235
14413000,0.0324,0.013523,0.002678,0.000431,0.000235
14414000,0.0324,0.013523,0.002678,0.000431,0.000470
14415000,0.0324,0.013523,0.002678,0.000431,0.000353
14416000,0.0324,0.013523,0.002678,0.000431,0.000235
14417000,0.0324,0.013523,0.002678,0.000431,0.000353
14418000,0.0324,0.013523,0.002678,0.000431,0.000470
14419000,0.0324,0.013523,0.002678,0.000431,0.000235
14420000,0.0324,0.013523,0.002678,0.000431,0.000235
14421000,0.0324,0.013523,0.002678,0.000431,0.000470
14422000,0.0324,0.013523,0.002678,0.000431,0.000353
14423000,0.0324,0.013523,0.002678,0.000431,0.000235
14424000,0.0324,0.013523,0.002678,0.000431,0.000353
14425000,0.0324,0.013523,0.002678,0.000431,0.000470
14426000,0.0324,0.013523,0.002678,0.000431,0.000118
14427000,0.0324,0.013523,0.002678,0.000431,0.000353
14428000,0.0324,0.013523,0.002678,0.000431,0.000470
14429000,0.0324,0.013523,0.002678,0.000431,0.000353
14430000,0.0324,0.013523,0.002678,0.000431,0.000235
14431000,0.0324,0.013523,0.002678,0.000431,0.000353
14432000,0.0324,0.013523,0.002678,0.000431,0.000470
14433000,0.0324,0.013523,0.002678,0.000431,0.000118
14434000,0.0324,0.013523,0.002678,0.000431,0.000353
14435000,0.0324,0.013523,0.002678,0.000431,0.000470
14436000,0.0324,0.013523,0.002678,0.000431,0.000353
14437000,0.0324,0.013523,0.002678,0.000431,0.000235
14438000,0.0324,0.013523,0.002678,0.000431,0.000353
14439000,0.0324,0.013523,0.002678,0.000431,0.000470
14440000,0.0324,0.013523,0.002678,0.000431,0.000118
14441000,0.0324,0.013523,0.002678,0.000431,0.000353
14442000,0.0324,0.013523,0.002678,0.000431,0.000470
14443000,0.0324,0.013523,0.002678,0.000431,0.000353
14444000,0.0324,0.013523,0.002678,0.000431,0.000235
14445000,0.0324,0.013523,0.002678,0.000431,0.000353
14446000,0.0324,0.013523,0.002678,0.000431,0.000470
14447000,0.0324,0.013523,0.002678,0.000431,0.000118
14448000,0.0324,0.013523,0.002678,0.000431,0.000353
14449000,0.0324,0.013523,0.002678,0.000431,0.000470
14450000,0.0324,0.013523,0.002678,0.000431,0.000353
14451000,0.0324,0.013523,0.002678,0.000431,0.000235
14452000,0.0324,0.013523,0.002678,0.000431,0.000353
14453000,0.0324,0.013523,0.002678,0.000431,0.000353
14454000,0.0324,0.013523,0.002678,0.000431,0.000235
14455000,0.0324,0.013523,0.002678,0.000431,0.000353
14456000,0.0324,0.013523,0.002678,0.000431,0.000470
14457000,0.0324,0.013523,0.002678,0.000431,0.000353
14458000,0.0324,0.013523,0.002678,0.000431,0.000235
14459000,0.0324,0.013523,0.002678,0.000431,0.000353
14460000,0.0324,0.013523,0.002678,0.000431,0.000353
14461000,0.0324,0.013523,0.002678,0.000431,0.000235
14462000,0.0324,0.013523,0.002678,0.000431,0.000353
14463000,0.0324,0.013523,0.002678,0.000431,0.000470
14464000,0.0324,0.013523,0.002678,0.000431,0.000353
14465000,0.0324,0.013523,0.002678,0.000431,0.000235
14466000,0.0324,0.013523,0.002678,0.000431,0.000353
14467000,0.0324,0.013523,0.002678,0.000431,0.000353
14468000,0.0324,0.013523,0.002678,0.000431,0.000235
14469000,0.0324,0.013523,0.002678,0.000431,0.000353
14470000,0.0324,0.013523,0.002678,0.000431,0.000470
14471000,0.0324,0.013523,0.002678,0.000431,0.000353
14472000,0.0324,0.013523,0.002678,0.000431,0.000235
14473000,0.0324,0.013523,0.002678,0.000431,0.000353
14474000,0.0324,0.013523,0.002678,0.000431,0.000353
14475000,0.0324,0.013523,0.002678,0.000431,0.000235
14476000,0.0324,0.013523,0.002678,0.000431,0.000353
14477000,0.0324,0.013523,0.002678,0.000431,0.000470
14478000,0.0324,0.013523,0.002678,0.000431,0.000353
14479000,0.0324,0.013523,0.002678,0.000431,0.000235
14480000,0.0324,0.013523,0.002678,0.000431,0.000353
14481000,0.0324,0.013523,0.002678,0.000431,0.000353
14482000,0.0324,0.013523,0.002678,0.000431,0.000235
14483000,0.0324,0.013523,0.002678,0.000431,0.000353
14484000,0.0324,0.013523,0.002678,0.000431,0.000470
14485000,0.0324,0.013523,0.002678,0.000431,0.000353
14486000,0.0324,0.013523,0.002678,0.000431,0.000235
14487000,0.0324,0.013523,0.002678,0.000431,0.000353
14488000,0.0324,0.013523,0.002678,0.000431,0.000353
14489000,0.0324,0.013523,0.002678,0.000431,0.000235
14490000,0.0324,0.013523,0.002678,0.000431,0.000353
14491000,0.0324,0.013523,0.002678,0.000431,0.000470
14492000,0.0324,0.013523,0.002678,0.000431,0.000353
14493000,0.0324,0.013523,0.002678,0.000431,0.000235
14494000,0.0324,0.013523,0.002678,0.000431,0.000353
14495000,0.0324,0.013523,0.002678,0.000431,0.000353
14496000,0.0324,0.013523,0.002678,0.000431,0.000235
14497000,0.0324,0.013523,0.002678,0.000431,0.000353
14498000,0.0324,0.013523,0.002678,0.000431,0.000470
14499000,0.0324,0.013523,0.002678,0.000431,0.000353
14500000,0.0324,0.013523,0.002678,0.000431,0.000118
14501000,0.0324,0.013523,0.002678,0.000431,0.000470
14502000,0.0324,0.013523,0.002678,0.000431,0.000353
14503000,0.0324,0.013523,0.002678,0.000431,0.000235
14504000,0.0324,0.013523,0.002678,0.000431,0.000353
14505000,0.0324,0.013523,0.002678,0.000431,0.000470
14506000,0.0324,0.013523,0.002678,0.000431,0.000353
14507000,0.0324,0.013523,0.002678,0.000431,0.000118
14508000,0.0324,0.013523,0.002678,0.000431,0.000470
14509000,0.0324,0.013523,0.002678,0.000431,0.000353
14510000,0.0324,0.013523,0.002678,0.000431,0.000235
14511000,0.0324,0.013523,0.002678,0.000431,0.000353
14512000,0.0324,0.013523,0.002678,0.000431,0.000470
14513000,0.0324,0.013523,0.002678,0.000431,0.000353
14514000,0.0324,0.013523,0.002678,0.000431,0.000118
14515000,0.0324,0.013523,0.002678,0.000431,0.000470
14516000,0.0324,0.013523,0.002678,0.000431,0.000353
14517000,0.0324,0.013523,0.002678,0.000431,0.000235
14518000,0.0324,0.013523,0.002678,0.000431,0.000353
14519000,0.0324,0.013523,0.002678,0.000431,0.000470
14520000,0.0324,0.013523,0.002678,0.000431,0.000353
14521000,0.0324,0.013523,0.002678,0.000431,0.000118
14522000,0.0324,0.013523,0.002678,0.000431,0.000470
14523000,0.0324,0.013523,0.002678,0.000431,0.000353
14524000,0.0324,0.013523,0.002678,0.000431,0.000235
14525000,0.0324,0.013523,0.002678,0.000431,0.000353
14526000,0.0324,0.013523,0.002678,0.000431,0.000470
14527000,0.0324,0.013523,0.002678,0.000431,0.000235
14528000,0.0324,0.013523,0.002678,0.000431,0.000235
14529000,0.0324,0.013523,0.002678,0.000431,0.000470
14530000,0.0324,0.013523,0.002678,0.000431,0.000353
14531000,0.0324,0.013523,0.002678,0.000431,0.000235
14532000,0.0324,0.013523,0.002678,0.000431,0.000353
14533000,0.0324,0.013523,0.002678,0.000431,0.000470
14534000,0.0324,0.013523,0.002678,0.000431,0.000235
14535000,0.0324,0.013523,0.002678,0.000431,0.000235
14536000,0.0324,0.013523,0.002678,0.000431,0.000470
14537000,0.0324,0.013523,0.002678,0.000431,0.000353
14538000,0.0324,0.013523,0.002678,0.000431,0.000235
14539000,0.0324,0.013523,0.002678,0.000431,0.000353
14540000,0.0324,0.013523,0.002678,0.000431,0.000470
14541000,0.0324,0.013523,0.002678,0.000431,0.000235
14542000,0.0324,0.013523,0.002678,0.000431,0.000235
14543000,0.0324,0.013523,0.002678,0.000431,0.000470
14544000,0.0324,0.013523,0.002678,0.000431,0.000353
14545000,0.0324,0.013523,0.002678,0.000431,0.000235
14546000,0.0324,0.013523,0.002678,0.000431,0.000353
14547000,0.0324,0.013523,0.002678,0.000431,0.000470
14548000,0.0324,0.013523,0.002678,0.000431,0.000235
14549000,0.0324,0.013523,0.002678,0.000431,0.000235
14550000,0.0324,0.013523,0.002678,0.000431,0.000470
14551000,0.0324,0.013523,0.002678,0.000431,0.000353
14552000,0.0324,0.013523,0.002678,0.000431,0.000235
14553000,0.0324,0.013523,0.002678,0.000431,0.000353
14554000,0.0324,0.013523,0.002678,0.000431,0.000470
14555000,0.0324,0.013523,0.002678,0.000431,0.000235
14556000,0.0324,0.013523,0.002678,0.000431,0.000235
14557000,0.0324,0.013523,0.002678,0.000431,0.000470
14558000,0.0324,0.013523,0.002678,0.000431,0.000353
14559000,0.0324,0.013523,0.002678,0.000431,0.000235
14560000,0.0324,0.013523,0.002678,0.000431,0.000353
14561000,0.0324,0.013523,0.002678,0.000431,0.000470
14562000,0.0324,0.013523,0.002678,0.000431,0.000235
14563000,0.0324,0.013523,0.002678,0.000431,0.000235
14564000,0.0324,0.013523,0.002678,0.000431,0.000470
14565000,0.0324,0.013523,0.002678,0.000431,0.000353
14566000,0.0324,0.013523,0.002678,0.000431,0.000235
14567000,0.0324,0.013523,0.002678,0.000431,0.000353
14568000,0.0324,0.013523,0.002678,0.000431,0.000470
14569000,0.0324,0.013523,0.002678,0.000431,0.000118
14570000,0.0324,0.013523,0.002678,0.000431,0.000353
14571000,0.0324,0.013523,0.002678,0.000431,0.000470
14572000,0.0324,0.013523,0.002678,0.000431,0.000353
14573000,0.0324,0.013523,0.002678,0.000431,0.000235
14574000,0.0324,0.013523,0.002678,0.000431,0.000353
14575000,0.0324,0.013523,0.002678,0.000431,0.000470
14576000,0.0324,0.013523,0.002678,0.000431,0.000118
14577000,0.0324,0.013523,0.002678,0.000431,0.000353
14578000,0.0324,0.013523,0.002678,0.000431,0.000470
14579000,0.0324,0.013523,0.002678,0.000431,0.000353
14580000,0.0324,0.013523,0.002678,0.000431,0.000235
14581000,0.0324,0.013523,0.002678,0.000431,0.000353
14582000,0.0324,0.013523,0.002678,0.000431,0.000470
14583000,0.0324,0.013523,0.002678,0.000431,0.000118
14584000,0.0324,0.013523,0.002678,0.000431,0.000353
14585000,0.0324,0.013523,0.002678,0.000431,0.000470
14586000,0.0324,0.013523,0.002678,0.000431,0.000353
14587000,0.0324,0.013523,0.002678,0.000431,0.000235
14588000,0.0324,0.013523,0.002678,0.000431,0.000353
14589000,0.0324,0.013523,0.002678,0.000431,0.000353
14590000,0.0324,0.013523,0.002678,0.000431,0.000235
14591000,0.0324,0.013523,0.002678,0.000431,0.000353
14592000,0.0324,0.013523,0.002678,0.000431,0.000470
14593000,0.0324,0.013523,0.002678,0.000431,0.000353
14594000,0.0324,0.013523,0.002678,0.000431,0.000235
14595000,0.0324,0.013523,0.002678,0.000431,0.000353
14596000,0.0324,0.013523,0.002678,0.000431,0.000353
14597000,0.0324,0.013523,0.002678,0.000431,0.000235
14598000,0.0324,0.013523,0.002678,0.000431,0.000353
14599000,0.0324,0.013523,0.002678,0.000431,0.000470
14600000,0.0324,0.013523,0.002678,0.000431,0.000353
14601000,0.0324,0.013523,0.002678,0.000431,0.000235
14602000,0.0324,0.013523,0.002678,0.000431,0.000353
14603000,0.0324,0.013523,0.002678,0.000431,0.000353
14604000,0.0324,0.013523,0.002678,0.000431,0.000235
14605000,0.0324,0.013523,0.002678,0.000431,0.000353
14606000,0.0324,0.013523,0.002678,0.000431,0.000470
14607000,0.0324,0.013523,0.002678,0.000431,0.000353
14608000,0.0324,0.013523,0.002678,0.000431,0.000235
14609000,0.0324,0.013523,0.002678,0.000431,0.000353
14610000,0.0324,0.013523,0.002678,0.000431,0.000353
14611000,0.0324,0.013523,0.002678,0.000431,0.000235
14612000,0.0324,0.013523,0.002678,0.000431,0.000353
14613000,0.0324,0.013523,0.002678,0.000431,0.000470
14614000,0.0324,0.013523,0.002678,0.000431,0.000353
14615000,0.0324,0.013523,0.002678,0.000431,0.000235
14616000,0.0324,0.013523,0.002678,0.000431,0.000353
14617000,0.0324,0.013523,0.002678,0.000431,0.000353
14618000,0.0324,0.013523,0.002678,0.000431,0.000235
14619000,0.0324,0.013523,0.002678,0.000431,0.000353
14620000,0.0324,0.013523,0.002678,0.000431,0.000470
14621000,0.0324,0.013523,0.002678,0.000431,0.000353
14622000,0.0324,0.013523,0.002678,0.000431,0.000235
14623000,0.0324,0.013523,0.002678,0.000431,0.000353
14624000,0.0324,0.013523,0.002678,0.000431,0.000353
14625000,0.0324,0.013523,0.002678,0.000431,0.000235
14626000,0.0324,0.013523,0.002678,0.000431,0.000353
14627000,0.0324,0.013523,0.002678,0.000431,0.000470
14628000,0.0324,0.013523,0.002678,0.000431,0.000353
14629000,0.0324,0.013523,0.002678,0.000431,0.000235
14630000,0.0324,0.013523,0.002678,0.000431,0.000353
14631000,0.0324,0.013523,0.002678,0.000431,0.000353
14632000,0.0324,0.013523,0.002678,0.000431,0.000235
14633000,0.0324,0.013523,0.002678,0.000431,0.000353
14634000,0.0324,0.013523,0.002678,0.000431,0.000470
14635000,0.0324,0.013523,0.002678,0.000431,0.000353
14636000,0.0324,0.013523,0.002678,0.000431,0.000235
14637000,0.0324,0.013523,0.002678,0.000431,0.000353
14638000,0.0324,0.013523,0.002678,0.000431,0.000353
14639000,0.0324,0.013523,0.002678,0.000431,0.000235
14640000,0.0324,0.013523,0.002678,0.000431,0.000353
14641000,0.0324,0.013523,0.002678,0.000431,0.000470
14642000,0.0324,0.013523,0.002678,0.000431,0.000353
14643000,0.0324,0.013523,0.002678,0.000431,0.000118
14644000,0.0324,0.013523,0.002678,0.000431,0.000470
14645000,0.0324,0.013523,0.002678,0.000431,0.000353
14646000,0.0324,0.013523,0.002678,0.000431,0.000235
14647000,0.0324,0.013523,0.002678,0.000431,0.000353
14648000,0.0324,0.013523,0.002678,0.000431,0.000470
14649000,0.0324,0.013523,0.002678,0.000431,0.000353
14650000,0.0324,0.013523,0.002678,0.000431,0.000118
14651000,0.0324,0.013523,0.002678,0.000431,0.000470
14652000,0.0324,0.013523,0.002678,0.000431,0.000353
14653000,0.0324,0.013523,0.002678,0.000431,0.000235
14654000,0.0324,0.013523,0.002678,0.000431,0.000353
14655000,0.0324,0.013523,0.002678,0.000431,0.000470
14656000,0.0324,0.013523,0.002678,0.000431,0.000353
14657000,0.0324,0.013523,0.002678,0.000431,0.000118
14658000,0.0324,0.013523,0.002678,0.000431,0.000470
14659000,0.0324,0.013523,0.002678,0.000431,0.000353
14660000,0.0324,0.013523,0.002678,0.000431,0.000235
14661000,0.0324,0.013523,0.002678,0.000431,0.000353
14662000,0.0324,0.013523,0.002678,0.000431,0.000470
14663000,0.0324,0.013523,0.002678,0.000431,0.000235
14664000,0.0324,0.013523,0.002678,0.000431,0.000235
14665000,0.0324,0.013523,0.002678,0.000431,0.000470
14666000,0.0324,0.013523,0.002678,0.000431,0.000353
14667000,0.0324,0.013523,0.002678,0.000431,0.000235
14668000,0.0324,0.013523,0.002678,0.000431,0.000353
14669000,0.0324,0.013523,0.002678,0.000431,0.000470
14670000,0.0324,0.013523,0.002678,0.000431,0.000235
14671000,0.0324,0.013523,0.002678,0.000431,0.000235
14672000,0.0324,0.013523,0.002678,0.000431,0.000470
14673000,0.0324,0.013523,0.002678,0.000431,0.000353
14674000,0.0324,0.013523,0.002678,0.000431,0.000235
14675000,0.0324,0.013523,0.002678,0.000431,0.000353
14676000,0.0324,0.013523,0.002678,0.000431,0.000470
14677000,0.0324,0.013523,0.002678,0.000431,0.000235
14678000,0.0324,0.013523,0.002678,0.000431,0.000235
14679000,0.0324,0.013523,0.002678,0.000431,0.000470
14680000,0.0324,0.013523,0.002678,0.000431,0.000353
14681000,0.0324,0.013523,0.002678,0.000431,0.000235
14682000,0.0324,0.013523,0.002678,0.000431,0.000353
14683000,0.0324,0.013523,0.002678,0.000431,0.000470
14684000,0.0324,0.013523,0.002678,0.000431,0.000235
14685000,0.0324,0.013523,0.002678,0.000431,0.000235
14686000,0.0324,0.013523,0.002678,0.000431,0.000470
14687000,0.0324,0.013523,0.002678,0.000431,0.000353
14688000,0.0324,0.013523,0.002678,0.000431,0.000235
14689000,0.0324,0.013523,0.002678,0.000431,0.000353
14690000,0.0324,0.013523,0.002678,0.000431,0.000470
14691000,0.0324,0.013523,0.002678,0.000431,0.000235
14692000,0.0324,0.013523,0.002678,0.000431,0.000235
14693000,0.0324,0.013523,0.002678,0.000431,0.000470
14694000,0.0324,0.013523,0.002678,0.000431,0.000353
14695000,0.0324,0.013523,0.002678,0.000431,0.000235
14696000,0.0324,0.013523,0.002678,0.000431,0.000353
14697000,0.0324,0.013523,0.002678,0.000431,0.000470
14698000,0.0324,0.013523,0.002678,0.000431,0.000235
14699000,0.0324,0.013523,0.002678,0.000431,0.000235
14700000,0.0324,0.013523,0.002678,0.000431,0.000470
14701000,0.0324,0.013523,0.002678,0.000431,0.000353
14702000,0.0324,0.013523,0.002678,0.000431,0.000235
14703000,0.0324,0.013523,0.002678,0.000431,0.000353
14704000,0.0324,0.013523,0.002678,0.000431,0.000470
14705000,0.0324,0.013523,0.002678,0.000431,0.000118
14706000,0.0324,0.013523,0.002678,0.000431,0.000353
14707000,0.0324,0.013523,0.002678,0.000431,0.000470
14708000,0.0324,0.013523,0.002678,0.000431,0.000353
14709000,0.0324,0.013523,0.002678,0.000431,0.000235
14710000,0.0324,0.013523,0.002678,0.000431,0.000353
14711000,0.0324,0.013523,0.002678,0.000431,0.000470
14712000,0.0324,0.013523,0.002678,0.000431,0.000118
14713000,0.0324,0.013523,0.002678,0.000431,0.000353
14714000,0.0324,0.013523,0.002678,0.000431,0.000470
14715000,0.0324,0.013523,0.002678,0.000431,0.000353
14716000,0.0324,0.013523,0.002678,0.000431,0.000235
14717000,0.0324,0.013523,0.002678,0.000431,0.000353
14718000,0.0324,0.013523,0.002678,0.000431,0.000470
14719000,0.0324,0.013523,0.002678,0.000431,0.000118
14720000,0.0324,0.013523,0.002678,0.000431,0.000353
14721000,0.0324,0.013523,0.002678,0.000431,0.000470
14722000,0.0324,0.013523,0.002678,0.000431,0.000353
14723000,0.0324,0.013523,0.002678,0.000431,0.000235
14724000,0.0324,0.013523,0.002678,0.000431,0.000353
14725000,0.0324,0.013523,0.002678,0.000431,0.000470
14726000,0.0324,0.013523,0.002678,0.000431,0.000118
14727000,0.0324,0.013523,0.002678,0.000431,0.000353
14728000,0.0324,0.013523,0.002678,0.000431,0.000470
14729000,0.0324,0.013523,0.002678,0.000431,0.000353
14730000,0.0324,0.013523,0.002678,0.000431,0.000235
14731000,0.0324,0.013523,0.002678,0.000431,0.000353
14732000,0.0324,0.013523,0.002678,0.000431,0.000353
14733000,0.0324,0.013523,0.002678,0.000431,0.000235
14734000,0.0324,0.013523,0.002678,0.000431,0.000353
14735000,0.0324,0.013523,0.002678,0.000431,0.000470
14736000,0.0324,0.013523,0.002678,0.000431,0.000353
14737000,0.0324,0.013523,0.002678,0.000431,0.000235
14738000,0.0324,0.013523,0.002678,0.000431,0.000353
14739000,0.0324,0.013523,0.002678,0.000431,0.000353
14740000,0.0324,0.013523,0.002678,0.000431,0.000235
14741000,0.0324,0.013523,0.002678,0.000431,0.000353
14742000,0.0324,0.013523,0.002678,0.000431,0.000470
14743000,0.0324,0.013523,0.002678,0.000431,0.000353
14744000,0.0324,0.013523,0.002678,0.000431,0.000235
14745000,0.0324,0.013523,0.002678,0.000431,0.000353
14746000,0.0324,0.013523,0.002678,0.000431,0.000353
14747000,0.0324,0.013523,0.002678,0.000431,0.000235
14748000,0.0324,0.013523,0.002678,0.000431,0.000353
14749000,0.0324,0.013523,0.002678,0.000431,0.000470
14750000,0.0324,0.013523,0.002678,0.000431,0.000353
14751000,0.0324,0.013523,0.002678,0.000431,0.000235
14752000,0.0324,0.013523,0.002678,0.000431,0.000353
14753000,0.0324,0.013523,0.002678,0.000431,0.000353
14754000,0.0324,0.013523,0.002678,0.000431,0.000235
14755000,0.0324,0.013523,0.002678,0.000431,0.000353
14756000,0.0324,0.013523,0.002678,0.000431,0.000470
14757000,0.0324,0.013523,0.002678,0.000431,0.000353
14758000,0.0324,0.013523,0.002678,0.000431,0.000235
14759000,0.0324,0.013523,0.002678,0.000431,0.000353
14760000,0.0324,0.013523,0.002678,0.000431,0.000353
14761000,0.0324,0.013523,0.002678,0.000431,0.000235
14762000,0.0324,0.013523,0.002678,0.000431,0.000353
14763000,0.0324,0.013523,0.002678,0.000431,0.000470
14764000,0.0324,0.013523,0.002678,0.000431,0.000353
14765000,0.0324,0.013523,0.002678,0.000431,0.000235
14766000,0.0324,0.013523,0.002678,0.000431,0.000353
14767000,0.0324,0.013523,0.002678,0.000431,0.000353
14768000,0.0324,0.013523,0.002678,0.000431,0.000235
14769000,0.0324,0.013523,0.002678,0.000431,0.000353
14770000,0.0324,0.013523,0.002678,0.000431,0.000470
14771000,0.0324,0.013523,0.002678,0.000431,0.000353
14772000,0.0324,0.013523,0.002678,0.000431,0.000235
14773000,0.0324,0.013523,0.002678,0.000431,0.000353
14774000,0.0324,0.013523,0.002678,0.000431,0.000353
14775000,0.0324,0.013523,0.002678,0.000431,0.000235
14776000,0.0324,0.013523,0.002678,0.000431,0.000353
14777000,0.0324,0.013523,0.002678,0.000431,0.000470
14778000,0.0324,0.013523,0.002678,0.000431,0.000353
14779000,0.0324,0.013523,0.002678,0.000431,0.000118
14780000,0.0324,0.013523,0.002678,0.000431,0.000470
14781000,0.0324,0.013523,0.002678,0.000431,0.000353
14782000,0.0324,0.013523,0.002678,0.000431,0.000235
14783000,0.0324,0.013523,0.002678,0.000431,0.000353
14784000,0.0324,0.013523,0.002678,0.000431,0.000470
14785000,0.0324,0.013523,0.002678,0.000431,0.000353
14786000,0.0324,0.013523,0.002678,0.000431,0.000118
14787000,0.0324,0.013523,0.002678,0.000431,0.000470
14788000,0.0324,0.013523,0.002678,0.000431,0.000353
14789000,0.0324,0.013523,0.002678,0.000431,0.000235
14790000,0.0324,0.013523,0.002678,0.000431,0.000353
14791000,0.0324,0.013523,0.002678,0.000431,0.000470
14792000,0.0324,0.013523,0.002678,0.000431,0.000353
14793000,0.0324,0.013523,0.002678,0.000431,0.000118
14794000,0.0324,0.013523,0.002678,0.000431,0.000470
14795000,0.0324,0.013523,0.002678,0.000431,0.000353
14796000,0.0324,0.013523,0.002678,0.000431,0.000235
14797000,0.0324,0.013523,0.002678,0.000431,0.000353
14798000,0.0324,0.013523,0.002678,0.000431,0.000470
14799000,0.0324,0.013523,0.002678,0.000431,0.000353
14800000,0.0324,0.013523,0.002678,0.000431,0.000118
14801000,0.0324,0.013523,0.002678,0.000431,0.000470
14802000,0.0324,0.013523,0.002678,0.000431,0.000353
14803000,0.0324,0.013523,0.002678,0.000431,0.000235
14804000,0.0324,0.013523,0.002678,0.000431,0.000353
14805000,0.0324,0.013523,0.002678,0.000431,0.000470
14806000,0.0324,0.013523,0.002678,0.000431,0.000235
14807000,0.0324,0.013523,0.002678,0.000431,0.000235
14808000,0.0324,0.013523,0.002678,0.000431,0.000470
14809000,0.0324,0.013523,0.002678,0.000431,0.000353
14810000,0.0324,0.013523,0.002678,0.000431,0.000235
14811000,0.0324,0.013523,0.002678,0.000431,0.000353
14812000,0.0324,0.013523,0.002678,0.000431,0.000470
14813000,0.0324,0.013523,0.002678,0.000431,0.000235
14814000,0.0324,0.013523,0.002678,0.000431,0.000235
14815000,0.0324,0.013523,0.002678,0.000431,0.000470
14816000,0.0324,0.013523,0.002678,0.000431,0.000353
14817000,0.0324,0.013523,0.002678,0.000431,0.000235
14818000,0.0324,0.013523,0.002678,0.000431,0.000353
14819000,0.0324,0.013523,0.002678,0.000431,0.000470
14820000,0.0324,0.013523,0.002678,0.000431,0.000235
14821000,0.0324,0.013523,0.002678,0.000431,0.000235
14822000,0.0324,0.013523,0.002678,0.000431,0.000470
14823000,0.0324,0.013523,0.002678,0.000431,0.000353
14824000,0.0324,0.013523,0.002678,0.000431,0.000235
14825000,0.0324,0.013523,0.002678,0.000431,0.000353
14826000,0.0324,0.013523,0.002678,0.000431,0.000470
14827000,0.0324,0.013523,0.002678,0.000431,0.000235
14828000,0.0324,0.013523,0.002678,0.000431,0.000235
14829000,0.0324,0.013523,0.002678,0.000431,0.000470
14830000,0.0324,0.013523,0.002678,0.000431,0.000353
14831000,0.0324,0.013523,0.002678,0.000431,0.000235
14832000,0.0324,0.013523,0.002678,0.000431,0.000353
14833000,0.0324,0.013523,0.002678,0.000431,0.000470
14834000,0.0324,0.013523,0.002678,0.000431,0.000235
14835000,0.0324,0.013523,0.002678,0.000431,0.000235
14836000,0.0324,0.013523,0.002678,0.000431,0.000470
14837000,0.0324,0.013523,0.002678,0.000431,0.000353
14838000,0.0324,0.013523,0.002678,0.000431,0.000235
14839000,0.0324,0.013523,0.002678,0.000431,0.000353
14840000,0.0324,0.013523,0.002678,0.000431,0.000470
14841000,0.0324,0.013523,0.002678,0.000431,0.000235
14842000,0.0324,0.013523,0.002678,0.000431,0.000235
14843000,0.0324,0.013523,0.002678,0.000431,0.000470
14844000,0.0324,0.013523,0.002678,0.000431,0.000353
14845000,0.0324,0.013523,0.002678,0.000431,0.000235
14846000,0.0324,0.013523,0.002678,0.000431,0.000353
14847000,0.0324,0.013523,0.002678,0.000431,0.000470
14848000,0.0324,0.013523,0.002678,0.000431,0.000118
14849000,0.0324,0.013523,0.002678,0.000431,0.000353
14850000,0.0324,0.013523,0.002678,0.000431,0.000470
14851000,0.0324,0.013523,0.002678,0.000431,0.000353
14852000,0.0324,0.013523,0.002678,0.000431,0.000235
14853000,0.0324,0.013523,0.002678,0.000431,0.000353
14854000,0.0324,0.013523,0.002678,0.000431,0.000470
14855000,0.0324,0.013523,0.002678,0.000431,0.000118
14856000,0.0324,0.013523,0.002678,0.000431,0.000353
14857000,0.0324,0.013523,0.002678,0.000431,0.000470
14858000,0.0324,0.013523,0.002678,0.000431,0.000353
14859000,0.0324,0.013523,0.002678,0.000431,0.000235
14860000,0.0324,0.013523,0.002678,0.000431,0.000353
14861000,0.0324,0.013523,0.002678,0.000431,0.000353
14862000,0.0324,0.013523,0.002678,0.000431,0.000235
14863000,0.0324,0.013523,0.002678,0.000431,0.000353
14864000,0.0324,0.013523,0.002678,0.000431,0.000470
14865000,0.0324,0.013523,0.002678,0.000431,0.000353
14866000,0.0324,0.013523,0.002678,0.000431,0.000235
14867000,0.0324,0.013523,0.002678,0.000431,0.000353
14868000,0.0324,0.013523,0.002678,0.000431,0.000353
14869000,0.0324,0.013523,0.002678,0.000431,0.000235
14870000,0.0324,0.013523,0.002678,0.000431,0.000353
14871000,0.0324,0.013523,0.002678,0.000431,0.000470
14872000,0.0324,0.013523,0.002678,0.000431,0.000353
14873000,0.0324,0.013523,0.002678,0.000431,0.000235
14874000,0.0324,0.013523,0.002678,0.000431,0.000353
14875000,0.0324,0.013523,0.002678,0.000431,0.000353
14876000,0.0324,0.013523,0.002678,0.000431,0.000235
14877000,0.0324,0.013523,0.002678,0.000431,0.000353
14878000,0.0324,0.013523,0.002678,0.000431,0.000470
14879000,0.0324,0.013523,0.002678,0.000431,0.000353
14880000,0.0324,0.013523,0.002678,0.000431,0.000118
14881000,0.0324,0.013523,0.002678,0.000431,0.000470
14882000,0.0324,0.013523,0.002678,0.000431,0.000353
14883000,0.0324,0.013523,0.002678,0.000431,0.000235
14884000,0.0324,0.013523,0.002678,0.000431,0.000353
14885000,0.0324,0.013523,0.002678,0.000431,0.000470
14886000,0.0324,0.013523,0.002678,0.000431,0.000235
14887000,0.0324,0.013523,0.002678,0.000431,0.000235
14888000,0.0324,0.013523,0.002678,0.000431,0.000470
14889000,0.0324,0.013523,0.002678,0.000431,0.000353
14890000,0.0324,0.013523,0.002678,0.000431,0.000235
14891000,0.0324,0.013523,0.002678,0.000431,0.000353
14892000,0.0324,0.013523,0.002678,0.000431,0.000470
14893000,0.0324,0.013523,0.002678,0.000431,0.000235
14894000,0.0324,0.013523,0.002678,0.000431,0.000235
14895000,0.0324,0.013523,0.002678,0.000431,0.000470
14896000,0.0324,0.013523,0.002678,0.000431,0.000353
14897000,0.0324,0.013523,0.002678,0.000431,0.000235
14898000,0.0324,0.013523,0.002678,0.000431,0.000353
14899000,0.0324,0.013523,0.002678,0.000431,0.000470
14900000,0.0324,0.013523,0.002678,0.000431,0.000118
14901000,0.0324,0.013523,0.002678,0.000431,0.000353
14902000,0.0324,0.013523,0.002678,0.000431,0.000470
14903000,0.0324,0.013523,0.002678,0.000431,0.000353
14904000,0.0324,0.013523,0.002678,0.000431,0.000235
14905000,0.0324,0.013523,0.002678,0.000431,0.000353
14906000,0.0324,0.013523,0.002678,0.000431,0.000353
14907000,0.0324,0.013523,0.002678,0.000431,0.000235
14908000,0.0324,0.013523,0.002678,0.000431,0.000353
14909000,0.0324,0.013523,0.002678,0.000431,0.000470
14910000,0.0324,0.013523,0.002678,0.000431,0.000353
14911000,0.0324,0.013523,0.002678,0.000431,0.000235
14912000,0.0324,0.013523,0.002678,0.000431,0.000353
14913000,0.0324,0.013523,0.002678,0.000431,0.000353
14914000,0.0324,0.013523,0.002678,0.000431,0.000235
14915000,0.0324,0.013523,0.002678,0.000431,0.000353
14916000,0.0324,0.013523,0.002678,0.000431,0.000470
14917000,0.0324,0.013523,0.002678,0.000431,0.000353
14918000,0.0324,0.013523,0.002678,0.000431,0.000118
14919000,0.0324,0.013523,0.002678,0.000431,0.000470
14920000,0.0324,0.013523,0.002678,0.000431,0.000353
14921000,0.0324,0.013523,0.002678,0.000431,0.000235
14922000,0.0324,0.013523,0.002678,0.000431,0.000353
14923000,0.0324,0.013523,0.002678,0.000431,0.000470
14924000,0.0324,0.013523,0.002678,0.000431,0.000353
14925000,0.0324,0.013523,0.002678,0.000431,0.000118
14926000,0.0324,0.013523,0.002678,0.000431,0.000470
14927000,0.0324,0.013523,0.002678,0.000431,0.000353
14928000,0.0324,0.013523,0.002678,0.000431,0.000235
14929000,0.0324,0.013523,0.002678,0.000431,0.000353
14930000,0.0324,0.013523,0.002678,0.000431,0.000470
14931000,0.0324,0.013523,0.002678,0.000431,0.000235
14932000,0.0324,0.013523,0.002678,0.000431,0.000235
14933000,0.0324,0.013523,0.002678,0.000431,0.000470
14934000,0.0324,0.013523,0.002678,0.000431,0.000353
14935000,0.0324,0.013523,0.002678,0.000431,0.000235
14936000,0.0324,0.013523,0.002678,0.000431,0.000353
14937000,0.0324,0.013523,0.002678,0.000431,0.000470
14938000,0.0324,0.013523,0.002678,0.000431,0.000235
14939000,0.0324,0.013523,0.002678,0.000431,0.000235
14940000,0.0324,0.013523,0.002678,0.000431,0.000470
14941000,0.0324,0.013523,0.002678,0.000431,0.000353
14942000,0.0324,0.013523,0.002678,0.000431,0.000235
14943000,0.0324,0.013523,0.002678,0.000431,0.000353
14944000,0.0324,0.013523,0.002678,0.000431,0.000353
14945000,0.0324,0.013523,0.002678,0.000431,0.000235
14946000,0.0324,0.013523,0.002678,0.000431,0.000353
14947000,0.0324,0.013523,0.002678,0.000431,0.000470
14948000,0.0324,0.013523,0.002678,0.000431,0.000353
14949000,0.0324,0.013523,0.002678,0.000431,0.000235
14950000,0.0324,0.013523,0.002678,0.000431,0.000353
14951000,0.0324,0.013523,0.002678,0.000431,0.000353
14952000,0.0324,0.013523,0.002678,0.000431,0.000235
14953000,0.0324,0.013523,0.002678,0.000431,0.000353
14954000,0.0324,0.013523,0.002678,0.000431,0.000470
14955000,0.0324,0.013523,0.002678,0.000431,0.000353
14956000,0.0324,0.013523,0.002678,0.000431,0.000235
14957000,0.0324,0.013523,0.002678,0.000431,0.000353
14958000,0.0324,0.013523,0.002678,0.000431,0.000353
14959000,0.0324,0.013523,0.002678,0.000431,0.000235
14960000,0.0324,0.013523,0.002678,0.000431,0.000353
14961000,0.0324,0.013523,0.002678,0.000431,0.000470
14962000,0.0324,0.013523,0.002678,0.000431,0.000353
14963000,0.0324,0.013523,0.002678,0.000431,0.000118
14964000,0.0324,0.013523,0.002678,0.000431,0.000470
14965000,0.0324,0.013523,0.002678,0.000431,0.000353
14966000,0.0324,0.013523,0.002678,0.000431,0.000235
14967000,0.0324,0.013523,0.002678,0.000431,0.000353
14968000,0.0324,0.013523,0.002678,0.000431,0.000470
14969000,0.0324,0.013523,0.002678,0.000431,0.000235
14970000,0.0324,0.013523,0.002678,0.000431,0.000235
14971000,0.0324,0.013523,0.002678,0.000431,0.000470
14972000,0.0324,0.013523,0.002678,0.000431,0.000353
14973000,0.0324,0.013523,0.002678,0.000431,0.000235
14974000,0.0324,0.013523,0.002678,0.000431,0.000353
14975000,0.0324,0.013523,0.002678,0.000431,0.000470
14976000,0.0324,0.013523,0.002678,0.000431,0.000235
14977000,0.0324,0.013523,0.002678,0.000431,0.000235
14978000,0.0324,0.013523,0.002678,0.000431,0.000470
14979000,0.0324,0.013523,0.002678,0.000431,0.000353
14980000,0.0324,0.013523,0.002678,0.000431,0.000235
14981000,0.0324,0.013523,0.002678,0.000431,0.000353
14982000,0.0324,0.013523,0.002678,0.000431,0.000470
14983000,0.0324,0.013523,0.002678,0.000431,0.000118
14984000,0.0324,0.013523,0.002678,0.000431,0.000353
14985000,0.0324,0.013523,0.002678,0.000431,0.000470
14986000,0.0324,0.013523,0.002678,0.000431,0.000353
14987000,0.0324,0.013523,0.002678,0.000431,0.000235
14988000,0.0324,0.013523,0.002678,0.000431,0.000353
14989000,0.0324,0.013523,0.002678,0.000431,0.000353
14990000,0.0324,0.013523,0.002678,0.000431,0.000235
14991000,0.0324,0.013523,0.002678,0.000431,0.000353
14992000,0.0324,0.013523,0.002678,0.000431,0.000470
14993000,0.0324,0.013523,0.002678,0.000431,0.000353
14994000,0.0324,0.013523,0.002678,0.000431,0.000235
14995000,0.0324,0.013523,0.002678,0.000431,0.000353
14996000,0.0324,0.013523,0.002678,0.000431,0.000353
14997000,0.0324,0.013523,0.002678,0.000431,0.000235
14998000,0.0324,0.013523,0.002678,0.000431,0.000353
14999000,0.0324,0.013523,0.002678,0.000431,0.000470
