Cycle,Area(mm^2),PeakDynamic(W),SubthresholdLeakage(W),GateLeakage(W),RunTimeDynamic(W)
20000000,0.0324,0.013523,0.002678,0.000431,0.000470
20001000,0.0324,0.013523,0.002678,0.000431,0.000235
20002000,0.0324,0.013523,0.002678,0.000431,0.000235
20003000,0.0324,0.013523,0.002678,0.000431,0.000470
20004000,0.0324,0.013523,0.002678,0.000431,0.000353
20005000,0.0324,0.013523,0.002678,0.000431,0.000235
20006000,0.0324,0.013523,0.002678,0.000431,0.000353
20007000,0.0324,0.013523,0.002678,0.000431,0.000470
20008000,0.0324,0.013523,0.002678,0.000431,0.000235
20009000,0.0324,0.013523,0.002678,0.000431,0.000235
20010000,0.0324,0.013523,0.002678,0.000431,0.000470
20011000,0.0324,0.013523,0.002678,0.000431,0.000353
20012000,0.0324,0.013523,0.002678,0.000431,0.000235
20013000,0.0324,0.013523,0.002678,0.000431,0.000353
20014000,0.0324,0.013523,0.002678,0.000431,0.000470
20015000,0.0324,0.013523,0.002678,0.000431,0.000235
20016000,0.0324,0.013523,0.002678,0.000431,0.000235
20017000,0.0324,0.013523,0.002678,0.000431,0.000470
20018000,0.0324,0.013523,0.002678,0.000431,0.000353
20019000,0.0324,0.013523,0.002678,0.000431,0.000235
20020000,0.0324,0.013523,0.002678,0.000431,0.000353
20021000,0.0324,0.013523,0.002678,0.000431,0.000470
20022000,0.0324,0.013523,0.002678,0.000431,0.000235
20023000,0.0324,0.013523,0.002678,0.000431,0.000235
20024000,0.0324,0.013523,0.002678,0.000431,0.000470
20025000,0.0324,0.013523,0.002678,0.000431,0.000353
20026000,0.0324,0.013523,0.002678,0.000431,0.000235
20027000,0.0324,0.013523,0.002678,0.000431,0.000353
20028000,0.0324,0.013523,0.002678,0.000431,0.000470
20029000,0.0324,0.013523,0.002678,0.000431,0.000235
20030000,0.0324,0.013523,0.002678,0.000431,0.000235
20031000,0.0324,0.013523,0.002678,0.000431,0.000470
20032000,0.0324,0.013523,0.002678,0.000431,0.000353
20033000,0.0324,0.013523,0.002678,0.000431,0.000235
20034000,0.0324,0.013523,0.002678,0.000431,0.000353
20035000,0.0324,0.013523,0.002678,0.000431,0.000470
20036000,0.0324,0.013523,0.002678,0.000431,0.000118
20037000,0.0324,0.013523,0.002678,0.000431,0.000353
20038000,0.0324,0.013523,0.002678,0.000431,0.000470
20039000,0.0324,0.013523,0.002678,0.000431,0.000353
20040000,0.0324,0.013523,0.002678,0.000431,0.000235
20041000,0.0324,0.013523,0.002678,0.000431,0.000353
20042000,0.0324,0.013523,0.002678,0.000431,0.000470
20043000,0.0324,0.013523,0.002678,0.000431,0.000118
20044000,0.0324,0.013523,0.002678,0.000431,0.000353
20045000,0.0324,0.013523,0.002678,0.000431,0.000470
20046000,0.0324,0.013523,0.002678,0.000431,0.000353
20047000,0.0324,0.013523,0.002678,0.000431,0.000235
20048000,0.0324,0.013523,0.002678,0.000431,0.000353
20049000,0.0324,0.013523,0.002678,0.000431,0.000470
20050000,0.0324,0.013523,0.002678,0.000431,0.000118
20051000,0.0324,0.013523,0.002678,0.000431,0.000353
20052000,0.0324,0.013523,0.002678,0.000431,0.000470
20053000,0.0324,0.013523,0.002678,0.000431,0.000353
20054000,0.0324,0.013523,0.002678,0.000431,0.000235
20055000,0.0324,0.013523,0.002678,0.000431,0.000353
20056000,0.0324,0.013523,0.002678,0.000431,0.000470
20057000,0.0324,0.013523,0.002678,0.000431,0.000118
20058000,0.0324,0.013523,0.002678,0.000431,0.000353
20059000,0.0324,0.013523,0.002678,0.000431,0.000470
20060000,0.0324,0.013523,0.002678,0.000431,0.000353
20061000,0.0324,0.013523,0.002678,0.000431,0.000235
20062000,0.0324,0.013523,0.002678,0.000431,0.000353
20063000,0.0324,0.013523,0.002678,0.000431,0.000353
20064000,0.0324,0.013523,0.002678,0.000431,0.000235
20065000,0.0324,0.013523,0.002678,0.000431,0.000353
20066000,0.0324,0.013523,0.002678,0.000431,0.000470
20067000,0.0324,0.013523,0.002678,0.000431,0.000353
20068000,0.0324,0.013523,0.002678,0.000431,0.000235
20069000,0.0324,0.013523,0.002678,0.000431,0.000353
20070000,0.0324,0.013523,0.002678,0.000431,0.000353
20071000,0.0324,0.013523,0.002678,0.000431,0.000235
20072000,0.0324,0.013523,0.002678,0.000431,0.000353
20073000,0.0324,0.013523,0.002678,0.000431,0.000470
20074000,0.0324,0.013523,0.002678,0.000431,0.000353
20075000,0.0324,0.013523,0.002678,0.000431,0.000235
20076000,0.0324,0.013523,0.002678,0.000431,0.000353
20077000,0.0324,0.013523,0.002678,0.000431,0.000353
20078000,0.0324,0.013523,0.002678,0.000431,0.000235
20079000,0.0324,0.013523,0.002678,0.000431,0.000353
20080000,0.0324,0.013523,0.002678,0.000431,0.000470
20081000,0.0324,0.013523,0.002678,0.000431,0.000353
20082000,0.0324,0.013523,0.002678,0.000431,0.000235
20083000,0.0324,0.013523,0.002678,0.000431,0.000353
20084000,0.0324,0.013523,0.002678,0.000431,0.000353
20085000,0.0324,0.013523,0.002678,0.000431,0.000235
20086000,0.0324,0.013523,0.002678,0.000431,0.000353
20087000,0.0324,0.013523,0.002678,0.000431,0.000470
20088000,0.0324,0.013523,0.002678,0.000431,0.000353
20089000,0.0324,0.013523,0.002678,0.000431,0.000235
20090000,0.0324,0.013523,0.002678,0.000431,0.000353
20091000,0.0324,0.013523,0.002678,0.000431,0.000353
20092000,0.0324,0.013523,0.002678,0.000431,0.000235
20093000,0.0324,0.013523,0.002678,0.000431,0.000353
20094000,0.0324,0.013523,0.002678,0.000431,0.000470
20095000,0.0324,0.013523,0.002678,0.000431,0.000353
20096000,0.0324,0.013523,0.002678,0.000431,0.000235
20097000,0.0324,0.013523,0.002678,0.000431,0.000353
20098000,0.0324,0.013523,0.002678,0.000431,0.000353
20099000,0.0324,0.013523,0.002678,0.000431,0.000235
20100000,0.0324,0.013523,0.002678,0.000431,0.000353
20101000,0.0324,0.013523,0.002678,0.000431,0.000470
20102000,0.0324,0.013523,0.002678,0.000431,0.000353
20103000,0.0324,0.013523,0.002678,0.000431,0.000235
20104000,0.0324,0.013523,0.002678,0.000431,0.000353
20105000,0.0324,0.013523,0.002678,0.000431,0.000353
20106000,0.0324,0.013523,0.002678,0.000431,0.000235
20107000,0.0324,0.013523,0.002678,0.000431,0.000353
20108000,0.0324,0.013523,0.002678,0.000431,0.000470
20109000,0.0324,0.013523,0.002678,0.000431,0.000353
20110000,0.0324,0.013523,0.002678,0.000431,0.000118
20111000,0.0324,0.013523,0.002678,0.000431,0.000470
20112000,0.0324,0.013523,0.002678,0.000431,0.000353
20113000,0.0324,0.013523,0.002678,0.000431,0.000235
20114000,0.0324,0.013523,0.002678,0.000431,0.000353
20115000,0.0324,0.013523,0.002678,0.000431,0.000470
20116000,0.0324,0.013523,0.002678,0.000431,0.000353
20117000,0.0324,0.013523,0.002678,0.000431,0.000118
20118000,0.0324,0.013523,0.002678,0.000431,0.000470
20119000,0.0324,0.013523,0.002678,0.000431,0.000353
20120000,0.0324,0.013523,0.002678,0.000431,0.000235
20121000,0.0324,0.013523,0.002678,0.000431,0.000353
20122000,0.0324,0.013523,0.002678,0.000431,0.000470
20123000,0.0324,0.013523,0.002678,0.000431,0.000353
20124000,0.0324,0.013523,0.002678,0.000431,0.000118
20125000,0.0324,0.013523,0.002678,0.000431,0.000470
20126000,0.0324,0.013523,0.002678,0.000431,0.000353
20127000,0.0324,0.013523,0.002678,0.000431,0.000235
20128000,0.0324,0.013523,0.002678,0.000431,0.000353
20129000,0.0324,0.013523,0.002678,0.000431,0.000470
20130000,0.0324,0.013523,0.002678,0.000431,0.000353
20131000,0.0324,0.013523,0.002678,0.000431,0.000118
20132000,0.0324,0.013523,0.002678,0.000431,0.000470
20133000,0.0324,0.013523,0.002678,0.000431,0.000353
20134000,0.0324,0.013523,0.002678,0.000431,0.000235
20135000,0.0324,0.013523,0.002678,0.000431,0.000353
20136000,0.0324,0.013523,0.002678,0.000431,0.000470
20137000,0.0324,0.013523,0.002678,0.000431,0.000235
20138000,0.0324,0.013523,0.002678,0.000431,0.000235
20139000,0.0324,0.013523,0.002678,0.000431,0.000470
20140000,0.0324,0.013523,0.002678,0.000431,0.000353
20141000,0.0324,0.013523,0.002678,0.000431,0.000235
20142000,0.0324,0.013523,0.002678,0.000431,0.000353
20143000,0.0324,0.013523,0.002678,0.000431,0.000470
20144000,0.0324,0.013523,0.002678,0.000431,0.000235
20145000,0.0324,0.013523,0.002678,0.000431,0.000235
20146000,0.0324,0.013523,0.002678,0.000431,0.000470
20147000,0.0324,0.013523,0.002678,0.000431,0.000353
20148000,0.0324,0.013523,0.002678,0.000431,0.000235
20149000,0.0324,0.013523,0.002678,0.000431,0.000353
20150000,0.0324,0.013523,0.002678,0.000431,0.000470
20151000,0.0324,0.013523,0.002678,0.000431,0.000235
20152000,0.0324,0.013523,0.002678,0.000431,0.000235
20153000,0.0324,0.013523,0.002678,0.000431,0.000470
20154000,0.0324,0.013523,0.002678,0.000431,0.000353
20155000,0.0324,0.013523,0.002678,0.000431,0.000235
20156000,0.0324,0.013523,0.002678,0.000431,0.000353
20157000,0.0324,0.013523,0.002678,0.000431,0.000470
20158000,0.0324,0.013523,0.002678,0.000431,0.000235
20159000,0.0324,0.013523,0.002678,0.000431,0.000235
20160000,0.0324,0.013523,0.002678,0.000431,0.000470
20161000,0.0324,0.013523,0.002678,0.000431,0.000353
20162000,0.0324,0.013523,0.002678,0.000431,0.000235
20163000,0.0324,0.013523,0.002678,0.000431,0.000353
20164000,0.0324,0.013523,0.002678,0.000431,0.000470
20165000,0.0324,0.013523,0.002678,0.000431,0.000235
20166000,0.0324,0.013523,0.002678,0.000431,0.000235
20167000,0.0324,0.013523,0.002678,0.000431,0.000470
20168000,0.0324,0.013523,0.002678,0.000431,0.000353
20169000,0.0324,0.013523,0.002678,0.000431,0.000235
20170000,0.0324,0.013523,0.002678,0.000431,0.000353
20171000,0.0324,0.013523,0.002678,0.000431,0.000470
20172000,0.0324,0.013523,0.002678,0.000431,0.000235
20173000,0.0324,0.013523,0.002678,0.000431,0.000235
20174000,0.0324,0.013523,0.002678,0.000431,0.000470
20175000,0.0324,0.013523,0.002678,0.000431,0.000353
20176000,0.0324,0.013523,0.002678,0.000431,0.000235
20177000,0.0324,0.013523,0.002678,0.000431,0.000353
20178000,0.0324,0.013523,0.002678,0.000431,0.000470
20179000,0.0324,0.013523,0.002678,0.000431,0.000118
20180000,0.0324,0.013523,0.002678,0.000431,0.000353
20181000,0.0324,0.013523,0.002678,0.000431,0.000470
20182000,0.0324,0.013523,0.002678,0.000431,0.000353
20183000,0.0324,0.013523,0.002678,0.000431,0.000235
20184000,0.0324,0.013523,0.002678,0.000431,0.000353
20185000,0.0324,0.013523,0.002678,0.000431,0.000470
20186000,0.0324,0.013523,0.002678,0.000431,0.000118
20187000,0.0324,0.013523,0.002678,0.000431,0.000353
20188000,0.0324,0.013523,0.002678,0.000431,0.000470
20189000,0.0324,0.013523,0.002678,0.000431,0.000353
20190000,0.0324,0.013523,0.002678,0.000431,0.000235
20191000,0.0324,0.013523,0.002678,0.000431,0.000353
20192000,0.0324,0.013523,0.002678,0.000431,0.000470
20193000,0.0324,0.013523,0.002678,0.000431,0.000118
20194000,0.0324,0.013523,0.002678,0.000431,0.000353
20195000,0.0324,0.013523,0.002678,0.000431,0.000470
20196000,0.0324,0.013523,0.002678,0.000431,0.000353
20197000,0.0324,0.013523,0.002678,0.000431,0.000235
20198000,0.0324,0.013523,0.002678,0.000431,0.000353
20199000,0.0324,0.013523,0.002678,0.000431,0.000353
20200000,0.0324,0.013523,0.002678,0.000431,0.000235
20201000,0.0324,0.013523,0.002678,0.000431,0.000353
20202000,0.0324,0.013523,0.002678,0.000431,0.000470
20203000,0.0324,0.013523,0.002678,0.000431,0.000353
20204000,0.0324,0.013523,0.002678,0.000431,0.000235
20205000,0.0324,0.013523,0.002678,0.000431,0.000353
20206000,0.0324,0.013523,0.002678,0.000431,0.000353
20207000,0.0324,0.013523,0.002678,0.000431,0.000235
20208000,0.0324,0.013523,0.002678,0.000431,0.000353
20209000,0.0324,0.013523,0.002678,0.000431,0.000470
20210000,0.0324,0.013523,0.002678,0.000431,0.000353
20211000,0.0324,0.013523,0.002678,0.000431,0.000235
20212000,0.0324,0.013523,0.002678,0.000431,0.000353
20213000,0.0324,0.013523,0.002678,0.000431,0.000353
20214000,0.0324,0.013523,0.002678,0.000431,0.000235
20215000,0.0324,0.013523,0.002678,0.000431,0.000353
20216000,0.0324,0.013523,0.002678,0.000431,0.000470
20217000,0.0324,0.013523,0.002678,0.000431,0.000353
20218000,0.0324,0.013523,0.002678,0.000431,0.000235
20219000,0.0324,0.013523,0.002678,0.000431,0.000353
20220000,0.0324,0.013523,0.002678,0.000431,0.000353
20221000,0.0324,0.013523,0.002678,0.000431,0.000235
20222000,0.0324,0.013523,0.002678,0.000431,0.000353
20223000,0.0324,0.013523,0.002678,0.000431,0.000470
20224000,0.0324,0.013523,0.002678,0.000431,0.000353
20225000,0.0324,0.013523,0.002678,0.000431,0.000235
20226000,0.0324,0.013523,0.002678,0.000431,0.000353
20227000,0.0324,0.013523,0.002678,0.000431,0.000353
20228000,0.0324,0.013523,0.002678,0.000431,0.000235
20229000,0.0324,0.013523,0.002678,0.000431,0.000353
20230000,0.0324,0.013523,0.002678,0.000431,0.000470
20231000,0.0324,0.013523,0.002678,0.000431,0.000353
20232000,0.0324,0.013523,0.002678,0.000431,0.000235
20233000,0.0324,0.013523,0.002678,0.000431,0.000353
20234000,0.0324,0.013523,0.002678,0.000431,0.000353
20235000,0.0324,0.013523,0.002678,0.000431,0.000235
20236000,0.0324,0.013523,0.002678,0.000431,0.000353
20237000,0.0324,0.013523,0.002678,0.000431,0.000470
20238000,0.0324,0.013523,0.002678,0.000431,0.000353
20239000,0.0324,0.013523,0.002678,0.000431,0.000235
20240000,0.0324,0.013523,0.002678,0.000431,0.000353
20241000,0.0324,0.013523,0.002678,0.000431,0.000353
20242000,0.0324,0.013523,0.002678,0.000431,0.000235
20243000,0.0324,0.013523,0.002678,0.000431,0.000353
20244000,0.0324,0.013523,0.002678,0.000431,0.000470
20245000,0.0324,0.013523,0.002678,0.000431,0.000353
20246000,0.0324,0.013523,0.002678,0.000431,0.000235
20247000,0.0324,0.013523,0.002678,0.000431,0.000353
20248000,0.0324,0.013523,0.002678,0.000431,0.000353
20249000,0.0324,0.013523,0.002678,0.000431,0.000235
20250000,0.0324,0.013523,0.002678,0.000431,0.000353
20251000,0.0324,0.013523,0.002678,0.000431,0.000470
20252000,0.0324,0.013523,0.002678,0.000431,0.000353
20253000,0.0324,0.013523,0.002678,0.000431,0.000118
20254000,0.0324,0.013523,0.002678,0.000431,0.000470
20255000,0.0324,0.013523,0.002678,0.000431,0.000353
20256000,0.0324,0.013523,0.002678,0.000431,0.000235
20257000,0.0324,0.013523,0.002678,0.000431,0.000353
20258000,0.0324,0.013523,0.002678,0.000431,0.000470
20259000,0.0324,0.013523,0.002678,0.000431,0.000353
20260000,0.0324,0.013523,0.002678,0.000431,0.000118
20261000,0.0324,0.013523,0.002678,0.000431,0.000470
20262000,0.0324,0.013523,0.002678,0.000431,0.000353
20263000,0.0324,0.013523,0.002678,0.000431,0.000235
20264000,0.0324,0.013523,0.002678,0.000431,0.000353
20265000,0.0324,0.013523,0.002678,0.000431,0.000470
20266000,0.0324,0.013523,0.002678,0.000431,0.000353
20267000,0.0324,0.013523,0.002678,0.000431,0.000118
20268000,0.0324,0.013523,0.002678,0.000431,0.000470
20269000,0.0324,0.013523,0.002678,0.000431,0.000353
20270000,0.0324,0.013523,0.002678,0.000431,0.000235
20271000,0.0324,0.013523,0.002678,0.000431,0.000353
20272000,0.0324,0.013523,0.002678,0.000431,0.000470
20273000,0.0324,0.013523,0.002678,0.000431,0.000353
20274000,0.0324,0.013523,0.002678,0.000431,0.000118
20275000,0.0324,0.013523,0.002678,0.000431,0.000470
20276000,0.0324,0.013523,0.002678,0.000431,0.000353
20277000,0.0324,0.013523,0.002678,0.000431,0.000235
20278000,0.0324,0.013523,0.002678,0.000431,0.000353
20279000,0.0324,0.013523,0.002678,0.000431,0.000470
20280000,0.0324,0.013523,0.002678,0.000431,0.000235
20281000,0.0324,0.013523,0.002678,0.000431,0.000235
20282000,0.0324,0.013523,0.002678,0.000431,0.000470
20283000,0.0324,0.013523,0.002678,0.000431,0.000353
20284000,0.0324,0.013523,0.002678,0.000431,0.000235
20285000,0.0324,0.013523,0.002678,0.000431,0.000353
20286000,0.0324,0.013523,0.002678,0.000431,0.000470
20287000,0.0324,0.013523,0.002678,0.000431,0.000235
20288000,0.0324,0.013523,0.002678,0.000431,0.000235
20289000,0.0324,0.013523,0.002678,0.000431,0.000470
20290000,0.0324,0.013523,0.002678,0.000431,0.000353
20291000,0.0324,0.013523,0.002678,0.000431,0.000235
20292000,0.0324,0.013523,0.002678,0.000431,0.000353
20293000,0.0324,0.013523,0.002678,0.000431,0.000470
20294000,0.0324,0.013523,0.002678,0.000431,0.000235
20295000,0.0324,0.013523,0.002678,0.000431,0.000235
20296000,0.0324,0.013523,0.002678,0.000431,0.000470
20297000,0.0324,0.013523,0.002678,0.000431,0.000353
20298000,0.0324,0.013523,0.002678,0.000431,0.000235
20299000,0.0324,0.013523,0.002678,0.000431,0.000353
20300000,0.0324,0.013523,0.002678,0.000431,0.000470
20301000,0.0324,0.013523,0.002678,0.000431,0.000235
20302000,0.0324,0.013523,0.002678,0.000431,0.000235
20303000,0.0324,0.013523,0.002678,0.000431,0.000470
20304000,0.0324,0.013523,0.002678,0.000431,0.000353
20305000,0.0324,0.013523,0.002678,0.000431,0.000235
20306000,0.0324,0.013523,0.002678,0.000431,0.000353
20307000,0.0324,0.013523,0.002678,0.000431,0.000470
20308000,0.0324,0.013523,0.002678,0.000431,0.000235
20309000,0.0324,0.013523,0.002678,0.000431,0.000235
20310000,0.0324,0.013523,0.002678,0.000431,0.000470
20311000,0.0324,0.013523,0.002678,0.000431,0.000353
20312000,0.0324,0.013523,0.002678,0.000431,0.000235
20313000,0.0324,0.013523,0.002678,0.000431,0.000353
20314000,0.0324,0.013523,0.002678,0.000431,0.000470
20315000,0.0324,0.013523,0.002678,0.000431,0.000118
20316000,0.0324,0.013523,0.002678,0.000431,0.000353
20317000,0.0324,0.013523,0.002678,0.000431,0.000470
20318000,0.0324,0.013523,0.002678,0.000431,0.000353
20319000,0.0324,0.013523,0.002678,0.000431,0.000235
20320000,0.0324,0.013523,0.002678,0.000431,0.000353
20321000,0.0324,0.013523,0.002678,0.000431,0.000470
20322000,0.0324,0.013523,0.002678,0.000431,0.000118
20323000,0.0324,0.013523,0.002678,0.000431,0.000353
20324000,0.0324,0.013523,0.002678,0.000431,0.000470
20325000,0.0324,0.013523,0.002678,0.000431,0.000353
20326000,0.0324,0.013523,0.002678,0.000431,0.000235
20327000,0.0324,0.013523,0.002678,0.000431,0.000353
20328000,0.0324,0.013523,0.002678,0.000431,0.000470
20329000,0.0324,0.013523,0.002678,0.000431,0.000118
20330000,0.0324,0.013523,0.002678,0.000431,0.000353
20331000,0.0324,0.013523,0.002678,0.000431,0.000470
20332000,0.0324,0.013523,0.002678,0.000431,0.000353
20333000,0.0324,0.013523,0.002678,0.000431,0.000235
20334000,0.0324,0.013523,0.002678,0.000431,0.000353
20335000,0.0324,0.013523,0.002678,0.000431,0.000470
20336000,0.0324,0.013523,0.002678,0.000431,0.000118
20337000,0.0324,0.013523,0.002678,0.000431,0.000353
20338000,0.0324,0.013523,0.002678,0.000431,0.000470
20339000,0.0324,0.013523,0.002678,0.000431,0.000353
20340000,0.0324,0.013523,0.002678,0.000431,0.000235
20341000,0.0324,0.013523,0.002678,0.000431,0.000353
20342000,0.0324,0.013523,0.002678,0.000431,0.000353
20343000,0.0324,0.013523,0.002678,0.000431,0.000235
20344000,0.0324,0.013523,0.002678,0.000431,0.000353
20345000,0.0324,0.013523,0.002678,0.000431,0.000470
20346000,0.0324,0.013523,0.002678,0.000431,0.000353
20347000,0.0324,0.013523,0.002678,0.000431,0.000235
20348000,0.0324,0.013523,0.002678,0.000431,0.000353
20349000,0.0324,0.013523,0.002678,0.000431,0.000353
20350000,0.0324,0.013523,0.002678,0.000431,0.000235
20351000,0.0324,0.013523,0.002678,0.000431,0.000353
20352000,0.0324,0.013523,0.002678,0.000431,0.000470
20353000,0.0324,0.013523,0.002678,0.000431,0.000353
20354000,0.0324,0.013523,0.002678,0.000431,0.000235
20355000,0.0324,0.013523,0.002678,0.000431,0.000353
20356000,0.0324,0.013523,0.002678,0.000431,0.000353
20357000,0.0324,0.013523,0.002678,0.000431,0.000235
20358000,0.0324,0.013523,0.002678,0.000431,0.000353
20359000,0.0324,0.013523,0.002678,0.000431,0.000470
20360000,0.0324,0.013523,0.002678,0.000431,0.000353
20361000,0.0324,0.013523,0.002678,0.000431,0.000235
20362000,0.0324,0.013523,0.002678,0.000431,0.000353
20363000,0.0324,0.013523,0.002678,0.000431,0.000353
20364000,0.0324,0.013523,0.002678,0.000431,0.000235
20365000,0.0324,0.013523,0.002678,0.000431,0.000353
20366000,0.0324,0.013523,0.002678,0.000431,0.000470
20367000,0.0324,0.013523,0.002678,0.000431,0.000353
20368000,0.0324,0.013523,0.002678,0.000431,0.000235
20369000,0.0324,0.013523,0.002678,0.000431,0.000353
20370000,0.0324,0.013523,0.002678,0.000431,0.000353
20371000,0.0324,0.013523,0.002678,0.000431,0.000235
20372000,0.0324,0.013523,0.002678,0.000431,0.000353
20373000,0.0324,0.013523,0.002678,0.000431,0.000470
20374000,0.0324,0.013523,0.002678,0.000431,0.000353
20375000,0.0324,0.013523,0.002678,0.000431,0.000235
20376000,0.0324,0.013523,0.002678,0.000431,0.000353
20377000,0.0324,0.013523,0.002678,0.000431,0.000353
20378000,0.0324,0.013523,0.002678,0.000431,0.000235
20379000,0.0324,0.013523,0.002678,0.000431,0.000353
20380000,0.0324,0.013523,0.002678,0.000431,0.000470
20381000,0.0324,0.013523,0.002678,0.000431,0.000353
20382000,0.0324,0.013523,0.002678,0.000431,0.000235
20383000,0.0324,0.013523,0.002678,0.000431,0.000353
20384000,0.0324,0.013523,0.002678,0.000431,0.000353
20385000,0.0324,0.013523,0.002678,0.000431,0.000235
20386000,0.0324,0.013523,0.002678,0.000431,0.000353
20387000,0.0324,0.013523,0.002678,0.000431,0.000470
20388000,0.0324,0.013523,0.002678,0.000431,0.000353
20389000,0.0324,0.013523,0.002678,0.000431,0.000235
20390000,0.0324,0.013523,0.002678,0.000431,0.000353
20391000,0.0324,0.013523,0.002678,0.000431,0.000353
20392000,0.0324,0.013523,0.002678,0.000431,0.000235
20393000,0.0324,0.013523,0.002678,0.000431,0.000353
20394000,0.0324,0.013523,0.002678,0.000431,0.000470
20395000,0.0324,0.013523,0.002678,0.000431,0.000353
20396000,0.0324,0.013523,0.002678,0.000431,0.000118
20397000,0.0324,0.013523,0.002678,0.000431,0.000470
20398000,0.0324,0.013523,0.002678,0.000431,0.000353
20399000,0.0324,0.013523,0.002678,0.000431,0.000235
20400000,0.0324,0.013523,0.002678,0.000431,0.000353
20401000,0.0324,0.013523,0.002678,0.000431,0.000470
20402000,0.0324,0.013523,0.002678,0.000431,0.000353
20403000,0.0324,0.013523,0.002678,0.000431,0.000118
20404000,0.0324,0.013523,0.002678,0.000431,0.000470
20405000,0.0324,0.013523,0.002678,0.000431,0.000353
20406000,0.0324,0.013523,0.002678,0.000431,0.000235
20407000,0.0324,0.013523,0.002678,0.000431,0.000353
20408000,0.0324,0.013523,0.002678,0.000431,0.000470
20409000,0.0324,0.013523,0.002678,0.000431,0.000353
20410000,0.0324,0.013523,0.002678,0.000431,0.000118
20411000,0.0324,0.013523,0.002678,0.000431,0.000470
20412000,0.0324,0.013523,0.002678,0.000431,0.000353
20413000,0.0324,0.013523,0.002678,0.000431,0.000235
20414000,0.0324,0.013523,0.002678,0.000431,0.000353
20415000,0.0324,0.013523,0.002678,0.000431,0.000470
20416000,0.0324,0.013523,0.002678,0.000431,0.000235
20417000,0.0324,0.013523,0.002678,0.000431,0.000235
20418000,0.0324,0.013523,0.002678,0.000431,0.000470
20419000,0.0324,0.013523,0.002678,0.000431,0.000353
20420000,0.0324,0.013523,0.002678,0.000431,0.000235
20421000,0.0324,0.013523,0.002678,0.000431,0.000353
20422000,0.0324,0.013523,0.002678,0.000431,0.000470
20423000,0.0324,0.013523,0.002678,0.000431,0.000235
20424000,0.0324,0.013523,0.002678,0.000431,0.000235
20425000,0.0324,0.013523,0.002678,0.000431,0.000470
20426000,0.0324,0.013523,0.002678,0.000431,0.000353
20427000,0.0324,0.013523,0.002678,0.000431,0.000235
20428000,0.0324,0.013523,0.002678,0.000431,0.000353
20429000,0.0324,0.013523,0.002678,0.000431,0.000470
20430000,0.0324,0.013523,0.002678,0.000431,0.000235
20431000,0.0324,0.013523,0.002678,0.000431,0.000235
20432000,0.0324,0.013523,0.002678,0.000431,0.000470
20433000,0.0324,0.013523,0.002678,0.000431,0.000353
20434000,0.0324,0.013523,0.002678,0.000431,0.000235
20435000,0.0324,0.013523,0.002678,0.000431,0.000353
20436000,0.0324,0.013523,0.002678,0.000431,0.000470
20437000,0.0324,0.013523,0.002678,0.000431,0.000235
20438000,0.0324,0.013523,0.002678,0.000431,0.000235
20439000,0.0324,0.013523,0.002678,0.000431,0.000470
20440000,0.0324,0.013523,0.002678,0.000431,0.000353
20441000,0.0324,0.013523,0.002678,0.000431,0.000235
20442000,0.0324,0.013523,0.002678,0.000431,0.000353
20443000,0.0324,0.013523,0.002678,0.000431,0.000470
20444000,0.0324,0.013523,0.002678,0.000431,0.000235
20445000,0.0324,0.013523,0.002678,0.000431,0.000235
20446000,0.0324,0.013523,0.002678,0.000431,0.000470
20447000,0.0324,0.013523,0.002678,0.000431,0.000353
20448000,0.0324,0.013523,0.002678,0.000431,0.000235
20449000,0.0324,0.013523,0.002678,0.000431,0.000353
20450000,0.0324,0.013523,0.002678,0.000431,0.000470
20451000,0.0324,0.013523,0.002678,0.000431,0.000235
20452000,0.0324,0.013523,0.002678,0.000431,0.000235
20453000,0.0324,0.013523,0.002678,0.000431,0.000470
20454000,0.0324,0.013523,0.002678,0.000431,0.000353
20455000,0.0324,0.013523,0.002678,0.000431,0.000235
20456000,0.0324,0.013523,0.002678,0.000431,0.000353
20457000,0.0324,0.013523,0.002678,0.000431,0.000470
20458000,0.0324,0.013523,0.002678,0.000431,0.000118
20459000,0.0324,0.013523,0.002678,0.000431,0.000353
20460000,0.0324,0.013523,0.002678,0.000431,0.000470
20461000,0.0324,0.013523,0.002678,0.000431,0.000353
20462000,0.0324,0.013523,0.002678,0.000431,0.000235
20463000,0.0324,0.013523,0.002678,0.000431,0.000353
20464000,0.0324,0.013523,0.002678,0.000431,0.000470
20465000,0.0324,0.013523,0.002678,0.000431,0.000118
20466000,0.0324,0.013523,0.002678,0.000431,0.000353
20467000,0.0324,0.013523,0.002678,0.000431,0.000470
20468000,0.0324,0.013523,0.002678,0.000431,0.000353
20469000,0.0324,0.013523,0.002678,0.000431,0.000235
20470000,0.0324,0.013523,0.002678,0.000431,0.000353
20471000,0.0324,0.013523,0.002678,0.000431,0.000470
20472000,0.0324,0.013523,0.002678,0.000431,0.000118
20473000,0.0324,0.013523,0.002678,0.000431,0.000353
20474000,0.0324,0.013523,0.002678,0.000431,0.000470
20475000,0.0324,0.013523,0.002678,0.000431,0.000353
20476000,0.0324,0.013523,0.002678,0.000431,0.000235
20477000,0.0324,0.013523,0.002678,0.000431,0.000353
20478000,0.0324,0.013523,0.002678,0.000431,0.000470
20479000,0.0324,0.013523,0.002678,0.000431,0.000118
20480000,0.0324,0.013523,0.002678,0.000431,0.000353
20481000,0.0324,0.013523,0.002678,0.000431,0.000470
20482000,0.0324,0.013523,0.002678,0.000431,0.000353
20483000,0.0324,0.013523,0.002678,0.000431,0.000235
20484000,0.0324,0.013523,0.002678,0.000431,0.000353
20485000,0.0324,0.013523,0.002678,0.000431,0.000353
20486000,0.0324,0.013523,0.002678,0.000431,0.000235
20487000,0.0324,0.013523,0.002678,0.000431,0.000353
20488000,0.0324,0.013523,0.002678,0.000431,0.000470
20489000,0.0324,0.013523,0.002678,0.000431,0.000353
20490000,0.0324,0.013523,0.002678,0.000431,0.000235
20491000,0.0324,0.013523,0.002678,0.000431,0.000353
20492000,0.0324,0.013523,0.002678,0.000431,0.000353
20493000,0.0324,0.013523,0.002678,0.000431,0.000235
20494000,0.0324,0.013523,0.002678,0.000431,0.000353
20495000,0.0324,0.013523,0.002678,0.000431,0.000470
20496000,0.0324,0.013523,0.002678,0.000431,0.000353
20497000,0.0324,0.013523,0.002678,0.000431,0.000235
20498000,0.0324,0.013523,0.002678,0.000431,0.000353
20499000,0.0324,0.013523,0.002678,0.000431,0.000353
20500000,0.0324,0.013523,0.002678,0.000431,0.000235
20501000,0.0324,0.013523,0.002678,0.000431,0.000353
20502000,0.0324,0.013523,0.002678,0.000431,0.000470
20503000,0.0324,0.013523,0.002678,0.000431,0.000353
20504000,0.0324,0.013523,0.002678,0.000431,0.000235
20505000,0.0324,0.013523,0.002678,0.000431,0.000353
20506000,0.0324,0.013523,0.002678,0.000431,0.000353
20507000,0.0324,0.013523,0.002678,0.000431,0.000235
20508000,0.0324,0.013523,0.002678,0.000431,0.000353
20509000,0.0324,0.013523,0.002678,0.000431,0.000470
20510000,0.0324,0.013523,0.002678,0.000431,0.000353
20511000,0.0324,0.013523,0.002678,0.000431,0.000235
20512000,0.0324,0.013523,0.002678,0.000431,0.000353
20513000,0.0324,0.013523,0.002678,0.000431,0.000353
20514000,0.0324,0.013523,0.002678,0.000431,0.000235
20515000,0.0324,0.013523,0.002678,0.000431,0.000353
20516000,0.0324,0.013523,0.002678,0.000431,0.000470
20517000,0.0324,0.013523,0.002678,0.000431,0.000353
20518000,0.0324,0.013523,0.002678,0.000431,0.000235
20519000,0.0324,0.013523,0.002678,0.000431,0.000353
20520000,0.0324,0.013523,0.002678,0.000431,0.000353
20521000,0.0324,0.013523,0.002678,0.000431,0.000235
20522000,0.0324,0.013523,0.002678,0.000431,0.000353
20523000,0.0324,0.013523,0.002678,0.000431,0.000470
20524000,0.0324,0.013523,0.002678,0.000431,0.000353
20525000,0.0324,0.013523,0.002678,0.000431,0.000235
20526000,0.0324,0.013523,0.002678,0.000431,0.000353
20527000,0.0324,0.013523,0.002678,0.000431,0.000353
20528000,0.0324,0.013523,0.002678,0.000431,0.000235
20529000,0.0324,0.013523,0.002678,0.000431,0.000353
20530000,0.0324,0.013523,0.002678,0.000431,0.000470
20531000,0.0324,0.013523,0.002678,0.000431,0.000353
20532000,0.0324,0.013523,0.002678,0.000431,0.000118
20533000,0.0324,0.013523,0.002678,0.000431,0.000470
20534000,0.0324,0.013523,0.002678,0.000431,0.000353
20535000,0.0324,0.013523,0.002678,0.000431,0.000235
20536000,0.0324,0.013523,0.002678,0.000431,0.000353
20537000,0.0324,0.013523,0.002678,0.000431,0.000470
20538000,0.0324,0.013523,0.002678,0.000431,0.000353
20539000,0.0324,0.013523,0.002678,0.000431,0.000118
20540000,0.0324,0.013523,0.002678,0.000431,0.000470
20541000,0.0324,0.013523,0.002678,0.000431,0.000353
20542000,0.0324,0.013523,0.002678,0.000431,0.000235
20543000,0.0324,0.013523,0.002678,0.000431,0.000353
20544000,0.0324,0.013523,0.002678,0.000431,0.000470
20545000,0.0324,0.013523,0.002678,0.000431,0.000353
20546000,0.0324,0.013523,0.002678,0.000431,0.000118
20547000,0.0324,0.013523,0.002678,0.000431,0.000470
20548000,0.0324,0.013523,0.002678,0.000431,0.000353
20549000,0.0324,0.013523,0.002678,0.000431,0.000235
20550000,0.0324,0.013523,0.002678,0.000431,0.000353
20551000,0.0324,0.013523,0.002678,0.000431,0.000470
20552000,0.0324,0.013523,0.002678,0.000431,0.000353
20553000,0.0324,0.013523,0.002678,0.000431,0.000118
20554000,0.0324,0.013523,0.002678,0.000431,0.000470
20555000,0.0324,0.013523,0.002678,0.000431,0.000353
20556000,0.0324,0.013523,0.002678,0.000431,0.000235
20557000,0.0324,0.013523,0.002678,0.000431,0.000353
20558000,0.0324,0.013523,0.002678,0.000431,0.000470
20559000,0.0324,0.013523,0.002678,0.000431,0.000235
20560000,0.0324,0.013523,0.002678,0.000431,0.000235
20561000,0.0324,0.013523,0.002678,0.000431,0.000470
20562000,0.0324,0.013523,0.002678,0.000431,0.000353
20563000,0.0324,0.013523,0.002678,0.000431,0.000235
20564000,0.0324,0.013523,0.002678,0.000431,0.000353
20565000,0.0324,0.013523,0.002678,0.000431,0.000470
20566000,0.0324,0.013523,0.002678,0.000431,0.000235
20567000,0.0324,0.013523,0.002678,0.000431,0.000235
20568000,0.0324,0.013523,0.002678,0.000431,0.000470
20569000,0.0324,0.013523,0.002678,0.000431,0.000353
20570000,0.0324,0.013523,0.002678,0.000431,0.000235
20571000,0.0324,0.013523,0.002678,0.000431,0.000353
20572000,0.0324,0.013523,0.002678,0.000431,0.000470
20573000,0.0324,0.013523,0.002678,0.000431,0.000235
20574000,0.0324,0.013523,0.002678,0.000431,0.000235
20575000,0.0324,0.013523,0.002678,0.000431,0.000470
20576000,0.0324,0.013523,0.002678,0.000431,0.000353
20577000,0.0324,0.013523,0.002678,0.000431,0.000235
20578000,0.0324,0.013523,0.002678,0.000431,0.000353
20579000,0.0324,0.013523,0.002678,0.000431,0.000470
20580000,0.0324,0.013523,0.002678,0.000431,0.000235
20581000,0.0324,0.013523,0.002678,0.000431,0.000235
20582000,0.0324,0.013523,0.002678,0.000431,0.000470
20583000,0.0324,0.013523,0.002678,0.000431,0.000353
20584000,0.0324,0.013523,0.002678,0.000431,0.000235
20585000,0.0324,0.013523,0.002678,0.000431,0.000353
20586000,0.0324,0.013523,0.002678,0.000431,0.000470
20587000,0.0324,0.013523,0.002678,0.000431,0.000235
20588000,0.0324,0.013523,0.002678,0.000431,0.000235
20589000,0.0324,0.013523,0.002678,0.000431,0.000470
20590000,0.0324,0.013523,0.002678,0.000431,0.000353
20591000,0.0324,0.013523,0.002678,0.000431,0.000235
20592000,0.0324,0.013523,0.002678,0.000431,0.000353
20593000,0.0324,0.013523,0.002678,0.000431,0.000470
20594000,0.0324,0.013523,0.002678,0.000431,0.000235
20595000,0.0324,0.013523,0.002678,0.000431,0.000235
20596000,0.0324,0.013523,0.002678,0.000431,0.000470
20597000,0.0324,0.013523,0.002678,0.000431,0.000353
20598000,0.0324,0.013523,0.002678,0.000431,0.000235
20599000,0.0324,0.013523,0.002678,0.000431,0.000353
20600000,0.0324,0.013523,0.002678,0.000431,0.000470
20601000,0.0324,0.013523,0.002678,0.000431,0.000118
20602000,0.0324,0.013523,0.002678,0.000431,0.000353
20603000,0.0324,0.013523,0.002678,0.000431,0.000470
20604000,0.0324,0.013523,0.002678,0.000431,0.000353
20605000,0.0324,0.013523,0.002678,0.000431,0.000235
20606000,0.0324,0.013523,0.002678,0.000431,0.000353
20607000,0.0324,0.013523,0.002678,0.000431,0.000470
20608000,0.0324,0.013523,0.002678,0.000431,0.000118
20609000,0.0324,0.013523,0.002678,0.000431,0.000353
20610000,0.0324,0.013523,0.002678,0.000431,0.000470
20611000,0.0324,0.013523,0.002678,0.000431,0.000353
20612000,0.0324,0.013523,0.002678,0.000431,0.000235
20613000,0.0324,0.013523,0.002678,0.000431,0.000353
20614000,0.0324,0.013523,0.002678,0.000431,0.000470
20615000,0.0324,0.013523,0.002678,0.000431,0.000118
20616000,0.0324,0.013523,0.002678,0.000431,0.000353
20617000,0.0324,0.013523,0.002678,0.000431,0.000470
20618000,0.0324,0.013523,0.002678,0.000431,0.000353
20619000,0.0324,0.013523,0.002678,0.000431,0.000235
20620000,0.0324,0.013523,0.002678,0.000431,0.000353
20621000,0.0324,0.013523,0.002678,0.000431,0.000353
20622000,0.0324,0.013523,0.002678,0.000431,0.000235
20623000,0.0324,0.013523,0.002678,0.000431,0.000353
20624000,0.0324,0.013523,0.002678,0.000431,0.000470
20625000,0.0324,0.013523,0.002678,0.000431,0.000353
20626000,0.0324,0.013523,0.002678,0.000431,0.000235
20627000,0.0324,0.013523,0.002678,0.000431,0.000353
20628000,0.0324,0.013523,0.002678,0.000431,0.000353
20629000,0.0324,0.013523,0.002678,0.000431,0.000235
20630000,0.0324,0.013523,0.002678,0.000431,0.000353
20631000,0.0324,0.013523,0.002678,0.000431,0.000470
20632000,0.0324,0.013523,0.002678,0.000431,0.000353
20633000,0.0324,0.013523,0.002678,0.000431,0.000235
20634000,0.0324,0.013523,0.002678,0.000431,0.000353
20635000,0.0324,0.013523,0.002678,0.000431,0.000353
20636000,0.0324,0.013523,0.002678,0.000431,0.000235
20637000,0.0324,0.013523,0.002678,0.000431,0.000353
20638000,0.0324,0.013523,0.002678,0.000431,0.000470
20639000,0.0324,0.013523,0.002678,0.000431,0.000353
20640000,0.0324,0.013523,0.002678,0.000431,0.000235
20641000,0.0324,0.013523,0.002678,0.000431,0.000353
20642000,0.0324,0.013523,0.002678,0.000431,0.000353
20643000,0.0324,0.013523,0.002678,0.000431,0.000235
20644000,0.0324,0.013523,0.002678,0.000431,0.000353
20645000,0.0324,0.013523,0.002678,0.000431,0.000470
20646000,0.0324,0.013523,0.002678,0.000431,0.000353
20647000,0.0324,0.013523,0.002678,0.000431,0.000235
20648000,0.0324,0.013523,0.002678,0.000431,0.000353
20649000,0.0324,0.013523,0.002678,0.000431,0.000353
20650000,0.0324,0.013523,0.002678,0.000431,0.000235
20651000,0.0324,0.013523,0.002678,0.000431,0.000353
20652000,0.0324,0.013523,0.002678,0.000431,0.000470
20653000,0.0324,0.013523,0.002678,0.000431,0.000353
20654000,0.0324,0.013523,0.002678,0.000431,0.000235
20655000,0.0324,0.013523,0.002678,0.000431,0.000353
20656000,0.0324,0.013523,0.002678,0.000431,0.000353
20657000,0.0324,0.013523,0.002678,0.000431,0.000235
20658000,0.0324,0.013523,0.002678,0.000431,0.000353
20659000,0.0324,0.013523,0.002678,0.000431,0.000470
20660000,0.0324,0.013523,0.002678,0.000431,0.000353
20661000,0.0324,0.013523,0.002678,0.000431,0.000235
20662000,0.0324,0.013523,0.002678,0.000431,0.000353
20663000,0.0324,0.013523,0.002678,0.000431,0.000353
20664000,0.0324,0.013523,0.002678,0.000431,0.000235
20665000,0.0324,0.013523,0.002678,0.000431,0.000353
20666000,0.0324,0.013523,0.002678,0.000431,0.000470
20667000,0.0324,0.013523,0.002678,0.000431,0.000353
20668000,0.0324,0.013523,0.002678,0.000431,0.000235
20669000,0.0324,0.013523,0.002678,0.000431,0.000353
20670000,0.0324,0.013523,0.002678,0.000431,0.000353
20671000,0.0324,0.013523,0.002678,0.000431,0.000235
20672000,0.0324,0.013523,0.002678,0.000431,0.000353
20673000,0.0324,0.013523,0.002678,0.000431,0.000470
20674000,0.0324,0.013523,0.002678,0.000431,0.000353
20675000,0.0324,0.013523,0.002678,0.000431,0.000118
20676000,0.0324,0.013523,0.002678,0.000431,0.000470
20677000,0.0324,0.013523,0.002678,0.000431,0.000353
20678000,0.0324,0.013523,0.002678,0.000431,0.000235
20679000,0.0324,0.013523,0.002678,0.000431,0.000353
20680000,0.0324,0.013523,0.002678,0.000431,0.000470
20681000,0.0324,0.013523,0.002678,0.000431,0.000353
20682000,0.0324,0.013523,0.002678,0.000431,0.000118
20683000,0.0324,0.013523,0.002678,0.000431,0.000470
20684000,0.0324,0.013523,0.002678,0.000431,0.000353
20685000,0.0324,0.013523,0.002678,0.000431,0.000235
20686000,0.0324,0.013523,0.002678,0.000431,0.000353
20687000,0.0324,0.013523,0.002678,0.000431,0.000470
20688000,0.0324,0.013523,0.002678,0.000431,0.000353
20689000,0.0324,0.013523,0.002678,0.000431,0.000118
20690000,0.0324,0.013523,0.002678,0.000431,0.000470
20691000,0.0324,0.013523,0.002678,0.000431,0.000353
20692000,0.0324,0.013523,0.002678,0.000431,0.000235
20693000,0.0324,0.013523,0.002678,0.000431,0.000353
20694000,0.0324,0.013523,0.002678,0.000431,0.000470
20695000,0.0324,0.013523,0.002678,0.000431,0.000235
20696000,0.0324,0.013523,0.002678,0.000431,0.000235
20697000,0.0324,0.013523,0.002678,0.000431,0.000470
20698000,0.0324,0.013523,0.002678,0.000431,0.000353
20699000,0.0324,0.013523,0.002678,0.000431,0.000235
20700000,0.0324,0.013523,0.002678,0.000431,0.000353
20701000,0.0324,0.013523,0.002678,0.000431,0.000470
20702000,0.0324,0.013523,0.002678,0.000431,0.000235
20703000,0.0324,0.013523,0.002678,0.000431,0.000235
20704000,0.0324,0.013523,0.002678,0.000431,0.000470
20705000,0.0324,0.013523,0.002678,0.000431,0.000353
20706000,0.0324,0.013523,0.002678,0.000431,0.000235
20707000,0.0324,0.013523,0.002678,0.000431,0.000353
20708000,0.0324,0.013523,0.002678,0.000431,0.000470
20709000,0.0324,0.013523,0.002678,0.000431,0.000235
20710000,0.0324,0.013523,0.002678,0.000431,0.000235
20711000,0.0324,0.013523,0.002678,0.000431,0.000470
20712000,0.0324,0.013523,0.002678,0.000431,0.000353
20713000,0.0324,0.013523,0.002678,0.000431,0.000235
20714000,0.0324,0.013523,0.002678,0.000431,0.000353
20715000,0.0324,0.013523,0.002678,0.000431,0.000470
20716000,0.0324,0.013523,0.002678,0.000431,0.000235
20717000,0.0324,0.013523,0.002678,0.000431,0.000235
20718000,0.0324,0.013523,0.002678,0.000431,0.000470
20719000,0.0324,0.013523,0.002678,0.000431,0.000353
20720000,0.0324,0.013523,0.002678,0.000431,0.000235
20721000,0.0324,0.013523,0.002678,0.000431,0.000353
20722000,0.0324,0.013523,0.002678,0.000431,0.000470
20723000,0.0324,0.013523,0.002678,0.000431,0.000235
20724000,0.0324,0.013523,0.002678,0.000431,0.000235
20725000,0.0324,0.013523,0.002678,0.000431,0.000470
20726000,0.0324,0.013523,0.002678,0.000431,0.000353
20727000,0.0324,0.013523,0.002678,0.000431,0.000235
20728000,0.0324,0.013523,0.002678,0.000431,0.000353
20729000,0.0324,0.013523,0.002678,0.000431,0.000470
20730000,0.0324,0.013523,0.002678,0.000431,0.000235
20731000,0.0324,0.013523,0.002678,0.000431,0.000235
20732000,0.0324,0.013523,0.002678,0.000431,0.000470
20733000,0.0324,0.013523,0.002678,0.000431,0.000353
20734000,0.0324,0.013523,0.002678,0.000431,0.000235
20735000,0.0324,0.013523,0.002678,0.000431,0.000353
20736000,0.0324,0.013523,0.002678,0.000431,0.000470
20737000,0.0324,0.013523,0.002678,0.000431,0.000118
20738000,0.0324,0.013523,0.002678,0.000431,0.000353
20739000,0.0324,0.013523,0.002678,0.000431,0.000470
20740000,0.0324,0.013523,0.002678,0.000431,0.000353
20741000,0.0324,0.013523,0.002678,0.000431,0.000235
20742000,0.0324,0.013523,0.002678,0.000431,0.000353
20743000,0.0324,0.013523,0.002678,0.000431,0.000470
20744000,0.0324,0.013523,0.002678,0.000431,0.000118
20745000,0.0324,0.013523,0.002678,0.000431,0.000353
20746000,0.0324,0.013523,0.002678,0.000431,0.000470
20747000,0.0324,0.013523,0.002678,0.000431,0.000353
20748000,0.0324,0.013523,0.002678,0.000431,0.000235
20749000,0.0324,0.013523,0.002678,0.000431,0.000353
20750000,0.0324,0.013523,0.002678,0.000431,0.000470
20751000,0.0324,0.013523,0.002678,0.000431,0.000118
20752000,0.0324,0.013523,0.002678,0.000431,0.000353
20753000,0.0324,0.013523,0.002678,0.000431,0.000470
20754000,0.0324,0.013523,0.002678,0.000431,0.000353
20755000,0.0324,0.013523,0.002678,0.000431,0.000235
20756000,0.0324,0.013523,0.002678,0.000431,0.000353
20757000,0.0324,0.013523,0.002678,0.000431,0.000470
20758000,0.0324,0.013523,0.002678,0.000431,0.000118
20759000,0.0324,0.013523,0.002678,0.000431,0.000353
20760000,0.0324,0.013523,0.002678,0.000431,0.000470
20761000,0.0324,0.013523,0.002678,0.000431,0.000353
20762000,0.0324,0.013523,0.002678,0.000431,0.000235
20763000,0.0324,0.013523,0.002678,0.000431,0.000353
20764000,0.0324,0.013523,0.002678,0.000431,0.000353
20765000,0.0324,0.013523,0.002678,0.000431,0.000235
20766000,0.0324,0.013523,0.002678,0.000431,0.000353
20767000,0.0324,0.013523,0.002678,0.000431,0.000470
20768000,0.0324,0.013523,0.002678,0.000431,0.000353
20769000,0.0324,0.013523,0.002678,0.000431,0.000235
20770000,0.0324,0.013523,0.002678,0.000431,0.000353
20771000,0.0324,0.013523,0.002678,0.000431,0.000353
20772000,0.0324,0.013523,0.002678,0.000431,0.000235
20773000,0.0324,0.013523,0.002678,0.000431,0.000353
20774000,0.0324,0.013523,0.002678,0.000431,0.000470
20775000,0.0324,0.013523,0.002678,0.000431,0.000353
20776000,0.0324,0.013523,0.002678,0.000431,0.000235
20777000,0.0324,0.013523,0.002678,0.000431,0.000353
20778000,0.0324,0.013523,0.002678,0.000431,0.000353
20779000,0.0324,0.013523,0.002678,0.000431,0.000235
20780000,0.0324,0.013523,0.002678,0.000431,0.000353
20781000,0.0324,0.013523,0.002678,0.000431,0.000470
20782000,0.0324,0.013523,0.002678,0.000431,0.000353
20783000,0.0324,0.013523,0.002678,0.000431,0.000235
20784000,0.0324,0.013523,0.002678,0.000431,0.000353
20785000,0.0324,0.013523,0.002678,0.000431,0.000353
20786000,0.0324,0.013523,0.002678,0.000431,0.000235
20787000,0.0324,0.013523,0.002678,0.000431,0.000353
20788000,0.0324,0.013523,0.002678,0.000431,0.000470
20789000,0.0324,0.013523,0.002678,0.000431,0.000353
20790000,0.0324,0.013523,0.002678,0.000431,0.000235
20791000,0.0324,0.013523,0.002678,0.000431,0.000353
20792000,0.0324,0.013523,0.002678,0.000431,0.000353
20793000,0.0324,0.013523,0.002678,0.000431,0.000235
20794000,0.0324,0.013523,0.002678,0.000431,0.000353
20795000,0.0324,0.013523,0.002678,0.000431,0.000470
20796000,0.0324,0.013523,0.002678,0.000431,0.000353
20797000,0.0324,0.013523,0.002678,0.000431,0.000235
20798000,0.0324,0.013523,0.002678,0.000431,0.000353
20799000,0.0324,0.013523,0.002678,0.000431,0.000353
20800000,0.0324,0.013523,0.002678,0.000431,0.000235
20801000,0.0324,0.013523,0.002678,0.000431,0.000353
20802000,0.0324,0.013523,0.002678,0.000431,0.000470
20803000,0.0324,0.013523,0.002678,0.000431,0.000353
20804000,0.0324,0.013523,0.002678,0.000431,0.000235
20805000,0.0324,0.013523,0.002678,0.000431,0.000353
20806000,0.0324,0.013523,0.002678,0.000431,0.000353
20807000,0.0324,0.013523,0.002678,0.000431,0.000235
20808000,0.0324,0.013523,0.002678,0.000431,0.000353
20809000,0.0324,0.013523,0.002678,0.000431,0.000470
20810000,0.0324,0.013523,0.002678,0.000431,0.000353
20811000,0.0324,0.013523,0.002678,0.000431,0.000118
20812000,0.0324,0.013523,0.002678,0.000431,0.000470
20813000,0.0324,0.013523,0.002678,0.000431,0.000353
20814000,0.0324,0.013523,0.002678,0.000431,0.000235
20815000,0.0324,0.013523,0.002678,0.000431,0.000353
20816000,0.0324,0.013523,0.002678,0.000431,0.000470
20817000,0.0324,0.013523,0.002678,0.000431,0.000353
20818000,0.0324,0.013523,0.002678,0.000431,0.000118
20819000,0.0324,0.013523,0.002678,0.000431,0.000470
20820000,0.0324,0.013523,0.002678,0.000431,0.000353
20821000,0.0324,0.013523,0.002678,0.000431,0.000235
20822000,0.0324,0.013523,0.002678,0.000431,0.000353
20823000,0.0324,0.013523,0.002678,0.000431,0.000470
20824000,0.0324,0.013523,0.002678,0.000431,0.000353
20825000,0.0324,0.013523,0.002678,0.000431,0.000118
20826000,0.0324,0.013523,0.002678,0.000431,0.000470
20827000,0.0324,0.013523,0.002678,0.000431,0.000353
20828000,0.0324,0.013523,0.002678,0.000431,0.000235
20829000,0.0324,0.013523,0.002678,0.000431,0.000353
20830000,0.0324,0.013523,0.002678,0.000431,0.000470
20831000,0.0324,0.013523,0.002678,0.000431,0.000353
20832000,0.0324,0.013523,0.002678,0.000431,0.000118
20833000,0.0324,0.013523,0.002678,0.000431,0.000470
20834000,0.0324,0.013523,0.002678,0.000431,0.000353
20835000,0.0324,0.013523,0.002678,0.000431,0.000235
20836000,0.0324,0.013523,0.002678,0.000431,0.000353
20837000,0.0324,0.013523,0.002678,0.000431,0.000470
20838000,0.0324,0.013523,0.002678,0.000431,0.000235
20839000,0.0324,0.013523,0.002678,0.000431,0.000235
20840000,0.0324,0.013523,0.002678,0.000431,0.000470
20841000,0.0324,0.013523,0.002678,0.000431,0.000353
20842000,0.0324,0.013523,0.002678,0.000431,0.000235
20843000,0.0324,0.013523,0.002678,0.000431,0.000353
20844000,0.0324,0.013523,0.002678,0.000431,0.000470
20845000,0.0324,0.013523,0.002678,0.000431,0.000235
20846000,0.0324,0.013523,0.002678,0.000431,0.000235
20847000,0.0324,0.013523,0.002678,0.000431,0.000470
20848000,0.0324,0.013523,0.002678,0.000431,0.000353
20849000,0.0324,0.013523,0.002678,0.000431,0.000235
20850000,0.0324,0.013523,0.002678,0.000431,0.000353
20851000,0.0324,0.013523,0.002678,0.000431,0.000470
20852000,0.0324,0.013523,0.002678,0.000431,0.000235
20853000,0.0324,0.013523,0.002678,0.000431,0.000235
20854000,0.0324,0.013523,0.002678,0.000431,0.000470
20855000,0.0324,0.013523,0.002678,0.000431,0.000353
20856000,0.0324,0.013523,0.002678,0.000431,0.000235
20857000,0.0324,0.013523,0.002678,0.000431,0.000353
20858000,0.0324,0.013523,0.002678,0.000431,0.000470
20859000,0.0324,0.013523,0.002678,0.000431,0.000235
20860000,0.0324,0.013523,0.002678,0.000431,0.000235
20861000,0.0324,0.013523,0.002678,0.000431,0.000470
20862000,0.0324,0.013523,0.002678,0.000431,0.000353
20863000,0.0324,0.013523,0.002678,0.000431,0.000235
20864000,0.0324,0.013523,0.002678,0.000431,0.000353
20865000,0.0324,0.013523,0.002678,0.000431,0.000470
20866000,0.0324,0.013523,0.002678,0.000431,0.000235
20867000,0.0324,0.013523,0.002678,0.000431,0.000235
20868000,0.0324,0.013523,0.002678,0.000431,0.000470
20869000,0.0324,0.013523,0.002678,0.000431,0.000353
20870000,0.0324,0.013523,0.002678,0.000431,0.000235
20871000,0.0324,0.013523,0.002678,0.000431,0.000353
20872000,0.0324,0.013523,0.002678,0.000431,0.000470
20873000,0.0324,0.013523,0.002678,0.000431,0.000235
20874000,0.0324,0.013523,0.002678,0.000431,0.000235
20875000,0.0324,0.013523,0.002678,0.000431,0.000470
20876000,0.0324,0.013523,0.002678,0.000431,0.000353
20877000,0.0324,0.013523,0.002678,0.000431,0.000235
20878000,0.0324,0.013523,0.002678,0.000431,0.000353
20879000,0.0324,0.013523,0.002678,0.000431,0.000470
20880000,0.0324,0.013523,0.002678,0.000431,0.000118
20881000,0.0324,0.013523,0.002678,0.000431,0.000353
20882000,0.0324,0.013523,0.002678,0.000431,0.000470
20883000,0.0324,0.013523,0.002678,0.000431,0.000353
20884000,0.0324,0.013523,0.002678,0.000431,0.000235
20885000,0.0324,0.013523,0.002678,0.000431,0.000353
20886000,0.0324,0.013523,0.002678,0.000431,0.000470
20887000,0.0324,0.013523,0.002678,0.000431,0.000118
20888000,0.0324,0.013523,0.002678,0.000431,0.000353
20889000,0.0324,0.013523,0.002678,0.000431,0.000470
20890000,0.0324,0.013523,0.002678,0.000431,0.000353
20891000,0.0324,0.013523,0.002678,0.000431,0.000235
20892000,0.0324,0.013523,0.002678,0.000431,0.000353
20893000,0.0324,0.013523,0.002678,0.000431,0.000470
20894000,0.0324,0.013523,0.002678,0.000431,0.000118
20895000,0.0324,0.013523,0.002678,0.000431,0.000353
20896000,0.0324,0.013523,0.002678,0.000431,0.000470
20897000,0.0324,0.013523,0.002678,0.000431,0.000353
20898000,0.0324,0.013523,0.002678,0.000431,0.000235
20899000,0.0324,0.013523,0.002678,0.000431,0.000353
20900000,0.0324,0.013523,0.002678,0.000431,0.000353
20901000,0.0324,0.013523,0.002678,0.000431,0.000235
20902000,0.0324,0.013523,0.002678,0.000431,0.000353
20903000,0.0324,0.013523,0.002678,0.000431,0.000470
20904000,0.0324,0.013523,0.002678,0.000431,0.000353
20905000,0.0324,0.013523,0.002678,0.000431,0.000235
20906000,0.0324,0.013523,0.002678,0.000431,0.000353
20907000,0.0324,0.013523,0.002678,0.000431,0.000353
20908000,0.0324,0.013523,0.002678,0.000431,0.000235
20909000,0.0324,0.013523,0.002678,0.000431,0.000353
20910000,0.0324,0.013523,0.002678,0.000431,0.000470
20911000,0.0324,0.013523,0.002678,0.000431,0.000353
20912000,0.0324,0.013523,0.002678,0.000431,0.000235
20913000,0.0324,0.013523,0.002678,0.000431,0.000353
20914000,0.0324,0.013523,0.002678,0.000431,0.000353
20915000,0.0324,0.013523,0.002678,0.000431,0.000235
20916000,0.0324,0.013523,0.002678,0.000431,0.000353
20917000,0.0324,0.013523,0.002678,0.000431,0.000470
20918000,0.0324,0.013523,0.002678,0.000431,0.000353
20919000,0.0324,0.013523,0.002678,0.000431,0.000235
20920000,0.0324,0.013523,0.002678,0.000431,0.000353
20921000,0.0324,0.013523,0.002678,0.000431,0.000353
20922000,0.0324,0.013523,0.002678,0.000431,0.000235
20923000,0.0324,0.013523,0.002678,0.000431,0.000353
20924000,0.0324,0.013523,0.002678,0.000431,0.000470
20925000,0.0324,0.013523,0.002678,0.000431,0.000353
20926000,0.0324,0.013523,0.002678,0.000431,0.000235
20927000,0.0324,0.013523,0.002678,0.000431,0.000353
20928000,0.0324,0.013523,0.002678,0.000431,0.000353
20929000,0.0324,0.013523,0.002678,0.000431,0.000235
20930000,0.0324,0.013523,0.002678,0.000431,0.000353
20931000,0.0324,0.013523,0.002678,0.000431,0.000470
20932000,0.0324,0.013523,0.002678,0.000431,0.000353
20933000,0.0324,0.013523,0.002678,0.000431,0.000235
20934000,0.0324,0.013523,0.002678,0.000431,0.000353
20935000,0.0324,0.013523,0.002678,0.000431,0.000353
20936000,0.0324,0.013523,0.002678,0.000431,0.000235
20937000,0.0324,0.013523,0.002678,0.000431,0.000353
20938000,0.0324,0.013523,0.002678,0.000431,0.000470
20939000,0.0324,0.013523,0.002678,0.000431,0.000353
20940000,0.0324,0.013523,0.002678,0.000431,0.000235
20941000,0.0324,0.013523,0.002678,0.000431,0.000353
20942000,0.0324,0.013523,0.002678,0.000431,0.000353
20943000,0.0324,0.013523,0.002678,0.000431,0.000235
20944000,0.0324,0.013523,0.002678,0.000431,0.000353
20945000,0.0324,0.013523,0.002678,0.000431,0.000470
20946000,0.0324,0.013523,0.002678,0.000431,0.000353
20947000,0.0324,0.013523,0.002678,0.000431,0.000235
20948000,0.0324,0.013523,0.002678,0.000431,0.000353
20949000,0.0324,0.013523,0.002678,0.000431,0.000353
20950000,0.0324,0.013523,0.002678,0.000431,0.000235
20951000,0.0324,0.013523,0.002678,0.000431,0.000353
20952000,0.0324,0.013523,0.002678,0.000431,0.000470
20953000,0.0324,0.013523,0.002678,0.000431,0.000353
20954000,0.0324,0.013523,0.002678,0.000431,0.000118
20955000,0.0324,0.013523,0.002678,0.000431,0.000470
20956000,0.0324,0.013523,0.002678,0.000431,0.000353
20957000,0.0324,0.013523,0.002678,0.000431,0.000235
20958000,0.0324,0.013523,0.002678,0.000431,0.000353
20959000,0.0324,0.013523,0.002678,0.000431,0.000470
20960000,0.0324,0.013523,0.002678,0.000431,0.000353
20961000,0.0324,0.013523,0.002678,0.000431,0.000118
20962000,0.0324,0.013523,0.002678,0.000431,0.000470
20963000,0.0324,0.013523,0.002678,0.000431,0.000353
20964000,0.0324,0.013523,0.002678,0.000431,0.000235
20965000,0.0324,0.013523,0.002678,0.000431,0.000353
20966000,0.0324,0.013523,0.002678,0.000431,0.000470
20967000,0.0324,0.013523,0.002678,0.000431,0.000353
20968000,0.0324,0.013523,0.002678,0.000431,0.000118
20969000,0.0324,0.013523,0.002678,0.000431,0.000470
20970000,0.0324,0.013523,0.002678,0.000431,0.000353
20971000,0.0324,0.013523,0.002678,0.000431,0.000235
20972000,0.0324,0.013523,0.002678,0.000431,0.000353
20973000,0.0324,0.013523,0.002678,0.000431,0.000470
20974000,0.0324,0.013523,0.002678,0.000431,0.000353
20975000,0.0324,0.013523,0.002678,0.000431,0.000118
20976000,0.0324,0.013523,0.002678,0.000431,0.000470
20977000,0.0324,0.013523,0.002678,0.000431,0.000353
20978000,0.0324,0.013523,0.002678,0.000431,0.000235
20979000,0.0324,0.013523,0.002678,0.000431,0.000353
20980000,0.0324,0.013523,0.002678,0.000431,0.000470
20981000,0.0324,0.013523,0.002678,0.000431,0.000235
20982000,0.0324,0.013523,0.002678,0.000431,0.000235
20983000,0.0324,0.013523,0.002678,0.000431,0.000470
20984000,0.0324,0.013523,0.002678,0.000431,0.000353
20985000,0.0324,0.013523,0.002678,0.000431,0.000235
20986000,0.0324,0.013523,0.002678,0.000431,0.000353
20987000,0.0324,0.013523,0.002678,0.000431,0.000470
20988000,0.0324,0.013523,0.002678,0.000431,0.000235
20989000,0.0324,0.013523,0.002678,0.000431,0.000235
20990000,0.0324,0.013523,0.002678,0.000431,0.000470
20991000,0.0324,0.013523,0.002678,0.000431,0.000353
20992000,0.0324,0.013523,0.002678,0.000431,0.000235
20993000,0.0324,0.013523,0.002678,0.000431,0.000353
20994000,0.0324,0.013523,0.002678,0.000431,0.000470
20995000,0.0324,0.013523,0.002678,0.000431,0.000235
20996000,0.0324,0.013523,0.002678,0.000431,0.000235
20997000,0.0324,0.013523,0.002678,0.000431,0.000470
20998000,0.0324,0.013523,0.002678,0.000431,0.000353
20999000,0.0324,0.013523,0.002678,0.000431,0.000235
