Cycle,Area(mm^2),PeakDynamic(W),SubthresholdLeakage(W),GateLeakage(W),RunTimeDynamic(W)
25000000,0.0324,0.013523,0.002678,0.000431,0.000118
25001000,0.0324,0.013523,0.002678,0.000431,0.000353
25002000,0.0324,0.013523,0.002678,0.000431,0.000470
25003000,0.0324,0.013523,0.002678,0.000431,0.000353
25004000,0.0324,0.013523,0.002678,0.000431,0.000235
25005000,0.0324,0.013523,0.002678,0.000431,0.000353
25006000,0.0324,0.013523,0.002678,0.000431,0.000470
25007000,0.0324,0.013523,0.002678,0.000431,0.000118
25008000,0.0324,0.013523,0.002678,0.000431,0.000353
25009000,0.0324,0.013523,0.002678,0.000431,0.000470
25010000,0.0324,0.013523,0.002678,0.000431,0.000353
25011000,0.0324,0.013523,0.002678,0.000431,0.000235
25012000,0.0324,0.013523,0.002678,0.000431,0.000353
25013000,0.0324,0.013523,0.002678,0.000431,0.000470
25014000,0.0324,0.013523,0.002678,0.000431,0.000118
25015000,0.0324,0.013523,0.002678,0.000431,0.000353
25016000,0.0324,0.013523,0.002678,0.000431,0.000470
25017000,0.0324,0.013523,0.002678,0.000431,0.000353
25018000,0.0324,0.013523,0.002678,0.000431,0.000235
25019000,0.0324,0.013523,0.002678,0.000431,0.000353
25020000,0.0324,0.013523,0.002678,0.000431,0.000353
25021000,0.0324,0.013523,0.002678,0.000431,0.000235
25022000,0.0324,0.013523,0.002678,0.000431,0.000353
25023000,0.0324,0.013523,0.002678,0.000431,0.000470
25024000,0.0324,0.013523,0.002678,0.000431,0.000353
25025000,0.0324,0.013523,0.002678,0.000431,0.000235
25026000,0.0324,0.013523,0.002678,0.000431,0.000353
25027000,0.0324,0.013523,0.002678,0.000431,0.000353
25028000,0.0324,0.013523,0.002678,0.000431,0.000235
25029000,0.0324,0.013523,0.002678,0.000431,0.000353
25030000,0.0324,0.013523,0.002678,0.000431,0.000470
25031000,0.0324,0.013523,0.002678,0.000431,0.000353
25032000,0.0324,0.013523,0.002678,0.000431,0.000235
25033000,0.0324,0.013523,0.002678,0.000431,0.000353
25034000,0.0324,0.013523,0.002678,0.000431,0.000353
25035000,0.0324,0.013523,0.002678,0.000431,0.000235
25036000,0.0324,0.013523,0.002678,0.000431,0.000353
25037000,0.0324,0.013523,0.002678,0.000431,0.000470
25038000,0.0324,0.013523,0.002678,0.000431,0.000353
25039000,0.0324,0.013523,0.002678,0.000431,0.000235
25040000,0.0324,0.013523,0.002678,0.000431,0.000353
25041000,0.0324,0.013523,0.002678,0.000431,0.000353
25042000,0.0324,0.013523,0.002678,0.000431,0.000235
25043000,0.0324,0.013523,0.002678,0.000431,0.000353
25044000,0.0324,0.013523,0.002678,0.000431,0.000470
25045000,0.0324,0.013523,0.002678,0.000431,0.000353
25046000,0.0324,0.013523,0.002678,0.000431,0.000235
25047000,0.0324,0.013523,0.002678,0.000431,0.000353
25048000,0.0324,0.013523,0.002678,0.000431,0.000353
25049000,0.0324,0.013523,0.002678,0.000431,0.000235
25050000,0.0324,0.013523,0.002678,0.000431,0.000353
25051000,0.0324,0.013523,0.002678,0.000431,0.000470
25052000,0.0324,0.013523,0.002678,0.000431,0.000353
25053000,0.0324,0.013523,0.002678,0.000431,0.000235
25054000,0.0324,0.013523,0.002678,0.000431,0.000353
25055000,0.0324,0.013523,0.002678,0.000431,0.000353
25056000,0.0324,0.013523,0.002678,0.000431,0.000235
25057000,0.0324,0.013523,0.002678,0.000431,0.000353
25058000,0.0324,0.013523,0.002678,0.000431,0.000470
25059000,0.0324,0.013523,0.002678,0.000431,0.000353
25060000,0.0324,0.013523,0.002678,0.000431,0.000235
25061000,0.0324,0.013523,0.002678,0.000431,0.000353
25062000,0.0324,0.013523,0.002678,0.000431,0.000353
25063000,0.0324,0.013523,0.002678,0.000431,0.000235
25064000,0.0324,0.013523,0.002678,0.000431,0.000353
25065000,0.0324,0.013523,0.002678,0.000431,0.000470
25066000,0.0324,0.013523,0.002678,0.000431,0.000353
25067000,0.0324,0.013523,0.002678,0.000431,0.000235
25068000,0.0324,0.013523,0.002678,0.000431,0.000353
25069000,0.0324,0.013523,0.002678,0.000431,0.000353
25070000,0.0324,0.013523,0.002678,0.000431,0.000235
25071000,0.0324,0.013523,0.002678,0.000431,0.000353
25072000,0.0324,0.013523,0.002678,0.000431,0.000470
25073000,0.0324,0.013523,0.002678,0.000431,0.000353
25074000,0.0324,0.013523,0.002678,0.000431,0.000118
25075000,0.0324,0.013523,0.002678,0.000431,0.000470
25076000,0.0324,0.013523,0.002678,0.000431,0.000353
25077000,0.0324,0.013523,0.002678,0.000431,0.000235
25078000,0.0324,0.013523,0.002678,0.000431,0.000353
25079000,0.0324,0.013523,0.002678,0.000431,0.000470
25080000,0.0324,0.013523,0.002678,0.000431,0.000353
25081000,0.0324,0.013523,0.002678,0.000431,0.000118
25082000,0.0324,0.013523,0.002678,0.000431,0.000470
25083000,0.0324,0.013523,0.002678,0.000431,0.000353
25084000,0.0324,0.013523,0.002678,0.000431,0.000235
25085000,0.0324,0.013523,0.002678,0.000431,0.000353
25086000,0.0324,0.013523,0.002678,0.000431,0.000470
25087000,0.0324,0.013523,0.002678,0.000431,0.000353
25088000,0.0324,0.013523,0.002678,0.000431,0.000118
25089000,0.0324,0.013523,0.002678,0.000431,0.000470
25090000,0.0324,0.013523,0.002678,0.000431,0.000353
25091000,0.0324,0.013523,0.002678,0.000431,0.000235
25092000,0.0324,0.013523,0.002678,0.000431,0.000353
25093000,0.0324,0.013523,0.002678,0.000431,0.000470
25094000,0.0324,0.013523,0.002678,0.000431,0.000353
25095000,0.0324,0.013523,0.002678,0.000431,0.000118
25096000,0.0324,0.013523,0.002678,0.000431,0.000470
25097000,0.0324,0.013523,0.002678,0.000431,0.000353
25098000,0.0324,0.013523,0.002678,0.000431,0.000235
25099000,0.0324,0.013523,0.002678,0.000431,0.000353
25100000,0.0324,0.013523,0.002678,0.000431,0.000470
25101000,0.0324,0.013523,0.002678,0.000431,0.000235
25102000,0.0324,0.013523,0.002678,0.000431,0.000235
25103000,0.0324,0.013523,0.002678,0.000431,0.000470
25104000,0.0324,0.013523,0.002678,0.000431,0.000353
25105000,0.0324,0.013523,0.002678,0.000431,0.000235
25106000,0.0324,0.013523,0.002678,0.000431,0.000353
25107000,0.0324,0.013523,0.002678,0.000431,0.000470
25108000,0.0324,0.013523,0.002678,0.000431,0.000235
25109000,0.0324,0.013523,0.002678,0.000431,0.000235
25110000,0.0324,0.013523,0.002678,0.000431,0.000470
25111000,0.0324,0.013523,0.002678,0.000431,0.000353
25112000,0.0324,0.013523,0.002678,0.000431,0.000235
25113000,0.0324,0.013523,0.002678,0.000431,0.000353
25114000,0.0324,0.013523,0.002678,0.000431,0.000470
25115000,0.0324,0.013523,0.002678,0.000431,0.000235
25116000,0.0324,0.013523,0.002678,0.000431,0.000235
25117000,0.0324,0.013523,0.002678,0.000431,0.000470
25118000,0.0324,0.013523,0.002678,0.000431,0.000353
25119000,0.0324,0.013523,0.002678,0.000431,0.000235
25120000,0.0324,0.013523,0.002678,0.000431,0.000353
25121000,0.0324,0.013523,0.002678,0.000431,0.000470
25122000,0.0324,0.013523,0.002678,0.000431,0.000235
25123000,0.0324,0.013523,0.002678,0.000431,0.000235
25124000,0.0324,0.013523,0.002678,0.000431,0.000470
25125000,0.0324,0.013523,0.002678,0.000431,0.000353
25126000,0.0324,0.013523,0.002678,0.000431,0.000235
25127000,0.0324,0.013523,0.002678,0.000431,0.000353
25128000,0.0324,0.013523,0.002678,0.000431,0.000470
25129000,0.0324,0.013523,0.002678,0.000431,0.000235
25130000,0.0324,0.013523,0.002678,0.000431,0.000235
25131000,0.0324,0.013523,0.002678,0.000431,0.000470
25132000,0.0324,0.013523,0.002678,0.000431,0.000353
25133000,0.0324,0.013523,0.002678,0.000431,0.000235
25134000,0.0324,0.013523,0.002678,0.000431,0.000353
25135000,0.0324,0.013523,0.002678,0.000431,0.000470
25136000,0.0324,0.013523,0.002678,0.000431,0.000118
25137000,0.0324,0.013523,0.002678,0.000431,0.000353
25138000,0.0324,0.013523,0.002678,0.000431,0.000470
25139000,0.0324,0.013523,0.002678,0.000431,0.000353
25140000,0.0324,0.013523,0.002678,0.000431,0.000235
25141000,0.0324,0.013523,0.002678,0.000431,0.000353
25142000,0.0324,0.013523,0.002678,0.000431,0.000470
25143000,0.0324,0.013523,0.002678,0.000431,0.000118
25144000,0.0324,0.013523,0.002678,0.000431,0.000353
25145000,0.0324,0.013523,0.002678,0.000431,0.000470
25146000,0.0324,0.013523,0.002678,0.000431,0.000353
25147000,0.0324,0.013523,0.002678,0.000431,0.000235
25148000,0.0324,0.013523,0.002678,0.000431,0.000353
25149000,0.0324,0.013523,0.002678,0.000431,0.000470
25150000,0.0324,0.013523,0.002678,0.000431,0.000118
25151000,0.0324,0.013523,0.002678,0.000431,0.000353
25152000,0.0324,0.013523,0.002678,0.000431,0.000470
25153000,0.0324,0.013523,0.002678,0.000431,0.000353
25154000,0.0324,0.013523,0.002678,0.000431,0.000235
25155000,0.0324,0.013523,0.002678,0.000431,0.000353
25156000,0.0324,0.013523,0.002678,0.000431,0.000470
25157000,0.0324,0.013523,0.002678,0.000431,0.000118
25158000,0.0324,0.013523,0.002678,0.000431,0.000353
25159000,0.0324,0.013523,0.002678,0.000431,0.000470
25160000,0.0324,0.013523,0.002678,0.000431,0.000353
25161000,0.0324,0.013523,0.002678,0.000431,0.000235
25162000,0.0324,0.013523,0.002678,0.000431,0.000353
25163000,0.0324,0.013523,0.002678,0.000431,0.000353
25164000,0.0324,0.013523,0.002678,0.000431,0.000235
25165000,0.0324,0.013523,0.002678,0.000431,0.000353
25166000,0.0324,0.013523,0.002678,0.000431,0.000470
25167000,0.0324,0.013523,0.002678,0.000431,0.000353
25168000,0.0324,0.013523,0.002678,0.000431,0.000235
25169000,0.0324,0.013523,0.002678,0.000431,0.000353
25170000,0.0324,0.013523,0.002678,0.000431,0.000353
25171000,0.0324,0.013523,0.002678,0.000431,0.000235
25172000,0.0324,0.013523,0.002678,0.000431,0.000353
25173000,0.0324,0.013523,0.002678,0.000431,0.000470
25174000,0.0324,0.013523,0.002678,0.000431,0.000353
25175000,0.0324,0.013523,0.002678,0.000431,0.000235
25176000,0.0324,0.013523,0.002678,0.000431,0.000353
25177000,0.0324,0.013523,0.002678,0.000431,0.000353
25178000,0.0324,0.013523,0.002678,0.000431,0.000235
25179000,0.0324,0.013523,0.002678,0.000431,0.000353
25180000,0.0324,0.013523,0.002678,0.000431,0.000470
25181000,0.0324,0.013523,0.002678,0.000431,0.000353
25182000,0.0324,0.013523,0.002678,0.000431,0.000235
25183000,0.0324,0.013523,0.002678,0.000431,0.000353
25184000,0.0324,0.013523,0.002678,0.000431,0.000353
25185000,0.0324,0.013523,0.002678,0.000431,0.000235
25186000,0.0324,0.013523,0.002678,0.000431,0.000353
25187000,0.0324,0.013523,0.002678,0.000431,0.000470
25188000,0.0324,0.013523,0.002678,0.000431,0.000353
25189000,0.0324,0.013523,0.002678,0.000431,0.000235
25190000,0.0324,0.013523,0.002678,0.000431,0.000353
25191000,0.0324,0.013523,0.002678,0.000431,0.000353
25192000,0.0324,0.013523,0.002678,0.000431,0.000235
25193000,0.0324,0.013523,0.002678,0.000431,0.000353
25194000,0.0324,0.013523,0.002678,0.000431,0.000470
25195000,0.0324,0.013523,0.002678,0.000431,0.000353
25196000,0.0324,0.013523,0.002678,0.000431,0.000235
25197000,0.0324,0.013523,0.002678,0.000431,0.000353
25198000,0.0324,0.013523,0.002678,0.000431,0.000353
25199000,0.0324,0.013523,0.002678,0.000431,0.000235
25200000,0.0324,0.013523,0.002678,0.000431,0.000353
25201000,0.0324,0.013523,0.002678,0.000431,0.000470
25202000,0.0324,0.013523,0.002678,0.000431,0.000353
25203000,0.0324,0.013523,0.002678,0.000431,0.000235
25204000,0.0324,0.013523,0.002678,0.000431,0.000353
25205000,0.0324,0.013523,0.002678,0.000431,0.000353
25206000,0.0324,0.013523,0.002678,0.000431,0.000235
25207000,0.0324,0.013523,0.002678,0.000431,0.000353
25208000,0.0324,0.013523,0.002678,0.000431,0.000470
25209000,0.0324,0.013523,0.002678,0.000431,0.000353
25210000,0.0324,0.013523,0.002678,0.000431,0.000235
25211000,0.0324,0.013523,0.002678,0.000431,0.000353
25212000,0.0324,0.013523,0.002678,0.000431,0.000353
25213000,0.0324,0.013523,0.002678,0.000431,0.000235
25214000,0.0324,0.013523,0.002678,0.000431,0.000353
25215000,0.0324,0.013523,0.002678,0.000431,0.000470
25216000,0.0324,0.013523,0.002678,0.000431,0.000353
25217000,0.0324,0.013523,0.002678,0.000431,0.000118
25218000,0.0324,0.013523,0.002678,0.000431,0.000470
25219000,0.0324,0.013523,0.002678,0.000431,0.000353
25220000,0.0324,0.013523,0.002678,0.000431,0.000235
25221000,0.0324,0.013523,0.002678,0.000431,0.000353
25222000,0.0324,0.013523,0.002678,0.000431,0.000470
25223000,0.0324,0.013523,0.002678,0.000431,0.000353
25224000,0.0324,0.013523,0.002678,0.000431,0.000118
25225000,0.0324,0.013523,0.002678,0.000431,0.000470
25226000,0.0324,0.013523,0.002678,0.000431,0.000353
25227000,0.0324,0.013523,0.002678,0.000431,0.000235
25228000,0.0324,0.013523,0.002678,0.000431,0.000353
25229000,0.0324,0.013523,0.002678,0.000431,0.000470
25230000,0.0324,0.013523,0.002678,0.000431,0.000353
25231000,0.0324,0.013523,0.002678,0.000431,0.000118
25232000,0.0324,0.013523,0.002678,0.000431,0.000470
25233000,0.0324,0.013523,0.002678,0.000431,0.000353
25234000,0.0324,0.013523,0.002678,0.000431,0.000235
25235000,0.0324,0.013523,0.002678,0.000431,0.000353
25236000,0.0324,0.013523,0.002678,0.000431,0.000470
25237000,0.0324,0.013523,0.002678,0.000431,0.000235
25238000,0.0324,0.013523,0.002678,0.000431,0.000235
25239000,0.0324,0.013523,0.002678,0.000431,0.000470
25240000,0.0324,0.013523,0.002678,0.000431,0.000353
25241000,0.0324,0.013523,0.002678,0.000431,0.000235
25242000,0.0324,0.013523,0.002678,0.000431,0.000353
25243000,0.0324,0.013523,0.002678,0.000431,0.000470
25244000,0.0324,0.013523,0.002678,0.000431,0.000235
25245000,0.0324,0.013523,0.002678,0.000431,0.000235
25246000,0.0324,0.013523,0.002678,0.000431,0.000470
25247000,0.0324,0.013523,0.002678,0.000431,0.000353
25248000,0.0324,0.013523,0.002678,0.000431,0.000235
25249000,0.0324,0.013523,0.002678,0.000431,0.000353
25250000,0.0324,0.013523,0.002678,0.000431,0.000470
25251000,0.0324,0.013523,0.002678,0.000431,0.000235
25252000,0.0324,0.013523,0.002678,0.000431,0.000235
25253000,0.0324,0.013523,0.002678,0.000431,0.000470
25254000,0.0324,0.013523,0.002678,0.000431,0.000353
25255000,0.0324,0.013523,0.002678,0.000431,0.000235
25256000,0.0324,0.013523,0.002678,0.000431,0.000353
25257000,0.0324,0.013523,0.002678,0.000431,0.000470
25258000,0.0324,0.013523,0.002678,0.000431,0.000235
25259000,0.0324,0.013523,0.002678,0.000431,0.000235
25260000,0.0324,0.013523,0.002678,0.000431,0.000470
25261000,0.0324,0.013523,0.002678,0.000431,0.000353
25262000,0.0324,0.013523,0.002678,0.000431,0.000235
25263000,0.0324,0.013523,0.002678,0.000431,0.000353
25264000,0.0324,0.013523,0.002678,0.000431,0.000470
25265000,0.0324,0.013523,0.002678,0.000431,0.000235
25266000,0.0324,0.013523,0.002678,0.000431,0.000235
25267000,0.0324,0.013523,0.002678,0.000431,0.000470
25268000,0.0324,0.013523,0.002678,0.000431,0.000353
25269000,0.0324,0.013523,0.002678,0.000431,0.000235
25270000,0.0324,0.013523,0.002678,0.000431,0.000353
25271000,0.0324,0.013523,0.002678,0.000431,0.000470
25272000,0.0324,0.013523,0.002678,0.000431,0.000235
25273000,0.0324,0.013523,0.002678,0.000431,0.000235
25274000,0.0324,0.013523,0.002678,0.000431,0.000470
25275000,0.0324,0.013523,0.002678,0.000431,0.000353
25276000,0.0324,0.013523,0.002678,0.000431,0.000235
25277000,0.0324,0.013523,0.002678,0.000431,0.000353
25278000,0.0324,0.013523,0.002678,0.000431,0.000470
25279000,0.0324,0.013523,0.002678,0.000431,0.000118
25280000,0.0324,0.013523,0.002678,0.000431,0.000353
25281000,0.0324,0.013523,0.002678,0.000431,0.000470
25282000,0.0324,0.013523,0.002678,0.000431,0.000353
25283000,0.0324,0.013523,0.002678,0.000431,0.000235
25284000,0.0324,0.013523,0.002678,0.000431,0.000353
25285000,0.0324,0.013523,0.002678,0.000431,0.000470
25286000,0.0324,0.013523,0.002678,0.000431,0.000118
25287000,0.0324,0.013523,0.002678,0.000431,0.000353
25288000,0.0324,0.013523,0.002678,0.000431,0.000470
25289000,0.0324,0.013523,0.002678,0.000431,0.000353
25290000,0.0324,0.013523,0.002678,0.000431,0.000235
25291000,0.0324,0.013523,0.002678,0.000431,0.000353
25292000,0.0324,0.013523,0.002678,0.000431,0.000470
25293000,0.0324,0.013523,0.002678,0.000431,0.000118
25294000,0.0324,0.013523,0.002678,0.000431,0.000353
25295000,0.0324,0.013523,0.002678,0.000431,0.000470
25296000,0.0324,0.013523,0.002678,0.000431,0.000353
25297000,0.0324,0.013523,0.002678,0.000431,0.000235
25298000,0.0324,0.013523,0.002678,0.000431,0.000353
25299000,0.0324,0.013523,0.002678,0.000431,0.000470
25300000,0.0324,0.013523,0.002678,0.000431,0.000118
25301000,0.0324,0.013523,0.002678,0.000431,0.000353
25302000,0.0324,0.013523,0.002678,0.000431,0.000470
25303000,0.0324,0.013523,0.002678,0.000431,0.000353
25304000,0.0324,0.013523,0.002678,0.000431,0.000235
25305000,0.0324,0.013523,0.002678,0.000431,0.000353
25306000,0.0324,0.013523,0.002678,0.000431,0.000353
25307000,0.0324,0.013523,0.002678,0.000431,0.000235
25308000,0.0324,0.013523,0.002678,0.000431,0.000353
25309000,0.0324,0.013523,0.002678,0.000431,0.000470
25310000,0.0324,0.013523,0.002678,0.000431,0.000353
25311000,0.0324,0.013523,0.002678,0.000431,0.000235
25312000,0.0324,0.013523,0.002678,0.000431,0.000353
25313000,0.0324,0.013523,0.002678,0.000431,0.000353
25314000,0.0324,0.013523,0.002678,0.000431,0.000235
25315000,0.0324,0.013523,0.002678,0.000431,0.000353
25316000,0.0324,0.013523,0.002678,0.000431,0.000470
25317000,0.0324,0.013523,0.002678,0.000431,0.000353
25318000,0.0324,0.013523,0.002678,0.000431,0.000235
25319000,0.0324,0.013523,0.002678,0.000431,0.000353
25320000,0.0324,0.013523,0.002678,0.000431,0.000353
25321000,0.0324,0.013523,0.002678,0.000431,0.000235
25322000,0.0324,0.013523,0.002678,0.000431,0.000353
25323000,0.0324,0.013523,0.002678,0.000431,0.000470
25324000,0.0324,0.013523,0.002678,0.000431,0.000353
25325000,0.0324,0.013523,0.002678,0.000431,0.000235
25326000,0.0324,0.013523,0.002678,0.000431,0.000353
25327000,0.0324,0.013523,0.002678,0.000431,0.000353
25328000,0.0324,0.013523,0.002678,0.000431,0.000235
25329000,0.0324,0.013523,0.002678,0.000431,0.000353
25330000,0.0324,0.013523,0.002678,0.000431,0.000470
25331000,0.0324,0.013523,0.002678,0.000431,0.000353
25332000,0.0324,0.013523,0.002678,0.000431,0.000235
25333000,0.0324,0.013523,0.002678,0.000431,0.000353
25334000,0.0324,0.013523,0.002678,0.000431,0.000353
25335000,0.0324,0.013523,0.002678,0.000431,0.000235
25336000,0.0324,0.013523,0.002678,0.000431,0.000353
25337000,0.0324,0.013523,0.002678,0.000431,0.000470
25338000,0.0324,0.013523,0.002678,0.000431,0.000353
25339000,0.0324,0.013523,0.002678,0.000431,0.000235
25340000,0.0324,0.013523,0.002678,0.000431,0.000353
25341000,0.0324,0.013523,0.002678,0.000431,0.000353
25342000,0.0324,0.013523,0.002678,0.000431,0.000235
25343000,0.0324,0.013523,0.002678,0.000431,0.000353
25344000,0.0324,0.013523,0.002678,0.000431,0.000470
25345000,0.0324,0.013523,0.002678,0.000431,0.000353
25346000,0.0324,0.013523,0.002678,0.000431,0.000235
25347000,0.0324,0.013523,0.002678,0.000431,0.000353
25348000,0.0324,0.013523,0.002678,0.000431,0.000353
25349000,0.0324,0.013523,0.002678,0.000431,0.000235
25350000,0.0324,0.013523,0.002678,0.000431,0.000353
25351000,0.0324,0.013523,0.002678,0.000431,0.000470
25352000,0.0324,0.013523,0.002678,0.000431,0.000353
25353000,0.0324,0.013523,0.002678,0.000431,0.000118
25354000,0.0324,0.013523,0.002678,0.000431,0.000470
25355000,0.0324,0.013523,0.002678,0.000431,0.000353
25356000,0.0324,0.013523,0.002678,0.000431,0.000235
25357000,0.0324,0.013523,0.002678,0.000431,0.000353
25358000,0.0324,0.013523,0.002678,0.000431,0.000470
25359000,0.0324,0.013523,0.002678,0.000431,0.000353
25360000,0.0324,0.013523,0.002678,0.000431,0.000118
25361000,0.0324,0.013523,0.002678,0.000431,0.000470
25362000,0.0324,0.013523,0.002678,0.000431,0.000353
25363000,0.0324,0.013523,0.002678,0.000431,0.000235
25364000,0.0324,0.013523,0.002678,0.000431,0.000353
25365000,0.0324,0.013523,0.002678,0.000431,0.000470
25366000,0.0324,0.013523,0.002678,0.000431,0.000353
25367000,0.0324,0.013523,0.002678,0.000431,0.000118
25368000,0.0324,0.013523,0.002678,0.000431,0.000470
25369000,0.0324,0.013523,0.002678,0.000431,0.000353
25370000,0.0324,0.013523,0.002678,0.000431,0.000235
25371000,0.0324,0.013523,0.002678,0.000431,0.000353
25372000,0.0324,0.013523,0.002678,0.000431,0.000470
25373000,0.0324,0.013523,0.002678,0.000431,0.000353
25374000,0.0324,0.013523,0.002678,0.000431,0.000118
25375000,0.0324,0.013523,0.002678,0.000431,0.000470
25376000,0.0324,0.013523,0.002678,0.000431,0.000353
25377000,0.0324,0.013523,0.002678,0.000431,0.000235
25378000,0.0324,0.013523,0.002678,0.000431,0.000353
25379000,0.0324,0.013523,0.002678,0.000431,0.000470
25380000,0.0324,0.013523,0.002678,0.000431,0.000235
25381000,0.0324,0.013523,0.002678,0.000431,0.000235
25382000,0.0324,0.013523,0.002678,0.000431,0.000470
25383000,0.0324,0.013523,0.002678,0.000431,0.000353
25384000,0.0324,0.013523,0.002678,0.000431,0.000235
25385000,0.0324,0.013523,0.002678,0.000431,0.000353
25386000,0.0324,0.013523,0.002678,0.000431,0.000470
25387000,0.0324,0.013523,0.002678,0.000431,0.000235
25388000,0.0324,0.013523,0.002678,0.000431,0.000235
25389000,0.0324,0.013523,0.002678,0.000431,0.000470
25390000,0.0324,0.013523,0.002678,0.000431,0.000353
25391000,0.0324,0.013523,0.002678,0.000431,0.000235
25392000,0.0324,0.013523,0.002678,0.000431,0.000353
25393000,0.0324,0.013523,0.002678,0.000431,0.000470
25394000,0.0324,0.013523,0.002678,0.000431,0.000235
25395000,0.0324,0.013523,0.002678,0.000431,0.000235
25396000,0.0324,0.013523,0.002678,0.000431,0.000470
25397000,0.0324,0.013523,0.002678,0.000431,0.000353
25398000,0.0324,0.013523,0.002678,0.000431,0.000235
25399000,0.0324,0.013523,0.002678,0.000431,0.000353
25400000,0.0324,0.013523,0.002678,0.000431,0.000470
25401000,0.0324,0.013523,0.002678,0.000431,0.000235
25402000,0.0324,0.013523,0.002678,0.000431,0.000235
25403000,0.0324,0.013523,0.002678,0.000431,0.000470
25404000,0.0324,0.013523,0.002678,0.000431,0.000353
25405000,0.0324,0.013523,0.002678,0.000431,0.000235
25406000,0.0324,0.013523,0.002678,0.000431,0.000353
25407000,0.0324,0.013523,0.002678,0.000431,0.000470
25408000,0.0324,0.013523,0.002678,0.000431,0.000235
25409000,0.0324,0.013523,0.002678,0.000431,0.000235
25410000,0.0324,0.013523,0.002678,0.000431,0.000470
25411000,0.0324,0.013523,0.002678,0.000431,0.000353
25412000,0.0324,0.013523,0.002678,0.000431,0.000235
25413000,0.0324,0.013523,0.002678,0.000431,0.000353
25414000,0.0324,0.013523,0.002678,0.000431,0.000470
25415000,0.0324,0.013523,0.002678,0.000431,0.000235
25416000,0.0324,0.013523,0.002678,0.000431,0.000235
25417000,0.0324,0.013523,0.002678,0.000431,0.000470
25418000,0.0324,0.013523,0.002678,0.000431,0.000353
25419000,0.0324,0.013523,0.002678,0.000431,0.000235
25420000,0.0324,0.013523,0.002678,0.000431,0.000353
25421000,0.0324,0.013523,0.002678,0.000431,0.000470
25422000,0.0324,0.013523,0.002678,0.000431,0.000118
25423000,0.0324,0.013523,0.002678,0.000431,0.000353
25424000,0.0324,0.013523,0.002678,0.000431,0.000470
25425000,0.0324,0.013523,0.002678,0.000431,0.000353
25426000,0.0324,0.013523,0.002678,0.000431,0.000235
25427000,0.0324,0.013523,0.002678,0.000431,0.000353
25428000,0.0324,0.013523,0.002678,0.000431,0.000470
25429000,0.0324,0.013523,0.002678,0.000431,0.000118
25430000,0.0324,0.013523,0.002678,0.000431,0.000353
25431000,0.0324,0.013523,0.002678,0.000431,0.000470
25432000,0.0324,0.013523,0.002678,0.000431,0.000353
25433000,0.0324,0.013523,0.002678,0.000431,0.000235
25434000,0.0324,0.013523,0.002678,0.000431,0.000353
25435000,0.0324,0.013523,0.002678,0.000431,0.000470
25436000,0.0324,0.013523,0.002678,0.000431,0.000118
25437000,0.0324,0.013523,0.002678,0.000431,0.000353
25438000,0.0324,0.013523,0.002678,0.000431,0.000470
25439000,0.0324,0.013523,0.002678,0.000431,0.000353
25440000,0.0324,0.013523,0.002678,0.000431,0.000235
25441000,0.0324,0.013523,0.002678,0.000431,0.000353
25442000,0.0324,0.013523,0.002678,0.000431,0.000353
25443000,0.0324,0.013523,0.002678,0.000431,0.000235
25444000,0.0324,0.013523,0.002678,0.000431,0.000353
25445000,0.0324,0.013523,0.002678,0.000431,0.000470
25446000,0.0324,0.013523,0.002678,0.000431,0.000353
25447000,0.0324,0.013523,0.002678,0.000431,0.000235
25448000,0.0324,0.013523,0.002678,0.000431,0.000353
25449000,0.0324,0.013523,0.002678,0.000431,0.000353
25450000,0.0324,0.013523,0.002678,0.000431,0.000235
25451000,0.0324,0.013523,0.002678,0.000431,0.000353
25452000,0.0324,0.013523,0.002678,0.000431,0.000470
25453000,0.0324,0.013523,0.002678,0.000431,0.000353
25454000,0.0324,0.013523,0.002678,0.000431,0.000235
25455000,0.0324,0.013523,0.002678,0.000431,0.000353
25456000,0.0324,0.013523,0.002678,0.000431,0.000353
25457000,0.0324,0.013523,0.002678,0.000431,0.000235
25458000,0.0324,0.013523,0.002678,0.000431,0.000353
25459000,0.0324,0.013523,0.002678,0.000431,0.000470
25460000,0.0324,0.013523,0.002678,0.000431,0.000353
25461000,0.0324,0.013523,0.002678,0.000431,0.000235
25462000,0.0324,0.013523,0.002678,0.000431,0.000353
25463000,0.0324,0.013523,0.002678,0.000431,0.000353
25464000,0.0324,0.013523,0.002678,0.000431,0.000235
25465000,0.0324,0.013523,0.002678,0.000431,0.000353
25466000,0.0324,0.013523,0.002678,0.000431,0.000470
25467000,0.0324,0.013523,0.002678,0.000431,0.000353
25468000,0.0324,0.013523,0.002678,0.000431,0.000235
25469000,0.0324,0.013523,0.002678,0.000431,0.000353
25470000,0.0324,0.013523,0.002678,0.000431,0.000353
25471000,0.0324,0.013523,0.002678,0.000431,0.000235
25472000,0.0324,0.013523,0.002678,0.000431,0.000353
25473000,0.0324,0.013523,0.002678,0.000431,0.000470
25474000,0.0324,0.013523,0.002678,0.000431,0.000353
25475000,0.0324,0.013523,0.002678,0.000431,0.000235
25476000,0.0324,0.013523,0.002678,0.000431,0.000353
25477000,0.0324,0.013523,0.002678,0.000431,0.000353
25478000,0.0324,0.013523,0.002678,0.000431,0.000235
25479000,0.0324,0.013523,0.002678,0.000431,0.000353
25480000,0.0324,0.013523,0.002678,0.000431,0.000470
25481000,0.0324,0.013523,0.002678,0.000431,0.000353
25482000,0.0324,0.013523,0.002678,0.000431,0.000235
25483000,0.0324,0.013523,0.002678,0.000431,0.000353
25484000,0.0324,0.013523,0.002678,0.000431,0.000353
25485000,0.0324,0.013523,0.002678,0.000431,0.000235
25486000,0.0324,0.013523,0.002678,0.000431,0.000353
25487000,0.0324,0.013523,0.002678,0.000431,0.000470
25488000,0.0324,0.013523,0.002678,0.000431,0.000353
25489000,0.0324,0.013523,0.002678,0.000431,0.000235
25490000,0.0324,0.013523,0.002678,0.000431,0.000353
25491000,0.0324,0.013523,0.002678,0.000431,0.000353
25492000,0.0324,0.013523,0.002678,0.000431,0.000235
25493000,0.0324,0.013523,0.002678,0.000431,0.000353
25494000,0.0324,0.013523,0.002678,0.000431,0.000470
25495000,0.0324,0.013523,0.002678,0.000431,0.000353
25496000,0.0324,0.013523,0.002678,0.000431,0.000118
25497000,0.0324,0.013523,0.002678,0.000431,0.000470
25498000,0.0324,0.013523,0.002678,0.000431,0.000353
25499000,0.0324,0.013523,0.002678,0.000431,0.000235
25500000,0.0324,0.013523,0.002678,0.000431,0.000353
25501000,0.0324,0.013523,0.002678,0.000431,0.000470
25502000,0.0324,0.013523,0.002678,0.000431,0.000353
25503000,0.0324,0.013523,0.002678,0.000431,0.000118
25504000,0.0324,0.013523,0.002678,0.000431,0.000470
25505000,0.0324,0.013523,0.002678,0.000431,0.000353
25506000,0.0324,0.013523,0.002678,0.000431,0.000235
25507000,0.0324,0.013523,0.002678,0.000431,0.000353
25508000,0.0324,0.013523,0.002678,0.000431,0.000470
25509000,0.0324,0.013523,0.002678,0.000431,0.000353
25510000,0.0324,0.013523,0.002678,0.000431,0.000118
25511000,0.0324,0.013523,0.002678,0.000431,0.000470
25512000,0.0324,0.013523,0.002678,0.000431,0.000353
25513000,0.0324,0.013523,0.002678,0.000431,0.000235
25514000,0.0324,0.013523,0.002678,0.000431,0.000353
25515000,0.0324,0.013523,0.002678,0.000431,0.000470
25516000,0.0324,0.013523,0.002678,0.000431,0.000235
25517000,0.0324,0.013523,0.002678,0.000431,0.000235
25518000,0.0324,0.013523,0.002678,0.000431,0.000470
25519000,0.0324,0.013523,0.002678,0.000431,0.000353
25520000,0.0324,0.013523,0.002678,0.000431,0.000235
25521000,0.0324,0.013523,0.002678,0.000431,0.000353
25522000,0.0324,0.013523,0.002678,0.000431,0.000470
25523000,0.0324,0.013523,0.002678,0.000431,0.000235
25524000,0.0324,0.013523,0.002678,0.000431,0.000235
25525000,0.0324,0.013523,0.002678,0.000431,0.000470
25526000,0.0324,0.013523,0.002678,0.000431,0.000353
25527000,0.0324,0.013523,0.002678,0.000431,0.000235
25528000,0.0324,0.013523,0.002678,0.000431,0.000353
25529000,0.0324,0.013523,0.002678,0.000431,0.000470
25530000,0.0324,0.013523,0.002678,0.000431,0.000235
25531000,0.0324,0.013523,0.002678,0.000431,0.000235
25532000,0.0324,0.013523,0.002678,0.000431,0.000470
25533000,0.0324,0.013523,0.002678,0.000431,0.000353
25534000,0.0324,0.013523,0.002678,0.000431,0.000235
25535000,0.0324,0.013523,0.002678,0.000431,0.000353
25536000,0.0324,0.013523,0.002678,0.000431,0.000470
25537000,0.0324,0.013523,0.002678,0.000431,0.000235
25538000,0.0324,0.013523,0.002678,0.000431,0.000235
25539000,0.0324,0.013523,0.002678,0.000431,0.000470
25540000,0.0324,0.013523,0.002678,0.000431,0.000353
25541000,0.0324,0.013523,0.002678,0.000431,0.000235
25542000,0.0324,0.013523,0.002678,0.000431,0.000353
25543000,0.0324,0.013523,0.002678,0.000431,0.000470
25544000,0.0324,0.013523,0.002678,0.000431,0.000235
25545000,0.0324,0.013523,0.002678,0.000431,0.000235
25546000,0.0324,0.013523,0.002678,0.000431,0.000470
25547000,0.0324,0.013523,0.002678,0.000431,0.000353
25548000,0.0324,0.013523,0.002678,0.000431,0.000235
25549000,0.0324,0.013523,0.002678,0.000431,0.000353
25550000,0.0324,0.013523,0.002678,0.000431,0.000470
25551000,0.0324,0.013523,0.002678,0.000431,0.000235
25552000,0.0324,0.013523,0.002678,0.000431,0.000235
25553000,0.0324,0.013523,0.002678,0.000431,0.000470
25554000,0.0324,0.013523,0.002678,0.000431,0.000353
25555000,0.0324,0.013523,0.002678,0.000431,0.000235
25556000,0.0324,0.013523,0.002678,0.000431,0.000353
25557000,0.0324,0.013523,0.002678,0.000431,0.000470
25558000,0.0324,0.013523,0.002678,0.000431,0.000118
25559000,0.0324,0.013523,0.002678,0.000431,0.000353
25560000,0.0324,0.013523,0.002678,0.000431,0.000470
25561000,0.0324,0.013523,0.002678,0.000431,0.000353
25562000,0.0324,0.013523,0.002678,0.000431,0.000235
25563000,0.0324,0.013523,0.002678,0.000431,0.000353
25564000,0.0324,0.013523,0.002678,0.000431,0.000470
25565000,0.0324,0.013523,0.002678,0.000431,0.000118
25566000,0.0324,0.013523,0.002678,0.000431,0.000353
25567000,0.0324,0.013523,0.002678,0.000431,0.000470
25568000,0.0324,0.013523,0.002678,0.000431,0.000353
25569000,0.0324,0.013523,0.002678,0.000431,0.000235
25570000,0.0324,0.013523,0.002678,0.000431,0.000353
25571000,0.0324,0.013523,0.002678,0.000431,0.000470
25572000,0.0324,0.013523,0.002678,0.000431,0.000118
25573000,0.0324,0.013523,0.002678,0.000431,0.000353
25574000,0.0324,0.013523,0.002678,0.000431,0.000470
25575000,0.0324,0.013523,0.002678,0.000431,0.000353
25576000,0.0324,0.013523,0.002678,0.000431,0.000235
25577000,0.0324,0.013523,0.002678,0.000431,0.000353
25578000,0.0324,0.013523,0.002678,0.000431,0.000470
25579000,0.0324,0.013523,0.002678,0.000431,0.000118
25580000,0.0324,0.013523,0.002678,0.000431,0.000353
25581000,0.0324,0.013523,0.002678,0.000431,0.000470
25582000,0.0324,0.013523,0.002678,0.000431,0.000353
25583000,0.0324,0.013523,0.002678,0.000431,0.000235
25584000,0.0324,0.013523,0.002678,0.000431,0.000353
25585000,0.0324,0.013523,0.002678,0.000431,0.000353
25586000,0.0324,0.013523,0.002678,0.000431,0.000235
25587000,0.0324,0.013523,0.002678,0.000431,0.000353
25588000,0.0324,0.013523,0.002678,0.000431,0.000470
25589000,0.0324,0.013523,0.002678,0.000431,0.000353
25590000,0.0324,0.013523,0.002678,0.000431,0.000235
25591000,0.0324,0.013523,0.002678,0.000431,0.000353
25592000,0.0324,0.013523,0.002678,0.000431,0.000353
25593000,0.0324,0.013523,0.002678,0.000431,0.000235
25594000,0.0324,0.013523,0.002678,0.000431,0.000353
25595000,0.0324,0.013523,0.002678,0.000431,0.000470
25596000,0.0324,0.013523,0.002678,0.000431,0.000353
25597000,0.0324,0.013523,0.002678,0.000431,0.000235
25598000,0.0324,0.013523,0.002678,0.000431,0.000353
25599000,0.0324,0.013523,0.002678,0.000431,0.000353
25600000,0.0324,0.013523,0.002678,0.000431,0.000235
25601000,0.0324,0.013523,0.002678,0.000431,0.000353
25602000,0.0324,0.013523,0.002678,0.000431,0.000470
25603000,0.0324,0.013523,0.002678,0.000431,0.000353
25604000,0.0324,0.013523,0.002678,0.000431,0.000235
25605000,0.0324,0.013523,0.002678,0.000431,0.000353
25606000,0.0324,0.013523,0.002678,0.000431,0.000353
25607000,0.0324,0.013523,0.002678,0.000431,0.000235
25608000,0.0324,0.013523,0.002678,0.000431,0.000353
25609000,0.0324,0.013523,0.002678,0.000431,0.000470
25610000,0.0324,0.013523,0.002678,0.000431,0.000353
25611000,0.0324,0.013523,0.002678,0.000431,0.000235
25612000,0.0324,0.013523,0.002678,0.000431,0.000353
25613000,0.0324,0.013523,0.002678,0.000431,0.000353
25614000,0.0324,0.013523,0.002678,0.000431,0.000235
25615000,0.0324,0.013523,0.002678,0.000431,0.000353
25616000,0.0324,0.013523,0.002678,0.000431,0.000470
25617000,0.0324,0.013523,0.002678,0.000431,0.000353
25618000,0.0324,0.013523,0.002678,0.000431,0.000235
25619000,0.0324,0.013523,0.002678,0.000431,0.000353
25620000,0.0324,0.013523,0.002678,0.000431,0.000353
25621000,0.0324,0.013523,0.002678,0.000431,0.000235
25622000,0.0324,0.013523,0.002678,0.000431,0.000353
25623000,0.0324,0.013523,0.002678,0.000431,0.000470
25624000,0.0324,0.013523,0.002678,0.000431,0.000353
25625000,0.0324,0.013523,0.002678,0.000431,0.000235
25626000,0.0324,0.013523,0.002678,0.000431,0.000353
25627000,0.0324,0.013523,0.002678,0.000431,0.000353
25628000,0.0324,0.013523,0.002678,0.000431,0.000235
25629000,0.0324,0.013523,0.002678,0.000431,0.000353
25630000,0.0324,0.013523,0.002678,0.000431,0.000470
25631000,0.0324,0.013523,0.002678,0.000431,0.000353
25632000,0.0324,0.013523,0.002678,0.000431,0.000118
25633000,0.0324,0.013523,0.002678,0.000431,0.000470
25634000,0.0324,0.013523,0.002678,0.000431,0.000353
25635000,0.0324,0.013523,0.002678,0.000431,0.000235
25636000,0.0324,0.013523,0.002678,0.000431,0.000353
25637000,0.0324,0.013523,0.002678,0.000431,0.000470
25638000,0.0324,0.013523,0.002678,0.000431,0.000353
25639000,0.0324,0.013523,0.002678,0.000431,0.000118
25640000,0.0324,0.013523,0.002678,0.000431,0.000470
25641000,0.0324,0.013523,0.002678,0.000431,0.000353
25642000,0.0324,0.013523,0.002678,0.000431,0.000235
25643000,0.0324,0.013523,0.002678,0.000431,0.000353
25644000,0.0324,0.013523,0.002678,0.000431,0.000470
25645000,0.0324,0.013523,0.002678,0.000431,0.000235
25646000,0.0324,0.013523,0.002678,0.000431,0.000235
25647000,0.0324,0.013523,0.002678,0.000431,0.000470
25648000,0.0324,0.013523,0.002678,0.000431,0.000353
25649000,0.0324,0.013523,0.002678,0.000431,0.000235
25650000,0.0324,0.013523,0.002678,0.000431,0.000353
25651000,0.0324,0.013523,0.002678,0.000431,0.000470
25652000,0.0324,0.013523,0.002678,0.000431,0.000118
25653000,0.0324,0.013523,0.002678,0.000431,0.000353
25654000,0.0324,0.013523,0.002678,0.000431,0.000470
25655000,0.0324,0.013523,0.002678,0.000431,0.000353
25656000,0.0324,0.013523,0.002678,0.000431,0.000235
25657000,0.0324,0.013523,0.002678,0.000431,0.000353
25658000,0.0324,0.013523,0.002678,0.000431,0.000353
25659000,0.0324,0.013523,0.002678,0.000431,0.000235
25660000,0.0324,0.013523,0.002678,0.000431,0.000353
25661000,0.0324,0.013523,0.002678,0.000431,0.000470
25662000,0.0324,0.013523,0.002678,0.000431,0.000353
25663000,0.0324,0.013523,0.002678,0.000431,0.000235
25664000,0.0324,0.013523,0.002678,0.000431,0.000353
25665000,0.0324,0.013523,0.002678,0.000431,0.000353
25666000,0.0324,0.013523,0.002678,0.000431,0.000235
25667000,0.0324,0.013523,0.002678,0.000431,0.000353
25668000,0.0324,0.013523,0.002678,0.000431,0.000470
25669000,0.0324,0.013523,0.002678,0.000431,0.000353
25670000,0.0324,0.013523,0.002678,0.000431,0.000235
25671000,0.0324,0.013523,0.002678,0.000431,0.000353
25672000,0.0324,0.013523,0.002678,0.000431,0.000353
25673000,0.0324,0.013523,0.002678,0.000431,0.000235
25674000,0.0324,0.013523,0.002678,0.000431,0.000353
25675000,0.0324,0.013523,0.002678,0.000431,0.000470
25676000,0.0324,0.013523,0.002678,0.000431,0.000353
25677000,0.0324,0.013523,0.002678,0.000431,0.000118
25678000,0.0324,0.013523,0.002678,0.000431,0.000470
25679000,0.0324,0.013523,0.002678,0.000431,0.000353
25680000,0.0324,0.013523,0.002678,0.000431,0.000235
25681000,0.0324,0.013523,0.002678,0.000431,0.000353
25682000,0.0324,0.013523,0.002678,0.000431,0.000470
25683000,0.0324,0.013523,0.002678,0.000431,0.000235
25684000,0.0324,0.013523,0.002678,0.000431,0.000235
25685000,0.0324,0.013523,0.002678,0.000431,0.000470
25686000,0.0324,0.013523,0.002678,0.000431,0.000353
25687000,0.0324,0.013523,0.002678,0.000431,0.000235
25688000,0.0324,0.013523,0.002678,0.000431,0.000353
25689000,0.0324,0.013523,0.002678,0.000431,0.000470
25690000,0.0324,0.013523,0.002678,0.000431,0.000235
25691000,0.0324,0.013523,0.002678,0.000431,0.000235
25692000,0.0324,0.013523,0.002678,0.000431,0.000470
25693000,0.0324,0.013523,0.002678,0.000431,0.000353
25694000,0.0324,0.013523,0.002678,0.000431,0.000235
25695000,0.0324,0.013523,0.002678,0.000431,0.000353
25696000,0.0324,0.013523,0.002678,0.000431,0.000470
25697000,0.0324,0.013523,0.002678,0.000431,0.000118
25698000,0.0324,0.013523,0.002678,0.000431,0.000353
25699000,0.0324,0.013523,0.002678,0.000431,0.000470
25700000,0.0324,0.013523,0.002678,0.000431,0.000353
25701000,0.0324,0.013523,0.002678,0.000431,0.000235
25702000,0.0324,0.013523,0.002678,0.000431,0.000353
25703000,0.0324,0.013523,0.002678,0.000431,0.000353
25704000,0.0324,0.013523,0.002678,0.000431,0.000235
25705000,0.0324,0.013523,0.002678,0.000431,0.000353
25706000,0.0324,0.013523,0.002678,0.000431,0.000470
25707000,0.0324,0.013523,0.002678,0.000431,0.000353
25708000,0.0324,0.013523,0.002678,0.000431,0.000235
25709000,0.0324,0.013523,0.002678,0.000431,0.000353
25710000,0.0324,0.013523,0.002678,0.000431,0.000353
25711000,0.0324,0.013523,0.002678,0.000431,0.000235
25712000,0.0324,0.013523,0.002678,0.000431,0.000353
25713000,0.0324,0.013523,0.002678,0.000431,0.000470
25714000,0.0324,0.013523,0.002678,0.000431,0.000353
25715000,0.0324,0.013523,0.002678,0.000431,0.000235
25716000,0.0324,0.013523,0.002678,0.000431,0.000353
25717000,0.0324,0.013523,0.002678,0.000431,0.000353
25718000,0.0324,0.013523,0.002678,0.000431,0.000235
25719000,0.0324,0.013523,0.002678,0.000431,0.000353
25720000,0.0324,0.013523,0.002678,0.000431,0.000470
25721000,0.0324,0.013523,0.002678,0.000431,0.000353
25722000,0.0324,0.013523,0.002678,0.000431,0.000118
25723000,0.0324,0.013523,0.002678,0.000431,0.000470
25724000,0.0324,0.013523,0.002678,0.000431,0.000353
25725000,0.0324,0.013523,0.002678,0.000431,0.000235
25726000,0.0324,0.013523,0.002678,0.000431,0.000353
25727000,0.0324,0.013523,0.002678,0.000431,0.000470
25728000,0.0324,0.013523,0.002678,0.000431,0.000235
25729000,0.0324,0.013523,0.002678,0.000431,0.000235
25730000,0.0324,0.013523,0.002678,0.000431,0.000470
25731000,0.0324,0.013523,0.002678,0.000431,0.000353
25732000,0.0324,0.013523,0.002678,0.000431,0.000235
25733000,0.0324,0.013523,0.002678,0.000431,0.000353
25734000,0.0324,0.013523,0.002678,0.000431,0.000470
25735000,0.0324,0.013523,0.002678,0.000431,0.000235
25736000,0.0324,0.013523,0.002678,0.000431,0.000235
25737000,0.0324,0.013523,0.002678,0.000431,0.000470
25738000,0.0324,0.013523,0.002678,0.000431,0.000353
25739000,0.0324,0.013523,0.002678,0.000431,0.000235
25740000,0.0324,0.013523,0.002678,0.000431,0.000353
25741000,0.0324,0.013523,0.002678,0.000431,0.000353
25742000,0.0324,0.013523,0.002678,0.000431,0.000235
25743000,0.0324,0.013523,0.002678,0.000431,0.000353
25744000,0.0324,0.013523,0.002678,0.000431,0.000470
25745000,0.0324,0.013523,0.002678,0.000431,0.000353
25746000,0.0324,0.013523,0.002678,0.000431,0.000235
25747000,0.0324,0.013523,0.002678,0.000431,0.000353
25748000,0.0324,0.013523,0.002678,0.000431,0.000353
25749000,0.0324,0.013523,0.002678,0.000431,0.000235
25750000,0.0324,0.013523,0.002678,0.000431,0.000353
25751000,0.0324,0.013523,0.002678,0.000431,0.000470
25752000,0.0324,0.013523,0.002678,0.000431,0.000353
25753000,0.0324,0.013523,0.002678,0.000431,0.000235
25754000,0.0324,0.013523,0.002678,0.000431,0.000353
25755000,0.0324,0.013523,0.002678,0.000431,0.000353
25756000,0.0324,0.013523,0.002678,0.000431,0.000235
25757000,0.0324,0.013523,0.002678,0.000431,0.000353
25758000,0.0324,0.013523,0.002678,0.000431,0.000470
25759000,0.0324,0.013523,0.002678,0.000431,0.000353
25760000,0.0324,0.013523,0.002678,0.000431,0.000118
25761000,0.0324,0.013523,0.002678,0.000431,0.000470
25762000,0.0324,0.013523,0.002678,0.000431,0.000353
25763000,0.0324,0.013523,0.002678,0.000431,0.000235
25764000,0.0324,0.013523,0.002678,0.000431,0.000353
25765000,0.0324,0.013523,0.002678,0.000431,0.000470
25766000,0.0324,0.013523,0.002678,0.000431,0.000235
25767000,0.0324,0.013523,0.002678,0.000431,0.000235
25768000,0.0324,0.013523,0.002678,0.000431,0.000470
25769000,0.0324,0.013523,0.002678,0.000431,0.000353
25770000,0.0324,0.013523,0.002678,0.000431,0.000235
25771000,0.0324,0.013523,0.002678,0.000431,0.000353
25772000,0.0324,0.013523,0.002678,0.000431,0.000470
25773000,0.0324,0.013523,0.002678,0.000431,0.000235
25774000,0.0324,0.013523,0.002678,0.000431,0.000235
25775000,0.0324,0.013523,0.002678,0.000431,0.000470
25776000,0.0324,0.013523,0.002678,0.000431,0.000353
25777000,0.0324,0.013523,0.002678,0.000431,0.000235
25778000,0.0324,0.013523,0.002678,0.000431,0.000353
25779000,0.0324,0.013523,0.002678,0.000431,0.000470
25780000,0.0324,0.013523,0.002678,0.000431,0.000235
25781000,0.0324,0.013523,0.002678,0.000431,0.000235
25782000,0.0324,0.013523,0.002678,0.000431,0.000470
25783000,0.0324,0.013523,0.002678,0.000431,0.000353
25784000,0.0324,0.013523,0.002678,0.000431,0.000235
25785000,0.0324,0.013523,0.002678,0.000431,0.000353
25786000,0.0324,0.013523,0.002678,0.000431,0.000470
25787000,0.0324,0.013523,0.002678,0.000431,0.000235
25788000,0.0324,0.013523,0.002678,0.000431,0.000235
25789000,0.0324,0.013523,0.002678,0.000431,0.000470
25790000,0.0324,0.013523,0.002678,0.000431,0.000353
25791000,0.0324,0.013523,0.002678,0.000431,0.000235
25792000,0.0324,0.013523,0.002678,0.000431,0.000353
25793000,0.0324,0.013523,0.002678,0.000431,0.000470
25794000,0.0324,0.013523,0.002678,0.000431,0.000235
25795000,0.0324,0.013523,0.002678,0.000431,0.000235
25796000,0.0324,0.013523,0.002678,0.000431,0.000470
25797000,0.0324,0.013523,0.002678,0.000431,0.000353
25798000,0.0324,0.013523,0.002678,0.000431,0.000235
25799000,0.0324,0.013523,0.002678,0.000431,0.000353
25800000,0.0324,0.013523,0.002678,0.000431,0.000470
25801000,0.0324,0.013523,0.002678,0.000431,0.000235
25802000,0.0324,0.013523,0.002678,0.000431,0.000235
25803000,0.0324,0.013523,0.002678,0.000431,0.000470
25804000,0.0324,0.013523,0.002678,0.000431,0.000353
25805000,0.0324,0.013523,0.002678,0.000431,0.000235
25806000,0.0324,0.013523,0.002678,0.000431,0.000353
25807000,0.0324,0.013523,0.002678,0.000431,0.000470
25808000,0.0324,0.013523,0.002678,0.000431,0.000118
25809000,0.0324,0.013523,0.002678,0.000431,0.000353
25810000,0.0324,0.013523,0.002678,0.000431,0.000470
25811000,0.0324,0.013523,0.002678,0.000431,0.000353
25812000,0.0324,0.013523,0.002678,0.000431,0.000235
25813000,0.0324,0.013523,0.002678,0.000431,0.000353
25814000,0.0324,0.013523,0.002678,0.000431,0.000470
25815000,0.0324,0.013523,0.002678,0.000431,0.000118
25816000,0.0324,0.013523,0.002678,0.000431,0.000353
25817000,0.0324,0.013523,0.002678,0.000431,0.000470
25818000,0.0324,0.013523,0.002678,0.000431,0.000353
25819000,0.0324,0.013523,0.002678,0.000431,0.000235
25820000,0.0324,0.013523,0.002678,0.000431,0.000353
25821000,0.0324,0.013523,0.002678,0.000431,0.000470
25822000,0.0324,0.013523,0.002678,0.000431,0.000118
25823000,0.0324,0.013523,0.002678,0.000431,0.000353
25824000,0.0324,0.013523,0.002678,0.000431,0.000470
25825000,0.0324,0.013523,0.002678,0.000431,0.000353
25826000,0.0324,0.013523,0.002678,0.000431,0.000235
25827000,0.0324,0.013523,0.002678,0.000431,0.000353
25828000,0.0324,0.013523,0.002678,0.000431,0.000470
25829000,0.0324,0.013523,0.002678,0.000431,0.000118
25830000,0.0324,0.013523,0.002678,0.000431,0.000353
25831000,0.0324,0.013523,0.002678,0.000431,0.000470
25832000,0.0324,0.013523,0.002678,0.000431,0.000353
25833000,0.0324,0.013523,0.002678,0.000431,0.000235
25834000,0.0324,0.013523,0.002678,0.000431,0.000353
25835000,0.0324,0.013523,0.002678,0.000431,0.000353
25836000,0.0324,0.013523,0.002678,0.000431,0.000235
25837000,0.0324,0.013523,0.002678,0.000431,0.000353
25838000,0.0324,0.013523,0.002678,0.000431,0.000470
25839000,0.0324,0.013523,0.002678,0.000431,0.000353
25840000,0.0324,0.013523,0.002678,0.000431,0.000235
25841000,0.0324,0.013523,0.002678,0.000431,0.000353
25842000,0.0324,0.013523,0.002678,0.000431,0.000353
25843000,0.0324,0.013523,0.002678,0.000431,0.000235
25844000,0.0324,0.013523,0.002678,0.000431,0.000353
25845000,0.0324,0.013523,0.002678,0.000431,0.000470
25846000,0.0324,0.013523,0.002678,0.000431,0.000353
25847000,0.0324,0.013523,0.002678,0.000431,0.000235
25848000,0.0324,0.013523,0.002678,0.000431,0.000353
25849000,0.0324,0.013523,0.002678,0.000431,0.000353
25850000,0.0324,0.013523,0.002678,0.000431,0.000235
25851000,0.0324,0.013523,0.002678,0.000431,0.000353
25852000,0.0324,0.013523,0.002678,0.000431,0.000470
25853000,0.0324,0.013523,0.002678,0.000431,0.000353
25854000,0.0324,0.013523,0.002678,0.000431,0.000235
25855000,0.0324,0.013523,0.002678,0.000431,0.000353
25856000,0.0324,0.013523,0.002678,0.000431,0.000353
25857000,0.0324,0.013523,0.002678,0.000431,0.000235
25858000,0.0324,0.013523,0.002678,0.000431,0.000353
25859000,0.0324,0.013523,0.002678,0.000431,0.000470
25860000,0.0324,0.013523,0.002678,0.000431,0.000353
25861000,0.0324,0.013523,0.002678,0.000431,0.000235
25862000,0.0324,0.013523,0.002678,0.000431,0.000353
25863000,0.0324,0.013523,0.002678,0.000431,0.000353
25864000,0.0324,0.013523,0.002678,0.000431,0.000235
25865000,0.0324,0.013523,0.002678,0.000431,0.000353
25866000,0.0324,0.013523,0.002678,0.000431,0.000470
25867000,0.0324,0.013523,0.002678,0.000431,0.000353
25868000,0.0324,0.013523,0.002678,0.000431,0.000235
25869000,0.0324,0.013523,0.002678,0.000431,0.000353
25870000,0.0324,0.013523,0.002678,0.000431,0.000353
25871000,0.0324,0.013523,0.002678,0.000431,0.000235
25872000,0.0324,0.013523,0.002678,0.000431,0.000353
25873000,0.0324,0.013523,0.002678,0.000431,0.000470
25874000,0.0324,0.013523,0.002678,0.000431,0.000353
25875000,0.0324,0.013523,0.002678,0.000431,0.000235
25876000,0.0324,0.013523,0.002678,0.000431,0.000353
25877000,0.0324,0.013523,0.002678,0.000431,0.000353
25878000,0.0324,0.013523,0.002678,0.000431,0.000235
25879000,0.0324,0.013523,0.002678,0.000431,0.000353
25880000,0.0324,0.013523,0.002678,0.000431,0.000470
25881000,0.0324,0.013523,0.002678,0.000431,0.000353
25882000,0.0324,0.013523,0.002678,0.000431,0.000118
25883000,0.0324,0.013523,0.002678,0.000431,0.000470
25884000,0.0324,0.013523,0.002678,0.000431,0.000353
25885000,0.0324,0.013523,0.002678,0.000431,0.000235
25886000,0.0324,0.013523,0.002678,0.000431,0.000353
25887000,0.0324,0.013523,0.002678,0.000431,0.000470
25888000,0.0324,0.013523,0.002678,0.000431,0.000353
25889000,0.0324,0.013523,0.002678,0.000431,0.000118
25890000,0.0324,0.013523,0.002678,0.000431,0.000470
25891000,0.0324,0.013523,0.002678,0.000431,0.000353
25892000,0.0324,0.013523,0.002678,0.000431,0.000235
25893000,0.0324,0.013523,0.002678,0.000431,0.000353
25894000,0.0324,0.013523,0.002678,0.000431,0.000470
25895000,0.0324,0.013523,0.002678,0.000431,0.000353
25896000,0.0324,0.013523,0.002678,0.000431,0.000118
25897000,0.0324,0.013523,0.002678,0.000431,0.000470
25898000,0.0324,0.013523,0.002678,0.000431,0.000353
25899000,0.0324,0.013523,0.002678,0.000431,0.000235
25900000,0.0324,0.013523,0.002678,0.000431,0.000353
25901000,0.0324,0.013523,0.002678,0.000431,0.000470
25902000,0.0324,0.013523,0.002678,0.000431,0.000353
25903000,0.0324,0.013523,0.002678,0.000431,0.000118
25904000,0.0324,0.013523,0.002678,0.000431,0.000470
25905000,0.0324,0.013523,0.002678,0.000431,0.000353
25906000,0.0324,0.013523,0.002678,0.000431,0.000235
25907000,0.0324,0.013523,0.002678,0.000431,0.000353
25908000,0.0324,0.013523,0.002678,0.000431,0.000470
25909000,0.0324,0.013523,0.002678,0.000431,0.000235
25910000,0.0324,0.013523,0.002678,0.000431,0.000235
25911000,0.0324,0.013523,0.002678,0.000431,0.000470
25912000,0.0324,0.013523,0.002678,0.000431,0.000353
25913000,0.0324,0.013523,0.002678,0.000431,0.000235
25914000,0.0324,0.013523,0.002678,0.000431,0.000353
25915000,0.0324,0.013523,0.002678,0.000431,0.000470
25916000,0.0324,0.013523,0.002678,0.000431,0.000235
25917000,0.0324,0.013523,0.002678,0.000431,0.000235
25918000,0.0324,0.013523,0.002678,0.000431,0.000470
25919000,0.0324,0.013523,0.002678,0.000431,0.000353
25920000,0.0324,0.013523,0.002678,0.000431,0.000235
25921000,0.0324,0.013523,0.002678,0.000431,0.000353
25922000,0.0324,0.013523,0.002678,0.000431,0.000470
25923000,0.0324,0.013523,0.002678,0.000431,0.000118
25924000,0.0324,0.013523,0.002678,0.000431,0.000353
25925000,0.0324,0.013523,0.002678,0.000431,0.000470
25926000,0.0324,0.013523,0.002678,0.000431,0.000353
25927000,0.0324,0.013523,0.002678,0.000431,0.000235
25928000,0.0324,0.013523,0.002678,0.000431,0.000353
25929000,0.0324,0.013523,0.002678,0.000431,0.000470
25930000,0.0324,0.013523,0.002678,0.000431,0.000118
25931000,0.0324,0.013523,0.002678,0.000431,0.000353
25932000,0.0324,0.013523,0.002678,0.000431,0.000470
25933000,0.0324,0.013523,0.002678,0.000431,0.000353
25934000,0.0324,0.013523,0.002678,0.000431,0.000235
25935000,0.0324,0.013523,0.002678,0.000431,0.000353
25936000,0.0324,0.013523,0.002678,0.000431,0.000353
25937000,0.0324,0.013523,0.002678,0.000431,0.000235
25938000,0.0324,0.013523,0.002678,0.000431,0.000353
25939000,0.0324,0.013523,0.002678,0.000431,0.000470
25940000,0.0324,0.013523,0.002678,0.000431,0.000353
25941000,0.0324,0.013523,0.002678,0.000431,0.000235
25942000,0.0324,0.013523,0.002678,0.000431,0.000353
25943000,0.0324,0.013523,0.002678,0.000431,0.000353
25944000,0.0324,0.013523,0.002678,0.000431,0.000235
25945000,0.0324,0.013523,0.002678,0.000431,0.000353
25946000,0.0324,0.013523,0.002678,0.000431,0.000470
25947000,0.0324,0.013523,0.002678,0.000431,0.000353
25948000,0.0324,0.013523,0.002678,0.000431,0.000118
25949000,0.0324,0.013523,0.002678,0.000431,0.000470
25950000,0.0324,0.013523,0.002678,0.000431,0.000353
25951000,0.0324,0.013523,0.002678,0.000431,0.000235
25952000,0.0324,0.013523,0.002678,0.000431,0.000353
25953000,0.0324,0.013523,0.002678,0.000431,0.000470
25954000,0.0324,0.013523,0.002678,0.000431,0.000235
25955000,0.0324,0.013523,0.002678,0.000431,0.000235
25956000,0.0324,0.013523,0.002678,0.000431,0.000470
25957000,0.0324,0.013523,0.002678,0.000431,0.000353
25958000,0.0324,0.013523,0.002678,0.000431,0.000235
25959000,0.0324,0.013523,0.002678,0.000431,0.000353
25960000,0.0324,0.013523,0.002678,0.000431,0.000470
25961000,0.0324,0.013523,0.002678,0.000431,0.000235
25962000,0.0324,0.013523,0.002678,0.000431,0.000235
25963000,0.0324,0.013523,0.002678,0.000431,0.000470
25964000,0.0324,0.013523,0.002678,0.000431,0.000353
25965000,0.0324,0.013523,0.002678,0.000431,0.000235
25966000,0.0324,0.013523,0.002678,0.000431,0.000353
25967000,0.0324,0.013523,0.002678,0.000431,0.000470
25968000,0.0324,0.013523,0.002678,0.000431,0.000118
25969000,0.0324,0.013523,0.002678,0.000431,0.000353
25970000,0.0324,0.013523,0.002678,0.000431,0.000470
25971000,0.0324,0.013523,0.002678,0.000431,0.000353
25972000,0.0324,0.013523,0.002678,0.000431,0.000235
25973000,0.0324,0.013523,0.002678,0.000431,0.000353
25974000,0.0324,0.013523,0.002678,0.000431,0.000353
25975000,0.0324,0.013523,0.002678,0.000431,0.000235
25976000,0.0324,0.013523,0.002678,0.000431,0.000353
25977000,0.0324,0.013523,0.002678,0.000431,0.000470
25978000,0.0324,0.013523,0.002678,0.000431,0.000353
25979000,0.0324,0.013523,0.002678,0.000431,0.000235
25980000,0.0324,0.013523,0.002678,0.000431,0.000353
25981000,0.0324,0.013523,0.002678,0.000431,0.000353
25982000,0.0324,0.013523,0.002678,0.000431,0.000235
25983000,0.0324,0.013523,0.002678,0.000431,0.000353
25984000,0.0324,0.013523,0.002678,0.000431,0.000470
25985000,0.0324,0.013523,0.002678,0.000431,0.000353
25986000,0.0324,0.013523,0.002678,0.000431,0.000235
25987000,0.0324,0.013523,0.002678,0.000431,0.000353
25988000,0.0324,0.013523,0.002678,0.000431,0.000353
25989000,0.0324,0.013523,0.002678,0.000431,0.000235
25990000,0.0324,0.013523,0.002678,0.000431,0.000353
25991000,0.0324,0.013523,0.002678,0.000431,0.000470
25992000,0.0324,0.013523,0.002678,0.000431,0.000353
25993000,0.0324,0.013523,0.002678,0.000431,0.000118
25994000,0.0324,0.013523,0.002678,0.000431,0.000470
25995000,0.0324,0.013523,0.002678,0.000431,0.000353
25996000,0.0324,0.013523,0.002678,0.000431,0.000235
25997000,0.0324,0.013523,0.002678,0.000431,0.000353
25998000,0.0324,0.013523,0.002678,0.000431,0.000470
25999000,0.0324,0.013523,0.002678,0.000431,0.000235
