Cycle,Area(mm^2),PeakDynamic(W),SubthresholdLeakage(W),GateLeakage(W),RunTimeDynamic(W)
1000000,0.0324,0.013523,0.002678,0.000431,0.000235
1001000,0.0324,0.013523,0.002678,0.000431,0.000353
1002000,0.0324,0.013523,0.002678,0.000431,0.000353
1003000,0.0324,0.013523,0.002678,0.000431,0.000235
1004000,0.0324,0.013523,0.002678,0.000431,0.000353
1005000,0.0324,0.013523,0.002678,0.000431,0.000470
1006000,0.0324,0.013523,0.002678,0.000431,0.000353
1007000,0.0324,0.013523,0.002678,0.000431,0.000235
1008000,0.0324,0.013523,0.002678,0.000431,0.000353
1009000,0.0324,0.013523,0.002678,0.000431,0.000353
1010000,0.0324,0.013523,0.002678,0.000431,0.000235
1011000,0.0324,0.013523,0.002678,0.000431,0.000353
1012000,0.0324,0.013523,0.002678,0.000431,0.000470
1013000,0.0324,0.013523,0.002678,0.000431,0.000353
1014000,0.0324,0.013523,0.002678,0.000431,0.000235
1015000,0.0324,0.013523,0.002678,0.000431,0.000353
1016000,0.0324,0.013523,0.002678,0.000431,0.000353
1017000,0.0324,0.013523,0.002678,0.000431,0.000235
1018000,0.0324,0.013523,0.002678,0.000431,0.000353
1019000,0.0324,0.013523,0.002678,0.000431,0.000470
1020000,0.0324,0.013523,0.002678,0.000431,0.000353
1021000,0.0324,0.013523,0.002678,0.000431,0.000235
1022000,0.0324,0.013523,0.002678,0.000431,0.000353
1023000,0.0324,0.013523,0.002678,0.000431,0.000353
1024000,0.0324,0.013523,0.002678,0.000431,0.000235
1025000,0.0324,0.013523,0.002678,0.000431,0.000353
1026000,0.0324,0.013523,0.002678,0.000431,0.000470
1027000,0.0324,0.013523,0.002678,0.000431,0.000353
1028000,0.0324,0.013523,0.002678,0.000431,0.000235
1029000,0.0324,0.013523,0.002678,0.000431,0.000353
1030000,0.0324,0.013523,0.002678,0.000431,0.000353
1031000,0.0324,0.013523,0.002678,0.000431,0.000235
1032000,0.0324,0.013523,0.002678,0.000431,0.000353
1033000,0.0324,0.013523,0.002678,0.000431,0.000470
1034000,0.0324,0.013523,0.002678,0.000431,0.000353
1035000,0.0324,0.013523,0.002678,0.000431,0.000235
1036000,0.0324,0.013523,0.002678,0.000431,0.000353
1037000,0.0324,0.013523,0.002678,0.000431,0.000353
1038000,0.0324,0.013523,0.002678,0.000431,0.000235
1039000,0.0324,0.013523,0.002678,0.000431,0.000353
1040000,0.0324,0.013523,0.002678,0.000431,0.000470
1041000,0.0324,0.013523,0.002678,0.000431,0.000353
1042000,0.0324,0.013523,0.002678,0.000431,0.000235
1043000,0.0324,0.013523,0.002678,0.000431,0.000353
1044000,0.0324,0.013523,0.002678,0.000431,0.000353
1045000,0.0324,0.013523,0.002678,0.000431,0.000235
1046000,0.0324,0.013523,0.002678,0.000431,0.000353
1047000,0.0324,0.013523,0.002678,0.000431,0.000470
1048000,0.0324,0.013523,0.002678,0.000431,0.000353
1049000,0.0324,0.013523,0.002678,0.000431,0.000235
1050000,0.0324,0.013523,0.002678,0.000431,0.000353
1051000,0.0324,0.013523,0.002678,0.000431,0.000353
1052000,0.0324,0.013523,0.002678,0.000431,0.000235
1053000,0.0324,0.013523,0.002678,0.000431,0.000353
1054000,0.0324,0.013523,0.002678,0.000431,0.000470
1055000,0.0324,0.013523,0.002678,0.000431,0.000353
1056000,0.0324,0.013523,0.002678,0.000431,0.000118
1057000,0.0324,0.013523,0.002678,0.000431,0.000470
1058000,0.0324,0.013523,0.002678,0.000431,0.000353
1059000,0.0324,0.013523,0.002678,0.000431,0.000235
1060000,0.0324,0.013523,0.002678,0.000431,0.000353
1061000,0.0324,0.013523,0.002678,0.000431,0.000470
1062000,0.0324,0.013523,0.002678,0.000431,0.000353
1063000,0.0324,0.013523,0.002678,0.000431,0.000118
1064000,0.0324,0.013523,0.002678,0.000431,0.000470
1065000,0.0324,0.013523,0.002678,0.000431,0.000353
1066000,0.0324,0.013523,0.002678,0.000431,0.000235
1067000,0.0324,0.013523,0.002678,0.000431,0.000353
1068000,0.0324,0.013523,0.002678,0.000431,0.000470
1069000,0.0324,0.013523,0.002678,0.000431,0.000353
1070000,0.0324,0.013523,0.002678,0.000431,0.000118
1071000,0.0324,0.013523,0.002678,0.000431,0.000470
1072000,0.0324,0.013523,0.002678,0.000431,0.000353
1073000,0.0324,0.013523,0.002678,0.000431,0.000235
1074000,0.0324,0.013523,0.002678,0.000431,0.000353
1075000,0.0324,0.013523,0.002678,0.000431,0.000470
1076000,0.0324,0.013523,0.002678,0.000431,0.000235
1077000,0.0324,0.013523,0.002678,0.000431,0.000235
1078000,0.0324,0.013523,0.002678,0.000431,0.000470
1079000,0.0324,0.013523,0.002678,0.000431,0.000353
1080000,0.0324,0.013523,0.002678,0.000431,0.000235
1081000,0.0324,0.013523,0.002678,0.000431,0.000353
1082000,0.0324,0.013523,0.002678,0.000431,0.000470
1083000,0.0324,0.013523,0.002678,0.000431,0.000235
1084000,0.0324,0.013523,0.002678,0.000431,0.000235
1085000,0.0324,0.013523,0.002678,0.000431,0.000470
1086000,0.0324,0.013523,0.002678,0.000431,0.000353
1087000,0.0324,0.013523,0.002678,0.000431,0.000235
1088000,0.0324,0.013523,0.002678,0.000431,0.000353
1089000,0.0324,0.013523,0.002678,0.000431,0.000470
1090000,0.0324,0.013523,0.002678,0.000431,0.000235
1091000,0.0324,0.013523,0.002678,0.000431,0.000235
1092000,0.0324,0.013523,0.002678,0.000431,0.000470
1093000,0.0324,0.013523,0.002678,0.000431,0.000353
1094000,0.0324,0.013523,0.002678,0.000431,0.000235
1095000,0.0324,0.013523,0.002678,0.000431,0.000353
1096000,0.0324,0.013523,0.002678,0.000431,0.000470
1097000,0.0324,0.013523,0.002678,0.000431,0.000235
1098000,0.0324,0.013523,0.002678,0.000431,0.000235
1099000,0.0324,0.013523,0.002678,0.000431,0.000470
1100000,0.0324,0.013523,0.002678,0.000431,0.000353
1101000,0.0324,0.013523,0.002678,0.000431,0.000235
1102000,0.0324,0.013523,0.002678,0.000431,0.000353
1103000,0.0324,0.013523,0.002678,0.000431,0.000470
1104000,0.0324,0.013523,0.002678,0.000431,0.000235
1105000,0.0324,0.013523,0.002678,0.000431,0.000235
1106000,0.0324,0.013523,0.002678,0.000431,0.000470
1107000,0.0324,0.013523,0.002678,0.000431,0.000353
1108000,0.0324,0.013523,0.002678,0.000431,0.000235
1109000,0.0324,0.013523,0.002678,0.000431,0.000353
1110000,0.0324,0.013523,0.002678,0.000431,0.000470
1111000,0.0324,0.013523,0.002678,0.000431,0.000235
1112000,0.0324,0.013523,0.002678,0.000431,0.000235
1113000,0.0324,0.013523,0.002678,0.000431,0.000470
1114000,0.0324,0.013523,0.002678,0.000431,0.000353
1115000,0.0324,0.013523,0.002678,0.000431,0.000235
1116000,0.0324,0.013523,0.002678,0.000431,0.000353
1117000,0.0324,0.013523,0.002678,0.000431,0.000470
1118000,0.0324,0.013523,0.002678,0.000431,0.000118
1119000,0.0324,0.013523,0.002678,0.000431,0.000353
1120000,0.0324,0.013523,0.002678,0.000431,0.000470
1121000,0.0324,0.013523,0.002678,0.000431,0.000353
1122000,0.0324,0.013523,0.002678,0.000431,0.000235
1123000,0.0324,0.013523,0.002678,0.000431,0.000353
1124000,0.0324,0.013523,0.002678,0.000431,0.000470
1125000,0.0324,0.013523,0.002678,0.000431,0.000118
1126000,0.0324,0.013523,0.002678,0.000431,0.000353
1127000,0.0324,0.013523,0.002678,0.000431,0.000470
1128000,0.0324,0.013523,0.002678,0.000431,0.000353
1129000,0.0324,0.013523,0.002678,0.000431,0.000235
1130000,0.0324,0.013523,0.002678,0.000431,0.000353
1131000,0.0324,0.013523,0.002678,0.000431,0.000470
1132000,0.0324,0.013523,0.002678,0.000431,0.000118
1133000,0.0324,0.013523,0.002678,0.000431,0.000353
1134000,0.0324,0.013523,0.002678,0.000431,0.000470
1135000,0.0324,0.013523,0.002678,0.000431,0.000353
1136000,0.0324,0.013523,0.002678,0.000431,0.000235
1137000,0.0324,0.013523,0.002678,0.000431,0.000353
1138000,0.0324,0.013523,0.002678,0.000431,0.000470
1139000,0.0324,0.013523,0.002678,0.000431,0.000118
1140000,0.0324,0.013523,0.002678,0.000431,0.000353
1141000,0.0324,0.013523,0.002678,0.000431,0.000470
1142000,0.0324,0.013523,0.002678,0.000431,0.000353
1143000,0.0324,0.013523,0.002678,0.000431,0.000235
1144000,0.0324,0.013523,0.002678,0.000431,0.000353
1145000,0.0324,0.013523,0.002678,0.000431,0.000353
1146000,0.0324,0.013523,0.002678,0.000431,0.000235
1147000,0.0324,0.013523,0.002678,0.000431,0.000353
1148000,0.0324,0.013523,0.002678,0.000431,0.000470
1149000,0.0324,0.013523,0.002678,0.000431,0.000353
1150000,0.0324,0.013523,0.002678,0.000431,0.000235
1151000,0.0324,0.013523,0.002678,0.000431,0.000353
1152000,0.0324,0.013523,0.002678,0.000431,0.000353
1153000,0.0324,0.013523,0.002678,0.000431,0.000235
1154000,0.0324,0.013523,0.002678,0.000431,0.000353
1155000,0.0324,0.013523,0.002678,0.000431,0.000470
1156000,0.0324,0.013523,0.002678,0.000431,0.000353
1157000,0.0324,0.013523,0.002678,0.000431,0.000235
1158000,0.0324,0.013523,0.002678,0.000431,0.000353
1159000,0.0324,0.013523,0.002678,0.000431,0.000353
1160000,0.0324,0.013523,0.002678,0.000431,0.000235
1161000,0.0324,0.013523,0.002678,0.000431,0.000353
1162000,0.0324,0.013523,0.002678,0.000431,0.000470
1163000,0.0324,0.013523,0.002678,0.000431,0.000353
1164000,0.0324,0.013523,0.002678,0.000431,0.000235
1165000,0.0324,0.013523,0.002678,0.000431,0.000353
1166000,0.0324,0.013523,0.002678,0.000431,0.000353
1167000,0.0324,0.013523,0.002678,0.000431,0.000235
1168000,0.0324,0.013523,0.002678,0.000431,0.000353
1169000,0.0324,0.013523,0.002678,0.000431,0.000470
1170000,0.0324,0.013523,0.002678,0.000431,0.000353
1171000,0.0324,0.013523,0.002678,0.000431,0.000235
1172000,0.0324,0.013523,0.002678,0.000431,0.000353
1173000,0.0324,0.013523,0.002678,0.000431,0.000353
1174000,0.0324,0.013523,0.002678,0.000431,0.000235
1175000,0.0324,0.013523,0.002678,0.000431,0.000353
1176000,0.0324,0.013523,0.002678,0.000431,0.000470
1177000,0.0324,0.013523,0.002678,0.000431,0.000353
1178000,0.0324,0.013523,0.002678,0.000431,0.000235
1179000,0.0324,0.013523,0.002678,0.000431,0.000353
1180000,0.0324,0.013523,0.002678,0.000431,0.000353
1181000,0.0324,0.013523,0.002678,0.000431,0.000235
1182000,0.0324,0.013523,0.002678,0.000431,0.000353
1183000,0.0324,0.013523,0.002678,0.000431,0.000470
1184000,0.0324,0.013523,0.002678,0.000431,0.000353
1185000,0.0324,0.013523,0.002678,0.000431,0.000235
1186000,0.0324,0.013523,0.002678,0.000431,0.000353
1187000,0.0324,0.013523,0.002678,0.000431,0.000353
1188000,0.0324,0.013523,0.002678,0.000431,0.000235
1189000,0.0324,0.013523,0.002678,0.000431,0.000353
1190000,0.0324,0.013523,0.002678,0.000431,0.000470
1191000,0.0324,0.013523,0.002678,0.000431,0.000353
1192000,0.0324,0.013523,0.002678,0.000431,0.000235
1193000,0.0324,0.013523,0.002678,0.000431,0.000353
1194000,0.0324,0.013523,0.002678,0.000431,0.000353
1195000,0.0324,0.013523,0.002678,0.000431,0.000235
1196000,0.0324,0.013523,0.002678,0.000431,0.000353
1197000,0.0324,0.013523,0.002678,0.000431,0.000470
1198000,0.0324,0.013523,0.002678,0.000431,0.000353
1199000,0.0324,0.013523,0.002678,0.000431,0.000118
1200000,0.0324,0.013523,0.002678,0.000431,0.000470
1201000,0.0324,0.013523,0.002678,0.000431,0.000353
1202000,0.0324,0.013523,0.002678,0.000431,0.000235
1203000,0.0324,0.013523,0.002678,0.000431,0.000353
1204000,0.0324,0.013523,0.002678,0.000431,0.000470
1205000,0.0324,0.013523,0.002678,0.000431,0.000353
1206000,0.0324,0.013523,0.002678,0.000431,0.000118
1207000,0.0324,0.013523,0.002678,0.000431,0.000470
1208000,0.0324,0.013523,0.002678,0.000431,0.000353
1209000,0.0324,0.013523,0.002678,0.000431,0.000235
1210000,0.0324,0.013523,0.002678,0.000431,0.000353
1211000,0.0324,0.013523,0.002678,0.000431,0.000470
1212000,0.0324,0.013523,0.002678,0.000431,0.000353
1213000,0.0324,0.013523,0.002678,0.000431,0.000118
1214000,0.0324,0.013523,0.002678,0.000431,0.000470
1215000,0.0324,0.013523,0.002678,0.000431,0.000353
1216000,0.0324,0.013523,0.002678,0.000431,0.000235
1217000,0.0324,0.013523,0.002678,0.000431,0.000353
1218000,0.0324,0.013523,0.002678,0.000431,0.000470
1219000,0.0324,0.013523,0.002678,0.000431,0.000235
1220000,0.0324,0.013523,0.002678,0.000431,0.000235
1221000,0.0324,0.013523,0.002678,0.000431,0.000470
1222000,0.0324,0.013523,0.002678,0.000431,0.000353
1223000,0.0324,0.013523,0.002678,0.000431,0.000235
1224000,0.0324,0.013523,0.002678,0.000431,0.000353
1225000,0.0324,0.013523,0.002678,0.000431,0.000470
1226000,0.0324,0.013523,0.002678,0.000431,0.000235
1227000,0.0324,0.013523,0.002678,0.000431,0.000235
1228000,0.0324,0.013523,0.002678,0.000431,0.000470
1229000,0.0324,0.013523,0.002678,0.000431,0.000353
1230000,0.0324,0.013523,0.002678,0.000431,0.000235
1231000,0.0324,0.013523,0.002678,0.000431,0.000353
1232000,0.0324,0.013523,0.002678,0.000431,0.000470
1233000,0.0324,0.013523,0.002678,0.000431,0.000235
1234000,0.0324,0.013523,0.002678,0.000431,0.000235
1235000,0.0324,0.013523,0.002678,0.000431,0.000470
1236000,0.0324,0.013523,0.002678,0.000431,0.000353
1237000,0.0324,0.013523,0.002678,0.000431,0.000235
1238000,0.0324,0.013523,0.002678,0.000431,0.000353
1239000,0.0324,0.013523,0.002678,0.000431,0.000470
1240000,0.0324,0.013523,0.002678,0.000431,0.000235
1241000,0.0324,0.013523,0.002678,0.000431,0.000235
1242000,0.0324,0.013523,0.002678,0.000431,0.000470
1243000,0.0324,0.013523,0.002678,0.000431,0.000353
1244000,0.0324,0.013523,0.002678,0.000431,0.000235
1245000,0.0324,0.013523,0.002678,0.000431,0.000353
1246000,0.0324,0.013523,0.002678,0.000431,0.000470
1247000,0.0324,0.013523,0.002678,0.000431,0.000235
1248000,0.0324,0.013523,0.002678,0.000431,0.000235
1249000,0.0324,0.013523,0.002678,0.000431,0.000470
1250000,0.0324,0.013523,0.002678,0.000431,0.000353
1251000,0.0324,0.013523,0.002678,0.000431,0.000235
1252000,0.0324,0.013523,0.002678,0.000431,0.000353
1253000,0.0324,0.013523,0.002678,0.000431,0.000470
1254000,0.0324,0.013523,0.002678,0.000431,0.000235
1255000,0.0324,0.013523,0.002678,0.000431,0.000235
1256000,0.0324,0.013523,0.002678,0.000431,0.000470
1257000,0.0324,0.013523,0.002678,0.000431,0.000353
1258000,0.0324,0.013523,0.002678,0.000431,0.000235
1259000,0.0324,0.013523,0.002678,0.000431,0.000353
1260000,0.0324,0.013523,0.002678,0.000431,0.000470
1261000,0.0324,0.013523,0.002678,0.000431,0.000118
1262000,0.0324,0.013523,0.002678,0.000431,0.000353
1263000,0.0324,0.013523,0.002678,0.000431,0.000470
1264000,0.0324,0.013523,0.002678,0.000431,0.000353
1265000,0.0324,0.013523,0.002678,0.000431,0.000235
1266000,0.0324,0.013523,0.002678,0.000431,0.000353
1267000,0.0324,0.013523,0.002678,0.000431,0.000470
1268000,0.0324,0.013523,0.002678,0.000431,0.000118
1269000,0.0324,0.013523,0.002678,0.000431,0.000353
1270000,0.0324,0.013523,0.002678,0.000431,0.000470
1271000,0.0324,0.013523,0.002678,0.000431,0.000353
1272000,0.0324,0.013523,0.002678,0.000431,0.000235
1273000,0.0324,0.013523,0.002678,0.000431,0.000353
1274000,0.0324,0.013523,0.002678,0.000431,0.000470
1275000,0.0324,0.013523,0.002678,0.000431,0.000118
1276000,0.0324,0.013523,0.002678,0.000431,0.000353
1277000,0.0324,0.013523,0.002678,0.000431,0.000470
1278000,0.0324,0.013523,0.002678,0.000431,0.000353
1279000,0.0324,0.013523,0.002678,0.000431,0.000235
1280000,0.0324,0.013523,0.002678,0.000431,0.000353
1281000,0.0324,0.013523,0.002678,0.000431,0.000353
1282000,0.0324,0.013523,0.002678,0.000431,0.000235
1283000,0.0324,0.013523,0.002678,0.000431,0.000353
1284000,0.0324,0.013523,0.002678,0.000431,0.000470
1285000,0.0324,0.013523,0.002678,0.000431,0.000353
1286000,0.0324,0.013523,0.002678,0.000431,0.000235
1287000,0.0324,0.013523,0.002678,0.000431,0.000353
1288000,0.0324,0.013523,0.002678,0.000431,0.000353
1289000,0.0324,0.013523,0.002678,0.000431,0.000235
1290000,0.0324,0.013523,0.002678,0.000431,0.000353
1291000,0.0324,0.013523,0.002678,0.000431,0.000470
1292000,0.0324,0.013523,0.002678,0.000431,0.000353
1293000,0.0324,0.013523,0.002678,0.000431,0.000235
1294000,0.0324,0.013523,0.002678,0.000431,0.000353
1295000,0.0324,0.013523,0.002678,0.000431,0.000353
1296000,0.0324,0.013523,0.002678,0.000431,0.000235
1297000,0.0324,0.013523,0.002678,0.000431,0.000353
1298000,0.0324,0.013523,0.002678,0.000431,0.000470
1299000,0.0324,0.013523,0.002678,0.000431,0.000353
1300000,0.0324,0.013523,0.002678,0.000431,0.000235
1301000,0.0324,0.013523,0.002678,0.000431,0.000353
1302000,0.0324,0.013523,0.002678,0.000431,0.000353
1303000,0.0324,0.013523,0.002678,0.000431,0.000235
1304000,0.0324,0.013523,0.002678,0.000431,0.000353
1305000,0.0324,0.013523,0.002678,0.000431,0.000470
1306000,0.0324,0.013523,0.002678,0.000431,0.000353
1307000,0.0324,0.013523,0.002678,0.000431,0.000235
1308000,0.0324,0.013523,0.002678,0.000431,0.000353
1309000,0.0324,0.013523,0.002678,0.000431,0.000353
1310000,0.0324,0.013523,0.002678,0.000431,0.000235
1311000,0.0324,0.013523,0.002678,0.000431,0.000353
1312000,0.0324,0.013523,0.002678,0.000431,0.000470
1313000,0.0324,0.013523,0.002678,0.000431,0.000353
1314000,0.0324,0.013523,0.002678,0.000431,0.000235
1315000,0.0324,0.013523,0.002678,0.000431,0.000353
1316000,0.0324,0.013523,0.002678,0.000431,0.000353
1317000,0.0324,0.013523,0.002678,0.000431,0.000235
1318000,0.0324,0.013523,0.002678,0.000431,0.000353
1319000,0.0324,0.013523,0.002678,0.000431,0.000470
1320000,0.0324,0.013523,0.002678,0.000431,0.000353
1321000,0.0324,0.013523,0.002678,0.000431,0.000235
1322000,0.0324,0.013523,0.002678,0.000431,0.000353
1323000,0.0324,0.013523,0.002678,0.000431,0.000353
1324000,0.0324,0.013523,0.002678,0.000431,0.000235
1325000,0.0324,0.013523,0.002678,0.000431,0.000353
1326000,0.0324,0.013523,0.002678,0.000431,0.000470
1327000,0.0324,0.013523,0.002678,0.000431,0.000353
1328000,0.0324,0.013523,0.002678,0.000431,0.000235
1329000,0.0324,0.013523,0.002678,0.000431,0.000353
1330000,0.0324,0.013523,0.002678,0.000431,0.000353
1331000,0.0324,0.013523,0.002678,0.000431,0.000235
1332000,0.0324,0.013523,0.002678,0.000431,0.000353
1333000,0.0324,0.013523,0.002678,0.000431,0.000470
1334000,0.0324,0.013523,0.002678,0.000431,0.000353
1335000,0.0324,0.013523,0.002678,0.000431,0.000118
1336000,0.0324,0.013523,0.002678,0.000431,0.000470
1337000,0.0324,0.013523,0.002678,0.000431,0.000353
1338000,0.0324,0.013523,0.002678,0.000431,0.000235
1339000,0.0324,0.013523,0.002678,0.000431,0.000353
1340000,0.0324,0.013523,0.002678,0.000431,0.000470
1341000,0.0324,0.013523,0.002678,0.000431,0.000353
1342000,0.0324,0.013523,0.002678,0.000431,0.000118
1343000,0.0324,0.013523,0.002678,0.000431,0.000470
1344000,0.0324,0.013523,0.002678,0.000431,0.000353
1345000,0.0324,0.013523,0.002678,0.000431,0.000235
1346000,0.0324,0.013523,0.002678,0.000431,0.000353
1347000,0.0324,0.013523,0.002678,0.000431,0.000470
1348000,0.0324,0.013523,0.002678,0.000431,0.000353
1349000,0.0324,0.013523,0.002678,0.000431,0.000118
1350000,0.0324,0.013523,0.002678,0.000431,0.000470
1351000,0.0324,0.013523,0.002678,0.000431,0.000353
1352000,0.0324,0.013523,0.002678,0.000431,0.000235
1353000,0.0324,0.013523,0.002678,0.000431,0.000353
1354000,0.0324,0.013523,0.002678,0.000431,0.000470
1355000,0.0324,0.013523,0.002678,0.000431,0.000353
1356000,0.0324,0.013523,0.002678,0.000431,0.000118
1357000,0.0324,0.013523,0.002678,0.000431,0.000470
1358000,0.0324,0.013523,0.002678,0.000431,0.000353
1359000,0.0324,0.013523,0.002678,0.000431,0.000235
1360000,0.0324,0.013523,0.002678,0.000431,0.000353
1361000,0.0324,0.013523,0.002678,0.000431,0.000470
1362000,0.0324,0.013523,0.002678,0.000431,0.000235
1363000,0.0324,0.013523,0.002678,0.000431,0.000235
1364000,0.0324,0.013523,0.002678,0.000431,0.000470
1365000,0.0324,0.013523,0.002678,0.000431,0.000353
1366000,0.0324,0.013523,0.002678,0.000431,0.000235
1367000,0.0324,0.013523,0.002678,0.000431,0.000353
1368000,0.0324,0.013523,0.002678,0.000431,0.000470
1369000,0.0324,0.013523,0.002678,0.000431,0.000235
1370000,0.0324,0.013523,0.002678,0.000431,0.000235
1371000,0.0324,0.013523,0.002678,0.000431,0.000470
1372000,0.0324,0.013523,0.002678,0.000431,0.000353
1373000,0.0324,0.013523,0.002678,0.000431,0.000235
1374000,0.0324,0.013523,0.002678,0.000431,0.000353
1375000,0.0324,0.013523,0.002678,0.000431,0.000470
1376000,0.0324,0.013523,0.002678,0.000431,0.000235
1377000,0.0324,0.013523,0.002678,0.000431,0.000235
1378000,0.0324,0.013523,0.002678,0.000431,0.000470
1379000,0.0324,0.013523,0.002678,0.000431,0.000353
1380000,0.0324,0.013523,0.002678,0.000431,0.000235
1381000,0.0324,0.013523,0.002678,0.000431,0.000353
1382000,0.0324,0.013523,0.002678,0.000431,0.000470
1383000,0.0324,0.013523,0.002678,0.000431,0.000235
1384000,0.0324,0.013523,0.002678,0.000431,0.000235
1385000,0.0324,0.013523,0.002678,0.000431,0.000470
1386000,0.0324,0.013523,0.002678,0.000431,0.000353
1387000,0.0324,0.013523,0.002678,0.000431,0.000235
1388000,0.0324,0.013523,0.002678,0.000431,0.000353
1389000,0.0324,0.013523,0.002678,0.000431,0.000470
1390000,0.0324,0.013523,0.002678,0.000431,0.000235
1391000,0.0324,0.013523,0.002678,0.000431,0.000235
1392000,0.0324,0.013523,0.002678,0.000431,0.000470
1393000,0.0324,0.013523,0.002678,0.000431,0.000353
1394000,0.0324,0.013523,0.002678,0.000431,0.000235
1395000,0.0324,0.013523,0.002678,0.000431,0.000353
1396000,0.0324,0.013523,0.002678,0.000431,0.000470
1397000,0.0324,0.013523,0.002678,0.000431,0.000235
1398000,0.0324,0.013523,0.002678,0.000431,0.000235
1399000,0.0324,0.013523,0.002678,0.000431,0.000470
1400000,0.0324,0.013523,0.002678,0.000431,0.000353
1401000,0.0324,0.013523,0.002678,0.000431,0.000235
1402000,0.0324,0.013523,0.002678,0.000431,0.000353
1403000,0.0324,0.013523,0.002678,0.000431,0.000470
1404000,0.0324,0.013523,0.002678,0.000431,0.000118
1405000,0.0324,0.013523,0.002678,0.000431,0.000353
1406000,0.0324,0.013523,0.002678,0.000431,0.000470
1407000,0.0324,0.013523,0.002678,0.000431,0.000353
1408000,0.0324,0.013523,0.002678,0.000431,0.000235
1409000,0.0324,0.013523,0.002678,0.000431,0.000353
1410000,0.0324,0.013523,0.002678,0.000431,0.000470
1411000,0.0324,0.013523,0.002678,0.000431,0.000118
1412000,0.0324,0.013523,0.002678,0.000431,0.000353
1413000,0.0324,0.013523,0.002678,0.000431,0.000470
1414000,0.0324,0.013523,0.002678,0.000431,0.000353
1415000,0.0324,0.013523,0.002678,0.000431,0.000235
1416000,0.0324,0.013523,0.002678,0.000431,0.000353
1417000,0.0324,0.013523,0.002678,0.000431,0.000470
1418000,0.0324,0.013523,0.002678,0.000431,0.000118
1419000,0.0324,0.013523,0.002678,0.000431,0.000353
1420000,0.0324,0.013523,0.002678,0.000431,0.000470
1421000,0.0324,0.013523,0.002678,0.000431,0.000353
1422000,0.0324,0.013523,0.002678,0.000431,0.000235
1423000,0.0324,0.013523,0.002678,0.000431,0.000353
1424000,0.0324,0.013523,0.002678,0.000431,0.000353
1425000,0.0324,0.013523,0.002678,0.000431,0.000235
1426000,0.0324,0.013523,0.002678,0.000431,0.000353
1427000,0.0324,0.013523,0.002678,0.000431,0.000470
1428000,0.0324,0.013523,0.002678,0.000431,0.000353
1429000,0.0324,0.013523,0.002678,0.000431,0.000235
1430000,0.0324,0.013523,0.002678,0.000431,0.000353
1431000,0.0324,0.013523,0.002678,0.000431,0.000353
1432000,0.0324,0.013523,0.002678,0.000431,0.000235
1433000,0.0324,0.013523,0.002678,0.000431,0.000353
1434000,0.0324,0.013523,0.002678,0.000431,0.000470
1435000,0.0324,0.013523,0.002678,0.000431,0.000353
1436000,0.0324,0.013523,0.002678,0.000431,0.000235
1437000,0.0324,0.013523,0.002678,0.000431,0.000353
1438000,0.0324,0.013523,0.002678,0.000431,0.000353
1439000,0.0324,0.013523,0.002678,0.000431,0.000235
1440000,0.0324,0.013523,0.002678,0.000431,0.000353
1441000,0.0324,0.013523,0.002678,0.000431,0.000470
1442000,0.0324,0.013523,0.002678,0.000431,0.000353
1443000,0.0324,0.013523,0.002678,0.000431,0.000235
1444000,0.0324,0.013523,0.002678,0.000431,0.000353
1445000,0.0324,0.013523,0.002678,0.000431,0.000353
1446000,0.0324,0.013523,0.002678,0.000431,0.000235
1447000,0.0324,0.013523,0.002678,0.000431,0.000353
1448000,0.0324,0.013523,0.002678,0.000431,0.000470
1449000,0.0324,0.013523,0.002678,0.000431,0.000353
1450000,0.0324,0.013523,0.002678,0.000431,0.000235
1451000,0.0324,0.013523,0.002678,0.000431,0.000353
1452000,0.0324,0.013523,0.002678,0.000431,0.000353
1453000,0.0324,0.013523,0.002678,0.000431,0.000235
1454000,0.0324,0.013523,0.002678,0.000431,0.000353
1455000,0.0324,0.013523,0.002678,0.000431,0.000470
1456000,0.0324,0.013523,0.002678,0.000431,0.000353
1457000,0.0324,0.013523,0.002678,0.000431,0.000235
1458000,0.0324,0.013523,0.002678,0.000431,0.000353
1459000,0.0324,0.013523,0.002678,0.000431,0.000353
1460000,0.0324,0.013523,0.002678,0.000431,0.000235
1461000,0.0324,0.013523,0.002678,0.000431,0.000353
1462000,0.0324,0.013523,0.002678,0.000431,0.000470
1463000,0.0324,0.013523,0.002678,0.000431,0.000353
1464000,0.0324,0.013523,0.002678,0.000431,0.000235
1465000,0.0324,0.013523,0.002678,0.000431,0.000353
1466000,0.0324,0.013523,0.002678,0.000431,0.000353
1467000,0.0324,0.013523,0.002678,0.000431,0.000235
1468000,0.0324,0.013523,0.002678,0.000431,0.000353
1469000,0.0324,0.013523,0.002678,0.000431,0.000470
1470000,0.0324,0.013523,0.002678,0.000431,0.000353
1471000,0.0324,0.013523,0.002678,0.000431,0.000235
1472000,0.0324,0.013523,0.002678,0.000431,0.000353
1473000,0.0324,0.013523,0.002678,0.000431,0.000353
1474000,0.0324,0.013523,0.002678,0.000431,0.000235
1475000,0.0324,0.013523,0.002678,0.000431,0.000353
1476000,0.0324,0.013523,0.002678,0.000431,0.000470
1477000,0.0324,0.013523,0.002678,0.000431,0.000353
1478000,0.0324,0.013523,0.002678,0.000431,0.000118
1479000,0.0324,0.013523,0.002678,0.000431,0.000470
1480000,0.0324,0.013523,0.002678,0.000431,0.000353
1481000,0.0324,0.013523,0.002678,0.000431,0.000235
1482000,0.0324,0.013523,0.002678,0.000431,0.000353
1483000,0.0324,0.013523,0.002678,0.000431,0.000470
1484000,0.0324,0.013523,0.002678,0.000431,0.000353
1485000,0.0324,0.013523,0.002678,0.000431,0.000118
1486000,0.0324,0.013523,0.002678,0.000431,0.000470
1487000,0.0324,0.013523,0.002678,0.000431,0.000353
1488000,0.0324,0.013523,0.002678,0.000431,0.000235
1489000,0.0324,0.013523,0.002678,0.000431,0.000353
1490000,0.0324,0.013523,0.002678,0.000431,0.000470
1491000,0.0324,0.013523,0.002678,0.000431,0.000353
1492000,0.0324,0.013523,0.002678,0.000431,0.000118
1493000,0.0324,0.013523,0.002678,0.000431,0.000470
1494000,0.0324,0.013523,0.002678,0.000431,0.000353
1495000,0.0324,0.013523,0.002678,0.000431,0.000235
1496000,0.0324,0.013523,0.002678,0.000431,0.000353
1497000,0.0324,0.013523,0.002678,0.000431,0.000470
1498000,0.0324,0.013523,0.002678,0.000431,0.000235
1499000,0.0324,0.013523,0.002678,0.000431,0.000235
1500000,0.0324,0.013523,0.002678,0.000431,0.000470
1501000,0.0324,0.013523,0.002678,0.000431,0.000353
1502000,0.0324,0.013523,0.002678,0.000431,0.000235
1503000,0.0324,0.013523,0.002678,0.000431,0.000353
1504000,0.0324,0.013523,0.002678,0.000431,0.000470
1505000,0.0324,0.013523,0.002678,0.000431,0.000235
1506000,0.0324,0.013523,0.002678,0.000431,0.000235
1507000,0.0324,0.013523,0.002678,0.000431,0.000470
1508000,0.0324,0.013523,0.002678,0.000431,0.000353
1509000,0.0324,0.013523,0.002678,0.000431,0.000235
1510000,0.0324,0.013523,0.002678,0.000431,0.000353
1511000,0.0324,0.013523,0.002678,0.000431,0.000470
1512000,0.0324,0.013523,0.002678,0.000431,0.000235
1513000,0.0324,0.013523,0.002678,0.000431,0.000235
1514000,0.0324,0.013523,0.002678,0.000431,0.000470
1515000,0.0324,0.013523,0.002678,0.000431,0.000353
1516000,0.0324,0.013523,0.002678,0.000431,0.000235
1517000,0.0324,0.013523,0.002678,0.000431,0.000353
1518000,0.0324,0.013523,0.002678,0.000431,0.000470
1519000,0.0324,0.013523,0.002678,0.000431,0.000235
1520000,0.0324,0.013523,0.002678,0.000431,0.000235
1521000,0.0324,0.013523,0.002678,0.000431,0.000470
1522000,0.0324,0.013523,0.002678,0.000431,0.000353
1523000,0.0324,0.013523,0.002678,0.000431,0.000235
1524000,0.0324,0.013523,0.002678,0.000431,0.000353
1525000,0.0324,0.013523,0.002678,0.000431,0.000470
1526000,0.0324,0.013523,0.002678,0.000431,0.000235
1527000,0.0324,0.013523,0.002678,0.000431,0.000235
1528000,0.0324,0.013523,0.002678,0.000431,0.000470
1529000,0.0324,0.013523,0.002678,0.000431,0.000353
1530000,0.0324,0.013523,0.002678,0.000431,0.000235
1531000,0.0324,0.013523,0.002678,0.000431,0.000353
1532000,0.0324,0.013523,0.002678,0.000431,0.000470
1533000,0.0324,0.013523,0.002678,0.000431,0.000235
1534000,0.0324,0.013523,0.002678,0.000431,0.000235
1535000,0.0324,0.013523,0.002678,0.000431,0.000470
1536000,0.0324,0.013523,0.002678,0.000431,0.000353
1537000,0.0324,0.013523,0.002678,0.000431,0.000235
1538000,0.0324,0.013523,0.002678,0.000431,0.000353
1539000,0.0324,0.013523,0.002678,0.000431,0.000470
1540000,0.0324,0.013523,0.002678,0.000431,0.000118
1541000,0.0324,0.013523,0.002678,0.000431,0.000353
1542000,0.0324,0.013523,0.002678,0.000431,0.000470
1543000,0.0324,0.013523,0.002678,0.000431,0.000353
1544000,0.0324,0.013523,0.002678,0.000431,0.000235
1545000,0.0324,0.013523,0.002678,0.000431,0.000353
1546000,0.0324,0.013523,0.002678,0.000431,0.000470
1547000,0.0324,0.013523,0.002678,0.000431,0.000118
1548000,0.0324,0.013523,0.002678,0.000431,0.000353
1549000,0.0324,0.013523,0.002678,0.000431,0.000470
1550000,0.0324,0.013523,0.002678,0.000431,0.000353
1551000,0.0324,0.013523,0.002678,0.000431,0.000235
1552000,0.0324,0.013523,0.002678,0.000431,0.000353
1553000,0.0324,0.013523,0.002678,0.000431,0.000470
1554000,0.0324,0.013523,0.002678,0.000431,0.000118
1555000,0.0324,0.013523,0.002678,0.000431,0.000353
1556000,0.0324,0.013523,0.002678,0.000431,0.000470
1557000,0.0324,0.013523,0.002678,0.000431,0.000353
1558000,0.0324,0.013523,0.002678,0.000431,0.000235
1559000,0.0324,0.013523,0.002678,0.000431,0.000353
1560000,0.0324,0.013523,0.002678,0.000431,0.000470
1561000,0.0324,0.013523,0.002678,0.000431,0.000118
1562000,0.0324,0.013523,0.002678,0.000431,0.000353
1563000,0.0324,0.013523,0.002678,0.000431,0.000470
1564000,0.0324,0.013523,0.002678,0.000431,0.000353
1565000,0.0324,0.013523,0.002678,0.000431,0.000235
1566000,0.0324,0.013523,0.002678,0.000431,0.000353
1567000,0.0324,0.013523,0.002678,0.000431,0.000353
1568000,0.0324,0.013523,0.002678,0.000431,0.000235
1569000,0.0324,0.013523,0.002678,0.000431,0.000353
1570000,0.0324,0.013523,0.002678,0.000431,0.000470
1571000,0.0324,0.013523,0.002678,0.000431,0.000353
1572000,0.0324,0.013523,0.002678,0.000431,0.000235
1573000,0.0324,0.013523,0.002678,0.000431,0.000353
1574000,0.0324,0.013523,0.002678,0.000431,0.000353
1575000,0.0324,0.013523,0.002678,0.000431,0.000235
1576000,0.0324,0.013523,0.002678,0.000431,0.000353
1577000,0.0324,0.013523,0.002678,0.000431,0.000470
1578000,0.0324,0.013523,0.002678,0.000431,0.000353
1579000,0.0324,0.013523,0.002678,0.000431,0.000235
1580000,0.0324,0.013523,0.002678,0.000431,0.000353
1581000,0.0324,0.013523,0.002678,0.000431,0.000353
1582000,0.0324,0.013523,0.002678,0.000431,0.000235
1583000,0.0324,0.013523,0.002678,0.000431,0.000353
1584000,0.0324,0.013523,0.002678,0.000431,0.000470
1585000,0.0324,0.013523,0.002678,0.000431,0.000353
1586000,0.0324,0.013523,0.002678,0.000431,0.000235
1587000,0.0324,0.013523,0.002678,0.000431,0.000353
1588000,0.0324,0.013523,0.002678,0.000431,0.000353
1589000,0.0324,0.013523,0.002678,0.000431,0.000235
1590000,0.0324,0.013523,0.002678,0.000431,0.000353
1591000,0.0324,0.013523,0.002678,0.000431,0.000470
1592000,0.0324,0.013523,0.002678,0.000431,0.000353
1593000,0.0324,0.013523,0.002678,0.000431,0.000235
1594000,0.0324,0.013523,0.002678,0.000431,0.000353
1595000,0.0324,0.013523,0.002678,0.000431,0.000353
1596000,0.0324,0.013523,0.002678,0.000431,0.000235
1597000,0.0324,0.013523,0.002678,0.000431,0.000353
1598000,0.0324,0.013523,0.002678,0.000431,0.000470
1599000,0.0324,0.013523,0.002678,0.000431,0.000353
1600000,0.0324,0.013523,0.002678,0.000431,0.000235
1601000,0.0324,0.013523,0.002678,0.000431,0.000353
1602000,0.0324,0.013523,0.002678,0.000431,0.000353
1603000,0.0324,0.013523,0.002678,0.000431,0.000235
1604000,0.0324,0.013523,0.002678,0.000431,0.000353
1605000,0.0324,0.013523,0.002678,0.000431,0.000470
1606000,0.0324,0.013523,0.002678,0.000431,0.000353
1607000,0.0324,0.013523,0.002678,0.000431,0.000235
1608000,0.0324,0.013523,0.002678,0.000431,0.000353
1609000,0.0324,0.013523,0.002678,0.000431,0.000353
1610000,0.0324,0.013523,0.002678,0.000431,0.000235
1611000,0.0324,0.013523,0.002678,0.000431,0.000353
1612000,0.0324,0.013523,0.002678,0.000431,0.000470
1613000,0.0324,0.013523,0.002678,0.000431,0.000353
1614000,0.0324,0.013523,0.002678,0.000431,0.000118
1615000,0.0324,0.013523,0.002678,0.000431,0.000470
1616000,0.0324,0.013523,0.002678,0.000431,0.000353
1617000,0.0324,0.013523,0.002678,0.000431,0.000235
1618000,0.0324,0.013523,0.002678,0.000431,0.000353
1619000,0.0324,0.013523,0.002678,0.000431,0.000470
1620000,0.0324,0.013523,0.002678,0.000431,0.000353
1621000,0.0324,0.013523,0.002678,0.000431,0.000118
1622000,0.0324,0.013523,0.002678,0.000431,0.000470
1623000,0.0324,0.013523,0.002678,0.000431,0.000353
1624000,0.0324,0.013523,0.002678,0.000431,0.000235
1625000,0.0324,0.013523,0.002678,0.000431,0.000353
1626000,0.0324,0.013523,0.002678,0.000431,0.000470
1627000,0.0324,0.013523,0.002678,0.000431,0.000353
1628000,0.0324,0.013523,0.002678,0.000431,0.000118
1629000,0.0324,0.013523,0.002678,0.000431,0.000470
1630000,0.0324,0.013523,0.002678,0.000431,0.000353
1631000,0.0324,0.013523,0.002678,0.000431,0.000235
1632000,0.0324,0.013523,0.002678,0.000431,0.000353
1633000,0.0324,0.013523,0.002678,0.000431,0.000470
1634000,0.0324,0.013523,0.002678,0.000431,0.000353
1635000,0.0324,0.013523,0.002678,0.000431,0.000118
1636000,0.0324,0.013523,0.002678,0.000431,0.000470
1637000,0.0324,0.013523,0.002678,0.000431,0.000353
1638000,0.0324,0.013523,0.002678,0.000431,0.000235
1639000,0.0324,0.013523,0.002678,0.000431,0.000353
1640000,0.0324,0.013523,0.002678,0.000431,0.000470
1641000,0.0324,0.013523,0.002678,0.000431,0.000235
1642000,0.0324,0.013523,0.002678,0.000431,0.000235
1643000,0.0324,0.013523,0.002678,0.000431,0.000470
1644000,0.0324,0.013523,0.002678,0.000431,0.000353
1645000,0.0324,0.013523,0.002678,0.000431,0.000235
1646000,0.0324,0.013523,0.002678,0.000431,0.000353
1647000,0.0324,0.013523,0.002678,0.000431,0.000470
1648000,0.0324,0.013523,0.002678,0.000431,0.000235
1649000,0.0324,0.013523,0.002678,0.000431,0.000235
1650000,0.0324,0.013523,0.002678,0.000431,0.000470
1651000,0.0324,0.013523,0.002678,0.000431,0.000353
1652000,0.0324,0.013523,0.002678,0.000431,0.000235
1653000,0.0324,0.013523,0.002678,0.000431,0.000353
1654000,0.0324,0.013523,0.002678,0.000431,0.000470
1655000,0.0324,0.013523,0.002678,0.000431,0.000235
1656000,0.0324,0.013523,0.002678,0.000431,0.000235
1657000,0.0324,0.013523,0.002678,0.000431,0.000470
1658000,0.0324,0.013523,0.002678,0.000431,0.000353
1659000,0.0324,0.013523,0.002678,0.000431,0.000235
1660000,0.0324,0.013523,0.002678,0.000431,0.000353
1661000,0.0324,0.013523,0.002678,0.000431,0.000470
1662000,0.0324,0.013523,0.002678,0.000431,0.000235
1663000,0.0324,0.013523,0.002678,0.000431,0.000235
1664000,0.0324,0.013523,0.002678,0.000431,0.000470
1665000,0.0324,0.013523,0.002678,0.000431,0.000353
1666000,0.0324,0.013523,0.002678,0.000431,0.000235
1667000,0.0324,0.013523,0.002678,0.000431,0.000353
1668000,0.0324,0.013523,0.002678,0.000431,0.000470
1669000,0.0324,0.013523,0.002678,0.000431,0.000235
1670000,0.0324,0.013523,0.002678,0.000431,0.000235
1671000,0.0324,0.013523,0.002678,0.000431,0.000470
1672000,0.0324,0.013523,0.002678,0.000431,0.000353
1673000,0.0324,0.013523,0.002678,0.000431,0.000235
1674000,0.0324,0.013523,0.002678,0.000431,0.000353
1675000,0.0324,0.013523,0.002678,0.000431,0.000470
1676000,0.0324,0.013523,0.002678,0.000431,0.000235
1677000,0.0324,0.013523,0.002678,0.000431,0.000235
1678000,0.0324,0.013523,0.002678,0.000431,0.000470
1679000,0.0324,0.013523,0.002678,0.000431,0.000353
1680000,0.0324,0.013523,0.002678,0.000431,0.000235
1681000,0.0324,0.013523,0.002678,0.000431,0.000353
1682000,0.0324,0.013523,0.002678,0.000431,0.000470
1683000,0.0324,0.013523,0.002678,0.000431,0.000118
1684000,0.0324,0.013523,0.002678,0.000431,0.000353
1685000,0.0324,0.013523,0.002678,0.000431,0.000470
1686000,0.0324,0.013523,0.002678,0.000431,0.000353
1687000,0.0324,0.013523,0.002678,0.000431,0.000235
1688000,0.0324,0.013523,0.002678,0.000431,0.000353
1689000,0.0324,0.013523,0.002678,0.000431,0.000470
1690000,0.0324,0.013523,0.002678,0.000431,0.000118
1691000,0.0324,0.013523,0.002678,0.000431,0.000353
1692000,0.0324,0.013523,0.002678,0.000431,0.000470
1693000,0.0324,0.013523,0.002678,0.000431,0.000353
1694000,0.0324,0.013523,0.002678,0.000431,0.000235
1695000,0.0324,0.013523,0.002678,0.000431,0.000353
1696000,0.0324,0.013523,0.002678,0.000431,0.000470
1697000,0.0324,0.013523,0.002678,0.000431,0.000118
1698000,0.0324,0.013523,0.002678,0.000431,0.000353
1699000,0.0324,0.013523,0.002678,0.000431,0.000470
1700000,0.0324,0.013523,0.002678,0.000431,0.000353
1701000,0.0324,0.013523,0.002678,0.000431,0.000235
1702000,0.0324,0.013523,0.002678,0.000431,0.000353
1703000,0.0324,0.013523,0.002678,0.000431,0.000353
1704000,0.0324,0.013523,0.002678,0.000431,0.000235
1705000,0.0324,0.013523,0.002678,0.000431,0.000353
1706000,0.0324,0.013523,0.002678,0.000431,0.000470
1707000,0.0324,0.013523,0.002678,0.000431,0.000353
1708000,0.0324,0.013523,0.002678,0.000431,0.000235
1709000,0.0324,0.013523,0.002678,0.000431,0.000353
1710000,0.0324,0.013523,0.002678,0.000431,0.000353
1711000,0.0324,0.013523,0.002678,0.000431,0.000235
1712000,0.0324,0.013523,0.002678,0.000431,0.000353
1713000,0.0324,0.013523,0.002678,0.000431,0.000470
1714000,0.0324,0.013523,0.002678,0.000431,0.000353
1715000,0.0324,0.013523,0.002678,0.000431,0.000235
1716000,0.0324,0.013523,0.002678,0.000431,0.000353
1717000,0.0324,0.013523,0.002678,0.000431,0.000353
1718000,0.0324,0.013523,0.002678,0.000431,0.000235
1719000,0.0324,0.013523,0.002678,0.000431,0.000353
1720000,0.0324,0.013523,0.002678,0.000431,0.000470
1721000,0.0324,0.013523,0.002678,0.000431,0.000353
1722000,0.0324,0.013523,0.002678,0.000431,0.000235
1723000,0.0324,0.013523,0.002678,0.000431,0.000353
1724000,0.0324,0.013523,0.002678,0.000431,0.000353
1725000,0.0324,0.013523,0.002678,0.000431,0.000235
1726000,0.0324,0.013523,0.002678,0.000431,0.000353
1727000,0.0324,0.013523,0.002678,0.000431,0.000470
1728000,0.0324,0.013523,0.002678,0.000431,0.000353
1729000,0.0324,0.013523,0.002678,0.000431,0.000235
1730000,0.0324,0.013523,0.002678,0.000431,0.000353
1731000,0.0324,0.013523,0.002678,0.000431,0.000353
1732000,0.0324,0.013523,0.002678,0.000431,0.000235
1733000,0.0324,0.013523,0.002678,0.000431,0.000353
1734000,0.0324,0.013523,0.002678,0.000431,0.000470
1735000,0.0324,0.013523,0.002678,0.000431,0.000353
1736000,0.0324,0.013523,0.002678,0.000431,0.000235
1737000,0.0324,0.013523,0.002678,0.000431,0.000353
1738000,0.0324,0.013523,0.002678,0.000431,0.000353
1739000,0.0324,0.013523,0.002678,0.000431,0.000235
1740000,0.0324,0.013523,0.002678,0.000431,0.000353
1741000,0.0324,0.013523,0.002678,0.000431,0.000470
1742000,0.0324,0.013523,0.002678,0.000431,0.000353
1743000,0.0324,0.013523,0.002678,0.000431,0.000235
1744000,0.0324,0.013523,0.002678,0.000431,0.000353
1745000,0.0324,0.013523,0.002678,0.000431,0.000353
1746000,0.0324,0.013523,0.002678,0.000431,0.000235
1747000,0.0324,0.013523,0.002678,0.000431,0.000353
1748000,0.0324,0.013523,0.002678,0.000431,0.000470
1749000,0.0324,0.013523,0.002678,0.000431,0.000353
1750000,0.0324,0.013523,0.002678,0.000431,0.000235
1751000,0.0324,0.013523,0.002678,0.000431,0.000353
1752000,0.0324,0.013523,0.002678,0.000431,0.000353
1753000,0.0324,0.013523,0.002678,0.000431,0.000235
1754000,0.0324,0.013523,0.002678,0.000431,0.000353
1755000,0.0324,0.013523,0.002678,0.000431,0.000470
1756000,0.0324,0.013523,0.002678,0.000431,0.000353
1757000,0.0324,0.013523,0.002678,0.000431,0.000118
1758000,0.0324,0.013523,0.002678,0.000431,0.000470
1759000,0.0324,0.013523,0.002678,0.000431,0.000353
1760000,0.0324,0.013523,0.002678,0.000431,0.000235
1761000,0.0324,0.013523,0.002678,0.000431,0.000353
1762000,0.0324,0.013523,0.002678,0.000431,0.000470
1763000,0.0324,0.013523,0.002678,0.000431,0.000353
1764000,0.0324,0.013523,0.002678,0.000431,0.000118
1765000,0.0324,0.013523,0.002678,0.000431,0.000470
1766000,0.0324,0.013523,0.002678,0.000431,0.000353
1767000,0.0324,0.013523,0.002678,0.000431,0.000235
1768000,0.0324,0.013523,0.002678,0.000431,0.000353
1769000,0.0324,0.013523,0.002678,0.000431,0.000470
1770000,0.0324,0.013523,0.002678,0.000431,0.000353
1771000,0.0324,0.013523,0.002678,0.000431,0.000118
1772000,0.0324,0.013523,0.002678,0.000431,0.000470
1773000,0.0324,0.013523,0.002678,0.000431,0.000353
1774000,0.0324,0.013523,0.002678,0.000431,0.000235
1775000,0.0324,0.013523,0.002678,0.000431,0.000353
1776000,0.0324,0.013523,0.002678,0.000431,0.000470
1777000,0.0324,0.013523,0.002678,0.000431,0.000235
1778000,0.0324,0.013523,0.002678,0.000431,0.000235
1779000,0.0324,0.013523,0.002678,0.000431,0.000470
1780000,0.0324,0.013523,0.002678,0.000431,0.000353
1781000,0.0324,0.013523,0.002678,0.000431,0.000235
1782000,0.0324,0.013523,0.002678,0.000431,0.000353
1783000,0.0324,0.013523,0.002678,0.000431,0.000470
1784000,0.0324,0.013523,0.002678,0.000431,0.000235
1785000,0.0324,0.013523,0.002678,0.000431,0.000235
1786000,0.0324,0.013523,0.002678,0.000431,0.000470
1787000,0.0324,0.013523,0.002678,0.000431,0.000353
1788000,0.0324,0.013523,0.002678,0.000431,0.000235
1789000,0.0324,0.013523,0.002678,0.000431,0.000353
1790000,0.0324,0.013523,0.002678,0.000431,0.000470
1791000,0.0324,0.013523,0.002678,0.000431,0.000235
1792000,0.0324,0.013523,0.002678,0.000431,0.000235
1793000,0.0324,0.013523,0.002678,0.000431,0.000470
1794000,0.0324,0.013523,0.002678,0.000431,0.000353
1795000,0.0324,0.013523,0.002678,0.000431,0.000235
1796000,0.0324,0.013523,0.002678,0.000431,0.000353
1797000,0.0324,0.013523,0.002678,0.000431,0.000470
1798000,0.0324,0.013523,0.002678,0.000431,0.000235
1799000,0.0324,0.013523,0.002678,0.000431,0.000235
1800000,0.0324,0.013523,0.002678,0.000431,0.000470
1801000,0.0324,0.013523,0.002678,0.000431,0.000353
1802000,0.0324,0.013523,0.002678,0.000431,0.000235
1803000,0.0324,0.013523,0.002678,0.000431,0.000353
1804000,0.0324,0.013523,0.002678,0.000431,0.000470
1805000,0.0324,0.013523,0.002678,0.000431,0.000118
1806000,0.0324,0.013523,0.002678,0.000431,0.000353
1807000,0.0324,0.013523,0.002678,0.000431,0.000470
1808000,0.0324,0.013523,0.002678,0.000431,0.000353
1809000,0.0324,0.013523,0.002678,0.000431,0.000235
1810000,0.0324,0.013523,0.002678,0.000431,0.000353
1811000,0.0324,0.013523,0.002678,0.000431,0.000470
1812000,0.0324,0.013523,0.002678,0.000431,0.000118
1813000,0.0324,0.013523,0.002678,0.000431,0.000353
1814000,0.0324,0.013523,0.002678,0.000431,0.000470
1815000,0.0324,0.013523,0.002678,0.000431,0.000353
1816000,0.0324,0.013523,0.002678,0.000431,0.000235
1817000,0.0324,0.013523,0.002678,0.000431,0.000353
1818000,0.0324,0.013523,0.002678,0.000431,0.000353
1819000,0.0324,0.013523,0.002678,0.000431,0.000235
1820000,0.0324,0.013523,0.002678,0.000431,0.000353
1821000,0.0324,0.013523,0.002678,0.000431,0.000470
1822000,0.0324,0.013523,0.002678,0.000431,0.000353
1823000,0.0324,0.013523,0.002678,0.000431,0.000235
1824000,0.0324,0.013523,0.002678,0.000431,0.000353
1825000,0.0324,0.013523,0.002678,0.000431,0.000353
1826000,0.0324,0.013523,0.002678,0.000431,0.000235
1827000,0.0324,0.013523,0.002678,0.000431,0.000353
1828000,0.0324,0.013523,0.002678,0.000431,0.000470
1829000,0.0324,0.013523,0.002678,0.000431,0.000353
1830000,0.0324,0.013523,0.002678,0.000431,0.000235
1831000,0.0324,0.013523,0.002678,0.000431,0.000353
1832000,0.0324,0.013523,0.002678,0.000431,0.000353
1833000,0.0324,0.013523,0.002678,0.000431,0.000235
1834000,0.0324,0.013523,0.002678,0.000431,0.000353
1835000,0.0324,0.013523,0.002678,0.000431,0.000470
1836000,0.0324,0.013523,0.002678,0.000431,0.000353
1837000,0.0324,0.013523,0.002678,0.000431,0.000118
1838000,0.0324,0.013523,0.002678,0.000431,0.000470
1839000,0.0324,0.013523,0.002678,0.000431,0.000353
1840000,0.0324,0.013523,0.002678,0.000431,0.000235
1841000,0.0324,0.013523,0.002678,0.000431,0.000353
1842000,0.0324,0.013523,0.002678,0.000431,0.000470
1843000,0.0324,0.013523,0.002678,0.000431,0.000235
1844000,0.0324,0.013523,0.002678,0.000431,0.000235
1845000,0.0324,0.013523,0.002678,0.000431,0.000470
1846000,0.0324,0.013523,0.002678,0.000431,0.000353
1847000,0.0324,0.013523,0.002678,0.000431,0.000235
1848000,0.0324,0.013523,0.002678,0.000431,0.000353
1849000,0.0324,0.013523,0.002678,0.000431,0.000470
1850000,0.0324,0.013523,0.002678,0.000431,0.000235
1851000,0.0324,0.013523,0.002678,0.000431,0.000235
1852000,0.0324,0.013523,0.002678,0.000431,0.000470
1853000,0.0324,0.013523,0.002678,0.000431,0.000353
1854000,0.0324,0.013523,0.002678,0.000431,0.000235
1855000,0.0324,0.013523,0.002678,0.000431,0.000353
1856000,0.0324,0.013523,0.002678,0.000431,0.000470
1857000,0.0324,0.013523,0.002678,0.000431,0.000235
1858000,0.0324,0.013523,0.002678,0.000431,0.000235
1859000,0.0324,0.013523,0.002678,0.000431,0.000470
1860000,0.0324,0.013523,0.002678,0.000431,0.000353
1861000,0.0324,0.013523,0.002678,0.000431,0.000235
1862000,0.0324,0.013523,0.002678,0.000431,0.000353
1863000,0.0324,0.013523,0.002678,0.000431,0.000470
1864000,0.0324,0.013523,0.002678,0.000431,0.000118
1865000,0.0324,0.013523,0.002678,0.000431,0.000353
1866000,0.0324,0.013523,0.002678,0.000431,0.000470
1867000,0.0324,0.013523,0.002678,0.000431,0.000353
1868000,0.0324,0.013523,0.002678,0.000431,0.000235
1869000,0.0324,0.013523,0.002678,0.000431,0.000353
1870000,0.0324,0.013523,0.002678,0.000431,0.000470
1871000,0.0324,0.013523,0.002678,0.000431,0.000118
1872000,0.0324,0.013523,0.002678,0.000431,0.000353
1873000,0.0324,0.013523,0.002678,0.000431,0.000470
1874000,0.0324,0.013523,0.002678,0.000431,0.000353
1875000,0.0324,0.013523,0.002678,0.000431,0.000235
1876000,0.0324,0.013523,0.002678,0.000431,0.000353
1877000,0.0324,0.013523,0.002678,0.000431,0.000353
1878000,0.0324,0.013523,0.002678,0.000431,0.000235
1879000,0.0324,0.013523,0.002678,0.000431,0.000353
1880000,0.0324,0.013523,0.002678,0.000431,0.000470
1881000,0.0324,0.013523,0.002678,0.000431,0.000353
1882000,0.0324,0.013523,0.002678,0.000431,0.000235
1883000,0.0324,0.013523,0.002678,0.000431,0.000353
1884000,0.0324,0.013523,0.002678,0.000431,0.000353
1885000,0.0324,0.013523,0.002678,0.000431,0.000235
1886000,0.0324,0.013523,0.002678,0.000431,0.000353
1887000,0.0324,0.013523,0.002678,0.000431,0.000470
1888000,0.0324,0.013523,0.002678,0.000431,0.000353
1889000,0.0324,0.013523,0.002678,0.000431,0.000235
1890000,0.0324,0.013523,0.002678,0.000431,0.000353
1891000,0.0324,0.013523,0.002678,0.000431,0.000353
1892000,0.0324,0.013523,0.002678,0.000431,0.000235
1893000,0.0324,0.013523,0.002678,0.000431,0.000353
1894000,0.0324,0.013523,0.002678,0.000431,0.000470
1895000,0.0324,0.013523,0.002678,0.000431,0.000353
1896000,0.0324,0.013523,0.002678,0.000431,0.000235
1897000,0.0324,0.013523,0.002678,0.000431,0.000353
1898000,0.0324,0.013523,0.002678,0.000431,0.000353
1899000,0.0324,0.013523,0.002678,0.000431,0.000235
1900000,0.0324,0.013523,0.002678,0.000431,0.000353
1901000,0.0324,0.013523,0.002678,0.000431,0.000470
1902000,0.0324,0.013523,0.002678,0.000431,0.000353
1903000,0.0324,0.013523,0.002678,0.000431,0.000235
1904000,0.0324,0.013523,0.002678,0.000431,0.000353
1905000,0.0324,0.013523,0.002678,0.000431,0.000353
1906000,0.0324,0.013523,0.002678,0.000431,0.000235
1907000,0.0324,0.013523,0.002678,0.000431,0.000353
1908000,0.0324,0.013523,0.002678,0.000431,0.000470
1909000,0.0324,0.013523,0.002678,0.000431,0.000353
1910000,0.0324,0.013523,0.002678,0.000431,0.000235
1911000,0.0324,0.013523,0.002678,0.000431,0.000353
1912000,0.0324,0.013523,0.002678,0.000431,0.000353
1913000,0.0324,0.013523,0.002678,0.000431,0.000235
1914000,0.0324,0.013523,0.002678,0.000431,0.000353
1915000,0.0324,0.013523,0.002678,0.000431,0.000470
1916000,0.0324,0.013523,0.002678,0.000431,0.000353
1917000,0.0324,0.013523,0.002678,0.000431,0.000235
1918000,0.0324,0.013523,0.002678,0.000431,0.000353
1919000,0.0324,0.013523,0.002678,0.000431,0.000353
1920000,0.0324,0.013523,0.002678,0.000431,0.000235
1921000,0.0324,0.013523,0.002678,0.000431,0.000353
1922000,0.0324,0.013523,0.002678,0.000431,0.000470
1923000,0.0324,0.013523,0.002678,0.000431,0.000353
1924000,0.0324,0.013523,0.002678,0.000431,0.000118
1925000,0.0324,0.013523,0.002678,0.000431,0.000470
1926000,0.0324,0.013523,0.002678,0.000431,0.000353
1927000,0.0324,0.013523,0.002678,0.000431,0.000235
1928000,0.0324,0.013523,0.002678,0.000431,0.000353
1929000,0.0324,0.013523,0.002678,0.000431,0.000470
1930000,0.0324,0.013523,0.002678,0.000431,0.000353
1931000,0.0324,0.013523,0.002678,0.000431,0.000118
1932000,0.0324,0.013523,0.002678,0.000431,0.000470
1933000,0.0324,0.013523,0.002678,0.000431,0.000353
1934000,0.0324,0.013523,0.002678,0.000431,0.000235
1935000,0.0324,0.013523,0.002678,0.000431,0.000353
1936000,0.0324,0.013523,0.002678,0.000431,0.000470
1937000,0.0324,0.013523,0.002678,0.000431,0.000235
1938000,0.0324,0.013523,0.002678,0.000431,0.000235
1939000,0.0324,0.013523,0.002678,0.000431,0.000470
1940000,0.0324,0.013523,0.002678,0.000431,0.000353
1941000,0.0324,0.013523,0.002678,0.000431,0.000235
1942000,0.0324,0.013523,0.002678,0.000431,0.000353
1943000,0.0324,0.013523,0.002678,0.000431,0.000470
1944000,0.0324,0.013523,0.002678,0.000431,0.000235
1945000,0.0324,0.013523,0.002678,0.000431,0.000235
1946000,0.0324,0.013523,0.002678,0.000431,0.000470
1947000,0.0324,0.013523,0.002678,0.000431,0.000353
1948000,0.0324,0.013523,0.002678,0.000431,0.000235
1949000,0.0324,0.013523,0.002678,0.000431,0.000353
1950000,0.0324,0.013523,0.002678,0.000431,0.000470
1951000,0.0324,0.013523,0.002678,0.000431,0.000118
1952000,0.0324,0.013523,0.002678,0.000431,0.000353
1953000,0.0324,0.013523,0.002678,0.000431,0.000470
1954000,0.0324,0.013523,0.002678,0.000431,0.000353
1955000,0.0324,0.013523,0.002678,0.000431,0.000235
1956000,0.0324,0.013523,0.002678,0.000431,0.000353
1957000,0.0324,0.013523,0.002678,0.000431,0.000353
1958000,0.0324,0.013523,0.002678,0.000431,0.000235
1959000,0.0324,0.013523,0.002678,0.000431,0.000353
1960000,0.0324,0.013523,0.002678,0.000431,0.000470
1961000,0.0324,0.013523,0.002678,0.000431,0.000353
1962000,0.0324,0.013523,0.002678,0.000431,0.000235
1963000,0.0324,0.013523,0.002678,0.000431,0.000353
1964000,0.0324,0.013523,0.002678,0.000431,0.000353
1965000,0.0324,0.013523,0.002678,0.000431,0.000235
1966000,0.0324,0.013523,0.002678,0.000431,0.000353
1967000,0.0324,0.013523,0.002678,0.000431,0.000470
1968000,0.0324,0.013523,0.002678,0.000431,0.000353
1969000,0.0324,0.013523,0.002678,0.000431,0.000118
1970000,0.0324,0.013523,0.002678,0.000431,0.000470
1971000,0.0324,0.013523,0.002678,0.000431,0.000353
1972000,0.0324,0.013523,0.002678,0.000431,0.000235
1973000,0.0324,0.013523,0.002678,0.000431,0.000353
1974000,0.0324,0.013523,0.002678,0.000431,0.000470
1975000,0.0324,0.013523,0.002678,0.000431,0.000353
1976000,0.0324,0.013523,0.002678,0.000431,0.000118
1977000,0.0324,0.013523,0.002678,0.000431,0.000470
1978000,0.0324,0.013523,0.002678,0.000431,0.000353
1979000,0.0324,0.013523,0.002678,0.000431,0.000235
1980000,0.0324,0.013523,0.002678,0.000431,0.000353
1981000,0.0324,0.013523,0.002678,0.000431,0.000470
1982000,0.0324,0.013523,0.002678,0.000431,0.000235
1983000,0.0324,0.013523,0.002678,0.000431,0.000235
1984000,0.0324,0.013523,0.002678,0.000431,0.000470
1985000,0.0324,0.013523,0.002678,0.000431,0.000353
1986000,0.0324,0.013523,0.002678,0.000431,0.000235
1987000,0.0324,0.013523,0.002678,0.000431,0.000353
1988000,0.0324,0.013523,0.002678,0.000431,0.000470
1989000,0.0324,0.013523,0.002678,0.000431,0.000235
1990000,0.0324,0.013523,0.002678,0.000431,0.000235
1991000,0.0324,0.013523,0.002678,0.000431,0.000470
1992000,0.0324,0.013523,0.002678,0.000431,0.000353
1993000,0.0324,0.013523,0.002678,0.000431,0.000235
1994000,0.0324,0.013523,0.002678,0.000431,0.000353
1995000,0.0324,0.013523,0.002678,0.000431,0.000353
1996000,0.0324,0.013523,0.002678,0.000431,0.000235
1997000,0.0324,0.013523,0.002678,0.000431,0.000353
1998000,0.0324,0.013523,0.002678,0.000431,0.000470
1999000,0.0324,0.013523,0.002678,0.000431,0.000353
