Cycle,Area(mm^2),PeakDynamic(W),SubthresholdLeakage(W),GateLeakage(W),RunTimeDynamic(W)
24000000,0.0324,0.013523,0.002678,0.000431,0.000235
24001000,0.0324,0.013523,0.002678,0.000431,0.000470
24002000,0.0324,0.013523,0.002678,0.000431,0.000353
24003000,0.0324,0.013523,0.002678,0.000431,0.000235
24004000,0.0324,0.013523,0.002678,0.000431,0.000353
24005000,0.0324,0.013523,0.002678,0.000431,0.000470
24006000,0.0324,0.013523,0.002678,0.000431,0.000235
24007000,0.0324,0.013523,0.002678,0.000431,0.000235
24008000,0.0324,0.013523,0.002678,0.000431,0.000470
24009000,0.0324,0.013523,0.002678,0.000431,0.000353
24010000,0.0324,0.013523,0.002678,0.000431,0.000235
24011000,0.0324,0.013523,0.002678,0.000431,0.000353
24012000,0.0324,0.013523,0.002678,0.000431,0.000470
24013000,0.0324,0.013523,0.002678,0.000431,0.000235
24014000,0.0324,0.013523,0.002678,0.000431,0.000235
24015000,0.0324,0.013523,0.002678,0.000431,0.000470
24016000,0.0324,0.013523,0.002678,0.000431,0.000353
24017000,0.0324,0.013523,0.002678,0.000431,0.000235
24018000,0.0324,0.013523,0.002678,0.000431,0.000353
24019000,0.0324,0.013523,0.002678,0.000431,0.000470
24020000,0.0324,0.013523,0.002678,0.000431,0.000118
24021000,0.0324,0.013523,0.002678,0.000431,0.000353
24022000,0.0324,0.013523,0.002678,0.000431,0.000470
24023000,0.0324,0.013523,0.002678,0.000431,0.000353
24024000,0.0324,0.013523,0.002678,0.000431,0.000235
24025000,0.0324,0.013523,0.002678,0.000431,0.000353
24026000,0.0324,0.013523,0.002678,0.000431,0.000470
24027000,0.0324,0.013523,0.002678,0.000431,0.000118
24028000,0.0324,0.013523,0.002678,0.000431,0.000353
24029000,0.0324,0.013523,0.002678,0.000431,0.000470
24030000,0.0324,0.013523,0.002678,0.000431,0.000353
24031000,0.0324,0.013523,0.002678,0.000431,0.000235
24032000,0.0324,0.013523,0.002678,0.000431,0.000353
24033000,0.0324,0.013523,0.002678,0.000431,0.000470
24034000,0.0324,0.013523,0.002678,0.000431,0.000118
24035000,0.0324,0.013523,0.002678,0.000431,0.000353
24036000,0.0324,0.013523,0.002678,0.000431,0.000470
24037000,0.0324,0.013523,0.002678,0.000431,0.000353
24038000,0.0324,0.013523,0.002678,0.000431,0.000235
24039000,0.0324,0.013523,0.002678,0.000431,0.000353
24040000,0.0324,0.013523,0.002678,0.000431,0.000353
24041000,0.0324,0.013523,0.002678,0.000431,0.000235
24042000,0.0324,0.013523,0.002678,0.000431,0.000353
24043000,0.0324,0.013523,0.002678,0.000431,0.000470
24044000,0.0324,0.013523,0.002678,0.000431,0.000353
24045000,0.0324,0.013523,0.002678,0.000431,0.000235
24046000,0.0324,0.013523,0.002678,0.000431,0.000353
24047000,0.0324,0.013523,0.002678,0.000431,0.000353
24048000,0.0324,0.013523,0.002678,0.000431,0.000235
24049000,0.0324,0.013523,0.002678,0.000431,0.000353
24050000,0.0324,0.013523,0.002678,0.000431,0.000470
24051000,0.0324,0.013523,0.002678,0.000431,0.000353
24052000,0.0324,0.013523,0.002678,0.000431,0.000235
24053000,0.0324,0.013523,0.002678,0.000431,0.000353
24054000,0.0324,0.013523,0.002678,0.000431,0.000353
24055000,0.0324,0.013523,0.002678,0.000431,0.000235
24056000,0.0324,0.013523,0.002678,0.000431,0.000353
24057000,0.0324,0.013523,0.002678,0.000431,0.000470
24058000,0.0324,0.013523,0.002678,0.000431,0.000353
24059000,0.0324,0.013523,0.002678,0.000431,0.000235
24060000,0.0324,0.013523,0.002678,0.000431,0.000353
24061000,0.0324,0.013523,0.002678,0.000431,0.000353
24062000,0.0324,0.013523,0.002678,0.000431,0.000235
24063000,0.0324,0.013523,0.002678,0.000431,0.000353
24064000,0.0324,0.013523,0.002678,0.000431,0.000470
24065000,0.0324,0.013523,0.002678,0.000431,0.000353
24066000,0.0324,0.013523,0.002678,0.000431,0.000235
24067000,0.0324,0.013523,0.002678,0.000431,0.000353
24068000,0.0324,0.013523,0.002678,0.000431,0.000353
24069000,0.0324,0.013523,0.002678,0.000431,0.000235
24070000,0.0324,0.013523,0.002678,0.000431,0.000353
24071000,0.0324,0.013523,0.002678,0.000431,0.000470
24072000,0.0324,0.013523,0.002678,0.000431,0.000353
24073000,0.0324,0.013523,0.002678,0.000431,0.000235
24074000,0.0324,0.013523,0.002678,0.000431,0.000353
24075000,0.0324,0.013523,0.002678,0.000431,0.000353
24076000,0.0324,0.013523,0.002678,0.000431,0.000235
24077000,0.0324,0.013523,0.002678,0.000431,0.000353
24078000,0.0324,0.013523,0.002678,0.000431,0.000470
24079000,0.0324,0.013523,0.002678,0.000431,0.000353
24080000,0.0324,0.013523,0.002678,0.000431,0.000235
24081000,0.0324,0.013523,0.002678,0.000431,0.000353
24082000,0.0324,0.013523,0.002678,0.000431,0.000353
24083000,0.0324,0.013523,0.002678,0.000431,0.000235
24084000,0.0324,0.013523,0.002678,0.000431,0.000353
24085000,0.0324,0.013523,0.002678,0.000431,0.000470
24086000,0.0324,0.013523,0.002678,0.000431,0.000353
24087000,0.0324,0.013523,0.002678,0.000431,0.000235
24088000,0.0324,0.013523,0.002678,0.000431,0.000353
24089000,0.0324,0.013523,0.002678,0.000431,0.000353
24090000,0.0324,0.013523,0.002678,0.000431,0.000235
24091000,0.0324,0.013523,0.002678,0.000431,0.000353
24092000,0.0324,0.013523,0.002678,0.000431,0.000470
24093000,0.0324,0.013523,0.002678,0.000431,0.000353
24094000,0.0324,0.013523,0.002678,0.000431,0.000118
24095000,0.0324,0.013523,0.002678,0.000431,0.000470
24096000,0.0324,0.013523,0.002678,0.000431,0.000353
24097000,0.0324,0.013523,0.002678,0.000431,0.000235
24098000,0.0324,0.013523,0.002678,0.000431,0.000353
24099000,0.0324,0.013523,0.002678,0.000431,0.000470
24100000,0.0324,0.013523,0.002678,0.000431,0.000353
24101000,0.0324,0.013523,0.002678,0.000431,0.000118
24102000,0.0324,0.013523,0.002678,0.000431,0.000470
24103000,0.0324,0.013523,0.002678,0.000431,0.000353
24104000,0.0324,0.013523,0.002678,0.000431,0.000235
24105000,0.0324,0.013523,0.002678,0.000431,0.000353
24106000,0.0324,0.013523,0.002678,0.000431,0.000470
24107000,0.0324,0.013523,0.002678,0.000431,0.000353
24108000,0.0324,0.013523,0.002678,0.000431,0.000118
24109000,0.0324,0.013523,0.002678,0.000431,0.000470
24110000,0.0324,0.013523,0.002678,0.000431,0.000353
24111000,0.0324,0.013523,0.002678,0.000431,0.000235
24112000,0.0324,0.013523,0.002678,0.000431,0.000353
24113000,0.0324,0.013523,0.002678,0.000431,0.000470
24114000,0.0324,0.013523,0.002678,0.000431,0.000235
24115000,0.0324,0.013523,0.002678,0.000431,0.000235
24116000,0.0324,0.013523,0.002678,0.000431,0.000470
24117000,0.0324,0.013523,0.002678,0.000431,0.000353
24118000,0.0324,0.013523,0.002678,0.000431,0.000235
24119000,0.0324,0.013523,0.002678,0.000431,0.000353
24120000,0.0324,0.013523,0.002678,0.000431,0.000470
24121000,0.0324,0.013523,0.002678,0.000431,0.000235
24122000,0.0324,0.013523,0.002678,0.000431,0.000235
24123000,0.0324,0.013523,0.002678,0.000431,0.000470
24124000,0.0324,0.013523,0.002678,0.000431,0.000353
24125000,0.0324,0.013523,0.002678,0.000431,0.000235
24126000,0.0324,0.013523,0.002678,0.000431,0.000353
24127000,0.0324,0.013523,0.002678,0.000431,0.000470
24128000,0.0324,0.013523,0.002678,0.000431,0.000235
24129000,0.0324,0.013523,0.002678,0.000431,0.000235
24130000,0.0324,0.013523,0.002678,0.000431,0.000470
24131000,0.0324,0.013523,0.002678,0.000431,0.000353
24132000,0.0324,0.013523,0.002678,0.000431,0.000235
24133000,0.0324,0.013523,0.002678,0.000431,0.000353
24134000,0.0324,0.013523,0.002678,0.000431,0.000470
24135000,0.0324,0.013523,0.002678,0.000431,0.000235
24136000,0.0324,0.013523,0.002678,0.000431,0.000235
24137000,0.0324,0.013523,0.002678,0.000431,0.000470
24138000,0.0324,0.013523,0.002678,0.000431,0.000353
24139000,0.0324,0.013523,0.002678,0.000431,0.000235
24140000,0.0324,0.013523,0.002678,0.000431,0.000353
24141000,0.0324,0.013523,0.002678,0.000431,0.000470
24142000,0.0324,0.013523,0.002678,0.000431,0.000235
24143000,0.0324,0.013523,0.002678,0.000431,0.000235
24144000,0.0324,0.013523,0.002678,0.000431,0.000470
24145000,0.0324,0.013523,0.002678,0.000431,0.000353
24146000,0.0324,0.013523,0.002678,0.000431,0.000235
24147000,0.0324,0.013523,0.002678,0.000431,0.000353
24148000,0.0324,0.013523,0.002678,0.000431,0.000470
24149000,0.0324,0.013523,0.002678,0.000431,0.000235
24150000,0.0324,0.013523,0.002678,0.000431,0.000235
24151000,0.0324,0.013523,0.002678,0.000431,0.000470
24152000,0.0324,0.013523,0.002678,0.000431,0.000353
24153000,0.0324,0.013523,0.002678,0.000431,0.000235
24154000,0.0324,0.013523,0.002678,0.000431,0.000353
24155000,0.0324,0.013523,0.002678,0.000431,0.000470
24156000,0.0324,0.013523,0.002678,0.000431,0.000118
24157000,0.0324,0.013523,0.002678,0.000431,0.000353
24158000,0.0324,0.013523,0.002678,0.000431,0.000470
24159000,0.0324,0.013523,0.002678,0.000431,0.000353
24160000,0.0324,0.013523,0.002678,0.000431,0.000235
24161000,0.0324,0.013523,0.002678,0.000431,0.000353
24162000,0.0324,0.013523,0.002678,0.000431,0.000470
24163000,0.0324,0.013523,0.002678,0.000431,0.000118
24164000,0.0324,0.013523,0.002678,0.000431,0.000353
24165000,0.0324,0.013523,0.002678,0.000431,0.000470
24166000,0.0324,0.013523,0.002678,0.000431,0.000353
24167000,0.0324,0.013523,0.002678,0.000431,0.000235
24168000,0.0324,0.013523,0.002678,0.000431,0.000353
24169000,0.0324,0.013523,0.002678,0.000431,0.000470
24170000,0.0324,0.013523,0.002678,0.000431,0.000118
24171000,0.0324,0.013523,0.002678,0.000431,0.000353
24172000,0.0324,0.013523,0.002678,0.000431,0.000470
24173000,0.0324,0.013523,0.002678,0.000431,0.000353
24174000,0.0324,0.013523,0.002678,0.000431,0.000235
24175000,0.0324,0.013523,0.002678,0.000431,0.000353
24176000,0.0324,0.013523,0.002678,0.000431,0.000470
24177000,0.0324,0.013523,0.002678,0.000431,0.000118
24178000,0.0324,0.013523,0.002678,0.000431,0.000353
24179000,0.0324,0.013523,0.002678,0.000431,0.000470
24180000,0.0324,0.013523,0.002678,0.000431,0.000353
24181000,0.0324,0.013523,0.002678,0.000431,0.000235
24182000,0.0324,0.013523,0.002678,0.000431,0.000353
24183000,0.0324,0.013523,0.002678,0.000431,0.000353
24184000,0.0324,0.013523,0.002678,0.000431,0.000235
24185000,0.0324,0.013523,0.002678,0.000431,0.000353
24186000,0.0324,0.013523,0.002678,0.000431,0.000470
24187000,0.0324,0.013523,0.002678,0.000431,0.000353
24188000,0.0324,0.013523,0.002678,0.000431,0.000235
24189000,0.0324,0.013523,0.002678,0.000431,0.000353
24190000,0.0324,0.013523,0.002678,0.000431,0.000353
24191000,0.0324,0.013523,0.002678,0.000431,0.000235
24192000,0.0324,0.013523,0.002678,0.000431,0.000353
24193000,0.0324,0.013523,0.002678,0.000431,0.000470
24194000,0.0324,0.013523,0.002678,0.000431,0.000353
24195000,0.0324,0.013523,0.002678,0.000431,0.000235
24196000,0.0324,0.013523,0.002678,0.000431,0.000353
24197000,0.0324,0.013523,0.002678,0.000431,0.000353
24198000,0.0324,0.013523,0.002678,0.000431,0.000235
24199000,0.0324,0.013523,0.002678,0.000431,0.000353
24200000,0.0324,0.013523,0.002678,0.000431,0.000470
24201000,0.0324,0.013523,0.002678,0.000431,0.000353
24202000,0.0324,0.013523,0.002678,0.000431,0.000235
24203000,0.0324,0.013523,0.002678,0.000431,0.000353
24204000,0.0324,0.013523,0.002678,0.000431,0.000353
24205000,0.0324,0.013523,0.002678,0.000431,0.000235
24206000,0.0324,0.013523,0.002678,0.000431,0.000353
24207000,0.0324,0.013523,0.002678,0.000431,0.000470
24208000,0.0324,0.013523,0.002678,0.000431,0.000353
24209000,0.0324,0.013523,0.002678,0.000431,0.000235
24210000,0.0324,0.013523,0.002678,0.000431,0.000353
24211000,0.0324,0.013523,0.002678,0.000431,0.000353
24212000,0.0324,0.013523,0.002678,0.000431,0.000235
24213000,0.0324,0.013523,0.002678,0.000431,0.000353
24214000,0.0324,0.013523,0.002678,0.000431,0.000470
24215000,0.0324,0.013523,0.002678,0.000431,0.000353
24216000,0.0324,0.013523,0.002678,0.000431,0.000235
24217000,0.0324,0.013523,0.002678,0.000431,0.000353
24218000,0.0324,0.013523,0.002678,0.000431,0.000353
24219000,0.0324,0.013523,0.002678,0.000431,0.000235
24220000,0.0324,0.013523,0.002678,0.000431,0.000353
24221000,0.0324,0.013523,0.002678,0.000431,0.000470
24222000,0.0324,0.013523,0.002678,0.000431,0.000353
24223000,0.0324,0.013523,0.002678,0.000431,0.000235
24224000,0.0324,0.013523,0.002678,0.000431,0.000353
24225000,0.0324,0.013523,0.002678,0.000431,0.000353
24226000,0.0324,0.013523,0.002678,0.000431,0.000235
24227000,0.0324,0.013523,0.002678,0.000431,0.000353
24228000,0.0324,0.013523,0.002678,0.000431,0.000470
24229000,0.0324,0.013523,0.002678,0.000431,0.000353
24230000,0.0324,0.013523,0.002678,0.000431,0.000118
24231000,0.0324,0.013523,0.002678,0.000431,0.000470
24232000,0.0324,0.013523,0.002678,0.000431,0.000353
24233000,0.0324,0.013523,0.002678,0.000431,0.000235
24234000,0.0324,0.013523,0.002678,0.000431,0.000353
24235000,0.0324,0.013523,0.002678,0.000431,0.000470
24236000,0.0324,0.013523,0.002678,0.000431,0.000353
24237000,0.0324,0.013523,0.002678,0.000431,0.000118
24238000,0.0324,0.013523,0.002678,0.000431,0.000470
24239000,0.0324,0.013523,0.002678,0.000431,0.000353
24240000,0.0324,0.013523,0.002678,0.000431,0.000235
24241000,0.0324,0.013523,0.002678,0.000431,0.000353
24242000,0.0324,0.013523,0.002678,0.000431,0.000470
24243000,0.0324,0.013523,0.002678,0.000431,0.000353
24244000,0.0324,0.013523,0.002678,0.000431,0.000118
24245000,0.0324,0.013523,0.002678,0.000431,0.000470
24246000,0.0324,0.013523,0.002678,0.000431,0.000353
24247000,0.0324,0.013523,0.002678,0.000431,0.000235
24248000,0.0324,0.013523,0.002678,0.000431,0.000353
24249000,0.0324,0.013523,0.002678,0.000431,0.000470
24250000,0.0324,0.013523,0.002678,0.000431,0.000353
24251000,0.0324,0.013523,0.002678,0.000431,0.000118
24252000,0.0324,0.013523,0.002678,0.000431,0.000470
24253000,0.0324,0.013523,0.002678,0.000431,0.000353
24254000,0.0324,0.013523,0.002678,0.000431,0.000235
24255000,0.0324,0.013523,0.002678,0.000431,0.000353
24256000,0.0324,0.013523,0.002678,0.000431,0.000470
24257000,0.0324,0.013523,0.002678,0.000431,0.000235
24258000,0.0324,0.013523,0.002678,0.000431,0.000235
24259000,0.0324,0.013523,0.002678,0.000431,0.000470
24260000,0.0324,0.013523,0.002678,0.000431,0.000353
24261000,0.0324,0.013523,0.002678,0.000431,0.000235
24262000,0.0324,0.013523,0.002678,0.000431,0.000353
24263000,0.0324,0.013523,0.002678,0.000431,0.000470
24264000,0.0324,0.013523,0.002678,0.000431,0.000235
24265000,0.0324,0.013523,0.002678,0.000431,0.000235
24266000,0.0324,0.013523,0.002678,0.000431,0.000470
24267000,0.0324,0.013523,0.002678,0.000431,0.000353
24268000,0.0324,0.013523,0.002678,0.000431,0.000235
24269000,0.0324,0.013523,0.002678,0.000431,0.000353
24270000,0.0324,0.013523,0.002678,0.000431,0.000470
24271000,0.0324,0.013523,0.002678,0.000431,0.000235
24272000,0.0324,0.013523,0.002678,0.000431,0.000235
24273000,0.0324,0.013523,0.002678,0.000431,0.000470
24274000,0.0324,0.013523,0.002678,0.000431,0.000353
24275000,0.0324,0.013523,0.002678,0.000431,0.000235
24276000,0.0324,0.013523,0.002678,0.000431,0.000353
24277000,0.0324,0.013523,0.002678,0.000431,0.000470
24278000,0.0324,0.013523,0.002678,0.000431,0.000235
24279000,0.0324,0.013523,0.002678,0.000431,0.000235
24280000,0.0324,0.013523,0.002678,0.000431,0.000470
24281000,0.0324,0.013523,0.002678,0.000431,0.000353
24282000,0.0324,0.013523,0.002678,0.000431,0.000235
24283000,0.0324,0.013523,0.002678,0.000431,0.000353
24284000,0.0324,0.013523,0.002678,0.000431,0.000470
24285000,0.0324,0.013523,0.002678,0.000431,0.000235
24286000,0.0324,0.013523,0.002678,0.000431,0.000235
24287000,0.0324,0.013523,0.002678,0.000431,0.000470
24288000,0.0324,0.013523,0.002678,0.000431,0.000353
24289000,0.0324,0.013523,0.002678,0.000431,0.000235
24290000,0.0324,0.013523,0.002678,0.000431,0.000353
24291000,0.0324,0.013523,0.002678,0.000431,0.000470
24292000,0.0324,0.013523,0.002678,0.000431,0.000235
24293000,0.0324,0.013523,0.002678,0.000431,0.000235
24294000,0.0324,0.013523,0.002678,0.000431,0.000470
24295000,0.0324,0.013523,0.002678,0.000431,0.000353
24296000,0.0324,0.013523,0.002678,0.000431,0.000235
24297000,0.0324,0.013523,0.002678,0.000431,0.000353
24298000,0.0324,0.013523,0.002678,0.000431,0.000470
24299000,0.0324,0.013523,0.002678,0.000431,0.000118
24300000,0.0324,0.013523,0.002678,0.000431,0.000353
24301000,0.0324,0.013523,0.002678,0.000431,0.000470
24302000,0.0324,0.013523,0.002678,0.000431,0.000353
24303000,0.0324,0.013523,0.002678,0.000431,0.000235
24304000,0.0324,0.013523,0.002678,0.000431,0.000353
24305000,0.0324,0.013523,0.002678,0.000431,0.000470
24306000,0.0324,0.013523,0.002678,0.000431,0.000118
24307000,0.0324,0.013523,0.002678,0.000431,0.000353
24308000,0.0324,0.013523,0.002678,0.000431,0.000470
24309000,0.0324,0.013523,0.002678,0.000431,0.000353
24310000,0.0324,0.013523,0.002678,0.000431,0.000235
24311000,0.0324,0.013523,0.002678,0.000431,0.000353
24312000,0.0324,0.013523,0.002678,0.000431,0.000470
24313000,0.0324,0.013523,0.002678,0.000431,0.000118
24314000,0.0324,0.013523,0.002678,0.000431,0.000353
24315000,0.0324,0.013523,0.002678,0.000431,0.000470
24316000,0.0324,0.013523,0.002678,0.000431,0.000353
24317000,0.0324,0.013523,0.002678,0.000431,0.000235
24318000,0.0324,0.013523,0.002678,0.000431,0.000353
24319000,0.0324,0.013523,0.002678,0.000431,0.000353
24320000,0.0324,0.013523,0.002678,0.000431,0.000235
24321000,0.0324,0.013523,0.002678,0.000431,0.000353
24322000,0.0324,0.013523,0.002678,0.000431,0.000470
24323000,0.0324,0.013523,0.002678,0.000431,0.000353
24324000,0.0324,0.013523,0.002678,0.000431,0.000235
24325000,0.0324,0.013523,0.002678,0.000431,0.000353
24326000,0.0324,0.013523,0.002678,0.000431,0.000353
24327000,0.0324,0.013523,0.002678,0.000431,0.000235
24328000,0.0324,0.013523,0.002678,0.000431,0.000353
24329000,0.0324,0.013523,0.002678,0.000431,0.000470
24330000,0.0324,0.013523,0.002678,0.000431,0.000353
24331000,0.0324,0.013523,0.002678,0.000431,0.000235
24332000,0.0324,0.013523,0.002678,0.000431,0.000353
24333000,0.0324,0.013523,0.002678,0.000431,0.000353
24334000,0.0324,0.013523,0.002678,0.000431,0.000235
24335000,0.0324,0.013523,0.002678,0.000431,0.000353
24336000,0.0324,0.013523,0.002678,0.000431,0.000470
24337000,0.0324,0.013523,0.002678,0.000431,0.000353
24338000,0.0324,0.013523,0.002678,0.000431,0.000235
24339000,0.0324,0.013523,0.002678,0.000431,0.000353
24340000,0.0324,0.013523,0.002678,0.000431,0.000353
24341000,0.0324,0.013523,0.002678,0.000431,0.000235
24342000,0.0324,0.013523,0.002678,0.000431,0.000353
24343000,0.0324,0.013523,0.002678,0.000431,0.000470
24344000,0.0324,0.013523,0.002678,0.000431,0.000353
24345000,0.0324,0.013523,0.002678,0.000431,0.000235
24346000,0.0324,0.013523,0.002678,0.000431,0.000353
24347000,0.0324,0.013523,0.002678,0.000431,0.000353
24348000,0.0324,0.013523,0.002678,0.000431,0.000235
24349000,0.0324,0.013523,0.002678,0.000431,0.000353
24350000,0.0324,0.013523,0.002678,0.000431,0.000470
24351000,0.0324,0.013523,0.002678,0.000431,0.000353
24352000,0.0324,0.013523,0.002678,0.000431,0.000235
24353000,0.0324,0.013523,0.002678,0.000431,0.000353
24354000,0.0324,0.013523,0.002678,0.000431,0.000353
24355000,0.0324,0.013523,0.002678,0.000431,0.000235
24356000,0.0324,0.013523,0.002678,0.000431,0.000353
24357000,0.0324,0.013523,0.002678,0.000431,0.000470
24358000,0.0324,0.013523,0.002678,0.000431,0.000353
24359000,0.0324,0.013523,0.002678,0.000431,0.000235
24360000,0.0324,0.013523,0.002678,0.000431,0.000353
24361000,0.0324,0.013523,0.002678,0.000431,0.000353
24362000,0.0324,0.013523,0.002678,0.000431,0.000235
24363000,0.0324,0.013523,0.002678,0.000431,0.000353
24364000,0.0324,0.013523,0.002678,0.000431,0.000470
24365000,0.0324,0.013523,0.002678,0.000431,0.000353
24366000,0.0324,0.013523,0.002678,0.000431,0.000235
24367000,0.0324,0.013523,0.002678,0.000431,0.000353
24368000,0.0324,0.013523,0.002678,0.000431,0.000353
24369000,0.0324,0.013523,0.002678,0.000431,0.000235
24370000,0.0324,0.013523,0.002678,0.000431,0.000353
24371000,0.0324,0.013523,0.002678,0.000431,0.000470
24372000,0.0324,0.013523,0.002678,0.000431,0.000353
24373000,0.0324,0.013523,0.002678,0.000431,0.000118
24374000,0.0324,0.013523,0.002678,0.000431,0.000470
24375000,0.0324,0.013523,0.002678,0.000431,0.000353
24376000,0.0324,0.013523,0.002678,0.000431,0.000235
24377000,0.0324,0.013523,0.002678,0.000431,0.000353
24378000,0.0324,0.013523,0.002678,0.000431,0.000470
24379000,0.0324,0.013523,0.002678,0.000431,0.000353
24380000,0.0324,0.013523,0.002678,0.000431,0.000118
24381000,0.0324,0.013523,0.002678,0.000431,0.000470
24382000,0.0324,0.013523,0.002678,0.000431,0.000353
24383000,0.0324,0.013523,0.002678,0.000431,0.000235
24384000,0.0324,0.013523,0.002678,0.000431,0.000353
24385000,0.0324,0.013523,0.002678,0.000431,0.000470
24386000,0.0324,0.013523,0.002678,0.000431,0.000353
24387000,0.0324,0.013523,0.002678,0.000431,0.000118
24388000,0.0324,0.013523,0.002678,0.000431,0.000470
24389000,0.0324,0.013523,0.002678,0.000431,0.000353
24390000,0.0324,0.013523,0.002678,0.000431,0.000235
24391000,0.0324,0.013523,0.002678,0.000431,0.000353
24392000,0.0324,0.013523,0.002678,0.000431,0.000470
24393000,0.0324,0.013523,0.002678,0.000431,0.000353
24394000,0.0324,0.013523,0.002678,0.000431,0.000118
24395000,0.0324,0.013523,0.002678,0.000431,0.000470
24396000,0.0324,0.013523,0.002678,0.000431,0.000353
24397000,0.0324,0.013523,0.002678,0.000431,0.000235
24398000,0.0324,0.013523,0.002678,0.000431,0.000353
24399000,0.0324,0.013523,0.002678,0.000431,0.000470
24400000,0.0324,0.013523,0.002678,0.000431,0.000235
24401000,0.0324,0.013523,0.002678,0.000431,0.000235
24402000,0.0324,0.013523,0.002678,0.000431,0.000470
24403000,0.0324,0.013523,0.002678,0.000431,0.000353
24404000,0.0324,0.013523,0.002678,0.000431,0.000235
24405000,0.0324,0.013523,0.002678,0.000431,0.000353
24406000,0.0324,0.013523,0.002678,0.000431,0.000470
24407000,0.0324,0.013523,0.002678,0.000431,0.000235
24408000,0.0324,0.013523,0.002678,0.000431,0.000235
24409000,0.0324,0.013523,0.002678,0.000431,0.000470
24410000,0.0324,0.013523,0.002678,0.000431,0.000353
24411000,0.0324,0.013523,0.002678,0.000431,0.000235
24412000,0.0324,0.013523,0.002678,0.000431,0.000353
24413000,0.0324,0.013523,0.002678,0.000431,0.000470
24414000,0.0324,0.013523,0.002678,0.000431,0.000235
24415000,0.0324,0.013523,0.002678,0.000431,0.000235
24416000,0.0324,0.013523,0.002678,0.000431,0.000470
24417000,0.0324,0.013523,0.002678,0.000431,0.000353
24418000,0.0324,0.013523,0.002678,0.000431,0.000235
24419000,0.0324,0.013523,0.002678,0.000431,0.000353
24420000,0.0324,0.013523,0.002678,0.000431,0.000470
24421000,0.0324,0.013523,0.002678,0.000431,0.000235
24422000,0.0324,0.013523,0.002678,0.000431,0.000235
24423000,0.0324,0.013523,0.002678,0.000431,0.000470
24424000,0.0324,0.013523,0.002678,0.000431,0.000353
24425000,0.0324,0.013523,0.002678,0.000431,0.000235
24426000,0.0324,0.013523,0.002678,0.000431,0.000353
24427000,0.0324,0.013523,0.002678,0.000431,0.000470
24428000,0.0324,0.013523,0.002678,0.000431,0.000235
24429000,0.0324,0.013523,0.002678,0.000431,0.000235
24430000,0.0324,0.013523,0.002678,0.000431,0.000470
24431000,0.0324,0.013523,0.002678,0.000431,0.000353
24432000,0.0324,0.013523,0.002678,0.000431,0.000235
24433000,0.0324,0.013523,0.002678,0.000431,0.000353
24434000,0.0324,0.013523,0.002678,0.000431,0.000470
24435000,0.0324,0.013523,0.002678,0.000431,0.000118
24436000,0.0324,0.013523,0.002678,0.000431,0.000353
24437000,0.0324,0.013523,0.002678,0.000431,0.000470
24438000,0.0324,0.013523,0.002678,0.000431,0.000353
24439000,0.0324,0.013523,0.002678,0.000431,0.000235
24440000,0.0324,0.013523,0.002678,0.000431,0.000353
24441000,0.0324,0.013523,0.002678,0.000431,0.000470
24442000,0.0324,0.013523,0.002678,0.000431,0.000118
24443000,0.0324,0.013523,0.002678,0.000431,0.000353
24444000,0.0324,0.013523,0.002678,0.000431,0.000470
24445000,0.0324,0.013523,0.002678,0.000431,0.000353
24446000,0.0324,0.013523,0.002678,0.000431,0.000235
24447000,0.0324,0.013523,0.002678,0.000431,0.000353
24448000,0.0324,0.013523,0.002678,0.000431,0.000470
24449000,0.0324,0.013523,0.002678,0.000431,0.000118
24450000,0.0324,0.013523,0.002678,0.000431,0.000353
24451000,0.0324,0.013523,0.002678,0.000431,0.000470
24452000,0.0324,0.013523,0.002678,0.000431,0.000353
24453000,0.0324,0.013523,0.002678,0.000431,0.000235
24454000,0.0324,0.013523,0.002678,0.000431,0.000353
24455000,0.0324,0.013523,0.002678,0.000431,0.000470
24456000,0.0324,0.013523,0.002678,0.000431,0.000118
24457000,0.0324,0.013523,0.002678,0.000431,0.000353
24458000,0.0324,0.013523,0.002678,0.000431,0.000470
24459000,0.0324,0.013523,0.002678,0.000431,0.000353
24460000,0.0324,0.013523,0.002678,0.000431,0.000235
24461000,0.0324,0.013523,0.002678,0.000431,0.000353
24462000,0.0324,0.013523,0.002678,0.000431,0.000353
24463000,0.0324,0.013523,0.002678,0.000431,0.000235
24464000,0.0324,0.013523,0.002678,0.000431,0.000353
24465000,0.0324,0.013523,0.002678,0.000431,0.000470
24466000,0.0324,0.013523,0.002678,0.000431,0.000353
24467000,0.0324,0.013523,0.002678,0.000431,0.000235
24468000,0.0324,0.013523,0.002678,0.000431,0.000353
24469000,0.0324,0.013523,0.002678,0.000431,0.000353
24470000,0.0324,0.013523,0.002678,0.000431,0.000235
24471000,0.0324,0.013523,0.002678,0.000431,0.000353
24472000,0.0324,0.013523,0.002678,0.000431,0.000470
24473000,0.0324,0.013523,0.002678,0.000431,0.000353
24474000,0.0324,0.013523,0.002678,0.000431,0.000235
24475000,0.0324,0.013523,0.002678,0.000431,0.000353
24476000,0.0324,0.013523,0.002678,0.000431,0.000353
24477000,0.0324,0.013523,0.002678,0.000431,0.000235
24478000,0.0324,0.013523,0.002678,0.000431,0.000353
24479000,0.0324,0.013523,0.002678,0.000431,0.000470
24480000,0.0324,0.013523,0.002678,0.000431,0.000353
24481000,0.0324,0.013523,0.002678,0.000431,0.000235
24482000,0.0324,0.013523,0.002678,0.000431,0.000353
24483000,0.0324,0.013523,0.002678,0.000431,0.000353
24484000,0.0324,0.013523,0.002678,0.000431,0.000235
24485000,0.0324,0.013523,0.002678,0.000431,0.000353
24486000,0.0324,0.013523,0.002678,0.000431,0.000470
24487000,0.0324,0.013523,0.002678,0.000431,0.000353
24488000,0.0324,0.013523,0.002678,0.000431,0.000235
24489000,0.0324,0.013523,0.002678,0.000431,0.000353
24490000,0.0324,0.013523,0.002678,0.000431,0.000353
24491000,0.0324,0.013523,0.002678,0.000431,0.000235
24492000,0.0324,0.013523,0.002678,0.000431,0.000353
24493000,0.0324,0.013523,0.002678,0.000431,0.000470
24494000,0.0324,0.013523,0.002678,0.000431,0.000353
24495000,0.0324,0.013523,0.002678,0.000431,0.000235
24496000,0.0324,0.013523,0.002678,0.000431,0.000353
24497000,0.0324,0.013523,0.002678,0.000431,0.000353
24498000,0.0324,0.013523,0.002678,0.000431,0.000235
24499000,0.0324,0.013523,0.002678,0.000431,0.000353
24500000,0.0324,0.013523,0.002678,0.000431,0.000470
24501000,0.0324,0.013523,0.002678,0.000431,0.000353
24502000,0.0324,0.013523,0.002678,0.000431,0.000235
24503000,0.0324,0.013523,0.002678,0.000431,0.000353
24504000,0.0324,0.013523,0.002678,0.000431,0.000353
24505000,0.0324,0.013523,0.002678,0.000431,0.000235
24506000,0.0324,0.013523,0.002678,0.000431,0.000353
24507000,0.0324,0.013523,0.002678,0.000431,0.000470
24508000,0.0324,0.013523,0.002678,0.000431,0.000353
24509000,0.0324,0.013523,0.002678,0.000431,0.000235
24510000,0.0324,0.013523,0.002678,0.000431,0.000353
24511000,0.0324,0.013523,0.002678,0.000431,0.000353
24512000,0.0324,0.013523,0.002678,0.000431,0.000235
24513000,0.0324,0.013523,0.002678,0.000431,0.000353
24514000,0.0324,0.013523,0.002678,0.000431,0.000470
24515000,0.0324,0.013523,0.002678,0.000431,0.000353
24516000,0.0324,0.013523,0.002678,0.000431,0.000118
24517000,0.0324,0.013523,0.002678,0.000431,0.000470
24518000,0.0324,0.013523,0.002678,0.000431,0.000353
24519000,0.0324,0.013523,0.002678,0.000431,0.000235
24520000,0.0324,0.013523,0.002678,0.000431,0.000353
24521000,0.0324,0.013523,0.002678,0.000431,0.000470
24522000,0.0324,0.013523,0.002678,0.000431,0.000353
24523000,0.0324,0.013523,0.002678,0.000431,0.000118
24524000,0.0324,0.013523,0.002678,0.000431,0.000470
24525000,0.0324,0.013523,0.002678,0.000431,0.000353
24526000,0.0324,0.013523,0.002678,0.000431,0.000235
24527000,0.0324,0.013523,0.002678,0.000431,0.000353
24528000,0.0324,0.013523,0.002678,0.000431,0.000470
24529000,0.0324,0.013523,0.002678,0.000431,0.000353
24530000,0.0324,0.013523,0.002678,0.000431,0.000118
24531000,0.0324,0.013523,0.002678,0.000431,0.000470
24532000,0.0324,0.013523,0.002678,0.000431,0.000353
24533000,0.0324,0.013523,0.002678,0.000431,0.000235
24534000,0.0324,0.013523,0.002678,0.000431,0.000353
24535000,0.0324,0.013523,0.002678,0.000431,0.000470
24536000,0.0324,0.013523,0.002678,0.000431,0.000235
24537000,0.0324,0.013523,0.002678,0.000431,0.000235
24538000,0.0324,0.013523,0.002678,0.000431,0.000470
24539000,0.0324,0.013523,0.002678,0.000431,0.000353
24540000,0.0324,0.013523,0.002678,0.000431,0.000235
24541000,0.0324,0.013523,0.002678,0.000431,0.000353
24542000,0.0324,0.013523,0.002678,0.000431,0.000470
24543000,0.0324,0.013523,0.002678,0.000431,0.000235
24544000,0.0324,0.013523,0.002678,0.000431,0.000235
24545000,0.0324,0.013523,0.002678,0.000431,0.000470
24546000,0.0324,0.013523,0.002678,0.000431,0.000353
24547000,0.0324,0.013523,0.002678,0.000431,0.000235
24548000,0.0324,0.013523,0.002678,0.000431,0.000353
24549000,0.0324,0.013523,0.002678,0.000431,0.000470
24550000,0.0324,0.013523,0.002678,0.000431,0.000235
24551000,0.0324,0.013523,0.002678,0.000431,0.000235
24552000,0.0324,0.013523,0.002678,0.000431,0.000470
24553000,0.0324,0.013523,0.002678,0.000431,0.000353
24554000,0.0324,0.013523,0.002678,0.000431,0.000235
24555000,0.0324,0.013523,0.002678,0.000431,0.000353
24556000,0.0324,0.013523,0.002678,0.000431,0.000470
24557000,0.0324,0.013523,0.002678,0.000431,0.000235
24558000,0.0324,0.013523,0.002678,0.000431,0.000235
24559000,0.0324,0.013523,0.002678,0.000431,0.000470
24560000,0.0324,0.013523,0.002678,0.000431,0.000353
24561000,0.0324,0.013523,0.002678,0.000431,0.000235
24562000,0.0324,0.013523,0.002678,0.000431,0.000353
24563000,0.0324,0.013523,0.002678,0.000431,0.000470
24564000,0.0324,0.013523,0.002678,0.000431,0.000235
24565000,0.0324,0.013523,0.002678,0.000431,0.000235
24566000,0.0324,0.013523,0.002678,0.000431,0.000470
24567000,0.0324,0.013523,0.002678,0.000431,0.000353
24568000,0.0324,0.013523,0.002678,0.000431,0.000235
24569000,0.0324,0.013523,0.002678,0.000431,0.000353
24570000,0.0324,0.013523,0.002678,0.000431,0.000470
24571000,0.0324,0.013523,0.002678,0.000431,0.000235
24572000,0.0324,0.013523,0.002678,0.000431,0.000235
24573000,0.0324,0.013523,0.002678,0.000431,0.000470
24574000,0.0324,0.013523,0.002678,0.000431,0.000353
24575000,0.0324,0.013523,0.002678,0.000431,0.000235
24576000,0.0324,0.013523,0.002678,0.000431,0.000353
24577000,0.0324,0.013523,0.002678,0.000431,0.000470
24578000,0.0324,0.013523,0.002678,0.000431,0.000118
24579000,0.0324,0.013523,0.002678,0.000431,0.000353
24580000,0.0324,0.013523,0.002678,0.000431,0.000470
24581000,0.0324,0.013523,0.002678,0.000431,0.000353
24582000,0.0324,0.013523,0.002678,0.000431,0.000235
24583000,0.0324,0.013523,0.002678,0.000431,0.000353
24584000,0.0324,0.013523,0.002678,0.000431,0.000470
24585000,0.0324,0.013523,0.002678,0.000431,0.000118
24586000,0.0324,0.013523,0.002678,0.000431,0.000353
24587000,0.0324,0.013523,0.002678,0.000431,0.000470
24588000,0.0324,0.013523,0.002678,0.000431,0.000353
24589000,0.0324,0.013523,0.002678,0.000431,0.000235
24590000,0.0324,0.013523,0.002678,0.000431,0.000353
24591000,0.0324,0.013523,0.002678,0.000431,0.000470
24592000,0.0324,0.013523,0.002678,0.000431,0.000118
24593000,0.0324,0.013523,0.002678,0.000431,0.000353
24594000,0.0324,0.013523,0.002678,0.000431,0.000470
24595000,0.0324,0.013523,0.002678,0.000431,0.000353
24596000,0.0324,0.013523,0.002678,0.000431,0.000235
24597000,0.0324,0.013523,0.002678,0.000431,0.000353
24598000,0.0324,0.013523,0.002678,0.000431,0.000470
24599000,0.0324,0.013523,0.002678,0.000431,0.000118
24600000,0.0324,0.013523,0.002678,0.000431,0.000353
24601000,0.0324,0.013523,0.002678,0.000431,0.000470
24602000,0.0324,0.013523,0.002678,0.000431,0.000353
24603000,0.0324,0.013523,0.002678,0.000431,0.000235
24604000,0.0324,0.013523,0.002678,0.000431,0.000353
24605000,0.0324,0.013523,0.002678,0.000431,0.000353
24606000,0.0324,0.013523,0.002678,0.000431,0.000235
24607000,0.0324,0.013523,0.002678,0.000431,0.000353
24608000,0.0324,0.013523,0.002678,0.000431,0.000470
24609000,0.0324,0.013523,0.002678,0.000431,0.000353
24610000,0.0324,0.013523,0.002678,0.000431,0.000235
24611000,0.0324,0.013523,0.002678,0.000431,0.000353
24612000,0.0324,0.013523,0.002678,0.000431,0.000353
24613000,0.0324,0.013523,0.002678,0.000431,0.000235
24614000,0.0324,0.013523,0.002678,0.000431,0.000353
24615000,0.0324,0.013523,0.002678,0.000431,0.000470
24616000,0.0324,0.013523,0.002678,0.000431,0.000353
24617000,0.0324,0.013523,0.002678,0.000431,0.000235
24618000,0.0324,0.013523,0.002678,0.000431,0.000353
24619000,0.0324,0.013523,0.002678,0.000431,0.000353
24620000,0.0324,0.013523,0.002678,0.000431,0.000235
24621000,0.0324,0.013523,0.002678,0.000431,0.000353
24622000,0.0324,0.013523,0.002678,0.000431,0.000470
24623000,0.0324,0.013523,0.002678,0.000431,0.000353
24624000,0.0324,0.013523,0.002678,0.000431,0.000235
24625000,0.0324,0.013523,0.002678,0.000431,0.000353
24626000,0.0324,0.013523,0.002678,0.000431,0.000353
24627000,0.0324,0.013523,0.002678,0.000431,0.000235
24628000,0.0324,0.013523,0.002678,0.000431,0.000353
24629000,0.0324,0.013523,0.002678,0.000431,0.000470
24630000,0.0324,0.013523,0.002678,0.000431,0.000353
24631000,0.0324,0.013523,0.002678,0.000431,0.000235
24632000,0.0324,0.013523,0.002678,0.000431,0.000353
24633000,0.0324,0.013523,0.002678,0.000431,0.000353
24634000,0.0324,0.013523,0.002678,0.000431,0.000235
24635000,0.0324,0.013523,0.002678,0.000431,0.000353
24636000,0.0324,0.013523,0.002678,0.000431,0.000470
24637000,0.0324,0.013523,0.002678,0.000431,0.000353
24638000,0.0324,0.013523,0.002678,0.000431,0.000235
24639000,0.0324,0.013523,0.002678,0.000431,0.000353
24640000,0.0324,0.013523,0.002678,0.000431,0.000353
24641000,0.0324,0.013523,0.002678,0.000431,0.000235
24642000,0.0324,0.013523,0.002678,0.000431,0.000353
24643000,0.0324,0.013523,0.002678,0.000431,0.000470
24644000,0.0324,0.013523,0.002678,0.000431,0.000353
24645000,0.0324,0.013523,0.002678,0.000431,0.000235
24646000,0.0324,0.013523,0.002678,0.000431,0.000353
24647000,0.0324,0.013523,0.002678,0.000431,0.000353
24648000,0.0324,0.013523,0.002678,0.000431,0.000235
24649000,0.0324,0.013523,0.002678,0.000431,0.000353
24650000,0.0324,0.013523,0.002678,0.000431,0.000470
24651000,0.0324,0.013523,0.002678,0.000431,0.000353
24652000,0.0324,0.013523,0.002678,0.000431,0.000118
24653000,0.0324,0.013523,0.002678,0.000431,0.000470
24654000,0.0324,0.013523,0.002678,0.000431,0.000353
24655000,0.0324,0.013523,0.002678,0.000431,0.000235
24656000,0.0324,0.013523,0.002678,0.000431,0.000353
24657000,0.0324,0.013523,0.002678,0.000431,0.000470
24658000,0.0324,0.013523,0.002678,0.000431,0.000353
24659000,0.0324,0.013523,0.002678,0.000431,0.000118
24660000,0.0324,0.013523,0.002678,0.000431,0.000470
24661000,0.0324,0.013523,0.002678,0.000431,0.000353
24662000,0.0324,0.013523,0.002678,0.000431,0.000235
24663000,0.0324,0.013523,0.002678,0.000431,0.000353
24664000,0.0324,0.013523,0.002678,0.000431,0.000470
24665000,0.0324,0.013523,0.002678,0.000431,0.000353
24666000,0.0324,0.013523,0.002678,0.000431,0.000118
24667000,0.0324,0.013523,0.002678,0.000431,0.000470
24668000,0.0324,0.013523,0.002678,0.000431,0.000353
24669000,0.0324,0.013523,0.002678,0.000431,0.000235
24670000,0.0324,0.013523,0.002678,0.000431,0.000353
24671000,0.0324,0.013523,0.002678,0.000431,0.000470
24672000,0.0324,0.013523,0.002678,0.000431,0.000353
24673000,0.0324,0.013523,0.002678,0.000431,0.000118
24674000,0.0324,0.013523,0.002678,0.000431,0.000470
24675000,0.0324,0.013523,0.002678,0.000431,0.000353
24676000,0.0324,0.013523,0.002678,0.000431,0.000235
24677000,0.0324,0.013523,0.002678,0.000431,0.000353
24678000,0.0324,0.013523,0.002678,0.000431,0.000470
24679000,0.0324,0.013523,0.002678,0.000431,0.000235
24680000,0.0324,0.013523,0.002678,0.000431,0.000235
24681000,0.0324,0.013523,0.002678,0.000431,0.000470
24682000,0.0324,0.013523,0.002678,0.000431,0.000353
24683000,0.0324,0.013523,0.002678,0.000431,0.000235
24684000,0.0324,0.013523,0.002678,0.000431,0.000353
24685000,0.0324,0.013523,0.002678,0.000431,0.000470
24686000,0.0324,0.013523,0.002678,0.000431,0.000235
24687000,0.0324,0.013523,0.002678,0.000431,0.000235
24688000,0.0324,0.013523,0.002678,0.000431,0.000470
24689000,0.0324,0.013523,0.002678,0.000431,0.000353
24690000,0.0324,0.013523,0.002678,0.000431,0.000235
24691000,0.0324,0.013523,0.002678,0.000431,0.000353
24692000,0.0324,0.013523,0.002678,0.000431,0.000470
24693000,0.0324,0.013523,0.002678,0.000431,0.000235
24694000,0.0324,0.013523,0.002678,0.000431,0.000235
24695000,0.0324,0.013523,0.002678,0.000431,0.000470
24696000,0.0324,0.013523,0.002678,0.000431,0.000353
24697000,0.0324,0.013523,0.002678,0.000431,0.000235
24698000,0.0324,0.013523,0.002678,0.000431,0.000353
24699000,0.0324,0.013523,0.002678,0.000431,0.000470
24700000,0.0324,0.013523,0.002678,0.000431,0.000235
24701000,0.0324,0.013523,0.002678,0.000431,0.000235
24702000,0.0324,0.013523,0.002678,0.000431,0.000470
24703000,0.0324,0.013523,0.002678,0.000431,0.000353
24704000,0.0324,0.013523,0.002678,0.000431,0.000235
24705000,0.0324,0.013523,0.002678,0.000431,0.000353
24706000,0.0324,0.013523,0.002678,0.000431,0.000470
24707000,0.0324,0.013523,0.002678,0.000431,0.000235
24708000,0.0324,0.013523,0.002678,0.000431,0.000235
24709000,0.0324,0.013523,0.002678,0.000431,0.000470
24710000,0.0324,0.013523,0.002678,0.000431,0.000353
24711000,0.0324,0.013523,0.002678,0.000431,0.000235
24712000,0.0324,0.013523,0.002678,0.000431,0.000353
24713000,0.0324,0.013523,0.002678,0.000431,0.000470
24714000,0.0324,0.013523,0.002678,0.000431,0.000235
24715000,0.0324,0.013523,0.002678,0.000431,0.000235
24716000,0.0324,0.013523,0.002678,0.000431,0.000470
24717000,0.0324,0.013523,0.002678,0.000431,0.000353
24718000,0.0324,0.013523,0.002678,0.000431,0.000235
24719000,0.0324,0.013523,0.002678,0.000431,0.000353
24720000,0.0324,0.013523,0.002678,0.000431,0.000470
24721000,0.0324,0.013523,0.002678,0.000431,0.000118
24722000,0.0324,0.013523,0.002678,0.000431,0.000353
24723000,0.0324,0.013523,0.002678,0.000431,0.000470
24724000,0.0324,0.013523,0.002678,0.000431,0.000353
24725000,0.0324,0.013523,0.002678,0.000431,0.000235
24726000,0.0324,0.013523,0.002678,0.000431,0.000353
24727000,0.0324,0.013523,0.002678,0.000431,0.000470
24728000,0.0324,0.013523,0.002678,0.000431,0.000118
24729000,0.0324,0.013523,0.002678,0.000431,0.000353
24730000,0.0324,0.013523,0.002678,0.000431,0.000470
24731000,0.0324,0.013523,0.002678,0.000431,0.000353
24732000,0.0324,0.013523,0.002678,0.000431,0.000235
24733000,0.0324,0.013523,0.002678,0.000431,0.000353
24734000,0.0324,0.013523,0.002678,0.000431,0.000470
24735000,0.0324,0.013523,0.002678,0.000431,0.000118
24736000,0.0324,0.013523,0.002678,0.000431,0.000353
24737000,0.0324,0.013523,0.002678,0.000431,0.000470
24738000,0.0324,0.013523,0.002678,0.000431,0.000353
24739000,0.0324,0.013523,0.002678,0.000431,0.000235
24740000,0.0324,0.013523,0.002678,0.000431,0.000353
24741000,0.0324,0.013523,0.002678,0.000431,0.000353
24742000,0.0324,0.013523,0.002678,0.000431,0.000235
24743000,0.0324,0.013523,0.002678,0.000431,0.000353
24744000,0.0324,0.013523,0.002678,0.000431,0.000470
24745000,0.0324,0.013523,0.002678,0.000431,0.000353
24746000,0.0324,0.013523,0.002678,0.000431,0.000235
24747000,0.0324,0.013523,0.002678,0.000431,0.000353
24748000,0.0324,0.013523,0.002678,0.000431,0.000353
24749000,0.0324,0.013523,0.002678,0.000431,0.000235
24750000,0.0324,0.013523,0.002678,0.000431,0.000353
24751000,0.0324,0.013523,0.002678,0.000431,0.000470
24752000,0.0324,0.013523,0.002678,0.000431,0.000353
24753000,0.0324,0.013523,0.002678,0.000431,0.000235
24754000,0.0324,0.013523,0.002678,0.000431,0.000353
24755000,0.0324,0.013523,0.002678,0.000431,0.000353
24756000,0.0324,0.013523,0.002678,0.000431,0.000235
24757000,0.0324,0.013523,0.002678,0.000431,0.000353
24758000,0.0324,0.013523,0.002678,0.000431,0.000470
24759000,0.0324,0.013523,0.002678,0.000431,0.000353
24760000,0.0324,0.013523,0.002678,0.000431,0.000235
24761000,0.0324,0.013523,0.002678,0.000431,0.000353
24762000,0.0324,0.013523,0.002678,0.000431,0.000353
24763000,0.0324,0.013523,0.002678,0.000431,0.000235
24764000,0.0324,0.013523,0.002678,0.000431,0.000353
24765000,0.0324,0.013523,0.002678,0.000431,0.000470
24766000,0.0324,0.013523,0.002678,0.000431,0.000353
24767000,0.0324,0.013523,0.002678,0.000431,0.000235
24768000,0.0324,0.013523,0.002678,0.000431,0.000353
24769000,0.0324,0.013523,0.002678,0.000431,0.000353
24770000,0.0324,0.013523,0.002678,0.000431,0.000235
24771000,0.0324,0.013523,0.002678,0.000431,0.000353
24772000,0.0324,0.013523,0.002678,0.000431,0.000470
24773000,0.0324,0.013523,0.002678,0.000431,0.000353
24774000,0.0324,0.013523,0.002678,0.000431,0.000235
24775000,0.0324,0.013523,0.002678,0.000431,0.000353
24776000,0.0324,0.013523,0.002678,0.000431,0.000353
24777000,0.0324,0.013523,0.002678,0.000431,0.000235
24778000,0.0324,0.013523,0.002678,0.000431,0.000353
24779000,0.0324,0.013523,0.002678,0.000431,0.000470
24780000,0.0324,0.013523,0.002678,0.000431,0.000353
24781000,0.0324,0.013523,0.002678,0.000431,0.000235
24782000,0.0324,0.013523,0.002678,0.000431,0.000353
24783000,0.0324,0.013523,0.002678,0.000431,0.000353
24784000,0.0324,0.013523,0.002678,0.000431,0.000235
24785000,0.0324,0.013523,0.002678,0.000431,0.000353
24786000,0.0324,0.013523,0.002678,0.000431,0.000470
24787000,0.0324,0.013523,0.002678,0.000431,0.000353
24788000,0.0324,0.013523,0.002678,0.000431,0.000235
24789000,0.0324,0.013523,0.002678,0.000431,0.000353
24790000,0.0324,0.013523,0.002678,0.000431,0.000353
24791000,0.0324,0.013523,0.002678,0.000431,0.000235
24792000,0.0324,0.013523,0.002678,0.000431,0.000353
24793000,0.0324,0.013523,0.002678,0.000431,0.000470
24794000,0.0324,0.013523,0.002678,0.000431,0.000353
24795000,0.0324,0.013523,0.002678,0.000431,0.000118
24796000,0.0324,0.013523,0.002678,0.000431,0.000470
24797000,0.0324,0.013523,0.002678,0.000431,0.000353
24798000,0.0324,0.013523,0.002678,0.000431,0.000235
24799000,0.0324,0.013523,0.002678,0.000431,0.000353
24800000,0.0324,0.013523,0.002678,0.000431,0.000470
24801000,0.0324,0.013523,0.002678,0.000431,0.000353
24802000,0.0324,0.013523,0.002678,0.000431,0.000118
24803000,0.0324,0.013523,0.002678,0.000431,0.000470
24804000,0.0324,0.013523,0.002678,0.000431,0.000353
24805000,0.0324,0.013523,0.002678,0.000431,0.000235
24806000,0.0324,0.013523,0.002678,0.000431,0.000353
24807000,0.0324,0.013523,0.002678,0.000431,0.000470
24808000,0.0324,0.013523,0.002678,0.000431,0.000353
24809000,0.0324,0.013523,0.002678,0.000431,0.000118
24810000,0.0324,0.013523,0.002678,0.000431,0.000470
24811000,0.0324,0.013523,0.002678,0.000431,0.000353
24812000,0.0324,0.013523,0.002678,0.000431,0.000235
24813000,0.0324,0.013523,0.002678,0.000431,0.000353
24814000,0.0324,0.013523,0.002678,0.000431,0.000470
24815000,0.0324,0.013523,0.002678,0.000431,0.000235
24816000,0.0324,0.013523,0.002678,0.000431,0.000235
24817000,0.0324,0.013523,0.002678,0.000431,0.000470
24818000,0.0324,0.013523,0.002678,0.000431,0.000353
24819000,0.0324,0.013523,0.002678,0.000431,0.000235
24820000,0.0324,0.013523,0.002678,0.000431,0.000353
24821000,0.0324,0.013523,0.002678,0.000431,0.000470
24822000,0.0324,0.013523,0.002678,0.000431,0.000235
24823000,0.0324,0.013523,0.002678,0.000431,0.000235
24824000,0.0324,0.013523,0.002678,0.000431,0.000470
24825000,0.0324,0.013523,0.002678,0.000431,0.000353
24826000,0.0324,0.013523,0.002678,0.000431,0.000235
24827000,0.0324,0.013523,0.002678,0.000431,0.000353
24828000,0.0324,0.013523,0.002678,0.000431,0.000470
24829000,0.0324,0.013523,0.002678,0.000431,0.000235
24830000,0.0324,0.013523,0.002678,0.000431,0.000235
24831000,0.0324,0.013523,0.002678,0.000431,0.000470
24832000,0.0324,0.013523,0.002678,0.000431,0.000353
24833000,0.0324,0.013523,0.002678,0.000431,0.000235
24834000,0.0324,0.013523,0.002678,0.000431,0.000353
24835000,0.0324,0.013523,0.002678,0.000431,0.000470
24836000,0.0324,0.013523,0.002678,0.000431,0.000235
24837000,0.0324,0.013523,0.002678,0.000431,0.000235
24838000,0.0324,0.013523,0.002678,0.000431,0.000470
24839000,0.0324,0.013523,0.002678,0.000431,0.000353
24840000,0.0324,0.013523,0.002678,0.000431,0.000235
24841000,0.0324,0.013523,0.002678,0.000431,0.000353
24842000,0.0324,0.013523,0.002678,0.000431,0.000470
24843000,0.0324,0.013523,0.002678,0.000431,0.000235
24844000,0.0324,0.013523,0.002678,0.000431,0.000235
24845000,0.0324,0.013523,0.002678,0.000431,0.000470
24846000,0.0324,0.013523,0.002678,0.000431,0.000353
24847000,0.0324,0.013523,0.002678,0.000431,0.000235
24848000,0.0324,0.013523,0.002678,0.000431,0.000353
24849000,0.0324,0.013523,0.002678,0.000431,0.000470
24850000,0.0324,0.013523,0.002678,0.000431,0.000235
24851000,0.0324,0.013523,0.002678,0.000431,0.000235
24852000,0.0324,0.013523,0.002678,0.000431,0.000470
24853000,0.0324,0.013523,0.002678,0.000431,0.000353
24854000,0.0324,0.013523,0.002678,0.000431,0.000235
24855000,0.0324,0.013523,0.002678,0.000431,0.000353
24856000,0.0324,0.013523,0.002678,0.000431,0.000470
24857000,0.0324,0.013523,0.002678,0.000431,0.000118
24858000,0.0324,0.013523,0.002678,0.000431,0.000353
24859000,0.0324,0.013523,0.002678,0.000431,0.000470
24860000,0.0324,0.013523,0.002678,0.000431,0.000353
24861000,0.0324,0.013523,0.002678,0.000431,0.000235
24862000,0.0324,0.013523,0.002678,0.000431,0.000353
24863000,0.0324,0.013523,0.002678,0.000431,0.000470
24864000,0.0324,0.013523,0.002678,0.000431,0.000118
24865000,0.0324,0.013523,0.002678,0.000431,0.000353
24866000,0.0324,0.013523,0.002678,0.000431,0.000470
24867000,0.0324,0.013523,0.002678,0.000431,0.000353
24868000,0.0324,0.013523,0.002678,0.000431,0.000235
24869000,0.0324,0.013523,0.002678,0.000431,0.000353
24870000,0.0324,0.013523,0.002678,0.000431,0.000470
24871000,0.0324,0.013523,0.002678,0.000431,0.000118
24872000,0.0324,0.013523,0.002678,0.000431,0.000353
24873000,0.0324,0.013523,0.002678,0.000431,0.000470
24874000,0.0324,0.013523,0.002678,0.000431,0.000353
24875000,0.0324,0.013523,0.002678,0.000431,0.000235
24876000,0.0324,0.013523,0.002678,0.000431,0.000353
24877000,0.0324,0.013523,0.002678,0.000431,0.000470
24878000,0.0324,0.013523,0.002678,0.000431,0.000118
24879000,0.0324,0.013523,0.002678,0.000431,0.000353
24880000,0.0324,0.013523,0.002678,0.000431,0.000470
24881000,0.0324,0.013523,0.002678,0.000431,0.000353
24882000,0.0324,0.013523,0.002678,0.000431,0.000235
24883000,0.0324,0.013523,0.002678,0.000431,0.000353
24884000,0.0324,0.013523,0.002678,0.000431,0.000353
24885000,0.0324,0.013523,0.002678,0.000431,0.000235
24886000,0.0324,0.013523,0.002678,0.000431,0.000353
24887000,0.0324,0.013523,0.002678,0.000431,0.000470
24888000,0.0324,0.013523,0.002678,0.000431,0.000353
24889000,0.0324,0.013523,0.002678,0.000431,0.000235
24890000,0.0324,0.013523,0.002678,0.000431,0.000353
24891000,0.0324,0.013523,0.002678,0.000431,0.000353
24892000,0.0324,0.013523,0.002678,0.000431,0.000235
24893000,0.0324,0.013523,0.002678,0.000431,0.000353
24894000,0.0324,0.013523,0.002678,0.000431,0.000470
24895000,0.0324,0.013523,0.002678,0.000431,0.000353
24896000,0.0324,0.013523,0.002678,0.000431,0.000235
24897000,0.0324,0.013523,0.002678,0.000431,0.000353
24898000,0.0324,0.013523,0.002678,0.000431,0.000353
24899000,0.0324,0.013523,0.002678,0.000431,0.000235
24900000,0.0324,0.013523,0.002678,0.000431,0.000353
24901000,0.0324,0.013523,0.002678,0.000431,0.000470
24902000,0.0324,0.013523,0.002678,0.000431,0.000353
24903000,0.0324,0.013523,0.002678,0.000431,0.000235
24904000,0.0324,0.013523,0.002678,0.000431,0.000353
24905000,0.0324,0.013523,0.002678,0.000431,0.000353
24906000,0.0324,0.013523,0.002678,0.000431,0.000235
24907000,0.0324,0.013523,0.002678,0.000431,0.000353
24908000,0.0324,0.013523,0.002678,0.000431,0.000470
24909000,0.0324,0.013523,0.002678,0.000431,0.000353
24910000,0.0324,0.013523,0.002678,0.000431,0.000235
24911000,0.0324,0.013523,0.002678,0.000431,0.000353
24912000,0.0324,0.013523,0.002678,0.000431,0.000353
24913000,0.0324,0.013523,0.002678,0.000431,0.000235
24914000,0.0324,0.013523,0.002678,0.000431,0.000353
24915000,0.0324,0.013523,0.002678,0.000431,0.000470
24916000,0.0324,0.013523,0.002678,0.000431,0.000353
24917000,0.0324,0.013523,0.002678,0.000431,0.000235
24918000,0.0324,0.013523,0.002678,0.000431,0.000353
24919000,0.0324,0.013523,0.002678,0.000431,0.000353
24920000,0.0324,0.013523,0.002678,0.000431,0.000235
24921000,0.0324,0.013523,0.002678,0.000431,0.000353
24922000,0.0324,0.013523,0.002678,0.000431,0.000470
24923000,0.0324,0.013523,0.002678,0.000431,0.000353
24924000,0.0324,0.013523,0.002678,0.000431,0.000235
24925000,0.0324,0.013523,0.002678,0.000431,0.000353
24926000,0.0324,0.013523,0.002678,0.000431,0.000353
24927000,0.0324,0.013523,0.002678,0.000431,0.000235
24928000,0.0324,0.013523,0.002678,0.000431,0.000353
24929000,0.0324,0.013523,0.002678,0.000431,0.000470
24930000,0.0324,0.013523,0.002678,0.000431,0.000353
24931000,0.0324,0.013523,0.002678,0.000431,0.000118
24932000,0.0324,0.013523,0.002678,0.000431,0.000470
24933000,0.0324,0.013523,0.002678,0.000431,0.000353
24934000,0.0324,0.013523,0.002678,0.000431,0.000235
24935000,0.0324,0.013523,0.002678,0.000431,0.000353
24936000,0.0324,0.013523,0.002678,0.000431,0.000470
24937000,0.0324,0.013523,0.002678,0.000431,0.000353
24938000,0.0324,0.013523,0.002678,0.000431,0.000118
24939000,0.0324,0.013523,0.002678,0.000431,0.000470
24940000,0.0324,0.013523,0.002678,0.000431,0.000353
24941000,0.0324,0.013523,0.002678,0.000431,0.000235
24942000,0.0324,0.013523,0.002678,0.000431,0.000353
24943000,0.0324,0.013523,0.002678,0.000431,0.000470
24944000,0.0324,0.013523,0.002678,0.000431,0.000353
24945000,0.0324,0.013523,0.002678,0.000431,0.000118
24946000,0.0324,0.013523,0.002678,0.000431,0.000470
24947000,0.0324,0.013523,0.002678,0.000431,0.000353
24948000,0.0324,0.013523,0.002678,0.000431,0.000235
24949000,0.0324,0.013523,0.002678,0.000431,0.000353
24950000,0.0324,0.013523,0.002678,0.000431,0.000470
24951000,0.0324,0.013523,0.002678,0.000431,0.000353
24952000,0.0324,0.013523,0.002678,0.000431,0.000118
24953000,0.0324,0.013523,0.002678,0.000431,0.000470
24954000,0.0324,0.013523,0.002678,0.000431,0.000353
24955000,0.0324,0.013523,0.002678,0.000431,0.000235
24956000,0.0324,0.013523,0.002678,0.000431,0.000353
24957000,0.0324,0.013523,0.002678,0.000431,0.000470
24958000,0.0324,0.013523,0.002678,0.000431,0.000235
24959000,0.0324,0.013523,0.002678,0.000431,0.000235
24960000,0.0324,0.013523,0.002678,0.000431,0.000470
24961000,0.0324,0.013523,0.002678,0.000431,0.000353
24962000,0.0324,0.013523,0.002678,0.000431,0.000235
24963000,0.0324,0.013523,0.002678,0.000431,0.000353
24964000,0.0324,0.013523,0.002678,0.000431,0.000470
24965000,0.0324,0.013523,0.002678,0.000431,0.000235
24966000,0.0324,0.013523,0.002678,0.000431,0.000235
24967000,0.0324,0.013523,0.002678,0.000431,0.000470
24968000,0.0324,0.013523,0.002678,0.000431,0.000353
24969000,0.0324,0.013523,0.002678,0.000431,0.000235
24970000,0.0324,0.013523,0.002678,0.000431,0.000353
24971000,0.0324,0.013523,0.002678,0.000431,0.000470
24972000,0.0324,0.013523,0.002678,0.000431,0.000235
24973000,0.0324,0.013523,0.002678,0.000431,0.000235
24974000,0.0324,0.013523,0.002678,0.000431,0.000470
24975000,0.0324,0.013523,0.002678,0.000431,0.000353
24976000,0.0324,0.013523,0.002678,0.000431,0.000235
24977000,0.0324,0.013523,0.002678,0.000431,0.000353
24978000,0.0324,0.013523,0.002678,0.000431,0.000470
24979000,0.0324,0.013523,0.002678,0.000431,0.000235
24980000,0.0324,0.013523,0.002678,0.000431,0.000235
24981000,0.0324,0.013523,0.002678,0.000431,0.000470
24982000,0.0324,0.013523,0.002678,0.000431,0.000353
24983000,0.0324,0.013523,0.002678,0.000431,0.000235
24984000,0.0324,0.013523,0.002678,0.000431,0.000353
24985000,0.0324,0.013523,0.002678,0.000431,0.000470
24986000,0.0324,0.013523,0.002678,0.000431,0.000235
24987000,0.0324,0.013523,0.002678,0.000431,0.000235
24988000,0.0324,0.013523,0.002678,0.000431,0.000470
24989000,0.0324,0.013523,0.002678,0.000431,0.000353
24990000,0.0324,0.013523,0.002678,0.000431,0.000235
24991000,0.0324,0.013523,0.002678,0.000431,0.000353
24992000,0.0324,0.013523,0.002678,0.000431,0.000470
24993000,0.0324,0.013523,0.002678,0.000431,0.000235
24994000,0.0324,0.013523,0.002678,0.000431,0.000235
24995000,0.0324,0.013523,0.002678,0.000431,0.000470
24996000,0.0324,0.013523,0.002678,0.000431,0.000353
24997000,0.0324,0.013523,0.002678,0.000431,0.000235
24998000,0.0324,0.013523,0.002678,0.000431,0.000353
24999000,0.0324,0.013523,0.002678,0.000431,0.000470
