Cycle,Area(mm^2),PeakDynamic(W),SubthresholdLeakage(W),GateLeakage(W),RunTimeDynamic(W)
41000000,0.0324,0.013523,0.002678,0.000431,0.000235
41001000,0.0324,0.013523,0.002678,0.000431,0.000353
41002000,0.0324,0.013523,0.002678,0.000431,0.000353
41003000,0.0324,0.013523,0.002678,0.000431,0.000235
41004000,0.0324,0.013523,0.002678,0.000431,0.000353
41005000,0.0324,0.013523,0.002678,0.000431,0.000470
41006000,0.0324,0.013523,0.002678,0.000431,0.000353
41007000,0.0324,0.013523,0.002678,0.000431,0.000118
41008000,0.0324,0.013523,0.002678,0.000431,0.000470
41009000,0.0324,0.013523,0.002678,0.000431,0.000353
41010000,0.0324,0.013523,0.002678,0.000431,0.000235
41011000,0.0324,0.013523,0.002678,0.000431,0.000353
41012000,0.0324,0.013523,0.002678,0.000431,0.000470
41013000,0.0324,0.013523,0.002678,0.000431,0.000235
41014000,0.0324,0.013523,0.002678,0.000431,0.000235
41015000,0.0324,0.013523,0.002678,0.000431,0.000470
41016000,0.0324,0.013523,0.002678,0.000431,0.000353
41017000,0.0324,0.013523,0.002678,0.000431,0.000235
41018000,0.0324,0.013523,0.002678,0.000431,0.000353
41019000,0.0324,0.013523,0.002678,0.000431,0.000470
41020000,0.0324,0.013523,0.002678,0.000431,0.000118
41021000,0.0324,0.013523,0.002678,0.000431,0.000353
41022000,0.0324,0.013523,0.002678,0.000431,0.000470
41023000,0.0324,0.013523,0.002678,0.000431,0.000353
41024000,0.0324,0.013523,0.002678,0.000431,0.000235
41025000,0.0324,0.013523,0.002678,0.000431,0.000353
41026000,0.0324,0.013523,0.002678,0.000431,0.000470
41027000,0.0324,0.013523,0.002678,0.000431,0.000118
41028000,0.0324,0.013523,0.002678,0.000431,0.000353
41029000,0.0324,0.013523,0.002678,0.000431,0.000470
41030000,0.0324,0.013523,0.002678,0.000431,0.000353
41031000,0.0324,0.013523,0.002678,0.000431,0.000235
41032000,0.0324,0.013523,0.002678,0.000431,0.000353
41033000,0.0324,0.013523,0.002678,0.000431,0.000353
41034000,0.0324,0.013523,0.002678,0.000431,0.000235
41035000,0.0324,0.013523,0.002678,0.000431,0.000353
41036000,0.0324,0.013523,0.002678,0.000431,0.000470
41037000,0.0324,0.013523,0.002678,0.000431,0.000353
41038000,0.0324,0.013523,0.002678,0.000431,0.000235
41039000,0.0324,0.013523,0.002678,0.000431,0.000353
41040000,0.0324,0.013523,0.002678,0.000431,0.000353
41041000,0.0324,0.013523,0.002678,0.000431,0.000235
41042000,0.0324,0.013523,0.002678,0.000431,0.000353
41043000,0.0324,0.013523,0.002678,0.000431,0.000470
41044000,0.0324,0.013523,0.002678,0.000431,0.000353
41045000,0.0324,0.013523,0.002678,0.000431,0.000118
41046000,0.0324,0.013523,0.002678,0.000431,0.000470
41047000,0.0324,0.013523,0.002678,0.000431,0.000353
41048000,0.0324,0.013523,0.002678,0.000431,0.000235
41049000,0.0324,0.013523,0.002678,0.000431,0.000353
41050000,0.0324,0.013523,0.002678,0.000431,0.000470
41051000,0.0324,0.013523,0.002678,0.000431,0.000353
41052000,0.0324,0.013523,0.002678,0.000431,0.000118
41053000,0.0324,0.013523,0.002678,0.000431,0.000470
41054000,0.0324,0.013523,0.002678,0.000431,0.000353
41055000,0.0324,0.013523,0.002678,0.000431,0.000235
41056000,0.0324,0.013523,0.002678,0.000431,0.000353
41057000,0.0324,0.013523,0.002678,0.000431,0.000470
41058000,0.0324,0.013523,0.002678,0.000431,0.000235
41059000,0.0324,0.013523,0.002678,0.000431,0.000235
41060000,0.0324,0.013523,0.002678,0.000431,0.000470
41061000,0.0324,0.013523,0.002678,0.000431,0.000353
41062000,0.0324,0.013523,0.002678,0.000431,0.000235
41063000,0.0324,0.013523,0.002678,0.000431,0.000353
41064000,0.0324,0.013523,0.002678,0.000431,0.000470
41065000,0.0324,0.013523,0.002678,0.000431,0.000118
41066000,0.0324,0.013523,0.002678,0.000431,0.000353
41067000,0.0324,0.013523,0.002678,0.000431,0.000470
41068000,0.0324,0.013523,0.002678,0.000431,0.000353
41069000,0.0324,0.013523,0.002678,0.000431,0.000235
41070000,0.0324,0.013523,0.002678,0.000431,0.000353
41071000,0.0324,0.013523,0.002678,0.000431,0.000353
41072000,0.0324,0.013523,0.002678,0.000431,0.000235
41073000,0.0324,0.013523,0.002678,0.000431,0.000353
41074000,0.0324,0.013523,0.002678,0.000431,0.000470
41075000,0.0324,0.013523,0.002678,0.000431,0.000353
41076000,0.0324,0.013523,0.002678,0.000431,0.000235
41077000,0.0324,0.013523,0.002678,0.000431,0.000353
41078000,0.0324,0.013523,0.002678,0.000431,0.000353
41079000,0.0324,0.013523,0.002678,0.000431,0.000235
41080000,0.0324,0.013523,0.002678,0.000431,0.000353
41081000,0.0324,0.013523,0.002678,0.000431,0.000470
41082000,0.0324,0.013523,0.002678,0.000431,0.000353
41083000,0.0324,0.013523,0.002678,0.000431,0.000235
41084000,0.0324,0.013523,0.002678,0.000431,0.000353
41085000,0.0324,0.013523,0.002678,0.000431,0.000353
41086000,0.0324,0.013523,0.002678,0.000431,0.000235
41087000,0.0324,0.013523,0.002678,0.000431,0.000353
41088000,0.0324,0.013523,0.002678,0.000431,0.000470
41089000,0.0324,0.013523,0.002678,0.000431,0.000353
41090000,0.0324,0.013523,0.002678,0.000431,0.000118
41091000,0.0324,0.013523,0.002678,0.000431,0.000470
41092000,0.0324,0.013523,0.002678,0.000431,0.000353
41093000,0.0324,0.013523,0.002678,0.000431,0.000235
41094000,0.0324,0.013523,0.002678,0.000431,0.000353
41095000,0.0324,0.013523,0.002678,0.000431,0.000470
41096000,0.0324,0.013523,0.002678,0.000431,0.000235
41097000,0.0324,0.013523,0.002678,0.000431,0.000235
41098000,0.0324,0.013523,0.002678,0.000431,0.000470
41099000,0.0324,0.013523,0.002678,0.000431,0.000353
41100000,0.0324,0.013523,0.002678,0.000431,0.000235
41101000,0.0324,0.013523,0.002678,0.000431,0.000353
41102000,0.0324,0.013523,0.002678,0.000431,0.000470
41103000,0.0324,0.013523,0.002678,0.000431,0.000235
41104000,0.0324,0.013523,0.002678,0.000431,0.000235
41105000,0.0324,0.013523,0.002678,0.000431,0.000470
41106000,0.0324,0.013523,0.002678,0.000431,0.000353
41107000,0.0324,0.013523,0.002678,0.000431,0.000235
41108000,0.0324,0.013523,0.002678,0.000431,0.000353
41109000,0.0324,0.013523,0.002678,0.000431,0.000470
41110000,0.0324,0.013523,0.002678,0.000431,0.000118
41111000,0.0324,0.013523,0.002678,0.000431,0.000353
41112000,0.0324,0.013523,0.002678,0.000431,0.000470
41113000,0.0324,0.013523,0.002678,0.000431,0.000353
41114000,0.0324,0.013523,0.002678,0.000431,0.000235
41115000,0.0324,0.013523,0.002678,0.000431,0.000353
41116000,0.0324,0.013523,0.002678,0.000431,0.000353
41117000,0.0324,0.013523,0.002678,0.000431,0.000235
41118000,0.0324,0.013523,0.002678,0.000431,0.000353
41119000,0.0324,0.013523,0.002678,0.000431,0.000470
41120000,0.0324,0.013523,0.002678,0.000431,0.000353
41121000,0.0324,0.013523,0.002678,0.000431,0.000235
41122000,0.0324,0.013523,0.002678,0.000431,0.000353
41123000,0.0324,0.013523,0.002678,0.000431,0.000353
41124000,0.0324,0.013523,0.002678,0.000431,0.000235
41125000,0.0324,0.013523,0.002678,0.000431,0.000353
41126000,0.0324,0.013523,0.002678,0.000431,0.000470
41127000,0.0324,0.013523,0.002678,0.000431,0.000353
41128000,0.0324,0.013523,0.002678,0.000431,0.000235
41129000,0.0324,0.013523,0.002678,0.000431,0.000353
41130000,0.0324,0.013523,0.002678,0.000431,0.000353
41131000,0.0324,0.013523,0.002678,0.000431,0.000235
41132000,0.0324,0.013523,0.002678,0.000431,0.000353
41133000,0.0324,0.013523,0.002678,0.000431,0.000470
41134000,0.0324,0.013523,0.002678,0.000431,0.000353
41135000,0.0324,0.013523,0.002678,0.000431,0.000118
41136000,0.0324,0.013523,0.002678,0.000431,0.000470
41137000,0.0324,0.013523,0.002678,0.000431,0.000353
41138000,0.0324,0.013523,0.002678,0.000431,0.000235
41139000,0.0324,0.013523,0.002678,0.000431,0.000353
41140000,0.0324,0.013523,0.002678,0.000431,0.000470
41141000,0.0324,0.013523,0.002678,0.000431,0.000353
41142000,0.0324,0.013523,0.002678,0.000431,0.000118
41143000,0.0324,0.013523,0.002678,0.000431,0.000470
41144000,0.0324,0.013523,0.002678,0.000431,0.000353
41145000,0.0324,0.013523,0.002678,0.000431,0.000235
41146000,0.0324,0.013523,0.002678,0.000431,0.000353
41147000,0.0324,0.013523,0.002678,0.000431,0.000470
41148000,0.0324,0.013523,0.002678,0.000431,0.000353
41149000,0.0324,0.013523,0.002678,0.000431,0.000118
41150000,0.0324,0.013523,0.002678,0.000431,0.000470
41151000,0.0324,0.013523,0.002678,0.000431,0.000353
41152000,0.0324,0.013523,0.002678,0.000431,0.000235
41153000,0.0324,0.013523,0.002678,0.000431,0.000353
41154000,0.0324,0.013523,0.002678,0.000431,0.000470
41155000,0.0324,0.013523,0.002678,0.000431,0.000235
41156000,0.0324,0.013523,0.002678,0.000431,0.000235
41157000,0.0324,0.013523,0.002678,0.000431,0.000470
41158000,0.0324,0.013523,0.002678,0.000431,0.000353
41159000,0.0324,0.013523,0.002678,0.000431,0.000235
41160000,0.0324,0.013523,0.002678,0.000431,0.000353
41161000,0.0324,0.013523,0.002678,0.000431,0.000470
41162000,0.0324,0.013523,0.002678,0.000431,0.000235
41163000,0.0324,0.013523,0.002678,0.000431,0.000235
41164000,0.0324,0.013523,0.002678,0.000431,0.000470
41165000,0.0324,0.013523,0.002678,0.000431,0.000353
41166000,0.0324,0.013523,0.002678,0.000431,0.000235
41167000,0.0324,0.013523,0.002678,0.000431,0.000353
41168000,0.0324,0.013523,0.002678,0.000431,0.000470
41169000,0.0324,0.013523,0.002678,0.000431,0.000235
41170000,0.0324,0.013523,0.002678,0.000431,0.000235
41171000,0.0324,0.013523,0.002678,0.000431,0.000470
41172000,0.0324,0.013523,0.002678,0.000431,0.000353
41173000,0.0324,0.013523,0.002678,0.000431,0.000235
41174000,0.0324,0.013523,0.002678,0.000431,0.000353
41175000,0.0324,0.013523,0.002678,0.000431,0.000470
41176000,0.0324,0.013523,0.002678,0.000431,0.000235
41177000,0.0324,0.013523,0.002678,0.000431,0.000235
41178000,0.0324,0.013523,0.002678,0.000431,0.000470
41179000,0.0324,0.013523,0.002678,0.000431,0.000353
41180000,0.0324,0.013523,0.002678,0.000431,0.000235
41181000,0.0324,0.013523,0.002678,0.000431,0.000353
41182000,0.0324,0.013523,0.002678,0.000431,0.000470
41183000,0.0324,0.013523,0.002678,0.000431,0.000235
41184000,0.0324,0.013523,0.002678,0.000431,0.000235
41185000,0.0324,0.013523,0.002678,0.000431,0.000470
41186000,0.0324,0.013523,0.002678,0.000431,0.000353
41187000,0.0324,0.013523,0.002678,0.000431,0.000235
41188000,0.0324,0.013523,0.002678,0.000431,0.000353
41189000,0.0324,0.013523,0.002678,0.000431,0.000470
41190000,0.0324,0.013523,0.002678,0.000431,0.000235
41191000,0.0324,0.013523,0.002678,0.000431,0.000235
41192000,0.0324,0.013523,0.002678,0.000431,0.000470
41193000,0.0324,0.013523,0.002678,0.000431,0.000353
41194000,0.0324,0.013523,0.002678,0.000431,0.000235
41195000,0.0324,0.013523,0.002678,0.000431,0.000353
41196000,0.0324,0.013523,0.002678,0.000431,0.000470
41197000,0.0324,0.013523,0.002678,0.000431,0.000118
41198000,0.0324,0.013523,0.002678,0.000431,0.000353
41199000,0.0324,0.013523,0.002678,0.000431,0.000470
41200000,0.0324,0.013523,0.002678,0.000431,0.000353
41201000,0.0324,0.013523,0.002678,0.000431,0.000235
41202000,0.0324,0.013523,0.002678,0.000431,0.000353
41203000,0.0324,0.013523,0.002678,0.000431,0.000470
41204000,0.0324,0.013523,0.002678,0.000431,0.000118
41205000,0.0324,0.013523,0.002678,0.000431,0.000353
41206000,0.0324,0.013523,0.002678,0.000431,0.000470
41207000,0.0324,0.013523,0.002678,0.000431,0.000353
41208000,0.0324,0.013523,0.002678,0.000431,0.000235
41209000,0.0324,0.013523,0.002678,0.000431,0.000353
41210000,0.0324,0.013523,0.002678,0.000431,0.000470
41211000,0.0324,0.013523,0.002678,0.000431,0.000118
41212000,0.0324,0.013523,0.002678,0.000431,0.000353
41213000,0.0324,0.013523,0.002678,0.000431,0.000470
41214000,0.0324,0.013523,0.002678,0.000431,0.000353
41215000,0.0324,0.013523,0.002678,0.000431,0.000235
41216000,0.0324,0.013523,0.002678,0.000431,0.000353
41217000,0.0324,0.013523,0.002678,0.000431,0.000353
41218000,0.0324,0.013523,0.002678,0.000431,0.000235
41219000,0.0324,0.013523,0.002678,0.000431,0.000353
41220000,0.0324,0.013523,0.002678,0.000431,0.000470
41221000,0.0324,0.013523,0.002678,0.000431,0.000353
41222000,0.0324,0.013523,0.002678,0.000431,0.000235
41223000,0.0324,0.013523,0.002678,0.000431,0.000353
41224000,0.0324,0.013523,0.002678,0.000431,0.000353
41225000,0.0324,0.013523,0.002678,0.000431,0.000235
41226000,0.0324,0.013523,0.002678,0.000431,0.000353
41227000,0.0324,0.013523,0.002678,0.000431,0.000470
41228000,0.0324,0.013523,0.002678,0.000431,0.000353
41229000,0.0324,0.013523,0.002678,0.000431,0.000235
41230000,0.0324,0.013523,0.002678,0.000431,0.000353
41231000,0.0324,0.013523,0.002678,0.000431,0.000353
41232000,0.0324,0.013523,0.002678,0.000431,0.000235
41233000,0.0324,0.013523,0.002678,0.000431,0.000353
41234000,0.0324,0.013523,0.002678,0.000431,0.000470
41235000,0.0324,0.013523,0.002678,0.000431,0.000353
41236000,0.0324,0.013523,0.002678,0.000431,0.000235
41237000,0.0324,0.013523,0.002678,0.000431,0.000353
41238000,0.0324,0.013523,0.002678,0.000431,0.000353
41239000,0.0324,0.013523,0.002678,0.000431,0.000235
41240000,0.0324,0.013523,0.002678,0.000431,0.000353
41241000,0.0324,0.013523,0.002678,0.000431,0.000470
41242000,0.0324,0.013523,0.002678,0.000431,0.000353
41243000,0.0324,0.013523,0.002678,0.000431,0.000235
41244000,0.0324,0.013523,0.002678,0.000431,0.000353
41245000,0.0324,0.013523,0.002678,0.000431,0.000353
41246000,0.0324,0.013523,0.002678,0.000431,0.000235
41247000,0.0324,0.013523,0.002678,0.000431,0.000353
41248000,0.0324,0.013523,0.002678,0.000431,0.000470
41249000,0.0324,0.013523,0.002678,0.000431,0.000353
41250000,0.0324,0.013523,0.002678,0.000431,0.000235
41251000,0.0324,0.013523,0.002678,0.000431,0.000353
41252000,0.0324,0.013523,0.002678,0.000431,0.000353
41253000,0.0324,0.013523,0.002678,0.000431,0.000235
41254000,0.0324,0.013523,0.002678,0.000431,0.000353
41255000,0.0324,0.013523,0.002678,0.000431,0.000470
41256000,0.0324,0.013523,0.002678,0.000431,0.000353
41257000,0.0324,0.013523,0.002678,0.000431,0.000235
41258000,0.0324,0.013523,0.002678,0.000431,0.000353
41259000,0.0324,0.013523,0.002678,0.000431,0.000353
41260000,0.0324,0.013523,0.002678,0.000431,0.000235
41261000,0.0324,0.013523,0.002678,0.000431,0.000353
41262000,0.0324,0.013523,0.002678,0.000431,0.000470
41263000,0.0324,0.013523,0.002678,0.000431,0.000353
41264000,0.0324,0.013523,0.002678,0.000431,0.000235
41265000,0.0324,0.013523,0.002678,0.000431,0.000353
41266000,0.0324,0.013523,0.002678,0.000431,0.000353
41267000,0.0324,0.013523,0.002678,0.000431,0.000235
41268000,0.0324,0.013523,0.002678,0.000431,0.000353
41269000,0.0324,0.013523,0.002678,0.000431,0.000470
41270000,0.0324,0.013523,0.002678,0.000431,0.000353
41271000,0.0324,0.013523,0.002678,0.000431,0.000118
41272000,0.0324,0.013523,0.002678,0.000431,0.000470
41273000,0.0324,0.013523,0.002678,0.000431,0.000353
41274000,0.0324,0.013523,0.002678,0.000431,0.000235
41275000,0.0324,0.013523,0.002678,0.000431,0.000353
41276000,0.0324,0.013523,0.002678,0.000431,0.000470
41277000,0.0324,0.013523,0.002678,0.000431,0.000353
41278000,0.0324,0.013523,0.002678,0.000431,0.000118
41279000,0.0324,0.013523,0.002678,0.000431,0.000470
41280000,0.0324,0.013523,0.002678,0.000431,0.000353
41281000,0.0324,0.013523,0.002678,0.000431,0.000235
41282000,0.0324,0.013523,0.002678,0.000431,0.000353
41283000,0.0324,0.013523,0.002678,0.000431,0.000470
41284000,0.0324,0.013523,0.002678,0.000431,0.000353
41285000,0.0324,0.013523,0.002678,0.000431,0.000118
41286000,0.0324,0.013523,0.002678,0.000431,0.000470
41287000,0.0324,0.013523,0.002678,0.000431,0.000353
41288000,0.0324,0.013523,0.002678,0.000431,0.000235
41289000,0.0324,0.013523,0.002678,0.000431,0.000353
41290000,0.0324,0.013523,0.002678,0.000431,0.000470
41291000,0.0324,0.013523,0.002678,0.000431,0.000353
41292000,0.0324,0.013523,0.002678,0.000431,0.000118
41293000,0.0324,0.013523,0.002678,0.000431,0.000470
41294000,0.0324,0.013523,0.002678,0.000431,0.000353
41295000,0.0324,0.013523,0.002678,0.000431,0.000235
41296000,0.0324,0.013523,0.002678,0.000431,0.000353
41297000,0.0324,0.013523,0.002678,0.000431,0.000470
41298000,0.0324,0.013523,0.002678,0.000431,0.000235
41299000,0.0324,0.013523,0.002678,0.000431,0.000235
41300000,0.0324,0.013523,0.002678,0.000431,0.000470
41301000,0.0324,0.013523,0.002678,0.000431,0.000353
41302000,0.0324,0.013523,0.002678,0.000431,0.000235
41303000,0.0324,0.013523,0.002678,0.000431,0.000353
41304000,0.0324,0.013523,0.002678,0.000431,0.000470
41305000,0.0324,0.013523,0.002678,0.000431,0.000235
41306000,0.0324,0.013523,0.002678,0.000431,0.000235
41307000,0.0324,0.013523,0.002678,0.000431,0.000470
41308000,0.0324,0.013523,0.002678,0.000431,0.000353
41309000,0.0324,0.013523,0.002678,0.000431,0.000235
41310000,0.0324,0.013523,0.002678,0.000431,0.000353
41311000,0.0324,0.013523,0.002678,0.000431,0.000470
41312000,0.0324,0.013523,0.002678,0.000431,0.000235
41313000,0.0324,0.013523,0.002678,0.000431,0.000235
41314000,0.0324,0.013523,0.002678,0.000431,0.000470
41315000,0.0324,0.013523,0.002678,0.000431,0.000353
41316000,0.0324,0.013523,0.002678,0.000431,0.000235
41317000,0.0324,0.013523,0.002678,0.000431,0.000353
41318000,0.0324,0.013523,0.002678,0.000431,0.000470
41319000,0.0324,0.013523,0.002678,0.000431,0.000235
41320000,0.0324,0.013523,0.002678,0.000431,0.000235
41321000,0.0324,0.013523,0.002678,0.000431,0.000470
41322000,0.0324,0.013523,0.002678,0.000431,0.000353
41323000,0.0324,0.013523,0.002678,0.000431,0.000235
41324000,0.0324,0.013523,0.002678,0.000431,0.000353
41325000,0.0324,0.013523,0.002678,0.000431,0.000470
41326000,0.0324,0.013523,0.002678,0.000431,0.000235
41327000,0.0324,0.013523,0.002678,0.000431,0.000235
41328000,0.0324,0.013523,0.002678,0.000431,0.000470
41329000,0.0324,0.013523,0.002678,0.000431,0.000353
41330000,0.0324,0.013523,0.002678,0.000431,0.000235
41331000,0.0324,0.013523,0.002678,0.000431,0.000353
41332000,0.0324,0.013523,0.002678,0.000431,0.000470
41333000,0.0324,0.013523,0.002678,0.000431,0.000235
41334000,0.0324,0.013523,0.002678,0.000431,0.000235
41335000,0.0324,0.013523,0.002678,0.000431,0.000470
41336000,0.0324,0.013523,0.002678,0.000431,0.000353
41337000,0.0324,0.013523,0.002678,0.000431,0.000235
41338000,0.0324,0.013523,0.002678,0.000431,0.000353
41339000,0.0324,0.013523,0.002678,0.000431,0.000470
41340000,0.0324,0.013523,0.002678,0.000431,0.000118
41341000,0.0324,0.013523,0.002678,0.000431,0.000353
41342000,0.0324,0.013523,0.002678,0.000431,0.000470
41343000,0.0324,0.013523,0.002678,0.000431,0.000353
41344000,0.0324,0.013523,0.002678,0.000431,0.000235
41345000,0.0324,0.013523,0.002678,0.000431,0.000353
41346000,0.0324,0.013523,0.002678,0.000431,0.000470
41347000,0.0324,0.013523,0.002678,0.000431,0.000118
41348000,0.0324,0.013523,0.002678,0.000431,0.000353
41349000,0.0324,0.013523,0.002678,0.000431,0.000470
41350000,0.0324,0.013523,0.002678,0.000431,0.000353
41351000,0.0324,0.013523,0.002678,0.000431,0.000235
41352000,0.0324,0.013523,0.002678,0.000431,0.000353
41353000,0.0324,0.013523,0.002678,0.000431,0.000470
41354000,0.0324,0.013523,0.002678,0.000431,0.000118
41355000,0.0324,0.013523,0.002678,0.000431,0.000353
41356000,0.0324,0.013523,0.002678,0.000431,0.000470
41357000,0.0324,0.013523,0.002678,0.000431,0.000353
41358000,0.0324,0.013523,0.002678,0.000431,0.000235
41359000,0.0324,0.013523,0.002678,0.000431,0.000353
41360000,0.0324,0.013523,0.002678,0.000431,0.000353
41361000,0.0324,0.013523,0.002678,0.000431,0.000235
41362000,0.0324,0.013523,0.002678,0.000431,0.000353
41363000,0.0324,0.013523,0.002678,0.000431,0.000470
41364000,0.0324,0.013523,0.002678,0.000431,0.000353
41365000,0.0324,0.013523,0.002678,0.000431,0.000235
41366000,0.0324,0.013523,0.002678,0.000431,0.000353
41367000,0.0324,0.013523,0.002678,0.000431,0.000353
41368000,0.0324,0.013523,0.002678,0.000431,0.000235
41369000,0.0324,0.013523,0.002678,0.000431,0.000353
41370000,0.0324,0.013523,0.002678,0.000431,0.000470
41371000,0.0324,0.013523,0.002678,0.000431,0.000353
41372000,0.0324,0.013523,0.002678,0.000431,0.000235
41373000,0.0324,0.013523,0.002678,0.000431,0.000353
41374000,0.0324,0.013523,0.002678,0.000431,0.000353
41375000,0.0324,0.013523,0.002678,0.000431,0.000235
41376000,0.0324,0.013523,0.002678,0.000431,0.000353
41377000,0.0324,0.013523,0.002678,0.000431,0.000470
41378000,0.0324,0.013523,0.002678,0.000431,0.000353
41379000,0.0324,0.013523,0.002678,0.000431,0.000235
41380000,0.0324,0.013523,0.002678,0.000431,0.000353
41381000,0.0324,0.013523,0.002678,0.000431,0.000353
41382000,0.0324,0.013523,0.002678,0.000431,0.000235
41383000,0.0324,0.013523,0.002678,0.000431,0.000353
41384000,0.0324,0.013523,0.002678,0.000431,0.000470
41385000,0.0324,0.013523,0.002678,0.000431,0.000353
41386000,0.0324,0.013523,0.002678,0.000431,0.000235
41387000,0.0324,0.013523,0.002678,0.000431,0.000353
41388000,0.0324,0.013523,0.002678,0.000431,0.000353
41389000,0.0324,0.013523,0.002678,0.000431,0.000235
41390000,0.0324,0.013523,0.002678,0.000431,0.000353
41391000,0.0324,0.013523,0.002678,0.000431,0.000470
41392000,0.0324,0.013523,0.002678,0.000431,0.000353
41393000,0.0324,0.013523,0.002678,0.000431,0.000235
41394000,0.0324,0.013523,0.002678,0.000431,0.000353
41395000,0.0324,0.013523,0.002678,0.000431,0.000353
41396000,0.0324,0.013523,0.002678,0.000431,0.000235
41397000,0.0324,0.013523,0.002678,0.000431,0.000353
41398000,0.0324,0.013523,0.002678,0.000431,0.000470
41399000,0.0324,0.013523,0.002678,0.000431,0.000353
41400000,0.0324,0.013523,0.002678,0.000431,0.000235
41401000,0.0324,0.013523,0.002678,0.000431,0.000353
41402000,0.0324,0.013523,0.002678,0.000431,0.000353
41403000,0.0324,0.013523,0.002678,0.000431,0.000235
41404000,0.0324,0.013523,0.002678,0.000431,0.000353
41405000,0.0324,0.013523,0.002678,0.000431,0.000470
41406000,0.0324,0.013523,0.002678,0.000431,0.000353
41407000,0.0324,0.013523,0.002678,0.000431,0.000235
41408000,0.0324,0.013523,0.002678,0.000431,0.000353
41409000,0.0324,0.013523,0.002678,0.000431,0.000353
41410000,0.0324,0.013523,0.002678,0.000431,0.000235
41411000,0.0324,0.013523,0.002678,0.000431,0.000353
41412000,0.0324,0.013523,0.002678,0.000431,0.000470
41413000,0.0324,0.013523,0.002678,0.000431,0.000353
41414000,0.0324,0.013523,0.002678,0.000431,0.000118
41415000,0.0324,0.013523,0.002678,0.000431,0.000470
41416000,0.0324,0.013523,0.002678,0.000431,0.000353
41417000,0.0324,0.013523,0.002678,0.000431,0.000235
41418000,0.0324,0.013523,0.002678,0.000431,0.000353
41419000,0.0324,0.013523,0.002678,0.000431,0.000470
41420000,0.0324,0.013523,0.002678,0.000431,0.000353
41421000,0.0324,0.013523,0.002678,0.000431,0.000118
41422000,0.0324,0.013523,0.002678,0.000431,0.000470
41423000,0.0324,0.013523,0.002678,0.000431,0.000353
41424000,0.0324,0.013523,0.002678,0.000431,0.000235
41425000,0.0324,0.013523,0.002678,0.000431,0.000353
41426000,0.0324,0.013523,0.002678,0.000431,0.000470
41427000,0.0324,0.013523,0.002678,0.000431,0.000353
41428000,0.0324,0.013523,0.002678,0.000431,0.000118
41429000,0.0324,0.013523,0.002678,0.000431,0.000470
41430000,0.0324,0.013523,0.002678,0.000431,0.000353
41431000,0.0324,0.013523,0.002678,0.000431,0.000235
41432000,0.0324,0.013523,0.002678,0.000431,0.000353
41433000,0.0324,0.013523,0.002678,0.000431,0.000470
41434000,0.0324,0.013523,0.002678,0.000431,0.000235
41435000,0.0324,0.013523,0.002678,0.000431,0.000235
41436000,0.0324,0.013523,0.002678,0.000431,0.000470
41437000,0.0324,0.013523,0.002678,0.000431,0.000353
41438000,0.0324,0.013523,0.002678,0.000431,0.000235
41439000,0.0324,0.013523,0.002678,0.000431,0.000353
41440000,0.0324,0.013523,0.002678,0.000431,0.000470
41441000,0.0324,0.013523,0.002678,0.000431,0.000235
41442000,0.0324,0.013523,0.002678,0.000431,0.000235
41443000,0.0324,0.013523,0.002678,0.000431,0.000470
41444000,0.0324,0.013523,0.002678,0.000431,0.000353
41445000,0.0324,0.013523,0.002678,0.000431,0.000235
41446000,0.0324,0.013523,0.002678,0.000431,0.000353
41447000,0.0324,0.013523,0.002678,0.000431,0.000470
41448000,0.0324,0.013523,0.002678,0.000431,0.000235
41449000,0.0324,0.013523,0.002678,0.000431,0.000235
41450000,0.0324,0.013523,0.002678,0.000431,0.000470
41451000,0.0324,0.013523,0.002678,0.000431,0.000353
41452000,0.0324,0.013523,0.002678,0.000431,0.000235
41453000,0.0324,0.013523,0.002678,0.000431,0.000353
41454000,0.0324,0.013523,0.002678,0.000431,0.000470
41455000,0.0324,0.013523,0.002678,0.000431,0.000235
41456000,0.0324,0.013523,0.002678,0.000431,0.000235
41457000,0.0324,0.013523,0.002678,0.000431,0.000470
41458000,0.0324,0.013523,0.002678,0.000431,0.000353
41459000,0.0324,0.013523,0.002678,0.000431,0.000235
41460000,0.0324,0.013523,0.002678,0.000431,0.000353
41461000,0.0324,0.013523,0.002678,0.000431,0.000470
41462000,0.0324,0.013523,0.002678,0.000431,0.000235
41463000,0.0324,0.013523,0.002678,0.000431,0.000235
41464000,0.0324,0.013523,0.002678,0.000431,0.000470
41465000,0.0324,0.013523,0.002678,0.000431,0.000353
41466000,0.0324,0.013523,0.002678,0.000431,0.000235
41467000,0.0324,0.013523,0.002678,0.000431,0.000353
41468000,0.0324,0.013523,0.002678,0.000431,0.000470
41469000,0.0324,0.013523,0.002678,0.000431,0.000235
41470000,0.0324,0.013523,0.002678,0.000431,0.000235
41471000,0.0324,0.013523,0.002678,0.000431,0.000470
41472000,0.0324,0.013523,0.002678,0.000431,0.000353
41473000,0.0324,0.013523,0.002678,0.000431,0.000235
41474000,0.0324,0.013523,0.002678,0.000431,0.000353
41475000,0.0324,0.013523,0.002678,0.000431,0.000470
41476000,0.0324,0.013523,0.002678,0.000431,0.000118
41477000,0.0324,0.013523,0.002678,0.000431,0.000353
41478000,0.0324,0.013523,0.002678,0.000431,0.000470
41479000,0.0324,0.013523,0.002678,0.000431,0.000353
41480000,0.0324,0.013523,0.002678,0.000431,0.000235
41481000,0.0324,0.013523,0.002678,0.000431,0.000353
41482000,0.0324,0.013523,0.002678,0.000431,0.000470
41483000,0.0324,0.013523,0.002678,0.000431,0.000118
41484000,0.0324,0.013523,0.002678,0.000431,0.000353
41485000,0.0324,0.013523,0.002678,0.000431,0.000470
41486000,0.0324,0.013523,0.002678,0.000431,0.000353
41487000,0.0324,0.013523,0.002678,0.000431,0.000235
41488000,0.0324,0.013523,0.002678,0.000431,0.000353
41489000,0.0324,0.013523,0.002678,0.000431,0.000470
41490000,0.0324,0.013523,0.002678,0.000431,0.000118
41491000,0.0324,0.013523,0.002678,0.000431,0.000353
41492000,0.0324,0.013523,0.002678,0.000431,0.000470
41493000,0.0324,0.013523,0.002678,0.000431,0.000353
41494000,0.0324,0.013523,0.002678,0.000431,0.000235
41495000,0.0324,0.013523,0.002678,0.000431,0.000353
41496000,0.0324,0.013523,0.002678,0.000431,0.000470
41497000,0.0324,0.013523,0.002678,0.000431,0.000118
41498000,0.0324,0.013523,0.002678,0.000431,0.000353
41499000,0.0324,0.013523,0.002678,0.000431,0.000470
41500000,0.0324,0.013523,0.002678,0.000431,0.000353
41501000,0.0324,0.013523,0.002678,0.000431,0.000235
41502000,0.0324,0.013523,0.002678,0.000431,0.000353
41503000,0.0324,0.013523,0.002678,0.000431,0.000353
41504000,0.0324,0.013523,0.002678,0.000431,0.000235
41505000,0.0324,0.013523,0.002678,0.000431,0.000353
41506000,0.0324,0.013523,0.002678,0.000431,0.000470
41507000,0.0324,0.013523,0.002678,0.000431,0.000353
41508000,0.0324,0.013523,0.002678,0.000431,0.000235
41509000,0.0324,0.013523,0.002678,0.000431,0.000353
41510000,0.0324,0.013523,0.002678,0.000431,0.000353
41511000,0.0324,0.013523,0.002678,0.000431,0.000235
41512000,0.0324,0.013523,0.002678,0.000431,0.000353
41513000,0.0324,0.013523,0.002678,0.000431,0.000470
41514000,0.0324,0.013523,0.002678,0.000431,0.000353
41515000,0.0324,0.013523,0.002678,0.000431,0.000235
41516000,0.0324,0.013523,0.002678,0.000431,0.000353
41517000,0.0324,0.013523,0.002678,0.000431,0.000353
41518000,0.0324,0.013523,0.002678,0.000431,0.000235
41519000,0.0324,0.013523,0.002678,0.000431,0.000353
41520000,0.0324,0.013523,0.002678,0.000431,0.000470
41521000,0.0324,0.013523,0.002678,0.000431,0.000353
41522000,0.0324,0.013523,0.002678,0.000431,0.000235
41523000,0.0324,0.013523,0.002678,0.000431,0.000353
41524000,0.0324,0.013523,0.002678,0.000431,0.000353
41525000,0.0324,0.013523,0.002678,0.000431,0.000235
41526000,0.0324,0.013523,0.002678,0.000431,0.000353
41527000,0.0324,0.013523,0.002678,0.000431,0.000470
41528000,0.0324,0.013523,0.002678,0.000431,0.000353
41529000,0.0324,0.013523,0.002678,0.000431,0.000235
41530000,0.0324,0.013523,0.002678,0.000431,0.000353
41531000,0.0324,0.013523,0.002678,0.000431,0.000353
41532000,0.0324,0.013523,0.002678,0.000431,0.000235
41533000,0.0324,0.013523,0.002678,0.000431,0.000353
41534000,0.0324,0.013523,0.002678,0.000431,0.000470
41535000,0.0324,0.013523,0.002678,0.000431,0.000353
41536000,0.0324,0.013523,0.002678,0.000431,0.000235
41537000,0.0324,0.013523,0.002678,0.000431,0.000353
41538000,0.0324,0.013523,0.002678,0.000431,0.000353
41539000,0.0324,0.013523,0.002678,0.000431,0.000235
41540000,0.0324,0.013523,0.002678,0.000431,0.000353
41541000,0.0324,0.013523,0.002678,0.000431,0.000470
41542000,0.0324,0.013523,0.002678,0.000431,0.000353
41543000,0.0324,0.013523,0.002678,0.000431,0.000235
41544000,0.0324,0.013523,0.002678,0.000431,0.000353
41545000,0.0324,0.013523,0.002678,0.000431,0.000353
41546000,0.0324,0.013523,0.002678,0.000431,0.000235
41547000,0.0324,0.013523,0.002678,0.000431,0.000353
41548000,0.0324,0.013523,0.002678,0.000431,0.000470
41549000,0.0324,0.013523,0.002678,0.000431,0.000353
41550000,0.0324,0.013523,0.002678,0.000431,0.000118
41551000,0.0324,0.013523,0.002678,0.000431,0.000470
41552000,0.0324,0.013523,0.002678,0.000431,0.000353
41553000,0.0324,0.013523,0.002678,0.000431,0.000235
41554000,0.0324,0.013523,0.002678,0.000431,0.000353
41555000,0.0324,0.013523,0.002678,0.000431,0.000470
41556000,0.0324,0.013523,0.002678,0.000431,0.000353
41557000,0.0324,0.013523,0.002678,0.000431,0.000118
41558000,0.0324,0.013523,0.002678,0.000431,0.000470
41559000,0.0324,0.013523,0.002678,0.000431,0.000353
41560000,0.0324,0.013523,0.002678,0.000431,0.000235
41561000,0.0324,0.013523,0.002678,0.000431,0.000353
41562000,0.0324,0.013523,0.002678,0.000431,0.000470
41563000,0.0324,0.013523,0.002678,0.000431,0.000353
41564000,0.0324,0.013523,0.002678,0.000431,0.000118
41565000,0.0324,0.013523,0.002678,0.000431,0.000470
41566000,0.0324,0.013523,0.002678,0.000431,0.000353
41567000,0.0324,0.013523,0.002678,0.000431,0.000235
41568000,0.0324,0.013523,0.002678,0.000431,0.000353
41569000,0.0324,0.013523,0.002678,0.000431,0.000470
41570000,0.0324,0.013523,0.002678,0.000431,0.000353
41571000,0.0324,0.013523,0.002678,0.000431,0.000118
41572000,0.0324,0.013523,0.002678,0.000431,0.000470
41573000,0.0324,0.013523,0.002678,0.000431,0.000353
41574000,0.0324,0.013523,0.002678,0.000431,0.000235
41575000,0.0324,0.013523,0.002678,0.000431,0.000353
41576000,0.0324,0.013523,0.002678,0.000431,0.000470
41577000,0.0324,0.013523,0.002678,0.000431,0.000235
41578000,0.0324,0.013523,0.002678,0.000431,0.000235
41579000,0.0324,0.013523,0.002678,0.000431,0.000470
41580000,0.0324,0.013523,0.002678,0.000431,0.000353
41581000,0.0324,0.013523,0.002678,0.000431,0.000235
41582000,0.0324,0.013523,0.002678,0.000431,0.000353
41583000,0.0324,0.013523,0.002678,0.000431,0.000470
41584000,0.0324,0.013523,0.002678,0.000431,0.000235
41585000,0.0324,0.013523,0.002678,0.000431,0.000235
41586000,0.0324,0.013523,0.002678,0.000431,0.000470
41587000,0.0324,0.013523,0.002678,0.000431,0.000353
41588000,0.0324,0.013523,0.002678,0.000431,0.000235
41589000,0.0324,0.013523,0.002678,0.000431,0.000353
41590000,0.0324,0.013523,0.002678,0.000431,0.000470
41591000,0.0324,0.013523,0.002678,0.000431,0.000235
41592000,0.0324,0.013523,0.002678,0.000431,0.000235
41593000,0.0324,0.013523,0.002678,0.000431,0.000470
41594000,0.0324,0.013523,0.002678,0.000431,0.000353
41595000,0.0324,0.013523,0.002678,0.000431,0.000235
41596000,0.0324,0.013523,0.002678,0.000431,0.000353
41597000,0.0324,0.013523,0.002678,0.000431,0.000470
41598000,0.0324,0.013523,0.002678,0.000431,0.000235
41599000,0.0324,0.013523,0.002678,0.000431,0.000235
41600000,0.0324,0.013523,0.002678,0.000431,0.000470
41601000,0.0324,0.013523,0.002678,0.000431,0.000353
41602000,0.0324,0.013523,0.002678,0.000431,0.000235
41603000,0.0324,0.013523,0.002678,0.000431,0.000353
41604000,0.0324,0.013523,0.002678,0.000431,0.000470
41605000,0.0324,0.013523,0.002678,0.000431,0.000235
41606000,0.0324,0.013523,0.002678,0.000431,0.000235
41607000,0.0324,0.013523,0.002678,0.000431,0.000470
41608000,0.0324,0.013523,0.002678,0.000431,0.000353
41609000,0.0324,0.013523,0.002678,0.000431,0.000235
41610000,0.0324,0.013523,0.002678,0.000431,0.000353
41611000,0.0324,0.013523,0.002678,0.000431,0.000470
41612000,0.0324,0.013523,0.002678,0.000431,0.000235
41613000,0.0324,0.013523,0.002678,0.000431,0.000235
41614000,0.0324,0.013523,0.002678,0.000431,0.000470
41615000,0.0324,0.013523,0.002678,0.000431,0.000353
41616000,0.0324,0.013523,0.002678,0.000431,0.000235
41617000,0.0324,0.013523,0.002678,0.000431,0.000353
41618000,0.0324,0.013523,0.002678,0.000431,0.000470
41619000,0.0324,0.013523,0.002678,0.000431,0.000118
41620000,0.0324,0.013523,0.002678,0.000431,0.000353
41621000,0.0324,0.013523,0.002678,0.000431,0.000470
41622000,0.0324,0.013523,0.002678,0.000431,0.000353
41623000,0.0324,0.013523,0.002678,0.000431,0.000235
41624000,0.0324,0.013523,0.002678,0.000431,0.000353
41625000,0.0324,0.013523,0.002678,0.000431,0.000470
41626000,0.0324,0.013523,0.002678,0.000431,0.000118
41627000,0.0324,0.013523,0.002678,0.000431,0.000353
41628000,0.0324,0.013523,0.002678,0.000431,0.000470
41629000,0.0324,0.013523,0.002678,0.000431,0.000353
41630000,0.0324,0.013523,0.002678,0.000431,0.000235
41631000,0.0324,0.013523,0.002678,0.000431,0.000353
41632000,0.0324,0.013523,0.002678,0.000431,0.000470
41633000,0.0324,0.013523,0.002678,0.000431,0.000118
41634000,0.0324,0.013523,0.002678,0.000431,0.000353
41635000,0.0324,0.013523,0.002678,0.000431,0.000470
41636000,0.0324,0.013523,0.002678,0.000431,0.000353
41637000,0.0324,0.013523,0.002678,0.000431,0.000235
41638000,0.0324,0.013523,0.002678,0.000431,0.000353
41639000,0.0324,0.013523,0.002678,0.000431,0.000353
41640000,0.0324,0.013523,0.002678,0.000431,0.000235
41641000,0.0324,0.013523,0.002678,0.000431,0.000353
41642000,0.0324,0.013523,0.002678,0.000431,0.000470
41643000,0.0324,0.013523,0.002678,0.000431,0.000353
41644000,0.0324,0.013523,0.002678,0.000431,0.000235
41645000,0.0324,0.013523,0.002678,0.000431,0.000353
41646000,0.0324,0.013523,0.002678,0.000431,0.000353
41647000,0.0324,0.013523,0.002678,0.000431,0.000235
41648000,0.0324,0.013523,0.002678,0.000431,0.000353
41649000,0.0324,0.013523,0.002678,0.000431,0.000470
41650000,0.0324,0.013523,0.002678,0.000431,0.000353
41651000,0.0324,0.013523,0.002678,0.000431,0.000235
41652000,0.0324,0.013523,0.002678,0.000431,0.000353
41653000,0.0324,0.013523,0.002678,0.000431,0.000353
41654000,0.0324,0.013523,0.002678,0.000431,0.000235
41655000,0.0324,0.013523,0.002678,0.000431,0.000353
41656000,0.0324,0.013523,0.002678,0.000431,0.000470
41657000,0.0324,0.013523,0.002678,0.000431,0.000353
41658000,0.0324,0.013523,0.002678,0.000431,0.000235
41659000,0.0324,0.013523,0.002678,0.000431,0.000353
41660000,0.0324,0.013523,0.002678,0.000431,0.000353
41661000,0.0324,0.013523,0.002678,0.000431,0.000235
41662000,0.0324,0.013523,0.002678,0.000431,0.000353
41663000,0.0324,0.013523,0.002678,0.000431,0.000470
41664000,0.0324,0.013523,0.002678,0.000431,0.000353
41665000,0.0324,0.013523,0.002678,0.000431,0.000235
41666000,0.0324,0.013523,0.002678,0.000431,0.000353
41667000,0.0324,0.013523,0.002678,0.000431,0.000353
41668000,0.0324,0.013523,0.002678,0.000431,0.000235
41669000,0.0324,0.013523,0.002678,0.000431,0.000353
41670000,0.0324,0.013523,0.002678,0.000431,0.000470
41671000,0.0324,0.013523,0.002678,0.000431,0.000353
41672000,0.0324,0.013523,0.002678,0.000431,0.000235
41673000,0.0324,0.013523,0.002678,0.000431,0.000353
41674000,0.0324,0.013523,0.002678,0.000431,0.000353
41675000,0.0324,0.013523,0.002678,0.000431,0.000235
41676000,0.0324,0.013523,0.002678,0.000431,0.000353
41677000,0.0324,0.013523,0.002678,0.000431,0.000470
41678000,0.0324,0.013523,0.002678,0.000431,0.000353
41679000,0.0324,0.013523,0.002678,0.000431,0.000235
41680000,0.0324,0.013523,0.002678,0.000431,0.000353
41681000,0.0324,0.013523,0.002678,0.000431,0.000353
41682000,0.0324,0.013523,0.002678,0.000431,0.000235
41683000,0.0324,0.013523,0.002678,0.000431,0.000353
41684000,0.0324,0.013523,0.002678,0.000431,0.000470
41685000,0.0324,0.013523,0.002678,0.000431,0.000353
41686000,0.0324,0.013523,0.002678,0.000431,0.000235
41687000,0.0324,0.013523,0.002678,0.000431,0.000353
41688000,0.0324,0.013523,0.002678,0.000431,0.000353
41689000,0.0324,0.013523,0.002678,0.000431,0.000235
41690000,0.0324,0.013523,0.002678,0.000431,0.000353
41691000,0.0324,0.013523,0.002678,0.000431,0.000470
41692000,0.0324,0.013523,0.002678,0.000431,0.000353
41693000,0.0324,0.013523,0.002678,0.000431,0.000118
41694000,0.0324,0.013523,0.002678,0.000431,0.000470
41695000,0.0324,0.013523,0.002678,0.000431,0.000353
41696000,0.0324,0.013523,0.002678,0.000431,0.000235
41697000,0.0324,0.013523,0.002678,0.000431,0.000353
41698000,0.0324,0.013523,0.002678,0.000431,0.000470
41699000,0.0324,0.013523,0.002678,0.000431,0.000353
41700000,0.0324,0.013523,0.002678,0.000431,0.000118
41701000,0.0324,0.013523,0.002678,0.000431,0.000470
41702000,0.0324,0.013523,0.002678,0.000431,0.000353
41703000,0.0324,0.013523,0.002678,0.000431,0.000235
41704000,0.0324,0.013523,0.002678,0.000431,0.000353
41705000,0.0324,0.013523,0.002678,0.000431,0.000470
41706000,0.0324,0.013523,0.002678,0.000431,0.000353
41707000,0.0324,0.013523,0.002678,0.000431,0.000118
41708000,0.0324,0.013523,0.002678,0.000431,0.000470
41709000,0.0324,0.013523,0.002678,0.000431,0.000353
41710000,0.0324,0.013523,0.002678,0.000431,0.000235
41711000,0.0324,0.013523,0.002678,0.000431,0.000353
41712000,0.0324,0.013523,0.002678,0.000431,0.000470
41713000,0.0324,0.013523,0.002678,0.000431,0.000235
41714000,0.0324,0.013523,0.002678,0.000431,0.000235
41715000,0.0324,0.013523,0.002678,0.000431,0.000470
41716000,0.0324,0.013523,0.002678,0.000431,0.000353
41717000,0.0324,0.013523,0.002678,0.000431,0.000235
41718000,0.0324,0.013523,0.002678,0.000431,0.000353
41719000,0.0324,0.013523,0.002678,0.000431,0.000470
41720000,0.0324,0.013523,0.002678,0.000431,0.000235
41721000,0.0324,0.013523,0.002678,0.000431,0.000235
41722000,0.0324,0.013523,0.002678,0.000431,0.000470
41723000,0.0324,0.013523,0.002678,0.000431,0.000353
41724000,0.0324,0.013523,0.002678,0.000431,0.000235
41725000,0.0324,0.013523,0.002678,0.000431,0.000353
41726000,0.0324,0.013523,0.002678,0.000431,0.000470
41727000,0.0324,0.013523,0.002678,0.000431,0.000235
41728000,0.0324,0.013523,0.002678,0.000431,0.000235
41729000,0.0324,0.013523,0.002678,0.000431,0.000470
41730000,0.0324,0.013523,0.002678,0.000431,0.000353
41731000,0.0324,0.013523,0.002678,0.000431,0.000235
41732000,0.0324,0.013523,0.002678,0.000431,0.000353
41733000,0.0324,0.013523,0.002678,0.000431,0.000470
41734000,0.0324,0.013523,0.002678,0.000431,0.000235
41735000,0.0324,0.013523,0.002678,0.000431,0.000235
41736000,0.0324,0.013523,0.002678,0.000431,0.000470
41737000,0.0324,0.013523,0.002678,0.000431,0.000353
41738000,0.0324,0.013523,0.002678,0.000431,0.000235
41739000,0.0324,0.013523,0.002678,0.000431,0.000353
41740000,0.0324,0.013523,0.002678,0.000431,0.000470
41741000,0.0324,0.013523,0.002678,0.000431,0.000235
41742000,0.0324,0.013523,0.002678,0.000431,0.000235
41743000,0.0324,0.013523,0.002678,0.000431,0.000470
41744000,0.0324,0.013523,0.002678,0.000431,0.000353
41745000,0.0324,0.013523,0.002678,0.000431,0.000235
41746000,0.0324,0.013523,0.002678,0.000431,0.000353
41747000,0.0324,0.013523,0.002678,0.000431,0.000470
41748000,0.0324,0.013523,0.002678,0.000431,0.000235
41749000,0.0324,0.013523,0.002678,0.000431,0.000235
41750000,0.0324,0.013523,0.002678,0.000431,0.000470
41751000,0.0324,0.013523,0.002678,0.000431,0.000353
41752000,0.0324,0.013523,0.002678,0.000431,0.000235
41753000,0.0324,0.013523,0.002678,0.000431,0.000353
41754000,0.0324,0.013523,0.002678,0.000431,0.000470
41755000,0.0324,0.013523,0.002678,0.000431,0.000118
41756000,0.0324,0.013523,0.002678,0.000431,0.000353
41757000,0.0324,0.013523,0.002678,0.000431,0.000470
41758000,0.0324,0.013523,0.002678,0.000431,0.000353
41759000,0.0324,0.013523,0.002678,0.000431,0.000235
41760000,0.0324,0.013523,0.002678,0.000431,0.000353
41761000,0.0324,0.013523,0.002678,0.000431,0.000470
41762000,0.0324,0.013523,0.002678,0.000431,0.000118
41763000,0.0324,0.013523,0.002678,0.000431,0.000353
41764000,0.0324,0.013523,0.002678,0.000431,0.000470
41765000,0.0324,0.013523,0.002678,0.000431,0.000353
41766000,0.0324,0.013523,0.002678,0.000431,0.000235
41767000,0.0324,0.013523,0.002678,0.000431,0.000353
41768000,0.0324,0.013523,0.002678,0.000431,0.000470
41769000,0.0324,0.013523,0.002678,0.000431,0.000118
41770000,0.0324,0.013523,0.002678,0.000431,0.000353
41771000,0.0324,0.013523,0.002678,0.000431,0.000470
41772000,0.0324,0.013523,0.002678,0.000431,0.000353
41773000,0.0324,0.013523,0.002678,0.000431,0.000235
41774000,0.0324,0.013523,0.002678,0.000431,0.000353
41775000,0.0324,0.013523,0.002678,0.000431,0.000470
41776000,0.0324,0.013523,0.002678,0.000431,0.000118
41777000,0.0324,0.013523,0.002678,0.000431,0.000353
41778000,0.0324,0.013523,0.002678,0.000431,0.000470
41779000,0.0324,0.013523,0.002678,0.000431,0.000353
41780000,0.0324,0.013523,0.002678,0.000431,0.000235
41781000,0.0324,0.013523,0.002678,0.000431,0.000353
41782000,0.0324,0.013523,0.002678,0.000431,0.000353
41783000,0.0324,0.013523,0.002678,0.000431,0.000235
41784000,0.0324,0.013523,0.002678,0.000431,0.000353
41785000,0.0324,0.013523,0.002678,0.000431,0.000470
41786000,0.0324,0.013523,0.002678,0.000431,0.000353
41787000,0.0324,0.013523,0.002678,0.000431,0.000235
41788000,0.0324,0.013523,0.002678,0.000431,0.000353
41789000,0.0324,0.013523,0.002678,0.000431,0.000353
41790000,0.0324,0.013523,0.002678,0.000431,0.000235
41791000,0.0324,0.013523,0.002678,0.000431,0.000353
41792000,0.0324,0.013523,0.002678,0.000431,0.000470
41793000,0.0324,0.013523,0.002678,0.000431,0.000353
41794000,0.0324,0.013523,0.002678,0.000431,0.000235
41795000,0.0324,0.013523,0.002678,0.000431,0.000353
41796000,0.0324,0.013523,0.002678,0.000431,0.000353
41797000,0.0324,0.013523,0.002678,0.000431,0.000235
41798000,0.0324,0.013523,0.002678,0.000431,0.000353
41799000,0.0324,0.013523,0.002678,0.000431,0.000470
41800000,0.0324,0.013523,0.002678,0.000431,0.000353
41801000,0.0324,0.013523,0.002678,0.000431,0.000235
41802000,0.0324,0.013523,0.002678,0.000431,0.000353
41803000,0.0324,0.013523,0.002678,0.000431,0.000353
41804000,0.0324,0.013523,0.002678,0.000431,0.000235
41805000,0.0324,0.013523,0.002678,0.000431,0.000353
41806000,0.0324,0.013523,0.002678,0.000431,0.000470
41807000,0.0324,0.013523,0.002678,0.000431,0.000353
41808000,0.0324,0.013523,0.002678,0.000431,0.000235
41809000,0.0324,0.013523,0.002678,0.000431,0.000353
41810000,0.0324,0.013523,0.002678,0.000431,0.000353
41811000,0.0324,0.013523,0.002678,0.000431,0.000235
41812000,0.0324,0.013523,0.002678,0.000431,0.000353
41813000,0.0324,0.013523,0.002678,0.000431,0.000470
41814000,0.0324,0.013523,0.002678,0.000431,0.000353
41815000,0.0324,0.013523,0.002678,0.000431,0.000235
41816000,0.0324,0.013523,0.002678,0.000431,0.000353
41817000,0.0324,0.013523,0.002678,0.000431,0.000353
41818000,0.0324,0.013523,0.002678,0.000431,0.000235
41819000,0.0324,0.013523,0.002678,0.000431,0.000353
41820000,0.0324,0.013523,0.002678,0.000431,0.000470
41821000,0.0324,0.013523,0.002678,0.000431,0.000353
41822000,0.0324,0.013523,0.002678,0.000431,0.000235
41823000,0.0324,0.013523,0.002678,0.000431,0.000353
41824000,0.0324,0.013523,0.002678,0.000431,0.000353
41825000,0.0324,0.013523,0.002678,0.000431,0.000235
41826000,0.0324,0.013523,0.002678,0.000431,0.000353
41827000,0.0324,0.013523,0.002678,0.000431,0.000470
41828000,0.0324,0.013523,0.002678,0.000431,0.000353
41829000,0.0324,0.013523,0.002678,0.000431,0.000235
41830000,0.0324,0.013523,0.002678,0.000431,0.000353
41831000,0.0324,0.013523,0.002678,0.000431,0.000353
41832000,0.0324,0.013523,0.002678,0.000431,0.000235
41833000,0.0324,0.013523,0.002678,0.000431,0.000353
41834000,0.0324,0.013523,0.002678,0.000431,0.000470
41835000,0.0324,0.013523,0.002678,0.000431,0.000353
41836000,0.0324,0.013523,0.002678,0.000431,0.000118
41837000,0.0324,0.013523,0.002678,0.000431,0.000470
41838000,0.0324,0.013523,0.002678,0.000431,0.000353
41839000,0.0324,0.013523,0.002678,0.000431,0.000235
41840000,0.0324,0.013523,0.002678,0.000431,0.000353
41841000,0.0324,0.013523,0.002678,0.000431,0.000470
41842000,0.0324,0.013523,0.002678,0.000431,0.000353
41843000,0.0324,0.013523,0.002678,0.000431,0.000118
41844000,0.0324,0.013523,0.002678,0.000431,0.000470
41845000,0.0324,0.013523,0.002678,0.000431,0.000353
41846000,0.0324,0.013523,0.002678,0.000431,0.000235
41847000,0.0324,0.013523,0.002678,0.000431,0.000353
41848000,0.0324,0.013523,0.002678,0.000431,0.000470
41849000,0.0324,0.013523,0.002678,0.000431,0.000353
41850000,0.0324,0.013523,0.002678,0.000431,0.000118
41851000,0.0324,0.013523,0.002678,0.000431,0.000470
41852000,0.0324,0.013523,0.002678,0.000431,0.000353
41853000,0.0324,0.013523,0.002678,0.000431,0.000235
41854000,0.0324,0.013523,0.002678,0.000431,0.000353
41855000,0.0324,0.013523,0.002678,0.000431,0.000470
41856000,0.0324,0.013523,0.002678,0.000431,0.000235
41857000,0.0324,0.013523,0.002678,0.000431,0.000235
41858000,0.0324,0.013523,0.002678,0.000431,0.000470
41859000,0.0324,0.013523,0.002678,0.000431,0.000353
41860000,0.0324,0.013523,0.002678,0.000431,0.000235
41861000,0.0324,0.013523,0.002678,0.000431,0.000353
41862000,0.0324,0.013523,0.002678,0.000431,0.000470
41863000,0.0324,0.013523,0.002678,0.000431,0.000235
41864000,0.0324,0.013523,0.002678,0.000431,0.000235
41865000,0.0324,0.013523,0.002678,0.000431,0.000470
41866000,0.0324,0.013523,0.002678,0.000431,0.000353
41867000,0.0324,0.013523,0.002678,0.000431,0.000235
41868000,0.0324,0.013523,0.002678,0.000431,0.000353
41869000,0.0324,0.013523,0.002678,0.000431,0.000470
41870000,0.0324,0.013523,0.002678,0.000431,0.000235
41871000,0.0324,0.013523,0.002678,0.000431,0.000235
41872000,0.0324,0.013523,0.002678,0.000431,0.000470
41873000,0.0324,0.013523,0.002678,0.000431,0.000353
41874000,0.0324,0.013523,0.002678,0.000431,0.000235
41875000,0.0324,0.013523,0.002678,0.000431,0.000353
41876000,0.0324,0.013523,0.002678,0.000431,0.000470
41877000,0.0324,0.013523,0.002678,0.000431,0.000235
41878000,0.0324,0.013523,0.002678,0.000431,0.000235
41879000,0.0324,0.013523,0.002678,0.000431,0.000470
41880000,0.0324,0.013523,0.002678,0.000431,0.000353
41881000,0.0324,0.013523,0.002678,0.000431,0.000235
41882000,0.0324,0.013523,0.002678,0.000431,0.000353
41883000,0.0324,0.013523,0.002678,0.000431,0.000470
41884000,0.0324,0.013523,0.002678,0.000431,0.000235
41885000,0.0324,0.013523,0.002678,0.000431,0.000235
41886000,0.0324,0.013523,0.002678,0.000431,0.000470
41887000,0.0324,0.013523,0.002678,0.000431,0.000353
41888000,0.0324,0.013523,0.002678,0.000431,0.000235
41889000,0.0324,0.013523,0.002678,0.000431,0.000353
41890000,0.0324,0.013523,0.002678,0.000431,0.000470
41891000,0.0324,0.013523,0.002678,0.000431,0.000235
41892000,0.0324,0.013523,0.002678,0.000431,0.000235
41893000,0.0324,0.013523,0.002678,0.000431,0.000470
41894000,0.0324,0.013523,0.002678,0.000431,0.000353
41895000,0.0324,0.013523,0.002678,0.000431,0.000235
41896000,0.0324,0.013523,0.002678,0.000431,0.000353
41897000,0.0324,0.013523,0.002678,0.000431,0.000470
41898000,0.0324,0.013523,0.002678,0.000431,0.000118
41899000,0.0324,0.013523,0.002678,0.000431,0.000353
41900000,0.0324,0.013523,0.002678,0.000431,0.000470
41901000,0.0324,0.013523,0.002678,0.000431,0.000353
41902000,0.0324,0.013523,0.002678,0.000431,0.000235
41903000,0.0324,0.013523,0.002678,0.000431,0.000353
41904000,0.0324,0.013523,0.002678,0.000431,0.000470
41905000,0.0324,0.013523,0.002678,0.000431,0.000118
41906000,0.0324,0.013523,0.002678,0.000431,0.000353
41907000,0.0324,0.013523,0.002678,0.000431,0.000470
41908000,0.0324,0.013523,0.002678,0.000431,0.000353
41909000,0.0324,0.013523,0.002678,0.000431,0.000235
41910000,0.0324,0.013523,0.002678,0.000431,0.000353
41911000,0.0324,0.013523,0.002678,0.000431,0.000470
41912000,0.0324,0.013523,0.002678,0.000431,0.000118
41913000,0.0324,0.013523,0.002678,0.000431,0.000353
41914000,0.0324,0.013523,0.002678,0.000431,0.000470
41915000,0.0324,0.013523,0.002678,0.000431,0.000353
41916000,0.0324,0.013523,0.002678,0.000431,0.000235
41917000,0.0324,0.013523,0.002678,0.000431,0.000353
41918000,0.0324,0.013523,0.002678,0.000431,0.000353
41919000,0.0324,0.013523,0.002678,0.000431,0.000235
41920000,0.0324,0.013523,0.002678,0.000431,0.000353
41921000,0.0324,0.013523,0.002678,0.000431,0.000470
41922000,0.0324,0.013523,0.002678,0.000431,0.000353
41923000,0.0324,0.013523,0.002678,0.000431,0.000235
41924000,0.0324,0.013523,0.002678,0.000431,0.000353
41925000,0.0324,0.013523,0.002678,0.000431,0.000353
41926000,0.0324,0.013523,0.002678,0.000431,0.000235
41927000,0.0324,0.013523,0.002678,0.000431,0.000353
41928000,0.0324,0.013523,0.002678,0.000431,0.000470
41929000,0.0324,0.013523,0.002678,0.000431,0.000353
41930000,0.0324,0.013523,0.002678,0.000431,0.000235
41931000,0.0324,0.013523,0.002678,0.000431,0.000353
41932000,0.0324,0.013523,0.002678,0.000431,0.000353
41933000,0.0324,0.013523,0.002678,0.000431,0.000235
41934000,0.0324,0.013523,0.002678,0.000431,0.000353
41935000,0.0324,0.013523,0.002678,0.000431,0.000470
41936000,0.0324,0.013523,0.002678,0.000431,0.000353
41937000,0.0324,0.013523,0.002678,0.000431,0.000235
41938000,0.0324,0.013523,0.002678,0.000431,0.000353
41939000,0.0324,0.013523,0.002678,0.000431,0.000353
41940000,0.0324,0.013523,0.002678,0.000431,0.000235
41941000,0.0324,0.013523,0.002678,0.000431,0.000353
41942000,0.0324,0.013523,0.002678,0.000431,0.000470
41943000,0.0324,0.013523,0.002678,0.000431,0.000353
41944000,0.0324,0.013523,0.002678,0.000431,0.000235
41945000,0.0324,0.013523,0.002678,0.000431,0.000353
41946000,0.0324,0.013523,0.002678,0.000431,0.000353
41947000,0.0324,0.013523,0.002678,0.000431,0.000235
41948000,0.0324,0.013523,0.002678,0.000431,0.000353
41949000,0.0324,0.013523,0.002678,0.000431,0.000470
41950000,0.0324,0.013523,0.002678,0.000431,0.000353
41951000,0.0324,0.013523,0.002678,0.000431,0.000235
41952000,0.0324,0.013523,0.002678,0.000431,0.000353
41953000,0.0324,0.013523,0.002678,0.000431,0.000353
41954000,0.0324,0.013523,0.002678,0.000431,0.000235
41955000,0.0324,0.013523,0.002678,0.000431,0.000353
41956000,0.0324,0.013523,0.002678,0.000431,0.000470
41957000,0.0324,0.013523,0.002678,0.000431,0.000353
41958000,0.0324,0.013523,0.002678,0.000431,0.000235
41959000,0.0324,0.013523,0.002678,0.000431,0.000353
41960000,0.0324,0.013523,0.002678,0.000431,0.000353
41961000,0.0324,0.013523,0.002678,0.000431,0.000235
41962000,0.0324,0.013523,0.002678,0.000431,0.000353
41963000,0.0324,0.013523,0.002678,0.000431,0.000470
41964000,0.0324,0.013523,0.002678,0.000431,0.000353
41965000,0.0324,0.013523,0.002678,0.000431,0.000235
41966000,0.0324,0.013523,0.002678,0.000431,0.000353
41967000,0.0324,0.013523,0.002678,0.000431,0.000353
41968000,0.0324,0.013523,0.002678,0.000431,0.000235
41969000,0.0324,0.013523,0.002678,0.000431,0.000353
41970000,0.0324,0.013523,0.002678,0.000431,0.000470
41971000,0.0324,0.013523,0.002678,0.000431,0.000353
41972000,0.0324,0.013523,0.002678,0.000431,0.000118
41973000,0.0324,0.013523,0.002678,0.000431,0.000470
41974000,0.0324,0.013523,0.002678,0.000431,0.000353
41975000,0.0324,0.013523,0.002678,0.000431,0.000235
41976000,0.0324,0.013523,0.002678,0.000431,0.000353
41977000,0.0324,0.013523,0.002678,0.000431,0.000470
41978000,0.0324,0.013523,0.002678,0.000431,0.000353
41979000,0.0324,0.013523,0.002678,0.000431,0.000118
41980000,0.0324,0.013523,0.002678,0.000431,0.000470
41981000,0.0324,0.013523,0.002678,0.000431,0.000353
41982000,0.0324,0.013523,0.002678,0.000431,0.000235
41983000,0.0324,0.013523,0.002678,0.000431,0.000353
41984000,0.0324,0.013523,0.002678,0.000431,0.000470
41985000,0.0324,0.013523,0.002678,0.000431,0.000353
41986000,0.0324,0.013523,0.002678,0.000431,0.000118
41987000,0.0324,0.013523,0.002678,0.000431,0.000470
41988000,0.0324,0.013523,0.002678,0.000431,0.000353
41989000,0.0324,0.013523,0.002678,0.000431,0.000235
41990000,0.0324,0.013523,0.002678,0.000431,0.000353
41991000,0.0324,0.013523,0.002678,0.000431,0.000470
41992000,0.0324,0.013523,0.002678,0.000431,0.000353
41993000,0.0324,0.013523,0.002678,0.000431,0.000118
41994000,0.0324,0.013523,0.002678,0.000431,0.000470
41995000,0.0324,0.013523,0.002678,0.000431,0.000353
41996000,0.0324,0.013523,0.002678,0.000431,0.000235
41997000,0.0324,0.013523,0.002678,0.000431,0.000353
41998000,0.0324,0.013523,0.002678,0.000431,0.000470
41999000,0.0324,0.013523,0.002678,0.000431,0.000235
