Cycle,Area(mm^2),PeakDynamic(W),SubthresholdLeakage(W),GateLeakage(W),RunTimeDynamic(W)
34000000,0.0324,0.013523,0.002678,0.000431,0.000235
34001000,0.0324,0.013523,0.002678,0.000431,0.000353
34002000,0.0324,0.013523,0.002678,0.000431,0.000470
34003000,0.0324,0.013523,0.002678,0.000431,0.000118
34004000,0.0324,0.013523,0.002678,0.000431,0.000353
34005000,0.0324,0.013523,0.002678,0.000431,0.000470
34006000,0.0324,0.013523,0.002678,0.000431,0.000353
34007000,0.0324,0.013523,0.002678,0.000431,0.000235
34008000,0.0324,0.013523,0.002678,0.000431,0.000353
34009000,0.0324,0.013523,0.002678,0.000431,0.000470
34010000,0.0324,0.013523,0.002678,0.000431,0.000118
34011000,0.0324,0.013523,0.002678,0.000431,0.000353
34012000,0.0324,0.013523,0.002678,0.000431,0.000470
34013000,0.0324,0.013523,0.002678,0.000431,0.000353
34014000,0.0324,0.013523,0.002678,0.000431,0.000235
34015000,0.0324,0.013523,0.002678,0.000431,0.000353
34016000,0.0324,0.013523,0.002678,0.000431,0.000470
34017000,0.0324,0.013523,0.002678,0.000431,0.000118
34018000,0.0324,0.013523,0.002678,0.000431,0.000353
34019000,0.0324,0.013523,0.002678,0.000431,0.000470
34020000,0.0324,0.013523,0.002678,0.000431,0.000353
34021000,0.0324,0.013523,0.002678,0.000431,0.000235
34022000,0.0324,0.013523,0.002678,0.000431,0.000353
34023000,0.0324,0.013523,0.002678,0.000431,0.000470
34024000,0.0324,0.013523,0.002678,0.000431,0.000118
34025000,0.0324,0.013523,0.002678,0.000431,0.000353
34026000,0.0324,0.013523,0.002678,0.000431,0.000470
34027000,0.0324,0.013523,0.002678,0.000431,0.000353
34028000,0.0324,0.013523,0.002678,0.000431,0.000235
34029000,0.0324,0.013523,0.002678,0.000431,0.000353
34030000,0.0324,0.013523,0.002678,0.000431,0.000353
34031000,0.0324,0.013523,0.002678,0.000431,0.000235
34032000,0.0324,0.013523,0.002678,0.000431,0.000353
34033000,0.0324,0.013523,0.002678,0.000431,0.000470
34034000,0.0324,0.013523,0.002678,0.000431,0.000353
34035000,0.0324,0.013523,0.002678,0.000431,0.000235
34036000,0.0324,0.013523,0.002678,0.000431,0.000353
34037000,0.0324,0.013523,0.002678,0.000431,0.000353
34038000,0.0324,0.013523,0.002678,0.000431,0.000235
34039000,0.0324,0.013523,0.002678,0.000431,0.000353
34040000,0.0324,0.013523,0.002678,0.000431,0.000470
34041000,0.0324,0.013523,0.002678,0.000431,0.000353
34042000,0.0324,0.013523,0.002678,0.000431,0.000235
34043000,0.0324,0.013523,0.002678,0.000431,0.000353
34044000,0.0324,0.013523,0.002678,0.000431,0.000353
34045000,0.0324,0.013523,0.002678,0.000431,0.000235
34046000,0.0324,0.013523,0.002678,0.000431,0.000353
34047000,0.0324,0.013523,0.002678,0.000431,0.000470
34048000,0.0324,0.013523,0.002678,0.000431,0.000353
34049000,0.0324,0.013523,0.002678,0.000431,0.000235
34050000,0.0324,0.013523,0.002678,0.000431,0.000353
34051000,0.0324,0.013523,0.002678,0.000431,0.000353
34052000,0.0324,0.013523,0.002678,0.000431,0.000235
34053000,0.0324,0.013523,0.002678,0.000431,0.000353
34054000,0.0324,0.013523,0.002678,0.000431,0.000470
34055000,0.0324,0.013523,0.002678,0.000431,0.000353
34056000,0.0324,0.013523,0.002678,0.000431,0.000235
34057000,0.0324,0.013523,0.002678,0.000431,0.000353
34058000,0.0324,0.013523,0.002678,0.000431,0.000353
34059000,0.0324,0.013523,0.002678,0.000431,0.000235
34060000,0.0324,0.013523,0.002678,0.000431,0.000353
34061000,0.0324,0.013523,0.002678,0.000431,0.000470
34062000,0.0324,0.013523,0.002678,0.000431,0.000353
34063000,0.0324,0.013523,0.002678,0.000431,0.000235
34064000,0.0324,0.013523,0.002678,0.000431,0.000353
34065000,0.0324,0.013523,0.002678,0.000431,0.000353
34066000,0.0324,0.013523,0.002678,0.000431,0.000235
34067000,0.0324,0.013523,0.002678,0.000431,0.000353
34068000,0.0324,0.013523,0.002678,0.000431,0.000470
34069000,0.0324,0.013523,0.002678,0.000431,0.000353
34070000,0.0324,0.013523,0.002678,0.000431,0.000235
34071000,0.0324,0.013523,0.002678,0.000431,0.000353
34072000,0.0324,0.013523,0.002678,0.000431,0.000353
34073000,0.0324,0.013523,0.002678,0.000431,0.000235
34074000,0.0324,0.013523,0.002678,0.000431,0.000353
34075000,0.0324,0.013523,0.002678,0.000431,0.000470
34076000,0.0324,0.013523,0.002678,0.000431,0.000353
34077000,0.0324,0.013523,0.002678,0.000431,0.000118
34078000,0.0324,0.013523,0.002678,0.000431,0.000470
34079000,0.0324,0.013523,0.002678,0.000431,0.000353
34080000,0.0324,0.013523,0.002678,0.000431,0.000235
34081000,0.0324,0.013523,0.002678,0.000431,0.000353
34082000,0.0324,0.013523,0.002678,0.000431,0.000470
34083000,0.0324,0.013523,0.002678,0.000431,0.000353
34084000,0.0324,0.013523,0.002678,0.000431,0.000118
34085000,0.0324,0.013523,0.002678,0.000431,0.000470
34086000,0.0324,0.013523,0.002678,0.000431,0.000353
34087000,0.0324,0.013523,0.002678,0.000431,0.000235
34088000,0.0324,0.013523,0.002678,0.000431,0.000353
34089000,0.0324,0.013523,0.002678,0.000431,0.000470
34090000,0.0324,0.013523,0.002678,0.000431,0.000353
34091000,0.0324,0.013523,0.002678,0.000431,0.000118
34092000,0.0324,0.013523,0.002678,0.000431,0.000470
34093000,0.0324,0.013523,0.002678,0.000431,0.000353
34094000,0.0324,0.013523,0.002678,0.000431,0.000235
34095000,0.0324,0.013523,0.002678,0.000431,0.000353
34096000,0.0324,0.013523,0.002678,0.000431,0.000470
34097000,0.0324,0.013523,0.002678,0.000431,0.000353
34098000,0.0324,0.013523,0.002678,0.000431,0.000118
34099000,0.0324,0.013523,0.002678,0.000431,0.000470
34100000,0.0324,0.013523,0.002678,0.000431,0.000353
34101000,0.0324,0.013523,0.002678,0.000431,0.000235
34102000,0.0324,0.013523,0.002678,0.000431,0.000353
34103000,0.0324,0.013523,0.002678,0.000431,0.000470
34104000,0.0324,0.013523,0.002678,0.000431,0.000235
34105000,0.0324,0.013523,0.002678,0.000431,0.000235
34106000,0.0324,0.013523,0.002678,0.000431,0.000470
34107000,0.0324,0.013523,0.002678,0.000431,0.000353
34108000,0.0324,0.013523,0.002678,0.000431,0.000235
34109000,0.0324,0.013523,0.002678,0.000431,0.000353
34110000,0.0324,0.013523,0.002678,0.000431,0.000470
34111000,0.0324,0.013523,0.002678,0.000431,0.000235
34112000,0.0324,0.013523,0.002678,0.000431,0.000235
34113000,0.0324,0.013523,0.002678,0.000431,0.000470
34114000,0.0324,0.013523,0.002678,0.000431,0.000353
34115000,0.0324,0.013523,0.002678,0.000431,0.000235
34116000,0.0324,0.013523,0.002678,0.000431,0.000353
34117000,0.0324,0.013523,0.002678,0.000431,0.000470
34118000,0.0324,0.013523,0.002678,0.000431,0.000235
34119000,0.0324,0.013523,0.002678,0.000431,0.000235
34120000,0.0324,0.013523,0.002678,0.000431,0.000470
34121000,0.0324,0.013523,0.002678,0.000431,0.000353
34122000,0.0324,0.013523,0.002678,0.000431,0.000235
34123000,0.0324,0.013523,0.002678,0.000431,0.000353
34124000,0.0324,0.013523,0.002678,0.000431,0.000470
34125000,0.0324,0.013523,0.002678,0.000431,0.000235
34126000,0.0324,0.013523,0.002678,0.000431,0.000235
34127000,0.0324,0.013523,0.002678,0.000431,0.000470
34128000,0.0324,0.013523,0.002678,0.000431,0.000353
34129000,0.0324,0.013523,0.002678,0.000431,0.000235
34130000,0.0324,0.013523,0.002678,0.000431,0.000353
34131000,0.0324,0.013523,0.002678,0.000431,0.000470
34132000,0.0324,0.013523,0.002678,0.000431,0.000235
34133000,0.0324,0.013523,0.002678,0.000431,0.000235
34134000,0.0324,0.013523,0.002678,0.000431,0.000470
34135000,0.0324,0.013523,0.002678,0.000431,0.000353
34136000,0.0324,0.013523,0.002678,0.000431,0.000235
34137000,0.0324,0.013523,0.002678,0.000431,0.000353
34138000,0.0324,0.013523,0.002678,0.000431,0.000470
34139000,0.0324,0.013523,0.002678,0.000431,0.000235
34140000,0.0324,0.013523,0.002678,0.000431,0.000235
34141000,0.0324,0.013523,0.002678,0.000431,0.000470
34142000,0.0324,0.013523,0.002678,0.000431,0.000353
34143000,0.0324,0.013523,0.002678,0.000431,0.000235
34144000,0.0324,0.013523,0.002678,0.000431,0.000353
34145000,0.0324,0.013523,0.002678,0.000431,0.000470
34146000,0.0324,0.013523,0.002678,0.000431,0.000118
34147000,0.0324,0.013523,0.002678,0.000431,0.000353
34148000,0.0324,0.013523,0.002678,0.000431,0.000470
34149000,0.0324,0.013523,0.002678,0.000431,0.000353
34150000,0.0324,0.013523,0.002678,0.000431,0.000235
34151000,0.0324,0.013523,0.002678,0.000431,0.000353
34152000,0.0324,0.013523,0.002678,0.000431,0.000470
34153000,0.0324,0.013523,0.002678,0.000431,0.000118
34154000,0.0324,0.013523,0.002678,0.000431,0.000353
34155000,0.0324,0.013523,0.002678,0.000431,0.000470
34156000,0.0324,0.013523,0.002678,0.000431,0.000353
34157000,0.0324,0.013523,0.002678,0.000431,0.000235
34158000,0.0324,0.013523,0.002678,0.000431,0.000353
34159000,0.0324,0.013523,0.002678,0.000431,0.000470
34160000,0.0324,0.013523,0.002678,0.000431,0.000118
34161000,0.0324,0.013523,0.002678,0.000431,0.000353
34162000,0.0324,0.013523,0.002678,0.000431,0.000470
34163000,0.0324,0.013523,0.002678,0.000431,0.000353
34164000,0.0324,0.013523,0.002678,0.000431,0.000235
34165000,0.0324,0.013523,0.002678,0.000431,0.000353
34166000,0.0324,0.013523,0.002678,0.000431,0.000353
34167000,0.0324,0.013523,0.002678,0.000431,0.000235
34168000,0.0324,0.013523,0.002678,0.000431,0.000353
34169000,0.0324,0.013523,0.002678,0.000431,0.000470
34170000,0.0324,0.013523,0.002678,0.000431,0.000353
34171000,0.0324,0.013523,0.002678,0.000431,0.000235
34172000,0.0324,0.013523,0.002678,0.000431,0.000353
34173000,0.0324,0.013523,0.002678,0.000431,0.000353
34174000,0.0324,0.013523,0.002678,0.000431,0.000235
34175000,0.0324,0.013523,0.002678,0.000431,0.000353
34176000,0.0324,0.013523,0.002678,0.000431,0.000470
34177000,0.0324,0.013523,0.002678,0.000431,0.000353
34178000,0.0324,0.013523,0.002678,0.000431,0.000235
34179000,0.0324,0.013523,0.002678,0.000431,0.000353
34180000,0.0324,0.013523,0.002678,0.000431,0.000353
34181000,0.0324,0.013523,0.002678,0.000431,0.000235
34182000,0.0324,0.013523,0.002678,0.000431,0.000353
34183000,0.0324,0.013523,0.002678,0.000431,0.000470
34184000,0.0324,0.013523,0.002678,0.000431,0.000353
34185000,0.0324,0.013523,0.002678,0.000431,0.000235
34186000,0.0324,0.013523,0.002678,0.000431,0.000353
34187000,0.0324,0.013523,0.002678,0.000431,0.000353
34188000,0.0324,0.013523,0.002678,0.000431,0.000235
34189000,0.0324,0.013523,0.002678,0.000431,0.000353
34190000,0.0324,0.013523,0.002678,0.000431,0.000470
34191000,0.0324,0.013523,0.002678,0.000431,0.000353
34192000,0.0324,0.013523,0.002678,0.000431,0.000235
34193000,0.0324,0.013523,0.002678,0.000431,0.000353
34194000,0.0324,0.013523,0.002678,0.000431,0.000353
34195000,0.0324,0.013523,0.002678,0.000431,0.000235
34196000,0.0324,0.013523,0.002678,0.000431,0.000353
34197000,0.0324,0.013523,0.002678,0.000431,0.000470
34198000,0.0324,0.013523,0.002678,0.000431,0.000353
34199000,0.0324,0.013523,0.002678,0.000431,0.000235
34200000,0.0324,0.013523,0.002678,0.000431,0.000353
34201000,0.0324,0.013523,0.002678,0.000431,0.000353
34202000,0.0324,0.013523,0.002678,0.000431,0.000235
34203000,0.0324,0.013523,0.002678,0.000431,0.000353
34204000,0.0324,0.013523,0.002678,0.000431,0.000470
34205000,0.0324,0.013523,0.002678,0.000431,0.000353
34206000,0.0324,0.013523,0.002678,0.000431,0.000235
34207000,0.0324,0.013523,0.002678,0.000431,0.000353
34208000,0.0324,0.013523,0.002678,0.000431,0.000353
34209000,0.0324,0.013523,0.002678,0.000431,0.000235
34210000,0.0324,0.013523,0.002678,0.000431,0.000353
34211000,0.0324,0.013523,0.002678,0.000431,0.000470
34212000,0.0324,0.013523,0.002678,0.000431,0.000353
34213000,0.0324,0.013523,0.002678,0.000431,0.000235
34214000,0.0324,0.013523,0.002678,0.000431,0.000353
34215000,0.0324,0.013523,0.002678,0.000431,0.000353
34216000,0.0324,0.013523,0.002678,0.000431,0.000235
34217000,0.0324,0.013523,0.002678,0.000431,0.000353
34218000,0.0324,0.013523,0.002678,0.000431,0.000470
34219000,0.0324,0.013523,0.002678,0.000431,0.000353
34220000,0.0324,0.013523,0.002678,0.000431,0.000118
34221000,0.0324,0.013523,0.002678,0.000431,0.000470
34222000,0.0324,0.013523,0.002678,0.000431,0.000353
34223000,0.0324,0.013523,0.002678,0.000431,0.000235
34224000,0.0324,0.013523,0.002678,0.000431,0.000353
34225000,0.0324,0.013523,0.002678,0.000431,0.000470
34226000,0.0324,0.013523,0.002678,0.000431,0.000353
34227000,0.0324,0.013523,0.002678,0.000431,0.000118
34228000,0.0324,0.013523,0.002678,0.000431,0.000470
34229000,0.0324,0.013523,0.002678,0.000431,0.000353
34230000,0.0324,0.013523,0.002678,0.000431,0.000235
34231000,0.0324,0.013523,0.002678,0.000431,0.000353
34232000,0.0324,0.013523,0.002678,0.000431,0.000470
34233000,0.0324,0.013523,0.002678,0.000431,0.000353
34234000,0.0324,0.013523,0.002678,0.000431,0.000118
34235000,0.0324,0.013523,0.002678,0.000431,0.000470
34236000,0.0324,0.013523,0.002678,0.000431,0.000353
34237000,0.0324,0.013523,0.002678,0.000431,0.000235
34238000,0.0324,0.013523,0.002678,0.000431,0.000353
34239000,0.0324,0.013523,0.002678,0.000431,0.000470
34240000,0.0324,0.013523,0.002678,0.000431,0.000353
34241000,0.0324,0.013523,0.002678,0.000431,0.000118
34242000,0.0324,0.013523,0.002678,0.000431,0.000470
34243000,0.0324,0.013523,0.002678,0.000431,0.000353
34244000,0.0324,0.013523,0.002678,0.000431,0.000235
34245000,0.0324,0.013523,0.002678,0.000431,0.000353
34246000,0.0324,0.013523,0.002678,0.000431,0.000470
34247000,0.0324,0.013523,0.002678,0.000431,0.000235
34248000,0.0324,0.013523,0.002678,0.000431,0.000235
34249000,0.0324,0.013523,0.002678,0.000431,0.000470
34250000,0.0324,0.013523,0.002678,0.000431,0.000353
34251000,0.0324,0.013523,0.002678,0.000431,0.000235
34252000,0.0324,0.013523,0.002678,0.000431,0.000353
34253000,0.0324,0.013523,0.002678,0.000431,0.000470
34254000,0.0324,0.013523,0.002678,0.000431,0.000235
34255000,0.0324,0.013523,0.002678,0.000431,0.000235
34256000,0.0324,0.013523,0.002678,0.000431,0.000470
34257000,0.0324,0.013523,0.002678,0.000431,0.000353
34258000,0.0324,0.013523,0.002678,0.000431,0.000235
34259000,0.0324,0.013523,0.002678,0.000431,0.000353
34260000,0.0324,0.013523,0.002678,0.000431,0.000470
34261000,0.0324,0.013523,0.002678,0.000431,0.000118
34262000,0.0324,0.013523,0.002678,0.000431,0.000353
34263000,0.0324,0.013523,0.002678,0.000431,0.000470
34264000,0.0324,0.013523,0.002678,0.000431,0.000353
34265000,0.0324,0.013523,0.002678,0.000431,0.000235
34266000,0.0324,0.013523,0.002678,0.000431,0.000353
34267000,0.0324,0.013523,0.002678,0.000431,0.000353
34268000,0.0324,0.013523,0.002678,0.000431,0.000235
34269000,0.0324,0.013523,0.002678,0.000431,0.000353
34270000,0.0324,0.013523,0.002678,0.000431,0.000470
34271000,0.0324,0.013523,0.002678,0.000431,0.000353
34272000,0.0324,0.013523,0.002678,0.000431,0.000235
34273000,0.0324,0.013523,0.002678,0.000431,0.000353
34274000,0.0324,0.013523,0.002678,0.000431,0.000353
34275000,0.0324,0.013523,0.002678,0.000431,0.000235
34276000,0.0324,0.013523,0.002678,0.000431,0.000353
34277000,0.0324,0.013523,0.002678,0.000431,0.000470
34278000,0.0324,0.013523,0.002678,0.000431,0.000353
34279000,0.0324,0.013523,0.002678,0.000431,0.000235
34280000,0.0324,0.013523,0.002678,0.000431,0.000353
34281000,0.0324,0.013523,0.002678,0.000431,0.000353
34282000,0.0324,0.013523,0.002678,0.000431,0.000235
34283000,0.0324,0.013523,0.002678,0.000431,0.000353
34284000,0.0324,0.013523,0.002678,0.000431,0.000470
34285000,0.0324,0.013523,0.002678,0.000431,0.000353
34286000,0.0324,0.013523,0.002678,0.000431,0.000118
34287000,0.0324,0.013523,0.002678,0.000431,0.000470
34288000,0.0324,0.013523,0.002678,0.000431,0.000353
34289000,0.0324,0.013523,0.002678,0.000431,0.000235
34290000,0.0324,0.013523,0.002678,0.000431,0.000353
34291000,0.0324,0.013523,0.002678,0.000431,0.000470
34292000,0.0324,0.013523,0.002678,0.000431,0.000235
34293000,0.0324,0.013523,0.002678,0.000431,0.000235
34294000,0.0324,0.013523,0.002678,0.000431,0.000470
34295000,0.0324,0.013523,0.002678,0.000431,0.000353
34296000,0.0324,0.013523,0.002678,0.000431,0.000235
34297000,0.0324,0.013523,0.002678,0.000431,0.000353
34298000,0.0324,0.013523,0.002678,0.000431,0.000470
34299000,0.0324,0.013523,0.002678,0.000431,0.000235
34300000,0.0324,0.013523,0.002678,0.000431,0.000235
34301000,0.0324,0.013523,0.002678,0.000431,0.000470
34302000,0.0324,0.013523,0.002678,0.000431,0.000353
34303000,0.0324,0.013523,0.002678,0.000431,0.000235
34304000,0.0324,0.013523,0.002678,0.000431,0.000353
34305000,0.0324,0.013523,0.002678,0.000431,0.000470
34306000,0.0324,0.013523,0.002678,0.000431,0.000118
34307000,0.0324,0.013523,0.002678,0.000431,0.000353
34308000,0.0324,0.013523,0.002678,0.000431,0.000470
34309000,0.0324,0.013523,0.002678,0.000431,0.000353
34310000,0.0324,0.013523,0.002678,0.000431,0.000235
34311000,0.0324,0.013523,0.002678,0.000431,0.000353
34312000,0.0324,0.013523,0.002678,0.000431,0.000353
34313000,0.0324,0.013523,0.002678,0.000431,0.000235
34314000,0.0324,0.013523,0.002678,0.000431,0.000353
34315000,0.0324,0.013523,0.002678,0.000431,0.000470
34316000,0.0324,0.013523,0.002678,0.000431,0.000353
34317000,0.0324,0.013523,0.002678,0.000431,0.000235
34318000,0.0324,0.013523,0.002678,0.000431,0.000353
34319000,0.0324,0.013523,0.002678,0.000431,0.000353
34320000,0.0324,0.013523,0.002678,0.000431,0.000235
34321000,0.0324,0.013523,0.002678,0.000431,0.000353
34322000,0.0324,0.013523,0.002678,0.000431,0.000470
34323000,0.0324,0.013523,0.002678,0.000431,0.000353
34324000,0.0324,0.013523,0.002678,0.000431,0.000235
34325000,0.0324,0.013523,0.002678,0.000431,0.000353
34326000,0.0324,0.013523,0.002678,0.000431,0.000353
34327000,0.0324,0.013523,0.002678,0.000431,0.000235
34328000,0.0324,0.013523,0.002678,0.000431,0.000353
34329000,0.0324,0.013523,0.002678,0.000431,0.000470
34330000,0.0324,0.013523,0.002678,0.000431,0.000353
34331000,0.0324,0.013523,0.002678,0.000431,0.000118
34332000,0.0324,0.013523,0.002678,0.000431,0.000470
34333000,0.0324,0.013523,0.002678,0.000431,0.000353
34334000,0.0324,0.013523,0.002678,0.000431,0.000235
34335000,0.0324,0.013523,0.002678,0.000431,0.000353
34336000,0.0324,0.013523,0.002678,0.000431,0.000470
34337000,0.0324,0.013523,0.002678,0.000431,0.000235
34338000,0.0324,0.013523,0.002678,0.000431,0.000235
34339000,0.0324,0.013523,0.002678,0.000431,0.000470
34340000,0.0324,0.013523,0.002678,0.000431,0.000353
34341000,0.0324,0.013523,0.002678,0.000431,0.000235
34342000,0.0324,0.013523,0.002678,0.000431,0.000353
34343000,0.0324,0.013523,0.002678,0.000431,0.000470
34344000,0.0324,0.013523,0.002678,0.000431,0.000118
34345000,0.0324,0.013523,0.002678,0.000431,0.000353
34346000,0.0324,0.013523,0.002678,0.000431,0.000470
34347000,0.0324,0.013523,0.002678,0.000431,0.000353
34348000,0.0324,0.013523,0.002678,0.000431,0.000235
34349000,0.0324,0.013523,0.002678,0.000431,0.000353
34350000,0.0324,0.013523,0.002678,0.000431,0.000470
34351000,0.0324,0.013523,0.002678,0.000431,0.000118
34352000,0.0324,0.013523,0.002678,0.000431,0.000353
34353000,0.0324,0.013523,0.002678,0.000431,0.000470
34354000,0.0324,0.013523,0.002678,0.000431,0.000353
34355000,0.0324,0.013523,0.002678,0.000431,0.000235
34356000,0.0324,0.013523,0.002678,0.000431,0.000353
34357000,0.0324,0.013523,0.002678,0.000431,0.000353
34358000,0.0324,0.013523,0.002678,0.000431,0.000235
34359000,0.0324,0.013523,0.002678,0.000431,0.000353
34360000,0.0324,0.013523,0.002678,0.000431,0.000470
34361000,0.0324,0.013523,0.002678,0.000431,0.000353
34362000,0.0324,0.013523,0.002678,0.000431,0.000235
34363000,0.0324,0.013523,0.002678,0.000431,0.000353
34364000,0.0324,0.013523,0.002678,0.000431,0.000353
34365000,0.0324,0.013523,0.002678,0.000431,0.000235
34366000,0.0324,0.013523,0.002678,0.000431,0.000353
34367000,0.0324,0.013523,0.002678,0.000431,0.000470
34368000,0.0324,0.013523,0.002678,0.000431,0.000353
34369000,0.0324,0.013523,0.002678,0.000431,0.000118
34370000,0.0324,0.013523,0.002678,0.000431,0.000470
34371000,0.0324,0.013523,0.002678,0.000431,0.000353
34372000,0.0324,0.013523,0.002678,0.000431,0.000235
34373000,0.0324,0.013523,0.002678,0.000431,0.000353
34374000,0.0324,0.013523,0.002678,0.000431,0.000470
34375000,0.0324,0.013523,0.002678,0.000431,0.000353
34376000,0.0324,0.013523,0.002678,0.000431,0.000118
34377000,0.0324,0.013523,0.002678,0.000431,0.000470
34378000,0.0324,0.013523,0.002678,0.000431,0.000353
34379000,0.0324,0.013523,0.002678,0.000431,0.000235
34380000,0.0324,0.013523,0.002678,0.000431,0.000353
34381000,0.0324,0.013523,0.002678,0.000431,0.000470
34382000,0.0324,0.013523,0.002678,0.000431,0.000235
34383000,0.0324,0.013523,0.002678,0.000431,0.000235
34384000,0.0324,0.013523,0.002678,0.000431,0.000470
34385000,0.0324,0.013523,0.002678,0.000431,0.000353
34386000,0.0324,0.013523,0.002678,0.000431,0.000235
34387000,0.0324,0.013523,0.002678,0.000431,0.000353
34388000,0.0324,0.013523,0.002678,0.000431,0.000470
34389000,0.0324,0.013523,0.002678,0.000431,0.000235
34390000,0.0324,0.013523,0.002678,0.000431,0.000235
34391000,0.0324,0.013523,0.002678,0.000431,0.000470
34392000,0.0324,0.013523,0.002678,0.000431,0.000353
34393000,0.0324,0.013523,0.002678,0.000431,0.000235
34394000,0.0324,0.013523,0.002678,0.000431,0.000353
34395000,0.0324,0.013523,0.002678,0.000431,0.000470
34396000,0.0324,0.013523,0.002678,0.000431,0.000118
34397000,0.0324,0.013523,0.002678,0.000431,0.000353
34398000,0.0324,0.013523,0.002678,0.000431,0.000470
34399000,0.0324,0.013523,0.002678,0.000431,0.000353
34400000,0.0324,0.013523,0.002678,0.000431,0.000235
34401000,0.0324,0.013523,0.002678,0.000431,0.000353
34402000,0.0324,0.013523,0.002678,0.000431,0.000470
34403000,0.0324,0.013523,0.002678,0.000431,0.000118
34404000,0.0324,0.013523,0.002678,0.000431,0.000353
34405000,0.0324,0.013523,0.002678,0.000431,0.000470
34406000,0.0324,0.013523,0.002678,0.000431,0.000353
34407000,0.0324,0.013523,0.002678,0.000431,0.000235
34408000,0.0324,0.013523,0.002678,0.000431,0.000353
34409000,0.0324,0.013523,0.002678,0.000431,0.000470
34410000,0.0324,0.013523,0.002678,0.000431,0.000118
34411000,0.0324,0.013523,0.002678,0.000431,0.000353
34412000,0.0324,0.013523,0.002678,0.000431,0.000470
34413000,0.0324,0.013523,0.002678,0.000431,0.000353
34414000,0.0324,0.013523,0.002678,0.000431,0.000235
34415000,0.0324,0.013523,0.002678,0.000431,0.000353
34416000,0.0324,0.013523,0.002678,0.000431,0.000353
34417000,0.0324,0.013523,0.002678,0.000431,0.000235
34418000,0.0324,0.013523,0.002678,0.000431,0.000353
34419000,0.0324,0.013523,0.002678,0.000431,0.000470
34420000,0.0324,0.013523,0.002678,0.000431,0.000353
34421000,0.0324,0.013523,0.002678,0.000431,0.000235
34422000,0.0324,0.013523,0.002678,0.000431,0.000353
34423000,0.0324,0.013523,0.002678,0.000431,0.000353
34424000,0.0324,0.013523,0.002678,0.000431,0.000235
34425000,0.0324,0.013523,0.002678,0.000431,0.000353
34426000,0.0324,0.013523,0.002678,0.000431,0.000470
34427000,0.0324,0.013523,0.002678,0.000431,0.000353
34428000,0.0324,0.013523,0.002678,0.000431,0.000235
34429000,0.0324,0.013523,0.002678,0.000431,0.000353
34430000,0.0324,0.013523,0.002678,0.000431,0.000353
34431000,0.0324,0.013523,0.002678,0.000431,0.000235
34432000,0.0324,0.013523,0.002678,0.000431,0.000353
34433000,0.0324,0.013523,0.002678,0.000431,0.000470
34434000,0.0324,0.013523,0.002678,0.000431,0.000353
34435000,0.0324,0.013523,0.002678,0.000431,0.000235
34436000,0.0324,0.013523,0.002678,0.000431,0.000353
34437000,0.0324,0.013523,0.002678,0.000431,0.000353
34438000,0.0324,0.013523,0.002678,0.000431,0.000235
34439000,0.0324,0.013523,0.002678,0.000431,0.000353
34440000,0.0324,0.013523,0.002678,0.000431,0.000470
34441000,0.0324,0.013523,0.002678,0.000431,0.000353
34442000,0.0324,0.013523,0.002678,0.000431,0.000235
34443000,0.0324,0.013523,0.002678,0.000431,0.000353
34444000,0.0324,0.013523,0.002678,0.000431,0.000353
34445000,0.0324,0.013523,0.002678,0.000431,0.000235
34446000,0.0324,0.013523,0.002678,0.000431,0.000353
34447000,0.0324,0.013523,0.002678,0.000431,0.000470
34448000,0.0324,0.013523,0.002678,0.000431,0.000353
34449000,0.0324,0.013523,0.002678,0.000431,0.000235
34450000,0.0324,0.013523,0.002678,0.000431,0.000353
34451000,0.0324,0.013523,0.002678,0.000431,0.000353
34452000,0.0324,0.013523,0.002678,0.000431,0.000235
34453000,0.0324,0.013523,0.002678,0.000431,0.000353
34454000,0.0324,0.013523,0.002678,0.000431,0.000470
34455000,0.0324,0.013523,0.002678,0.000431,0.000353
34456000,0.0324,0.013523,0.002678,0.000431,0.000235
34457000,0.0324,0.013523,0.002678,0.000431,0.000353
34458000,0.0324,0.013523,0.002678,0.000431,0.000353
34459000,0.0324,0.013523,0.002678,0.000431,0.000235
34460000,0.0324,0.013523,0.002678,0.000431,0.000353
34461000,0.0324,0.013523,0.002678,0.000431,0.000470
34462000,0.0324,0.013523,0.002678,0.000431,0.000353
34463000,0.0324,0.013523,0.002678,0.000431,0.000235
34464000,0.0324,0.013523,0.002678,0.000431,0.000353
34465000,0.0324,0.013523,0.002678,0.000431,0.000353
34466000,0.0324,0.013523,0.002678,0.000431,0.000235
34467000,0.0324,0.013523,0.002678,0.000431,0.000353
34468000,0.0324,0.013523,0.002678,0.000431,0.000470
34469000,0.0324,0.013523,0.002678,0.000431,0.000353
34470000,0.0324,0.013523,0.002678,0.000431,0.000118
34471000,0.0324,0.013523,0.002678,0.000431,0.000470
34472000,0.0324,0.013523,0.002678,0.000431,0.000353
34473000,0.0324,0.013523,0.002678,0.000431,0.000235
34474000,0.0324,0.013523,0.002678,0.000431,0.000353
34475000,0.0324,0.013523,0.002678,0.000431,0.000470
34476000,0.0324,0.013523,0.002678,0.000431,0.000353
34477000,0.0324,0.013523,0.002678,0.000431,0.000118
34478000,0.0324,0.013523,0.002678,0.000431,0.000470
34479000,0.0324,0.013523,0.002678,0.000431,0.000353
34480000,0.0324,0.013523,0.002678,0.000431,0.000235
34481000,0.0324,0.013523,0.002678,0.000431,0.000353
34482000,0.0324,0.013523,0.002678,0.000431,0.000470
34483000,0.0324,0.013523,0.002678,0.000431,0.000353
34484000,0.0324,0.013523,0.002678,0.000431,0.000118
34485000,0.0324,0.013523,0.002678,0.000431,0.000470
34486000,0.0324,0.013523,0.002678,0.000431,0.000353
34487000,0.0324,0.013523,0.002678,0.000431,0.000235
34488000,0.0324,0.013523,0.002678,0.000431,0.000353
34489000,0.0324,0.013523,0.002678,0.000431,0.000470
34490000,0.0324,0.013523,0.002678,0.000431,0.000235
34491000,0.0324,0.013523,0.002678,0.000431,0.000235
34492000,0.0324,0.013523,0.002678,0.000431,0.000470
34493000,0.0324,0.013523,0.002678,0.000431,0.000353
34494000,0.0324,0.013523,0.002678,0.000431,0.000235
34495000,0.0324,0.013523,0.002678,0.000431,0.000353
34496000,0.0324,0.013523,0.002678,0.000431,0.000470
34497000,0.0324,0.013523,0.002678,0.000431,0.000235
34498000,0.0324,0.013523,0.002678,0.000431,0.000235
34499000,0.0324,0.013523,0.002678,0.000431,0.000470
34500000,0.0324,0.013523,0.002678,0.000431,0.000353
34501000,0.0324,0.013523,0.002678,0.000431,0.000235
34502000,0.0324,0.013523,0.002678,0.000431,0.000353
34503000,0.0324,0.013523,0.002678,0.000431,0.000470
34504000,0.0324,0.013523,0.002678,0.000431,0.000235
34505000,0.0324,0.013523,0.002678,0.000431,0.000235
34506000,0.0324,0.013523,0.002678,0.000431,0.000470
34507000,0.0324,0.013523,0.002678,0.000431,0.000353
34508000,0.0324,0.013523,0.002678,0.000431,0.000235
34509000,0.0324,0.013523,0.002678,0.000431,0.000353
34510000,0.0324,0.013523,0.002678,0.000431,0.000470
34511000,0.0324,0.013523,0.002678,0.000431,0.000235
34512000,0.0324,0.013523,0.002678,0.000431,0.000235
34513000,0.0324,0.013523,0.002678,0.000431,0.000470
34514000,0.0324,0.013523,0.002678,0.000431,0.000353
34515000,0.0324,0.013523,0.002678,0.000431,0.000235
34516000,0.0324,0.013523,0.002678,0.000431,0.000353
34517000,0.0324,0.013523,0.002678,0.000431,0.000470
34518000,0.0324,0.013523,0.002678,0.000431,0.000235
34519000,0.0324,0.013523,0.002678,0.000431,0.000235
34520000,0.0324,0.013523,0.002678,0.000431,0.000470
34521000,0.0324,0.013523,0.002678,0.000431,0.000353
34522000,0.0324,0.013523,0.002678,0.000431,0.000235
34523000,0.0324,0.013523,0.002678,0.000431,0.000353
34524000,0.0324,0.013523,0.002678,0.000431,0.000470
34525000,0.0324,0.013523,0.002678,0.000431,0.000235
34526000,0.0324,0.013523,0.002678,0.000431,0.000235
34527000,0.0324,0.013523,0.002678,0.000431,0.000470
34528000,0.0324,0.013523,0.002678,0.000431,0.000353
34529000,0.0324,0.013523,0.002678,0.000431,0.000235
34530000,0.0324,0.013523,0.002678,0.000431,0.000353
34531000,0.0324,0.013523,0.002678,0.000431,0.000470
34532000,0.0324,0.013523,0.002678,0.000431,0.000118
34533000,0.0324,0.013523,0.002678,0.000431,0.000353
34534000,0.0324,0.013523,0.002678,0.000431,0.000470
34535000,0.0324,0.013523,0.002678,0.000431,0.000353
34536000,0.0324,0.013523,0.002678,0.000431,0.000235
34537000,0.0324,0.013523,0.002678,0.000431,0.000353
34538000,0.0324,0.013523,0.002678,0.000431,0.000353
34539000,0.0324,0.013523,0.002678,0.000431,0.000235
34540000,0.0324,0.013523,0.002678,0.000431,0.000353
34541000,0.0324,0.013523,0.002678,0.000431,0.000470
34542000,0.0324,0.013523,0.002678,0.000431,0.000353
34543000,0.0324,0.013523,0.002678,0.000431,0.000235
34544000,0.0324,0.013523,0.002678,0.000431,0.000353
34545000,0.0324,0.013523,0.002678,0.000431,0.000353
34546000,0.0324,0.013523,0.002678,0.000431,0.000235
34547000,0.0324,0.013523,0.002678,0.000431,0.000353
34548000,0.0324,0.013523,0.002678,0.000431,0.000470
34549000,0.0324,0.013523,0.002678,0.000431,0.000353
34550000,0.0324,0.013523,0.002678,0.000431,0.000235
34551000,0.0324,0.013523,0.002678,0.000431,0.000353
34552000,0.0324,0.013523,0.002678,0.000431,0.000353
34553000,0.0324,0.013523,0.002678,0.000431,0.000235
34554000,0.0324,0.013523,0.002678,0.000431,0.000353
34555000,0.0324,0.013523,0.002678,0.000431,0.000470
34556000,0.0324,0.013523,0.002678,0.000431,0.000353
34557000,0.0324,0.013523,0.002678,0.000431,0.000118
34558000,0.0324,0.013523,0.002678,0.000431,0.000470
34559000,0.0324,0.013523,0.002678,0.000431,0.000353
34560000,0.0324,0.013523,0.002678,0.000431,0.000235
34561000,0.0324,0.013523,0.002678,0.000431,0.000353
34562000,0.0324,0.013523,0.002678,0.000431,0.000470
34563000,0.0324,0.013523,0.002678,0.000431,0.000235
34564000,0.0324,0.013523,0.002678,0.000431,0.000235
34565000,0.0324,0.013523,0.002678,0.000431,0.000470
34566000,0.0324,0.013523,0.002678,0.000431,0.000353
34567000,0.0324,0.013523,0.002678,0.000431,0.000235
34568000,0.0324,0.013523,0.002678,0.000431,0.000353
34569000,0.0324,0.013523,0.002678,0.000431,0.000470
34570000,0.0324,0.013523,0.002678,0.000431,0.000235
34571000,0.0324,0.013523,0.002678,0.000431,0.000235
34572000,0.0324,0.013523,0.002678,0.000431,0.000470
34573000,0.0324,0.013523,0.002678,0.000431,0.000353
34574000,0.0324,0.013523,0.002678,0.000431,0.000235
34575000,0.0324,0.013523,0.002678,0.000431,0.000353
34576000,0.0324,0.013523,0.002678,0.000431,0.000470
34577000,0.0324,0.013523,0.002678,0.000431,0.000118
34578000,0.0324,0.013523,0.002678,0.000431,0.000353
34579000,0.0324,0.013523,0.002678,0.000431,0.000470
34580000,0.0324,0.013523,0.002678,0.000431,0.000353
34581000,0.0324,0.013523,0.002678,0.000431,0.000235
34582000,0.0324,0.013523,0.002678,0.000431,0.000353
34583000,0.0324,0.013523,0.002678,0.000431,0.000353
34584000,0.0324,0.013523,0.002678,0.000431,0.000235
34585000,0.0324,0.013523,0.002678,0.000431,0.000353
34586000,0.0324,0.013523,0.002678,0.000431,0.000470
34587000,0.0324,0.013523,0.002678,0.000431,0.000353
34588000,0.0324,0.013523,0.002678,0.000431,0.000235
34589000,0.0324,0.013523,0.002678,0.000431,0.000353
34590000,0.0324,0.013523,0.002678,0.000431,0.000353
34591000,0.0324,0.013523,0.002678,0.000431,0.000235
34592000,0.0324,0.013523,0.002678,0.000431,0.000353
34593000,0.0324,0.013523,0.002678,0.000431,0.000470
34594000,0.0324,0.013523,0.002678,0.000431,0.000353
34595000,0.0324,0.013523,0.002678,0.000431,0.000118
34596000,0.0324,0.013523,0.002678,0.000431,0.000470
34597000,0.0324,0.013523,0.002678,0.000431,0.000353
34598000,0.0324,0.013523,0.002678,0.000431,0.000235
34599000,0.0324,0.013523,0.002678,0.000431,0.000353
34600000,0.0324,0.013523,0.002678,0.000431,0.000470
34601000,0.0324,0.013523,0.002678,0.000431,0.000353
34602000,0.0324,0.013523,0.002678,0.000431,0.000118
34603000,0.0324,0.013523,0.002678,0.000431,0.000470
34604000,0.0324,0.013523,0.002678,0.000431,0.000353
34605000,0.0324,0.013523,0.002678,0.000431,0.000235
34606000,0.0324,0.013523,0.002678,0.000431,0.000353
34607000,0.0324,0.013523,0.002678,0.000431,0.000470
34608000,0.0324,0.013523,0.002678,0.000431,0.000235
34609000,0.0324,0.013523,0.002678,0.000431,0.000235
34610000,0.0324,0.013523,0.002678,0.000431,0.000470
34611000,0.0324,0.013523,0.002678,0.000431,0.000353
34612000,0.0324,0.013523,0.002678,0.000431,0.000235
34613000,0.0324,0.013523,0.002678,0.000431,0.000353
34614000,0.0324,0.013523,0.002678,0.000431,0.000470
34615000,0.0324,0.013523,0.002678,0.000431,0.000235
34616000,0.0324,0.013523,0.002678,0.000431,0.000235
34617000,0.0324,0.013523,0.002678,0.000431,0.000470
34618000,0.0324,0.013523,0.002678,0.000431,0.000353
34619000,0.0324,0.013523,0.002678,0.000431,0.000235
34620000,0.0324,0.013523,0.002678,0.000431,0.000353
34621000,0.0324,0.013523,0.002678,0.000431,0.000470
34622000,0.0324,0.013523,0.002678,0.000431,0.000118
34623000,0.0324,0.013523,0.002678,0.000431,0.000353
34624000,0.0324,0.013523,0.002678,0.000431,0.000470
34625000,0.0324,0.013523,0.002678,0.000431,0.000353
34626000,0.0324,0.013523,0.002678,0.000431,0.000235
34627000,0.0324,0.013523,0.002678,0.000431,0.000353
34628000,0.0324,0.013523,0.002678,0.000431,0.000353
34629000,0.0324,0.013523,0.002678,0.000431,0.000235
34630000,0.0324,0.013523,0.002678,0.000431,0.000353
34631000,0.0324,0.013523,0.002678,0.000431,0.000470
34632000,0.0324,0.013523,0.002678,0.000431,0.000353
34633000,0.0324,0.013523,0.002678,0.000431,0.000235
34634000,0.0324,0.013523,0.002678,0.000431,0.000353
34635000,0.0324,0.013523,0.002678,0.000431,0.000353
34636000,0.0324,0.013523,0.002678,0.000431,0.000235
34637000,0.0324,0.013523,0.002678,0.000431,0.000353
34638000,0.0324,0.013523,0.002678,0.000431,0.000470
34639000,0.0324,0.013523,0.002678,0.000431,0.000353
34640000,0.0324,0.013523,0.002678,0.000431,0.000118
34641000,0.0324,0.013523,0.002678,0.000431,0.000470
34642000,0.0324,0.013523,0.002678,0.000431,0.000353
34643000,0.0324,0.013523,0.002678,0.000431,0.000235
34644000,0.0324,0.013523,0.002678,0.000431,0.000353
34645000,0.0324,0.013523,0.002678,0.000431,0.000470
34646000,0.0324,0.013523,0.002678,0.000431,0.000235
34647000,0.0324,0.013523,0.002678,0.000431,0.000235
34648000,0.0324,0.013523,0.002678,0.000431,0.000470
34649000,0.0324,0.013523,0.002678,0.000431,0.000353
34650000,0.0324,0.013523,0.002678,0.000431,0.000235
34651000,0.0324,0.013523,0.002678,0.000431,0.000353
34652000,0.0324,0.013523,0.002678,0.000431,0.000470
34653000,0.0324,0.013523,0.002678,0.000431,0.000235
34654000,0.0324,0.013523,0.002678,0.000431,0.000235
34655000,0.0324,0.013523,0.002678,0.000431,0.000470
34656000,0.0324,0.013523,0.002678,0.000431,0.000353
34657000,0.0324,0.013523,0.002678,0.000431,0.000235
34658000,0.0324,0.013523,0.002678,0.000431,0.000353
34659000,0.0324,0.013523,0.002678,0.000431,0.000470
34660000,0.0324,0.013523,0.002678,0.000431,0.000118
34661000,0.0324,0.013523,0.002678,0.000431,0.000353
34662000,0.0324,0.013523,0.002678,0.000431,0.000470
34663000,0.0324,0.013523,0.002678,0.000431,0.000353
34664000,0.0324,0.013523,0.002678,0.000431,0.000235
34665000,0.0324,0.013523,0.002678,0.000431,0.000353
34666000,0.0324,0.013523,0.002678,0.000431,0.000353
34667000,0.0324,0.013523,0.002678,0.000431,0.000235
34668000,0.0324,0.013523,0.002678,0.000431,0.000353
34669000,0.0324,0.013523,0.002678,0.000431,0.000470
34670000,0.0324,0.013523,0.002678,0.000431,0.000353
34671000,0.0324,0.013523,0.002678,0.000431,0.000235
34672000,0.0324,0.013523,0.002678,0.000431,0.000353
34673000,0.0324,0.013523,0.002678,0.000431,0.000353
34674000,0.0324,0.013523,0.002678,0.000431,0.000235
34675000,0.0324,0.013523,0.002678,0.000431,0.000353
34676000,0.0324,0.013523,0.002678,0.000431,0.000470
34677000,0.0324,0.013523,0.002678,0.000431,0.000353
34678000,0.0324,0.013523,0.002678,0.000431,0.000235
34679000,0.0324,0.013523,0.002678,0.000431,0.000353
34680000,0.0324,0.013523,0.002678,0.000431,0.000353
34681000,0.0324,0.013523,0.002678,0.000431,0.000235
34682000,0.0324,0.013523,0.002678,0.000431,0.000353
34683000,0.0324,0.013523,0.002678,0.000431,0.000470
34684000,0.0324,0.013523,0.002678,0.000431,0.000353
34685000,0.0324,0.013523,0.002678,0.000431,0.000235
34686000,0.0324,0.013523,0.002678,0.000431,0.000353
34687000,0.0324,0.013523,0.002678,0.000431,0.000353
34688000,0.0324,0.013523,0.002678,0.000431,0.000235
34689000,0.0324,0.013523,0.002678,0.000431,0.000353
34690000,0.0324,0.013523,0.002678,0.000431,0.000470
34691000,0.0324,0.013523,0.002678,0.000431,0.000353
34692000,0.0324,0.013523,0.002678,0.000431,0.000235
34693000,0.0324,0.013523,0.002678,0.000431,0.000353
34694000,0.0324,0.013523,0.002678,0.000431,0.000353
34695000,0.0324,0.013523,0.002678,0.000431,0.000235
34696000,0.0324,0.013523,0.002678,0.000431,0.000353
34697000,0.0324,0.013523,0.002678,0.000431,0.000470
34698000,0.0324,0.013523,0.002678,0.000431,0.000353
34699000,0.0324,0.013523,0.002678,0.000431,0.000235
34700000,0.0324,0.013523,0.002678,0.000431,0.000353
34701000,0.0324,0.013523,0.002678,0.000431,0.000353
34702000,0.0324,0.013523,0.002678,0.000431,0.000235
34703000,0.0324,0.013523,0.002678,0.000431,0.000353
34704000,0.0324,0.013523,0.002678,0.000431,0.000470
34705000,0.0324,0.013523,0.002678,0.000431,0.000353
34706000,0.0324,0.013523,0.002678,0.000431,0.000235
34707000,0.0324,0.013523,0.002678,0.000431,0.000353
34708000,0.0324,0.013523,0.002678,0.000431,0.000353
34709000,0.0324,0.013523,0.002678,0.000431,0.000235
34710000,0.0324,0.013523,0.002678,0.000431,0.000353
34711000,0.0324,0.013523,0.002678,0.000431,0.000470
34712000,0.0324,0.013523,0.002678,0.000431,0.000353
34713000,0.0324,0.013523,0.002678,0.000431,0.000235
34714000,0.0324,0.013523,0.002678,0.000431,0.000353
34715000,0.0324,0.013523,0.002678,0.000431,0.000353
34716000,0.0324,0.013523,0.002678,0.000431,0.000235
34717000,0.0324,0.013523,0.002678,0.000431,0.000353
34718000,0.0324,0.013523,0.002678,0.000431,0.000470
34719000,0.0324,0.013523,0.002678,0.000431,0.000353
34720000,0.0324,0.013523,0.002678,0.000431,0.000118
34721000,0.0324,0.013523,0.002678,0.000431,0.000470
34722000,0.0324,0.013523,0.002678,0.000431,0.000353
34723000,0.0324,0.013523,0.002678,0.000431,0.000235
34724000,0.0324,0.013523,0.002678,0.000431,0.000353
34725000,0.0324,0.013523,0.002678,0.000431,0.000470
34726000,0.0324,0.013523,0.002678,0.000431,0.000353
34727000,0.0324,0.013523,0.002678,0.000431,0.000118
34728000,0.0324,0.013523,0.002678,0.000431,0.000470
34729000,0.0324,0.013523,0.002678,0.000431,0.000353
34730000,0.0324,0.013523,0.002678,0.000431,0.000235
34731000,0.0324,0.013523,0.002678,0.000431,0.000353
34732000,0.0324,0.013523,0.002678,0.000431,0.000470
34733000,0.0324,0.013523,0.002678,0.000431,0.000353
34734000,0.0324,0.013523,0.002678,0.000431,0.000118
34735000,0.0324,0.013523,0.002678,0.000431,0.000470
34736000,0.0324,0.013523,0.002678,0.000431,0.000353
34737000,0.0324,0.013523,0.002678,0.000431,0.000235
34738000,0.0324,0.013523,0.002678,0.000431,0.000353
34739000,0.0324,0.013523,0.002678,0.000431,0.000470
34740000,0.0324,0.013523,0.002678,0.000431,0.000235
34741000,0.0324,0.013523,0.002678,0.000431,0.000235
34742000,0.0324,0.013523,0.002678,0.000431,0.000470
34743000,0.0324,0.013523,0.002678,0.000431,0.000353
34744000,0.0324,0.013523,0.002678,0.000431,0.000235
34745000,0.0324,0.013523,0.002678,0.000431,0.000353
34746000,0.0324,0.013523,0.002678,0.000431,0.000470
34747000,0.0324,0.013523,0.002678,0.000431,0.000235
34748000,0.0324,0.013523,0.002678,0.000431,0.000235
34749000,0.0324,0.013523,0.002678,0.000431,0.000470
34750000,0.0324,0.013523,0.002678,0.000431,0.000353
34751000,0.0324,0.013523,0.002678,0.000431,0.000235
34752000,0.0324,0.013523,0.002678,0.000431,0.000353
34753000,0.0324,0.013523,0.002678,0.000431,0.000470
34754000,0.0324,0.013523,0.002678,0.000431,0.000235
34755000,0.0324,0.013523,0.002678,0.000431,0.000235
34756000,0.0324,0.013523,0.002678,0.000431,0.000470
34757000,0.0324,0.013523,0.002678,0.000431,0.000353
34758000,0.0324,0.013523,0.002678,0.000431,0.000235
34759000,0.0324,0.013523,0.002678,0.000431,0.000353
34760000,0.0324,0.013523,0.002678,0.000431,0.000470
34761000,0.0324,0.013523,0.002678,0.000431,0.000235
34762000,0.0324,0.013523,0.002678,0.000431,0.000235
34763000,0.0324,0.013523,0.002678,0.000431,0.000470
34764000,0.0324,0.013523,0.002678,0.000431,0.000353
34765000,0.0324,0.013523,0.002678,0.000431,0.000235
34766000,0.0324,0.013523,0.002678,0.000431,0.000353
34767000,0.0324,0.013523,0.002678,0.000431,0.000470
34768000,0.0324,0.013523,0.002678,0.000431,0.000235
34769000,0.0324,0.013523,0.002678,0.000431,0.000235
34770000,0.0324,0.013523,0.002678,0.000431,0.000470
34771000,0.0324,0.013523,0.002678,0.000431,0.000353
34772000,0.0324,0.013523,0.002678,0.000431,0.000235
34773000,0.0324,0.013523,0.002678,0.000431,0.000353
34774000,0.0324,0.013523,0.002678,0.000431,0.000470
34775000,0.0324,0.013523,0.002678,0.000431,0.000235
34776000,0.0324,0.013523,0.002678,0.000431,0.000235
34777000,0.0324,0.013523,0.002678,0.000431,0.000470
34778000,0.0324,0.013523,0.002678,0.000431,0.000353
34779000,0.0324,0.013523,0.002678,0.000431,0.000235
34780000,0.0324,0.013523,0.002678,0.000431,0.000353
34781000,0.0324,0.013523,0.002678,0.000431,0.000470
34782000,0.0324,0.013523,0.002678,0.000431,0.000118
34783000,0.0324,0.013523,0.002678,0.000431,0.000353
34784000,0.0324,0.013523,0.002678,0.000431,0.000470
34785000,0.0324,0.013523,0.002678,0.000431,0.000353
34786000,0.0324,0.013523,0.002678,0.000431,0.000235
34787000,0.0324,0.013523,0.002678,0.000431,0.000353
34788000,0.0324,0.013523,0.002678,0.000431,0.000470
34789000,0.0324,0.013523,0.002678,0.000431,0.000118
34790000,0.0324,0.013523,0.002678,0.000431,0.000353
34791000,0.0324,0.013523,0.002678,0.000431,0.000470
34792000,0.0324,0.013523,0.002678,0.000431,0.000353
34793000,0.0324,0.013523,0.002678,0.000431,0.000235
34794000,0.0324,0.013523,0.002678,0.000431,0.000353
34795000,0.0324,0.013523,0.002678,0.000431,0.000470
34796000,0.0324,0.013523,0.002678,0.000431,0.000118
34797000,0.0324,0.013523,0.002678,0.000431,0.000353
34798000,0.0324,0.013523,0.002678,0.000431,0.000470
34799000,0.0324,0.013523,0.002678,0.000431,0.000353
34800000,0.0324,0.013523,0.002678,0.000431,0.000235
34801000,0.0324,0.013523,0.002678,0.000431,0.000353
34802000,0.0324,0.013523,0.002678,0.000431,0.000470
34803000,0.0324,0.013523,0.002678,0.000431,0.000118
34804000,0.0324,0.013523,0.002678,0.000431,0.000353
34805000,0.0324,0.013523,0.002678,0.000431,0.000470
34806000,0.0324,0.013523,0.002678,0.000431,0.000353
34807000,0.0324,0.013523,0.002678,0.000431,0.000235
34808000,0.0324,0.013523,0.002678,0.000431,0.000353
34809000,0.0324,0.013523,0.002678,0.000431,0.000353
34810000,0.0324,0.013523,0.002678,0.000431,0.000235
34811000,0.0324,0.013523,0.002678,0.000431,0.000353
34812000,0.0324,0.013523,0.002678,0.000431,0.000470
34813000,0.0324,0.013523,0.002678,0.000431,0.000353
34814000,0.0324,0.013523,0.002678,0.000431,0.000235
34815000,0.0324,0.013523,0.002678,0.000431,0.000353
34816000,0.0324,0.013523,0.002678,0.000431,0.000353
34817000,0.0324,0.013523,0.002678,0.000431,0.000235
34818000,0.0324,0.013523,0.002678,0.000431,0.000353
34819000,0.0324,0.013523,0.002678,0.000431,0.000470
34820000,0.0324,0.013523,0.002678,0.000431,0.000353
34821000,0.0324,0.013523,0.002678,0.000431,0.000235
34822000,0.0324,0.013523,0.002678,0.000431,0.000353
34823000,0.0324,0.013523,0.002678,0.000431,0.000353
34824000,0.0324,0.013523,0.002678,0.000431,0.000235
34825000,0.0324,0.013523,0.002678,0.000431,0.000353
34826000,0.0324,0.013523,0.002678,0.000431,0.000470
34827000,0.0324,0.013523,0.002678,0.000431,0.000353
34828000,0.0324,0.013523,0.002678,0.000431,0.000235
34829000,0.0324,0.013523,0.002678,0.000431,0.000353
34830000,0.0324,0.013523,0.002678,0.000431,0.000353
34831000,0.0324,0.013523,0.002678,0.000431,0.000235
34832000,0.0324,0.013523,0.002678,0.000431,0.000353
34833000,0.0324,0.013523,0.002678,0.000431,0.000470
34834000,0.0324,0.013523,0.002678,0.000431,0.000353
34835000,0.0324,0.013523,0.002678,0.000431,0.000235
34836000,0.0324,0.013523,0.002678,0.000431,0.000353
34837000,0.0324,0.013523,0.002678,0.000431,0.000353
34838000,0.0324,0.013523,0.002678,0.000431,0.000235
34839000,0.0324,0.013523,0.002678,0.000431,0.000353
34840000,0.0324,0.013523,0.002678,0.000431,0.000470
34841000,0.0324,0.013523,0.002678,0.000431,0.000353
34842000,0.0324,0.013523,0.002678,0.000431,0.000235
34843000,0.0324,0.013523,0.002678,0.000431,0.000353
34844000,0.0324,0.013523,0.002678,0.000431,0.000353
34845000,0.0324,0.013523,0.002678,0.000431,0.000235
34846000,0.0324,0.013523,0.002678,0.000431,0.000353
34847000,0.0324,0.013523,0.002678,0.000431,0.000470
34848000,0.0324,0.013523,0.002678,0.000431,0.000353
34849000,0.0324,0.013523,0.002678,0.000431,0.000235
34850000,0.0324,0.013523,0.002678,0.000431,0.000353
34851000,0.0324,0.013523,0.002678,0.000431,0.000353
34852000,0.0324,0.013523,0.002678,0.000431,0.000235
34853000,0.0324,0.013523,0.002678,0.000431,0.000353
34854000,0.0324,0.013523,0.002678,0.000431,0.000470
34855000,0.0324,0.013523,0.002678,0.000431,0.000353
34856000,0.0324,0.013523,0.002678,0.000431,0.000118
34857000,0.0324,0.013523,0.002678,0.000431,0.000470
34858000,0.0324,0.013523,0.002678,0.000431,0.000353
34859000,0.0324,0.013523,0.002678,0.000431,0.000235
34860000,0.0324,0.013523,0.002678,0.000431,0.000353
34861000,0.0324,0.013523,0.002678,0.000431,0.000470
34862000,0.0324,0.013523,0.002678,0.000431,0.000353
34863000,0.0324,0.013523,0.002678,0.000431,0.000118
34864000,0.0324,0.013523,0.002678,0.000431,0.000470
34865000,0.0324,0.013523,0.002678,0.000431,0.000353
34866000,0.0324,0.013523,0.002678,0.000431,0.000235
34867000,0.0324,0.013523,0.002678,0.000431,0.000353
34868000,0.0324,0.013523,0.002678,0.000431,0.000470
34869000,0.0324,0.013523,0.002678,0.000431,0.000353
34870000,0.0324,0.013523,0.002678,0.000431,0.000118
34871000,0.0324,0.013523,0.002678,0.000431,0.000470
34872000,0.0324,0.013523,0.002678,0.000431,0.000353
34873000,0.0324,0.013523,0.002678,0.000431,0.000235
34874000,0.0324,0.013523,0.002678,0.000431,0.000353
34875000,0.0324,0.013523,0.002678,0.000431,0.000470
34876000,0.0324,0.013523,0.002678,0.000431,0.000353
34877000,0.0324,0.013523,0.002678,0.000431,0.000118
34878000,0.0324,0.013523,0.002678,0.000431,0.000470
34879000,0.0324,0.013523,0.002678,0.000431,0.000353
34880000,0.0324,0.013523,0.002678,0.000431,0.000235
34881000,0.0324,0.013523,0.002678,0.000431,0.000353
34882000,0.0324,0.013523,0.002678,0.000431,0.000470
34883000,0.0324,0.013523,0.002678,0.000431,0.000235
34884000,0.0324,0.013523,0.002678,0.000431,0.000235
34885000,0.0324,0.013523,0.002678,0.000431,0.000470
34886000,0.0324,0.013523,0.002678,0.000431,0.000353
34887000,0.0324,0.013523,0.002678,0.000431,0.000235
34888000,0.0324,0.013523,0.002678,0.000431,0.000353
34889000,0.0324,0.013523,0.002678,0.000431,0.000470
34890000,0.0324,0.013523,0.002678,0.000431,0.000235
34891000,0.0324,0.013523,0.002678,0.000431,0.000235
34892000,0.0324,0.013523,0.002678,0.000431,0.000470
34893000,0.0324,0.013523,0.002678,0.000431,0.000353
34894000,0.0324,0.013523,0.002678,0.000431,0.000235
34895000,0.0324,0.013523,0.002678,0.000431,0.000353
34896000,0.0324,0.013523,0.002678,0.000431,0.000470
34897000,0.0324,0.013523,0.002678,0.000431,0.000235
34898000,0.0324,0.013523,0.002678,0.000431,0.000235
34899000,0.0324,0.013523,0.002678,0.000431,0.000470
34900000,0.0324,0.013523,0.002678,0.000431,0.000353
34901000,0.0324,0.013523,0.002678,0.000431,0.000235
34902000,0.0324,0.013523,0.002678,0.000431,0.000353
34903000,0.0324,0.013523,0.002678,0.000431,0.000470
34904000,0.0324,0.013523,0.002678,0.000431,0.000235
34905000,0.0324,0.013523,0.002678,0.000431,0.000235
34906000,0.0324,0.013523,0.002678,0.000431,0.000470
34907000,0.0324,0.013523,0.002678,0.000431,0.000353
34908000,0.0324,0.013523,0.002678,0.000431,0.000235
34909000,0.0324,0.013523,0.002678,0.000431,0.000353
34910000,0.0324,0.013523,0.002678,0.000431,0.000470
34911000,0.0324,0.013523,0.002678,0.000431,0.000235
34912000,0.0324,0.013523,0.002678,0.000431,0.000235
34913000,0.0324,0.013523,0.002678,0.000431,0.000470
34914000,0.0324,0.013523,0.002678,0.000431,0.000353
34915000,0.0324,0.013523,0.002678,0.000431,0.000235
34916000,0.0324,0.013523,0.002678,0.000431,0.000353
34917000,0.0324,0.013523,0.002678,0.000431,0.000470
34918000,0.0324,0.013523,0.002678,0.000431,0.000235
34919000,0.0324,0.013523,0.002678,0.000431,0.000235
34920000,0.0324,0.013523,0.002678,0.000431,0.000470
34921000,0.0324,0.013523,0.002678,0.000431,0.000353
34922000,0.0324,0.013523,0.002678,0.000431,0.000235
34923000,0.0324,0.013523,0.002678,0.000431,0.000353
34924000,0.0324,0.013523,0.002678,0.000431,0.000470
34925000,0.0324,0.013523,0.002678,0.000431,0.000118
34926000,0.0324,0.013523,0.002678,0.000431,0.000353
34927000,0.0324,0.013523,0.002678,0.000431,0.000470
34928000,0.0324,0.013523,0.002678,0.000431,0.000353
34929000,0.0324,0.013523,0.002678,0.000431,0.000235
34930000,0.0324,0.013523,0.002678,0.000431,0.000353
34931000,0.0324,0.013523,0.002678,0.000431,0.000470
34932000,0.0324,0.013523,0.002678,0.000431,0.000118
34933000,0.0324,0.013523,0.002678,0.000431,0.000353
34934000,0.0324,0.013523,0.002678,0.000431,0.000470
34935000,0.0324,0.013523,0.002678,0.000431,0.000353
34936000,0.0324,0.013523,0.002678,0.000431,0.000235
34937000,0.0324,0.013523,0.002678,0.000431,0.000353
34938000,0.0324,0.013523,0.002678,0.000431,0.000470
34939000,0.0324,0.013523,0.002678,0.000431,0.000118
34940000,0.0324,0.013523,0.002678,0.000431,0.000353
34941000,0.0324,0.013523,0.002678,0.000431,0.000470
34942000,0.0324,0.013523,0.002678,0.000431,0.000353
34943000,0.0324,0.013523,0.002678,0.000431,0.000235
34944000,0.0324,0.013523,0.002678,0.000431,0.000353
34945000,0.0324,0.013523,0.002678,0.000431,0.000353
34946000,0.0324,0.013523,0.002678,0.000431,0.000235
34947000,0.0324,0.013523,0.002678,0.000431,0.000353
34948000,0.0324,0.013523,0.002678,0.000431,0.000470
34949000,0.0324,0.013523,0.002678,0.000431,0.000353
34950000,0.0324,0.013523,0.002678,0.000431,0.000235
34951000,0.0324,0.013523,0.002678,0.000431,0.000353
34952000,0.0324,0.013523,0.002678,0.000431,0.000353
34953000,0.0324,0.013523,0.002678,0.000431,0.000235
34954000,0.0324,0.013523,0.002678,0.000431,0.000353
34955000,0.0324,0.013523,0.002678,0.000431,0.000470
34956000,0.0324,0.013523,0.002678,0.000431,0.000353
34957000,0.0324,0.013523,0.002678,0.000431,0.000235
34958000,0.0324,0.013523,0.002678,0.000431,0.000353
34959000,0.0324,0.013523,0.002678,0.000431,0.000353
34960000,0.0324,0.013523,0.002678,0.000431,0.000235
34961000,0.0324,0.013523,0.002678,0.000431,0.000353
34962000,0.0324,0.013523,0.002678,0.000431,0.000470
34963000,0.0324,0.013523,0.002678,0.000431,0.000353
34964000,0.0324,0.013523,0.002678,0.000431,0.000235
34965000,0.0324,0.013523,0.002678,0.000431,0.000353
34966000,0.0324,0.013523,0.002678,0.000431,0.000353
34967000,0.0324,0.013523,0.002678,0.000431,0.000235
34968000,0.0324,0.013523,0.002678,0.000431,0.000353
34969000,0.0324,0.013523,0.002678,0.000431,0.000470
34970000,0.0324,0.013523,0.002678,0.000431,0.000353
34971000,0.0324,0.013523,0.002678,0.000431,0.000235
34972000,0.0324,0.013523,0.002678,0.000431,0.000353
34973000,0.0324,0.013523,0.002678,0.000431,0.000353
34974000,0.0324,0.013523,0.002678,0.000431,0.000235
34975000,0.0324,0.013523,0.002678,0.000431,0.000353
34976000,0.0324,0.013523,0.002678,0.000431,0.000470
34977000,0.0324,0.013523,0.002678,0.000431,0.000353
34978000,0.0324,0.013523,0.002678,0.000431,0.000235
34979000,0.0324,0.013523,0.002678,0.000431,0.000353
34980000,0.0324,0.013523,0.002678,0.000431,0.000353
34981000,0.0324,0.013523,0.002678,0.000431,0.000235
34982000,0.0324,0.013523,0.002678,0.000431,0.000353
34983000,0.0324,0.013523,0.002678,0.000431,0.000470
34984000,0.0324,0.013523,0.002678,0.000431,0.000353
34985000,0.0324,0.013523,0.002678,0.000431,0.000235
34986000,0.0324,0.013523,0.002678,0.000431,0.000353
34987000,0.0324,0.013523,0.002678,0.000431,0.000353
34988000,0.0324,0.013523,0.002678,0.000431,0.000235
34989000,0.0324,0.013523,0.002678,0.000431,0.000353
34990000,0.0324,0.013523,0.002678,0.000431,0.000470
34991000,0.0324,0.013523,0.002678,0.000431,0.000353
34992000,0.0324,0.013523,0.002678,0.000431,0.000235
34993000,0.0324,0.013523,0.002678,0.000431,0.000353
34994000,0.0324,0.013523,0.002678,0.000431,0.000353
34995000,0.0324,0.013523,0.002678,0.000431,0.000235
34996000,0.0324,0.013523,0.002678,0.000431,0.000353
34997000,0.0324,0.013523,0.002678,0.000431,0.000470
34998000,0.0324,0.013523,0.002678,0.000431,0.000353
34999000,0.0324,0.013523,0.002678,0.000431,0.000118
