Cycle,Area(mm^2),PeakDynamic(W),SubthresholdLeakage(W),GateLeakage(W),RunTimeDynamic(W)
22000000,0.0324,0.013523,0.002678,0.000431,0.000353
22001000,0.0324,0.013523,0.002678,0.000431,0.000235
22002000,0.0324,0.013523,0.002678,0.000431,0.000353
22003000,0.0324,0.013523,0.002678,0.000431,0.000470
22004000,0.0324,0.013523,0.002678,0.000431,0.000353
22005000,0.0324,0.013523,0.002678,0.000431,0.000235
22006000,0.0324,0.013523,0.002678,0.000431,0.000353
22007000,0.0324,0.013523,0.002678,0.000431,0.000353
22008000,0.0324,0.013523,0.002678,0.000431,0.000235
22009000,0.0324,0.013523,0.002678,0.000431,0.000353
22010000,0.0324,0.013523,0.002678,0.000431,0.000470
22011000,0.0324,0.013523,0.002678,0.000431,0.000353
22012000,0.0324,0.013523,0.002678,0.000431,0.000118
22013000,0.0324,0.013523,0.002678,0.000431,0.000470
22014000,0.0324,0.013523,0.002678,0.000431,0.000353
22015000,0.0324,0.013523,0.002678,0.000431,0.000235
22016000,0.0324,0.013523,0.002678,0.000431,0.000353
22017000,0.0324,0.013523,0.002678,0.000431,0.000470
22018000,0.0324,0.013523,0.002678,0.000431,0.000353
22019000,0.0324,0.013523,0.002678,0.000431,0.000118
22020000,0.0324,0.013523,0.002678,0.000431,0.000470
22021000,0.0324,0.013523,0.002678,0.000431,0.000353
22022000,0.0324,0.013523,0.002678,0.000431,0.000235
22023000,0.0324,0.013523,0.002678,0.000431,0.000353
22024000,0.0324,0.013523,0.002678,0.000431,0.000470
22025000,0.0324,0.013523,0.002678,0.000431,0.000353
22026000,0.0324,0.013523,0.002678,0.000431,0.000118
22027000,0.0324,0.013523,0.002678,0.000431,0.000470
22028000,0.0324,0.013523,0.002678,0.000431,0.000353
22029000,0.0324,0.013523,0.002678,0.000431,0.000235
22030000,0.0324,0.013523,0.002678,0.000431,0.000353
22031000,0.0324,0.013523,0.002678,0.000431,0.000470
22032000,0.0324,0.013523,0.002678,0.000431,0.000353
22033000,0.0324,0.013523,0.002678,0.000431,0.000118
22034000,0.0324,0.013523,0.002678,0.000431,0.000470
22035000,0.0324,0.013523,0.002678,0.000431,0.000353
22036000,0.0324,0.013523,0.002678,0.000431,0.000235
22037000,0.0324,0.013523,0.002678,0.000431,0.000353
22038000,0.0324,0.013523,0.002678,0.000431,0.000470
22039000,0.0324,0.013523,0.002678,0.000431,0.000235
22040000,0.0324,0.013523,0.002678,0.000431,0.000235
22041000,0.0324,0.013523,0.002678,0.000431,0.000470
22042000,0.0324,0.013523,0.002678,0.000431,0.000353
22043000,0.0324,0.013523,0.002678,0.000431,0.000235
22044000,0.0324,0.013523,0.002678,0.000431,0.000353
22045000,0.0324,0.013523,0.002678,0.000431,0.000470
22046000,0.0324,0.013523,0.002678,0.000431,0.000235
22047000,0.0324,0.013523,0.002678,0.000431,0.000235
22048000,0.0324,0.013523,0.002678,0.000431,0.000470
22049000,0.0324,0.013523,0.002678,0.000431,0.000353
22050000,0.0324,0.013523,0.002678,0.000431,0.000235
22051000,0.0324,0.013523,0.002678,0.000431,0.000353
22052000,0.0324,0.013523,0.002678,0.000431,0.000470
22053000,0.0324,0.013523,0.002678,0.000431,0.000235
22054000,0.0324,0.013523,0.002678,0.000431,0.000235
22055000,0.0324,0.013523,0.002678,0.000431,0.000470
22056000,0.0324,0.013523,0.002678,0.000431,0.000353
22057000,0.0324,0.013523,0.002678,0.000431,0.000235
22058000,0.0324,0.013523,0.002678,0.000431,0.000353
22059000,0.0324,0.013523,0.002678,0.000431,0.000470
22060000,0.0324,0.013523,0.002678,0.000431,0.000235
22061000,0.0324,0.013523,0.002678,0.000431,0.000235
22062000,0.0324,0.013523,0.002678,0.000431,0.000470
22063000,0.0324,0.013523,0.002678,0.000431,0.000353
22064000,0.0324,0.013523,0.002678,0.000431,0.000235
22065000,0.0324,0.013523,0.002678,0.000431,0.000353
22066000,0.0324,0.013523,0.002678,0.000431,0.000470
22067000,0.0324,0.013523,0.002678,0.000431,0.000235
22068000,0.0324,0.013523,0.002678,0.000431,0.000235
22069000,0.0324,0.013523,0.002678,0.000431,0.000470
22070000,0.0324,0.013523,0.002678,0.000431,0.000353
22071000,0.0324,0.013523,0.002678,0.000431,0.000235
22072000,0.0324,0.013523,0.002678,0.000431,0.000353
22073000,0.0324,0.013523,0.002678,0.000431,0.000470
22074000,0.0324,0.013523,0.002678,0.000431,0.000235
22075000,0.0324,0.013523,0.002678,0.000431,0.000235
22076000,0.0324,0.013523,0.002678,0.000431,0.000470
22077000,0.0324,0.013523,0.002678,0.000431,0.000353
22078000,0.0324,0.013523,0.002678,0.000431,0.000235
22079000,0.0324,0.013523,0.002678,0.000431,0.000353
22080000,0.0324,0.013523,0.002678,0.000431,0.000470
22081000,0.0324,0.013523,0.002678,0.000431,0.000118
22082000,0.0324,0.013523,0.002678,0.000431,0.000353
22083000,0.0324,0.013523,0.002678,0.000431,0.000470
22084000,0.0324,0.013523,0.002678,0.000431,0.000353
22085000,0.0324,0.013523,0.002678,0.000431,0.000235
22086000,0.0324,0.013523,0.002678,0.000431,0.000353
22087000,0.0324,0.013523,0.002678,0.000431,0.000470
22088000,0.0324,0.013523,0.002678,0.000431,0.000118
22089000,0.0324,0.013523,0.002678,0.000431,0.000353
22090000,0.0324,0.013523,0.002678,0.000431,0.000470
22091000,0.0324,0.013523,0.002678,0.000431,0.000353
22092000,0.0324,0.013523,0.002678,0.000431,0.000235
22093000,0.0324,0.013523,0.002678,0.000431,0.000353
22094000,0.0324,0.013523,0.002678,0.000431,0.000470
22095000,0.0324,0.013523,0.002678,0.000431,0.000118
22096000,0.0324,0.013523,0.002678,0.000431,0.000353
22097000,0.0324,0.013523,0.002678,0.000431,0.000470
22098000,0.0324,0.013523,0.002678,0.000431,0.000353
22099000,0.0324,0.013523,0.002678,0.000431,0.000235
22100000,0.0324,0.013523,0.002678,0.000431,0.000353
22101000,0.0324,0.013523,0.002678,0.000431,0.000353
22102000,0.0324,0.013523,0.002678,0.000431,0.000235
22103000,0.0324,0.013523,0.002678,0.000431,0.000353
22104000,0.0324,0.013523,0.002678,0.000431,0.000470
22105000,0.0324,0.013523,0.002678,0.000431,0.000353
22106000,0.0324,0.013523,0.002678,0.000431,0.000235
22107000,0.0324,0.013523,0.002678,0.000431,0.000353
22108000,0.0324,0.013523,0.002678,0.000431,0.000353
22109000,0.0324,0.013523,0.002678,0.000431,0.000235
22110000,0.0324,0.013523,0.002678,0.000431,0.000353
22111000,0.0324,0.013523,0.002678,0.000431,0.000470
22112000,0.0324,0.013523,0.002678,0.000431,0.000353
22113000,0.0324,0.013523,0.002678,0.000431,0.000235
22114000,0.0324,0.013523,0.002678,0.000431,0.000353
22115000,0.0324,0.013523,0.002678,0.000431,0.000353
22116000,0.0324,0.013523,0.002678,0.000431,0.000235
22117000,0.0324,0.013523,0.002678,0.000431,0.000353
22118000,0.0324,0.013523,0.002678,0.000431,0.000470
22119000,0.0324,0.013523,0.002678,0.000431,0.000353
22120000,0.0324,0.013523,0.002678,0.000431,0.000235
22121000,0.0324,0.013523,0.002678,0.000431,0.000353
22122000,0.0324,0.013523,0.002678,0.000431,0.000353
22123000,0.0324,0.013523,0.002678,0.000431,0.000235
22124000,0.0324,0.013523,0.002678,0.000431,0.000353
22125000,0.0324,0.013523,0.002678,0.000431,0.000470
22126000,0.0324,0.013523,0.002678,0.000431,0.000353
22127000,0.0324,0.013523,0.002678,0.000431,0.000235
22128000,0.0324,0.013523,0.002678,0.000431,0.000353
22129000,0.0324,0.013523,0.002678,0.000431,0.000353
22130000,0.0324,0.013523,0.002678,0.000431,0.000235
22131000,0.0324,0.013523,0.002678,0.000431,0.000353
22132000,0.0324,0.013523,0.002678,0.000431,0.000470
22133000,0.0324,0.013523,0.002678,0.000431,0.000353
22134000,0.0324,0.013523,0.002678,0.000431,0.000235
22135000,0.0324,0.013523,0.002678,0.000431,0.000353
22136000,0.0324,0.013523,0.002678,0.000431,0.000353
22137000,0.0324,0.013523,0.002678,0.000431,0.000235
22138000,0.0324,0.013523,0.002678,0.000431,0.000353
22139000,0.0324,0.013523,0.002678,0.000431,0.000470
22140000,0.0324,0.013523,0.002678,0.000431,0.000353
22141000,0.0324,0.013523,0.002678,0.000431,0.000235
22142000,0.0324,0.013523,0.002678,0.000431,0.000353
22143000,0.0324,0.013523,0.002678,0.000431,0.000353
22144000,0.0324,0.013523,0.002678,0.000431,0.000235
22145000,0.0324,0.013523,0.002678,0.000431,0.000353
22146000,0.0324,0.013523,0.002678,0.000431,0.000470
22147000,0.0324,0.013523,0.002678,0.000431,0.000353
22148000,0.0324,0.013523,0.002678,0.000431,0.000235
22149000,0.0324,0.013523,0.002678,0.000431,0.000353
22150000,0.0324,0.013523,0.002678,0.000431,0.000353
22151000,0.0324,0.013523,0.002678,0.000431,0.000235
22152000,0.0324,0.013523,0.002678,0.000431,0.000353
22153000,0.0324,0.013523,0.002678,0.000431,0.000470
22154000,0.0324,0.013523,0.002678,0.000431,0.000353
22155000,0.0324,0.013523,0.002678,0.000431,0.000118
22156000,0.0324,0.013523,0.002678,0.000431,0.000470
22157000,0.0324,0.013523,0.002678,0.000431,0.000353
22158000,0.0324,0.013523,0.002678,0.000431,0.000235
22159000,0.0324,0.013523,0.002678,0.000431,0.000353
22160000,0.0324,0.013523,0.002678,0.000431,0.000470
22161000,0.0324,0.013523,0.002678,0.000431,0.000353
22162000,0.0324,0.013523,0.002678,0.000431,0.000118
22163000,0.0324,0.013523,0.002678,0.000431,0.000470
22164000,0.0324,0.013523,0.002678,0.000431,0.000353
22165000,0.0324,0.013523,0.002678,0.000431,0.000235
22166000,0.0324,0.013523,0.002678,0.000431,0.000353
22167000,0.0324,0.013523,0.002678,0.000431,0.000470
22168000,0.0324,0.013523,0.002678,0.000431,0.000353
22169000,0.0324,0.013523,0.002678,0.000431,0.000118
22170000,0.0324,0.013523,0.002678,0.000431,0.000470
22171000,0.0324,0.013523,0.002678,0.000431,0.000353
22172000,0.0324,0.013523,0.002678,0.000431,0.000235
22173000,0.0324,0.013523,0.002678,0.000431,0.000353
22174000,0.0324,0.013523,0.002678,0.000431,0.000470
22175000,0.0324,0.013523,0.002678,0.000431,0.000235
22176000,0.0324,0.013523,0.002678,0.000431,0.000235
22177000,0.0324,0.013523,0.002678,0.000431,0.000470
22178000,0.0324,0.013523,0.002678,0.000431,0.000353
22179000,0.0324,0.013523,0.002678,0.000431,0.000235
22180000,0.0324,0.013523,0.002678,0.000431,0.000353
22181000,0.0324,0.013523,0.002678,0.000431,0.000470
22182000,0.0324,0.013523,0.002678,0.000431,0.000235
22183000,0.0324,0.013523,0.002678,0.000431,0.000235
22184000,0.0324,0.013523,0.002678,0.000431,0.000470
22185000,0.0324,0.013523,0.002678,0.000431,0.000353
22186000,0.0324,0.013523,0.002678,0.000431,0.000235
22187000,0.0324,0.013523,0.002678,0.000431,0.000353
22188000,0.0324,0.013523,0.002678,0.000431,0.000470
22189000,0.0324,0.013523,0.002678,0.000431,0.000235
22190000,0.0324,0.013523,0.002678,0.000431,0.000235
22191000,0.0324,0.013523,0.002678,0.000431,0.000470
22192000,0.0324,0.013523,0.002678,0.000431,0.000353
22193000,0.0324,0.013523,0.002678,0.000431,0.000235
22194000,0.0324,0.013523,0.002678,0.000431,0.000353
22195000,0.0324,0.013523,0.002678,0.000431,0.000470
22196000,0.0324,0.013523,0.002678,0.000431,0.000235
22197000,0.0324,0.013523,0.002678,0.000431,0.000235
22198000,0.0324,0.013523,0.002678,0.000431,0.000470
22199000,0.0324,0.013523,0.002678,0.000431,0.000353
22200000,0.0324,0.013523,0.002678,0.000431,0.000235
22201000,0.0324,0.013523,0.002678,0.000431,0.000353
22202000,0.0324,0.013523,0.002678,0.000431,0.000470
22203000,0.0324,0.013523,0.002678,0.000431,0.000235
22204000,0.0324,0.013523,0.002678,0.000431,0.000235
22205000,0.0324,0.013523,0.002678,0.000431,0.000470
22206000,0.0324,0.013523,0.002678,0.000431,0.000353
22207000,0.0324,0.013523,0.002678,0.000431,0.000235
22208000,0.0324,0.013523,0.002678,0.000431,0.000353
22209000,0.0324,0.013523,0.002678,0.000431,0.000470
22210000,0.0324,0.013523,0.002678,0.000431,0.000235
22211000,0.0324,0.013523,0.002678,0.000431,0.000235
22212000,0.0324,0.013523,0.002678,0.000431,0.000470
22213000,0.0324,0.013523,0.002678,0.000431,0.000353
22214000,0.0324,0.013523,0.002678,0.000431,0.000235
22215000,0.0324,0.013523,0.002678,0.000431,0.000353
22216000,0.0324,0.013523,0.002678,0.000431,0.000470
22217000,0.0324,0.013523,0.002678,0.000431,0.000118
22218000,0.0324,0.013523,0.002678,0.000431,0.000353
22219000,0.0324,0.013523,0.002678,0.000431,0.000470
22220000,0.0324,0.013523,0.002678,0.000431,0.000353
22221000,0.0324,0.013523,0.002678,0.000431,0.000235
22222000,0.0324,0.013523,0.002678,0.000431,0.000353
22223000,0.0324,0.013523,0.002678,0.000431,0.000470
22224000,0.0324,0.013523,0.002678,0.000431,0.000118
22225000,0.0324,0.013523,0.002678,0.000431,0.000353
22226000,0.0324,0.013523,0.002678,0.000431,0.000470
22227000,0.0324,0.013523,0.002678,0.000431,0.000353
22228000,0.0324,0.013523,0.002678,0.000431,0.000235
22229000,0.0324,0.013523,0.002678,0.000431,0.000353
22230000,0.0324,0.013523,0.002678,0.000431,0.000470
22231000,0.0324,0.013523,0.002678,0.000431,0.000118
22232000,0.0324,0.013523,0.002678,0.000431,0.000353
22233000,0.0324,0.013523,0.002678,0.000431,0.000470
22234000,0.0324,0.013523,0.002678,0.000431,0.000353
22235000,0.0324,0.013523,0.002678,0.000431,0.000235
22236000,0.0324,0.013523,0.002678,0.000431,0.000353
22237000,0.0324,0.013523,0.002678,0.000431,0.000470
22238000,0.0324,0.013523,0.002678,0.000431,0.000118
22239000,0.0324,0.013523,0.002678,0.000431,0.000353
22240000,0.0324,0.013523,0.002678,0.000431,0.000470
22241000,0.0324,0.013523,0.002678,0.000431,0.000353
22242000,0.0324,0.013523,0.002678,0.000431,0.000235
22243000,0.0324,0.013523,0.002678,0.000431,0.000353
22244000,0.0324,0.013523,0.002678,0.000431,0.000353
22245000,0.0324,0.013523,0.002678,0.000431,0.000235
22246000,0.0324,0.013523,0.002678,0.000431,0.000353
22247000,0.0324,0.013523,0.002678,0.000431,0.000470
22248000,0.0324,0.013523,0.002678,0.000431,0.000353
22249000,0.0324,0.013523,0.002678,0.000431,0.000235
22250000,0.0324,0.013523,0.002678,0.000431,0.000353
22251000,0.0324,0.013523,0.002678,0.000431,0.000353
22252000,0.0324,0.013523,0.002678,0.000431,0.000235
22253000,0.0324,0.013523,0.002678,0.000431,0.000353
22254000,0.0324,0.013523,0.002678,0.000431,0.000470
22255000,0.0324,0.013523,0.002678,0.000431,0.000353
22256000,0.0324,0.013523,0.002678,0.000431,0.000235
22257000,0.0324,0.013523,0.002678,0.000431,0.000353
22258000,0.0324,0.013523,0.002678,0.000431,0.000353
22259000,0.0324,0.013523,0.002678,0.000431,0.000235
22260000,0.0324,0.013523,0.002678,0.000431,0.000353
22261000,0.0324,0.013523,0.002678,0.000431,0.000470
22262000,0.0324,0.013523,0.002678,0.000431,0.000353
22263000,0.0324,0.013523,0.002678,0.000431,0.000235
22264000,0.0324,0.013523,0.002678,0.000431,0.000353
22265000,0.0324,0.013523,0.002678,0.000431,0.000353
22266000,0.0324,0.013523,0.002678,0.000431,0.000235
22267000,0.0324,0.013523,0.002678,0.000431,0.000353
22268000,0.0324,0.013523,0.002678,0.000431,0.000470
22269000,0.0324,0.013523,0.002678,0.000431,0.000353
22270000,0.0324,0.013523,0.002678,0.000431,0.000235
22271000,0.0324,0.013523,0.002678,0.000431,0.000353
22272000,0.0324,0.013523,0.002678,0.000431,0.000353
22273000,0.0324,0.013523,0.002678,0.000431,0.000235
22274000,0.0324,0.013523,0.002678,0.000431,0.000353
22275000,0.0324,0.013523,0.002678,0.000431,0.000470
22276000,0.0324,0.013523,0.002678,0.000431,0.000353
22277000,0.0324,0.013523,0.002678,0.000431,0.000235
22278000,0.0324,0.013523,0.002678,0.000431,0.000353
22279000,0.0324,0.013523,0.002678,0.000431,0.000353
22280000,0.0324,0.013523,0.002678,0.000431,0.000235
22281000,0.0324,0.013523,0.002678,0.000431,0.000353
22282000,0.0324,0.013523,0.002678,0.000431,0.000470
22283000,0.0324,0.013523,0.002678,0.000431,0.000353
22284000,0.0324,0.013523,0.002678,0.000431,0.000235
22285000,0.0324,0.013523,0.002678,0.000431,0.000353
22286000,0.0324,0.013523,0.002678,0.000431,0.000353
22287000,0.0324,0.013523,0.002678,0.000431,0.000235
22288000,0.0324,0.013523,0.002678,0.000431,0.000353
22289000,0.0324,0.013523,0.002678,0.000431,0.000470
22290000,0.0324,0.013523,0.002678,0.000431,0.000353
22291000,0.0324,0.013523,0.002678,0.000431,0.000235
22292000,0.0324,0.013523,0.002678,0.000431,0.000353
22293000,0.0324,0.013523,0.002678,0.000431,0.000353
22294000,0.0324,0.013523,0.002678,0.000431,0.000235
22295000,0.0324,0.013523,0.002678,0.000431,0.000353
22296000,0.0324,0.013523,0.002678,0.000431,0.000470
22297000,0.0324,0.013523,0.002678,0.000431,0.000353
22298000,0.0324,0.013523,0.002678,0.000431,0.000118
22299000,0.0324,0.013523,0.002678,0.000431,0.000470
22300000,0.0324,0.013523,0.002678,0.000431,0.000353
22301000,0.0324,0.013523,0.002678,0.000431,0.000235
22302000,0.0324,0.013523,0.002678,0.000431,0.000353
22303000,0.0324,0.013523,0.002678,0.000431,0.000470
22304000,0.0324,0.013523,0.002678,0.000431,0.000353
22305000,0.0324,0.013523,0.002678,0.000431,0.000118
22306000,0.0324,0.013523,0.002678,0.000431,0.000470
22307000,0.0324,0.013523,0.002678,0.000431,0.000353
22308000,0.0324,0.013523,0.002678,0.000431,0.000235
22309000,0.0324,0.013523,0.002678,0.000431,0.000353
22310000,0.0324,0.013523,0.002678,0.000431,0.000470
22311000,0.0324,0.013523,0.002678,0.000431,0.000353
22312000,0.0324,0.013523,0.002678,0.000431,0.000118
22313000,0.0324,0.013523,0.002678,0.000431,0.000470
22314000,0.0324,0.013523,0.002678,0.000431,0.000353
22315000,0.0324,0.013523,0.002678,0.000431,0.000235
22316000,0.0324,0.013523,0.002678,0.000431,0.000353
22317000,0.0324,0.013523,0.002678,0.000431,0.000470
22318000,0.0324,0.013523,0.002678,0.000431,0.000235
22319000,0.0324,0.013523,0.002678,0.000431,0.000235
22320000,0.0324,0.013523,0.002678,0.000431,0.000470
22321000,0.0324,0.013523,0.002678,0.000431,0.000353
22322000,0.0324,0.013523,0.002678,0.000431,0.000235
22323000,0.0324,0.013523,0.002678,0.000431,0.000353
22324000,0.0324,0.013523,0.002678,0.000431,0.000470
22325000,0.0324,0.013523,0.002678,0.000431,0.000235
22326000,0.0324,0.013523,0.002678,0.000431,0.000235
22327000,0.0324,0.013523,0.002678,0.000431,0.000470
22328000,0.0324,0.013523,0.002678,0.000431,0.000353
22329000,0.0324,0.013523,0.002678,0.000431,0.000235
22330000,0.0324,0.013523,0.002678,0.000431,0.000353
22331000,0.0324,0.013523,0.002678,0.000431,0.000470
22332000,0.0324,0.013523,0.002678,0.000431,0.000235
22333000,0.0324,0.013523,0.002678,0.000431,0.000235
22334000,0.0324,0.013523,0.002678,0.000431,0.000470
22335000,0.0324,0.013523,0.002678,0.000431,0.000353
22336000,0.0324,0.013523,0.002678,0.000431,0.000235
22337000,0.0324,0.013523,0.002678,0.000431,0.000353
22338000,0.0324,0.013523,0.002678,0.000431,0.000470
22339000,0.0324,0.013523,0.002678,0.000431,0.000235
22340000,0.0324,0.013523,0.002678,0.000431,0.000235
22341000,0.0324,0.013523,0.002678,0.000431,0.000470
22342000,0.0324,0.013523,0.002678,0.000431,0.000353
22343000,0.0324,0.013523,0.002678,0.000431,0.000235
22344000,0.0324,0.013523,0.002678,0.000431,0.000353
22345000,0.0324,0.013523,0.002678,0.000431,0.000470
22346000,0.0324,0.013523,0.002678,0.000431,0.000235
22347000,0.0324,0.013523,0.002678,0.000431,0.000235
22348000,0.0324,0.013523,0.002678,0.000431,0.000470
22349000,0.0324,0.013523,0.002678,0.000431,0.000353
22350000,0.0324,0.013523,0.002678,0.000431,0.000235
22351000,0.0324,0.013523,0.002678,0.000431,0.000353
22352000,0.0324,0.013523,0.002678,0.000431,0.000470
22353000,0.0324,0.013523,0.002678,0.000431,0.000235
22354000,0.0324,0.013523,0.002678,0.000431,0.000235
22355000,0.0324,0.013523,0.002678,0.000431,0.000470
22356000,0.0324,0.013523,0.002678,0.000431,0.000353
22357000,0.0324,0.013523,0.002678,0.000431,0.000235
22358000,0.0324,0.013523,0.002678,0.000431,0.000353
22359000,0.0324,0.013523,0.002678,0.000431,0.000470
22360000,0.0324,0.013523,0.002678,0.000431,0.000118
22361000,0.0324,0.013523,0.002678,0.000431,0.000353
22362000,0.0324,0.013523,0.002678,0.000431,0.000470
22363000,0.0324,0.013523,0.002678,0.000431,0.000353
22364000,0.0324,0.013523,0.002678,0.000431,0.000235
22365000,0.0324,0.013523,0.002678,0.000431,0.000353
22366000,0.0324,0.013523,0.002678,0.000431,0.000470
22367000,0.0324,0.013523,0.002678,0.000431,0.000118
22368000,0.0324,0.013523,0.002678,0.000431,0.000353
22369000,0.0324,0.013523,0.002678,0.000431,0.000470
22370000,0.0324,0.013523,0.002678,0.000431,0.000353
22371000,0.0324,0.013523,0.002678,0.000431,0.000235
22372000,0.0324,0.013523,0.002678,0.000431,0.000353
22373000,0.0324,0.013523,0.002678,0.000431,0.000470
22374000,0.0324,0.013523,0.002678,0.000431,0.000118
22375000,0.0324,0.013523,0.002678,0.000431,0.000353
22376000,0.0324,0.013523,0.002678,0.000431,0.000470
22377000,0.0324,0.013523,0.002678,0.000431,0.000353
22378000,0.0324,0.013523,0.002678,0.000431,0.000235
22379000,0.0324,0.013523,0.002678,0.000431,0.000353
22380000,0.0324,0.013523,0.002678,0.000431,0.000353
22381000,0.0324,0.013523,0.002678,0.000431,0.000235
22382000,0.0324,0.013523,0.002678,0.000431,0.000353
22383000,0.0324,0.013523,0.002678,0.000431,0.000470
22384000,0.0324,0.013523,0.002678,0.000431,0.000353
22385000,0.0324,0.013523,0.002678,0.000431,0.000235
22386000,0.0324,0.013523,0.002678,0.000431,0.000353
22387000,0.0324,0.013523,0.002678,0.000431,0.000353
22388000,0.0324,0.013523,0.002678,0.000431,0.000235
22389000,0.0324,0.013523,0.002678,0.000431,0.000353
22390000,0.0324,0.013523,0.002678,0.000431,0.000470
22391000,0.0324,0.013523,0.002678,0.000431,0.000353
22392000,0.0324,0.013523,0.002678,0.000431,0.000235
22393000,0.0324,0.013523,0.002678,0.000431,0.000353
22394000,0.0324,0.013523,0.002678,0.000431,0.000353
22395000,0.0324,0.013523,0.002678,0.000431,0.000235
22396000,0.0324,0.013523,0.002678,0.000431,0.000353
22397000,0.0324,0.013523,0.002678,0.000431,0.000470
22398000,0.0324,0.013523,0.002678,0.000431,0.000353
22399000,0.0324,0.013523,0.002678,0.000431,0.000235
22400000,0.0324,0.013523,0.002678,0.000431,0.000353
22401000,0.0324,0.013523,0.002678,0.000431,0.000353
22402000,0.0324,0.013523,0.002678,0.000431,0.000235
22403000,0.0324,0.013523,0.002678,0.000431,0.000353
22404000,0.0324,0.013523,0.002678,0.000431,0.000470
22405000,0.0324,0.013523,0.002678,0.000431,0.000353
22406000,0.0324,0.013523,0.002678,0.000431,0.000235
22407000,0.0324,0.013523,0.002678,0.000431,0.000353
22408000,0.0324,0.013523,0.002678,0.000431,0.000353
22409000,0.0324,0.013523,0.002678,0.000431,0.000235
22410000,0.0324,0.013523,0.002678,0.000431,0.000353
22411000,0.0324,0.013523,0.002678,0.000431,0.000470
22412000,0.0324,0.013523,0.002678,0.000431,0.000353
22413000,0.0324,0.013523,0.002678,0.000431,0.000235
22414000,0.0324,0.013523,0.002678,0.000431,0.000353
22415000,0.0324,0.013523,0.002678,0.000431,0.000353
22416000,0.0324,0.013523,0.002678,0.000431,0.000235
22417000,0.0324,0.013523,0.002678,0.000431,0.000353
22418000,0.0324,0.013523,0.002678,0.000431,0.000470
22419000,0.0324,0.013523,0.002678,0.000431,0.000353
22420000,0.0324,0.013523,0.002678,0.000431,0.000235
22421000,0.0324,0.013523,0.002678,0.000431,0.000353
22422000,0.0324,0.013523,0.002678,0.000431,0.000353
22423000,0.0324,0.013523,0.002678,0.000431,0.000235
22424000,0.0324,0.013523,0.002678,0.000431,0.000353
22425000,0.0324,0.013523,0.002678,0.000431,0.000470
22426000,0.0324,0.013523,0.002678,0.000431,0.000353
22427000,0.0324,0.013523,0.002678,0.000431,0.000235
22428000,0.0324,0.013523,0.002678,0.000431,0.000353
22429000,0.0324,0.013523,0.002678,0.000431,0.000353
22430000,0.0324,0.013523,0.002678,0.000431,0.000235
22431000,0.0324,0.013523,0.002678,0.000431,0.000353
22432000,0.0324,0.013523,0.002678,0.000431,0.000470
22433000,0.0324,0.013523,0.002678,0.000431,0.000353
22434000,0.0324,0.013523,0.002678,0.000431,0.000118
22435000,0.0324,0.013523,0.002678,0.000431,0.000470
22436000,0.0324,0.013523,0.002678,0.000431,0.000353
22437000,0.0324,0.013523,0.002678,0.000431,0.000235
22438000,0.0324,0.013523,0.002678,0.000431,0.000353
22439000,0.0324,0.013523,0.002678,0.000431,0.000470
22440000,0.0324,0.013523,0.002678,0.000431,0.000353
22441000,0.0324,0.013523,0.002678,0.000431,0.000118
22442000,0.0324,0.013523,0.002678,0.000431,0.000470
22443000,0.0324,0.013523,0.002678,0.000431,0.000353
22444000,0.0324,0.013523,0.002678,0.000431,0.000235
22445000,0.0324,0.013523,0.002678,0.000431,0.000353
22446000,0.0324,0.013523,0.002678,0.000431,0.000470
22447000,0.0324,0.013523,0.002678,0.000431,0.000353
22448000,0.0324,0.013523,0.002678,0.000431,0.000118
22449000,0.0324,0.013523,0.002678,0.000431,0.000470
22450000,0.0324,0.013523,0.002678,0.000431,0.000353
22451000,0.0324,0.013523,0.002678,0.000431,0.000235
22452000,0.0324,0.013523,0.002678,0.000431,0.000353
22453000,0.0324,0.013523,0.002678,0.000431,0.000470
22454000,0.0324,0.013523,0.002678,0.000431,0.000353
22455000,0.0324,0.013523,0.002678,0.000431,0.000118
22456000,0.0324,0.013523,0.002678,0.000431,0.000470
22457000,0.0324,0.013523,0.002678,0.000431,0.000353
22458000,0.0324,0.013523,0.002678,0.000431,0.000235
22459000,0.0324,0.013523,0.002678,0.000431,0.000353
22460000,0.0324,0.013523,0.002678,0.000431,0.000470
22461000,0.0324,0.013523,0.002678,0.000431,0.000235
22462000,0.0324,0.013523,0.002678,0.000431,0.000235
22463000,0.0324,0.013523,0.002678,0.000431,0.000470
22464000,0.0324,0.013523,0.002678,0.000431,0.000353
22465000,0.0324,0.013523,0.002678,0.000431,0.000235
22466000,0.0324,0.013523,0.002678,0.000431,0.000353
22467000,0.0324,0.013523,0.002678,0.000431,0.000470
22468000,0.0324,0.013523,0.002678,0.000431,0.000235
22469000,0.0324,0.013523,0.002678,0.000431,0.000235
22470000,0.0324,0.013523,0.002678,0.000431,0.000470
22471000,0.0324,0.013523,0.002678,0.000431,0.000353
22472000,0.0324,0.013523,0.002678,0.000431,0.000235
22473000,0.0324,0.013523,0.002678,0.000431,0.000353
22474000,0.0324,0.013523,0.002678,0.000431,0.000470
22475000,0.0324,0.013523,0.002678,0.000431,0.000235
22476000,0.0324,0.013523,0.002678,0.000431,0.000235
22477000,0.0324,0.013523,0.002678,0.000431,0.000470
22478000,0.0324,0.013523,0.002678,0.000431,0.000353
22479000,0.0324,0.013523,0.002678,0.000431,0.000235
22480000,0.0324,0.013523,0.002678,0.000431,0.000353
22481000,0.0324,0.013523,0.002678,0.000431,0.000470
22482000,0.0324,0.013523,0.002678,0.000431,0.000235
22483000,0.0324,0.013523,0.002678,0.000431,0.000235
22484000,0.0324,0.013523,0.002678,0.000431,0.000470
22485000,0.0324,0.013523,0.002678,0.000431,0.000353
22486000,0.0324,0.013523,0.002678,0.000431,0.000235
22487000,0.0324,0.013523,0.002678,0.000431,0.000353
22488000,0.0324,0.013523,0.002678,0.000431,0.000470
22489000,0.0324,0.013523,0.002678,0.000431,0.000235
22490000,0.0324,0.013523,0.002678,0.000431,0.000235
22491000,0.0324,0.013523,0.002678,0.000431,0.000470
22492000,0.0324,0.013523,0.002678,0.000431,0.000353
22493000,0.0324,0.013523,0.002678,0.000431,0.000235
22494000,0.0324,0.013523,0.002678,0.000431,0.000353
22495000,0.0324,0.013523,0.002678,0.000431,0.000470
22496000,0.0324,0.013523,0.002678,0.000431,0.000235
22497000,0.0324,0.013523,0.002678,0.000431,0.000235
22498000,0.0324,0.013523,0.002678,0.000431,0.000470
22499000,0.0324,0.013523,0.002678,0.000431,0.000353
22500000,0.0324,0.013523,0.002678,0.000431,0.000235
22501000,0.0324,0.013523,0.002678,0.000431,0.000353
22502000,0.0324,0.013523,0.002678,0.000431,0.000470
22503000,0.0324,0.013523,0.002678,0.000431,0.000118
22504000,0.0324,0.013523,0.002678,0.000431,0.000353
22505000,0.0324,0.013523,0.002678,0.000431,0.000470
22506000,0.0324,0.013523,0.002678,0.000431,0.000353
22507000,0.0324,0.013523,0.002678,0.000431,0.000235
22508000,0.0324,0.013523,0.002678,0.000431,0.000353
22509000,0.0324,0.013523,0.002678,0.000431,0.000470
22510000,0.0324,0.013523,0.002678,0.000431,0.000118
22511000,0.0324,0.013523,0.002678,0.000431,0.000353
22512000,0.0324,0.013523,0.002678,0.000431,0.000470
22513000,0.0324,0.013523,0.002678,0.000431,0.000353
22514000,0.0324,0.013523,0.002678,0.000431,0.000235
22515000,0.0324,0.013523,0.002678,0.000431,0.000353
22516000,0.0324,0.013523,0.002678,0.000431,0.000470
22517000,0.0324,0.013523,0.002678,0.000431,0.000118
22518000,0.0324,0.013523,0.002678,0.000431,0.000353
22519000,0.0324,0.013523,0.002678,0.000431,0.000470
22520000,0.0324,0.013523,0.002678,0.000431,0.000353
22521000,0.0324,0.013523,0.002678,0.000431,0.000235
22522000,0.0324,0.013523,0.002678,0.000431,0.000353
22523000,0.0324,0.013523,0.002678,0.000431,0.000353
22524000,0.0324,0.013523,0.002678,0.000431,0.000235
22525000,0.0324,0.013523,0.002678,0.000431,0.000353
22526000,0.0324,0.013523,0.002678,0.000431,0.000470
22527000,0.0324,0.013523,0.002678,0.000431,0.000353
22528000,0.0324,0.013523,0.002678,0.000431,0.000235
22529000,0.0324,0.013523,0.002678,0.000431,0.000353
22530000,0.0324,0.013523,0.002678,0.000431,0.000353
22531000,0.0324,0.013523,0.002678,0.000431,0.000235
22532000,0.0324,0.013523,0.002678,0.000431,0.000353
22533000,0.0324,0.013523,0.002678,0.000431,0.000470
22534000,0.0324,0.013523,0.002678,0.000431,0.000353
22535000,0.0324,0.013523,0.002678,0.000431,0.000235
22536000,0.0324,0.013523,0.002678,0.000431,0.000353
22537000,0.0324,0.013523,0.002678,0.000431,0.000353
22538000,0.0324,0.013523,0.002678,0.000431,0.000235
22539000,0.0324,0.013523,0.002678,0.000431,0.000353
22540000,0.0324,0.013523,0.002678,0.000431,0.000470
22541000,0.0324,0.013523,0.002678,0.000431,0.000353
22542000,0.0324,0.013523,0.002678,0.000431,0.000235
22543000,0.0324,0.013523,0.002678,0.000431,0.000353
22544000,0.0324,0.013523,0.002678,0.000431,0.000353
22545000,0.0324,0.013523,0.002678,0.000431,0.000235
22546000,0.0324,0.013523,0.002678,0.000431,0.000353
22547000,0.0324,0.013523,0.002678,0.000431,0.000470
22548000,0.0324,0.013523,0.002678,0.000431,0.000353
22549000,0.0324,0.013523,0.002678,0.000431,0.000235
22550000,0.0324,0.013523,0.002678,0.000431,0.000353
22551000,0.0324,0.013523,0.002678,0.000431,0.000353
22552000,0.0324,0.013523,0.002678,0.000431,0.000235
22553000,0.0324,0.013523,0.002678,0.000431,0.000353
22554000,0.0324,0.013523,0.002678,0.000431,0.000470
22555000,0.0324,0.013523,0.002678,0.000431,0.000353
22556000,0.0324,0.013523,0.002678,0.000431,0.000235
22557000,0.0324,0.013523,0.002678,0.000431,0.000353
22558000,0.0324,0.013523,0.002678,0.000431,0.000353
22559000,0.0324,0.013523,0.002678,0.000431,0.000235
22560000,0.0324,0.013523,0.002678,0.000431,0.000353
22561000,0.0324,0.013523,0.002678,0.000431,0.000470
22562000,0.0324,0.013523,0.002678,0.000431,0.000353
22563000,0.0324,0.013523,0.002678,0.000431,0.000235
22564000,0.0324,0.013523,0.002678,0.000431,0.000353
22565000,0.0324,0.013523,0.002678,0.000431,0.000353
22566000,0.0324,0.013523,0.002678,0.000431,0.000235
22567000,0.0324,0.013523,0.002678,0.000431,0.000353
22568000,0.0324,0.013523,0.002678,0.000431,0.000470
22569000,0.0324,0.013523,0.002678,0.000431,0.000353
22570000,0.0324,0.013523,0.002678,0.000431,0.000235
22571000,0.0324,0.013523,0.002678,0.000431,0.000353
22572000,0.0324,0.013523,0.002678,0.000431,0.000353
22573000,0.0324,0.013523,0.002678,0.000431,0.000235
22574000,0.0324,0.013523,0.002678,0.000431,0.000353
22575000,0.0324,0.013523,0.002678,0.000431,0.000470
22576000,0.0324,0.013523,0.002678,0.000431,0.000353
22577000,0.0324,0.013523,0.002678,0.000431,0.000118
22578000,0.0324,0.013523,0.002678,0.000431,0.000470
22579000,0.0324,0.013523,0.002678,0.000431,0.000353
22580000,0.0324,0.013523,0.002678,0.000431,0.000235
22581000,0.0324,0.013523,0.002678,0.000431,0.000353
22582000,0.0324,0.013523,0.002678,0.000431,0.000470
22583000,0.0324,0.013523,0.002678,0.000431,0.000353
22584000,0.0324,0.013523,0.002678,0.000431,0.000118
22585000,0.0324,0.013523,0.002678,0.000431,0.000470
22586000,0.0324,0.013523,0.002678,0.000431,0.000353
22587000,0.0324,0.013523,0.002678,0.000431,0.000235
22588000,0.0324,0.013523,0.002678,0.000431,0.000353
22589000,0.0324,0.013523,0.002678,0.000431,0.000470
22590000,0.0324,0.013523,0.002678,0.000431,0.000353
22591000,0.0324,0.013523,0.002678,0.000431,0.000118
22592000,0.0324,0.013523,0.002678,0.000431,0.000470
22593000,0.0324,0.013523,0.002678,0.000431,0.000353
22594000,0.0324,0.013523,0.002678,0.000431,0.000235
22595000,0.0324,0.013523,0.002678,0.000431,0.000353
22596000,0.0324,0.013523,0.002678,0.000431,0.000470
22597000,0.0324,0.013523,0.002678,0.000431,0.000235
22598000,0.0324,0.013523,0.002678,0.000431,0.000235
22599000,0.0324,0.013523,0.002678,0.000431,0.000470
22600000,0.0324,0.013523,0.002678,0.000431,0.000353
22601000,0.0324,0.013523,0.002678,0.000431,0.000235
22602000,0.0324,0.013523,0.002678,0.000431,0.000353
22603000,0.0324,0.013523,0.002678,0.000431,0.000470
22604000,0.0324,0.013523,0.002678,0.000431,0.000235
22605000,0.0324,0.013523,0.002678,0.000431,0.000235
22606000,0.0324,0.013523,0.002678,0.000431,0.000470
22607000,0.0324,0.013523,0.002678,0.000431,0.000353
22608000,0.0324,0.013523,0.002678,0.000431,0.000235
22609000,0.0324,0.013523,0.002678,0.000431,0.000353
22610000,0.0324,0.013523,0.002678,0.000431,0.000470
22611000,0.0324,0.013523,0.002678,0.000431,0.000235
22612000,0.0324,0.013523,0.002678,0.000431,0.000235
22613000,0.0324,0.013523,0.002678,0.000431,0.000470
22614000,0.0324,0.013523,0.002678,0.000431,0.000353
22615000,0.0324,0.013523,0.002678,0.000431,0.000235
22616000,0.0324,0.013523,0.002678,0.000431,0.000353
22617000,0.0324,0.013523,0.002678,0.000431,0.000470
22618000,0.0324,0.013523,0.002678,0.000431,0.000235
22619000,0.0324,0.013523,0.002678,0.000431,0.000235
22620000,0.0324,0.013523,0.002678,0.000431,0.000470
22621000,0.0324,0.013523,0.002678,0.000431,0.000353
22622000,0.0324,0.013523,0.002678,0.000431,0.000235
22623000,0.0324,0.013523,0.002678,0.000431,0.000353
22624000,0.0324,0.013523,0.002678,0.000431,0.000470
22625000,0.0324,0.013523,0.002678,0.000431,0.000235
22626000,0.0324,0.013523,0.002678,0.000431,0.000235
22627000,0.0324,0.013523,0.002678,0.000431,0.000470
22628000,0.0324,0.013523,0.002678,0.000431,0.000353
22629000,0.0324,0.013523,0.002678,0.000431,0.000235
22630000,0.0324,0.013523,0.002678,0.000431,0.000353
22631000,0.0324,0.013523,0.002678,0.000431,0.000470
22632000,0.0324,0.013523,0.002678,0.000431,0.000235
22633000,0.0324,0.013523,0.002678,0.000431,0.000235
22634000,0.0324,0.013523,0.002678,0.000431,0.000470
22635000,0.0324,0.013523,0.002678,0.000431,0.000353
22636000,0.0324,0.013523,0.002678,0.000431,0.000235
22637000,0.0324,0.013523,0.002678,0.000431,0.000353
22638000,0.0324,0.013523,0.002678,0.000431,0.000470
22639000,0.0324,0.013523,0.002678,0.000431,0.000118
22640000,0.0324,0.013523,0.002678,0.000431,0.000353
22641000,0.0324,0.013523,0.002678,0.000431,0.000470
22642000,0.0324,0.013523,0.002678,0.000431,0.000353
22643000,0.0324,0.013523,0.002678,0.000431,0.000235
22644000,0.0324,0.013523,0.002678,0.000431,0.000353
22645000,0.0324,0.013523,0.002678,0.000431,0.000470
22646000,0.0324,0.013523,0.002678,0.000431,0.000118
22647000,0.0324,0.013523,0.002678,0.000431,0.000353
22648000,0.0324,0.013523,0.002678,0.000431,0.000470
22649000,0.0324,0.013523,0.002678,0.000431,0.000353
22650000,0.0324,0.013523,0.002678,0.000431,0.000235
22651000,0.0324,0.013523,0.002678,0.000431,0.000353
22652000,0.0324,0.013523,0.002678,0.000431,0.000470
22653000,0.0324,0.013523,0.002678,0.000431,0.000118
22654000,0.0324,0.013523,0.002678,0.000431,0.000353
22655000,0.0324,0.013523,0.002678,0.000431,0.000470
22656000,0.0324,0.013523,0.002678,0.000431,0.000353
22657000,0.0324,0.013523,0.002678,0.000431,0.000235
22658000,0.0324,0.013523,0.002678,0.000431,0.000353
22659000,0.0324,0.013523,0.002678,0.000431,0.000470
22660000,0.0324,0.013523,0.002678,0.000431,0.000118
22661000,0.0324,0.013523,0.002678,0.000431,0.000353
22662000,0.0324,0.013523,0.002678,0.000431,0.000470
22663000,0.0324,0.013523,0.002678,0.000431,0.000353
22664000,0.0324,0.013523,0.002678,0.000431,0.000235
22665000,0.0324,0.013523,0.002678,0.000431,0.000353
22666000,0.0324,0.013523,0.002678,0.000431,0.000353
22667000,0.0324,0.013523,0.002678,0.000431,0.000235
22668000,0.0324,0.013523,0.002678,0.000431,0.000353
22669000,0.0324,0.013523,0.002678,0.000431,0.000470
22670000,0.0324,0.013523,0.002678,0.000431,0.000353
22671000,0.0324,0.013523,0.002678,0.000431,0.000235
22672000,0.0324,0.013523,0.002678,0.000431,0.000353
22673000,0.0324,0.013523,0.002678,0.000431,0.000353
22674000,0.0324,0.013523,0.002678,0.000431,0.000235
22675000,0.0324,0.013523,0.002678,0.000431,0.000353
22676000,0.0324,0.013523,0.002678,0.000431,0.000470
22677000,0.0324,0.013523,0.002678,0.000431,0.000353
22678000,0.0324,0.013523,0.002678,0.000431,0.000235
22679000,0.0324,0.013523,0.002678,0.000431,0.000353
22680000,0.0324,0.013523,0.002678,0.000431,0.000353
22681000,0.0324,0.013523,0.002678,0.000431,0.000235
22682000,0.0324,0.013523,0.002678,0.000431,0.000353
22683000,0.0324,0.013523,0.002678,0.000431,0.000470
22684000,0.0324,0.013523,0.002678,0.000431,0.000353
22685000,0.0324,0.013523,0.002678,0.000431,0.000235
22686000,0.0324,0.013523,0.002678,0.000431,0.000353
22687000,0.0324,0.013523,0.002678,0.000431,0.000353
22688000,0.0324,0.013523,0.002678,0.000431,0.000235
22689000,0.0324,0.013523,0.002678,0.000431,0.000353
22690000,0.0324,0.013523,0.002678,0.000431,0.000470
22691000,0.0324,0.013523,0.002678,0.000431,0.000353
22692000,0.0324,0.013523,0.002678,0.000431,0.000235
22693000,0.0324,0.013523,0.002678,0.000431,0.000353
22694000,0.0324,0.013523,0.002678,0.000431,0.000353
22695000,0.0324,0.013523,0.002678,0.000431,0.000235
22696000,0.0324,0.013523,0.002678,0.000431,0.000353
22697000,0.0324,0.013523,0.002678,0.000431,0.000470
22698000,0.0324,0.013523,0.002678,0.000431,0.000353
22699000,0.0324,0.013523,0.002678,0.000431,0.000235
22700000,0.0324,0.013523,0.002678,0.000431,0.000353
22701000,0.0324,0.013523,0.002678,0.000431,0.000353
22702000,0.0324,0.013523,0.002678,0.000431,0.000235
22703000,0.0324,0.013523,0.002678,0.000431,0.000353
22704000,0.0324,0.013523,0.002678,0.000431,0.000470
22705000,0.0324,0.013523,0.002678,0.000431,0.000353
22706000,0.0324,0.013523,0.002678,0.000431,0.000235
22707000,0.0324,0.013523,0.002678,0.000431,0.000353
22708000,0.0324,0.013523,0.002678,0.000431,0.000353
22709000,0.0324,0.013523,0.002678,0.000431,0.000235
22710000,0.0324,0.013523,0.002678,0.000431,0.000353
22711000,0.0324,0.013523,0.002678,0.000431,0.000470
22712000,0.0324,0.013523,0.002678,0.000431,0.000353
22713000,0.0324,0.013523,0.002678,0.000431,0.000118
22714000,0.0324,0.013523,0.002678,0.000431,0.000470
22715000,0.0324,0.013523,0.002678,0.000431,0.000353
22716000,0.0324,0.013523,0.002678,0.000431,0.000235
22717000,0.0324,0.013523,0.002678,0.000431,0.000353
22718000,0.0324,0.013523,0.002678,0.000431,0.000470
22719000,0.0324,0.013523,0.002678,0.000431,0.000353
22720000,0.0324,0.013523,0.002678,0.000431,0.000118
22721000,0.0324,0.013523,0.002678,0.000431,0.000470
22722000,0.0324,0.013523,0.002678,0.000431,0.000353
22723000,0.0324,0.013523,0.002678,0.000431,0.000235
22724000,0.0324,0.013523,0.002678,0.000431,0.000353
22725000,0.0324,0.013523,0.002678,0.000431,0.000470
22726000,0.0324,0.013523,0.002678,0.000431,0.000353
22727000,0.0324,0.013523,0.002678,0.000431,0.000118
22728000,0.0324,0.013523,0.002678,0.000431,0.000470
22729000,0.0324,0.013523,0.002678,0.000431,0.000353
22730000,0.0324,0.013523,0.002678,0.000431,0.000235
22731000,0.0324,0.013523,0.002678,0.000431,0.000353
22732000,0.0324,0.013523,0.002678,0.000431,0.000470
22733000,0.0324,0.013523,0.002678,0.000431,0.000353
22734000,0.0324,0.013523,0.002678,0.000431,0.000118
22735000,0.0324,0.013523,0.002678,0.000431,0.000470
22736000,0.0324,0.013523,0.002678,0.000431,0.000353
22737000,0.0324,0.013523,0.002678,0.000431,0.000235
22738000,0.0324,0.013523,0.002678,0.000431,0.000353
22739000,0.0324,0.013523,0.002678,0.000431,0.000470
22740000,0.0324,0.013523,0.002678,0.000431,0.000235
22741000,0.0324,0.013523,0.002678,0.000431,0.000235
22742000,0.0324,0.013523,0.002678,0.000431,0.000470
22743000,0.0324,0.013523,0.002678,0.000431,0.000353
22744000,0.0324,0.013523,0.002678,0.000431,0.000235
22745000,0.0324,0.013523,0.002678,0.000431,0.000353
22746000,0.0324,0.013523,0.002678,0.000431,0.000470
22747000,0.0324,0.013523,0.002678,0.000431,0.000235
22748000,0.0324,0.013523,0.002678,0.000431,0.000235
22749000,0.0324,0.013523,0.002678,0.000431,0.000470
22750000,0.0324,0.013523,0.002678,0.000431,0.000353
22751000,0.0324,0.013523,0.002678,0.000431,0.000235
22752000,0.0324,0.013523,0.002678,0.000431,0.000353
22753000,0.0324,0.013523,0.002678,0.000431,0.000470
22754000,0.0324,0.013523,0.002678,0.000431,0.000235
22755000,0.0324,0.013523,0.002678,0.000431,0.000235
22756000,0.0324,0.013523,0.002678,0.000431,0.000470
22757000,0.0324,0.013523,0.002678,0.000431,0.000353
22758000,0.0324,0.013523,0.002678,0.000431,0.000235
22759000,0.0324,0.013523,0.002678,0.000431,0.000353
22760000,0.0324,0.013523,0.002678,0.000431,0.000470
22761000,0.0324,0.013523,0.002678,0.000431,0.000235
22762000,0.0324,0.013523,0.002678,0.000431,0.000235
22763000,0.0324,0.013523,0.002678,0.000431,0.000470
22764000,0.0324,0.013523,0.002678,0.000431,0.000353
22765000,0.0324,0.013523,0.002678,0.000431,0.000235
22766000,0.0324,0.013523,0.002678,0.000431,0.000353
22767000,0.0324,0.013523,0.002678,0.000431,0.000470
22768000,0.0324,0.013523,0.002678,0.000431,0.000235
22769000,0.0324,0.013523,0.002678,0.000431,0.000235
22770000,0.0324,0.013523,0.002678,0.000431,0.000470
22771000,0.0324,0.013523,0.002678,0.000431,0.000353
22772000,0.0324,0.013523,0.002678,0.000431,0.000235
22773000,0.0324,0.013523,0.002678,0.000431,0.000353
22774000,0.0324,0.013523,0.002678,0.000431,0.000470
22775000,0.0324,0.013523,0.002678,0.000431,0.000235
22776000,0.0324,0.013523,0.002678,0.000431,0.000235
22777000,0.0324,0.013523,0.002678,0.000431,0.000470
22778000,0.0324,0.013523,0.002678,0.000431,0.000353
22779000,0.0324,0.013523,0.002678,0.000431,0.000235
22780000,0.0324,0.013523,0.002678,0.000431,0.000353
22781000,0.0324,0.013523,0.002678,0.000431,0.000470
22782000,0.0324,0.013523,0.002678,0.000431,0.000118
22783000,0.0324,0.013523,0.002678,0.000431,0.000353
22784000,0.0324,0.013523,0.002678,0.000431,0.000470
22785000,0.0324,0.013523,0.002678,0.000431,0.000353
22786000,0.0324,0.013523,0.002678,0.000431,0.000235
22787000,0.0324,0.013523,0.002678,0.000431,0.000353
22788000,0.0324,0.013523,0.002678,0.000431,0.000470
22789000,0.0324,0.013523,0.002678,0.000431,0.000118
22790000,0.0324,0.013523,0.002678,0.000431,0.000353
22791000,0.0324,0.013523,0.002678,0.000431,0.000470
22792000,0.0324,0.013523,0.002678,0.000431,0.000353
22793000,0.0324,0.013523,0.002678,0.000431,0.000235
22794000,0.0324,0.013523,0.002678,0.000431,0.000353
22795000,0.0324,0.013523,0.002678,0.000431,0.000470
22796000,0.0324,0.013523,0.002678,0.000431,0.000118
22797000,0.0324,0.013523,0.002678,0.000431,0.000353
22798000,0.0324,0.013523,0.002678,0.000431,0.000470
22799000,0.0324,0.013523,0.002678,0.000431,0.000353
22800000,0.0324,0.013523,0.002678,0.000431,0.000235
22801000,0.0324,0.013523,0.002678,0.000431,0.000353
22802000,0.0324,0.013523,0.002678,0.000431,0.000353
22803000,0.0324,0.013523,0.002678,0.000431,0.000235
22804000,0.0324,0.013523,0.002678,0.000431,0.000353
22805000,0.0324,0.013523,0.002678,0.000431,0.000470
22806000,0.0324,0.013523,0.002678,0.000431,0.000353
22807000,0.0324,0.013523,0.002678,0.000431,0.000235
22808000,0.0324,0.013523,0.002678,0.000431,0.000353
22809000,0.0324,0.013523,0.002678,0.000431,0.000353
22810000,0.0324,0.013523,0.002678,0.000431,0.000235
22811000,0.0324,0.013523,0.002678,0.000431,0.000353
22812000,0.0324,0.013523,0.002678,0.000431,0.000470
22813000,0.0324,0.013523,0.002678,0.000431,0.000353
22814000,0.0324,0.013523,0.002678,0.000431,0.000235
22815000,0.0324,0.013523,0.002678,0.000431,0.000353
22816000,0.0324,0.013523,0.002678,0.000431,0.000353
22817000,0.0324,0.013523,0.002678,0.000431,0.000235
22818000,0.0324,0.013523,0.002678,0.000431,0.000353
22819000,0.0324,0.013523,0.002678,0.000431,0.000470
22820000,0.0324,0.013523,0.002678,0.000431,0.000353
22821000,0.0324,0.013523,0.002678,0.000431,0.000235
22822000,0.0324,0.013523,0.002678,0.000431,0.000353
22823000,0.0324,0.013523,0.002678,0.000431,0.000353
22824000,0.0324,0.013523,0.002678,0.000431,0.000235
22825000,0.0324,0.013523,0.002678,0.000431,0.000353
22826000,0.0324,0.013523,0.002678,0.000431,0.000470
22827000,0.0324,0.013523,0.002678,0.000431,0.000353
22828000,0.0324,0.013523,0.002678,0.000431,0.000235
22829000,0.0324,0.013523,0.002678,0.000431,0.000353
22830000,0.0324,0.013523,0.002678,0.000431,0.000353
22831000,0.0324,0.013523,0.002678,0.000431,0.000235
22832000,0.0324,0.013523,0.002678,0.000431,0.000353
22833000,0.0324,0.013523,0.002678,0.000431,0.000470
22834000,0.0324,0.013523,0.002678,0.000431,0.000353
22835000,0.0324,0.013523,0.002678,0.000431,0.000235
22836000,0.0324,0.013523,0.002678,0.000431,0.000353
22837000,0.0324,0.013523,0.002678,0.000431,0.000353
22838000,0.0324,0.013523,0.002678,0.000431,0.000235
22839000,0.0324,0.013523,0.002678,0.000431,0.000353
22840000,0.0324,0.013523,0.002678,0.000431,0.000470
22841000,0.0324,0.013523,0.002678,0.000431,0.000353
22842000,0.0324,0.013523,0.002678,0.000431,0.000235
22843000,0.0324,0.013523,0.002678,0.000431,0.000353
22844000,0.0324,0.013523,0.002678,0.000431,0.000353
22845000,0.0324,0.013523,0.002678,0.000431,0.000235
22846000,0.0324,0.013523,0.002678,0.000431,0.000353
22847000,0.0324,0.013523,0.002678,0.000431,0.000470
22848000,0.0324,0.013523,0.002678,0.000431,0.000353
22849000,0.0324,0.013523,0.002678,0.000431,0.000235
22850000,0.0324,0.013523,0.002678,0.000431,0.000353
22851000,0.0324,0.013523,0.002678,0.000431,0.000353
22852000,0.0324,0.013523,0.002678,0.000431,0.000235
22853000,0.0324,0.013523,0.002678,0.000431,0.000353
22854000,0.0324,0.013523,0.002678,0.000431,0.000470
22855000,0.0324,0.013523,0.002678,0.000431,0.000353
22856000,0.0324,0.013523,0.002678,0.000431,0.000118
22857000,0.0324,0.013523,0.002678,0.000431,0.000470
22858000,0.0324,0.013523,0.002678,0.000431,0.000353
22859000,0.0324,0.013523,0.002678,0.000431,0.000235
22860000,0.0324,0.013523,0.002678,0.000431,0.000353
22861000,0.0324,0.013523,0.002678,0.000431,0.000470
22862000,0.0324,0.013523,0.002678,0.000431,0.000353
22863000,0.0324,0.013523,0.002678,0.000431,0.000118
22864000,0.0324,0.013523,0.002678,0.000431,0.000470
22865000,0.0324,0.013523,0.002678,0.000431,0.000353
22866000,0.0324,0.013523,0.002678,0.000431,0.000235
22867000,0.0324,0.013523,0.002678,0.000431,0.000353
22868000,0.0324,0.013523,0.002678,0.000431,0.000470
22869000,0.0324,0.013523,0.002678,0.000431,0.000353
22870000,0.0324,0.013523,0.002678,0.000431,0.000118
22871000,0.0324,0.013523,0.002678,0.000431,0.000470
22872000,0.0324,0.013523,0.002678,0.000431,0.000353
22873000,0.0324,0.013523,0.002678,0.000431,0.000235
22874000,0.0324,0.013523,0.002678,0.000431,0.000353
22875000,0.0324,0.013523,0.002678,0.000431,0.000470
22876000,0.0324,0.013523,0.002678,0.000431,0.000235
22877000,0.0324,0.013523,0.002678,0.000431,0.000235
22878000,0.0324,0.013523,0.002678,0.000431,0.000470
22879000,0.0324,0.013523,0.002678,0.000431,0.000353
22880000,0.0324,0.013523,0.002678,0.000431,0.000235
22881000,0.0324,0.013523,0.002678,0.000431,0.000353
22882000,0.0324,0.013523,0.002678,0.000431,0.000470
22883000,0.0324,0.013523,0.002678,0.000431,0.000235
22884000,0.0324,0.013523,0.002678,0.000431,0.000235
22885000,0.0324,0.013523,0.002678,0.000431,0.000470
22886000,0.0324,0.013523,0.002678,0.000431,0.000353
22887000,0.0324,0.013523,0.002678,0.000431,0.000235
22888000,0.0324,0.013523,0.002678,0.000431,0.000353
22889000,0.0324,0.013523,0.002678,0.000431,0.000470
22890000,0.0324,0.013523,0.002678,0.000431,0.000235
22891000,0.0324,0.013523,0.002678,0.000431,0.000235
22892000,0.0324,0.013523,0.002678,0.000431,0.000470
22893000,0.0324,0.013523,0.002678,0.000431,0.000353
22894000,0.0324,0.013523,0.002678,0.000431,0.000235
22895000,0.0324,0.013523,0.002678,0.000431,0.000353
22896000,0.0324,0.013523,0.002678,0.000431,0.000470
22897000,0.0324,0.013523,0.002678,0.000431,0.000235
22898000,0.0324,0.013523,0.002678,0.000431,0.000235
22899000,0.0324,0.013523,0.002678,0.000431,0.000470
22900000,0.0324,0.013523,0.002678,0.000431,0.000353
22901000,0.0324,0.013523,0.002678,0.000431,0.000235
22902000,0.0324,0.013523,0.002678,0.000431,0.000353
22903000,0.0324,0.013523,0.002678,0.000431,0.000470
22904000,0.0324,0.013523,0.002678,0.000431,0.000235
22905000,0.0324,0.013523,0.002678,0.000431,0.000235
22906000,0.0324,0.013523,0.002678,0.000431,0.000470
22907000,0.0324,0.013523,0.002678,0.000431,0.000353
22908000,0.0324,0.013523,0.002678,0.000431,0.000235
22909000,0.0324,0.013523,0.002678,0.000431,0.000353
22910000,0.0324,0.013523,0.002678,0.000431,0.000470
22911000,0.0324,0.013523,0.002678,0.000431,0.000235
22912000,0.0324,0.013523,0.002678,0.000431,0.000235
22913000,0.0324,0.013523,0.002678,0.000431,0.000470
22914000,0.0324,0.013523,0.002678,0.000431,0.000353
22915000,0.0324,0.013523,0.002678,0.000431,0.000235
22916000,0.0324,0.013523,0.002678,0.000431,0.000353
22917000,0.0324,0.013523,0.002678,0.000431,0.000470
22918000,0.0324,0.013523,0.002678,0.000431,0.000118
22919000,0.0324,0.013523,0.002678,0.000431,0.000353
22920000,0.0324,0.013523,0.002678,0.000431,0.000470
22921000,0.0324,0.013523,0.002678,0.000431,0.000353
22922000,0.0324,0.013523,0.002678,0.000431,0.000235
22923000,0.0324,0.013523,0.002678,0.000431,0.000353
22924000,0.0324,0.013523,0.002678,0.000431,0.000470
22925000,0.0324,0.013523,0.002678,0.000431,0.000118
22926000,0.0324,0.013523,0.002678,0.000431,0.000353
22927000,0.0324,0.013523,0.002678,0.000431,0.000470
22928000,0.0324,0.013523,0.002678,0.000431,0.000353
22929000,0.0324,0.013523,0.002678,0.000431,0.000235
22930000,0.0324,0.013523,0.002678,0.000431,0.000353
22931000,0.0324,0.013523,0.002678,0.000431,0.000470
22932000,0.0324,0.013523,0.002678,0.000431,0.000118
22933000,0.0324,0.013523,0.002678,0.000431,0.000353
22934000,0.0324,0.013523,0.002678,0.000431,0.000470
22935000,0.0324,0.013523,0.002678,0.000431,0.000353
22936000,0.0324,0.013523,0.002678,0.000431,0.000235
22937000,0.0324,0.013523,0.002678,0.000431,0.000353
22938000,0.0324,0.013523,0.002678,0.000431,0.000470
22939000,0.0324,0.013523,0.002678,0.000431,0.000118
22940000,0.0324,0.013523,0.002678,0.000431,0.000353
22941000,0.0324,0.013523,0.002678,0.000431,0.000470
22942000,0.0324,0.013523,0.002678,0.000431,0.000353
22943000,0.0324,0.013523,0.002678,0.000431,0.000235
22944000,0.0324,0.013523,0.002678,0.000431,0.000353
22945000,0.0324,0.013523,0.002678,0.000431,0.000353
22946000,0.0324,0.013523,0.002678,0.000431,0.000235
22947000,0.0324,0.013523,0.002678,0.000431,0.000353
22948000,0.0324,0.013523,0.002678,0.000431,0.000470
22949000,0.0324,0.013523,0.002678,0.000431,0.000353
22950000,0.0324,0.013523,0.002678,0.000431,0.000235
22951000,0.0324,0.013523,0.002678,0.000431,0.000353
22952000,0.0324,0.013523,0.002678,0.000431,0.000353
22953000,0.0324,0.013523,0.002678,0.000431,0.000235
22954000,0.0324,0.013523,0.002678,0.000431,0.000353
22955000,0.0324,0.013523,0.002678,0.000431,0.000470
22956000,0.0324,0.013523,0.002678,0.000431,0.000353
22957000,0.0324,0.013523,0.002678,0.000431,0.000235
22958000,0.0324,0.013523,0.002678,0.000431,0.000353
22959000,0.0324,0.013523,0.002678,0.000431,0.000353
22960000,0.0324,0.013523,0.002678,0.000431,0.000235
22961000,0.0324,0.013523,0.002678,0.000431,0.000353
22962000,0.0324,0.013523,0.002678,0.000431,0.000470
22963000,0.0324,0.013523,0.002678,0.000431,0.000353
22964000,0.0324,0.013523,0.002678,0.000431,0.000235
22965000,0.0324,0.013523,0.002678,0.000431,0.000353
22966000,0.0324,0.013523,0.002678,0.000431,0.000353
22967000,0.0324,0.013523,0.002678,0.000431,0.000235
22968000,0.0324,0.013523,0.002678,0.000431,0.000353
22969000,0.0324,0.013523,0.002678,0.000431,0.000470
22970000,0.0324,0.013523,0.002678,0.000431,0.000353
22971000,0.0324,0.013523,0.002678,0.000431,0.000235
22972000,0.0324,0.013523,0.002678,0.000431,0.000353
22973000,0.0324,0.013523,0.002678,0.000431,0.000353
22974000,0.0324,0.013523,0.002678,0.000431,0.000235
22975000,0.0324,0.013523,0.002678,0.000431,0.000353
22976000,0.0324,0.013523,0.002678,0.000431,0.000470
22977000,0.0324,0.013523,0.002678,0.000431,0.000353
22978000,0.0324,0.013523,0.002678,0.000431,0.000235
22979000,0.0324,0.013523,0.002678,0.000431,0.000353
22980000,0.0324,0.013523,0.002678,0.000431,0.000353
22981000,0.0324,0.013523,0.002678,0.000431,0.000235
22982000,0.0324,0.013523,0.002678,0.000431,0.000353
22983000,0.0324,0.013523,0.002678,0.000431,0.000470
22984000,0.0324,0.013523,0.002678,0.000431,0.000353
22985000,0.0324,0.013523,0.002678,0.000431,0.000235
22986000,0.0324,0.013523,0.002678,0.000431,0.000353
22987000,0.0324,0.013523,0.002678,0.000431,0.000353
22988000,0.0324,0.013523,0.002678,0.000431,0.000235
22989000,0.0324,0.013523,0.002678,0.000431,0.000353
22990000,0.0324,0.013523,0.002678,0.000431,0.000470
22991000,0.0324,0.013523,0.002678,0.000431,0.000353
22992000,0.0324,0.013523,0.002678,0.000431,0.000235
22993000,0.0324,0.013523,0.002678,0.000431,0.000353
22994000,0.0324,0.013523,0.002678,0.000431,0.000353
22995000,0.0324,0.013523,0.002678,0.000431,0.000235
22996000,0.0324,0.013523,0.002678,0.000431,0.000353
22997000,0.0324,0.013523,0.002678,0.000431,0.000470
22998000,0.0324,0.013523,0.002678,0.000431,0.000353
22999000,0.0324,0.013523,0.002678,0.000431,0.000118
