Cycle,Area(mm^2),PeakDynamic(W),SubthresholdLeakage(W),GateLeakage(W),RunTimeDynamic(W)
27000000,0.0324,0.013523,0.002678,0.000431,0.000235
27001000,0.0324,0.013523,0.002678,0.000431,0.000353
27002000,0.0324,0.013523,0.002678,0.000431,0.000470
27003000,0.0324,0.013523,0.002678,0.000431,0.000235
27004000,0.0324,0.013523,0.002678,0.000431,0.000235
27005000,0.0324,0.013523,0.002678,0.000431,0.000470
27006000,0.0324,0.013523,0.002678,0.000431,0.000353
27007000,0.0324,0.013523,0.002678,0.000431,0.000235
27008000,0.0324,0.013523,0.002678,0.000431,0.000353
27009000,0.0324,0.013523,0.002678,0.000431,0.000470
27010000,0.0324,0.013523,0.002678,0.000431,0.000235
27011000,0.0324,0.013523,0.002678,0.000431,0.000235
27012000,0.0324,0.013523,0.002678,0.000431,0.000470
27013000,0.0324,0.013523,0.002678,0.000431,0.000353
27014000,0.0324,0.013523,0.002678,0.000431,0.000235
27015000,0.0324,0.013523,0.002678,0.000431,0.000353
27016000,0.0324,0.013523,0.002678,0.000431,0.000470
27017000,0.0324,0.013523,0.002678,0.000431,0.000235
27018000,0.0324,0.013523,0.002678,0.000431,0.000235
27019000,0.0324,0.013523,0.002678,0.000431,0.000470
27020000,0.0324,0.013523,0.002678,0.000431,0.000353
27021000,0.0324,0.013523,0.002678,0.000431,0.000235
27022000,0.0324,0.013523,0.002678,0.000431,0.000353
27023000,0.0324,0.013523,0.002678,0.000431,0.000470
27024000,0.0324,0.013523,0.002678,0.000431,0.000235
27025000,0.0324,0.013523,0.002678,0.000431,0.000235
27026000,0.0324,0.013523,0.002678,0.000431,0.000470
27027000,0.0324,0.013523,0.002678,0.000431,0.000353
27028000,0.0324,0.013523,0.002678,0.000431,0.000235
27029000,0.0324,0.013523,0.002678,0.000431,0.000353
27030000,0.0324,0.013523,0.002678,0.000431,0.000470
27031000,0.0324,0.013523,0.002678,0.000431,0.000235
27032000,0.0324,0.013523,0.002678,0.000431,0.000235
27033000,0.0324,0.013523,0.002678,0.000431,0.000470
27034000,0.0324,0.013523,0.002678,0.000431,0.000353
27035000,0.0324,0.013523,0.002678,0.000431,0.000235
27036000,0.0324,0.013523,0.002678,0.000431,0.000353
27037000,0.0324,0.013523,0.002678,0.000431,0.000470
27038000,0.0324,0.013523,0.002678,0.000431,0.000118
27039000,0.0324,0.013523,0.002678,0.000431,0.000353
27040000,0.0324,0.013523,0.002678,0.000431,0.000470
27041000,0.0324,0.013523,0.002678,0.000431,0.000353
27042000,0.0324,0.013523,0.002678,0.000431,0.000235
27043000,0.0324,0.013523,0.002678,0.000431,0.000353
27044000,0.0324,0.013523,0.002678,0.000431,0.000470
27045000,0.0324,0.013523,0.002678,0.000431,0.000118
27046000,0.0324,0.013523,0.002678,0.000431,0.000353
27047000,0.0324,0.013523,0.002678,0.000431,0.000470
27048000,0.0324,0.013523,0.002678,0.000431,0.000353
27049000,0.0324,0.013523,0.002678,0.000431,0.000235
27050000,0.0324,0.013523,0.002678,0.000431,0.000353
27051000,0.0324,0.013523,0.002678,0.000431,0.000470
27052000,0.0324,0.013523,0.002678,0.000431,0.000118
27053000,0.0324,0.013523,0.002678,0.000431,0.000353
27054000,0.0324,0.013523,0.002678,0.000431,0.000470
27055000,0.0324,0.013523,0.002678,0.000431,0.000353
27056000,0.0324,0.013523,0.002678,0.000431,0.000235
27057000,0.0324,0.013523,0.002678,0.000431,0.000353
27058000,0.0324,0.013523,0.002678,0.000431,0.000470
27059000,0.0324,0.013523,0.002678,0.000431,0.000118
27060000,0.0324,0.013523,0.002678,0.000431,0.000353
27061000,0.0324,0.013523,0.002678,0.000431,0.000470
27062000,0.0324,0.013523,0.002678,0.000431,0.000353
27063000,0.0324,0.013523,0.002678,0.000431,0.000235
27064000,0.0324,0.013523,0.002678,0.000431,0.000353
27065000,0.0324,0.013523,0.002678,0.000431,0.000353
27066000,0.0324,0.013523,0.002678,0.000431,0.000235
27067000,0.0324,0.013523,0.002678,0.000431,0.000353
27068000,0.0324,0.013523,0.002678,0.000431,0.000470
27069000,0.0324,0.013523,0.002678,0.000431,0.000353
27070000,0.0324,0.013523,0.002678,0.000431,0.000235
27071000,0.0324,0.013523,0.002678,0.000431,0.000353
27072000,0.0324,0.013523,0.002678,0.000431,0.000353
27073000,0.0324,0.013523,0.002678,0.000431,0.000235
27074000,0.0324,0.013523,0.002678,0.000431,0.000353
27075000,0.0324,0.013523,0.002678,0.000431,0.000470
27076000,0.0324,0.013523,0.002678,0.000431,0.000353
27077000,0.0324,0.013523,0.002678,0.000431,0.000235
27078000,0.0324,0.013523,0.002678,0.000431,0.000353
27079000,0.0324,0.013523,0.002678,0.000431,0.000353
27080000,0.0324,0.013523,0.002678,0.000431,0.000235
27081000,0.0324,0.013523,0.002678,0.000431,0.000353
27082000,0.0324,0.013523,0.002678,0.000431,0.000470
27083000,0.0324,0.013523,0.002678,0.000431,0.000353
27084000,0.0324,0.013523,0.002678,0.000431,0.000235
27085000,0.0324,0.013523,0.002678,0.000431,0.000353
27086000,0.0324,0.013523,0.002678,0.000431,0.000353
27087000,0.0324,0.013523,0.002678,0.000431,0.000235
27088000,0.0324,0.013523,0.002678,0.000431,0.000353
27089000,0.0324,0.013523,0.002678,0.000431,0.000470
27090000,0.0324,0.013523,0.002678,0.000431,0.000353
27091000,0.0324,0.013523,0.002678,0.000431,0.000235
27092000,0.0324,0.013523,0.002678,0.000431,0.000353
27093000,0.0324,0.013523,0.002678,0.000431,0.000353
27094000,0.0324,0.013523,0.002678,0.000431,0.000235
27095000,0.0324,0.013523,0.002678,0.000431,0.000353
27096000,0.0324,0.013523,0.002678,0.000431,0.000470
27097000,0.0324,0.013523,0.002678,0.000431,0.000353
27098000,0.0324,0.013523,0.002678,0.000431,0.000235
27099000,0.0324,0.013523,0.002678,0.000431,0.000353
27100000,0.0324,0.013523,0.002678,0.000431,0.000353
27101000,0.0324,0.013523,0.002678,0.000431,0.000235
27102000,0.0324,0.013523,0.002678,0.000431,0.000353
27103000,0.0324,0.013523,0.002678,0.000431,0.000470
27104000,0.0324,0.013523,0.002678,0.000431,0.000353
27105000,0.0324,0.013523,0.002678,0.000431,0.000235
27106000,0.0324,0.013523,0.002678,0.000431,0.000353
27107000,0.0324,0.013523,0.002678,0.000431,0.000353
27108000,0.0324,0.013523,0.002678,0.000431,0.000235
27109000,0.0324,0.013523,0.002678,0.000431,0.000353
27110000,0.0324,0.013523,0.002678,0.000431,0.000470
27111000,0.0324,0.013523,0.002678,0.000431,0.000353
27112000,0.0324,0.013523,0.002678,0.000431,0.000118
27113000,0.0324,0.013523,0.002678,0.000431,0.000470
27114000,0.0324,0.013523,0.002678,0.000431,0.000353
27115000,0.0324,0.013523,0.002678,0.000431,0.000235
27116000,0.0324,0.013523,0.002678,0.000431,0.000353
27117000,0.0324,0.013523,0.002678,0.000431,0.000470
27118000,0.0324,0.013523,0.002678,0.000431,0.000353
27119000,0.0324,0.013523,0.002678,0.000431,0.000118
27120000,0.0324,0.013523,0.002678,0.000431,0.000470
27121000,0.0324,0.013523,0.002678,0.000431,0.000353
27122000,0.0324,0.013523,0.002678,0.000431,0.000235
27123000,0.0324,0.013523,0.002678,0.000431,0.000353
27124000,0.0324,0.013523,0.002678,0.000431,0.000470
27125000,0.0324,0.013523,0.002678,0.000431,0.000353
27126000,0.0324,0.013523,0.002678,0.000431,0.000118
27127000,0.0324,0.013523,0.002678,0.000431,0.000470
27128000,0.0324,0.013523,0.002678,0.000431,0.000353
27129000,0.0324,0.013523,0.002678,0.000431,0.000235
27130000,0.0324,0.013523,0.002678,0.000431,0.000353
27131000,0.0324,0.013523,0.002678,0.000431,0.000470
27132000,0.0324,0.013523,0.002678,0.000431,0.000353
27133000,0.0324,0.013523,0.002678,0.000431,0.000118
27134000,0.0324,0.013523,0.002678,0.000431,0.000470
27135000,0.0324,0.013523,0.002678,0.000431,0.000353
27136000,0.0324,0.013523,0.002678,0.000431,0.000235
27137000,0.0324,0.013523,0.002678,0.000431,0.000353
27138000,0.0324,0.013523,0.002678,0.000431,0.000470
27139000,0.0324,0.013523,0.002678,0.000431,0.000235
27140000,0.0324,0.013523,0.002678,0.000431,0.000235
27141000,0.0324,0.013523,0.002678,0.000431,0.000470
27142000,0.0324,0.013523,0.002678,0.000431,0.000353
27143000,0.0324,0.013523,0.002678,0.000431,0.000235
27144000,0.0324,0.013523,0.002678,0.000431,0.000353
27145000,0.0324,0.013523,0.002678,0.000431,0.000470
27146000,0.0324,0.013523,0.002678,0.000431,0.000235
27147000,0.0324,0.013523,0.002678,0.000431,0.000235
27148000,0.0324,0.013523,0.002678,0.000431,0.000470
27149000,0.0324,0.013523,0.002678,0.000431,0.000353
27150000,0.0324,0.013523,0.002678,0.000431,0.000235
27151000,0.0324,0.013523,0.002678,0.000431,0.000353
27152000,0.0324,0.013523,0.002678,0.000431,0.000470
27153000,0.0324,0.013523,0.002678,0.000431,0.000235
27154000,0.0324,0.013523,0.002678,0.000431,0.000235
27155000,0.0324,0.013523,0.002678,0.000431,0.000470
27156000,0.0324,0.013523,0.002678,0.000431,0.000353
27157000,0.0324,0.013523,0.002678,0.000431,0.000235
27158000,0.0324,0.013523,0.002678,0.000431,0.000353
27159000,0.0324,0.013523,0.002678,0.000431,0.000470
27160000,0.0324,0.013523,0.002678,0.000431,0.000235
27161000,0.0324,0.013523,0.002678,0.000431,0.000235
27162000,0.0324,0.013523,0.002678,0.000431,0.000470
27163000,0.0324,0.013523,0.002678,0.000431,0.000353
27164000,0.0324,0.013523,0.002678,0.000431,0.000235
27165000,0.0324,0.013523,0.002678,0.000431,0.000353
27166000,0.0324,0.013523,0.002678,0.000431,0.000470
27167000,0.0324,0.013523,0.002678,0.000431,0.000235
27168000,0.0324,0.013523,0.002678,0.000431,0.000235
27169000,0.0324,0.013523,0.002678,0.000431,0.000470
27170000,0.0324,0.013523,0.002678,0.000431,0.000353
27171000,0.0324,0.013523,0.002678,0.000431,0.000235
27172000,0.0324,0.013523,0.002678,0.000431,0.000353
27173000,0.0324,0.013523,0.002678,0.000431,0.000470
27174000,0.0324,0.013523,0.002678,0.000431,0.000235
27175000,0.0324,0.013523,0.002678,0.000431,0.000235
27176000,0.0324,0.013523,0.002678,0.000431,0.000470
27177000,0.0324,0.013523,0.002678,0.000431,0.000353
27178000,0.0324,0.013523,0.002678,0.000431,0.000235
27179000,0.0324,0.013523,0.002678,0.000431,0.000353
27180000,0.0324,0.013523,0.002678,0.000431,0.000470
27181000,0.0324,0.013523,0.002678,0.000431,0.000118
27182000,0.0324,0.013523,0.002678,0.000431,0.000353
27183000,0.0324,0.013523,0.002678,0.000431,0.000470
27184000,0.0324,0.013523,0.002678,0.000431,0.000353
27185000,0.0324,0.013523,0.002678,0.000431,0.000235
27186000,0.0324,0.013523,0.002678,0.000431,0.000353
27187000,0.0324,0.013523,0.002678,0.000431,0.000470
27188000,0.0324,0.013523,0.002678,0.000431,0.000118
27189000,0.0324,0.013523,0.002678,0.000431,0.000353
27190000,0.0324,0.013523,0.002678,0.000431,0.000470
27191000,0.0324,0.013523,0.002678,0.000431,0.000353
27192000,0.0324,0.013523,0.002678,0.000431,0.000235
27193000,0.0324,0.013523,0.002678,0.000431,0.000353
27194000,0.0324,0.013523,0.002678,0.000431,0.000470
27195000,0.0324,0.013523,0.002678,0.000431,0.000118
27196000,0.0324,0.013523,0.002678,0.000431,0.000353
27197000,0.0324,0.013523,0.002678,0.000431,0.000470
27198000,0.0324,0.013523,0.002678,0.000431,0.000353
27199000,0.0324,0.013523,0.002678,0.000431,0.000235
27200000,0.0324,0.013523,0.002678,0.000431,0.000353
27201000,0.0324,0.013523,0.002678,0.000431,0.000353
27202000,0.0324,0.013523,0.002678,0.000431,0.000235
27203000,0.0324,0.013523,0.002678,0.000431,0.000353
27204000,0.0324,0.013523,0.002678,0.000431,0.000470
27205000,0.0324,0.013523,0.002678,0.000431,0.000353
27206000,0.0324,0.013523,0.002678,0.000431,0.000235
27207000,0.0324,0.013523,0.002678,0.000431,0.000353
27208000,0.0324,0.013523,0.002678,0.000431,0.000353
27209000,0.0324,0.013523,0.002678,0.000431,0.000235
27210000,0.0324,0.013523,0.002678,0.000431,0.000353
27211000,0.0324,0.013523,0.002678,0.000431,0.000470
27212000,0.0324,0.013523,0.002678,0.000431,0.000353
27213000,0.0324,0.013523,0.002678,0.000431,0.000235
27214000,0.0324,0.013523,0.002678,0.000431,0.000353
27215000,0.0324,0.013523,0.002678,0.000431,0.000353
27216000,0.0324,0.013523,0.002678,0.000431,0.000235
27217000,0.0324,0.013523,0.002678,0.000431,0.000353
27218000,0.0324,0.013523,0.002678,0.000431,0.000470
27219000,0.0324,0.013523,0.002678,0.000431,0.000353
27220000,0.0324,0.013523,0.002678,0.000431,0.000235
27221000,0.0324,0.013523,0.002678,0.000431,0.000353
27222000,0.0324,0.013523,0.002678,0.000431,0.000353
27223000,0.0324,0.013523,0.002678,0.000431,0.000235
27224000,0.0324,0.013523,0.002678,0.000431,0.000353
27225000,0.0324,0.013523,0.002678,0.000431,0.000470
27226000,0.0324,0.013523,0.002678,0.000431,0.000353
27227000,0.0324,0.013523,0.002678,0.000431,0.000235
27228000,0.0324,0.013523,0.002678,0.000431,0.000353
27229000,0.0324,0.013523,0.002678,0.000431,0.000353
27230000,0.0324,0.013523,0.002678,0.000431,0.000235
27231000,0.0324,0.013523,0.002678,0.000431,0.000353
27232000,0.0324,0.013523,0.002678,0.000431,0.000470
27233000,0.0324,0.013523,0.002678,0.000431,0.000353
27234000,0.0324,0.013523,0.002678,0.000431,0.000235
27235000,0.0324,0.013523,0.002678,0.000431,0.000353
27236000,0.0324,0.013523,0.002678,0.000431,0.000353
27237000,0.0324,0.013523,0.002678,0.000431,0.000235
27238000,0.0324,0.013523,0.002678,0.000431,0.000353
27239000,0.0324,0.013523,0.002678,0.000431,0.000470
27240000,0.0324,0.013523,0.002678,0.000431,0.000353
27241000,0.0324,0.013523,0.002678,0.000431,0.000235
27242000,0.0324,0.013523,0.002678,0.000431,0.000353
27243000,0.0324,0.013523,0.002678,0.000431,0.000353
27244000,0.0324,0.013523,0.002678,0.000431,0.000235
27245000,0.0324,0.013523,0.002678,0.000431,0.000353
27246000,0.0324,0.013523,0.002678,0.000431,0.000470
27247000,0.0324,0.013523,0.002678,0.000431,0.000353
27248000,0.0324,0.013523,0.002678,0.000431,0.000235
27249000,0.0324,0.013523,0.002678,0.000431,0.000353
27250000,0.0324,0.013523,0.002678,0.000431,0.000353
27251000,0.0324,0.013523,0.002678,0.000431,0.000235
27252000,0.0324,0.013523,0.002678,0.000431,0.000353
27253000,0.0324,0.013523,0.002678,0.000431,0.000470
27254000,0.0324,0.013523,0.002678,0.000431,0.000353
27255000,0.0324,0.013523,0.002678,0.000431,0.000118
27256000,0.0324,0.013523,0.002678,0.000431,0.000470
27257000,0.0324,0.013523,0.002678,0.000431,0.000353
27258000,0.0324,0.013523,0.002678,0.000431,0.000235
27259000,0.0324,0.013523,0.002678,0.000431,0.000353
27260000,0.0324,0.013523,0.002678,0.000431,0.000470
27261000,0.0324,0.013523,0.002678,0.000431,0.000353
27262000,0.0324,0.013523,0.002678,0.000431,0.000118
27263000,0.0324,0.013523,0.002678,0.000431,0.000470
27264000,0.0324,0.013523,0.002678,0.000431,0.000353
27265000,0.0324,0.013523,0.002678,0.000431,0.000235
27266000,0.0324,0.013523,0.002678,0.000431,0.000353
27267000,0.0324,0.013523,0.002678,0.000431,0.000470
27268000,0.0324,0.013523,0.002678,0.000431,0.000353
27269000,0.0324,0.013523,0.002678,0.000431,0.000118
27270000,0.0324,0.013523,0.002678,0.000431,0.000470
27271000,0.0324,0.013523,0.002678,0.000431,0.000353
27272000,0.0324,0.013523,0.002678,0.000431,0.000235
27273000,0.0324,0.013523,0.002678,0.000431,0.000353
27274000,0.0324,0.013523,0.002678,0.000431,0.000470
27275000,0.0324,0.013523,0.002678,0.000431,0.000353
27276000,0.0324,0.013523,0.002678,0.000431,0.000118
27277000,0.0324,0.013523,0.002678,0.000431,0.000470
27278000,0.0324,0.013523,0.002678,0.000431,0.000353
27279000,0.0324,0.013523,0.002678,0.000431,0.000235
27280000,0.0324,0.013523,0.002678,0.000431,0.000353
27281000,0.0324,0.013523,0.002678,0.000431,0.000470
27282000,0.0324,0.013523,0.002678,0.000431,0.000235
27283000,0.0324,0.013523,0.002678,0.000431,0.000235
27284000,0.0324,0.013523,0.002678,0.000431,0.000470
27285000,0.0324,0.013523,0.002678,0.000431,0.000353
27286000,0.0324,0.013523,0.002678,0.000431,0.000235
27287000,0.0324,0.013523,0.002678,0.000431,0.000353
27288000,0.0324,0.013523,0.002678,0.000431,0.000470
27289000,0.0324,0.013523,0.002678,0.000431,0.000235
27290000,0.0324,0.013523,0.002678,0.000431,0.000235
27291000,0.0324,0.013523,0.002678,0.000431,0.000470
27292000,0.0324,0.013523,0.002678,0.000431,0.000353
27293000,0.0324,0.013523,0.002678,0.000431,0.000235
27294000,0.0324,0.013523,0.002678,0.000431,0.000353
27295000,0.0324,0.013523,0.002678,0.000431,0.000470
27296000,0.0324,0.013523,0.002678,0.000431,0.000235
27297000,0.0324,0.013523,0.002678,0.000431,0.000235
27298000,0.0324,0.013523,0.002678,0.000431,0.000470
27299000,0.0324,0.013523,0.002678,0.000431,0.000353
27300000,0.0324,0.013523,0.002678,0.000431,0.000235
27301000,0.0324,0.013523,0.002678,0.000431,0.000353
27302000,0.0324,0.013523,0.002678,0.000431,0.000470
27303000,0.0324,0.013523,0.002678,0.000431,0.000235
27304000,0.0324,0.013523,0.002678,0.000431,0.000235
27305000,0.0324,0.013523,0.002678,0.000431,0.000470
27306000,0.0324,0.013523,0.002678,0.000431,0.000353
27307000,0.0324,0.013523,0.002678,0.000431,0.000235
27308000,0.0324,0.013523,0.002678,0.000431,0.000353
27309000,0.0324,0.013523,0.002678,0.000431,0.000470
27310000,0.0324,0.013523,0.002678,0.000431,0.000235
27311000,0.0324,0.013523,0.002678,0.000431,0.000235
27312000,0.0324,0.013523,0.002678,0.000431,0.000470
27313000,0.0324,0.013523,0.002678,0.000431,0.000353
27314000,0.0324,0.013523,0.002678,0.000431,0.000235
27315000,0.0324,0.013523,0.002678,0.000431,0.000353
27316000,0.0324,0.013523,0.002678,0.000431,0.000470
27317000,0.0324,0.013523,0.002678,0.000431,0.000118
27318000,0.0324,0.013523,0.002678,0.000431,0.000353
27319000,0.0324,0.013523,0.002678,0.000431,0.000470
27320000,0.0324,0.013523,0.002678,0.000431,0.000353
27321000,0.0324,0.013523,0.002678,0.000431,0.000235
27322000,0.0324,0.013523,0.002678,0.000431,0.000353
27323000,0.0324,0.013523,0.002678,0.000431,0.000470
27324000,0.0324,0.013523,0.002678,0.000431,0.000118
27325000,0.0324,0.013523,0.002678,0.000431,0.000353
27326000,0.0324,0.013523,0.002678,0.000431,0.000470
27327000,0.0324,0.013523,0.002678,0.000431,0.000353
27328000,0.0324,0.013523,0.002678,0.000431,0.000235
27329000,0.0324,0.013523,0.002678,0.000431,0.000353
27330000,0.0324,0.013523,0.002678,0.000431,0.000470
27331000,0.0324,0.013523,0.002678,0.000431,0.000118
27332000,0.0324,0.013523,0.002678,0.000431,0.000353
27333000,0.0324,0.013523,0.002678,0.000431,0.000470
27334000,0.0324,0.013523,0.002678,0.000431,0.000353
27335000,0.0324,0.013523,0.002678,0.000431,0.000235
27336000,0.0324,0.013523,0.002678,0.000431,0.000353
27337000,0.0324,0.013523,0.002678,0.000431,0.000470
27338000,0.0324,0.013523,0.002678,0.000431,0.000118
27339000,0.0324,0.013523,0.002678,0.000431,0.000353
27340000,0.0324,0.013523,0.002678,0.000431,0.000470
27341000,0.0324,0.013523,0.002678,0.000431,0.000353
27342000,0.0324,0.013523,0.002678,0.000431,0.000235
27343000,0.0324,0.013523,0.002678,0.000431,0.000353
27344000,0.0324,0.013523,0.002678,0.000431,0.000353
27345000,0.0324,0.013523,0.002678,0.000431,0.000235
27346000,0.0324,0.013523,0.002678,0.000431,0.000353
27347000,0.0324,0.013523,0.002678,0.000431,0.000470
27348000,0.0324,0.013523,0.002678,0.000431,0.000353
27349000,0.0324,0.013523,0.002678,0.000431,0.000235
27350000,0.0324,0.013523,0.002678,0.000431,0.000353
27351000,0.0324,0.013523,0.002678,0.000431,0.000353
27352000,0.0324,0.013523,0.002678,0.000431,0.000235
27353000,0.0324,0.013523,0.002678,0.000431,0.000353
27354000,0.0324,0.013523,0.002678,0.000431,0.000470
27355000,0.0324,0.013523,0.002678,0.000431,0.000353
27356000,0.0324,0.013523,0.002678,0.000431,0.000235
27357000,0.0324,0.013523,0.002678,0.000431,0.000353
27358000,0.0324,0.013523,0.002678,0.000431,0.000353
27359000,0.0324,0.013523,0.002678,0.000431,0.000235
27360000,0.0324,0.013523,0.002678,0.000431,0.000353
27361000,0.0324,0.013523,0.002678,0.000431,0.000470
27362000,0.0324,0.013523,0.002678,0.000431,0.000353
27363000,0.0324,0.013523,0.002678,0.000431,0.000235
27364000,0.0324,0.013523,0.002678,0.000431,0.000353
27365000,0.0324,0.013523,0.002678,0.000431,0.000353
27366000,0.0324,0.013523,0.002678,0.000431,0.000235
27367000,0.0324,0.013523,0.002678,0.000431,0.000353
27368000,0.0324,0.013523,0.002678,0.000431,0.000470
27369000,0.0324,0.013523,0.002678,0.000431,0.000353
27370000,0.0324,0.013523,0.002678,0.000431,0.000235
27371000,0.0324,0.013523,0.002678,0.000431,0.000353
27372000,0.0324,0.013523,0.002678,0.000431,0.000353
27373000,0.0324,0.013523,0.002678,0.000431,0.000235
27374000,0.0324,0.013523,0.002678,0.000431,0.000353
27375000,0.0324,0.013523,0.002678,0.000431,0.000470
27376000,0.0324,0.013523,0.002678,0.000431,0.000353
27377000,0.0324,0.013523,0.002678,0.000431,0.000235
27378000,0.0324,0.013523,0.002678,0.000431,0.000353
27379000,0.0324,0.013523,0.002678,0.000431,0.000353
27380000,0.0324,0.013523,0.002678,0.000431,0.000235
27381000,0.0324,0.013523,0.002678,0.000431,0.000353
27382000,0.0324,0.013523,0.002678,0.000431,0.000470
27383000,0.0324,0.013523,0.002678,0.000431,0.000353
27384000,0.0324,0.013523,0.002678,0.000431,0.000235
27385000,0.0324,0.013523,0.002678,0.000431,0.000353
27386000,0.0324,0.013523,0.002678,0.000431,0.000353
27387000,0.0324,0.013523,0.002678,0.000431,0.000235
27388000,0.0324,0.013523,0.002678,0.000431,0.000353
27389000,0.0324,0.013523,0.002678,0.000431,0.000470
27390000,0.0324,0.013523,0.002678,0.000431,0.000353
27391000,0.0324,0.013523,0.002678,0.000431,0.000235
27392000,0.0324,0.013523,0.002678,0.000431,0.000353
27393000,0.0324,0.013523,0.002678,0.000431,0.000353
27394000,0.0324,0.013523,0.002678,0.000431,0.000235
27395000,0.0324,0.013523,0.002678,0.000431,0.000353
27396000,0.0324,0.013523,0.002678,0.000431,0.000470
27397000,0.0324,0.013523,0.002678,0.000431,0.000353
27398000,0.0324,0.013523,0.002678,0.000431,0.000118
27399000,0.0324,0.013523,0.002678,0.000431,0.000470
27400000,0.0324,0.013523,0.002678,0.000431,0.000353
27401000,0.0324,0.013523,0.002678,0.000431,0.000235
27402000,0.0324,0.013523,0.002678,0.000431,0.000353
27403000,0.0324,0.013523,0.002678,0.000431,0.000470
27404000,0.0324,0.013523,0.002678,0.000431,0.000353
27405000,0.0324,0.013523,0.002678,0.000431,0.000118
27406000,0.0324,0.013523,0.002678,0.000431,0.000470
27407000,0.0324,0.013523,0.002678,0.000431,0.000353
27408000,0.0324,0.013523,0.002678,0.000431,0.000235
27409000,0.0324,0.013523,0.002678,0.000431,0.000353
27410000,0.0324,0.013523,0.002678,0.000431,0.000470
27411000,0.0324,0.013523,0.002678,0.000431,0.000353
27412000,0.0324,0.013523,0.002678,0.000431,0.000118
27413000,0.0324,0.013523,0.002678,0.000431,0.000470
27414000,0.0324,0.013523,0.002678,0.000431,0.000353
27415000,0.0324,0.013523,0.002678,0.000431,0.000235
27416000,0.0324,0.013523,0.002678,0.000431,0.000353
27417000,0.0324,0.013523,0.002678,0.000431,0.000470
27418000,0.0324,0.013523,0.002678,0.000431,0.000235
27419000,0.0324,0.013523,0.002678,0.000431,0.000235
27420000,0.0324,0.013523,0.002678,0.000431,0.000470
27421000,0.0324,0.013523,0.002678,0.000431,0.000353
27422000,0.0324,0.013523,0.002678,0.000431,0.000235
27423000,0.0324,0.013523,0.002678,0.000431,0.000353
27424000,0.0324,0.013523,0.002678,0.000431,0.000470
27425000,0.0324,0.013523,0.002678,0.000431,0.000235
27426000,0.0324,0.013523,0.002678,0.000431,0.000235
27427000,0.0324,0.013523,0.002678,0.000431,0.000470
27428000,0.0324,0.013523,0.002678,0.000431,0.000353
27429000,0.0324,0.013523,0.002678,0.000431,0.000235
27430000,0.0324,0.013523,0.002678,0.000431,0.000353
27431000,0.0324,0.013523,0.002678,0.000431,0.000470
27432000,0.0324,0.013523,0.002678,0.000431,0.000235
27433000,0.0324,0.013523,0.002678,0.000431,0.000235
27434000,0.0324,0.013523,0.002678,0.000431,0.000470
27435000,0.0324,0.013523,0.002678,0.000431,0.000353
27436000,0.0324,0.013523,0.002678,0.000431,0.000235
27437000,0.0324,0.013523,0.002678,0.000431,0.000353
27438000,0.0324,0.013523,0.002678,0.000431,0.000470
27439000,0.0324,0.013523,0.002678,0.000431,0.000235
27440000,0.0324,0.013523,0.002678,0.000431,0.000235
27441000,0.0324,0.013523,0.002678,0.000431,0.000470
27442000,0.0324,0.013523,0.002678,0.000431,0.000353
27443000,0.0324,0.013523,0.002678,0.000431,0.000235
27444000,0.0324,0.013523,0.002678,0.000431,0.000353
27445000,0.0324,0.013523,0.002678,0.000431,0.000470
27446000,0.0324,0.013523,0.002678,0.000431,0.000235
27447000,0.0324,0.013523,0.002678,0.000431,0.000235
27448000,0.0324,0.013523,0.002678,0.000431,0.000470
27449000,0.0324,0.013523,0.002678,0.000431,0.000353
27450000,0.0324,0.013523,0.002678,0.000431,0.000235
27451000,0.0324,0.013523,0.002678,0.000431,0.000353
27452000,0.0324,0.013523,0.002678,0.000431,0.000470
27453000,0.0324,0.013523,0.002678,0.000431,0.000235
27454000,0.0324,0.013523,0.002678,0.000431,0.000235
27455000,0.0324,0.013523,0.002678,0.000431,0.000470
27456000,0.0324,0.013523,0.002678,0.000431,0.000353
27457000,0.0324,0.013523,0.002678,0.000431,0.000235
27458000,0.0324,0.013523,0.002678,0.000431,0.000353
27459000,0.0324,0.013523,0.002678,0.000431,0.000470
27460000,0.0324,0.013523,0.002678,0.000431,0.000118
27461000,0.0324,0.013523,0.002678,0.000431,0.000353
27462000,0.0324,0.013523,0.002678,0.000431,0.000470
27463000,0.0324,0.013523,0.002678,0.000431,0.000353
27464000,0.0324,0.013523,0.002678,0.000431,0.000235
27465000,0.0324,0.013523,0.002678,0.000431,0.000353
27466000,0.0324,0.013523,0.002678,0.000431,0.000470
27467000,0.0324,0.013523,0.002678,0.000431,0.000118
27468000,0.0324,0.013523,0.002678,0.000431,0.000353
27469000,0.0324,0.013523,0.002678,0.000431,0.000470
27470000,0.0324,0.013523,0.002678,0.000431,0.000353
27471000,0.0324,0.013523,0.002678,0.000431,0.000235
27472000,0.0324,0.013523,0.002678,0.000431,0.000353
27473000,0.0324,0.013523,0.002678,0.000431,0.000470
27474000,0.0324,0.013523,0.002678,0.000431,0.000118
27475000,0.0324,0.013523,0.002678,0.000431,0.000353
27476000,0.0324,0.013523,0.002678,0.000431,0.000470
27477000,0.0324,0.013523,0.002678,0.000431,0.000353
27478000,0.0324,0.013523,0.002678,0.000431,0.000235
27479000,0.0324,0.013523,0.002678,0.000431,0.000353
27480000,0.0324,0.013523,0.002678,0.000431,0.000470
27481000,0.0324,0.013523,0.002678,0.000431,0.000118
27482000,0.0324,0.013523,0.002678,0.000431,0.000353
27483000,0.0324,0.013523,0.002678,0.000431,0.000470
27484000,0.0324,0.013523,0.002678,0.000431,0.000353
27485000,0.0324,0.013523,0.002678,0.000431,0.000235
27486000,0.0324,0.013523,0.002678,0.000431,0.000353
27487000,0.0324,0.013523,0.002678,0.000431,0.000353
27488000,0.0324,0.013523,0.002678,0.000431,0.000235
27489000,0.0324,0.013523,0.002678,0.000431,0.000353
27490000,0.0324,0.013523,0.002678,0.000431,0.000470
27491000,0.0324,0.013523,0.002678,0.000431,0.000353
27492000,0.0324,0.013523,0.002678,0.000431,0.000235
27493000,0.0324,0.013523,0.002678,0.000431,0.000353
27494000,0.0324,0.013523,0.002678,0.000431,0.000353
27495000,0.0324,0.013523,0.002678,0.000431,0.000235
27496000,0.0324,0.013523,0.002678,0.000431,0.000353
27497000,0.0324,0.013523,0.002678,0.000431,0.000470
27498000,0.0324,0.013523,0.002678,0.000431,0.000353
27499000,0.0324,0.013523,0.002678,0.000431,0.000235
27500000,0.0324,0.013523,0.002678,0.000431,0.000353
27501000,0.0324,0.013523,0.002678,0.000431,0.000353
27502000,0.0324,0.013523,0.002678,0.000431,0.000235
27503000,0.0324,0.013523,0.002678,0.000431,0.000353
27504000,0.0324,0.013523,0.002678,0.000431,0.000470
27505000,0.0324,0.013523,0.002678,0.000431,0.000353
27506000,0.0324,0.013523,0.002678,0.000431,0.000235
27507000,0.0324,0.013523,0.002678,0.000431,0.000353
27508000,0.0324,0.013523,0.002678,0.000431,0.000353
27509000,0.0324,0.013523,0.002678,0.000431,0.000235
27510000,0.0324,0.013523,0.002678,0.000431,0.000353
27511000,0.0324,0.013523,0.002678,0.000431,0.000470
27512000,0.0324,0.013523,0.002678,0.000431,0.000353
27513000,0.0324,0.013523,0.002678,0.000431,0.000235
27514000,0.0324,0.013523,0.002678,0.000431,0.000353
27515000,0.0324,0.013523,0.002678,0.000431,0.000353
27516000,0.0324,0.013523,0.002678,0.000431,0.000235
27517000,0.0324,0.013523,0.002678,0.000431,0.000353
27518000,0.0324,0.013523,0.002678,0.000431,0.000470
27519000,0.0324,0.013523,0.002678,0.000431,0.000353
27520000,0.0324,0.013523,0.002678,0.000431,0.000235
27521000,0.0324,0.013523,0.002678,0.000431,0.000353
27522000,0.0324,0.013523,0.002678,0.000431,0.000353
27523000,0.0324,0.013523,0.002678,0.000431,0.000235
27524000,0.0324,0.013523,0.002678,0.000431,0.000353
27525000,0.0324,0.013523,0.002678,0.000431,0.000470
27526000,0.0324,0.013523,0.002678,0.000431,0.000353
27527000,0.0324,0.013523,0.002678,0.000431,0.000235
27528000,0.0324,0.013523,0.002678,0.000431,0.000353
27529000,0.0324,0.013523,0.002678,0.000431,0.000353
27530000,0.0324,0.013523,0.002678,0.000431,0.000235
27531000,0.0324,0.013523,0.002678,0.000431,0.000353
27532000,0.0324,0.013523,0.002678,0.000431,0.000470
27533000,0.0324,0.013523,0.002678,0.000431,0.000353
27534000,0.0324,0.013523,0.002678,0.000431,0.000118
27535000,0.0324,0.013523,0.002678,0.000431,0.000470
27536000,0.0324,0.013523,0.002678,0.000431,0.000353
27537000,0.0324,0.013523,0.002678,0.000431,0.000235
27538000,0.0324,0.013523,0.002678,0.000431,0.000353
27539000,0.0324,0.013523,0.002678,0.000431,0.000470
27540000,0.0324,0.013523,0.002678,0.000431,0.000353
27541000,0.0324,0.013523,0.002678,0.000431,0.000118
27542000,0.0324,0.013523,0.002678,0.000431,0.000470
27543000,0.0324,0.013523,0.002678,0.000431,0.000353
27544000,0.0324,0.013523,0.002678,0.000431,0.000235
27545000,0.0324,0.013523,0.002678,0.000431,0.000353
27546000,0.0324,0.013523,0.002678,0.000431,0.000470
27547000,0.0324,0.013523,0.002678,0.000431,0.000353
27548000,0.0324,0.013523,0.002678,0.000431,0.000118
27549000,0.0324,0.013523,0.002678,0.000431,0.000470
27550000,0.0324,0.013523,0.002678,0.000431,0.000353
27551000,0.0324,0.013523,0.002678,0.000431,0.000235
27552000,0.0324,0.013523,0.002678,0.000431,0.000353
27553000,0.0324,0.013523,0.002678,0.000431,0.000470
27554000,0.0324,0.013523,0.002678,0.000431,0.000353
27555000,0.0324,0.013523,0.002678,0.000431,0.000118
27556000,0.0324,0.013523,0.002678,0.000431,0.000470
27557000,0.0324,0.013523,0.002678,0.000431,0.000353
27558000,0.0324,0.013523,0.002678,0.000431,0.000235
27559000,0.0324,0.013523,0.002678,0.000431,0.000353
27560000,0.0324,0.013523,0.002678,0.000431,0.000470
27561000,0.0324,0.013523,0.002678,0.000431,0.000235
27562000,0.0324,0.013523,0.002678,0.000431,0.000235
27563000,0.0324,0.013523,0.002678,0.000431,0.000470
27564000,0.0324,0.013523,0.002678,0.000431,0.000353
27565000,0.0324,0.013523,0.002678,0.000431,0.000235
27566000,0.0324,0.013523,0.002678,0.000431,0.000353
27567000,0.0324,0.013523,0.002678,0.000431,0.000470
27568000,0.0324,0.013523,0.002678,0.000431,0.000235
27569000,0.0324,0.013523,0.002678,0.000431,0.000235
27570000,0.0324,0.013523,0.002678,0.000431,0.000470
27571000,0.0324,0.013523,0.002678,0.000431,0.000353
27572000,0.0324,0.013523,0.002678,0.000431,0.000235
27573000,0.0324,0.013523,0.002678,0.000431,0.000353
27574000,0.0324,0.013523,0.002678,0.000431,0.000470
27575000,0.0324,0.013523,0.002678,0.000431,0.000235
27576000,0.0324,0.013523,0.002678,0.000431,0.000235
27577000,0.0324,0.013523,0.002678,0.000431,0.000470
27578000,0.0324,0.013523,0.002678,0.000431,0.000353
27579000,0.0324,0.013523,0.002678,0.000431,0.000235
27580000,0.0324,0.013523,0.002678,0.000431,0.000353
27581000,0.0324,0.013523,0.002678,0.000431,0.000470
27582000,0.0324,0.013523,0.002678,0.000431,0.000235
27583000,0.0324,0.013523,0.002678,0.000431,0.000235
27584000,0.0324,0.013523,0.002678,0.000431,0.000470
27585000,0.0324,0.013523,0.002678,0.000431,0.000353
27586000,0.0324,0.013523,0.002678,0.000431,0.000235
27587000,0.0324,0.013523,0.002678,0.000431,0.000353
27588000,0.0324,0.013523,0.002678,0.000431,0.000470
27589000,0.0324,0.013523,0.002678,0.000431,0.000235
27590000,0.0324,0.013523,0.002678,0.000431,0.000235
27591000,0.0324,0.013523,0.002678,0.000431,0.000470
27592000,0.0324,0.013523,0.002678,0.000431,0.000353
27593000,0.0324,0.013523,0.002678,0.000431,0.000235
27594000,0.0324,0.013523,0.002678,0.000431,0.000353
27595000,0.0324,0.013523,0.002678,0.000431,0.000470
27596000,0.0324,0.013523,0.002678,0.000431,0.000235
27597000,0.0324,0.013523,0.002678,0.000431,0.000235
27598000,0.0324,0.013523,0.002678,0.000431,0.000470
27599000,0.0324,0.013523,0.002678,0.000431,0.000353
27600000,0.0324,0.013523,0.002678,0.000431,0.000235
27601000,0.0324,0.013523,0.002678,0.000431,0.000353
27602000,0.0324,0.013523,0.002678,0.000431,0.000470
27603000,0.0324,0.013523,0.002678,0.000431,0.000118
27604000,0.0324,0.013523,0.002678,0.000431,0.000353
27605000,0.0324,0.013523,0.002678,0.000431,0.000470
27606000,0.0324,0.013523,0.002678,0.000431,0.000353
27607000,0.0324,0.013523,0.002678,0.000431,0.000235
27608000,0.0324,0.013523,0.002678,0.000431,0.000353
27609000,0.0324,0.013523,0.002678,0.000431,0.000470
27610000,0.0324,0.013523,0.002678,0.000431,0.000118
27611000,0.0324,0.013523,0.002678,0.000431,0.000353
27612000,0.0324,0.013523,0.002678,0.000431,0.000470
27613000,0.0324,0.013523,0.002678,0.000431,0.000353
27614000,0.0324,0.013523,0.002678,0.000431,0.000235
27615000,0.0324,0.013523,0.002678,0.000431,0.000353
27616000,0.0324,0.013523,0.002678,0.000431,0.000470
27617000,0.0324,0.013523,0.002678,0.000431,0.000118
27618000,0.0324,0.013523,0.002678,0.000431,0.000353
27619000,0.0324,0.013523,0.002678,0.000431,0.000470
27620000,0.0324,0.013523,0.002678,0.000431,0.000353
27621000,0.0324,0.013523,0.002678,0.000431,0.000235
27622000,0.0324,0.013523,0.002678,0.000431,0.000353
27623000,0.0324,0.013523,0.002678,0.000431,0.000353
27624000,0.0324,0.013523,0.002678,0.000431,0.000235
27625000,0.0324,0.013523,0.002678,0.000431,0.000353
27626000,0.0324,0.013523,0.002678,0.000431,0.000470
27627000,0.0324,0.013523,0.002678,0.000431,0.000353
27628000,0.0324,0.013523,0.002678,0.000431,0.000235
27629000,0.0324,0.013523,0.002678,0.000431,0.000353
27630000,0.0324,0.013523,0.002678,0.000431,0.000353
27631000,0.0324,0.013523,0.002678,0.000431,0.000235
27632000,0.0324,0.013523,0.002678,0.000431,0.000353
27633000,0.0324,0.013523,0.002678,0.000431,0.000470
27634000,0.0324,0.013523,0.002678,0.000431,0.000353
27635000,0.0324,0.013523,0.002678,0.000431,0.000235
27636000,0.0324,0.013523,0.002678,0.000431,0.000353
27637000,0.0324,0.013523,0.002678,0.000431,0.000353
27638000,0.0324,0.013523,0.002678,0.000431,0.000235
27639000,0.0324,0.013523,0.002678,0.000431,0.000353
27640000,0.0324,0.013523,0.002678,0.000431,0.000470
27641000,0.0324,0.013523,0.002678,0.000431,0.000353
27642000,0.0324,0.013523,0.002678,0.000431,0.000235
27643000,0.0324,0.013523,0.002678,0.000431,0.000353
27644000,0.0324,0.013523,0.002678,0.000431,0.000353
27645000,0.0324,0.013523,0.002678,0.000431,0.000235
27646000,0.0324,0.013523,0.002678,0.000431,0.000353
27647000,0.0324,0.013523,0.002678,0.000431,0.000470
27648000,0.0324,0.013523,0.002678,0.000431,0.000353
27649000,0.0324,0.013523,0.002678,0.000431,0.000235
27650000,0.0324,0.013523,0.002678,0.000431,0.000353
27651000,0.0324,0.013523,0.002678,0.000431,0.000353
27652000,0.0324,0.013523,0.002678,0.000431,0.000235
27653000,0.0324,0.013523,0.002678,0.000431,0.000353
27654000,0.0324,0.013523,0.002678,0.000431,0.000470
27655000,0.0324,0.013523,0.002678,0.000431,0.000353
27656000,0.0324,0.013523,0.002678,0.000431,0.000235
27657000,0.0324,0.013523,0.002678,0.000431,0.000353
27658000,0.0324,0.013523,0.002678,0.000431,0.000353
27659000,0.0324,0.013523,0.002678,0.000431,0.000235
27660000,0.0324,0.013523,0.002678,0.000431,0.000353
27661000,0.0324,0.013523,0.002678,0.000431,0.000470
27662000,0.0324,0.013523,0.002678,0.000431,0.000353
27663000,0.0324,0.013523,0.002678,0.000431,0.000235
27664000,0.0324,0.013523,0.002678,0.000431,0.000353
27665000,0.0324,0.013523,0.002678,0.000431,0.000353
27666000,0.0324,0.013523,0.002678,0.000431,0.000235
27667000,0.0324,0.013523,0.002678,0.000431,0.000353
27668000,0.0324,0.013523,0.002678,0.000431,0.000470
27669000,0.0324,0.013523,0.002678,0.000431,0.000353
27670000,0.0324,0.013523,0.002678,0.000431,0.000235
27671000,0.0324,0.013523,0.002678,0.000431,0.000353
27672000,0.0324,0.013523,0.002678,0.000431,0.000353
27673000,0.0324,0.013523,0.002678,0.000431,0.000235
27674000,0.0324,0.013523,0.002678,0.000431,0.000353
27675000,0.0324,0.013523,0.002678,0.000431,0.000470
27676000,0.0324,0.013523,0.002678,0.000431,0.000353
27677000,0.0324,0.013523,0.002678,0.000431,0.000118
27678000,0.0324,0.013523,0.002678,0.000431,0.000470
27679000,0.0324,0.013523,0.002678,0.000431,0.000353
27680000,0.0324,0.013523,0.002678,0.000431,0.000235
27681000,0.0324,0.013523,0.002678,0.000431,0.000353
27682000,0.0324,0.013523,0.002678,0.000431,0.000470
27683000,0.0324,0.013523,0.002678,0.000431,0.000353
27684000,0.0324,0.013523,0.002678,0.000431,0.000118
27685000,0.0324,0.013523,0.002678,0.000431,0.000470
27686000,0.0324,0.013523,0.002678,0.000431,0.000353
27687000,0.0324,0.013523,0.002678,0.000431,0.000235
27688000,0.0324,0.013523,0.002678,0.000431,0.000353
27689000,0.0324,0.013523,0.002678,0.000431,0.000470
27690000,0.0324,0.013523,0.002678,0.000431,0.000353
27691000,0.0324,0.013523,0.002678,0.000431,0.000118
27692000,0.0324,0.013523,0.002678,0.000431,0.000470
27693000,0.0324,0.013523,0.002678,0.000431,0.000353
27694000,0.0324,0.013523,0.002678,0.000431,0.000235
27695000,0.0324,0.013523,0.002678,0.000431,0.000353
27696000,0.0324,0.013523,0.002678,0.000431,0.000470
27697000,0.0324,0.013523,0.002678,0.000431,0.000235
27698000,0.0324,0.013523,0.002678,0.000431,0.000235
27699000,0.0324,0.013523,0.002678,0.000431,0.000470
27700000,0.0324,0.013523,0.002678,0.000431,0.000353
27701000,0.0324,0.013523,0.002678,0.000431,0.000235
27702000,0.0324,0.013523,0.002678,0.000431,0.000353
27703000,0.0324,0.013523,0.002678,0.000431,0.000470
27704000,0.0324,0.013523,0.002678,0.000431,0.000235
27705000,0.0324,0.013523,0.002678,0.000431,0.000235
27706000,0.0324,0.013523,0.002678,0.000431,0.000470
27707000,0.0324,0.013523,0.002678,0.000431,0.000353
27708000,0.0324,0.013523,0.002678,0.000431,0.000235
27709000,0.0324,0.013523,0.002678,0.000431,0.000353
27710000,0.0324,0.013523,0.002678,0.000431,0.000470
27711000,0.0324,0.013523,0.002678,0.000431,0.000235
27712000,0.0324,0.013523,0.002678,0.000431,0.000235
27713000,0.0324,0.013523,0.002678,0.000431,0.000470
27714000,0.0324,0.013523,0.002678,0.000431,0.000353
27715000,0.0324,0.013523,0.002678,0.000431,0.000235
27716000,0.0324,0.013523,0.002678,0.000431,0.000353
27717000,0.0324,0.013523,0.002678,0.000431,0.000470
27718000,0.0324,0.013523,0.002678,0.000431,0.000235
27719000,0.0324,0.013523,0.002678,0.000431,0.000235
27720000,0.0324,0.013523,0.002678,0.000431,0.000470
27721000,0.0324,0.013523,0.002678,0.000431,0.000353
27722000,0.0324,0.013523,0.002678,0.000431,0.000235
27723000,0.0324,0.013523,0.002678,0.000431,0.000353
27724000,0.0324,0.013523,0.002678,0.000431,0.000470
27725000,0.0324,0.013523,0.002678,0.000431,0.000235
27726000,0.0324,0.013523,0.002678,0.000431,0.000235
27727000,0.0324,0.013523,0.002678,0.000431,0.000470
27728000,0.0324,0.013523,0.002678,0.000431,0.000353
27729000,0.0324,0.013523,0.002678,0.000431,0.000235
27730000,0.0324,0.013523,0.002678,0.000431,0.000353
27731000,0.0324,0.013523,0.002678,0.000431,0.000470
27732000,0.0324,0.013523,0.002678,0.000431,0.000235
27733000,0.0324,0.013523,0.002678,0.000431,0.000235
27734000,0.0324,0.013523,0.002678,0.000431,0.000470
27735000,0.0324,0.013523,0.002678,0.000431,0.000353
27736000,0.0324,0.013523,0.002678,0.000431,0.000235
27737000,0.0324,0.013523,0.002678,0.000431,0.000353
27738000,0.0324,0.013523,0.002678,0.000431,0.000470
27739000,0.0324,0.013523,0.002678,0.000431,0.000118
27740000,0.0324,0.013523,0.002678,0.000431,0.000353
27741000,0.0324,0.013523,0.002678,0.000431,0.000470
27742000,0.0324,0.013523,0.002678,0.000431,0.000353
27743000,0.0324,0.013523,0.002678,0.000431,0.000235
27744000,0.0324,0.013523,0.002678,0.000431,0.000353
27745000,0.0324,0.013523,0.002678,0.000431,0.000470
27746000,0.0324,0.013523,0.002678,0.000431,0.000118
27747000,0.0324,0.013523,0.002678,0.000431,0.000353
27748000,0.0324,0.013523,0.002678,0.000431,0.000470
27749000,0.0324,0.013523,0.002678,0.000431,0.000353
27750000,0.0324,0.013523,0.002678,0.000431,0.000235
27751000,0.0324,0.013523,0.002678,0.000431,0.000353
27752000,0.0324,0.013523,0.002678,0.000431,0.000470
27753000,0.0324,0.013523,0.002678,0.000431,0.000118
27754000,0.0324,0.013523,0.002678,0.000431,0.000353
27755000,0.0324,0.013523,0.002678,0.000431,0.000470
27756000,0.0324,0.013523,0.002678,0.000431,0.000353
27757000,0.0324,0.013523,0.002678,0.000431,0.000235
27758000,0.0324,0.013523,0.002678,0.000431,0.000353
27759000,0.0324,0.013523,0.002678,0.000431,0.000470
27760000,0.0324,0.013523,0.002678,0.000431,0.000118
27761000,0.0324,0.013523,0.002678,0.000431,0.000353
27762000,0.0324,0.013523,0.002678,0.000431,0.000470
27763000,0.0324,0.013523,0.002678,0.000431,0.000353
27764000,0.0324,0.013523,0.002678,0.000431,0.000235
27765000,0.0324,0.013523,0.002678,0.000431,0.000353
27766000,0.0324,0.013523,0.002678,0.000431,0.000353
27767000,0.0324,0.013523,0.002678,0.000431,0.000235
27768000,0.0324,0.013523,0.002678,0.000431,0.000353
27769000,0.0324,0.013523,0.002678,0.000431,0.000470
27770000,0.0324,0.013523,0.002678,0.000431,0.000353
27771000,0.0324,0.013523,0.002678,0.000431,0.000235
27772000,0.0324,0.013523,0.002678,0.000431,0.000353
27773000,0.0324,0.013523,0.002678,0.000431,0.000353
27774000,0.0324,0.013523,0.002678,0.000431,0.000235
27775000,0.0324,0.013523,0.002678,0.000431,0.000353
27776000,0.0324,0.013523,0.002678,0.000431,0.000470
27777000,0.0324,0.013523,0.002678,0.000431,0.000353
27778000,0.0324,0.013523,0.002678,0.000431,0.000235
27779000,0.0324,0.013523,0.002678,0.000431,0.000353
27780000,0.0324,0.013523,0.002678,0.000431,0.000353
27781000,0.0324,0.013523,0.002678,0.000431,0.000235
27782000,0.0324,0.013523,0.002678,0.000431,0.000353
27783000,0.0324,0.013523,0.002678,0.000431,0.000470
27784000,0.0324,0.013523,0.002678,0.000431,0.000353
27785000,0.0324,0.013523,0.002678,0.000431,0.000235
27786000,0.0324,0.013523,0.002678,0.000431,0.000353
27787000,0.0324,0.013523,0.002678,0.000431,0.000353
27788000,0.0324,0.013523,0.002678,0.000431,0.000235
27789000,0.0324,0.013523,0.002678,0.000431,0.000353
27790000,0.0324,0.013523,0.002678,0.000431,0.000470
27791000,0.0324,0.013523,0.002678,0.000431,0.000353
27792000,0.0324,0.013523,0.002678,0.000431,0.000235
27793000,0.0324,0.013523,0.002678,0.000431,0.000353
27794000,0.0324,0.013523,0.002678,0.000431,0.000353
27795000,0.0324,0.013523,0.002678,0.000431,0.000235
27796000,0.0324,0.013523,0.002678,0.000431,0.000353
27797000,0.0324,0.013523,0.002678,0.000431,0.000470
27798000,0.0324,0.013523,0.002678,0.000431,0.000353
27799000,0.0324,0.013523,0.002678,0.000431,0.000118
27800000,0.0324,0.013523,0.002678,0.000431,0.000470
27801000,0.0324,0.013523,0.002678,0.000431,0.000353
27802000,0.0324,0.013523,0.002678,0.000431,0.000235
27803000,0.0324,0.013523,0.002678,0.000431,0.000353
27804000,0.0324,0.013523,0.002678,0.000431,0.000470
27805000,0.0324,0.013523,0.002678,0.000431,0.000235
27806000,0.0324,0.013523,0.002678,0.000431,0.000235
27807000,0.0324,0.013523,0.002678,0.000431,0.000470
27808000,0.0324,0.013523,0.002678,0.000431,0.000353
27809000,0.0324,0.013523,0.002678,0.000431,0.000235
27810000,0.0324,0.013523,0.002678,0.000431,0.000353
27811000,0.0324,0.013523,0.002678,0.000431,0.000470
27812000,0.0324,0.013523,0.002678,0.000431,0.000235
27813000,0.0324,0.013523,0.002678,0.000431,0.000235
27814000,0.0324,0.013523,0.002678,0.000431,0.000470
27815000,0.0324,0.013523,0.002678,0.000431,0.000353
27816000,0.0324,0.013523,0.002678,0.000431,0.000235
27817000,0.0324,0.013523,0.002678,0.000431,0.000353
27818000,0.0324,0.013523,0.002678,0.000431,0.000470
27819000,0.0324,0.013523,0.002678,0.000431,0.000118
27820000,0.0324,0.013523,0.002678,0.000431,0.000353
27821000,0.0324,0.013523,0.002678,0.000431,0.000470
27822000,0.0324,0.013523,0.002678,0.000431,0.000353
27823000,0.0324,0.013523,0.002678,0.000431,0.000235
27824000,0.0324,0.013523,0.002678,0.000431,0.000353
27825000,0.0324,0.013523,0.002678,0.000431,0.000353
27826000,0.0324,0.013523,0.002678,0.000431,0.000235
27827000,0.0324,0.013523,0.002678,0.000431,0.000353
27828000,0.0324,0.013523,0.002678,0.000431,0.000470
27829000,0.0324,0.013523,0.002678,0.000431,0.000353
27830000,0.0324,0.013523,0.002678,0.000431,0.000235
27831000,0.0324,0.013523,0.002678,0.000431,0.000353
27832000,0.0324,0.013523,0.002678,0.000431,0.000353
27833000,0.0324,0.013523,0.002678,0.000431,0.000235
27834000,0.0324,0.013523,0.002678,0.000431,0.000353
27835000,0.0324,0.013523,0.002678,0.000431,0.000470
27836000,0.0324,0.013523,0.002678,0.000431,0.000353
27837000,0.0324,0.013523,0.002678,0.000431,0.000118
27838000,0.0324,0.013523,0.002678,0.000431,0.000470
27839000,0.0324,0.013523,0.002678,0.000431,0.000353
27840000,0.0324,0.013523,0.002678,0.000431,0.000235
27841000,0.0324,0.013523,0.002678,0.000431,0.000353
27842000,0.0324,0.013523,0.002678,0.000431,0.000470
27843000,0.0324,0.013523,0.002678,0.000431,0.000353
27844000,0.0324,0.013523,0.002678,0.000431,0.000118
27845000,0.0324,0.013523,0.002678,0.000431,0.000470
27846000,0.0324,0.013523,0.002678,0.000431,0.000353
27847000,0.0324,0.013523,0.002678,0.000431,0.000235
27848000,0.0324,0.013523,0.002678,0.000431,0.000353
27849000,0.0324,0.013523,0.002678,0.000431,0.000470
27850000,0.0324,0.013523,0.002678,0.000431,0.000235
27851000,0.0324,0.013523,0.002678,0.000431,0.000235
27852000,0.0324,0.013523,0.002678,0.000431,0.000470
27853000,0.0324,0.013523,0.002678,0.000431,0.000353
27854000,0.0324,0.013523,0.002678,0.000431,0.000235
27855000,0.0324,0.013523,0.002678,0.000431,0.000353
27856000,0.0324,0.013523,0.002678,0.000431,0.000470
27857000,0.0324,0.013523,0.002678,0.000431,0.000118
27858000,0.0324,0.013523,0.002678,0.000431,0.000353
27859000,0.0324,0.013523,0.002678,0.000431,0.000470
27860000,0.0324,0.013523,0.002678,0.000431,0.000353
27861000,0.0324,0.013523,0.002678,0.000431,0.000235
27862000,0.0324,0.013523,0.002678,0.000431,0.000353
27863000,0.0324,0.013523,0.002678,0.000431,0.000353
27864000,0.0324,0.013523,0.002678,0.000431,0.000235
27865000,0.0324,0.013523,0.002678,0.000431,0.000353
27866000,0.0324,0.013523,0.002678,0.000431,0.000470
27867000,0.0324,0.013523,0.002678,0.000431,0.000353
27868000,0.0324,0.013523,0.002678,0.000431,0.000235
27869000,0.0324,0.013523,0.002678,0.000431,0.000353
27870000,0.0324,0.013523,0.002678,0.000431,0.000353
27871000,0.0324,0.013523,0.002678,0.000431,0.000235
27872000,0.0324,0.013523,0.002678,0.000431,0.000353
27873000,0.0324,0.013523,0.002678,0.000431,0.000470
27874000,0.0324,0.013523,0.002678,0.000431,0.000353
27875000,0.0324,0.013523,0.002678,0.000431,0.000235
27876000,0.0324,0.013523,0.002678,0.000431,0.000353
27877000,0.0324,0.013523,0.002678,0.000431,0.000353
27878000,0.0324,0.013523,0.002678,0.000431,0.000235
27879000,0.0324,0.013523,0.002678,0.000431,0.000353
27880000,0.0324,0.013523,0.002678,0.000431,0.000470
27881000,0.0324,0.013523,0.002678,0.000431,0.000353
27882000,0.0324,0.013523,0.002678,0.000431,0.000118
27883000,0.0324,0.013523,0.002678,0.000431,0.000470
27884000,0.0324,0.013523,0.002678,0.000431,0.000353
27885000,0.0324,0.013523,0.002678,0.000431,0.000235
27886000,0.0324,0.013523,0.002678,0.000431,0.000353
27887000,0.0324,0.013523,0.002678,0.000431,0.000470
27888000,0.0324,0.013523,0.002678,0.000431,0.000235
27889000,0.0324,0.013523,0.002678,0.000431,0.000235
27890000,0.0324,0.013523,0.002678,0.000431,0.000470
27891000,0.0324,0.013523,0.002678,0.000431,0.000353
27892000,0.0324,0.013523,0.002678,0.000431,0.000235
27893000,0.0324,0.013523,0.002678,0.000431,0.000353
27894000,0.0324,0.013523,0.002678,0.000431,0.000470
27895000,0.0324,0.013523,0.002678,0.000431,0.000235
27896000,0.0324,0.013523,0.002678,0.000431,0.000235
27897000,0.0324,0.013523,0.002678,0.000431,0.000470
27898000,0.0324,0.013523,0.002678,0.000431,0.000353
27899000,0.0324,0.013523,0.002678,0.000431,0.000235
27900000,0.0324,0.013523,0.002678,0.000431,0.000353
27901000,0.0324,0.013523,0.002678,0.000431,0.000470
27902000,0.0324,0.013523,0.002678,0.000431,0.000118
27903000,0.0324,0.013523,0.002678,0.000431,0.000353
27904000,0.0324,0.013523,0.002678,0.000431,0.000470
27905000,0.0324,0.013523,0.002678,0.000431,0.000353
27906000,0.0324,0.013523,0.002678,0.000431,0.000235
27907000,0.0324,0.013523,0.002678,0.000431,0.000353
27908000,0.0324,0.013523,0.002678,0.000431,0.000353
27909000,0.0324,0.013523,0.002678,0.000431,0.000235
27910000,0.0324,0.013523,0.002678,0.000431,0.000353
27911000,0.0324,0.013523,0.002678,0.000431,0.000470
27912000,0.0324,0.013523,0.002678,0.000431,0.000353
27913000,0.0324,0.013523,0.002678,0.000431,0.000235
27914000,0.0324,0.013523,0.002678,0.000431,0.000353
27915000,0.0324,0.013523,0.002678,0.000431,0.000353
27916000,0.0324,0.013523,0.002678,0.000431,0.000235
27917000,0.0324,0.013523,0.002678,0.000431,0.000353
27918000,0.0324,0.013523,0.002678,0.000431,0.000470
27919000,0.0324,0.013523,0.002678,0.000431,0.000353
27920000,0.0324,0.013523,0.002678,0.000431,0.000235
27921000,0.0324,0.013523,0.002678,0.000431,0.000353
27922000,0.0324,0.013523,0.002678,0.000431,0.000353
27923000,0.0324,0.013523,0.002678,0.000431,0.000235
27924000,0.0324,0.013523,0.002678,0.000431,0.000353
27925000,0.0324,0.013523,0.002678,0.000431,0.000470
27926000,0.0324,0.013523,0.002678,0.000431,0.000353
27927000,0.0324,0.013523,0.002678,0.000431,0.000118
27928000,0.0324,0.013523,0.002678,0.000431,0.000470
27929000,0.0324,0.013523,0.002678,0.000431,0.000353
27930000,0.0324,0.013523,0.002678,0.000431,0.000235
27931000,0.0324,0.013523,0.002678,0.000431,0.000353
27932000,0.0324,0.013523,0.002678,0.000431,0.000470
27933000,0.0324,0.013523,0.002678,0.000431,0.000353
27934000,0.0324,0.013523,0.002678,0.000431,0.000118
27935000,0.0324,0.013523,0.002678,0.000431,0.000470
27936000,0.0324,0.013523,0.002678,0.000431,0.000353
27937000,0.0324,0.013523,0.002678,0.000431,0.000235
27938000,0.0324,0.013523,0.002678,0.000431,0.000353
27939000,0.0324,0.013523,0.002678,0.000431,0.000470
27940000,0.0324,0.013523,0.002678,0.000431,0.000353
27941000,0.0324,0.013523,0.002678,0.000431,0.000118
27942000,0.0324,0.013523,0.002678,0.000431,0.000470
27943000,0.0324,0.013523,0.002678,0.000431,0.000353
27944000,0.0324,0.013523,0.002678,0.000431,0.000235
27945000,0.0324,0.013523,0.002678,0.000431,0.000353
27946000,0.0324,0.013523,0.002678,0.000431,0.000470
27947000,0.0324,0.013523,0.002678,0.000431,0.000235
27948000,0.0324,0.013523,0.002678,0.000431,0.000235
27949000,0.0324,0.013523,0.002678,0.000431,0.000470
27950000,0.0324,0.013523,0.002678,0.000431,0.000353
27951000,0.0324,0.013523,0.002678,0.000431,0.000235
27952000,0.0324,0.013523,0.002678,0.000431,0.000353
27953000,0.0324,0.013523,0.002678,0.000431,0.000470
27954000,0.0324,0.013523,0.002678,0.000431,0.000235
27955000,0.0324,0.013523,0.002678,0.000431,0.000235
27956000,0.0324,0.013523,0.002678,0.000431,0.000470
27957000,0.0324,0.013523,0.002678,0.000431,0.000353
27958000,0.0324,0.013523,0.002678,0.000431,0.000235
27959000,0.0324,0.013523,0.002678,0.000431,0.000353
27960000,0.0324,0.013523,0.002678,0.000431,0.000470
27961000,0.0324,0.013523,0.002678,0.000431,0.000235
27962000,0.0324,0.013523,0.002678,0.000431,0.000235
27963000,0.0324,0.013523,0.002678,0.000431,0.000470
27964000,0.0324,0.013523,0.002678,0.000431,0.000353
27965000,0.0324,0.013523,0.002678,0.000431,0.000235
27966000,0.0324,0.013523,0.002678,0.000431,0.000353
27967000,0.0324,0.013523,0.002678,0.000431,0.000470
27968000,0.0324,0.013523,0.002678,0.000431,0.000235
27969000,0.0324,0.013523,0.002678,0.000431,0.000235
27970000,0.0324,0.013523,0.002678,0.000431,0.000470
27971000,0.0324,0.013523,0.002678,0.000431,0.000353
27972000,0.0324,0.013523,0.002678,0.000431,0.000235
27973000,0.0324,0.013523,0.002678,0.000431,0.000353
27974000,0.0324,0.013523,0.002678,0.000431,0.000470
27975000,0.0324,0.013523,0.002678,0.000431,0.000235
27976000,0.0324,0.013523,0.002678,0.000431,0.000235
27977000,0.0324,0.013523,0.002678,0.000431,0.000470
27978000,0.0324,0.013523,0.002678,0.000431,0.000353
27979000,0.0324,0.013523,0.002678,0.000431,0.000235
27980000,0.0324,0.013523,0.002678,0.000431,0.000353
27981000,0.0324,0.013523,0.002678,0.000431,0.000470
27982000,0.0324,0.013523,0.002678,0.000431,0.000235
27983000,0.0324,0.013523,0.002678,0.000431,0.000235
27984000,0.0324,0.013523,0.002678,0.000431,0.000470
27985000,0.0324,0.013523,0.002678,0.000431,0.000353
27986000,0.0324,0.013523,0.002678,0.000431,0.000235
27987000,0.0324,0.013523,0.002678,0.000431,0.000353
27988000,0.0324,0.013523,0.002678,0.000431,0.000470
27989000,0.0324,0.013523,0.002678,0.000431,0.000118
27990000,0.0324,0.013523,0.002678,0.000431,0.000353
27991000,0.0324,0.013523,0.002678,0.000431,0.000470
27992000,0.0324,0.013523,0.002678,0.000431,0.000353
27993000,0.0324,0.013523,0.002678,0.000431,0.000235
27994000,0.0324,0.013523,0.002678,0.000431,0.000353
27995000,0.0324,0.013523,0.002678,0.000431,0.000470
27996000,0.0324,0.013523,0.002678,0.000431,0.000118
27997000,0.0324,0.013523,0.002678,0.000431,0.000353
27998000,0.0324,0.013523,0.002678,0.000431,0.000470
27999000,0.0324,0.013523,0.002678,0.000431,0.000353
