Cycle,Area(mm^2),PeakDynamic(W),SubthresholdLeakage(W),GateLeakage(W),RunTimeDynamic(W)
36000000,0.0324,0.013523,0.002678,0.000431,0.000118
36001000,0.0324,0.013523,0.002678,0.000431,0.000470
36002000,0.0324,0.013523,0.002678,0.000431,0.000353
36003000,0.0324,0.013523,0.002678,0.000431,0.000235
36004000,0.0324,0.013523,0.002678,0.000431,0.000353
36005000,0.0324,0.013523,0.002678,0.000431,0.000470
36006000,0.0324,0.013523,0.002678,0.000431,0.000235
36007000,0.0324,0.013523,0.002678,0.000431,0.000235
36008000,0.0324,0.013523,0.002678,0.000431,0.000470
36009000,0.0324,0.013523,0.002678,0.000431,0.000353
36010000,0.0324,0.013523,0.002678,0.000431,0.000235
36011000,0.0324,0.013523,0.002678,0.000431,0.000353
36012000,0.0324,0.013523,0.002678,0.000431,0.000470
36013000,0.0324,0.013523,0.002678,0.000431,0.000235
36014000,0.0324,0.013523,0.002678,0.000431,0.000235
36015000,0.0324,0.013523,0.002678,0.000431,0.000470
36016000,0.0324,0.013523,0.002678,0.000431,0.000353
36017000,0.0324,0.013523,0.002678,0.000431,0.000235
36018000,0.0324,0.013523,0.002678,0.000431,0.000353
36019000,0.0324,0.013523,0.002678,0.000431,0.000470
36020000,0.0324,0.013523,0.002678,0.000431,0.000235
36021000,0.0324,0.013523,0.002678,0.000431,0.000235
36022000,0.0324,0.013523,0.002678,0.000431,0.000470
36023000,0.0324,0.013523,0.002678,0.000431,0.000353
36024000,0.0324,0.013523,0.002678,0.000431,0.000235
36025000,0.0324,0.013523,0.002678,0.000431,0.000353
36026000,0.0324,0.013523,0.002678,0.000431,0.000470
36027000,0.0324,0.013523,0.002678,0.000431,0.000235
36028000,0.0324,0.013523,0.002678,0.000431,0.000235
36029000,0.0324,0.013523,0.002678,0.000431,0.000470
36030000,0.0324,0.013523,0.002678,0.000431,0.000353
36031000,0.0324,0.013523,0.002678,0.000431,0.000235
36032000,0.0324,0.013523,0.002678,0.000431,0.000353
36033000,0.0324,0.013523,0.002678,0.000431,0.000470
36034000,0.0324,0.013523,0.002678,0.000431,0.000235
36035000,0.0324,0.013523,0.002678,0.000431,0.000235
36036000,0.0324,0.013523,0.002678,0.000431,0.000470
36037000,0.0324,0.013523,0.002678,0.000431,0.000353
36038000,0.0324,0.013523,0.002678,0.000431,0.000235
36039000,0.0324,0.013523,0.002678,0.000431,0.000353
36040000,0.0324,0.013523,0.002678,0.000431,0.000470
36041000,0.0324,0.013523,0.002678,0.000431,0.000235
36042000,0.0324,0.013523,0.002678,0.000431,0.000235
36043000,0.0324,0.013523,0.002678,0.000431,0.000470
36044000,0.0324,0.013523,0.002678,0.000431,0.000353
36045000,0.0324,0.013523,0.002678,0.000431,0.000235
36046000,0.0324,0.013523,0.002678,0.000431,0.000353
36047000,0.0324,0.013523,0.002678,0.000431,0.000470
36048000,0.0324,0.013523,0.002678,0.000431,0.000118
36049000,0.0324,0.013523,0.002678,0.000431,0.000353
36050000,0.0324,0.013523,0.002678,0.000431,0.000470
36051000,0.0324,0.013523,0.002678,0.000431,0.000353
36052000,0.0324,0.013523,0.002678,0.000431,0.000235
36053000,0.0324,0.013523,0.002678,0.000431,0.000353
36054000,0.0324,0.013523,0.002678,0.000431,0.000470
36055000,0.0324,0.013523,0.002678,0.000431,0.000118
36056000,0.0324,0.013523,0.002678,0.000431,0.000353
36057000,0.0324,0.013523,0.002678,0.000431,0.000470
36058000,0.0324,0.013523,0.002678,0.000431,0.000353
36059000,0.0324,0.013523,0.002678,0.000431,0.000235
36060000,0.0324,0.013523,0.002678,0.000431,0.000353
36061000,0.0324,0.013523,0.002678,0.000431,0.000470
36062000,0.0324,0.013523,0.002678,0.000431,0.000118
36063000,0.0324,0.013523,0.002678,0.000431,0.000353
36064000,0.0324,0.013523,0.002678,0.000431,0.000470
36065000,0.0324,0.013523,0.002678,0.000431,0.000353
36066000,0.0324,0.013523,0.002678,0.000431,0.000235
36067000,0.0324,0.013523,0.002678,0.000431,0.000353
36068000,0.0324,0.013523,0.002678,0.000431,0.000353
36069000,0.0324,0.013523,0.002678,0.000431,0.000235
36070000,0.0324,0.013523,0.002678,0.000431,0.000353
36071000,0.0324,0.013523,0.002678,0.000431,0.000470
36072000,0.0324,0.013523,0.002678,0.000431,0.000353
36073000,0.0324,0.013523,0.002678,0.000431,0.000235
36074000,0.0324,0.013523,0.002678,0.000431,0.000353
36075000,0.0324,0.013523,0.002678,0.000431,0.000353
36076000,0.0324,0.013523,0.002678,0.000431,0.000235
36077000,0.0324,0.013523,0.002678,0.000431,0.000353
36078000,0.0324,0.013523,0.002678,0.000431,0.000470
36079000,0.0324,0.013523,0.002678,0.000431,0.000353
36080000,0.0324,0.013523,0.002678,0.000431,0.000235
36081000,0.0324,0.013523,0.002678,0.000431,0.000353
36082000,0.0324,0.013523,0.002678,0.000431,0.000353
36083000,0.0324,0.013523,0.002678,0.000431,0.000235
36084000,0.0324,0.013523,0.002678,0.000431,0.000353
36085000,0.0324,0.013523,0.002678,0.000431,0.000470
36086000,0.0324,0.013523,0.002678,0.000431,0.000353
36087000,0.0324,0.013523,0.002678,0.000431,0.000235
36088000,0.0324,0.013523,0.002678,0.000431,0.000353
36089000,0.0324,0.013523,0.002678,0.000431,0.000353
36090000,0.0324,0.013523,0.002678,0.000431,0.000235
36091000,0.0324,0.013523,0.002678,0.000431,0.000353
36092000,0.0324,0.013523,0.002678,0.000431,0.000470
36093000,0.0324,0.013523,0.002678,0.000431,0.000353
36094000,0.0324,0.013523,0.002678,0.000431,0.000235
36095000,0.0324,0.013523,0.002678,0.000431,0.000353
36096000,0.0324,0.013523,0.002678,0.000431,0.000353
36097000,0.0324,0.013523,0.002678,0.000431,0.000235
36098000,0.0324,0.013523,0.002678,0.000431,0.000353
36099000,0.0324,0.013523,0.002678,0.000431,0.000470
36100000,0.0324,0.013523,0.002678,0.000431,0.000353
36101000,0.0324,0.013523,0.002678,0.000431,0.000235
36102000,0.0324,0.013523,0.002678,0.000431,0.000353
36103000,0.0324,0.013523,0.002678,0.000431,0.000353
36104000,0.0324,0.013523,0.002678,0.000431,0.000235
36105000,0.0324,0.013523,0.002678,0.000431,0.000353
36106000,0.0324,0.013523,0.002678,0.000431,0.000470
36107000,0.0324,0.013523,0.002678,0.000431,0.000353
36108000,0.0324,0.013523,0.002678,0.000431,0.000235
36109000,0.0324,0.013523,0.002678,0.000431,0.000353
36110000,0.0324,0.013523,0.002678,0.000431,0.000353
36111000,0.0324,0.013523,0.002678,0.000431,0.000235
36112000,0.0324,0.013523,0.002678,0.000431,0.000353
36113000,0.0324,0.013523,0.002678,0.000431,0.000470
36114000,0.0324,0.013523,0.002678,0.000431,0.000353
36115000,0.0324,0.013523,0.002678,0.000431,0.000235
36116000,0.0324,0.013523,0.002678,0.000431,0.000353
36117000,0.0324,0.013523,0.002678,0.000431,0.000353
36118000,0.0324,0.013523,0.002678,0.000431,0.000235
36119000,0.0324,0.013523,0.002678,0.000431,0.000353
36120000,0.0324,0.013523,0.002678,0.000431,0.000470
36121000,0.0324,0.013523,0.002678,0.000431,0.000353
36122000,0.0324,0.013523,0.002678,0.000431,0.000118
36123000,0.0324,0.013523,0.002678,0.000431,0.000470
36124000,0.0324,0.013523,0.002678,0.000431,0.000353
36125000,0.0324,0.013523,0.002678,0.000431,0.000235
36126000,0.0324,0.013523,0.002678,0.000431,0.000353
36127000,0.0324,0.013523,0.002678,0.000431,0.000470
36128000,0.0324,0.013523,0.002678,0.000431,0.000353
36129000,0.0324,0.013523,0.002678,0.000431,0.000118
36130000,0.0324,0.013523,0.002678,0.000431,0.000470
36131000,0.0324,0.013523,0.002678,0.000431,0.000353
36132000,0.0324,0.013523,0.002678,0.000431,0.000235
36133000,0.0324,0.013523,0.002678,0.000431,0.000353
36134000,0.0324,0.013523,0.002678,0.000431,0.000470
36135000,0.0324,0.013523,0.002678,0.000431,0.000353
36136000,0.0324,0.013523,0.002678,0.000431,0.000118
36137000,0.0324,0.013523,0.002678,0.000431,0.000470
36138000,0.0324,0.013523,0.002678,0.000431,0.000353
36139000,0.0324,0.013523,0.002678,0.000431,0.000235
36140000,0.0324,0.013523,0.002678,0.000431,0.000353
36141000,0.0324,0.013523,0.002678,0.000431,0.000470
36142000,0.0324,0.013523,0.002678,0.000431,0.000235
36143000,0.0324,0.013523,0.002678,0.000431,0.000235
36144000,0.0324,0.013523,0.002678,0.000431,0.000470
36145000,0.0324,0.013523,0.002678,0.000431,0.000353
36146000,0.0324,0.013523,0.002678,0.000431,0.000235
36147000,0.0324,0.013523,0.002678,0.000431,0.000353
36148000,0.0324,0.013523,0.002678,0.000431,0.000470
36149000,0.0324,0.013523,0.002678,0.000431,0.000235
36150000,0.0324,0.013523,0.002678,0.000431,0.000235
36151000,0.0324,0.013523,0.002678,0.000431,0.000470
36152000,0.0324,0.013523,0.002678,0.000431,0.000353
36153000,0.0324,0.013523,0.002678,0.000431,0.000235
36154000,0.0324,0.013523,0.002678,0.000431,0.000353
36155000,0.0324,0.013523,0.002678,0.000431,0.000470
36156000,0.0324,0.013523,0.002678,0.000431,0.000235
36157000,0.0324,0.013523,0.002678,0.000431,0.000235
36158000,0.0324,0.013523,0.002678,0.000431,0.000470
36159000,0.0324,0.013523,0.002678,0.000431,0.000353
36160000,0.0324,0.013523,0.002678,0.000431,0.000235
36161000,0.0324,0.013523,0.002678,0.000431,0.000353
36162000,0.0324,0.013523,0.002678,0.000431,0.000470
36163000,0.0324,0.013523,0.002678,0.000431,0.000235
36164000,0.0324,0.013523,0.002678,0.000431,0.000235
36165000,0.0324,0.013523,0.002678,0.000431,0.000470
36166000,0.0324,0.013523,0.002678,0.000431,0.000353
36167000,0.0324,0.013523,0.002678,0.000431,0.000235
36168000,0.0324,0.013523,0.002678,0.000431,0.000353
36169000,0.0324,0.013523,0.002678,0.000431,0.000470
36170000,0.0324,0.013523,0.002678,0.000431,0.000235
36171000,0.0324,0.013523,0.002678,0.000431,0.000235
36172000,0.0324,0.013523,0.002678,0.000431,0.000470
36173000,0.0324,0.013523,0.002678,0.000431,0.000353
36174000,0.0324,0.013523,0.002678,0.000431,0.000235
36175000,0.0324,0.013523,0.002678,0.000431,0.000353
36176000,0.0324,0.013523,0.002678,0.000431,0.000470
36177000,0.0324,0.013523,0.002678,0.000431,0.000235
36178000,0.0324,0.013523,0.002678,0.000431,0.000235
36179000,0.0324,0.013523,0.002678,0.000431,0.000470
36180000,0.0324,0.013523,0.002678,0.000431,0.000353
36181000,0.0324,0.013523,0.002678,0.000431,0.000235
36182000,0.0324,0.013523,0.002678,0.000431,0.000353
36183000,0.0324,0.013523,0.002678,0.000431,0.000470
36184000,0.0324,0.013523,0.002678,0.000431,0.000118
36185000,0.0324,0.013523,0.002678,0.000431,0.000353
36186000,0.0324,0.013523,0.002678,0.000431,0.000470
36187000,0.0324,0.013523,0.002678,0.000431,0.000353
36188000,0.0324,0.013523,0.002678,0.000431,0.000235
36189000,0.0324,0.013523,0.002678,0.000431,0.000353
36190000,0.0324,0.013523,0.002678,0.000431,0.000470
36191000,0.0324,0.013523,0.002678,0.000431,0.000118
36192000,0.0324,0.013523,0.002678,0.000431,0.000353
36193000,0.0324,0.013523,0.002678,0.000431,0.000470
36194000,0.0324,0.013523,0.002678,0.000431,0.000353
36195000,0.0324,0.013523,0.002678,0.000431,0.000235
36196000,0.0324,0.013523,0.002678,0.000431,0.000353
36197000,0.0324,0.013523,0.002678,0.000431,0.000470
36198000,0.0324,0.013523,0.002678,0.000431,0.000118
36199000,0.0324,0.013523,0.002678,0.000431,0.000353
36200000,0.0324,0.013523,0.002678,0.000431,0.000470
36201000,0.0324,0.013523,0.002678,0.000431,0.000353
36202000,0.0324,0.013523,0.002678,0.000431,0.000235
36203000,0.0324,0.013523,0.002678,0.000431,0.000353
36204000,0.0324,0.013523,0.002678,0.000431,0.000470
36205000,0.0324,0.013523,0.002678,0.000431,0.000118
36206000,0.0324,0.013523,0.002678,0.000431,0.000353
36207000,0.0324,0.013523,0.002678,0.000431,0.000470
36208000,0.0324,0.013523,0.002678,0.000431,0.000353
36209000,0.0324,0.013523,0.002678,0.000431,0.000235
36210000,0.0324,0.013523,0.002678,0.000431,0.000353
36211000,0.0324,0.013523,0.002678,0.000431,0.000353
36212000,0.0324,0.013523,0.002678,0.000431,0.000235
36213000,0.0324,0.013523,0.002678,0.000431,0.000353
36214000,0.0324,0.013523,0.002678,0.000431,0.000470
36215000,0.0324,0.013523,0.002678,0.000431,0.000353
36216000,0.0324,0.013523,0.002678,0.000431,0.000235
36217000,0.0324,0.013523,0.002678,0.000431,0.000353
36218000,0.0324,0.013523,0.002678,0.000431,0.000353
36219000,0.0324,0.013523,0.002678,0.000431,0.000235
36220000,0.0324,0.013523,0.002678,0.000431,0.000353
36221000,0.0324,0.013523,0.002678,0.000431,0.000470
36222000,0.0324,0.013523,0.002678,0.000431,0.000353
36223000,0.0324,0.013523,0.002678,0.000431,0.000235
36224000,0.0324,0.013523,0.002678,0.000431,0.000353
36225000,0.0324,0.013523,0.002678,0.000431,0.000353
36226000,0.0324,0.013523,0.002678,0.000431,0.000235
36227000,0.0324,0.013523,0.002678,0.000431,0.000353
36228000,0.0324,0.013523,0.002678,0.000431,0.000470
36229000,0.0324,0.013523,0.002678,0.000431,0.000353
36230000,0.0324,0.013523,0.002678,0.000431,0.000235
36231000,0.0324,0.013523,0.002678,0.000431,0.000353
36232000,0.0324,0.013523,0.002678,0.000431,0.000353
36233000,0.0324,0.013523,0.002678,0.000431,0.000235
36234000,0.0324,0.013523,0.002678,0.000431,0.000353
36235000,0.0324,0.013523,0.002678,0.000431,0.000470
36236000,0.0324,0.013523,0.002678,0.000431,0.000353
36237000,0.0324,0.013523,0.002678,0.000431,0.000235
36238000,0.0324,0.013523,0.002678,0.000431,0.000353
36239000,0.0324,0.013523,0.002678,0.000431,0.000353
36240000,0.0324,0.013523,0.002678,0.000431,0.000235
36241000,0.0324,0.013523,0.002678,0.000431,0.000353
36242000,0.0324,0.013523,0.002678,0.000431,0.000470
36243000,0.0324,0.013523,0.002678,0.000431,0.000353
36244000,0.0324,0.013523,0.002678,0.000431,0.000235
36245000,0.0324,0.013523,0.002678,0.000431,0.000353
36246000,0.0324,0.013523,0.002678,0.000431,0.000353
36247000,0.0324,0.013523,0.002678,0.000431,0.000235
36248000,0.0324,0.013523,0.002678,0.000431,0.000353
36249000,0.0324,0.013523,0.002678,0.000431,0.000470
36250000,0.0324,0.013523,0.002678,0.000431,0.000353
36251000,0.0324,0.013523,0.002678,0.000431,0.000235
36252000,0.0324,0.013523,0.002678,0.000431,0.000353
36253000,0.0324,0.013523,0.002678,0.000431,0.000353
36254000,0.0324,0.013523,0.002678,0.000431,0.000235
36255000,0.0324,0.013523,0.002678,0.000431,0.000353
36256000,0.0324,0.013523,0.002678,0.000431,0.000470
36257000,0.0324,0.013523,0.002678,0.000431,0.000353
36258000,0.0324,0.013523,0.002678,0.000431,0.000118
36259000,0.0324,0.013523,0.002678,0.000431,0.000470
36260000,0.0324,0.013523,0.002678,0.000431,0.000353
36261000,0.0324,0.013523,0.002678,0.000431,0.000235
36262000,0.0324,0.013523,0.002678,0.000431,0.000353
36263000,0.0324,0.013523,0.002678,0.000431,0.000470
36264000,0.0324,0.013523,0.002678,0.000431,0.000353
36265000,0.0324,0.013523,0.002678,0.000431,0.000118
36266000,0.0324,0.013523,0.002678,0.000431,0.000470
36267000,0.0324,0.013523,0.002678,0.000431,0.000353
36268000,0.0324,0.013523,0.002678,0.000431,0.000235
36269000,0.0324,0.013523,0.002678,0.000431,0.000353
36270000,0.0324,0.013523,0.002678,0.000431,0.000470
36271000,0.0324,0.013523,0.002678,0.000431,0.000353
36272000,0.0324,0.013523,0.002678,0.000431,0.000118
36273000,0.0324,0.013523,0.002678,0.000431,0.000470
36274000,0.0324,0.013523,0.002678,0.000431,0.000353
36275000,0.0324,0.013523,0.002678,0.000431,0.000235
36276000,0.0324,0.013523,0.002678,0.000431,0.000353
36277000,0.0324,0.013523,0.002678,0.000431,0.000470
36278000,0.0324,0.013523,0.002678,0.000431,0.000353
36279000,0.0324,0.013523,0.002678,0.000431,0.000118
36280000,0.0324,0.013523,0.002678,0.000431,0.000470
36281000,0.0324,0.013523,0.002678,0.000431,0.000353
36282000,0.0324,0.013523,0.002678,0.000431,0.000235
36283000,0.0324,0.013523,0.002678,0.000431,0.000353
36284000,0.0324,0.013523,0.002678,0.000431,0.000470
36285000,0.0324,0.013523,0.002678,0.000431,0.000235
36286000,0.0324,0.013523,0.002678,0.000431,0.000235
36287000,0.0324,0.013523,0.002678,0.000431,0.000470
36288000,0.0324,0.013523,0.002678,0.000431,0.000353
36289000,0.0324,0.013523,0.002678,0.000431,0.000235
36290000,0.0324,0.013523,0.002678,0.000431,0.000353
36291000,0.0324,0.013523,0.002678,0.000431,0.000470
36292000,0.0324,0.013523,0.002678,0.000431,0.000235
36293000,0.0324,0.013523,0.002678,0.000431,0.000235
36294000,0.0324,0.013523,0.002678,0.000431,0.000470
36295000,0.0324,0.013523,0.002678,0.000431,0.000353
36296000,0.0324,0.013523,0.002678,0.000431,0.000235
36297000,0.0324,0.013523,0.002678,0.000431,0.000353
36298000,0.0324,0.013523,0.002678,0.000431,0.000470
36299000,0.0324,0.013523,0.002678,0.000431,0.000235
36300000,0.0324,0.013523,0.002678,0.000431,0.000235
36301000,0.0324,0.013523,0.002678,0.000431,0.000470
36302000,0.0324,0.013523,0.002678,0.000431,0.000353
36303000,0.0324,0.013523,0.002678,0.000431,0.000235
36304000,0.0324,0.013523,0.002678,0.000431,0.000353
36305000,0.0324,0.013523,0.002678,0.000431,0.000470
36306000,0.0324,0.013523,0.002678,0.000431,0.000235
36307000,0.0324,0.013523,0.002678,0.000431,0.000235
36308000,0.0324,0.013523,0.002678,0.000431,0.000470
36309000,0.0324,0.013523,0.002678,0.000431,0.000353
36310000,0.0324,0.013523,0.002678,0.000431,0.000235
36311000,0.0324,0.013523,0.002678,0.000431,0.000353
36312000,0.0324,0.013523,0.002678,0.000431,0.000470
36313000,0.0324,0.013523,0.002678,0.000431,0.000235
36314000,0.0324,0.013523,0.002678,0.000431,0.000235
36315000,0.0324,0.013523,0.002678,0.000431,0.000470
36316000,0.0324,0.013523,0.002678,0.000431,0.000353
36317000,0.0324,0.013523,0.002678,0.000431,0.000235
36318000,0.0324,0.013523,0.002678,0.000431,0.000353
36319000,0.0324,0.013523,0.002678,0.000431,0.000470
36320000,0.0324,0.013523,0.002678,0.000431,0.000235
36321000,0.0324,0.013523,0.002678,0.000431,0.000235
36322000,0.0324,0.013523,0.002678,0.000431,0.000470
36323000,0.0324,0.013523,0.002678,0.000431,0.000353
36324000,0.0324,0.013523,0.002678,0.000431,0.000235
36325000,0.0324,0.013523,0.002678,0.000431,0.000353
36326000,0.0324,0.013523,0.002678,0.000431,0.000470
36327000,0.0324,0.013523,0.002678,0.000431,0.000118
36328000,0.0324,0.013523,0.002678,0.000431,0.000353
36329000,0.0324,0.013523,0.002678,0.000431,0.000470
36330000,0.0324,0.013523,0.002678,0.000431,0.000353
36331000,0.0324,0.013523,0.002678,0.000431,0.000235
36332000,0.0324,0.013523,0.002678,0.000431,0.000353
36333000,0.0324,0.013523,0.002678,0.000431,0.000470
36334000,0.0324,0.013523,0.002678,0.000431,0.000118
36335000,0.0324,0.013523,0.002678,0.000431,0.000353
36336000,0.0324,0.013523,0.002678,0.000431,0.000470
36337000,0.0324,0.013523,0.002678,0.000431,0.000353
36338000,0.0324,0.013523,0.002678,0.000431,0.000235
36339000,0.0324,0.013523,0.002678,0.000431,0.000353
36340000,0.0324,0.013523,0.002678,0.000431,0.000470
36341000,0.0324,0.013523,0.002678,0.000431,0.000118
36342000,0.0324,0.013523,0.002678,0.000431,0.000353
36343000,0.0324,0.013523,0.002678,0.000431,0.000470
36344000,0.0324,0.013523,0.002678,0.000431,0.000353
36345000,0.0324,0.013523,0.002678,0.000431,0.000235
36346000,0.0324,0.013523,0.002678,0.000431,0.000353
36347000,0.0324,0.013523,0.002678,0.000431,0.000353
36348000,0.0324,0.013523,0.002678,0.000431,0.000235
36349000,0.0324,0.013523,0.002678,0.000431,0.000353
36350000,0.0324,0.013523,0.002678,0.000431,0.000470
36351000,0.0324,0.013523,0.002678,0.000431,0.000353
36352000,0.0324,0.013523,0.002678,0.000431,0.000235
36353000,0.0324,0.013523,0.002678,0.000431,0.000353
36354000,0.0324,0.013523,0.002678,0.000431,0.000353
36355000,0.0324,0.013523,0.002678,0.000431,0.000235
36356000,0.0324,0.013523,0.002678,0.000431,0.000353
36357000,0.0324,0.013523,0.002678,0.000431,0.000470
36358000,0.0324,0.013523,0.002678,0.000431,0.000353
36359000,0.0324,0.013523,0.002678,0.000431,0.000235
36360000,0.0324,0.013523,0.002678,0.000431,0.000353
36361000,0.0324,0.013523,0.002678,0.000431,0.000353
36362000,0.0324,0.013523,0.002678,0.000431,0.000235
36363000,0.0324,0.013523,0.002678,0.000431,0.000353
36364000,0.0324,0.013523,0.002678,0.000431,0.000470
36365000,0.0324,0.013523,0.002678,0.000431,0.000353
36366000,0.0324,0.013523,0.002678,0.000431,0.000235
36367000,0.0324,0.013523,0.002678,0.000431,0.000353
36368000,0.0324,0.013523,0.002678,0.000431,0.000353
36369000,0.0324,0.013523,0.002678,0.000431,0.000235
36370000,0.0324,0.013523,0.002678,0.000431,0.000353
36371000,0.0324,0.013523,0.002678,0.000431,0.000470
36372000,0.0324,0.013523,0.002678,0.000431,0.000353
36373000,0.0324,0.013523,0.002678,0.000431,0.000235
36374000,0.0324,0.013523,0.002678,0.000431,0.000353
36375000,0.0324,0.013523,0.002678,0.000431,0.000353
36376000,0.0324,0.013523,0.002678,0.000431,0.000235
36377000,0.0324,0.013523,0.002678,0.000431,0.000353
36378000,0.0324,0.013523,0.002678,0.000431,0.000470
36379000,0.0324,0.013523,0.002678,0.000431,0.000353
36380000,0.0324,0.013523,0.002678,0.000431,0.000235
36381000,0.0324,0.013523,0.002678,0.000431,0.000353
36382000,0.0324,0.013523,0.002678,0.000431,0.000353
36383000,0.0324,0.013523,0.002678,0.000431,0.000235
36384000,0.0324,0.013523,0.002678,0.000431,0.000353
36385000,0.0324,0.013523,0.002678,0.000431,0.000470
36386000,0.0324,0.013523,0.002678,0.000431,0.000353
36387000,0.0324,0.013523,0.002678,0.000431,0.000235
36388000,0.0324,0.013523,0.002678,0.000431,0.000353
36389000,0.0324,0.013523,0.002678,0.000431,0.000353
36390000,0.0324,0.013523,0.002678,0.000431,0.000235
36391000,0.0324,0.013523,0.002678,0.000431,0.000353
36392000,0.0324,0.013523,0.002678,0.000431,0.000470
36393000,0.0324,0.013523,0.002678,0.000431,0.000353
36394000,0.0324,0.013523,0.002678,0.000431,0.000235
36395000,0.0324,0.013523,0.002678,0.000431,0.000353
36396000,0.0324,0.013523,0.002678,0.000431,0.000353
36397000,0.0324,0.013523,0.002678,0.000431,0.000235
36398000,0.0324,0.013523,0.002678,0.000431,0.000353
36399000,0.0324,0.013523,0.002678,0.000431,0.000470
36400000,0.0324,0.013523,0.002678,0.000431,0.000353
36401000,0.0324,0.013523,0.002678,0.000431,0.000118
36402000,0.0324,0.013523,0.002678,0.000431,0.000470
36403000,0.0324,0.013523,0.002678,0.000431,0.000353
36404000,0.0324,0.013523,0.002678,0.000431,0.000235
36405000,0.0324,0.013523,0.002678,0.000431,0.000353
36406000,0.0324,0.013523,0.002678,0.000431,0.000470
36407000,0.0324,0.013523,0.002678,0.000431,0.000353
36408000,0.0324,0.013523,0.002678,0.000431,0.000118
36409000,0.0324,0.013523,0.002678,0.000431,0.000470
36410000,0.0324,0.013523,0.002678,0.000431,0.000353
36411000,0.0324,0.013523,0.002678,0.000431,0.000235
36412000,0.0324,0.013523,0.002678,0.000431,0.000353
36413000,0.0324,0.013523,0.002678,0.000431,0.000470
36414000,0.0324,0.013523,0.002678,0.000431,0.000235
36415000,0.0324,0.013523,0.002678,0.000431,0.000235
36416000,0.0324,0.013523,0.002678,0.000431,0.000470
36417000,0.0324,0.013523,0.002678,0.000431,0.000353
36418000,0.0324,0.013523,0.002678,0.000431,0.000235
36419000,0.0324,0.013523,0.002678,0.000431,0.000353
36420000,0.0324,0.013523,0.002678,0.000431,0.000470
36421000,0.0324,0.013523,0.002678,0.000431,0.000235
36422000,0.0324,0.013523,0.002678,0.000431,0.000235
36423000,0.0324,0.013523,0.002678,0.000431,0.000470
36424000,0.0324,0.013523,0.002678,0.000431,0.000353
36425000,0.0324,0.013523,0.002678,0.000431,0.000235
36426000,0.0324,0.013523,0.002678,0.000431,0.000353
36427000,0.0324,0.013523,0.002678,0.000431,0.000470
36428000,0.0324,0.013523,0.002678,0.000431,0.000118
36429000,0.0324,0.013523,0.002678,0.000431,0.000353
36430000,0.0324,0.013523,0.002678,0.000431,0.000470
36431000,0.0324,0.013523,0.002678,0.000431,0.000353
36432000,0.0324,0.013523,0.002678,0.000431,0.000235
36433000,0.0324,0.013523,0.002678,0.000431,0.000353
36434000,0.0324,0.013523,0.002678,0.000431,0.000353
36435000,0.0324,0.013523,0.002678,0.000431,0.000235
36436000,0.0324,0.013523,0.002678,0.000431,0.000353
36437000,0.0324,0.013523,0.002678,0.000431,0.000470
36438000,0.0324,0.013523,0.002678,0.000431,0.000353
36439000,0.0324,0.013523,0.002678,0.000431,0.000235
36440000,0.0324,0.013523,0.002678,0.000431,0.000353
36441000,0.0324,0.013523,0.002678,0.000431,0.000353
36442000,0.0324,0.013523,0.002678,0.000431,0.000235
36443000,0.0324,0.013523,0.002678,0.000431,0.000353
36444000,0.0324,0.013523,0.002678,0.000431,0.000470
36445000,0.0324,0.013523,0.002678,0.000431,0.000353
36446000,0.0324,0.013523,0.002678,0.000431,0.000118
36447000,0.0324,0.013523,0.002678,0.000431,0.000470
36448000,0.0324,0.013523,0.002678,0.000431,0.000353
36449000,0.0324,0.013523,0.002678,0.000431,0.000235
36450000,0.0324,0.013523,0.002678,0.000431,0.000353
36451000,0.0324,0.013523,0.002678,0.000431,0.000470
36452000,0.0324,0.013523,0.002678,0.000431,0.000235
36453000,0.0324,0.013523,0.002678,0.000431,0.000235
36454000,0.0324,0.013523,0.002678,0.000431,0.000470
36455000,0.0324,0.013523,0.002678,0.000431,0.000353
36456000,0.0324,0.013523,0.002678,0.000431,0.000235
36457000,0.0324,0.013523,0.002678,0.000431,0.000353
36458000,0.0324,0.013523,0.002678,0.000431,0.000470
36459000,0.0324,0.013523,0.002678,0.000431,0.000235
36460000,0.0324,0.013523,0.002678,0.000431,0.000235
36461000,0.0324,0.013523,0.002678,0.000431,0.000470
36462000,0.0324,0.013523,0.002678,0.000431,0.000353
36463000,0.0324,0.013523,0.002678,0.000431,0.000235
36464000,0.0324,0.013523,0.002678,0.000431,0.000353
36465000,0.0324,0.013523,0.002678,0.000431,0.000470
36466000,0.0324,0.013523,0.002678,0.000431,0.000118
36467000,0.0324,0.013523,0.002678,0.000431,0.000353
36468000,0.0324,0.013523,0.002678,0.000431,0.000470
36469000,0.0324,0.013523,0.002678,0.000431,0.000353
36470000,0.0324,0.013523,0.002678,0.000431,0.000235
36471000,0.0324,0.013523,0.002678,0.000431,0.000353
36472000,0.0324,0.013523,0.002678,0.000431,0.000353
36473000,0.0324,0.013523,0.002678,0.000431,0.000235
36474000,0.0324,0.013523,0.002678,0.000431,0.000353
36475000,0.0324,0.013523,0.002678,0.000431,0.000470
36476000,0.0324,0.013523,0.002678,0.000431,0.000353
36477000,0.0324,0.013523,0.002678,0.000431,0.000235
36478000,0.0324,0.013523,0.002678,0.000431,0.000353
36479000,0.0324,0.013523,0.002678,0.000431,0.000353
36480000,0.0324,0.013523,0.002678,0.000431,0.000235
36481000,0.0324,0.013523,0.002678,0.000431,0.000353
36482000,0.0324,0.013523,0.002678,0.000431,0.000470
36483000,0.0324,0.013523,0.002678,0.000431,0.000353
36484000,0.0324,0.013523,0.002678,0.000431,0.000235
36485000,0.0324,0.013523,0.002678,0.000431,0.000353
36486000,0.0324,0.013523,0.002678,0.000431,0.000353
36487000,0.0324,0.013523,0.002678,0.000431,0.000235
36488000,0.0324,0.013523,0.002678,0.000431,0.000353
36489000,0.0324,0.013523,0.002678,0.000431,0.000470
36490000,0.0324,0.013523,0.002678,0.000431,0.000353
36491000,0.0324,0.013523,0.002678,0.000431,0.000118
36492000,0.0324,0.013523,0.002678,0.000431,0.000470
36493000,0.0324,0.013523,0.002678,0.000431,0.000353
36494000,0.0324,0.013523,0.002678,0.000431,0.000235
36495000,0.0324,0.013523,0.002678,0.000431,0.000353
36496000,0.0324,0.013523,0.002678,0.000431,0.000470
36497000,0.0324,0.013523,0.002678,0.000431,0.000235
36498000,0.0324,0.013523,0.002678,0.000431,0.000235
36499000,0.0324,0.013523,0.002678,0.000431,0.000470
36500000,0.0324,0.013523,0.002678,0.000431,0.000353
36501000,0.0324,0.013523,0.002678,0.000431,0.000235
36502000,0.0324,0.013523,0.002678,0.000431,0.000353
36503000,0.0324,0.013523,0.002678,0.000431,0.000470
36504000,0.0324,0.013523,0.002678,0.000431,0.000235
36505000,0.0324,0.013523,0.002678,0.000431,0.000235
36506000,0.0324,0.013523,0.002678,0.000431,0.000470
36507000,0.0324,0.013523,0.002678,0.000431,0.000353
36508000,0.0324,0.013523,0.002678,0.000431,0.000235
36509000,0.0324,0.013523,0.002678,0.000431,0.000353
36510000,0.0324,0.013523,0.002678,0.000431,0.000470
36511000,0.0324,0.013523,0.002678,0.000431,0.000118
36512000,0.0324,0.013523,0.002678,0.000431,0.000353
36513000,0.0324,0.013523,0.002678,0.000431,0.000470
36514000,0.0324,0.013523,0.002678,0.000431,0.000353
36515000,0.0324,0.013523,0.002678,0.000431,0.000235
36516000,0.0324,0.013523,0.002678,0.000431,0.000353
36517000,0.0324,0.013523,0.002678,0.000431,0.000353
36518000,0.0324,0.013523,0.002678,0.000431,0.000235
36519000,0.0324,0.013523,0.002678,0.000431,0.000353
36520000,0.0324,0.013523,0.002678,0.000431,0.000470
36521000,0.0324,0.013523,0.002678,0.000431,0.000353
36522000,0.0324,0.013523,0.002678,0.000431,0.000235
36523000,0.0324,0.013523,0.002678,0.000431,0.000353
36524000,0.0324,0.013523,0.002678,0.000431,0.000353
36525000,0.0324,0.013523,0.002678,0.000431,0.000235
36526000,0.0324,0.013523,0.002678,0.000431,0.000353
36527000,0.0324,0.013523,0.002678,0.000431,0.000470
36528000,0.0324,0.013523,0.002678,0.000431,0.000353
36529000,0.0324,0.013523,0.002678,0.000431,0.000235
36530000,0.0324,0.013523,0.002678,0.000431,0.000353
36531000,0.0324,0.013523,0.002678,0.000431,0.000353
36532000,0.0324,0.013523,0.002678,0.000431,0.000235
36533000,0.0324,0.013523,0.002678,0.000431,0.000353
36534000,0.0324,0.013523,0.002678,0.000431,0.000470
36535000,0.0324,0.013523,0.002678,0.000431,0.000353
36536000,0.0324,0.013523,0.002678,0.000431,0.000118
36537000,0.0324,0.013523,0.002678,0.000431,0.000470
36538000,0.0324,0.013523,0.002678,0.000431,0.000353
36539000,0.0324,0.013523,0.002678,0.000431,0.000235
36540000,0.0324,0.013523,0.002678,0.000431,0.000353
36541000,0.0324,0.013523,0.002678,0.000431,0.000470
36542000,0.0324,0.013523,0.002678,0.000431,0.000235
36543000,0.0324,0.013523,0.002678,0.000431,0.000235
36544000,0.0324,0.013523,0.002678,0.000431,0.000470
36545000,0.0324,0.013523,0.002678,0.000431,0.000353
36546000,0.0324,0.013523,0.002678,0.000431,0.000235
36547000,0.0324,0.013523,0.002678,0.000431,0.000353
36548000,0.0324,0.013523,0.002678,0.000431,0.000470
36549000,0.0324,0.013523,0.002678,0.000431,0.000235
36550000,0.0324,0.013523,0.002678,0.000431,0.000235
36551000,0.0324,0.013523,0.002678,0.000431,0.000470
36552000,0.0324,0.013523,0.002678,0.000431,0.000353
36553000,0.0324,0.013523,0.002678,0.000431,0.000235
36554000,0.0324,0.013523,0.002678,0.000431,0.000353
36555000,0.0324,0.013523,0.002678,0.000431,0.000470
36556000,0.0324,0.013523,0.002678,0.000431,0.000235
36557000,0.0324,0.013523,0.002678,0.000431,0.000235
36558000,0.0324,0.013523,0.002678,0.000431,0.000470
36559000,0.0324,0.013523,0.002678,0.000431,0.000353
36560000,0.0324,0.013523,0.002678,0.000431,0.000235
36561000,0.0324,0.013523,0.002678,0.000431,0.000353
36562000,0.0324,0.013523,0.002678,0.000431,0.000470
36563000,0.0324,0.013523,0.002678,0.000431,0.000118
36564000,0.0324,0.013523,0.002678,0.000431,0.000353
36565000,0.0324,0.013523,0.002678,0.000431,0.000470
36566000,0.0324,0.013523,0.002678,0.000431,0.000353
36567000,0.0324,0.013523,0.002678,0.000431,0.000235
36568000,0.0324,0.013523,0.002678,0.000431,0.000353
36569000,0.0324,0.013523,0.002678,0.000431,0.000470
36570000,0.0324,0.013523,0.002678,0.000431,0.000118
36571000,0.0324,0.013523,0.002678,0.000431,0.000353
36572000,0.0324,0.013523,0.002678,0.000431,0.000470
36573000,0.0324,0.013523,0.002678,0.000431,0.000353
36574000,0.0324,0.013523,0.002678,0.000431,0.000235
36575000,0.0324,0.013523,0.002678,0.000431,0.000353
36576000,0.0324,0.013523,0.002678,0.000431,0.000353
36577000,0.0324,0.013523,0.002678,0.000431,0.000235
36578000,0.0324,0.013523,0.002678,0.000431,0.000353
36579000,0.0324,0.013523,0.002678,0.000431,0.000470
36580000,0.0324,0.013523,0.002678,0.000431,0.000353
36581000,0.0324,0.013523,0.002678,0.000431,0.000235
36582000,0.0324,0.013523,0.002678,0.000431,0.000353
36583000,0.0324,0.013523,0.002678,0.000431,0.000353
36584000,0.0324,0.013523,0.002678,0.000431,0.000235
36585000,0.0324,0.013523,0.002678,0.000431,0.000353
36586000,0.0324,0.013523,0.002678,0.000431,0.000470
36587000,0.0324,0.013523,0.002678,0.000431,0.000353
36588000,0.0324,0.013523,0.002678,0.000431,0.000235
36589000,0.0324,0.013523,0.002678,0.000431,0.000353
36590000,0.0324,0.013523,0.002678,0.000431,0.000353
36591000,0.0324,0.013523,0.002678,0.000431,0.000235
36592000,0.0324,0.013523,0.002678,0.000431,0.000353
36593000,0.0324,0.013523,0.002678,0.000431,0.000470
36594000,0.0324,0.013523,0.002678,0.000431,0.000353
36595000,0.0324,0.013523,0.002678,0.000431,0.000235
36596000,0.0324,0.013523,0.002678,0.000431,0.000353
36597000,0.0324,0.013523,0.002678,0.000431,0.000353
36598000,0.0324,0.013523,0.002678,0.000431,0.000235
36599000,0.0324,0.013523,0.002678,0.000431,0.000353
36600000,0.0324,0.013523,0.002678,0.000431,0.000470
36601000,0.0324,0.013523,0.002678,0.000431,0.000353
36602000,0.0324,0.013523,0.002678,0.000431,0.000235
36603000,0.0324,0.013523,0.002678,0.000431,0.000353
36604000,0.0324,0.013523,0.002678,0.000431,0.000353
36605000,0.0324,0.013523,0.002678,0.000431,0.000235
36606000,0.0324,0.013523,0.002678,0.000431,0.000353
36607000,0.0324,0.013523,0.002678,0.000431,0.000470
36608000,0.0324,0.013523,0.002678,0.000431,0.000353
36609000,0.0324,0.013523,0.002678,0.000431,0.000235
36610000,0.0324,0.013523,0.002678,0.000431,0.000353
36611000,0.0324,0.013523,0.002678,0.000431,0.000353
36612000,0.0324,0.013523,0.002678,0.000431,0.000235
36613000,0.0324,0.013523,0.002678,0.000431,0.000353
36614000,0.0324,0.013523,0.002678,0.000431,0.000470
36615000,0.0324,0.013523,0.002678,0.000431,0.000353
36616000,0.0324,0.013523,0.002678,0.000431,0.000235
36617000,0.0324,0.013523,0.002678,0.000431,0.000353
36618000,0.0324,0.013523,0.002678,0.000431,0.000353
36619000,0.0324,0.013523,0.002678,0.000431,0.000235
36620000,0.0324,0.013523,0.002678,0.000431,0.000353
36621000,0.0324,0.013523,0.002678,0.000431,0.000470
36622000,0.0324,0.013523,0.002678,0.000431,0.000353
36623000,0.0324,0.013523,0.002678,0.000431,0.000118
36624000,0.0324,0.013523,0.002678,0.000431,0.000470
36625000,0.0324,0.013523,0.002678,0.000431,0.000353
36626000,0.0324,0.013523,0.002678,0.000431,0.000235
36627000,0.0324,0.013523,0.002678,0.000431,0.000353
36628000,0.0324,0.013523,0.002678,0.000431,0.000470
36629000,0.0324,0.013523,0.002678,0.000431,0.000353
36630000,0.0324,0.013523,0.002678,0.000431,0.000118
36631000,0.0324,0.013523,0.002678,0.000431,0.000470
36632000,0.0324,0.013523,0.002678,0.000431,0.000353
36633000,0.0324,0.013523,0.002678,0.000431,0.000235
36634000,0.0324,0.013523,0.002678,0.000431,0.000353
36635000,0.0324,0.013523,0.002678,0.000431,0.000470
36636000,0.0324,0.013523,0.002678,0.000431,0.000353
36637000,0.0324,0.013523,0.002678,0.000431,0.000118
36638000,0.0324,0.013523,0.002678,0.000431,0.000470
36639000,0.0324,0.013523,0.002678,0.000431,0.000353
36640000,0.0324,0.013523,0.002678,0.000431,0.000235
36641000,0.0324,0.013523,0.002678,0.000431,0.000353
36642000,0.0324,0.013523,0.002678,0.000431,0.000470
36643000,0.0324,0.013523,0.002678,0.000431,0.000353
36644000,0.0324,0.013523,0.002678,0.000431,0.000118
36645000,0.0324,0.013523,0.002678,0.000431,0.000470
36646000,0.0324,0.013523,0.002678,0.000431,0.000353
36647000,0.0324,0.013523,0.002678,0.000431,0.000235
36648000,0.0324,0.013523,0.002678,0.000431,0.000353
36649000,0.0324,0.013523,0.002678,0.000431,0.000470
36650000,0.0324,0.013523,0.002678,0.000431,0.000235
36651000,0.0324,0.013523,0.002678,0.000431,0.000235
36652000,0.0324,0.013523,0.002678,0.000431,0.000470
36653000,0.0324,0.013523,0.002678,0.000431,0.000353
36654000,0.0324,0.013523,0.002678,0.000431,0.000235
36655000,0.0324,0.013523,0.002678,0.000431,0.000353
36656000,0.0324,0.013523,0.002678,0.000431,0.000470
36657000,0.0324,0.013523,0.002678,0.000431,0.000235
36658000,0.0324,0.013523,0.002678,0.000431,0.000235
36659000,0.0324,0.013523,0.002678,0.000431,0.000470
36660000,0.0324,0.013523,0.002678,0.000431,0.000353
36661000,0.0324,0.013523,0.002678,0.000431,0.000235
36662000,0.0324,0.013523,0.002678,0.000431,0.000353
36663000,0.0324,0.013523,0.002678,0.000431,0.000470
36664000,0.0324,0.013523,0.002678,0.000431,0.000235
36665000,0.0324,0.013523,0.002678,0.000431,0.000235
36666000,0.0324,0.013523,0.002678,0.000431,0.000470
36667000,0.0324,0.013523,0.002678,0.000431,0.000353
36668000,0.0324,0.013523,0.002678,0.000431,0.000235
36669000,0.0324,0.013523,0.002678,0.000431,0.000353
36670000,0.0324,0.013523,0.002678,0.000431,0.000470
36671000,0.0324,0.013523,0.002678,0.000431,0.000235
36672000,0.0324,0.013523,0.002678,0.000431,0.000235
36673000,0.0324,0.013523,0.002678,0.000431,0.000470
36674000,0.0324,0.013523,0.002678,0.000431,0.000353
36675000,0.0324,0.013523,0.002678,0.000431,0.000235
36676000,0.0324,0.013523,0.002678,0.000431,0.000353
36677000,0.0324,0.013523,0.002678,0.000431,0.000470
36678000,0.0324,0.013523,0.002678,0.000431,0.000235
36679000,0.0324,0.013523,0.002678,0.000431,0.000235
36680000,0.0324,0.013523,0.002678,0.000431,0.000470
36681000,0.0324,0.013523,0.002678,0.000431,0.000353
36682000,0.0324,0.013523,0.002678,0.000431,0.000235
36683000,0.0324,0.013523,0.002678,0.000431,0.000353
36684000,0.0324,0.013523,0.002678,0.000431,0.000470
36685000,0.0324,0.013523,0.002678,0.000431,0.000235
36686000,0.0324,0.013523,0.002678,0.000431,0.000235
36687000,0.0324,0.013523,0.002678,0.000431,0.000470
36688000,0.0324,0.013523,0.002678,0.000431,0.000353
36689000,0.0324,0.013523,0.002678,0.000431,0.000235
36690000,0.0324,0.013523,0.002678,0.000431,0.000353
36691000,0.0324,0.013523,0.002678,0.000431,0.000470
36692000,0.0324,0.013523,0.002678,0.000431,0.000118
36693000,0.0324,0.013523,0.002678,0.000431,0.000353
36694000,0.0324,0.013523,0.002678,0.000431,0.000470
36695000,0.0324,0.013523,0.002678,0.000431,0.000353
36696000,0.0324,0.013523,0.002678,0.000431,0.000235
36697000,0.0324,0.013523,0.002678,0.000431,0.000353
36698000,0.0324,0.013523,0.002678,0.000431,0.000353
36699000,0.0324,0.013523,0.002678,0.000431,0.000235
36700000,0.0324,0.013523,0.002678,0.000431,0.000353
36701000,0.0324,0.013523,0.002678,0.000431,0.000470
36702000,0.0324,0.013523,0.002678,0.000431,0.000353
36703000,0.0324,0.013523,0.002678,0.000431,0.000235
36704000,0.0324,0.013523,0.002678,0.000431,0.000353
36705000,0.0324,0.013523,0.002678,0.000431,0.000353
36706000,0.0324,0.013523,0.002678,0.000431,0.000235
36707000,0.0324,0.013523,0.002678,0.000431,0.000353
36708000,0.0324,0.013523,0.002678,0.000431,0.000470
36709000,0.0324,0.013523,0.002678,0.000431,0.000353
36710000,0.0324,0.013523,0.002678,0.000431,0.000118
36711000,0.0324,0.013523,0.002678,0.000431,0.000470
36712000,0.0324,0.013523,0.002678,0.000431,0.000353
36713000,0.0324,0.013523,0.002678,0.000431,0.000235
36714000,0.0324,0.013523,0.002678,0.000431,0.000353
36715000,0.0324,0.013523,0.002678,0.000431,0.000470
36716000,0.0324,0.013523,0.002678,0.000431,0.000235
36717000,0.0324,0.013523,0.002678,0.000431,0.000235
36718000,0.0324,0.013523,0.002678,0.000431,0.000470
36719000,0.0324,0.013523,0.002678,0.000431,0.000353
36720000,0.0324,0.013523,0.002678,0.000431,0.000235
36721000,0.0324,0.013523,0.002678,0.000431,0.000353
36722000,0.0324,0.013523,0.002678,0.000431,0.000470
36723000,0.0324,0.013523,0.002678,0.000431,0.000235
36724000,0.0324,0.013523,0.002678,0.000431,0.000235
36725000,0.0324,0.013523,0.002678,0.000431,0.000470
36726000,0.0324,0.013523,0.002678,0.000431,0.000353
36727000,0.0324,0.013523,0.002678,0.000431,0.000235
36728000,0.0324,0.013523,0.002678,0.000431,0.000353
36729000,0.0324,0.013523,0.002678,0.000431,0.000470
36730000,0.0324,0.013523,0.002678,0.000431,0.000118
36731000,0.0324,0.013523,0.002678,0.000431,0.000353
36732000,0.0324,0.013523,0.002678,0.000431,0.000470
36733000,0.0324,0.013523,0.002678,0.000431,0.000353
36734000,0.0324,0.013523,0.002678,0.000431,0.000235
36735000,0.0324,0.013523,0.002678,0.000431,0.000353
36736000,0.0324,0.013523,0.002678,0.000431,0.000353
36737000,0.0324,0.013523,0.002678,0.000431,0.000235
36738000,0.0324,0.013523,0.002678,0.000431,0.000353
36739000,0.0324,0.013523,0.002678,0.000431,0.000470
36740000,0.0324,0.013523,0.002678,0.000431,0.000353
36741000,0.0324,0.013523,0.002678,0.000431,0.000235
36742000,0.0324,0.013523,0.002678,0.000431,0.000353
36743000,0.0324,0.013523,0.002678,0.000431,0.000353
36744000,0.0324,0.013523,0.002678,0.000431,0.000235
36745000,0.0324,0.013523,0.002678,0.000431,0.000353
36746000,0.0324,0.013523,0.002678,0.000431,0.000470
36747000,0.0324,0.013523,0.002678,0.000431,0.000353
36748000,0.0324,0.013523,0.002678,0.000431,0.000235
36749000,0.0324,0.013523,0.002678,0.000431,0.000353
36750000,0.0324,0.013523,0.002678,0.000431,0.000353
36751000,0.0324,0.013523,0.002678,0.000431,0.000235
36752000,0.0324,0.013523,0.002678,0.000431,0.000353
36753000,0.0324,0.013523,0.002678,0.000431,0.000470
36754000,0.0324,0.013523,0.002678,0.000431,0.000353
36755000,0.0324,0.013523,0.002678,0.000431,0.000118
36756000,0.0324,0.013523,0.002678,0.000431,0.000470
36757000,0.0324,0.013523,0.002678,0.000431,0.000353
36758000,0.0324,0.013523,0.002678,0.000431,0.000235
36759000,0.0324,0.013523,0.002678,0.000431,0.000353
36760000,0.0324,0.013523,0.002678,0.000431,0.000470
36761000,0.0324,0.013523,0.002678,0.000431,0.000235
36762000,0.0324,0.013523,0.002678,0.000431,0.000235
36763000,0.0324,0.013523,0.002678,0.000431,0.000470
36764000,0.0324,0.013523,0.002678,0.000431,0.000353
36765000,0.0324,0.013523,0.002678,0.000431,0.000235
36766000,0.0324,0.013523,0.002678,0.000431,0.000353
36767000,0.0324,0.013523,0.002678,0.000431,0.000470
36768000,0.0324,0.013523,0.002678,0.000431,0.000235
36769000,0.0324,0.013523,0.002678,0.000431,0.000235
36770000,0.0324,0.013523,0.002678,0.000431,0.000470
36771000,0.0324,0.013523,0.002678,0.000431,0.000353
36772000,0.0324,0.013523,0.002678,0.000431,0.000235
36773000,0.0324,0.013523,0.002678,0.000431,0.000353
36774000,0.0324,0.013523,0.002678,0.000431,0.000470
36775000,0.0324,0.013523,0.002678,0.000431,0.000118
36776000,0.0324,0.013523,0.002678,0.000431,0.000353
36777000,0.0324,0.013523,0.002678,0.000431,0.000470
36778000,0.0324,0.013523,0.002678,0.000431,0.000353
36779000,0.0324,0.013523,0.002678,0.000431,0.000235
36780000,0.0324,0.013523,0.002678,0.000431,0.000353
36781000,0.0324,0.013523,0.002678,0.000431,0.000353
36782000,0.0324,0.013523,0.002678,0.000431,0.000235
36783000,0.0324,0.013523,0.002678,0.000431,0.000353
36784000,0.0324,0.013523,0.002678,0.000431,0.000470
36785000,0.0324,0.013523,0.002678,0.000431,0.000353
36786000,0.0324,0.013523,0.002678,0.000431,0.000235
36787000,0.0324,0.013523,0.002678,0.000431,0.000353
36788000,0.0324,0.013523,0.002678,0.000431,0.000353
36789000,0.0324,0.013523,0.002678,0.000431,0.000235
36790000,0.0324,0.013523,0.002678,0.000431,0.000353
36791000,0.0324,0.013523,0.002678,0.000431,0.000470
36792000,0.0324,0.013523,0.002678,0.000431,0.000353
36793000,0.0324,0.013523,0.002678,0.000431,0.000235
36794000,0.0324,0.013523,0.002678,0.000431,0.000353
36795000,0.0324,0.013523,0.002678,0.000431,0.000353
36796000,0.0324,0.013523,0.002678,0.000431,0.000235
36797000,0.0324,0.013523,0.002678,0.000431,0.000353
36798000,0.0324,0.013523,0.002678,0.000431,0.000470
36799000,0.0324,0.013523,0.002678,0.000431,0.000235
36800000,0.0324,0.013523,0.002678,0.000431,0.000235
36801000,0.0324,0.013523,0.002678,0.000431,0.000470
36802000,0.0324,0.013523,0.002678,0.000431,0.000353
36803000,0.0324,0.013523,0.002678,0.000431,0.000235
36804000,0.0324,0.013523,0.002678,0.000431,0.000353
36805000,0.0324,0.013523,0.002678,0.000431,0.000470
36806000,0.0324,0.013523,0.002678,0.000431,0.000235
36807000,0.0324,0.013523,0.002678,0.000431,0.000235
36808000,0.0324,0.013523,0.002678,0.000431,0.000470
36809000,0.0324,0.013523,0.002678,0.000431,0.000353
36810000,0.0324,0.013523,0.002678,0.000431,0.000235
36811000,0.0324,0.013523,0.002678,0.000431,0.000353
36812000,0.0324,0.013523,0.002678,0.000431,0.000470
36813000,0.0324,0.013523,0.002678,0.000431,0.000118
36814000,0.0324,0.013523,0.002678,0.000431,0.000353
36815000,0.0324,0.013523,0.002678,0.000431,0.000470
36816000,0.0324,0.013523,0.002678,0.000431,0.000353
36817000,0.0324,0.013523,0.002678,0.000431,0.000235
36818000,0.0324,0.013523,0.002678,0.000431,0.000353
36819000,0.0324,0.013523,0.002678,0.000431,0.000470
36820000,0.0324,0.013523,0.002678,0.000431,0.000118
36821000,0.0324,0.013523,0.002678,0.000431,0.000353
36822000,0.0324,0.013523,0.002678,0.000431,0.000470
36823000,0.0324,0.013523,0.002678,0.000431,0.000353
36824000,0.0324,0.013523,0.002678,0.000431,0.000235
36825000,0.0324,0.013523,0.002678,0.000431,0.000353
36826000,0.0324,0.013523,0.002678,0.000431,0.000353
36827000,0.0324,0.013523,0.002678,0.000431,0.000235
36828000,0.0324,0.013523,0.002678,0.000431,0.000353
36829000,0.0324,0.013523,0.002678,0.000431,0.000470
36830000,0.0324,0.013523,0.002678,0.000431,0.000353
36831000,0.0324,0.013523,0.002678,0.000431,0.000235
36832000,0.0324,0.013523,0.002678,0.000431,0.000353
36833000,0.0324,0.013523,0.002678,0.000431,0.000353
36834000,0.0324,0.013523,0.002678,0.000431,0.000235
36835000,0.0324,0.013523,0.002678,0.000431,0.000353
36836000,0.0324,0.013523,0.002678,0.000431,0.000470
36837000,0.0324,0.013523,0.002678,0.000431,0.000353
36838000,0.0324,0.013523,0.002678,0.000431,0.000235
36839000,0.0324,0.013523,0.002678,0.000431,0.000353
36840000,0.0324,0.013523,0.002678,0.000431,0.000353
36841000,0.0324,0.013523,0.002678,0.000431,0.000235
36842000,0.0324,0.013523,0.002678,0.000431,0.000353
36843000,0.0324,0.013523,0.002678,0.000431,0.000470
36844000,0.0324,0.013523,0.002678,0.000431,0.000353
36845000,0.0324,0.013523,0.002678,0.000431,0.000235
36846000,0.0324,0.013523,0.002678,0.000431,0.000353
36847000,0.0324,0.013523,0.002678,0.000431,0.000353
36848000,0.0324,0.013523,0.002678,0.000431,0.000235
36849000,0.0324,0.013523,0.002678,0.000431,0.000353
36850000,0.0324,0.013523,0.002678,0.000431,0.000470
36851000,0.0324,0.013523,0.002678,0.000431,0.000353
36852000,0.0324,0.013523,0.002678,0.000431,0.000235
36853000,0.0324,0.013523,0.002678,0.000431,0.000353
36854000,0.0324,0.013523,0.002678,0.000431,0.000353
36855000,0.0324,0.013523,0.002678,0.000431,0.000235
36856000,0.0324,0.013523,0.002678,0.000431,0.000353
36857000,0.0324,0.013523,0.002678,0.000431,0.000470
36858000,0.0324,0.013523,0.002678,0.000431,0.000353
36859000,0.0324,0.013523,0.002678,0.000431,0.000235
36860000,0.0324,0.013523,0.002678,0.000431,0.000353
36861000,0.0324,0.013523,0.002678,0.000431,0.000353
36862000,0.0324,0.013523,0.002678,0.000431,0.000235
36863000,0.0324,0.013523,0.002678,0.000431,0.000353
36864000,0.0324,0.013523,0.002678,0.000431,0.000470
36865000,0.0324,0.013523,0.002678,0.000431,0.000353
36866000,0.0324,0.013523,0.002678,0.000431,0.000235
36867000,0.0324,0.013523,0.002678,0.000431,0.000353
36868000,0.0324,0.013523,0.002678,0.000431,0.000353
36869000,0.0324,0.013523,0.002678,0.000431,0.000235
36870000,0.0324,0.013523,0.002678,0.000431,0.000353
36871000,0.0324,0.013523,0.002678,0.000431,0.000470
36872000,0.0324,0.013523,0.002678,0.000431,0.000353
36873000,0.0324,0.013523,0.002678,0.000431,0.000118
36874000,0.0324,0.013523,0.002678,0.000431,0.000470
36875000,0.0324,0.013523,0.002678,0.000431,0.000353
36876000,0.0324,0.013523,0.002678,0.000431,0.000235
36877000,0.0324,0.013523,0.002678,0.000431,0.000353
36878000,0.0324,0.013523,0.002678,0.000431,0.000470
36879000,0.0324,0.013523,0.002678,0.000431,0.000353
36880000,0.0324,0.013523,0.002678,0.000431,0.000118
36881000,0.0324,0.013523,0.002678,0.000431,0.000470
36882000,0.0324,0.013523,0.002678,0.000431,0.000353
36883000,0.0324,0.013523,0.002678,0.000431,0.000235
36884000,0.0324,0.013523,0.002678,0.000431,0.000353
36885000,0.0324,0.013523,0.002678,0.000431,0.000470
36886000,0.0324,0.013523,0.002678,0.000431,0.000353
36887000,0.0324,0.013523,0.002678,0.000431,0.000118
36888000,0.0324,0.013523,0.002678,0.000431,0.000470
36889000,0.0324,0.013523,0.002678,0.000431,0.000353
36890000,0.0324,0.013523,0.002678,0.000431,0.000235
36891000,0.0324,0.013523,0.002678,0.000431,0.000353
36892000,0.0324,0.013523,0.002678,0.000431,0.000470
36893000,0.0324,0.013523,0.002678,0.000431,0.000353
36894000,0.0324,0.013523,0.002678,0.000431,0.000118
36895000,0.0324,0.013523,0.002678,0.000431,0.000470
36896000,0.0324,0.013523,0.002678,0.000431,0.000353
36897000,0.0324,0.013523,0.002678,0.000431,0.000235
36898000,0.0324,0.013523,0.002678,0.000431,0.000353
36899000,0.0324,0.013523,0.002678,0.000431,0.000470
36900000,0.0324,0.013523,0.002678,0.000431,0.000235
36901000,0.0324,0.013523,0.002678,0.000431,0.000235
36902000,0.0324,0.013523,0.002678,0.000431,0.000470
36903000,0.0324,0.013523,0.002678,0.000431,0.000353
36904000,0.0324,0.013523,0.002678,0.000431,0.000235
36905000,0.0324,0.013523,0.002678,0.000431,0.000353
36906000,0.0324,0.013523,0.002678,0.000431,0.000470
36907000,0.0324,0.013523,0.002678,0.000431,0.000235
36908000,0.0324,0.013523,0.002678,0.000431,0.000235
36909000,0.0324,0.013523,0.002678,0.000431,0.000470
36910000,0.0324,0.013523,0.002678,0.000431,0.000353
36911000,0.0324,0.013523,0.002678,0.000431,0.000235
36912000,0.0324,0.013523,0.002678,0.000431,0.000353
36913000,0.0324,0.013523,0.002678,0.000431,0.000470
36914000,0.0324,0.013523,0.002678,0.000431,0.000235
36915000,0.0324,0.013523,0.002678,0.000431,0.000235
36916000,0.0324,0.013523,0.002678,0.000431,0.000470
36917000,0.0324,0.013523,0.002678,0.000431,0.000353
36918000,0.0324,0.013523,0.002678,0.000431,0.000235
36919000,0.0324,0.013523,0.002678,0.000431,0.000353
36920000,0.0324,0.013523,0.002678,0.000431,0.000470
36921000,0.0324,0.013523,0.002678,0.000431,0.000235
36922000,0.0324,0.013523,0.002678,0.000431,0.000235
36923000,0.0324,0.013523,0.002678,0.000431,0.000470
36924000,0.0324,0.013523,0.002678,0.000431,0.000353
36925000,0.0324,0.013523,0.002678,0.000431,0.000235
36926000,0.0324,0.013523,0.002678,0.000431,0.000353
36927000,0.0324,0.013523,0.002678,0.000431,0.000470
36928000,0.0324,0.013523,0.002678,0.000431,0.000235
36929000,0.0324,0.013523,0.002678,0.000431,0.000235
36930000,0.0324,0.013523,0.002678,0.000431,0.000470
36931000,0.0324,0.013523,0.002678,0.000431,0.000353
36932000,0.0324,0.013523,0.002678,0.000431,0.000235
36933000,0.0324,0.013523,0.002678,0.000431,0.000353
36934000,0.0324,0.013523,0.002678,0.000431,0.000470
36935000,0.0324,0.013523,0.002678,0.000431,0.000235
36936000,0.0324,0.013523,0.002678,0.000431,0.000235
36937000,0.0324,0.013523,0.002678,0.000431,0.000470
36938000,0.0324,0.013523,0.002678,0.000431,0.000353
36939000,0.0324,0.013523,0.002678,0.000431,0.000235
36940000,0.0324,0.013523,0.002678,0.000431,0.000353
36941000,0.0324,0.013523,0.002678,0.000431,0.000470
36942000,0.0324,0.013523,0.002678,0.000431,0.000118
36943000,0.0324,0.013523,0.002678,0.000431,0.000353
36944000,0.0324,0.013523,0.002678,0.000431,0.000470
36945000,0.0324,0.013523,0.002678,0.000431,0.000353
36946000,0.0324,0.013523,0.002678,0.000431,0.000235
36947000,0.0324,0.013523,0.002678,0.000431,0.000353
36948000,0.0324,0.013523,0.002678,0.000431,0.000470
36949000,0.0324,0.013523,0.002678,0.000431,0.000118
36950000,0.0324,0.013523,0.002678,0.000431,0.000353
36951000,0.0324,0.013523,0.002678,0.000431,0.000470
36952000,0.0324,0.013523,0.002678,0.000431,0.000353
36953000,0.0324,0.013523,0.002678,0.000431,0.000235
36954000,0.0324,0.013523,0.002678,0.000431,0.000353
36955000,0.0324,0.013523,0.002678,0.000431,0.000470
36956000,0.0324,0.013523,0.002678,0.000431,0.000118
36957000,0.0324,0.013523,0.002678,0.000431,0.000353
36958000,0.0324,0.013523,0.002678,0.000431,0.000470
36959000,0.0324,0.013523,0.002678,0.000431,0.000353
36960000,0.0324,0.013523,0.002678,0.000431,0.000235
36961000,0.0324,0.013523,0.002678,0.000431,0.000353
36962000,0.0324,0.013523,0.002678,0.000431,0.000353
36963000,0.0324,0.013523,0.002678,0.000431,0.000235
36964000,0.0324,0.013523,0.002678,0.000431,0.000353
36965000,0.0324,0.013523,0.002678,0.000431,0.000470
36966000,0.0324,0.013523,0.002678,0.000431,0.000353
36967000,0.0324,0.013523,0.002678,0.000431,0.000235
36968000,0.0324,0.013523,0.002678,0.000431,0.000353
36969000,0.0324,0.013523,0.002678,0.000431,0.000353
36970000,0.0324,0.013523,0.002678,0.000431,0.000235
36971000,0.0324,0.013523,0.002678,0.000431,0.000353
36972000,0.0324,0.013523,0.002678,0.000431,0.000470
36973000,0.0324,0.013523,0.002678,0.000431,0.000353
36974000,0.0324,0.013523,0.002678,0.000431,0.000235
36975000,0.0324,0.013523,0.002678,0.000431,0.000353
36976000,0.0324,0.013523,0.002678,0.000431,0.000353
36977000,0.0324,0.013523,0.002678,0.000431,0.000235
36978000,0.0324,0.013523,0.002678,0.000431,0.000353
36979000,0.0324,0.013523,0.002678,0.000431,0.000470
36980000,0.0324,0.013523,0.002678,0.000431,0.000353
36981000,0.0324,0.013523,0.002678,0.000431,0.000235
36982000,0.0324,0.013523,0.002678,0.000431,0.000353
36983000,0.0324,0.013523,0.002678,0.000431,0.000353
36984000,0.0324,0.013523,0.002678,0.000431,0.000235
36985000,0.0324,0.013523,0.002678,0.000431,0.000353
36986000,0.0324,0.013523,0.002678,0.000431,0.000470
36987000,0.0324,0.013523,0.002678,0.000431,0.000353
36988000,0.0324,0.013523,0.002678,0.000431,0.000235
36989000,0.0324,0.013523,0.002678,0.000431,0.000353
36990000,0.0324,0.013523,0.002678,0.000431,0.000353
36991000,0.0324,0.013523,0.002678,0.000431,0.000235
36992000,0.0324,0.013523,0.002678,0.000431,0.000353
36993000,0.0324,0.013523,0.002678,0.000431,0.000470
36994000,0.0324,0.013523,0.002678,0.000431,0.000353
36995000,0.0324,0.013523,0.002678,0.000431,0.000235
36996000,0.0324,0.013523,0.002678,0.000431,0.000353
36997000,0.0324,0.013523,0.002678,0.000431,0.000353
36998000,0.0324,0.013523,0.002678,0.000431,0.000235
36999000,0.0324,0.013523,0.002678,0.000431,0.000353
