Cycle,Area(mm^2),PeakDynamic(W),SubthresholdLeakage(W),GateLeakage(W),RunTimeDynamic(W)
29000000,0.0324,0.013523,0.002678,0.000431,0.000235
29001000,0.0324,0.013523,0.002678,0.000431,0.000353
29002000,0.0324,0.013523,0.002678,0.000431,0.000353
29003000,0.0324,0.013523,0.002678,0.000431,0.000235
29004000,0.0324,0.013523,0.002678,0.000431,0.000353
29005000,0.0324,0.013523,0.002678,0.000431,0.000470
29006000,0.0324,0.013523,0.002678,0.000431,0.000353
29007000,0.0324,0.013523,0.002678,0.000431,0.000235
29008000,0.0324,0.013523,0.002678,0.000431,0.000353
29009000,0.0324,0.013523,0.002678,0.000431,0.000353
29010000,0.0324,0.013523,0.002678,0.000431,0.000235
29011000,0.0324,0.013523,0.002678,0.000431,0.000353
29012000,0.0324,0.013523,0.002678,0.000431,0.000470
29013000,0.0324,0.013523,0.002678,0.000431,0.000353
29014000,0.0324,0.013523,0.002678,0.000431,0.000118
29015000,0.0324,0.013523,0.002678,0.000431,0.000470
29016000,0.0324,0.013523,0.002678,0.000431,0.000353
29017000,0.0324,0.013523,0.002678,0.000431,0.000235
29018000,0.0324,0.013523,0.002678,0.000431,0.000353
29019000,0.0324,0.013523,0.002678,0.000431,0.000470
29020000,0.0324,0.013523,0.002678,0.000431,0.000353
29021000,0.0324,0.013523,0.002678,0.000431,0.000118
29022000,0.0324,0.013523,0.002678,0.000431,0.000470
29023000,0.0324,0.013523,0.002678,0.000431,0.000353
29024000,0.0324,0.013523,0.002678,0.000431,0.000235
29025000,0.0324,0.013523,0.002678,0.000431,0.000353
29026000,0.0324,0.013523,0.002678,0.000431,0.000470
29027000,0.0324,0.013523,0.002678,0.000431,0.000353
29028000,0.0324,0.013523,0.002678,0.000431,0.000118
29029000,0.0324,0.013523,0.002678,0.000431,0.000470
29030000,0.0324,0.013523,0.002678,0.000431,0.000353
29031000,0.0324,0.013523,0.002678,0.000431,0.000235
29032000,0.0324,0.013523,0.002678,0.000431,0.000353
29033000,0.0324,0.013523,0.002678,0.000431,0.000470
29034000,0.0324,0.013523,0.002678,0.000431,0.000353
29035000,0.0324,0.013523,0.002678,0.000431,0.000118
29036000,0.0324,0.013523,0.002678,0.000431,0.000470
29037000,0.0324,0.013523,0.002678,0.000431,0.000353
29038000,0.0324,0.013523,0.002678,0.000431,0.000235
29039000,0.0324,0.013523,0.002678,0.000431,0.000353
29040000,0.0324,0.013523,0.002678,0.000431,0.000470
29041000,0.0324,0.013523,0.002678,0.000431,0.000235
29042000,0.0324,0.013523,0.002678,0.000431,0.000235
29043000,0.0324,0.013523,0.002678,0.000431,0.000470
29044000,0.0324,0.013523,0.002678,0.000431,0.000353
29045000,0.0324,0.013523,0.002678,0.000431,0.000235
29046000,0.0324,0.013523,0.002678,0.000431,0.000353
29047000,0.0324,0.013523,0.002678,0.000431,0.000470
29048000,0.0324,0.013523,0.002678,0.000431,0.000235
29049000,0.0324,0.013523,0.002678,0.000431,0.000235
29050000,0.0324,0.013523,0.002678,0.000431,0.000470
29051000,0.0324,0.013523,0.002678,0.000431,0.000353
29052000,0.0324,0.013523,0.002678,0.000431,0.000235
29053000,0.0324,0.013523,0.002678,0.000431,0.000353
29054000,0.0324,0.013523,0.002678,0.000431,0.000470
29055000,0.0324,0.013523,0.002678,0.000431,0.000235
29056000,0.0324,0.013523,0.002678,0.000431,0.000235
29057000,0.0324,0.013523,0.002678,0.000431,0.000470
29058000,0.0324,0.013523,0.002678,0.000431,0.000353
29059000,0.0324,0.013523,0.002678,0.000431,0.000235
29060000,0.0324,0.013523,0.002678,0.000431,0.000353
29061000,0.0324,0.013523,0.002678,0.000431,0.000470
29062000,0.0324,0.013523,0.002678,0.000431,0.000235
29063000,0.0324,0.013523,0.002678,0.000431,0.000235
29064000,0.0324,0.013523,0.002678,0.000431,0.000470
29065000,0.0324,0.013523,0.002678,0.000431,0.000353
29066000,0.0324,0.013523,0.002678,0.000431,0.000235
29067000,0.0324,0.013523,0.002678,0.000431,0.000353
29068000,0.0324,0.013523,0.002678,0.000431,0.000470
29069000,0.0324,0.013523,0.002678,0.000431,0.000235
29070000,0.0324,0.013523,0.002678,0.000431,0.000235
29071000,0.0324,0.013523,0.002678,0.000431,0.000470
29072000,0.0324,0.013523,0.002678,0.000431,0.000353
29073000,0.0324,0.013523,0.002678,0.000431,0.000235
29074000,0.0324,0.013523,0.002678,0.000431,0.000353
29075000,0.0324,0.013523,0.002678,0.000431,0.000470
29076000,0.0324,0.013523,0.002678,0.000431,0.000235
29077000,0.0324,0.013523,0.002678,0.000431,0.000235
29078000,0.0324,0.013523,0.002678,0.000431,0.000470
29079000,0.0324,0.013523,0.002678,0.000431,0.000353
29080000,0.0324,0.013523,0.002678,0.000431,0.000235
29081000,0.0324,0.013523,0.002678,0.000431,0.000353
29082000,0.0324,0.013523,0.002678,0.000431,0.000470
29083000,0.0324,0.013523,0.002678,0.000431,0.000118
29084000,0.0324,0.013523,0.002678,0.000431,0.000353
29085000,0.0324,0.013523,0.002678,0.000431,0.000470
29086000,0.0324,0.013523,0.002678,0.000431,0.000353
29087000,0.0324,0.013523,0.002678,0.000431,0.000235
29088000,0.0324,0.013523,0.002678,0.000431,0.000353
29089000,0.0324,0.013523,0.002678,0.000431,0.000470
29090000,0.0324,0.013523,0.002678,0.000431,0.000118
29091000,0.0324,0.013523,0.002678,0.000431,0.000353
29092000,0.0324,0.013523,0.002678,0.000431,0.000470
29093000,0.0324,0.013523,0.002678,0.000431,0.000353
29094000,0.0324,0.013523,0.002678,0.000431,0.000235
29095000,0.0324,0.013523,0.002678,0.000431,0.000353
29096000,0.0324,0.013523,0.002678,0.000431,0.000470
29097000,0.0324,0.013523,0.002678,0.000431,0.000118
29098000,0.0324,0.013523,0.002678,0.000431,0.000353
29099000,0.0324,0.013523,0.002678,0.000431,0.000470
29100000,0.0324,0.013523,0.002678,0.000431,0.000353
29101000,0.0324,0.013523,0.002678,0.000431,0.000235
29102000,0.0324,0.013523,0.002678,0.000431,0.000353
29103000,0.0324,0.013523,0.002678,0.000431,0.000353
29104000,0.0324,0.013523,0.002678,0.000431,0.000235
29105000,0.0324,0.013523,0.002678,0.000431,0.000353
29106000,0.0324,0.013523,0.002678,0.000431,0.000470
29107000,0.0324,0.013523,0.002678,0.000431,0.000353
29108000,0.0324,0.013523,0.002678,0.000431,0.000235
29109000,0.0324,0.013523,0.002678,0.000431,0.000353
29110000,0.0324,0.013523,0.002678,0.000431,0.000353
29111000,0.0324,0.013523,0.002678,0.000431,0.000235
29112000,0.0324,0.013523,0.002678,0.000431,0.000353
29113000,0.0324,0.013523,0.002678,0.000431,0.000470
29114000,0.0324,0.013523,0.002678,0.000431,0.000353
29115000,0.0324,0.013523,0.002678,0.000431,0.000235
29116000,0.0324,0.013523,0.002678,0.000431,0.000353
29117000,0.0324,0.013523,0.002678,0.000431,0.000353
29118000,0.0324,0.013523,0.002678,0.000431,0.000235
29119000,0.0324,0.013523,0.002678,0.000431,0.000353
29120000,0.0324,0.013523,0.002678,0.000431,0.000470
29121000,0.0324,0.013523,0.002678,0.000431,0.000353
29122000,0.0324,0.013523,0.002678,0.000431,0.000235
29123000,0.0324,0.013523,0.002678,0.000431,0.000353
29124000,0.0324,0.013523,0.002678,0.000431,0.000353
29125000,0.0324,0.013523,0.002678,0.000431,0.000235
29126000,0.0324,0.013523,0.002678,0.000431,0.000353
29127000,0.0324,0.013523,0.002678,0.000431,0.000470
29128000,0.0324,0.013523,0.002678,0.000431,0.000353
29129000,0.0324,0.013523,0.002678,0.000431,0.000235
29130000,0.0324,0.013523,0.002678,0.000431,0.000353
29131000,0.0324,0.013523,0.002678,0.000431,0.000353
29132000,0.0324,0.013523,0.002678,0.000431,0.000235
29133000,0.0324,0.013523,0.002678,0.000431,0.000353
29134000,0.0324,0.013523,0.002678,0.000431,0.000470
29135000,0.0324,0.013523,0.002678,0.000431,0.000353
29136000,0.0324,0.013523,0.002678,0.000431,0.000235
29137000,0.0324,0.013523,0.002678,0.000431,0.000353
29138000,0.0324,0.013523,0.002678,0.000431,0.000353
29139000,0.0324,0.013523,0.002678,0.000431,0.000235
29140000,0.0324,0.013523,0.002678,0.000431,0.000353
29141000,0.0324,0.013523,0.002678,0.000431,0.000470
29142000,0.0324,0.013523,0.002678,0.000431,0.000353
29143000,0.0324,0.013523,0.002678,0.000431,0.000235
29144000,0.0324,0.013523,0.002678,0.000431,0.000353
29145000,0.0324,0.013523,0.002678,0.000431,0.000353
29146000,0.0324,0.013523,0.002678,0.000431,0.000235
29147000,0.0324,0.013523,0.002678,0.000431,0.000353
29148000,0.0324,0.013523,0.002678,0.000431,0.000470
29149000,0.0324,0.013523,0.002678,0.000431,0.000353
29150000,0.0324,0.013523,0.002678,0.000431,0.000235
29151000,0.0324,0.013523,0.002678,0.000431,0.000353
29152000,0.0324,0.013523,0.002678,0.000431,0.000353
29153000,0.0324,0.013523,0.002678,0.000431,0.000235
29154000,0.0324,0.013523,0.002678,0.000431,0.000353
29155000,0.0324,0.013523,0.002678,0.000431,0.000470
29156000,0.0324,0.013523,0.002678,0.000431,0.000353
29157000,0.0324,0.013523,0.002678,0.000431,0.000118
29158000,0.0324,0.013523,0.002678,0.000431,0.000470
29159000,0.0324,0.013523,0.002678,0.000431,0.000353
29160000,0.0324,0.013523,0.002678,0.000431,0.000235
29161000,0.0324,0.013523,0.002678,0.000431,0.000353
29162000,0.0324,0.013523,0.002678,0.000431,0.000470
29163000,0.0324,0.013523,0.002678,0.000431,0.000353
29164000,0.0324,0.013523,0.002678,0.000431,0.000118
29165000,0.0324,0.013523,0.002678,0.000431,0.000470
29166000,0.0324,0.013523,0.002678,0.000431,0.000353
29167000,0.0324,0.013523,0.002678,0.000431,0.000235
29168000,0.0324,0.013523,0.002678,0.000431,0.000353
29169000,0.0324,0.013523,0.002678,0.000431,0.000470
29170000,0.0324,0.013523,0.002678,0.000431,0.000353
29171000,0.0324,0.013523,0.002678,0.000431,0.000118
29172000,0.0324,0.013523,0.002678,0.000431,0.000470
29173000,0.0324,0.013523,0.002678,0.000431,0.000353
29174000,0.0324,0.013523,0.002678,0.000431,0.000235
29175000,0.0324,0.013523,0.002678,0.000431,0.000353
29176000,0.0324,0.013523,0.002678,0.000431,0.000470
29177000,0.0324,0.013523,0.002678,0.000431,0.000235
29178000,0.0324,0.013523,0.002678,0.000431,0.000235
29179000,0.0324,0.013523,0.002678,0.000431,0.000470
29180000,0.0324,0.013523,0.002678,0.000431,0.000353
29181000,0.0324,0.013523,0.002678,0.000431,0.000235
29182000,0.0324,0.013523,0.002678,0.000431,0.000353
29183000,0.0324,0.013523,0.002678,0.000431,0.000470
29184000,0.0324,0.013523,0.002678,0.000431,0.000235
29185000,0.0324,0.013523,0.002678,0.000431,0.000235
29186000,0.0324,0.013523,0.002678,0.000431,0.000470
29187000,0.0324,0.013523,0.002678,0.000431,0.000353
29188000,0.0324,0.013523,0.002678,0.000431,0.000235
29189000,0.0324,0.013523,0.002678,0.000431,0.000353
29190000,0.0324,0.013523,0.002678,0.000431,0.000470
29191000,0.0324,0.013523,0.002678,0.000431,0.000235
29192000,0.0324,0.013523,0.002678,0.000431,0.000235
29193000,0.0324,0.013523,0.002678,0.000431,0.000470
29194000,0.0324,0.013523,0.002678,0.000431,0.000353
29195000,0.0324,0.013523,0.002678,0.000431,0.000235
29196000,0.0324,0.013523,0.002678,0.000431,0.000353
29197000,0.0324,0.013523,0.002678,0.000431,0.000470
29198000,0.0324,0.013523,0.002678,0.000431,0.000235
29199000,0.0324,0.013523,0.002678,0.000431,0.000235
29200000,0.0324,0.013523,0.002678,0.000431,0.000470
29201000,0.0324,0.013523,0.002678,0.000431,0.000353
29202000,0.0324,0.013523,0.002678,0.000431,0.000235
29203000,0.0324,0.013523,0.002678,0.000431,0.000353
29204000,0.0324,0.013523,0.002678,0.000431,0.000470
29205000,0.0324,0.013523,0.002678,0.000431,0.000235
29206000,0.0324,0.013523,0.002678,0.000431,0.000235
29207000,0.0324,0.013523,0.002678,0.000431,0.000470
29208000,0.0324,0.013523,0.002678,0.000431,0.000353
29209000,0.0324,0.013523,0.002678,0.000431,0.000235
29210000,0.0324,0.013523,0.002678,0.000431,0.000353
29211000,0.0324,0.013523,0.002678,0.000431,0.000470
29212000,0.0324,0.013523,0.002678,0.000431,0.000235
29213000,0.0324,0.013523,0.002678,0.000431,0.000235
29214000,0.0324,0.013523,0.002678,0.000431,0.000470
29215000,0.0324,0.013523,0.002678,0.000431,0.000353
29216000,0.0324,0.013523,0.002678,0.000431,0.000235
29217000,0.0324,0.013523,0.002678,0.000431,0.000353
29218000,0.0324,0.013523,0.002678,0.000431,0.000470
29219000,0.0324,0.013523,0.002678,0.000431,0.000118
29220000,0.0324,0.013523,0.002678,0.000431,0.000353
29221000,0.0324,0.013523,0.002678,0.000431,0.000470
29222000,0.0324,0.013523,0.002678,0.000431,0.000353
29223000,0.0324,0.013523,0.002678,0.000431,0.000235
29224000,0.0324,0.013523,0.002678,0.000431,0.000353
29225000,0.0324,0.013523,0.002678,0.000431,0.000470
29226000,0.0324,0.013523,0.002678,0.000431,0.000118
29227000,0.0324,0.013523,0.002678,0.000431,0.000353
29228000,0.0324,0.013523,0.002678,0.000431,0.000470
29229000,0.0324,0.013523,0.002678,0.000431,0.000353
29230000,0.0324,0.013523,0.002678,0.000431,0.000235
29231000,0.0324,0.013523,0.002678,0.000431,0.000353
29232000,0.0324,0.013523,0.002678,0.000431,0.000470
29233000,0.0324,0.013523,0.002678,0.000431,0.000118
29234000,0.0324,0.013523,0.002678,0.000431,0.000353
29235000,0.0324,0.013523,0.002678,0.000431,0.000470
29236000,0.0324,0.013523,0.002678,0.000431,0.000353
29237000,0.0324,0.013523,0.002678,0.000431,0.000235
29238000,0.0324,0.013523,0.002678,0.000431,0.000353
29239000,0.0324,0.013523,0.002678,0.000431,0.000470
29240000,0.0324,0.013523,0.002678,0.000431,0.000118
29241000,0.0324,0.013523,0.002678,0.000431,0.000353
29242000,0.0324,0.013523,0.002678,0.000431,0.000470
29243000,0.0324,0.013523,0.002678,0.000431,0.000353
29244000,0.0324,0.013523,0.002678,0.000431,0.000235
29245000,0.0324,0.013523,0.002678,0.000431,0.000353
29246000,0.0324,0.013523,0.002678,0.000431,0.000353
29247000,0.0324,0.013523,0.002678,0.000431,0.000235
29248000,0.0324,0.013523,0.002678,0.000431,0.000353
29249000,0.0324,0.013523,0.002678,0.000431,0.000470
29250000,0.0324,0.013523,0.002678,0.000431,0.000353
29251000,0.0324,0.013523,0.002678,0.000431,0.000235
29252000,0.0324,0.013523,0.002678,0.000431,0.000353
29253000,0.0324,0.013523,0.002678,0.000431,0.000353
29254000,0.0324,0.013523,0.002678,0.000431,0.000235
29255000,0.0324,0.013523,0.002678,0.000431,0.000353
29256000,0.0324,0.013523,0.002678,0.000431,0.000470
29257000,0.0324,0.013523,0.002678,0.000431,0.000353
29258000,0.0324,0.013523,0.002678,0.000431,0.000235
29259000,0.0324,0.013523,0.002678,0.000431,0.000353
29260000,0.0324,0.013523,0.002678,0.000431,0.000353
29261000,0.0324,0.013523,0.002678,0.000431,0.000235
29262000,0.0324,0.013523,0.002678,0.000431,0.000353
29263000,0.0324,0.013523,0.002678,0.000431,0.000470
29264000,0.0324,0.013523,0.002678,0.000431,0.000353
29265000,0.0324,0.013523,0.002678,0.000431,0.000235
29266000,0.0324,0.013523,0.002678,0.000431,0.000353
29267000,0.0324,0.013523,0.002678,0.000431,0.000353
29268000,0.0324,0.013523,0.002678,0.000431,0.000235
29269000,0.0324,0.013523,0.002678,0.000431,0.000353
29270000,0.0324,0.013523,0.002678,0.000431,0.000470
29271000,0.0324,0.013523,0.002678,0.000431,0.000353
29272000,0.0324,0.013523,0.002678,0.000431,0.000235
29273000,0.0324,0.013523,0.002678,0.000431,0.000353
29274000,0.0324,0.013523,0.002678,0.000431,0.000353
29275000,0.0324,0.013523,0.002678,0.000431,0.000235
29276000,0.0324,0.013523,0.002678,0.000431,0.000353
29277000,0.0324,0.013523,0.002678,0.000431,0.000470
29278000,0.0324,0.013523,0.002678,0.000431,0.000353
29279000,0.0324,0.013523,0.002678,0.000431,0.000235
29280000,0.0324,0.013523,0.002678,0.000431,0.000353
29281000,0.0324,0.013523,0.002678,0.000431,0.000353
29282000,0.0324,0.013523,0.002678,0.000431,0.000235
29283000,0.0324,0.013523,0.002678,0.000431,0.000353
29284000,0.0324,0.013523,0.002678,0.000431,0.000470
29285000,0.0324,0.013523,0.002678,0.000431,0.000353
29286000,0.0324,0.013523,0.002678,0.000431,0.000235
29287000,0.0324,0.013523,0.002678,0.000431,0.000353
29288000,0.0324,0.013523,0.002678,0.000431,0.000353
29289000,0.0324,0.013523,0.002678,0.000431,0.000235
29290000,0.0324,0.013523,0.002678,0.000431,0.000353
29291000,0.0324,0.013523,0.002678,0.000431,0.000470
29292000,0.0324,0.013523,0.002678,0.000431,0.000353
29293000,0.0324,0.013523,0.002678,0.000431,0.000235
29294000,0.0324,0.013523,0.002678,0.000431,0.000353
29295000,0.0324,0.013523,0.002678,0.000431,0.000353
29296000,0.0324,0.013523,0.002678,0.000431,0.000235
29297000,0.0324,0.013523,0.002678,0.000431,0.000353
29298000,0.0324,0.013523,0.002678,0.000431,0.000470
29299000,0.0324,0.013523,0.002678,0.000431,0.000353
29300000,0.0324,0.013523,0.002678,0.000431,0.000118
29301000,0.0324,0.013523,0.002678,0.000431,0.000470
29302000,0.0324,0.013523,0.002678,0.000431,0.000353
29303000,0.0324,0.013523,0.002678,0.000431,0.000235
29304000,0.0324,0.013523,0.002678,0.000431,0.000353
29305000,0.0324,0.013523,0.002678,0.000431,0.000470
29306000,0.0324,0.013523,0.002678,0.000431,0.000353
29307000,0.0324,0.013523,0.002678,0.000431,0.000118
29308000,0.0324,0.013523,0.002678,0.000431,0.000470
29309000,0.0324,0.013523,0.002678,0.000431,0.000353
29310000,0.0324,0.013523,0.002678,0.000431,0.000235
29311000,0.0324,0.013523,0.002678,0.000431,0.000353
29312000,0.0324,0.013523,0.002678,0.000431,0.000470
29313000,0.0324,0.013523,0.002678,0.000431,0.000353
29314000,0.0324,0.013523,0.002678,0.000431,0.000118
29315000,0.0324,0.013523,0.002678,0.000431,0.000470
29316000,0.0324,0.013523,0.002678,0.000431,0.000353
29317000,0.0324,0.013523,0.002678,0.000431,0.000235
29318000,0.0324,0.013523,0.002678,0.000431,0.000353
29319000,0.0324,0.013523,0.002678,0.000431,0.000470
29320000,0.0324,0.013523,0.002678,0.000431,0.000235
29321000,0.0324,0.013523,0.002678,0.000431,0.000235
29322000,0.0324,0.013523,0.002678,0.000431,0.000470
29323000,0.0324,0.013523,0.002678,0.000431,0.000353
29324000,0.0324,0.013523,0.002678,0.000431,0.000235
29325000,0.0324,0.013523,0.002678,0.000431,0.000353
29326000,0.0324,0.013523,0.002678,0.000431,0.000470
29327000,0.0324,0.013523,0.002678,0.000431,0.000235
29328000,0.0324,0.013523,0.002678,0.000431,0.000235
29329000,0.0324,0.013523,0.002678,0.000431,0.000470
29330000,0.0324,0.013523,0.002678,0.000431,0.000353
29331000,0.0324,0.013523,0.002678,0.000431,0.000235
29332000,0.0324,0.013523,0.002678,0.000431,0.000353
29333000,0.0324,0.013523,0.002678,0.000431,0.000470
29334000,0.0324,0.013523,0.002678,0.000431,0.000235
29335000,0.0324,0.013523,0.002678,0.000431,0.000235
29336000,0.0324,0.013523,0.002678,0.000431,0.000470
29337000,0.0324,0.013523,0.002678,0.000431,0.000353
29338000,0.0324,0.013523,0.002678,0.000431,0.000235
29339000,0.0324,0.013523,0.002678,0.000431,0.000353
29340000,0.0324,0.013523,0.002678,0.000431,0.000470
29341000,0.0324,0.013523,0.002678,0.000431,0.000235
29342000,0.0324,0.013523,0.002678,0.000431,0.000235
29343000,0.0324,0.013523,0.002678,0.000431,0.000470
29344000,0.0324,0.013523,0.002678,0.000431,0.000353
29345000,0.0324,0.013523,0.002678,0.000431,0.000235
29346000,0.0324,0.013523,0.002678,0.000431,0.000353
29347000,0.0324,0.013523,0.002678,0.000431,0.000470
29348000,0.0324,0.013523,0.002678,0.000431,0.000235
29349000,0.0324,0.013523,0.002678,0.000431,0.000235
29350000,0.0324,0.013523,0.002678,0.000431,0.000470
29351000,0.0324,0.013523,0.002678,0.000431,0.000353
29352000,0.0324,0.013523,0.002678,0.000431,0.000235
29353000,0.0324,0.013523,0.002678,0.000431,0.000353
29354000,0.0324,0.013523,0.002678,0.000431,0.000470
29355000,0.0324,0.013523,0.002678,0.000431,0.000235
29356000,0.0324,0.013523,0.002678,0.000431,0.000235
29357000,0.0324,0.013523,0.002678,0.000431,0.000470
29358000,0.0324,0.013523,0.002678,0.000431,0.000353
29359000,0.0324,0.013523,0.002678,0.000431,0.000235
29360000,0.0324,0.013523,0.002678,0.000431,0.000353
29361000,0.0324,0.013523,0.002678,0.000431,0.000470
29362000,0.0324,0.013523,0.002678,0.000431,0.000118
29363000,0.0324,0.013523,0.002678,0.000431,0.000353
29364000,0.0324,0.013523,0.002678,0.000431,0.000470
29365000,0.0324,0.013523,0.002678,0.000431,0.000353
29366000,0.0324,0.013523,0.002678,0.000431,0.000235
29367000,0.0324,0.013523,0.002678,0.000431,0.000353
29368000,0.0324,0.013523,0.002678,0.000431,0.000470
29369000,0.0324,0.013523,0.002678,0.000431,0.000118
29370000,0.0324,0.013523,0.002678,0.000431,0.000353
29371000,0.0324,0.013523,0.002678,0.000431,0.000470
29372000,0.0324,0.013523,0.002678,0.000431,0.000353
29373000,0.0324,0.013523,0.002678,0.000431,0.000235
29374000,0.0324,0.013523,0.002678,0.000431,0.000353
29375000,0.0324,0.013523,0.002678,0.000431,0.000470
29376000,0.0324,0.013523,0.002678,0.000431,0.000118
29377000,0.0324,0.013523,0.002678,0.000431,0.000353
29378000,0.0324,0.013523,0.002678,0.000431,0.000470
29379000,0.0324,0.013523,0.002678,0.000431,0.000353
29380000,0.0324,0.013523,0.002678,0.000431,0.000235
29381000,0.0324,0.013523,0.002678,0.000431,0.000353
29382000,0.0324,0.013523,0.002678,0.000431,0.000353
29383000,0.0324,0.013523,0.002678,0.000431,0.000235
29384000,0.0324,0.013523,0.002678,0.000431,0.000353
29385000,0.0324,0.013523,0.002678,0.000431,0.000470
29386000,0.0324,0.013523,0.002678,0.000431,0.000353
29387000,0.0324,0.013523,0.002678,0.000431,0.000235
29388000,0.0324,0.013523,0.002678,0.000431,0.000353
29389000,0.0324,0.013523,0.002678,0.000431,0.000353
29390000,0.0324,0.013523,0.002678,0.000431,0.000235
29391000,0.0324,0.013523,0.002678,0.000431,0.000353
29392000,0.0324,0.013523,0.002678,0.000431,0.000470
29393000,0.0324,0.013523,0.002678,0.000431,0.000353
29394000,0.0324,0.013523,0.002678,0.000431,0.000235
29395000,0.0324,0.013523,0.002678,0.000431,0.000353
29396000,0.0324,0.013523,0.002678,0.000431,0.000353
29397000,0.0324,0.013523,0.002678,0.000431,0.000235
29398000,0.0324,0.013523,0.002678,0.000431,0.000353
29399000,0.0324,0.013523,0.002678,0.000431,0.000470
29400000,0.0324,0.013523,0.002678,0.000431,0.000353
29401000,0.0324,0.013523,0.002678,0.000431,0.000235
29402000,0.0324,0.013523,0.002678,0.000431,0.000353
29403000,0.0324,0.013523,0.002678,0.000431,0.000353
29404000,0.0324,0.013523,0.002678,0.000431,0.000235
29405000,0.0324,0.013523,0.002678,0.000431,0.000353
29406000,0.0324,0.013523,0.002678,0.000431,0.000470
29407000,0.0324,0.013523,0.002678,0.000431,0.000353
29408000,0.0324,0.013523,0.002678,0.000431,0.000235
29409000,0.0324,0.013523,0.002678,0.000431,0.000353
29410000,0.0324,0.013523,0.002678,0.000431,0.000353
29411000,0.0324,0.013523,0.002678,0.000431,0.000235
29412000,0.0324,0.013523,0.002678,0.000431,0.000353
29413000,0.0324,0.013523,0.002678,0.000431,0.000470
29414000,0.0324,0.013523,0.002678,0.000431,0.000353
29415000,0.0324,0.013523,0.002678,0.000431,0.000235
29416000,0.0324,0.013523,0.002678,0.000431,0.000353
29417000,0.0324,0.013523,0.002678,0.000431,0.000353
29418000,0.0324,0.013523,0.002678,0.000431,0.000235
29419000,0.0324,0.013523,0.002678,0.000431,0.000353
29420000,0.0324,0.013523,0.002678,0.000431,0.000470
29421000,0.0324,0.013523,0.002678,0.000431,0.000353
29422000,0.0324,0.013523,0.002678,0.000431,0.000235
29423000,0.0324,0.013523,0.002678,0.000431,0.000353
29424000,0.0324,0.013523,0.002678,0.000431,0.000353
29425000,0.0324,0.013523,0.002678,0.000431,0.000235
29426000,0.0324,0.013523,0.002678,0.000431,0.000353
29427000,0.0324,0.013523,0.002678,0.000431,0.000470
29428000,0.0324,0.013523,0.002678,0.000431,0.000353
29429000,0.0324,0.013523,0.002678,0.000431,0.000235
29430000,0.0324,0.013523,0.002678,0.000431,0.000353
29431000,0.0324,0.013523,0.002678,0.000431,0.000353
29432000,0.0324,0.013523,0.002678,0.000431,0.000235
29433000,0.0324,0.013523,0.002678,0.000431,0.000353
29434000,0.0324,0.013523,0.002678,0.000431,0.000470
29435000,0.0324,0.013523,0.002678,0.000431,0.000353
29436000,0.0324,0.013523,0.002678,0.000431,0.000118
29437000,0.0324,0.013523,0.002678,0.000431,0.000470
29438000,0.0324,0.013523,0.002678,0.000431,0.000353
29439000,0.0324,0.013523,0.002678,0.000431,0.000235
29440000,0.0324,0.013523,0.002678,0.000431,0.000353
29441000,0.0324,0.013523,0.002678,0.000431,0.000470
29442000,0.0324,0.013523,0.002678,0.000431,0.000353
29443000,0.0324,0.013523,0.002678,0.000431,0.000118
29444000,0.0324,0.013523,0.002678,0.000431,0.000470
29445000,0.0324,0.013523,0.002678,0.000431,0.000353
29446000,0.0324,0.013523,0.002678,0.000431,0.000235
29447000,0.0324,0.013523,0.002678,0.000431,0.000353
29448000,0.0324,0.013523,0.002678,0.000431,0.000470
29449000,0.0324,0.013523,0.002678,0.000431,0.000353
29450000,0.0324,0.013523,0.002678,0.000431,0.000118
29451000,0.0324,0.013523,0.002678,0.000431,0.000470
29452000,0.0324,0.013523,0.002678,0.000431,0.000353
29453000,0.0324,0.013523,0.002678,0.000431,0.000235
29454000,0.0324,0.013523,0.002678,0.000431,0.000353
29455000,0.0324,0.013523,0.002678,0.000431,0.000470
29456000,0.0324,0.013523,0.002678,0.000431,0.000353
29457000,0.0324,0.013523,0.002678,0.000431,0.000118
29458000,0.0324,0.013523,0.002678,0.000431,0.000470
29459000,0.0324,0.013523,0.002678,0.000431,0.000353
29460000,0.0324,0.013523,0.002678,0.000431,0.000235
29461000,0.0324,0.013523,0.002678,0.000431,0.000353
29462000,0.0324,0.013523,0.002678,0.000431,0.000470
29463000,0.0324,0.013523,0.002678,0.000431,0.000235
29464000,0.0324,0.013523,0.002678,0.000431,0.000235
29465000,0.0324,0.013523,0.002678,0.000431,0.000470
29466000,0.0324,0.013523,0.002678,0.000431,0.000353
29467000,0.0324,0.013523,0.002678,0.000431,0.000235
29468000,0.0324,0.013523,0.002678,0.000431,0.000353
29469000,0.0324,0.013523,0.002678,0.000431,0.000470
29470000,0.0324,0.013523,0.002678,0.000431,0.000235
29471000,0.0324,0.013523,0.002678,0.000431,0.000235
29472000,0.0324,0.013523,0.002678,0.000431,0.000470
29473000,0.0324,0.013523,0.002678,0.000431,0.000353
29474000,0.0324,0.013523,0.002678,0.000431,0.000235
29475000,0.0324,0.013523,0.002678,0.000431,0.000353
29476000,0.0324,0.013523,0.002678,0.000431,0.000470
29477000,0.0324,0.013523,0.002678,0.000431,0.000235
29478000,0.0324,0.013523,0.002678,0.000431,0.000235
29479000,0.0324,0.013523,0.002678,0.000431,0.000470
29480000,0.0324,0.013523,0.002678,0.000431,0.000353
29481000,0.0324,0.013523,0.002678,0.000431,0.000235
29482000,0.0324,0.013523,0.002678,0.000431,0.000353
29483000,0.0324,0.013523,0.002678,0.000431,0.000470
29484000,0.0324,0.013523,0.002678,0.000431,0.000235
29485000,0.0324,0.013523,0.002678,0.000431,0.000235
29486000,0.0324,0.013523,0.002678,0.000431,0.000470
29487000,0.0324,0.013523,0.002678,0.000431,0.000353
29488000,0.0324,0.013523,0.002678,0.000431,0.000235
29489000,0.0324,0.013523,0.002678,0.000431,0.000353
29490000,0.0324,0.013523,0.002678,0.000431,0.000470
29491000,0.0324,0.013523,0.002678,0.000431,0.000235
29492000,0.0324,0.013523,0.002678,0.000431,0.000235
29493000,0.0324,0.013523,0.002678,0.000431,0.000470
29494000,0.0324,0.013523,0.002678,0.000431,0.000353
29495000,0.0324,0.013523,0.002678,0.000431,0.000235
29496000,0.0324,0.013523,0.002678,0.000431,0.000353
29497000,0.0324,0.013523,0.002678,0.000431,0.000470
29498000,0.0324,0.013523,0.002678,0.000431,0.000235
29499000,0.0324,0.013523,0.002678,0.000431,0.000235
29500000,0.0324,0.013523,0.002678,0.000431,0.000470
29501000,0.0324,0.013523,0.002678,0.000431,0.000353
29502000,0.0324,0.013523,0.002678,0.000431,0.000235
29503000,0.0324,0.013523,0.002678,0.000431,0.000353
29504000,0.0324,0.013523,0.002678,0.000431,0.000470
29505000,0.0324,0.013523,0.002678,0.000431,0.000118
29506000,0.0324,0.013523,0.002678,0.000431,0.000353
29507000,0.0324,0.013523,0.002678,0.000431,0.000470
29508000,0.0324,0.013523,0.002678,0.000431,0.000353
29509000,0.0324,0.013523,0.002678,0.000431,0.000235
29510000,0.0324,0.013523,0.002678,0.000431,0.000353
29511000,0.0324,0.013523,0.002678,0.000431,0.000470
29512000,0.0324,0.013523,0.002678,0.000431,0.000118
29513000,0.0324,0.013523,0.002678,0.000431,0.000353
29514000,0.0324,0.013523,0.002678,0.000431,0.000470
29515000,0.0324,0.013523,0.002678,0.000431,0.000353
29516000,0.0324,0.013523,0.002678,0.000431,0.000235
29517000,0.0324,0.013523,0.002678,0.000431,0.000353
29518000,0.0324,0.013523,0.002678,0.000431,0.000470
29519000,0.0324,0.013523,0.002678,0.000431,0.000118
29520000,0.0324,0.013523,0.002678,0.000431,0.000353
29521000,0.0324,0.013523,0.002678,0.000431,0.000470
29522000,0.0324,0.013523,0.002678,0.000431,0.000353
29523000,0.0324,0.013523,0.002678,0.000431,0.000235
29524000,0.0324,0.013523,0.002678,0.000431,0.000353
29525000,0.0324,0.013523,0.002678,0.000431,0.000353
29526000,0.0324,0.013523,0.002678,0.000431,0.000235
29527000,0.0324,0.013523,0.002678,0.000431,0.000353
29528000,0.0324,0.013523,0.002678,0.000431,0.000470
29529000,0.0324,0.013523,0.002678,0.000431,0.000353
29530000,0.0324,0.013523,0.002678,0.000431,0.000235
29531000,0.0324,0.013523,0.002678,0.000431,0.000353
29532000,0.0324,0.013523,0.002678,0.000431,0.000353
29533000,0.0324,0.013523,0.002678,0.000431,0.000235
29534000,0.0324,0.013523,0.002678,0.000431,0.000353
29535000,0.0324,0.013523,0.002678,0.000431,0.000470
29536000,0.0324,0.013523,0.002678,0.000431,0.000353
29537000,0.0324,0.013523,0.002678,0.000431,0.000235
29538000,0.0324,0.013523,0.002678,0.000431,0.000353
29539000,0.0324,0.013523,0.002678,0.000431,0.000353
29540000,0.0324,0.013523,0.002678,0.000431,0.000235
29541000,0.0324,0.013523,0.002678,0.000431,0.000353
29542000,0.0324,0.013523,0.002678,0.000431,0.000470
29543000,0.0324,0.013523,0.002678,0.000431,0.000353
29544000,0.0324,0.013523,0.002678,0.000431,0.000235
29545000,0.0324,0.013523,0.002678,0.000431,0.000353
29546000,0.0324,0.013523,0.002678,0.000431,0.000353
29547000,0.0324,0.013523,0.002678,0.000431,0.000235
29548000,0.0324,0.013523,0.002678,0.000431,0.000353
29549000,0.0324,0.013523,0.002678,0.000431,0.000470
29550000,0.0324,0.013523,0.002678,0.000431,0.000353
29551000,0.0324,0.013523,0.002678,0.000431,0.000235
29552000,0.0324,0.013523,0.002678,0.000431,0.000353
29553000,0.0324,0.013523,0.002678,0.000431,0.000353
29554000,0.0324,0.013523,0.002678,0.000431,0.000235
29555000,0.0324,0.013523,0.002678,0.000431,0.000353
29556000,0.0324,0.013523,0.002678,0.000431,0.000470
29557000,0.0324,0.013523,0.002678,0.000431,0.000353
29558000,0.0324,0.013523,0.002678,0.000431,0.000235
29559000,0.0324,0.013523,0.002678,0.000431,0.000353
29560000,0.0324,0.013523,0.002678,0.000431,0.000353
29561000,0.0324,0.013523,0.002678,0.000431,0.000235
29562000,0.0324,0.013523,0.002678,0.000431,0.000353
29563000,0.0324,0.013523,0.002678,0.000431,0.000470
29564000,0.0324,0.013523,0.002678,0.000431,0.000353
29565000,0.0324,0.013523,0.002678,0.000431,0.000235
29566000,0.0324,0.013523,0.002678,0.000431,0.000353
29567000,0.0324,0.013523,0.002678,0.000431,0.000353
29568000,0.0324,0.013523,0.002678,0.000431,0.000235
29569000,0.0324,0.013523,0.002678,0.000431,0.000353
29570000,0.0324,0.013523,0.002678,0.000431,0.000470
29571000,0.0324,0.013523,0.002678,0.000431,0.000353
29572000,0.0324,0.013523,0.002678,0.000431,0.000235
29573000,0.0324,0.013523,0.002678,0.000431,0.000353
29574000,0.0324,0.013523,0.002678,0.000431,0.000353
29575000,0.0324,0.013523,0.002678,0.000431,0.000235
29576000,0.0324,0.013523,0.002678,0.000431,0.000353
29577000,0.0324,0.013523,0.002678,0.000431,0.000470
29578000,0.0324,0.013523,0.002678,0.000431,0.000353
29579000,0.0324,0.013523,0.002678,0.000431,0.000118
29580000,0.0324,0.013523,0.002678,0.000431,0.000470
29581000,0.0324,0.013523,0.002678,0.000431,0.000353
29582000,0.0324,0.013523,0.002678,0.000431,0.000235
29583000,0.0324,0.013523,0.002678,0.000431,0.000353
29584000,0.0324,0.013523,0.002678,0.000431,0.000470
29585000,0.0324,0.013523,0.002678,0.000431,0.000353
29586000,0.0324,0.013523,0.002678,0.000431,0.000118
29587000,0.0324,0.013523,0.002678,0.000431,0.000470
29588000,0.0324,0.013523,0.002678,0.000431,0.000353
29589000,0.0324,0.013523,0.002678,0.000431,0.000235
29590000,0.0324,0.013523,0.002678,0.000431,0.000353
29591000,0.0324,0.013523,0.002678,0.000431,0.000470
29592000,0.0324,0.013523,0.002678,0.000431,0.000353
29593000,0.0324,0.013523,0.002678,0.000431,0.000118
29594000,0.0324,0.013523,0.002678,0.000431,0.000470
29595000,0.0324,0.013523,0.002678,0.000431,0.000353
29596000,0.0324,0.013523,0.002678,0.000431,0.000235
29597000,0.0324,0.013523,0.002678,0.000431,0.000353
29598000,0.0324,0.013523,0.002678,0.000431,0.000470
29599000,0.0324,0.013523,0.002678,0.000431,0.000235
29600000,0.0324,0.013523,0.002678,0.000431,0.000235
29601000,0.0324,0.013523,0.002678,0.000431,0.000470
29602000,0.0324,0.013523,0.002678,0.000431,0.000353
29603000,0.0324,0.013523,0.002678,0.000431,0.000235
29604000,0.0324,0.013523,0.002678,0.000431,0.000353
29605000,0.0324,0.013523,0.002678,0.000431,0.000470
29606000,0.0324,0.013523,0.002678,0.000431,0.000235
29607000,0.0324,0.013523,0.002678,0.000431,0.000235
29608000,0.0324,0.013523,0.002678,0.000431,0.000470
29609000,0.0324,0.013523,0.002678,0.000431,0.000353
29610000,0.0324,0.013523,0.002678,0.000431,0.000235
29611000,0.0324,0.013523,0.002678,0.000431,0.000353
29612000,0.0324,0.013523,0.002678,0.000431,0.000470
29613000,0.0324,0.013523,0.002678,0.000431,0.000235
29614000,0.0324,0.013523,0.002678,0.000431,0.000235
29615000,0.0324,0.013523,0.002678,0.000431,0.000470
29616000,0.0324,0.013523,0.002678,0.000431,0.000353
29617000,0.0324,0.013523,0.002678,0.000431,0.000235
29618000,0.0324,0.013523,0.002678,0.000431,0.000353
29619000,0.0324,0.013523,0.002678,0.000431,0.000470
29620000,0.0324,0.013523,0.002678,0.000431,0.000235
29621000,0.0324,0.013523,0.002678,0.000431,0.000235
29622000,0.0324,0.013523,0.002678,0.000431,0.000470
29623000,0.0324,0.013523,0.002678,0.000431,0.000353
29624000,0.0324,0.013523,0.002678,0.000431,0.000235
29625000,0.0324,0.013523,0.002678,0.000431,0.000353
29626000,0.0324,0.013523,0.002678,0.000431,0.000470
29627000,0.0324,0.013523,0.002678,0.000431,0.000235
29628000,0.0324,0.013523,0.002678,0.000431,0.000235
29629000,0.0324,0.013523,0.002678,0.000431,0.000470
29630000,0.0324,0.013523,0.002678,0.000431,0.000353
29631000,0.0324,0.013523,0.002678,0.000431,0.000235
29632000,0.0324,0.013523,0.002678,0.000431,0.000353
29633000,0.0324,0.013523,0.002678,0.000431,0.000470
29634000,0.0324,0.013523,0.002678,0.000431,0.000235
29635000,0.0324,0.013523,0.002678,0.000431,0.000235
29636000,0.0324,0.013523,0.002678,0.000431,0.000470
29637000,0.0324,0.013523,0.002678,0.000431,0.000353
29638000,0.0324,0.013523,0.002678,0.000431,0.000235
29639000,0.0324,0.013523,0.002678,0.000431,0.000353
29640000,0.0324,0.013523,0.002678,0.000431,0.000470
29641000,0.0324,0.013523,0.002678,0.000431,0.000118
29642000,0.0324,0.013523,0.002678,0.000431,0.000353
29643000,0.0324,0.013523,0.002678,0.000431,0.000470
29644000,0.0324,0.013523,0.002678,0.000431,0.000353
29645000,0.0324,0.013523,0.002678,0.000431,0.000235
29646000,0.0324,0.013523,0.002678,0.000431,0.000353
29647000,0.0324,0.013523,0.002678,0.000431,0.000470
29648000,0.0324,0.013523,0.002678,0.000431,0.000118
29649000,0.0324,0.013523,0.002678,0.000431,0.000353
29650000,0.0324,0.013523,0.002678,0.000431,0.000470
29651000,0.0324,0.013523,0.002678,0.000431,0.000353
29652000,0.0324,0.013523,0.002678,0.000431,0.000235
29653000,0.0324,0.013523,0.002678,0.000431,0.000353
29654000,0.0324,0.013523,0.002678,0.000431,0.000470
29655000,0.0324,0.013523,0.002678,0.000431,0.000118
29656000,0.0324,0.013523,0.002678,0.000431,0.000353
29657000,0.0324,0.013523,0.002678,0.000431,0.000470
29658000,0.0324,0.013523,0.002678,0.000431,0.000353
29659000,0.0324,0.013523,0.002678,0.000431,0.000235
29660000,0.0324,0.013523,0.002678,0.000431,0.000353
29661000,0.0324,0.013523,0.002678,0.000431,0.000470
29662000,0.0324,0.013523,0.002678,0.000431,0.000118
29663000,0.0324,0.013523,0.002678,0.000431,0.000353
29664000,0.0324,0.013523,0.002678,0.000431,0.000470
29665000,0.0324,0.013523,0.002678,0.000431,0.000353
29666000,0.0324,0.013523,0.002678,0.000431,0.000235
29667000,0.0324,0.013523,0.002678,0.000431,0.000353
29668000,0.0324,0.013523,0.002678,0.000431,0.000353
29669000,0.0324,0.013523,0.002678,0.000431,0.000235
29670000,0.0324,0.013523,0.002678,0.000431,0.000353
29671000,0.0324,0.013523,0.002678,0.000431,0.000470
29672000,0.0324,0.013523,0.002678,0.000431,0.000353
29673000,0.0324,0.013523,0.002678,0.000431,0.000235
29674000,0.0324,0.013523,0.002678,0.000431,0.000353
29675000,0.0324,0.013523,0.002678,0.000431,0.000353
29676000,0.0324,0.013523,0.002678,0.000431,0.000235
29677000,0.0324,0.013523,0.002678,0.000431,0.000353
29678000,0.0324,0.013523,0.002678,0.000431,0.000470
29679000,0.0324,0.013523,0.002678,0.000431,0.000353
29680000,0.0324,0.013523,0.002678,0.000431,0.000235
29681000,0.0324,0.013523,0.002678,0.000431,0.000353
29682000,0.0324,0.013523,0.002678,0.000431,0.000353
29683000,0.0324,0.013523,0.002678,0.000431,0.000235
29684000,0.0324,0.013523,0.002678,0.000431,0.000353
29685000,0.0324,0.013523,0.002678,0.000431,0.000470
29686000,0.0324,0.013523,0.002678,0.000431,0.000353
29687000,0.0324,0.013523,0.002678,0.000431,0.000235
29688000,0.0324,0.013523,0.002678,0.000431,0.000353
29689000,0.0324,0.013523,0.002678,0.000431,0.000353
29690000,0.0324,0.013523,0.002678,0.000431,0.000235
29691000,0.0324,0.013523,0.002678,0.000431,0.000353
29692000,0.0324,0.013523,0.002678,0.000431,0.000470
29693000,0.0324,0.013523,0.002678,0.000431,0.000353
29694000,0.0324,0.013523,0.002678,0.000431,0.000235
29695000,0.0324,0.013523,0.002678,0.000431,0.000353
29696000,0.0324,0.013523,0.002678,0.000431,0.000353
29697000,0.0324,0.013523,0.002678,0.000431,0.000235
29698000,0.0324,0.013523,0.002678,0.000431,0.000353
29699000,0.0324,0.013523,0.002678,0.000431,0.000470
29700000,0.0324,0.013523,0.002678,0.000431,0.000353
29701000,0.0324,0.013523,0.002678,0.000431,0.000235
29702000,0.0324,0.013523,0.002678,0.000431,0.000353
29703000,0.0324,0.013523,0.002678,0.000431,0.000353
29704000,0.0324,0.013523,0.002678,0.000431,0.000235
29705000,0.0324,0.013523,0.002678,0.000431,0.000353
29706000,0.0324,0.013523,0.002678,0.000431,0.000470
29707000,0.0324,0.013523,0.002678,0.000431,0.000353
29708000,0.0324,0.013523,0.002678,0.000431,0.000235
29709000,0.0324,0.013523,0.002678,0.000431,0.000353
29710000,0.0324,0.013523,0.002678,0.000431,0.000353
29711000,0.0324,0.013523,0.002678,0.000431,0.000235
29712000,0.0324,0.013523,0.002678,0.000431,0.000353
29713000,0.0324,0.013523,0.002678,0.000431,0.000470
29714000,0.0324,0.013523,0.002678,0.000431,0.000353
29715000,0.0324,0.013523,0.002678,0.000431,0.000118
29716000,0.0324,0.013523,0.002678,0.000431,0.000470
29717000,0.0324,0.013523,0.002678,0.000431,0.000353
29718000,0.0324,0.013523,0.002678,0.000431,0.000235
29719000,0.0324,0.013523,0.002678,0.000431,0.000353
29720000,0.0324,0.013523,0.002678,0.000431,0.000470
29721000,0.0324,0.013523,0.002678,0.000431,0.000353
29722000,0.0324,0.013523,0.002678,0.000431,0.000118
29723000,0.0324,0.013523,0.002678,0.000431,0.000470
29724000,0.0324,0.013523,0.002678,0.000431,0.000353
29725000,0.0324,0.013523,0.002678,0.000431,0.000235
29726000,0.0324,0.013523,0.002678,0.000431,0.000353
29727000,0.0324,0.013523,0.002678,0.000431,0.000470
29728000,0.0324,0.013523,0.002678,0.000431,0.000353
29729000,0.0324,0.013523,0.002678,0.000431,0.000118
29730000,0.0324,0.013523,0.002678,0.000431,0.000470
29731000,0.0324,0.013523,0.002678,0.000431,0.000353
29732000,0.0324,0.013523,0.002678,0.000431,0.000235
29733000,0.0324,0.013523,0.002678,0.000431,0.000353
29734000,0.0324,0.013523,0.002678,0.000431,0.000470
29735000,0.0324,0.013523,0.002678,0.000431,0.000353
29736000,0.0324,0.013523,0.002678,0.000431,0.000118
29737000,0.0324,0.013523,0.002678,0.000431,0.000470
29738000,0.0324,0.013523,0.002678,0.000431,0.000353
29739000,0.0324,0.013523,0.002678,0.000431,0.000235
29740000,0.0324,0.013523,0.002678,0.000431,0.000353
29741000,0.0324,0.013523,0.002678,0.000431,0.000470
29742000,0.0324,0.013523,0.002678,0.000431,0.000235
29743000,0.0324,0.013523,0.002678,0.000431,0.000235
29744000,0.0324,0.013523,0.002678,0.000431,0.000470
29745000,0.0324,0.013523,0.002678,0.000431,0.000353
29746000,0.0324,0.013523,0.002678,0.000431,0.000235
29747000,0.0324,0.013523,0.002678,0.000431,0.000353
29748000,0.0324,0.013523,0.002678,0.000431,0.000470
29749000,0.0324,0.013523,0.002678,0.000431,0.000235
29750000,0.0324,0.013523,0.002678,0.000431,0.000235
29751000,0.0324,0.013523,0.002678,0.000431,0.000470
29752000,0.0324,0.013523,0.002678,0.000431,0.000353
29753000,0.0324,0.013523,0.002678,0.000431,0.000235
29754000,0.0324,0.013523,0.002678,0.000431,0.000353
29755000,0.0324,0.013523,0.002678,0.000431,0.000470
29756000,0.0324,0.013523,0.002678,0.000431,0.000235
29757000,0.0324,0.013523,0.002678,0.000431,0.000235
29758000,0.0324,0.013523,0.002678,0.000431,0.000470
29759000,0.0324,0.013523,0.002678,0.000431,0.000353
29760000,0.0324,0.013523,0.002678,0.000431,0.000235
29761000,0.0324,0.013523,0.002678,0.000431,0.000353
29762000,0.0324,0.013523,0.002678,0.000431,0.000470
29763000,0.0324,0.013523,0.002678,0.000431,0.000235
29764000,0.0324,0.013523,0.002678,0.000431,0.000235
29765000,0.0324,0.013523,0.002678,0.000431,0.000470
29766000,0.0324,0.013523,0.002678,0.000431,0.000353
29767000,0.0324,0.013523,0.002678,0.000431,0.000235
29768000,0.0324,0.013523,0.002678,0.000431,0.000353
29769000,0.0324,0.013523,0.002678,0.000431,0.000470
29770000,0.0324,0.013523,0.002678,0.000431,0.000235
29771000,0.0324,0.013523,0.002678,0.000431,0.000235
29772000,0.0324,0.013523,0.002678,0.000431,0.000470
29773000,0.0324,0.013523,0.002678,0.000431,0.000353
29774000,0.0324,0.013523,0.002678,0.000431,0.000235
29775000,0.0324,0.013523,0.002678,0.000431,0.000353
29776000,0.0324,0.013523,0.002678,0.000431,0.000470
29777000,0.0324,0.013523,0.002678,0.000431,0.000235
29778000,0.0324,0.013523,0.002678,0.000431,0.000235
29779000,0.0324,0.013523,0.002678,0.000431,0.000470
29780000,0.0324,0.013523,0.002678,0.000431,0.000353
29781000,0.0324,0.013523,0.002678,0.000431,0.000235
29782000,0.0324,0.013523,0.002678,0.000431,0.000353
29783000,0.0324,0.013523,0.002678,0.000431,0.000470
29784000,0.0324,0.013523,0.002678,0.000431,0.000118
29785000,0.0324,0.013523,0.002678,0.000431,0.000353
29786000,0.0324,0.013523,0.002678,0.000431,0.000470
29787000,0.0324,0.013523,0.002678,0.000431,0.000353
29788000,0.0324,0.013523,0.002678,0.000431,0.000235
29789000,0.0324,0.013523,0.002678,0.000431,0.000353
29790000,0.0324,0.013523,0.002678,0.000431,0.000470
29791000,0.0324,0.013523,0.002678,0.000431,0.000118
29792000,0.0324,0.013523,0.002678,0.000431,0.000353
29793000,0.0324,0.013523,0.002678,0.000431,0.000470
29794000,0.0324,0.013523,0.002678,0.000431,0.000353
29795000,0.0324,0.013523,0.002678,0.000431,0.000235
29796000,0.0324,0.013523,0.002678,0.000431,0.000353
29797000,0.0324,0.013523,0.002678,0.000431,0.000470
29798000,0.0324,0.013523,0.002678,0.000431,0.000118
29799000,0.0324,0.013523,0.002678,0.000431,0.000353
29800000,0.0324,0.013523,0.002678,0.000431,0.000470
29801000,0.0324,0.013523,0.002678,0.000431,0.000353
29802000,0.0324,0.013523,0.002678,0.000431,0.000235
29803000,0.0324,0.013523,0.002678,0.000431,0.000353
29804000,0.0324,0.013523,0.002678,0.000431,0.000353
29805000,0.0324,0.013523,0.002678,0.000431,0.000235
29806000,0.0324,0.013523,0.002678,0.000431,0.000353
29807000,0.0324,0.013523,0.002678,0.000431,0.000470
29808000,0.0324,0.013523,0.002678,0.000431,0.000353
29809000,0.0324,0.013523,0.002678,0.000431,0.000235
29810000,0.0324,0.013523,0.002678,0.000431,0.000353
29811000,0.0324,0.013523,0.002678,0.000431,0.000353
29812000,0.0324,0.013523,0.002678,0.000431,0.000235
29813000,0.0324,0.013523,0.002678,0.000431,0.000353
29814000,0.0324,0.013523,0.002678,0.000431,0.000470
29815000,0.0324,0.013523,0.002678,0.000431,0.000353
29816000,0.0324,0.013523,0.002678,0.000431,0.000235
29817000,0.0324,0.013523,0.002678,0.000431,0.000353
29818000,0.0324,0.013523,0.002678,0.000431,0.000353
29819000,0.0324,0.013523,0.002678,0.000431,0.000235
29820000,0.0324,0.013523,0.002678,0.000431,0.000353
29821000,0.0324,0.013523,0.002678,0.000431,0.000470
29822000,0.0324,0.013523,0.002678,0.000431,0.000353
29823000,0.0324,0.013523,0.002678,0.000431,0.000235
29824000,0.0324,0.013523,0.002678,0.000431,0.000353
29825000,0.0324,0.013523,0.002678,0.000431,0.000353
29826000,0.0324,0.013523,0.002678,0.000431,0.000235
29827000,0.0324,0.013523,0.002678,0.000431,0.000353
29828000,0.0324,0.013523,0.002678,0.000431,0.000470
29829000,0.0324,0.013523,0.002678,0.000431,0.000353
29830000,0.0324,0.013523,0.002678,0.000431,0.000235
29831000,0.0324,0.013523,0.002678,0.000431,0.000353
29832000,0.0324,0.013523,0.002678,0.000431,0.000353
29833000,0.0324,0.013523,0.002678,0.000431,0.000235
29834000,0.0324,0.013523,0.002678,0.000431,0.000353
29835000,0.0324,0.013523,0.002678,0.000431,0.000470
29836000,0.0324,0.013523,0.002678,0.000431,0.000353
29837000,0.0324,0.013523,0.002678,0.000431,0.000235
29838000,0.0324,0.013523,0.002678,0.000431,0.000353
29839000,0.0324,0.013523,0.002678,0.000431,0.000353
29840000,0.0324,0.013523,0.002678,0.000431,0.000235
29841000,0.0324,0.013523,0.002678,0.000431,0.000353
29842000,0.0324,0.013523,0.002678,0.000431,0.000470
29843000,0.0324,0.013523,0.002678,0.000431,0.000353
29844000,0.0324,0.013523,0.002678,0.000431,0.000235
29845000,0.0324,0.013523,0.002678,0.000431,0.000353
29846000,0.0324,0.013523,0.002678,0.000431,0.000353
29847000,0.0324,0.013523,0.002678,0.000431,0.000235
29848000,0.0324,0.013523,0.002678,0.000431,0.000353
29849000,0.0324,0.013523,0.002678,0.000431,0.000470
29850000,0.0324,0.013523,0.002678,0.000431,0.000353
29851000,0.0324,0.013523,0.002678,0.000431,0.000235
29852000,0.0324,0.013523,0.002678,0.000431,0.000353
29853000,0.0324,0.013523,0.002678,0.000431,0.000353
29854000,0.0324,0.013523,0.002678,0.000431,0.000235
29855000,0.0324,0.013523,0.002678,0.000431,0.000353
29856000,0.0324,0.013523,0.002678,0.000431,0.000470
29857000,0.0324,0.013523,0.002678,0.000431,0.000353
29858000,0.0324,0.013523,0.002678,0.000431,0.000118
29859000,0.0324,0.013523,0.002678,0.000431,0.000470
29860000,0.0324,0.013523,0.002678,0.000431,0.000353
29861000,0.0324,0.013523,0.002678,0.000431,0.000235
29862000,0.0324,0.013523,0.002678,0.000431,0.000353
29863000,0.0324,0.013523,0.002678,0.000431,0.000470
29864000,0.0324,0.013523,0.002678,0.000431,0.000353
29865000,0.0324,0.013523,0.002678,0.000431,0.000118
29866000,0.0324,0.013523,0.002678,0.000431,0.000470
29867000,0.0324,0.013523,0.002678,0.000431,0.000353
29868000,0.0324,0.013523,0.002678,0.000431,0.000235
29869000,0.0324,0.013523,0.002678,0.000431,0.000353
29870000,0.0324,0.013523,0.002678,0.000431,0.000470
29871000,0.0324,0.013523,0.002678,0.000431,0.000353
29872000,0.0324,0.013523,0.002678,0.000431,0.000118
29873000,0.0324,0.013523,0.002678,0.000431,0.000470
29874000,0.0324,0.013523,0.002678,0.000431,0.000353
29875000,0.0324,0.013523,0.002678,0.000431,0.000235
29876000,0.0324,0.013523,0.002678,0.000431,0.000353
29877000,0.0324,0.013523,0.002678,0.000431,0.000470
29878000,0.0324,0.013523,0.002678,0.000431,0.000235
29879000,0.0324,0.013523,0.002678,0.000431,0.000235
29880000,0.0324,0.013523,0.002678,0.000431,0.000470
29881000,0.0324,0.013523,0.002678,0.000431,0.000353
29882000,0.0324,0.013523,0.002678,0.000431,0.000235
29883000,0.0324,0.013523,0.002678,0.000431,0.000353
29884000,0.0324,0.013523,0.002678,0.000431,0.000470
29885000,0.0324,0.013523,0.002678,0.000431,0.000235
29886000,0.0324,0.013523,0.002678,0.000431,0.000235
29887000,0.0324,0.013523,0.002678,0.000431,0.000470
29888000,0.0324,0.013523,0.002678,0.000431,0.000353
29889000,0.0324,0.013523,0.002678,0.000431,0.000235
29890000,0.0324,0.013523,0.002678,0.000431,0.000353
29891000,0.0324,0.013523,0.002678,0.000431,0.000470
29892000,0.0324,0.013523,0.002678,0.000431,0.000235
29893000,0.0324,0.013523,0.002678,0.000431,0.000235
29894000,0.0324,0.013523,0.002678,0.000431,0.000470
29895000,0.0324,0.013523,0.002678,0.000431,0.000353
29896000,0.0324,0.013523,0.002678,0.000431,0.000235
29897000,0.0324,0.013523,0.002678,0.000431,0.000353
29898000,0.0324,0.013523,0.002678,0.000431,0.000470
29899000,0.0324,0.013523,0.002678,0.000431,0.000235
29900000,0.0324,0.013523,0.002678,0.000431,0.000235
29901000,0.0324,0.013523,0.002678,0.000431,0.000470
29902000,0.0324,0.013523,0.002678,0.000431,0.000353
29903000,0.0324,0.013523,0.002678,0.000431,0.000235
29904000,0.0324,0.013523,0.002678,0.000431,0.000353
29905000,0.0324,0.013523,0.002678,0.000431,0.000470
29906000,0.0324,0.013523,0.002678,0.000431,0.000235
29907000,0.0324,0.013523,0.002678,0.000431,0.000235
29908000,0.0324,0.013523,0.002678,0.000431,0.000470
29909000,0.0324,0.013523,0.002678,0.000431,0.000353
29910000,0.0324,0.013523,0.002678,0.000431,0.000235
29911000,0.0324,0.013523,0.002678,0.000431,0.000353
29912000,0.0324,0.013523,0.002678,0.000431,0.000470
29913000,0.0324,0.013523,0.002678,0.000431,0.000235
29914000,0.0324,0.013523,0.002678,0.000431,0.000235
29915000,0.0324,0.013523,0.002678,0.000431,0.000470
29916000,0.0324,0.013523,0.002678,0.000431,0.000353
29917000,0.0324,0.013523,0.002678,0.000431,0.000235
29918000,0.0324,0.013523,0.002678,0.000431,0.000353
29919000,0.0324,0.013523,0.002678,0.000431,0.000470
29920000,0.0324,0.013523,0.002678,0.000431,0.000118
29921000,0.0324,0.013523,0.002678,0.000431,0.000353
29922000,0.0324,0.013523,0.002678,0.000431,0.000470
29923000,0.0324,0.013523,0.002678,0.000431,0.000353
29924000,0.0324,0.013523,0.002678,0.000431,0.000235
29925000,0.0324,0.013523,0.002678,0.000431,0.000353
29926000,0.0324,0.013523,0.002678,0.000431,0.000470
29927000,0.0324,0.013523,0.002678,0.000431,0.000118
29928000,0.0324,0.013523,0.002678,0.000431,0.000353
29929000,0.0324,0.013523,0.002678,0.000431,0.000470
29930000,0.0324,0.013523,0.002678,0.000431,0.000353
29931000,0.0324,0.013523,0.002678,0.000431,0.000235
29932000,0.0324,0.013523,0.002678,0.000431,0.000353
29933000,0.0324,0.013523,0.002678,0.000431,0.000470
29934000,0.0324,0.013523,0.002678,0.000431,0.000118
29935000,0.0324,0.013523,0.002678,0.000431,0.000353
29936000,0.0324,0.013523,0.002678,0.000431,0.000470
29937000,0.0324,0.013523,0.002678,0.000431,0.000353
29938000,0.0324,0.013523,0.002678,0.000431,0.000235
29939000,0.0324,0.013523,0.002678,0.000431,0.000353
29940000,0.0324,0.013523,0.002678,0.000431,0.000470
29941000,0.0324,0.013523,0.002678,0.000431,0.000118
29942000,0.0324,0.013523,0.002678,0.000431,0.000353
29943000,0.0324,0.013523,0.002678,0.000431,0.000470
29944000,0.0324,0.013523,0.002678,0.000431,0.000353
29945000,0.0324,0.013523,0.002678,0.000431,0.000235
29946000,0.0324,0.013523,0.002678,0.000431,0.000353
29947000,0.0324,0.013523,0.002678,0.000431,0.000353
29948000,0.0324,0.013523,0.002678,0.000431,0.000235
29949000,0.0324,0.013523,0.002678,0.000431,0.000353
29950000,0.0324,0.013523,0.002678,0.000431,0.000470
29951000,0.0324,0.013523,0.002678,0.000431,0.000353
29952000,0.0324,0.013523,0.002678,0.000431,0.000235
29953000,0.0324,0.013523,0.002678,0.000431,0.000353
29954000,0.0324,0.013523,0.002678,0.000431,0.000353
29955000,0.0324,0.013523,0.002678,0.000431,0.000235
29956000,0.0324,0.013523,0.002678,0.000431,0.000353
29957000,0.0324,0.013523,0.002678,0.000431,0.000470
29958000,0.0324,0.013523,0.002678,0.000431,0.000353
29959000,0.0324,0.013523,0.002678,0.000431,0.000118
29960000,0.0324,0.013523,0.002678,0.000431,0.000470
29961000,0.0324,0.013523,0.002678,0.000431,0.000353
29962000,0.0324,0.013523,0.002678,0.000431,0.000235
29963000,0.0324,0.013523,0.002678,0.000431,0.000353
29964000,0.0324,0.013523,0.002678,0.000431,0.000470
29965000,0.0324,0.013523,0.002678,0.000431,0.000353
29966000,0.0324,0.013523,0.002678,0.000431,0.000118
29967000,0.0324,0.013523,0.002678,0.000431,0.000470
29968000,0.0324,0.013523,0.002678,0.000431,0.000353
29969000,0.0324,0.013523,0.002678,0.000431,0.000235
29970000,0.0324,0.013523,0.002678,0.000431,0.000353
29971000,0.0324,0.013523,0.002678,0.000431,0.000470
29972000,0.0324,0.013523,0.002678,0.000431,0.000235
29973000,0.0324,0.013523,0.002678,0.000431,0.000235
29974000,0.0324,0.013523,0.002678,0.000431,0.000470
29975000,0.0324,0.013523,0.002678,0.000431,0.000353
29976000,0.0324,0.013523,0.002678,0.000431,0.000235
29977000,0.0324,0.013523,0.002678,0.000431,0.000353
29978000,0.0324,0.013523,0.002678,0.000431,0.000470
29979000,0.0324,0.013523,0.002678,0.000431,0.000118
29980000,0.0324,0.013523,0.002678,0.000431,0.000353
29981000,0.0324,0.013523,0.002678,0.000431,0.000470
29982000,0.0324,0.013523,0.002678,0.000431,0.000353
29983000,0.0324,0.013523,0.002678,0.000431,0.000235
29984000,0.0324,0.013523,0.002678,0.000431,0.000353
29985000,0.0324,0.013523,0.002678,0.000431,0.000353
29986000,0.0324,0.013523,0.002678,0.000431,0.000235
29987000,0.0324,0.013523,0.002678,0.000431,0.000353
29988000,0.0324,0.013523,0.002678,0.000431,0.000470
29989000,0.0324,0.013523,0.002678,0.000431,0.000353
29990000,0.0324,0.013523,0.002678,0.000431,0.000235
29991000,0.0324,0.013523,0.002678,0.000431,0.000353
29992000,0.0324,0.013523,0.002678,0.000431,0.000353
29993000,0.0324,0.013523,0.002678,0.000431,0.000235
29994000,0.0324,0.013523,0.002678,0.000431,0.000353
29995000,0.0324,0.013523,0.002678,0.000431,0.000470
29996000,0.0324,0.013523,0.002678,0.000431,0.000353
29997000,0.0324,0.013523,0.002678,0.000431,0.000235
29998000,0.0324,0.013523,0.002678,0.000431,0.000353
29999000,0.0324,0.013523,0.002678,0.000431,0.000353
