Cycle,Area(mm^2),PeakDynamic(W),SubthresholdLeakage(W),GateLeakage(W),RunTimeDynamic(W)
37000000,0.0324,0.013523,0.002678,0.000431,0.000470
37001000,0.0324,0.013523,0.002678,0.000431,0.000353
37002000,0.0324,0.013523,0.002678,0.000431,0.000235
37003000,0.0324,0.013523,0.002678,0.000431,0.000353
37004000,0.0324,0.013523,0.002678,0.000431,0.000353
37005000,0.0324,0.013523,0.002678,0.000431,0.000235
37006000,0.0324,0.013523,0.002678,0.000431,0.000353
37007000,0.0324,0.013523,0.002678,0.000431,0.000470
37008000,0.0324,0.013523,0.002678,0.000431,0.000353
37009000,0.0324,0.013523,0.002678,0.000431,0.000235
37010000,0.0324,0.013523,0.002678,0.000431,0.000353
37011000,0.0324,0.013523,0.002678,0.000431,0.000353
37012000,0.0324,0.013523,0.002678,0.000431,0.000235
37013000,0.0324,0.013523,0.002678,0.000431,0.000353
37014000,0.0324,0.013523,0.002678,0.000431,0.000470
37015000,0.0324,0.013523,0.002678,0.000431,0.000353
37016000,0.0324,0.013523,0.002678,0.000431,0.000118
37017000,0.0324,0.013523,0.002678,0.000431,0.000470
37018000,0.0324,0.013523,0.002678,0.000431,0.000353
37019000,0.0324,0.013523,0.002678,0.000431,0.000235
37020000,0.0324,0.013523,0.002678,0.000431,0.000353
37021000,0.0324,0.013523,0.002678,0.000431,0.000470
37022000,0.0324,0.013523,0.002678,0.000431,0.000353
37023000,0.0324,0.013523,0.002678,0.000431,0.000118
37024000,0.0324,0.013523,0.002678,0.000431,0.000470
37025000,0.0324,0.013523,0.002678,0.000431,0.000353
37026000,0.0324,0.013523,0.002678,0.000431,0.000235
37027000,0.0324,0.013523,0.002678,0.000431,0.000353
37028000,0.0324,0.013523,0.002678,0.000431,0.000470
37029000,0.0324,0.013523,0.002678,0.000431,0.000353
37030000,0.0324,0.013523,0.002678,0.000431,0.000118
37031000,0.0324,0.013523,0.002678,0.000431,0.000470
37032000,0.0324,0.013523,0.002678,0.000431,0.000353
37033000,0.0324,0.013523,0.002678,0.000431,0.000235
37034000,0.0324,0.013523,0.002678,0.000431,0.000353
37035000,0.0324,0.013523,0.002678,0.000431,0.000470
37036000,0.0324,0.013523,0.002678,0.000431,0.000235
37037000,0.0324,0.013523,0.002678,0.000431,0.000235
37038000,0.0324,0.013523,0.002678,0.000431,0.000470
37039000,0.0324,0.013523,0.002678,0.000431,0.000353
37040000,0.0324,0.013523,0.002678,0.000431,0.000235
37041000,0.0324,0.013523,0.002678,0.000431,0.000353
37042000,0.0324,0.013523,0.002678,0.000431,0.000470
37043000,0.0324,0.013523,0.002678,0.000431,0.000235
37044000,0.0324,0.013523,0.002678,0.000431,0.000235
37045000,0.0324,0.013523,0.002678,0.000431,0.000470
37046000,0.0324,0.013523,0.002678,0.000431,0.000353
37047000,0.0324,0.013523,0.002678,0.000431,0.000235
37048000,0.0324,0.013523,0.002678,0.000431,0.000353
37049000,0.0324,0.013523,0.002678,0.000431,0.000470
37050000,0.0324,0.013523,0.002678,0.000431,0.000235
37051000,0.0324,0.013523,0.002678,0.000431,0.000235
37052000,0.0324,0.013523,0.002678,0.000431,0.000470
37053000,0.0324,0.013523,0.002678,0.000431,0.000353
37054000,0.0324,0.013523,0.002678,0.000431,0.000235
37055000,0.0324,0.013523,0.002678,0.000431,0.000353
37056000,0.0324,0.013523,0.002678,0.000431,0.000470
37057000,0.0324,0.013523,0.002678,0.000431,0.000235
37058000,0.0324,0.013523,0.002678,0.000431,0.000235
37059000,0.0324,0.013523,0.002678,0.000431,0.000470
37060000,0.0324,0.013523,0.002678,0.000431,0.000353
37061000,0.0324,0.013523,0.002678,0.000431,0.000235
37062000,0.0324,0.013523,0.002678,0.000431,0.000353
37063000,0.0324,0.013523,0.002678,0.000431,0.000470
37064000,0.0324,0.013523,0.002678,0.000431,0.000235
37065000,0.0324,0.013523,0.002678,0.000431,0.000235
37066000,0.0324,0.013523,0.002678,0.000431,0.000470
37067000,0.0324,0.013523,0.002678,0.000431,0.000353
37068000,0.0324,0.013523,0.002678,0.000431,0.000235
37069000,0.0324,0.013523,0.002678,0.000431,0.000353
37070000,0.0324,0.013523,0.002678,0.000431,0.000470
37071000,0.0324,0.013523,0.002678,0.000431,0.000235
37072000,0.0324,0.013523,0.002678,0.000431,0.000235
37073000,0.0324,0.013523,0.002678,0.000431,0.000470
37074000,0.0324,0.013523,0.002678,0.000431,0.000353
37075000,0.0324,0.013523,0.002678,0.000431,0.000235
37076000,0.0324,0.013523,0.002678,0.000431,0.000353
37077000,0.0324,0.013523,0.002678,0.000431,0.000470
37078000,0.0324,0.013523,0.002678,0.000431,0.000118
37079000,0.0324,0.013523,0.002678,0.000431,0.000353
37080000,0.0324,0.013523,0.002678,0.000431,0.000470
37081000,0.0324,0.013523,0.002678,0.000431,0.000353
37082000,0.0324,0.013523,0.002678,0.000431,0.000235
37083000,0.0324,0.013523,0.002678,0.000431,0.000353
37084000,0.0324,0.013523,0.002678,0.000431,0.000470
37085000,0.0324,0.013523,0.002678,0.000431,0.000118
37086000,0.0324,0.013523,0.002678,0.000431,0.000353
37087000,0.0324,0.013523,0.002678,0.000431,0.000470
37088000,0.0324,0.013523,0.002678,0.000431,0.000353
37089000,0.0324,0.013523,0.002678,0.000431,0.000235
37090000,0.0324,0.013523,0.002678,0.000431,0.000353
37091000,0.0324,0.013523,0.002678,0.000431,0.000470
37092000,0.0324,0.013523,0.002678,0.000431,0.000118
37093000,0.0324,0.013523,0.002678,0.000431,0.000353
37094000,0.0324,0.013523,0.002678,0.000431,0.000470
37095000,0.0324,0.013523,0.002678,0.000431,0.000353
37096000,0.0324,0.013523,0.002678,0.000431,0.000235
37097000,0.0324,0.013523,0.002678,0.000431,0.000353
37098000,0.0324,0.013523,0.002678,0.000431,0.000470
37099000,0.0324,0.013523,0.002678,0.000431,0.000118
37100000,0.0324,0.013523,0.002678,0.000431,0.000353
37101000,0.0324,0.013523,0.002678,0.000431,0.000470
37102000,0.0324,0.013523,0.002678,0.000431,0.000353
37103000,0.0324,0.013523,0.002678,0.000431,0.000235
37104000,0.0324,0.013523,0.002678,0.000431,0.000353
37105000,0.0324,0.013523,0.002678,0.000431,0.000353
37106000,0.0324,0.013523,0.002678,0.000431,0.000235
37107000,0.0324,0.013523,0.002678,0.000431,0.000353
37108000,0.0324,0.013523,0.002678,0.000431,0.000470
37109000,0.0324,0.013523,0.002678,0.000431,0.000353
37110000,0.0324,0.013523,0.002678,0.000431,0.000235
37111000,0.0324,0.013523,0.002678,0.000431,0.000353
37112000,0.0324,0.013523,0.002678,0.000431,0.000353
37113000,0.0324,0.013523,0.002678,0.000431,0.000235
37114000,0.0324,0.013523,0.002678,0.000431,0.000353
37115000,0.0324,0.013523,0.002678,0.000431,0.000470
37116000,0.0324,0.013523,0.002678,0.000431,0.000353
37117000,0.0324,0.013523,0.002678,0.000431,0.000235
37118000,0.0324,0.013523,0.002678,0.000431,0.000353
37119000,0.0324,0.013523,0.002678,0.000431,0.000353
37120000,0.0324,0.013523,0.002678,0.000431,0.000235
37121000,0.0324,0.013523,0.002678,0.000431,0.000353
37122000,0.0324,0.013523,0.002678,0.000431,0.000470
37123000,0.0324,0.013523,0.002678,0.000431,0.000353
37124000,0.0324,0.013523,0.002678,0.000431,0.000235
37125000,0.0324,0.013523,0.002678,0.000431,0.000353
37126000,0.0324,0.013523,0.002678,0.000431,0.000353
37127000,0.0324,0.013523,0.002678,0.000431,0.000235
37128000,0.0324,0.013523,0.002678,0.000431,0.000353
37129000,0.0324,0.013523,0.002678,0.000431,0.000470
37130000,0.0324,0.013523,0.002678,0.000431,0.000353
37131000,0.0324,0.013523,0.002678,0.000431,0.000235
37132000,0.0324,0.013523,0.002678,0.000431,0.000353
37133000,0.0324,0.013523,0.002678,0.000431,0.000353
37134000,0.0324,0.013523,0.002678,0.000431,0.000235
37135000,0.0324,0.013523,0.002678,0.000431,0.000353
37136000,0.0324,0.013523,0.002678,0.000431,0.000470
37137000,0.0324,0.013523,0.002678,0.000431,0.000353
37138000,0.0324,0.013523,0.002678,0.000431,0.000235
37139000,0.0324,0.013523,0.002678,0.000431,0.000353
37140000,0.0324,0.013523,0.002678,0.000431,0.000353
37141000,0.0324,0.013523,0.002678,0.000431,0.000235
37142000,0.0324,0.013523,0.002678,0.000431,0.000353
37143000,0.0324,0.013523,0.002678,0.000431,0.000470
37144000,0.0324,0.013523,0.002678,0.000431,0.000353
37145000,0.0324,0.013523,0.002678,0.000431,0.000235
37146000,0.0324,0.013523,0.002678,0.000431,0.000353
37147000,0.0324,0.013523,0.002678,0.000431,0.000353
37148000,0.0324,0.013523,0.002678,0.000431,0.000235
37149000,0.0324,0.013523,0.002678,0.000431,0.000353
37150000,0.0324,0.013523,0.002678,0.000431,0.000470
37151000,0.0324,0.013523,0.002678,0.000431,0.000353
37152000,0.0324,0.013523,0.002678,0.000431,0.000118
37153000,0.0324,0.013523,0.002678,0.000431,0.000470
37154000,0.0324,0.013523,0.002678,0.000431,0.000353
37155000,0.0324,0.013523,0.002678,0.000431,0.000235
37156000,0.0324,0.013523,0.002678,0.000431,0.000353
37157000,0.0324,0.013523,0.002678,0.000431,0.000470
37158000,0.0324,0.013523,0.002678,0.000431,0.000353
37159000,0.0324,0.013523,0.002678,0.000431,0.000118
37160000,0.0324,0.013523,0.002678,0.000431,0.000470
37161000,0.0324,0.013523,0.002678,0.000431,0.000353
37162000,0.0324,0.013523,0.002678,0.000431,0.000235
37163000,0.0324,0.013523,0.002678,0.000431,0.000353
37164000,0.0324,0.013523,0.002678,0.000431,0.000470
37165000,0.0324,0.013523,0.002678,0.000431,0.000353
37166000,0.0324,0.013523,0.002678,0.000431,0.000118
37167000,0.0324,0.013523,0.002678,0.000431,0.000470
37168000,0.0324,0.013523,0.002678,0.000431,0.000353
37169000,0.0324,0.013523,0.002678,0.000431,0.000235
37170000,0.0324,0.013523,0.002678,0.000431,0.000353
37171000,0.0324,0.013523,0.002678,0.000431,0.000470
37172000,0.0324,0.013523,0.002678,0.000431,0.000353
37173000,0.0324,0.013523,0.002678,0.000431,0.000118
37174000,0.0324,0.013523,0.002678,0.000431,0.000470
37175000,0.0324,0.013523,0.002678,0.000431,0.000353
37176000,0.0324,0.013523,0.002678,0.000431,0.000235
37177000,0.0324,0.013523,0.002678,0.000431,0.000353
37178000,0.0324,0.013523,0.002678,0.000431,0.000470
37179000,0.0324,0.013523,0.002678,0.000431,0.000235
37180000,0.0324,0.013523,0.002678,0.000431,0.000235
37181000,0.0324,0.013523,0.002678,0.000431,0.000470
37182000,0.0324,0.013523,0.002678,0.000431,0.000353
37183000,0.0324,0.013523,0.002678,0.000431,0.000235
37184000,0.0324,0.013523,0.002678,0.000431,0.000353
37185000,0.0324,0.013523,0.002678,0.000431,0.000470
37186000,0.0324,0.013523,0.002678,0.000431,0.000235
37187000,0.0324,0.013523,0.002678,0.000431,0.000235
37188000,0.0324,0.013523,0.002678,0.000431,0.000470
37189000,0.0324,0.013523,0.002678,0.000431,0.000353
37190000,0.0324,0.013523,0.002678,0.000431,0.000235
37191000,0.0324,0.013523,0.002678,0.000431,0.000353
37192000,0.0324,0.013523,0.002678,0.000431,0.000470
37193000,0.0324,0.013523,0.002678,0.000431,0.000235
37194000,0.0324,0.013523,0.002678,0.000431,0.000235
37195000,0.0324,0.013523,0.002678,0.000431,0.000470
37196000,0.0324,0.013523,0.002678,0.000431,0.000353
37197000,0.0324,0.013523,0.002678,0.000431,0.000235
37198000,0.0324,0.013523,0.002678,0.000431,0.000353
37199000,0.0324,0.013523,0.002678,0.000431,0.000470
37200000,0.0324,0.013523,0.002678,0.000431,0.000235
37201000,0.0324,0.013523,0.002678,0.000431,0.000235
37202000,0.0324,0.013523,0.002678,0.000431,0.000470
37203000,0.0324,0.013523,0.002678,0.000431,0.000353
37204000,0.0324,0.013523,0.002678,0.000431,0.000235
37205000,0.0324,0.013523,0.002678,0.000431,0.000353
37206000,0.0324,0.013523,0.002678,0.000431,0.000470
37207000,0.0324,0.013523,0.002678,0.000431,0.000235
37208000,0.0324,0.013523,0.002678,0.000431,0.000235
37209000,0.0324,0.013523,0.002678,0.000431,0.000470
37210000,0.0324,0.013523,0.002678,0.000431,0.000353
37211000,0.0324,0.013523,0.002678,0.000431,0.000235
37212000,0.0324,0.013523,0.002678,0.000431,0.000353
37213000,0.0324,0.013523,0.002678,0.000431,0.000470
37214000,0.0324,0.013523,0.002678,0.000431,0.000235
37215000,0.0324,0.013523,0.002678,0.000431,0.000235
37216000,0.0324,0.013523,0.002678,0.000431,0.000470
37217000,0.0324,0.013523,0.002678,0.000431,0.000353
37218000,0.0324,0.013523,0.002678,0.000431,0.000235
37219000,0.0324,0.013523,0.002678,0.000431,0.000353
37220000,0.0324,0.013523,0.002678,0.000431,0.000470
37221000,0.0324,0.013523,0.002678,0.000431,0.000118
37222000,0.0324,0.013523,0.002678,0.000431,0.000353
37223000,0.0324,0.013523,0.002678,0.000431,0.000470
37224000,0.0324,0.013523,0.002678,0.000431,0.000353
37225000,0.0324,0.013523,0.002678,0.000431,0.000235
37226000,0.0324,0.013523,0.002678,0.000431,0.000353
37227000,0.0324,0.013523,0.002678,0.000431,0.000470
37228000,0.0324,0.013523,0.002678,0.000431,0.000118
37229000,0.0324,0.013523,0.002678,0.000431,0.000353
37230000,0.0324,0.013523,0.002678,0.000431,0.000470
37231000,0.0324,0.013523,0.002678,0.000431,0.000353
37232000,0.0324,0.013523,0.002678,0.000431,0.000235
37233000,0.0324,0.013523,0.002678,0.000431,0.000353
37234000,0.0324,0.013523,0.002678,0.000431,0.000470
37235000,0.0324,0.013523,0.002678,0.000431,0.000118
37236000,0.0324,0.013523,0.002678,0.000431,0.000353
37237000,0.0324,0.013523,0.002678,0.000431,0.000470
37238000,0.0324,0.013523,0.002678,0.000431,0.000353
37239000,0.0324,0.013523,0.002678,0.000431,0.000235
37240000,0.0324,0.013523,0.002678,0.000431,0.000353
37241000,0.0324,0.013523,0.002678,0.000431,0.000353
37242000,0.0324,0.013523,0.002678,0.000431,0.000235
37243000,0.0324,0.013523,0.002678,0.000431,0.000353
37244000,0.0324,0.013523,0.002678,0.000431,0.000470
37245000,0.0324,0.013523,0.002678,0.000431,0.000353
37246000,0.0324,0.013523,0.002678,0.000431,0.000235
37247000,0.0324,0.013523,0.002678,0.000431,0.000353
37248000,0.0324,0.013523,0.002678,0.000431,0.000353
37249000,0.0324,0.013523,0.002678,0.000431,0.000235
37250000,0.0324,0.013523,0.002678,0.000431,0.000353
37251000,0.0324,0.013523,0.002678,0.000431,0.000470
37252000,0.0324,0.013523,0.002678,0.000431,0.000353
37253000,0.0324,0.013523,0.002678,0.000431,0.000235
37254000,0.0324,0.013523,0.002678,0.000431,0.000353
37255000,0.0324,0.013523,0.002678,0.000431,0.000353
37256000,0.0324,0.013523,0.002678,0.000431,0.000235
37257000,0.0324,0.013523,0.002678,0.000431,0.000353
37258000,0.0324,0.013523,0.002678,0.000431,0.000470
37259000,0.0324,0.013523,0.002678,0.000431,0.000353
37260000,0.0324,0.013523,0.002678,0.000431,0.000235
37261000,0.0324,0.013523,0.002678,0.000431,0.000353
37262000,0.0324,0.013523,0.002678,0.000431,0.000353
37263000,0.0324,0.013523,0.002678,0.000431,0.000235
37264000,0.0324,0.013523,0.002678,0.000431,0.000353
37265000,0.0324,0.013523,0.002678,0.000431,0.000470
37266000,0.0324,0.013523,0.002678,0.000431,0.000353
37267000,0.0324,0.013523,0.002678,0.000431,0.000235
37268000,0.0324,0.013523,0.002678,0.000431,0.000353
37269000,0.0324,0.013523,0.002678,0.000431,0.000353
37270000,0.0324,0.013523,0.002678,0.000431,0.000235
37271000,0.0324,0.013523,0.002678,0.000431,0.000353
37272000,0.0324,0.013523,0.002678,0.000431,0.000470
37273000,0.0324,0.013523,0.002678,0.000431,0.000353
37274000,0.0324,0.013523,0.002678,0.000431,0.000235
37275000,0.0324,0.013523,0.002678,0.000431,0.000353
37276000,0.0324,0.013523,0.002678,0.000431,0.000353
37277000,0.0324,0.013523,0.002678,0.000431,0.000235
37278000,0.0324,0.013523,0.002678,0.000431,0.000353
37279000,0.0324,0.013523,0.002678,0.000431,0.000470
37280000,0.0324,0.013523,0.002678,0.000431,0.000353
37281000,0.0324,0.013523,0.002678,0.000431,0.000235
37282000,0.0324,0.013523,0.002678,0.000431,0.000353
37283000,0.0324,0.013523,0.002678,0.000431,0.000353
37284000,0.0324,0.013523,0.002678,0.000431,0.000235
37285000,0.0324,0.013523,0.002678,0.000431,0.000353
37286000,0.0324,0.013523,0.002678,0.000431,0.000470
37287000,0.0324,0.013523,0.002678,0.000431,0.000353
37288000,0.0324,0.013523,0.002678,0.000431,0.000235
37289000,0.0324,0.013523,0.002678,0.000431,0.000353
37290000,0.0324,0.013523,0.002678,0.000431,0.000353
37291000,0.0324,0.013523,0.002678,0.000431,0.000235
37292000,0.0324,0.013523,0.002678,0.000431,0.000353
37293000,0.0324,0.013523,0.002678,0.000431,0.000470
37294000,0.0324,0.013523,0.002678,0.000431,0.000353
37295000,0.0324,0.013523,0.002678,0.000431,0.000118
37296000,0.0324,0.013523,0.002678,0.000431,0.000470
37297000,0.0324,0.013523,0.002678,0.000431,0.000353
37298000,0.0324,0.013523,0.002678,0.000431,0.000235
37299000,0.0324,0.013523,0.002678,0.000431,0.000353
37300000,0.0324,0.013523,0.002678,0.000431,0.000470
37301000,0.0324,0.013523,0.002678,0.000431,0.000353
37302000,0.0324,0.013523,0.002678,0.000431,0.000118
37303000,0.0324,0.013523,0.002678,0.000431,0.000470
37304000,0.0324,0.013523,0.002678,0.000431,0.000353
37305000,0.0324,0.013523,0.002678,0.000431,0.000235
37306000,0.0324,0.013523,0.002678,0.000431,0.000353
37307000,0.0324,0.013523,0.002678,0.000431,0.000470
37308000,0.0324,0.013523,0.002678,0.000431,0.000353
37309000,0.0324,0.013523,0.002678,0.000431,0.000118
37310000,0.0324,0.013523,0.002678,0.000431,0.000470
37311000,0.0324,0.013523,0.002678,0.000431,0.000353
37312000,0.0324,0.013523,0.002678,0.000431,0.000235
37313000,0.0324,0.013523,0.002678,0.000431,0.000353
37314000,0.0324,0.013523,0.002678,0.000431,0.000470
37315000,0.0324,0.013523,0.002678,0.000431,0.000353
37316000,0.0324,0.013523,0.002678,0.000431,0.000118
37317000,0.0324,0.013523,0.002678,0.000431,0.000470
37318000,0.0324,0.013523,0.002678,0.000431,0.000353
37319000,0.0324,0.013523,0.002678,0.000431,0.000235
37320000,0.0324,0.013523,0.002678,0.000431,0.000353
37321000,0.0324,0.013523,0.002678,0.000431,0.000470
37322000,0.0324,0.013523,0.002678,0.000431,0.000235
37323000,0.0324,0.013523,0.002678,0.000431,0.000235
37324000,0.0324,0.013523,0.002678,0.000431,0.000470
37325000,0.0324,0.013523,0.002678,0.000431,0.000353
37326000,0.0324,0.013523,0.002678,0.000431,0.000235
37327000,0.0324,0.013523,0.002678,0.000431,0.000353
37328000,0.0324,0.013523,0.002678,0.000431,0.000470
37329000,0.0324,0.013523,0.002678,0.000431,0.000235
37330000,0.0324,0.013523,0.002678,0.000431,0.000235
37331000,0.0324,0.013523,0.002678,0.000431,0.000470
37332000,0.0324,0.013523,0.002678,0.000431,0.000353
37333000,0.0324,0.013523,0.002678,0.000431,0.000235
37334000,0.0324,0.013523,0.002678,0.000431,0.000353
37335000,0.0324,0.013523,0.002678,0.000431,0.000470
37336000,0.0324,0.013523,0.002678,0.000431,0.000235
37337000,0.0324,0.013523,0.002678,0.000431,0.000235
37338000,0.0324,0.013523,0.002678,0.000431,0.000470
37339000,0.0324,0.013523,0.002678,0.000431,0.000353
37340000,0.0324,0.013523,0.002678,0.000431,0.000235
37341000,0.0324,0.013523,0.002678,0.000431,0.000353
37342000,0.0324,0.013523,0.002678,0.000431,0.000470
37343000,0.0324,0.013523,0.002678,0.000431,0.000235
37344000,0.0324,0.013523,0.002678,0.000431,0.000235
37345000,0.0324,0.013523,0.002678,0.000431,0.000470
37346000,0.0324,0.013523,0.002678,0.000431,0.000353
37347000,0.0324,0.013523,0.002678,0.000431,0.000235
37348000,0.0324,0.013523,0.002678,0.000431,0.000353
37349000,0.0324,0.013523,0.002678,0.000431,0.000470
37350000,0.0324,0.013523,0.002678,0.000431,0.000235
37351000,0.0324,0.013523,0.002678,0.000431,0.000235
37352000,0.0324,0.013523,0.002678,0.000431,0.000470
37353000,0.0324,0.013523,0.002678,0.000431,0.000353
37354000,0.0324,0.013523,0.002678,0.000431,0.000235
37355000,0.0324,0.013523,0.002678,0.000431,0.000353
37356000,0.0324,0.013523,0.002678,0.000431,0.000470
37357000,0.0324,0.013523,0.002678,0.000431,0.000118
37358000,0.0324,0.013523,0.002678,0.000431,0.000353
37359000,0.0324,0.013523,0.002678,0.000431,0.000470
37360000,0.0324,0.013523,0.002678,0.000431,0.000353
37361000,0.0324,0.013523,0.002678,0.000431,0.000235
37362000,0.0324,0.013523,0.002678,0.000431,0.000353
37363000,0.0324,0.013523,0.002678,0.000431,0.000470
37364000,0.0324,0.013523,0.002678,0.000431,0.000118
37365000,0.0324,0.013523,0.002678,0.000431,0.000353
37366000,0.0324,0.013523,0.002678,0.000431,0.000470
37367000,0.0324,0.013523,0.002678,0.000431,0.000353
37368000,0.0324,0.013523,0.002678,0.000431,0.000235
37369000,0.0324,0.013523,0.002678,0.000431,0.000353
37370000,0.0324,0.013523,0.002678,0.000431,0.000470
37371000,0.0324,0.013523,0.002678,0.000431,0.000118
37372000,0.0324,0.013523,0.002678,0.000431,0.000353
37373000,0.0324,0.013523,0.002678,0.000431,0.000470
37374000,0.0324,0.013523,0.002678,0.000431,0.000353
37375000,0.0324,0.013523,0.002678,0.000431,0.000235
37376000,0.0324,0.013523,0.002678,0.000431,0.000353
37377000,0.0324,0.013523,0.002678,0.000431,0.000470
37378000,0.0324,0.013523,0.002678,0.000431,0.000118
37379000,0.0324,0.013523,0.002678,0.000431,0.000353
37380000,0.0324,0.013523,0.002678,0.000431,0.000470
37381000,0.0324,0.013523,0.002678,0.000431,0.000353
37382000,0.0324,0.013523,0.002678,0.000431,0.000235
37383000,0.0324,0.013523,0.002678,0.000431,0.000353
37384000,0.0324,0.013523,0.002678,0.000431,0.000353
37385000,0.0324,0.013523,0.002678,0.000431,0.000235
37386000,0.0324,0.013523,0.002678,0.000431,0.000353
37387000,0.0324,0.013523,0.002678,0.000431,0.000470
37388000,0.0324,0.013523,0.002678,0.000431,0.000353
37389000,0.0324,0.013523,0.002678,0.000431,0.000235
37390000,0.0324,0.013523,0.002678,0.000431,0.000353
37391000,0.0324,0.013523,0.002678,0.000431,0.000353
37392000,0.0324,0.013523,0.002678,0.000431,0.000235
37393000,0.0324,0.013523,0.002678,0.000431,0.000353
37394000,0.0324,0.013523,0.002678,0.000431,0.000470
37395000,0.0324,0.013523,0.002678,0.000431,0.000353
37396000,0.0324,0.013523,0.002678,0.000431,0.000235
37397000,0.0324,0.013523,0.002678,0.000431,0.000353
37398000,0.0324,0.013523,0.002678,0.000431,0.000353
37399000,0.0324,0.013523,0.002678,0.000431,0.000235
37400000,0.0324,0.013523,0.002678,0.000431,0.000353
37401000,0.0324,0.013523,0.002678,0.000431,0.000470
37402000,0.0324,0.013523,0.002678,0.000431,0.000353
37403000,0.0324,0.013523,0.002678,0.000431,0.000235
37404000,0.0324,0.013523,0.002678,0.000431,0.000353
37405000,0.0324,0.013523,0.002678,0.000431,0.000353
37406000,0.0324,0.013523,0.002678,0.000431,0.000235
37407000,0.0324,0.013523,0.002678,0.000431,0.000353
37408000,0.0324,0.013523,0.002678,0.000431,0.000470
37409000,0.0324,0.013523,0.002678,0.000431,0.000353
37410000,0.0324,0.013523,0.002678,0.000431,0.000235
37411000,0.0324,0.013523,0.002678,0.000431,0.000353
37412000,0.0324,0.013523,0.002678,0.000431,0.000353
37413000,0.0324,0.013523,0.002678,0.000431,0.000235
37414000,0.0324,0.013523,0.002678,0.000431,0.000353
37415000,0.0324,0.013523,0.002678,0.000431,0.000470
37416000,0.0324,0.013523,0.002678,0.000431,0.000353
37417000,0.0324,0.013523,0.002678,0.000431,0.000235
37418000,0.0324,0.013523,0.002678,0.000431,0.000353
37419000,0.0324,0.013523,0.002678,0.000431,0.000353
37420000,0.0324,0.013523,0.002678,0.000431,0.000235
37421000,0.0324,0.013523,0.002678,0.000431,0.000353
37422000,0.0324,0.013523,0.002678,0.000431,0.000470
37423000,0.0324,0.013523,0.002678,0.000431,0.000353
37424000,0.0324,0.013523,0.002678,0.000431,0.000235
37425000,0.0324,0.013523,0.002678,0.000431,0.000353
37426000,0.0324,0.013523,0.002678,0.000431,0.000353
37427000,0.0324,0.013523,0.002678,0.000431,0.000235
37428000,0.0324,0.013523,0.002678,0.000431,0.000353
37429000,0.0324,0.013523,0.002678,0.000431,0.000470
37430000,0.0324,0.013523,0.002678,0.000431,0.000353
37431000,0.0324,0.013523,0.002678,0.000431,0.000235
37432000,0.0324,0.013523,0.002678,0.000431,0.000353
37433000,0.0324,0.013523,0.002678,0.000431,0.000353
37434000,0.0324,0.013523,0.002678,0.000431,0.000235
37435000,0.0324,0.013523,0.002678,0.000431,0.000353
37436000,0.0324,0.013523,0.002678,0.000431,0.000470
37437000,0.0324,0.013523,0.002678,0.000431,0.000353
37438000,0.0324,0.013523,0.002678,0.000431,0.000118
37439000,0.0324,0.013523,0.002678,0.000431,0.000470
37440000,0.0324,0.013523,0.002678,0.000431,0.000353
37441000,0.0324,0.013523,0.002678,0.000431,0.000235
37442000,0.0324,0.013523,0.002678,0.000431,0.000353
37443000,0.0324,0.013523,0.002678,0.000431,0.000470
37444000,0.0324,0.013523,0.002678,0.000431,0.000353
37445000,0.0324,0.013523,0.002678,0.000431,0.000118
37446000,0.0324,0.013523,0.002678,0.000431,0.000470
37447000,0.0324,0.013523,0.002678,0.000431,0.000353
37448000,0.0324,0.013523,0.002678,0.000431,0.000235
37449000,0.0324,0.013523,0.002678,0.000431,0.000353
37450000,0.0324,0.013523,0.002678,0.000431,0.000470
37451000,0.0324,0.013523,0.002678,0.000431,0.000353
37452000,0.0324,0.013523,0.002678,0.000431,0.000118
37453000,0.0324,0.013523,0.002678,0.000431,0.000470
37454000,0.0324,0.013523,0.002678,0.000431,0.000353
37455000,0.0324,0.013523,0.002678,0.000431,0.000235
37456000,0.0324,0.013523,0.002678,0.000431,0.000353
37457000,0.0324,0.013523,0.002678,0.000431,0.000470
37458000,0.0324,0.013523,0.002678,0.000431,0.000235
37459000,0.0324,0.013523,0.002678,0.000431,0.000235
37460000,0.0324,0.013523,0.002678,0.000431,0.000470
37461000,0.0324,0.013523,0.002678,0.000431,0.000353
37462000,0.0324,0.013523,0.002678,0.000431,0.000235
37463000,0.0324,0.013523,0.002678,0.000431,0.000353
37464000,0.0324,0.013523,0.002678,0.000431,0.000470
37465000,0.0324,0.013523,0.002678,0.000431,0.000235
37466000,0.0324,0.013523,0.002678,0.000431,0.000235
37467000,0.0324,0.013523,0.002678,0.000431,0.000470
37468000,0.0324,0.013523,0.002678,0.000431,0.000353
37469000,0.0324,0.013523,0.002678,0.000431,0.000235
37470000,0.0324,0.013523,0.002678,0.000431,0.000353
37471000,0.0324,0.013523,0.002678,0.000431,0.000470
37472000,0.0324,0.013523,0.002678,0.000431,0.000235
37473000,0.0324,0.013523,0.002678,0.000431,0.000235
37474000,0.0324,0.013523,0.002678,0.000431,0.000470
37475000,0.0324,0.013523,0.002678,0.000431,0.000353
37476000,0.0324,0.013523,0.002678,0.000431,0.000235
37477000,0.0324,0.013523,0.002678,0.000431,0.000353
37478000,0.0324,0.013523,0.002678,0.000431,0.000470
37479000,0.0324,0.013523,0.002678,0.000431,0.000235
37480000,0.0324,0.013523,0.002678,0.000431,0.000235
37481000,0.0324,0.013523,0.002678,0.000431,0.000470
37482000,0.0324,0.013523,0.002678,0.000431,0.000353
37483000,0.0324,0.013523,0.002678,0.000431,0.000235
37484000,0.0324,0.013523,0.002678,0.000431,0.000353
37485000,0.0324,0.013523,0.002678,0.000431,0.000470
37486000,0.0324,0.013523,0.002678,0.000431,0.000235
37487000,0.0324,0.013523,0.002678,0.000431,0.000235
37488000,0.0324,0.013523,0.002678,0.000431,0.000470
37489000,0.0324,0.013523,0.002678,0.000431,0.000353
37490000,0.0324,0.013523,0.002678,0.000431,0.000235
37491000,0.0324,0.013523,0.002678,0.000431,0.000353
37492000,0.0324,0.013523,0.002678,0.000431,0.000470
37493000,0.0324,0.013523,0.002678,0.000431,0.000235
37494000,0.0324,0.013523,0.002678,0.000431,0.000235
37495000,0.0324,0.013523,0.002678,0.000431,0.000470
37496000,0.0324,0.013523,0.002678,0.000431,0.000353
37497000,0.0324,0.013523,0.002678,0.000431,0.000235
37498000,0.0324,0.013523,0.002678,0.000431,0.000353
37499000,0.0324,0.013523,0.002678,0.000431,0.000470
37500000,0.0324,0.013523,0.002678,0.000431,0.000118
37501000,0.0324,0.013523,0.002678,0.000431,0.000353
37502000,0.0324,0.013523,0.002678,0.000431,0.000470
37503000,0.0324,0.013523,0.002678,0.000431,0.000353
37504000,0.0324,0.013523,0.002678,0.000431,0.000235
37505000,0.0324,0.013523,0.002678,0.000431,0.000353
37506000,0.0324,0.013523,0.002678,0.000431,0.000470
37507000,0.0324,0.013523,0.002678,0.000431,0.000118
37508000,0.0324,0.013523,0.002678,0.000431,0.000353
37509000,0.0324,0.013523,0.002678,0.000431,0.000470
37510000,0.0324,0.013523,0.002678,0.000431,0.000353
37511000,0.0324,0.013523,0.002678,0.000431,0.000235
37512000,0.0324,0.013523,0.002678,0.000431,0.000353
37513000,0.0324,0.013523,0.002678,0.000431,0.000470
37514000,0.0324,0.013523,0.002678,0.000431,0.000118
37515000,0.0324,0.013523,0.002678,0.000431,0.000353
37516000,0.0324,0.013523,0.002678,0.000431,0.000470
37517000,0.0324,0.013523,0.002678,0.000431,0.000353
37518000,0.0324,0.013523,0.002678,0.000431,0.000235
37519000,0.0324,0.013523,0.002678,0.000431,0.000353
37520000,0.0324,0.013523,0.002678,0.000431,0.000470
37521000,0.0324,0.013523,0.002678,0.000431,0.000118
37522000,0.0324,0.013523,0.002678,0.000431,0.000353
37523000,0.0324,0.013523,0.002678,0.000431,0.000470
37524000,0.0324,0.013523,0.002678,0.000431,0.000353
37525000,0.0324,0.013523,0.002678,0.000431,0.000235
37526000,0.0324,0.013523,0.002678,0.000431,0.000353
37527000,0.0324,0.013523,0.002678,0.000431,0.000353
37528000,0.0324,0.013523,0.002678,0.000431,0.000235
37529000,0.0324,0.013523,0.002678,0.000431,0.000353
37530000,0.0324,0.013523,0.002678,0.000431,0.000470
37531000,0.0324,0.013523,0.002678,0.000431,0.000353
37532000,0.0324,0.013523,0.002678,0.000431,0.000235
37533000,0.0324,0.013523,0.002678,0.000431,0.000353
37534000,0.0324,0.013523,0.002678,0.000431,0.000353
37535000,0.0324,0.013523,0.002678,0.000431,0.000235
37536000,0.0324,0.013523,0.002678,0.000431,0.000353
37537000,0.0324,0.013523,0.002678,0.000431,0.000470
37538000,0.0324,0.013523,0.002678,0.000431,0.000353
37539000,0.0324,0.013523,0.002678,0.000431,0.000235
37540000,0.0324,0.013523,0.002678,0.000431,0.000353
37541000,0.0324,0.013523,0.002678,0.000431,0.000353
37542000,0.0324,0.013523,0.002678,0.000431,0.000235
37543000,0.0324,0.013523,0.002678,0.000431,0.000353
37544000,0.0324,0.013523,0.002678,0.000431,0.000470
37545000,0.0324,0.013523,0.002678,0.000431,0.000353
37546000,0.0324,0.013523,0.002678,0.000431,0.000235
37547000,0.0324,0.013523,0.002678,0.000431,0.000353
37548000,0.0324,0.013523,0.002678,0.000431,0.000353
37549000,0.0324,0.013523,0.002678,0.000431,0.000235
37550000,0.0324,0.013523,0.002678,0.000431,0.000353
37551000,0.0324,0.013523,0.002678,0.000431,0.000470
37552000,0.0324,0.013523,0.002678,0.000431,0.000353
37553000,0.0324,0.013523,0.002678,0.000431,0.000235
37554000,0.0324,0.013523,0.002678,0.000431,0.000353
37555000,0.0324,0.013523,0.002678,0.000431,0.000353
37556000,0.0324,0.013523,0.002678,0.000431,0.000235
37557000,0.0324,0.013523,0.002678,0.000431,0.000353
37558000,0.0324,0.013523,0.002678,0.000431,0.000470
37559000,0.0324,0.013523,0.002678,0.000431,0.000353
37560000,0.0324,0.013523,0.002678,0.000431,0.000235
37561000,0.0324,0.013523,0.002678,0.000431,0.000353
37562000,0.0324,0.013523,0.002678,0.000431,0.000353
37563000,0.0324,0.013523,0.002678,0.000431,0.000235
37564000,0.0324,0.013523,0.002678,0.000431,0.000353
37565000,0.0324,0.013523,0.002678,0.000431,0.000470
37566000,0.0324,0.013523,0.002678,0.000431,0.000353
37567000,0.0324,0.013523,0.002678,0.000431,0.000235
37568000,0.0324,0.013523,0.002678,0.000431,0.000353
37569000,0.0324,0.013523,0.002678,0.000431,0.000353
37570000,0.0324,0.013523,0.002678,0.000431,0.000235
37571000,0.0324,0.013523,0.002678,0.000431,0.000353
37572000,0.0324,0.013523,0.002678,0.000431,0.000470
37573000,0.0324,0.013523,0.002678,0.000431,0.000353
37574000,0.0324,0.013523,0.002678,0.000431,0.000118
37575000,0.0324,0.013523,0.002678,0.000431,0.000470
37576000,0.0324,0.013523,0.002678,0.000431,0.000353
37577000,0.0324,0.013523,0.002678,0.000431,0.000235
37578000,0.0324,0.013523,0.002678,0.000431,0.000353
37579000,0.0324,0.013523,0.002678,0.000431,0.000470
37580000,0.0324,0.013523,0.002678,0.000431,0.000353
37581000,0.0324,0.013523,0.002678,0.000431,0.000118
37582000,0.0324,0.013523,0.002678,0.000431,0.000470
37583000,0.0324,0.013523,0.002678,0.000431,0.000353
37584000,0.0324,0.013523,0.002678,0.000431,0.000235
37585000,0.0324,0.013523,0.002678,0.000431,0.000353
37586000,0.0324,0.013523,0.002678,0.000431,0.000470
37587000,0.0324,0.013523,0.002678,0.000431,0.000353
37588000,0.0324,0.013523,0.002678,0.000431,0.000118
37589000,0.0324,0.013523,0.002678,0.000431,0.000470
37590000,0.0324,0.013523,0.002678,0.000431,0.000353
37591000,0.0324,0.013523,0.002678,0.000431,0.000235
37592000,0.0324,0.013523,0.002678,0.000431,0.000353
37593000,0.0324,0.013523,0.002678,0.000431,0.000470
37594000,0.0324,0.013523,0.002678,0.000431,0.000353
37595000,0.0324,0.013523,0.002678,0.000431,0.000118
37596000,0.0324,0.013523,0.002678,0.000431,0.000470
37597000,0.0324,0.013523,0.002678,0.000431,0.000353
37598000,0.0324,0.013523,0.002678,0.000431,0.000235
37599000,0.0324,0.013523,0.002678,0.000431,0.000353
37600000,0.0324,0.013523,0.002678,0.000431,0.000470
37601000,0.0324,0.013523,0.002678,0.000431,0.000235
37602000,0.0324,0.013523,0.002678,0.000431,0.000235
37603000,0.0324,0.013523,0.002678,0.000431,0.000470
37604000,0.0324,0.013523,0.002678,0.000431,0.000353
37605000,0.0324,0.013523,0.002678,0.000431,0.000235
37606000,0.0324,0.013523,0.002678,0.000431,0.000353
37607000,0.0324,0.013523,0.002678,0.000431,0.000470
37608000,0.0324,0.013523,0.002678,0.000431,0.000235
37609000,0.0324,0.013523,0.002678,0.000431,0.000235
37610000,0.0324,0.013523,0.002678,0.000431,0.000470
37611000,0.0324,0.013523,0.002678,0.000431,0.000353
37612000,0.0324,0.013523,0.002678,0.000431,0.000235
37613000,0.0324,0.013523,0.002678,0.000431,0.000353
37614000,0.0324,0.013523,0.002678,0.000431,0.000470
37615000,0.0324,0.013523,0.002678,0.000431,0.000235
37616000,0.0324,0.013523,0.002678,0.000431,0.000235
37617000,0.0324,0.013523,0.002678,0.000431,0.000470
37618000,0.0324,0.013523,0.002678,0.000431,0.000353
37619000,0.0324,0.013523,0.002678,0.000431,0.000235
37620000,0.0324,0.013523,0.002678,0.000431,0.000353
37621000,0.0324,0.013523,0.002678,0.000431,0.000470
37622000,0.0324,0.013523,0.002678,0.000431,0.000235
37623000,0.0324,0.013523,0.002678,0.000431,0.000235
37624000,0.0324,0.013523,0.002678,0.000431,0.000470
37625000,0.0324,0.013523,0.002678,0.000431,0.000353
37626000,0.0324,0.013523,0.002678,0.000431,0.000235
37627000,0.0324,0.013523,0.002678,0.000431,0.000353
37628000,0.0324,0.013523,0.002678,0.000431,0.000470
37629000,0.0324,0.013523,0.002678,0.000431,0.000235
37630000,0.0324,0.013523,0.002678,0.000431,0.000235
37631000,0.0324,0.013523,0.002678,0.000431,0.000470
37632000,0.0324,0.013523,0.002678,0.000431,0.000353
37633000,0.0324,0.013523,0.002678,0.000431,0.000235
37634000,0.0324,0.013523,0.002678,0.000431,0.000353
37635000,0.0324,0.013523,0.002678,0.000431,0.000470
37636000,0.0324,0.013523,0.002678,0.000431,0.000235
37637000,0.0324,0.013523,0.002678,0.000431,0.000235
37638000,0.0324,0.013523,0.002678,0.000431,0.000470
37639000,0.0324,0.013523,0.002678,0.000431,0.000353
37640000,0.0324,0.013523,0.002678,0.000431,0.000235
37641000,0.0324,0.013523,0.002678,0.000431,0.000353
37642000,0.0324,0.013523,0.002678,0.000431,0.000470
37643000,0.0324,0.013523,0.002678,0.000431,0.000118
37644000,0.0324,0.013523,0.002678,0.000431,0.000353
37645000,0.0324,0.013523,0.002678,0.000431,0.000470
37646000,0.0324,0.013523,0.002678,0.000431,0.000353
37647000,0.0324,0.013523,0.002678,0.000431,0.000235
37648000,0.0324,0.013523,0.002678,0.000431,0.000353
37649000,0.0324,0.013523,0.002678,0.000431,0.000470
37650000,0.0324,0.013523,0.002678,0.000431,0.000118
37651000,0.0324,0.013523,0.002678,0.000431,0.000353
37652000,0.0324,0.013523,0.002678,0.000431,0.000470
37653000,0.0324,0.013523,0.002678,0.000431,0.000353
37654000,0.0324,0.013523,0.002678,0.000431,0.000235
37655000,0.0324,0.013523,0.002678,0.000431,0.000353
37656000,0.0324,0.013523,0.002678,0.000431,0.000470
37657000,0.0324,0.013523,0.002678,0.000431,0.000118
37658000,0.0324,0.013523,0.002678,0.000431,0.000353
37659000,0.0324,0.013523,0.002678,0.000431,0.000470
37660000,0.0324,0.013523,0.002678,0.000431,0.000353
37661000,0.0324,0.013523,0.002678,0.000431,0.000235
37662000,0.0324,0.013523,0.002678,0.000431,0.000353
37663000,0.0324,0.013523,0.002678,0.000431,0.000353
37664000,0.0324,0.013523,0.002678,0.000431,0.000235
37665000,0.0324,0.013523,0.002678,0.000431,0.000353
37666000,0.0324,0.013523,0.002678,0.000431,0.000470
37667000,0.0324,0.013523,0.002678,0.000431,0.000353
37668000,0.0324,0.013523,0.002678,0.000431,0.000235
37669000,0.0324,0.013523,0.002678,0.000431,0.000353
37670000,0.0324,0.013523,0.002678,0.000431,0.000353
37671000,0.0324,0.013523,0.002678,0.000431,0.000235
37672000,0.0324,0.013523,0.002678,0.000431,0.000353
37673000,0.0324,0.013523,0.002678,0.000431,0.000470
37674000,0.0324,0.013523,0.002678,0.000431,0.000353
37675000,0.0324,0.013523,0.002678,0.000431,0.000235
37676000,0.0324,0.013523,0.002678,0.000431,0.000353
37677000,0.0324,0.013523,0.002678,0.000431,0.000353
37678000,0.0324,0.013523,0.002678,0.000431,0.000235
37679000,0.0324,0.013523,0.002678,0.000431,0.000353
37680000,0.0324,0.013523,0.002678,0.000431,0.000470
37681000,0.0324,0.013523,0.002678,0.000431,0.000353
37682000,0.0324,0.013523,0.002678,0.000431,0.000235
37683000,0.0324,0.013523,0.002678,0.000431,0.000353
37684000,0.0324,0.013523,0.002678,0.000431,0.000353
37685000,0.0324,0.013523,0.002678,0.000431,0.000235
37686000,0.0324,0.013523,0.002678,0.000431,0.000353
37687000,0.0324,0.013523,0.002678,0.000431,0.000470
37688000,0.0324,0.013523,0.002678,0.000431,0.000353
37689000,0.0324,0.013523,0.002678,0.000431,0.000235
37690000,0.0324,0.013523,0.002678,0.000431,0.000353
37691000,0.0324,0.013523,0.002678,0.000431,0.000353
37692000,0.0324,0.013523,0.002678,0.000431,0.000235
37693000,0.0324,0.013523,0.002678,0.000431,0.000353
37694000,0.0324,0.013523,0.002678,0.000431,0.000470
37695000,0.0324,0.013523,0.002678,0.000431,0.000353
37696000,0.0324,0.013523,0.002678,0.000431,0.000235
37697000,0.0324,0.013523,0.002678,0.000431,0.000353
37698000,0.0324,0.013523,0.002678,0.000431,0.000353
37699000,0.0324,0.013523,0.002678,0.000431,0.000235
37700000,0.0324,0.013523,0.002678,0.000431,0.000353
37701000,0.0324,0.013523,0.002678,0.000431,0.000470
37702000,0.0324,0.013523,0.002678,0.000431,0.000353
37703000,0.0324,0.013523,0.002678,0.000431,0.000235
37704000,0.0324,0.013523,0.002678,0.000431,0.000353
37705000,0.0324,0.013523,0.002678,0.000431,0.000353
37706000,0.0324,0.013523,0.002678,0.000431,0.000235
37707000,0.0324,0.013523,0.002678,0.000431,0.000353
37708000,0.0324,0.013523,0.002678,0.000431,0.000470
37709000,0.0324,0.013523,0.002678,0.000431,0.000353
37710000,0.0324,0.013523,0.002678,0.000431,0.000235
37711000,0.0324,0.013523,0.002678,0.000431,0.000353
37712000,0.0324,0.013523,0.002678,0.000431,0.000353
37713000,0.0324,0.013523,0.002678,0.000431,0.000235
37714000,0.0324,0.013523,0.002678,0.000431,0.000353
37715000,0.0324,0.013523,0.002678,0.000431,0.000470
37716000,0.0324,0.013523,0.002678,0.000431,0.000353
37717000,0.0324,0.013523,0.002678,0.000431,0.000118
37718000,0.0324,0.013523,0.002678,0.000431,0.000470
37719000,0.0324,0.013523,0.002678,0.000431,0.000353
37720000,0.0324,0.013523,0.002678,0.000431,0.000235
37721000,0.0324,0.013523,0.002678,0.000431,0.000353
37722000,0.0324,0.013523,0.002678,0.000431,0.000470
37723000,0.0324,0.013523,0.002678,0.000431,0.000353
37724000,0.0324,0.013523,0.002678,0.000431,0.000118
37725000,0.0324,0.013523,0.002678,0.000431,0.000470
37726000,0.0324,0.013523,0.002678,0.000431,0.000353
37727000,0.0324,0.013523,0.002678,0.000431,0.000235
37728000,0.0324,0.013523,0.002678,0.000431,0.000353
37729000,0.0324,0.013523,0.002678,0.000431,0.000470
37730000,0.0324,0.013523,0.002678,0.000431,0.000353
37731000,0.0324,0.013523,0.002678,0.000431,0.000118
37732000,0.0324,0.013523,0.002678,0.000431,0.000470
37733000,0.0324,0.013523,0.002678,0.000431,0.000353
37734000,0.0324,0.013523,0.002678,0.000431,0.000235
37735000,0.0324,0.013523,0.002678,0.000431,0.000353
37736000,0.0324,0.013523,0.002678,0.000431,0.000470
37737000,0.0324,0.013523,0.002678,0.000431,0.000235
37738000,0.0324,0.013523,0.002678,0.000431,0.000235
37739000,0.0324,0.013523,0.002678,0.000431,0.000470
37740000,0.0324,0.013523,0.002678,0.000431,0.000353
37741000,0.0324,0.013523,0.002678,0.000431,0.000235
37742000,0.0324,0.013523,0.002678,0.000431,0.000353
37743000,0.0324,0.013523,0.002678,0.000431,0.000470
37744000,0.0324,0.013523,0.002678,0.000431,0.000235
37745000,0.0324,0.013523,0.002678,0.000431,0.000235
37746000,0.0324,0.013523,0.002678,0.000431,0.000470
37747000,0.0324,0.013523,0.002678,0.000431,0.000353
37748000,0.0324,0.013523,0.002678,0.000431,0.000235
37749000,0.0324,0.013523,0.002678,0.000431,0.000353
37750000,0.0324,0.013523,0.002678,0.000431,0.000470
37751000,0.0324,0.013523,0.002678,0.000431,0.000235
37752000,0.0324,0.013523,0.002678,0.000431,0.000235
37753000,0.0324,0.013523,0.002678,0.000431,0.000470
37754000,0.0324,0.013523,0.002678,0.000431,0.000353
37755000,0.0324,0.013523,0.002678,0.000431,0.000235
37756000,0.0324,0.013523,0.002678,0.000431,0.000353
37757000,0.0324,0.013523,0.002678,0.000431,0.000470
37758000,0.0324,0.013523,0.002678,0.000431,0.000235
37759000,0.0324,0.013523,0.002678,0.000431,0.000235
37760000,0.0324,0.013523,0.002678,0.000431,0.000470
37761000,0.0324,0.013523,0.002678,0.000431,0.000353
37762000,0.0324,0.013523,0.002678,0.000431,0.000235
37763000,0.0324,0.013523,0.002678,0.000431,0.000353
37764000,0.0324,0.013523,0.002678,0.000431,0.000470
37765000,0.0324,0.013523,0.002678,0.000431,0.000235
37766000,0.0324,0.013523,0.002678,0.000431,0.000235
37767000,0.0324,0.013523,0.002678,0.000431,0.000470
37768000,0.0324,0.013523,0.002678,0.000431,0.000353
37769000,0.0324,0.013523,0.002678,0.000431,0.000235
37770000,0.0324,0.013523,0.002678,0.000431,0.000353
37771000,0.0324,0.013523,0.002678,0.000431,0.000470
37772000,0.0324,0.013523,0.002678,0.000431,0.000235
37773000,0.0324,0.013523,0.002678,0.000431,0.000235
37774000,0.0324,0.013523,0.002678,0.000431,0.000470
37775000,0.0324,0.013523,0.002678,0.000431,0.000353
37776000,0.0324,0.013523,0.002678,0.000431,0.000235
37777000,0.0324,0.013523,0.002678,0.000431,0.000353
37778000,0.0324,0.013523,0.002678,0.000431,0.000470
37779000,0.0324,0.013523,0.002678,0.000431,0.000118
37780000,0.0324,0.013523,0.002678,0.000431,0.000353
37781000,0.0324,0.013523,0.002678,0.000431,0.000470
37782000,0.0324,0.013523,0.002678,0.000431,0.000353
37783000,0.0324,0.013523,0.002678,0.000431,0.000235
37784000,0.0324,0.013523,0.002678,0.000431,0.000353
37785000,0.0324,0.013523,0.002678,0.000431,0.000470
37786000,0.0324,0.013523,0.002678,0.000431,0.000118
37787000,0.0324,0.013523,0.002678,0.000431,0.000353
37788000,0.0324,0.013523,0.002678,0.000431,0.000470
37789000,0.0324,0.013523,0.002678,0.000431,0.000353
37790000,0.0324,0.013523,0.002678,0.000431,0.000235
37791000,0.0324,0.013523,0.002678,0.000431,0.000353
37792000,0.0324,0.013523,0.002678,0.000431,0.000470
37793000,0.0324,0.013523,0.002678,0.000431,0.000118
37794000,0.0324,0.013523,0.002678,0.000431,0.000353
37795000,0.0324,0.013523,0.002678,0.000431,0.000470
37796000,0.0324,0.013523,0.002678,0.000431,0.000353
37797000,0.0324,0.013523,0.002678,0.000431,0.000235
37798000,0.0324,0.013523,0.002678,0.000431,0.000353
37799000,0.0324,0.013523,0.002678,0.000431,0.000470
37800000,0.0324,0.013523,0.002678,0.000431,0.000118
37801000,0.0324,0.013523,0.002678,0.000431,0.000353
37802000,0.0324,0.013523,0.002678,0.000431,0.000470
37803000,0.0324,0.013523,0.002678,0.000431,0.000353
37804000,0.0324,0.013523,0.002678,0.000431,0.000235
37805000,0.0324,0.013523,0.002678,0.000431,0.000353
37806000,0.0324,0.013523,0.002678,0.000431,0.000353
37807000,0.0324,0.013523,0.002678,0.000431,0.000235
37808000,0.0324,0.013523,0.002678,0.000431,0.000353
37809000,0.0324,0.013523,0.002678,0.000431,0.000470
37810000,0.0324,0.013523,0.002678,0.000431,0.000353
37811000,0.0324,0.013523,0.002678,0.000431,0.000235
37812000,0.0324,0.013523,0.002678,0.000431,0.000353
37813000,0.0324,0.013523,0.002678,0.000431,0.000353
37814000,0.0324,0.013523,0.002678,0.000431,0.000235
37815000,0.0324,0.013523,0.002678,0.000431,0.000353
37816000,0.0324,0.013523,0.002678,0.000431,0.000470
37817000,0.0324,0.013523,0.002678,0.000431,0.000353
37818000,0.0324,0.013523,0.002678,0.000431,0.000235
37819000,0.0324,0.013523,0.002678,0.000431,0.000353
37820000,0.0324,0.013523,0.002678,0.000431,0.000353
37821000,0.0324,0.013523,0.002678,0.000431,0.000235
37822000,0.0324,0.013523,0.002678,0.000431,0.000353
37823000,0.0324,0.013523,0.002678,0.000431,0.000470
37824000,0.0324,0.013523,0.002678,0.000431,0.000353
37825000,0.0324,0.013523,0.002678,0.000431,0.000235
37826000,0.0324,0.013523,0.002678,0.000431,0.000353
37827000,0.0324,0.013523,0.002678,0.000431,0.000353
37828000,0.0324,0.013523,0.002678,0.000431,0.000235
37829000,0.0324,0.013523,0.002678,0.000431,0.000353
37830000,0.0324,0.013523,0.002678,0.000431,0.000470
37831000,0.0324,0.013523,0.002678,0.000431,0.000353
37832000,0.0324,0.013523,0.002678,0.000431,0.000235
37833000,0.0324,0.013523,0.002678,0.000431,0.000353
37834000,0.0324,0.013523,0.002678,0.000431,0.000353
37835000,0.0324,0.013523,0.002678,0.000431,0.000235
37836000,0.0324,0.013523,0.002678,0.000431,0.000353
37837000,0.0324,0.013523,0.002678,0.000431,0.000470
37838000,0.0324,0.013523,0.002678,0.000431,0.000353
37839000,0.0324,0.013523,0.002678,0.000431,0.000235
37840000,0.0324,0.013523,0.002678,0.000431,0.000353
37841000,0.0324,0.013523,0.002678,0.000431,0.000353
37842000,0.0324,0.013523,0.002678,0.000431,0.000235
37843000,0.0324,0.013523,0.002678,0.000431,0.000353
37844000,0.0324,0.013523,0.002678,0.000431,0.000470
37845000,0.0324,0.013523,0.002678,0.000431,0.000353
37846000,0.0324,0.013523,0.002678,0.000431,0.000235
37847000,0.0324,0.013523,0.002678,0.000431,0.000353
37848000,0.0324,0.013523,0.002678,0.000431,0.000353
37849000,0.0324,0.013523,0.002678,0.000431,0.000235
37850000,0.0324,0.013523,0.002678,0.000431,0.000353
37851000,0.0324,0.013523,0.002678,0.000431,0.000470
37852000,0.0324,0.013523,0.002678,0.000431,0.000353
37853000,0.0324,0.013523,0.002678,0.000431,0.000118
37854000,0.0324,0.013523,0.002678,0.000431,0.000470
37855000,0.0324,0.013523,0.002678,0.000431,0.000353
37856000,0.0324,0.013523,0.002678,0.000431,0.000235
37857000,0.0324,0.013523,0.002678,0.000431,0.000353
37858000,0.0324,0.013523,0.002678,0.000431,0.000470
37859000,0.0324,0.013523,0.002678,0.000431,0.000353
37860000,0.0324,0.013523,0.002678,0.000431,0.000118
37861000,0.0324,0.013523,0.002678,0.000431,0.000470
37862000,0.0324,0.013523,0.002678,0.000431,0.000353
37863000,0.0324,0.013523,0.002678,0.000431,0.000235
37864000,0.0324,0.013523,0.002678,0.000431,0.000353
37865000,0.0324,0.013523,0.002678,0.000431,0.000470
37866000,0.0324,0.013523,0.002678,0.000431,0.000353
37867000,0.0324,0.013523,0.002678,0.000431,0.000118
37868000,0.0324,0.013523,0.002678,0.000431,0.000470
37869000,0.0324,0.013523,0.002678,0.000431,0.000353
37870000,0.0324,0.013523,0.002678,0.000431,0.000235
37871000,0.0324,0.013523,0.002678,0.000431,0.000353
37872000,0.0324,0.013523,0.002678,0.000431,0.000470
37873000,0.0324,0.013523,0.002678,0.000431,0.000353
37874000,0.0324,0.013523,0.002678,0.000431,0.000118
37875000,0.0324,0.013523,0.002678,0.000431,0.000470
37876000,0.0324,0.013523,0.002678,0.000431,0.000353
37877000,0.0324,0.013523,0.002678,0.000431,0.000235
37878000,0.0324,0.013523,0.002678,0.000431,0.000353
37879000,0.0324,0.013523,0.002678,0.000431,0.000470
37880000,0.0324,0.013523,0.002678,0.000431,0.000235
37881000,0.0324,0.013523,0.002678,0.000431,0.000235
37882000,0.0324,0.013523,0.002678,0.000431,0.000470
37883000,0.0324,0.013523,0.002678,0.000431,0.000353
37884000,0.0324,0.013523,0.002678,0.000431,0.000235
37885000,0.0324,0.013523,0.002678,0.000431,0.000353
37886000,0.0324,0.013523,0.002678,0.000431,0.000470
37887000,0.0324,0.013523,0.002678,0.000431,0.000235
37888000,0.0324,0.013523,0.002678,0.000431,0.000235
37889000,0.0324,0.013523,0.002678,0.000431,0.000470
37890000,0.0324,0.013523,0.002678,0.000431,0.000353
37891000,0.0324,0.013523,0.002678,0.000431,0.000235
37892000,0.0324,0.013523,0.002678,0.000431,0.000353
37893000,0.0324,0.013523,0.002678,0.000431,0.000470
37894000,0.0324,0.013523,0.002678,0.000431,0.000235
37895000,0.0324,0.013523,0.002678,0.000431,0.000235
37896000,0.0324,0.013523,0.002678,0.000431,0.000470
37897000,0.0324,0.013523,0.002678,0.000431,0.000353
37898000,0.0324,0.013523,0.002678,0.000431,0.000235
37899000,0.0324,0.013523,0.002678,0.000431,0.000353
37900000,0.0324,0.013523,0.002678,0.000431,0.000470
37901000,0.0324,0.013523,0.002678,0.000431,0.000235
37902000,0.0324,0.013523,0.002678,0.000431,0.000235
37903000,0.0324,0.013523,0.002678,0.000431,0.000470
37904000,0.0324,0.013523,0.002678,0.000431,0.000353
37905000,0.0324,0.013523,0.002678,0.000431,0.000235
37906000,0.0324,0.013523,0.002678,0.000431,0.000353
37907000,0.0324,0.013523,0.002678,0.000431,0.000470
37908000,0.0324,0.013523,0.002678,0.000431,0.000235
37909000,0.0324,0.013523,0.002678,0.000431,0.000235
37910000,0.0324,0.013523,0.002678,0.000431,0.000470
37911000,0.0324,0.013523,0.002678,0.000431,0.000353
37912000,0.0324,0.013523,0.002678,0.000431,0.000235
37913000,0.0324,0.013523,0.002678,0.000431,0.000353
37914000,0.0324,0.013523,0.002678,0.000431,0.000470
37915000,0.0324,0.013523,0.002678,0.000431,0.000235
37916000,0.0324,0.013523,0.002678,0.000431,0.000235
37917000,0.0324,0.013523,0.002678,0.000431,0.000470
37918000,0.0324,0.013523,0.002678,0.000431,0.000353
37919000,0.0324,0.013523,0.002678,0.000431,0.000235
37920000,0.0324,0.013523,0.002678,0.000431,0.000353
37921000,0.0324,0.013523,0.002678,0.000431,0.000470
37922000,0.0324,0.013523,0.002678,0.000431,0.000118
37923000,0.0324,0.013523,0.002678,0.000431,0.000353
37924000,0.0324,0.013523,0.002678,0.000431,0.000470
37925000,0.0324,0.013523,0.002678,0.000431,0.000353
37926000,0.0324,0.013523,0.002678,0.000431,0.000235
37927000,0.0324,0.013523,0.002678,0.000431,0.000353
37928000,0.0324,0.013523,0.002678,0.000431,0.000470
37929000,0.0324,0.013523,0.002678,0.000431,0.000118
37930000,0.0324,0.013523,0.002678,0.000431,0.000353
37931000,0.0324,0.013523,0.002678,0.000431,0.000470
37932000,0.0324,0.013523,0.002678,0.000431,0.000353
37933000,0.0324,0.013523,0.002678,0.000431,0.000235
37934000,0.0324,0.013523,0.002678,0.000431,0.000353
37935000,0.0324,0.013523,0.002678,0.000431,0.000470
37936000,0.0324,0.013523,0.002678,0.000431,0.000118
37937000,0.0324,0.013523,0.002678,0.000431,0.000353
37938000,0.0324,0.013523,0.002678,0.000431,0.000470
37939000,0.0324,0.013523,0.002678,0.000431,0.000353
37940000,0.0324,0.013523,0.002678,0.000431,0.000235
37941000,0.0324,0.013523,0.002678,0.000431,0.000353
37942000,0.0324,0.013523,0.002678,0.000431,0.000353
37943000,0.0324,0.013523,0.002678,0.000431,0.000235
37944000,0.0324,0.013523,0.002678,0.000431,0.000353
37945000,0.0324,0.013523,0.002678,0.000431,0.000470
37946000,0.0324,0.013523,0.002678,0.000431,0.000353
37947000,0.0324,0.013523,0.002678,0.000431,0.000235
37948000,0.0324,0.013523,0.002678,0.000431,0.000353
37949000,0.0324,0.013523,0.002678,0.000431,0.000353
37950000,0.0324,0.013523,0.002678,0.000431,0.000235
37951000,0.0324,0.013523,0.002678,0.000431,0.000353
37952000,0.0324,0.013523,0.002678,0.000431,0.000470
37953000,0.0324,0.013523,0.002678,0.000431,0.000353
37954000,0.0324,0.013523,0.002678,0.000431,0.000235
37955000,0.0324,0.013523,0.002678,0.000431,0.000353
37956000,0.0324,0.013523,0.002678,0.000431,0.000353
37957000,0.0324,0.013523,0.002678,0.000431,0.000235
37958000,0.0324,0.013523,0.002678,0.000431,0.000353
37959000,0.0324,0.013523,0.002678,0.000431,0.000470
37960000,0.0324,0.013523,0.002678,0.000431,0.000353
37961000,0.0324,0.013523,0.002678,0.000431,0.000235
37962000,0.0324,0.013523,0.002678,0.000431,0.000353
37963000,0.0324,0.013523,0.002678,0.000431,0.000353
37964000,0.0324,0.013523,0.002678,0.000431,0.000235
37965000,0.0324,0.013523,0.002678,0.000431,0.000353
37966000,0.0324,0.013523,0.002678,0.000431,0.000470
37967000,0.0324,0.013523,0.002678,0.000431,0.000353
37968000,0.0324,0.013523,0.002678,0.000431,0.000235
37969000,0.0324,0.013523,0.002678,0.000431,0.000353
37970000,0.0324,0.013523,0.002678,0.000431,0.000353
37971000,0.0324,0.013523,0.002678,0.000431,0.000235
37972000,0.0324,0.013523,0.002678,0.000431,0.000353
37973000,0.0324,0.013523,0.002678,0.000431,0.000470
37974000,0.0324,0.013523,0.002678,0.000431,0.000353
37975000,0.0324,0.013523,0.002678,0.000431,0.000235
37976000,0.0324,0.013523,0.002678,0.000431,0.000353
37977000,0.0324,0.013523,0.002678,0.000431,0.000353
37978000,0.0324,0.013523,0.002678,0.000431,0.000235
37979000,0.0324,0.013523,0.002678,0.000431,0.000353
37980000,0.0324,0.013523,0.002678,0.000431,0.000470
37981000,0.0324,0.013523,0.002678,0.000431,0.000353
37982000,0.0324,0.013523,0.002678,0.000431,0.000235
37983000,0.0324,0.013523,0.002678,0.000431,0.000353
37984000,0.0324,0.013523,0.002678,0.000431,0.000353
37985000,0.0324,0.013523,0.002678,0.000431,0.000235
37986000,0.0324,0.013523,0.002678,0.000431,0.000353
37987000,0.0324,0.013523,0.002678,0.000431,0.000470
37988000,0.0324,0.013523,0.002678,0.000431,0.000353
37989000,0.0324,0.013523,0.002678,0.000431,0.000235
37990000,0.0324,0.013523,0.002678,0.000431,0.000353
37991000,0.0324,0.013523,0.002678,0.000431,0.000353
37992000,0.0324,0.013523,0.002678,0.000431,0.000235
37993000,0.0324,0.013523,0.002678,0.000431,0.000353
37994000,0.0324,0.013523,0.002678,0.000431,0.000470
37995000,0.0324,0.013523,0.002678,0.000431,0.000353
37996000,0.0324,0.013523,0.002678,0.000431,0.000118
37997000,0.0324,0.013523,0.002678,0.000431,0.000470
37998000,0.0324,0.013523,0.002678,0.000431,0.000353
37999000,0.0324,0.013523,0.002678,0.000431,0.000235
