Cycle,Area(mm^2),PeakDynamic(W),SubthresholdLeakage(W),GateLeakage(W),RunTimeDynamic(W)
30000000,0.0324,0.013523,0.002678,0.000431,0.000235
30001000,0.0324,0.013523,0.002678,0.000431,0.000353
30002000,0.0324,0.013523,0.002678,0.000431,0.000470
30003000,0.0324,0.013523,0.002678,0.000431,0.000353
30004000,0.0324,0.013523,0.002678,0.000431,0.000118
30005000,0.0324,0.013523,0.002678,0.000431,0.000470
30006000,0.0324,0.013523,0.002678,0.000431,0.000353
30007000,0.0324,0.013523,0.002678,0.000431,0.000235
30008000,0.0324,0.013523,0.002678,0.000431,0.000353
30009000,0.0324,0.013523,0.002678,0.000431,0.000470
30010000,0.0324,0.013523,0.002678,0.000431,0.000235
30011000,0.0324,0.013523,0.002678,0.000431,0.000235
30012000,0.0324,0.013523,0.002678,0.000431,0.000470
30013000,0.0324,0.013523,0.002678,0.000431,0.000353
30014000,0.0324,0.013523,0.002678,0.000431,0.000235
30015000,0.0324,0.013523,0.002678,0.000431,0.000353
30016000,0.0324,0.013523,0.002678,0.000431,0.000470
30017000,0.0324,0.013523,0.002678,0.000431,0.000235
30018000,0.0324,0.013523,0.002678,0.000431,0.000235
30019000,0.0324,0.013523,0.002678,0.000431,0.000470
30020000,0.0324,0.013523,0.002678,0.000431,0.000353
30021000,0.0324,0.013523,0.002678,0.000431,0.000235
30022000,0.0324,0.013523,0.002678,0.000431,0.000353
30023000,0.0324,0.013523,0.002678,0.000431,0.000470
30024000,0.0324,0.013523,0.002678,0.000431,0.000118
30025000,0.0324,0.013523,0.002678,0.000431,0.000353
30026000,0.0324,0.013523,0.002678,0.000431,0.000470
30027000,0.0324,0.013523,0.002678,0.000431,0.000353
30028000,0.0324,0.013523,0.002678,0.000431,0.000235
30029000,0.0324,0.013523,0.002678,0.000431,0.000353
30030000,0.0324,0.013523,0.002678,0.000431,0.000353
30031000,0.0324,0.013523,0.002678,0.000431,0.000235
30032000,0.0324,0.013523,0.002678,0.000431,0.000353
30033000,0.0324,0.013523,0.002678,0.000431,0.000470
30034000,0.0324,0.013523,0.002678,0.000431,0.000353
30035000,0.0324,0.013523,0.002678,0.000431,0.000235
30036000,0.0324,0.013523,0.002678,0.000431,0.000353
30037000,0.0324,0.013523,0.002678,0.000431,0.000353
30038000,0.0324,0.013523,0.002678,0.000431,0.000235
30039000,0.0324,0.013523,0.002678,0.000431,0.000353
30040000,0.0324,0.013523,0.002678,0.000431,0.000470
30041000,0.0324,0.013523,0.002678,0.000431,0.000353
30042000,0.0324,0.013523,0.002678,0.000431,0.000118
30043000,0.0324,0.013523,0.002678,0.000431,0.000470
30044000,0.0324,0.013523,0.002678,0.000431,0.000353
30045000,0.0324,0.013523,0.002678,0.000431,0.000235
30046000,0.0324,0.013523,0.002678,0.000431,0.000353
30047000,0.0324,0.013523,0.002678,0.000431,0.000470
30048000,0.0324,0.013523,0.002678,0.000431,0.000353
30049000,0.0324,0.013523,0.002678,0.000431,0.000118
30050000,0.0324,0.013523,0.002678,0.000431,0.000470
30051000,0.0324,0.013523,0.002678,0.000431,0.000353
30052000,0.0324,0.013523,0.002678,0.000431,0.000235
30053000,0.0324,0.013523,0.002678,0.000431,0.000353
30054000,0.0324,0.013523,0.002678,0.000431,0.000470
30055000,0.0324,0.013523,0.002678,0.000431,0.000235
30056000,0.0324,0.013523,0.002678,0.000431,0.000235
30057000,0.0324,0.013523,0.002678,0.000431,0.000470
30058000,0.0324,0.013523,0.002678,0.000431,0.000353
30059000,0.0324,0.013523,0.002678,0.000431,0.000235
30060000,0.0324,0.013523,0.002678,0.000431,0.000353
30061000,0.0324,0.013523,0.002678,0.000431,0.000470
30062000,0.0324,0.013523,0.002678,0.000431,0.000118
30063000,0.0324,0.013523,0.002678,0.000431,0.000353
30064000,0.0324,0.013523,0.002678,0.000431,0.000470
30065000,0.0324,0.013523,0.002678,0.000431,0.000353
30066000,0.0324,0.013523,0.002678,0.000431,0.000235
30067000,0.0324,0.013523,0.002678,0.000431,0.000353
30068000,0.0324,0.013523,0.002678,0.000431,0.000353
30069000,0.0324,0.013523,0.002678,0.000431,0.000235
30070000,0.0324,0.013523,0.002678,0.000431,0.000353
30071000,0.0324,0.013523,0.002678,0.000431,0.000470
30072000,0.0324,0.013523,0.002678,0.000431,0.000353
30073000,0.0324,0.013523,0.002678,0.000431,0.000235
30074000,0.0324,0.013523,0.002678,0.000431,0.000353
30075000,0.0324,0.013523,0.002678,0.000431,0.000353
30076000,0.0324,0.013523,0.002678,0.000431,0.000235
30077000,0.0324,0.013523,0.002678,0.000431,0.000353
30078000,0.0324,0.013523,0.002678,0.000431,0.000470
30079000,0.0324,0.013523,0.002678,0.000431,0.000353
30080000,0.0324,0.013523,0.002678,0.000431,0.000235
30081000,0.0324,0.013523,0.002678,0.000431,0.000353
30082000,0.0324,0.013523,0.002678,0.000431,0.000353
30083000,0.0324,0.013523,0.002678,0.000431,0.000235
30084000,0.0324,0.013523,0.002678,0.000431,0.000353
30085000,0.0324,0.013523,0.002678,0.000431,0.000470
30086000,0.0324,0.013523,0.002678,0.000431,0.000353
30087000,0.0324,0.013523,0.002678,0.000431,0.000235
30088000,0.0324,0.013523,0.002678,0.000431,0.000353
30089000,0.0324,0.013523,0.002678,0.000431,0.000353
30090000,0.0324,0.013523,0.002678,0.000431,0.000235
30091000,0.0324,0.013523,0.002678,0.000431,0.000353
30092000,0.0324,0.013523,0.002678,0.000431,0.000470
30093000,0.0324,0.013523,0.002678,0.000431,0.000353
30094000,0.0324,0.013523,0.002678,0.000431,0.000235
30095000,0.0324,0.013523,0.002678,0.000431,0.000353
30096000,0.0324,0.013523,0.002678,0.000431,0.000353
30097000,0.0324,0.013523,0.002678,0.000431,0.000235
30098000,0.0324,0.013523,0.002678,0.000431,0.000353
30099000,0.0324,0.013523,0.002678,0.000431,0.000470
30100000,0.0324,0.013523,0.002678,0.000431,0.000353
30101000,0.0324,0.013523,0.002678,0.000431,0.000235
30102000,0.0324,0.013523,0.002678,0.000431,0.000353
30103000,0.0324,0.013523,0.002678,0.000431,0.000353
30104000,0.0324,0.013523,0.002678,0.000431,0.000235
30105000,0.0324,0.013523,0.002678,0.000431,0.000353
30106000,0.0324,0.013523,0.002678,0.000431,0.000470
30107000,0.0324,0.013523,0.002678,0.000431,0.000353
30108000,0.0324,0.013523,0.002678,0.000431,0.000118
30109000,0.0324,0.013523,0.002678,0.000431,0.000470
30110000,0.0324,0.013523,0.002678,0.000431,0.000353
30111000,0.0324,0.013523,0.002678,0.000431,0.000235
30112000,0.0324,0.013523,0.002678,0.000431,0.000353
30113000,0.0324,0.013523,0.002678,0.000431,0.000470
30114000,0.0324,0.013523,0.002678,0.000431,0.000353
30115000,0.0324,0.013523,0.002678,0.000431,0.000118
30116000,0.0324,0.013523,0.002678,0.000431,0.000470
30117000,0.0324,0.013523,0.002678,0.000431,0.000353
30118000,0.0324,0.013523,0.002678,0.000431,0.000235
30119000,0.0324,0.013523,0.002678,0.000431,0.000353
30120000,0.0324,0.013523,0.002678,0.000431,0.000470
30121000,0.0324,0.013523,0.002678,0.000431,0.000353
30122000,0.0324,0.013523,0.002678,0.000431,0.000118
30123000,0.0324,0.013523,0.002678,0.000431,0.000470
30124000,0.0324,0.013523,0.002678,0.000431,0.000353
30125000,0.0324,0.013523,0.002678,0.000431,0.000235
30126000,0.0324,0.013523,0.002678,0.000431,0.000353
30127000,0.0324,0.013523,0.002678,0.000431,0.000470
30128000,0.0324,0.013523,0.002678,0.000431,0.000235
30129000,0.0324,0.013523,0.002678,0.000431,0.000235
30130000,0.0324,0.013523,0.002678,0.000431,0.000470
30131000,0.0324,0.013523,0.002678,0.000431,0.000353
30132000,0.0324,0.013523,0.002678,0.000431,0.000235
30133000,0.0324,0.013523,0.002678,0.000431,0.000353
30134000,0.0324,0.013523,0.002678,0.000431,0.000470
30135000,0.0324,0.013523,0.002678,0.000431,0.000235
30136000,0.0324,0.013523,0.002678,0.000431,0.000235
30137000,0.0324,0.013523,0.002678,0.000431,0.000470
30138000,0.0324,0.013523,0.002678,0.000431,0.000353
30139000,0.0324,0.013523,0.002678,0.000431,0.000235
30140000,0.0324,0.013523,0.002678,0.000431,0.000353
30141000,0.0324,0.013523,0.002678,0.000431,0.000470
30142000,0.0324,0.013523,0.002678,0.000431,0.000235
30143000,0.0324,0.013523,0.002678,0.000431,0.000235
30144000,0.0324,0.013523,0.002678,0.000431,0.000470
30145000,0.0324,0.013523,0.002678,0.000431,0.000353
30146000,0.0324,0.013523,0.002678,0.000431,0.000235
30147000,0.0324,0.013523,0.002678,0.000431,0.000353
30148000,0.0324,0.013523,0.002678,0.000431,0.000470
30149000,0.0324,0.013523,0.002678,0.000431,0.000235
30150000,0.0324,0.013523,0.002678,0.000431,0.000235
30151000,0.0324,0.013523,0.002678,0.000431,0.000470
30152000,0.0324,0.013523,0.002678,0.000431,0.000353
30153000,0.0324,0.013523,0.002678,0.000431,0.000235
30154000,0.0324,0.013523,0.002678,0.000431,0.000353
30155000,0.0324,0.013523,0.002678,0.000431,0.000470
30156000,0.0324,0.013523,0.002678,0.000431,0.000235
30157000,0.0324,0.013523,0.002678,0.000431,0.000235
30158000,0.0324,0.013523,0.002678,0.000431,0.000470
30159000,0.0324,0.013523,0.002678,0.000431,0.000353
30160000,0.0324,0.013523,0.002678,0.000431,0.000235
30161000,0.0324,0.013523,0.002678,0.000431,0.000353
30162000,0.0324,0.013523,0.002678,0.000431,0.000470
30163000,0.0324,0.013523,0.002678,0.000431,0.000235
30164000,0.0324,0.013523,0.002678,0.000431,0.000235
30165000,0.0324,0.013523,0.002678,0.000431,0.000470
30166000,0.0324,0.013523,0.002678,0.000431,0.000353
30167000,0.0324,0.013523,0.002678,0.000431,0.000235
30168000,0.0324,0.013523,0.002678,0.000431,0.000353
30169000,0.0324,0.013523,0.002678,0.000431,0.000470
30170000,0.0324,0.013523,0.002678,0.000431,0.000118
30171000,0.0324,0.013523,0.002678,0.000431,0.000353
30172000,0.0324,0.013523,0.002678,0.000431,0.000470
30173000,0.0324,0.013523,0.002678,0.000431,0.000353
30174000,0.0324,0.013523,0.002678,0.000431,0.000235
30175000,0.0324,0.013523,0.002678,0.000431,0.000353
30176000,0.0324,0.013523,0.002678,0.000431,0.000470
30177000,0.0324,0.013523,0.002678,0.000431,0.000118
30178000,0.0324,0.013523,0.002678,0.000431,0.000353
30179000,0.0324,0.013523,0.002678,0.000431,0.000470
30180000,0.0324,0.013523,0.002678,0.000431,0.000353
30181000,0.0324,0.013523,0.002678,0.000431,0.000235
30182000,0.0324,0.013523,0.002678,0.000431,0.000353
30183000,0.0324,0.013523,0.002678,0.000431,0.000470
30184000,0.0324,0.013523,0.002678,0.000431,0.000118
30185000,0.0324,0.013523,0.002678,0.000431,0.000353
30186000,0.0324,0.013523,0.002678,0.000431,0.000470
30187000,0.0324,0.013523,0.002678,0.000431,0.000353
30188000,0.0324,0.013523,0.002678,0.000431,0.000235
30189000,0.0324,0.013523,0.002678,0.000431,0.000353
30190000,0.0324,0.013523,0.002678,0.000431,0.000470
30191000,0.0324,0.013523,0.002678,0.000431,0.000118
30192000,0.0324,0.013523,0.002678,0.000431,0.000353
30193000,0.0324,0.013523,0.002678,0.000431,0.000470
30194000,0.0324,0.013523,0.002678,0.000431,0.000353
30195000,0.0324,0.013523,0.002678,0.000431,0.000235
30196000,0.0324,0.013523,0.002678,0.000431,0.000353
30197000,0.0324,0.013523,0.002678,0.000431,0.000353
30198000,0.0324,0.013523,0.002678,0.000431,0.000235
30199000,0.0324,0.013523,0.002678,0.000431,0.000353
30200000,0.0324,0.013523,0.002678,0.000431,0.000470
30201000,0.0324,0.013523,0.002678,0.000431,0.000353
30202000,0.0324,0.013523,0.002678,0.000431,0.000235
30203000,0.0324,0.013523,0.002678,0.000431,0.000353
30204000,0.0324,0.013523,0.002678,0.000431,0.000353
30205000,0.0324,0.013523,0.002678,0.000431,0.000235
30206000,0.0324,0.013523,0.002678,0.000431,0.000353
30207000,0.0324,0.013523,0.002678,0.000431,0.000470
30208000,0.0324,0.013523,0.002678,0.000431,0.000353
30209000,0.0324,0.013523,0.002678,0.000431,0.000235
30210000,0.0324,0.013523,0.002678,0.000431,0.000353
30211000,0.0324,0.013523,0.002678,0.000431,0.000353
30212000,0.0324,0.013523,0.002678,0.000431,0.000235
30213000,0.0324,0.013523,0.002678,0.000431,0.000353
30214000,0.0324,0.013523,0.002678,0.000431,0.000470
30215000,0.0324,0.013523,0.002678,0.000431,0.000353
30216000,0.0324,0.013523,0.002678,0.000431,0.000235
30217000,0.0324,0.013523,0.002678,0.000431,0.000353
30218000,0.0324,0.013523,0.002678,0.000431,0.000353
30219000,0.0324,0.013523,0.002678,0.000431,0.000235
30220000,0.0324,0.013523,0.002678,0.000431,0.000353
30221000,0.0324,0.013523,0.002678,0.000431,0.000470
30222000,0.0324,0.013523,0.002678,0.000431,0.000353
30223000,0.0324,0.013523,0.002678,0.000431,0.000235
30224000,0.0324,0.013523,0.002678,0.000431,0.000353
30225000,0.0324,0.013523,0.002678,0.000431,0.000353
30226000,0.0324,0.013523,0.002678,0.000431,0.000235
30227000,0.0324,0.013523,0.002678,0.000431,0.000353
30228000,0.0324,0.013523,0.002678,0.000431,0.000470
30229000,0.0324,0.013523,0.002678,0.000431,0.000353
30230000,0.0324,0.013523,0.002678,0.000431,0.000118
30231000,0.0324,0.013523,0.002678,0.000431,0.000470
30232000,0.0324,0.013523,0.002678,0.000431,0.000353
30233000,0.0324,0.013523,0.002678,0.000431,0.000235
30234000,0.0324,0.013523,0.002678,0.000431,0.000353
30235000,0.0324,0.013523,0.002678,0.000431,0.000470
30236000,0.0324,0.013523,0.002678,0.000431,0.000235
30237000,0.0324,0.013523,0.002678,0.000431,0.000235
30238000,0.0324,0.013523,0.002678,0.000431,0.000470
30239000,0.0324,0.013523,0.002678,0.000431,0.000353
30240000,0.0324,0.013523,0.002678,0.000431,0.000235
30241000,0.0324,0.013523,0.002678,0.000431,0.000353
30242000,0.0324,0.013523,0.002678,0.000431,0.000470
30243000,0.0324,0.013523,0.002678,0.000431,0.000235
30244000,0.0324,0.013523,0.002678,0.000431,0.000235
30245000,0.0324,0.013523,0.002678,0.000431,0.000470
30246000,0.0324,0.013523,0.002678,0.000431,0.000353
30247000,0.0324,0.013523,0.002678,0.000431,0.000235
30248000,0.0324,0.013523,0.002678,0.000431,0.000353
30249000,0.0324,0.013523,0.002678,0.000431,0.000470
30250000,0.0324,0.013523,0.002678,0.000431,0.000118
30251000,0.0324,0.013523,0.002678,0.000431,0.000353
30252000,0.0324,0.013523,0.002678,0.000431,0.000470
30253000,0.0324,0.013523,0.002678,0.000431,0.000353
30254000,0.0324,0.013523,0.002678,0.000431,0.000235
30255000,0.0324,0.013523,0.002678,0.000431,0.000353
30256000,0.0324,0.013523,0.002678,0.000431,0.000353
30257000,0.0324,0.013523,0.002678,0.000431,0.000235
30258000,0.0324,0.013523,0.002678,0.000431,0.000353
30259000,0.0324,0.013523,0.002678,0.000431,0.000470
30260000,0.0324,0.013523,0.002678,0.000431,0.000353
30261000,0.0324,0.013523,0.002678,0.000431,0.000235
30262000,0.0324,0.013523,0.002678,0.000431,0.000353
30263000,0.0324,0.013523,0.002678,0.000431,0.000353
30264000,0.0324,0.013523,0.002678,0.000431,0.000235
30265000,0.0324,0.013523,0.002678,0.000431,0.000353
30266000,0.0324,0.013523,0.002678,0.000431,0.000470
30267000,0.0324,0.013523,0.002678,0.000431,0.000353
30268000,0.0324,0.013523,0.002678,0.000431,0.000235
30269000,0.0324,0.013523,0.002678,0.000431,0.000353
30270000,0.0324,0.013523,0.002678,0.000431,0.000353
30271000,0.0324,0.013523,0.002678,0.000431,0.000235
30272000,0.0324,0.013523,0.002678,0.000431,0.000353
30273000,0.0324,0.013523,0.002678,0.000431,0.000470
30274000,0.0324,0.013523,0.002678,0.000431,0.000353
30275000,0.0324,0.013523,0.002678,0.000431,0.000118
30276000,0.0324,0.013523,0.002678,0.000431,0.000470
30277000,0.0324,0.013523,0.002678,0.000431,0.000353
30278000,0.0324,0.013523,0.002678,0.000431,0.000235
30279000,0.0324,0.013523,0.002678,0.000431,0.000353
30280000,0.0324,0.013523,0.002678,0.000431,0.000470
30281000,0.0324,0.013523,0.002678,0.000431,0.000235
30282000,0.0324,0.013523,0.002678,0.000431,0.000235
30283000,0.0324,0.013523,0.002678,0.000431,0.000470
30284000,0.0324,0.013523,0.002678,0.000431,0.000353
30285000,0.0324,0.013523,0.002678,0.000431,0.000235
30286000,0.0324,0.013523,0.002678,0.000431,0.000353
30287000,0.0324,0.013523,0.002678,0.000431,0.000470
30288000,0.0324,0.013523,0.002678,0.000431,0.000235
30289000,0.0324,0.013523,0.002678,0.000431,0.000235
30290000,0.0324,0.013523,0.002678,0.000431,0.000470
30291000,0.0324,0.013523,0.002678,0.000431,0.000353
30292000,0.0324,0.013523,0.002678,0.000431,0.000235
30293000,0.0324,0.013523,0.002678,0.000431,0.000353
30294000,0.0324,0.013523,0.002678,0.000431,0.000470
30295000,0.0324,0.013523,0.002678,0.000431,0.000118
30296000,0.0324,0.013523,0.002678,0.000431,0.000353
30297000,0.0324,0.013523,0.002678,0.000431,0.000470
30298000,0.0324,0.013523,0.002678,0.000431,0.000353
30299000,0.0324,0.013523,0.002678,0.000431,0.000235
30300000,0.0324,0.013523,0.002678,0.000431,0.000353
30301000,0.0324,0.013523,0.002678,0.000431,0.000353
30302000,0.0324,0.013523,0.002678,0.000431,0.000235
30303000,0.0324,0.013523,0.002678,0.000431,0.000353
30304000,0.0324,0.013523,0.002678,0.000431,0.000470
30305000,0.0324,0.013523,0.002678,0.000431,0.000353
30306000,0.0324,0.013523,0.002678,0.000431,0.000235
30307000,0.0324,0.013523,0.002678,0.000431,0.000353
30308000,0.0324,0.013523,0.002678,0.000431,0.000353
30309000,0.0324,0.013523,0.002678,0.000431,0.000235
30310000,0.0324,0.013523,0.002678,0.000431,0.000353
30311000,0.0324,0.013523,0.002678,0.000431,0.000470
30312000,0.0324,0.013523,0.002678,0.000431,0.000353
30313000,0.0324,0.013523,0.002678,0.000431,0.000235
30314000,0.0324,0.013523,0.002678,0.000431,0.000353
30315000,0.0324,0.013523,0.002678,0.000431,0.000353
30316000,0.0324,0.013523,0.002678,0.000431,0.000235
30317000,0.0324,0.013523,0.002678,0.000431,0.000353
30318000,0.0324,0.013523,0.002678,0.000431,0.000470
30319000,0.0324,0.013523,0.002678,0.000431,0.000235
30320000,0.0324,0.013523,0.002678,0.000431,0.000235
30321000,0.0324,0.013523,0.002678,0.000431,0.000470
30322000,0.0324,0.013523,0.002678,0.000431,0.000353
30323000,0.0324,0.013523,0.002678,0.000431,0.000235
30324000,0.0324,0.013523,0.002678,0.000431,0.000353
30325000,0.0324,0.013523,0.002678,0.000431,0.000470
30326000,0.0324,0.013523,0.002678,0.000431,0.000235
30327000,0.0324,0.013523,0.002678,0.000431,0.000235
30328000,0.0324,0.013523,0.002678,0.000431,0.000470
30329000,0.0324,0.013523,0.002678,0.000431,0.000353
30330000,0.0324,0.013523,0.002678,0.000431,0.000235
30331000,0.0324,0.013523,0.002678,0.000431,0.000353
30332000,0.0324,0.013523,0.002678,0.000431,0.000470
30333000,0.0324,0.013523,0.002678,0.000431,0.000118
30334000,0.0324,0.013523,0.002678,0.000431,0.000353
30335000,0.0324,0.013523,0.002678,0.000431,0.000470
30336000,0.0324,0.013523,0.002678,0.000431,0.000353
30337000,0.0324,0.013523,0.002678,0.000431,0.000235
30338000,0.0324,0.013523,0.002678,0.000431,0.000353
30339000,0.0324,0.013523,0.002678,0.000431,0.000470
30340000,0.0324,0.013523,0.002678,0.000431,0.000118
30341000,0.0324,0.013523,0.002678,0.000431,0.000353
30342000,0.0324,0.013523,0.002678,0.000431,0.000470
30343000,0.0324,0.013523,0.002678,0.000431,0.000353
30344000,0.0324,0.013523,0.002678,0.000431,0.000235
30345000,0.0324,0.013523,0.002678,0.000431,0.000353
30346000,0.0324,0.013523,0.002678,0.000431,0.000353
30347000,0.0324,0.013523,0.002678,0.000431,0.000235
30348000,0.0324,0.013523,0.002678,0.000431,0.000353
30349000,0.0324,0.013523,0.002678,0.000431,0.000470
30350000,0.0324,0.013523,0.002678,0.000431,0.000353
30351000,0.0324,0.013523,0.002678,0.000431,0.000235
30352000,0.0324,0.013523,0.002678,0.000431,0.000353
30353000,0.0324,0.013523,0.002678,0.000431,0.000353
30354000,0.0324,0.013523,0.002678,0.000431,0.000235
30355000,0.0324,0.013523,0.002678,0.000431,0.000353
30356000,0.0324,0.013523,0.002678,0.000431,0.000470
30357000,0.0324,0.013523,0.002678,0.000431,0.000353
30358000,0.0324,0.013523,0.002678,0.000431,0.000118
30359000,0.0324,0.013523,0.002678,0.000431,0.000470
30360000,0.0324,0.013523,0.002678,0.000431,0.000353
30361000,0.0324,0.013523,0.002678,0.000431,0.000235
30362000,0.0324,0.013523,0.002678,0.000431,0.000353
30363000,0.0324,0.013523,0.002678,0.000431,0.000470
30364000,0.0324,0.013523,0.002678,0.000431,0.000353
30365000,0.0324,0.013523,0.002678,0.000431,0.000118
30366000,0.0324,0.013523,0.002678,0.000431,0.000470
30367000,0.0324,0.013523,0.002678,0.000431,0.000353
30368000,0.0324,0.013523,0.002678,0.000431,0.000235
30369000,0.0324,0.013523,0.002678,0.000431,0.000353
30370000,0.0324,0.013523,0.002678,0.000431,0.000470
30371000,0.0324,0.013523,0.002678,0.000431,0.000353
30372000,0.0324,0.013523,0.002678,0.000431,0.000118
30373000,0.0324,0.013523,0.002678,0.000431,0.000470
30374000,0.0324,0.013523,0.002678,0.000431,0.000353
30375000,0.0324,0.013523,0.002678,0.000431,0.000235
30376000,0.0324,0.013523,0.002678,0.000431,0.000353
30377000,0.0324,0.013523,0.002678,0.000431,0.000470
30378000,0.0324,0.013523,0.002678,0.000431,0.000235
30379000,0.0324,0.013523,0.002678,0.000431,0.000235
30380000,0.0324,0.013523,0.002678,0.000431,0.000470
30381000,0.0324,0.013523,0.002678,0.000431,0.000353
30382000,0.0324,0.013523,0.002678,0.000431,0.000235
30383000,0.0324,0.013523,0.002678,0.000431,0.000353
30384000,0.0324,0.013523,0.002678,0.000431,0.000470
30385000,0.0324,0.013523,0.002678,0.000431,0.000235
30386000,0.0324,0.013523,0.002678,0.000431,0.000235
30387000,0.0324,0.013523,0.002678,0.000431,0.000470
30388000,0.0324,0.013523,0.002678,0.000431,0.000353
30389000,0.0324,0.013523,0.002678,0.000431,0.000235
30390000,0.0324,0.013523,0.002678,0.000431,0.000353
30391000,0.0324,0.013523,0.002678,0.000431,0.000470
30392000,0.0324,0.013523,0.002678,0.000431,0.000235
30393000,0.0324,0.013523,0.002678,0.000431,0.000235
30394000,0.0324,0.013523,0.002678,0.000431,0.000470
30395000,0.0324,0.013523,0.002678,0.000431,0.000353
30396000,0.0324,0.013523,0.002678,0.000431,0.000235
30397000,0.0324,0.013523,0.002678,0.000431,0.000353
30398000,0.0324,0.013523,0.002678,0.000431,0.000470
30399000,0.0324,0.013523,0.002678,0.000431,0.000235
30400000,0.0324,0.013523,0.002678,0.000431,0.000235
30401000,0.0324,0.013523,0.002678,0.000431,0.000470
30402000,0.0324,0.013523,0.002678,0.000431,0.000353
30403000,0.0324,0.013523,0.002678,0.000431,0.000235
30404000,0.0324,0.013523,0.002678,0.000431,0.000353
30405000,0.0324,0.013523,0.002678,0.000431,0.000470
30406000,0.0324,0.013523,0.002678,0.000431,0.000235
30407000,0.0324,0.013523,0.002678,0.000431,0.000235
30408000,0.0324,0.013523,0.002678,0.000431,0.000470
30409000,0.0324,0.013523,0.002678,0.000431,0.000353
30410000,0.0324,0.013523,0.002678,0.000431,0.000235
30411000,0.0324,0.013523,0.002678,0.000431,0.000353
30412000,0.0324,0.013523,0.002678,0.000431,0.000470
30413000,0.0324,0.013523,0.002678,0.000431,0.000235
30414000,0.0324,0.013523,0.002678,0.000431,0.000235
30415000,0.0324,0.013523,0.002678,0.000431,0.000470
30416000,0.0324,0.013523,0.002678,0.000431,0.000353
30417000,0.0324,0.013523,0.002678,0.000431,0.000235
30418000,0.0324,0.013523,0.002678,0.000431,0.000353
30419000,0.0324,0.013523,0.002678,0.000431,0.000470
30420000,0.0324,0.013523,0.002678,0.000431,0.000118
30421000,0.0324,0.013523,0.002678,0.000431,0.000353
30422000,0.0324,0.013523,0.002678,0.000431,0.000470
30423000,0.0324,0.013523,0.002678,0.000431,0.000353
30424000,0.0324,0.013523,0.002678,0.000431,0.000235
30425000,0.0324,0.013523,0.002678,0.000431,0.000353
30426000,0.0324,0.013523,0.002678,0.000431,0.000470
30427000,0.0324,0.013523,0.002678,0.000431,0.000118
30428000,0.0324,0.013523,0.002678,0.000431,0.000353
30429000,0.0324,0.013523,0.002678,0.000431,0.000470
30430000,0.0324,0.013523,0.002678,0.000431,0.000353
30431000,0.0324,0.013523,0.002678,0.000431,0.000235
30432000,0.0324,0.013523,0.002678,0.000431,0.000353
30433000,0.0324,0.013523,0.002678,0.000431,0.000470
30434000,0.0324,0.013523,0.002678,0.000431,0.000118
30435000,0.0324,0.013523,0.002678,0.000431,0.000353
30436000,0.0324,0.013523,0.002678,0.000431,0.000470
30437000,0.0324,0.013523,0.002678,0.000431,0.000353
30438000,0.0324,0.013523,0.002678,0.000431,0.000235
30439000,0.0324,0.013523,0.002678,0.000431,0.000353
30440000,0.0324,0.013523,0.002678,0.000431,0.000470
30441000,0.0324,0.013523,0.002678,0.000431,0.000118
30442000,0.0324,0.013523,0.002678,0.000431,0.000353
30443000,0.0324,0.013523,0.002678,0.000431,0.000470
30444000,0.0324,0.013523,0.002678,0.000431,0.000353
30445000,0.0324,0.013523,0.002678,0.000431,0.000235
30446000,0.0324,0.013523,0.002678,0.000431,0.000353
30447000,0.0324,0.013523,0.002678,0.000431,0.000353
30448000,0.0324,0.013523,0.002678,0.000431,0.000235
30449000,0.0324,0.013523,0.002678,0.000431,0.000353
30450000,0.0324,0.013523,0.002678,0.000431,0.000470
30451000,0.0324,0.013523,0.002678,0.000431,0.000353
30452000,0.0324,0.013523,0.002678,0.000431,0.000235
30453000,0.0324,0.013523,0.002678,0.000431,0.000353
30454000,0.0324,0.013523,0.002678,0.000431,0.000353
30455000,0.0324,0.013523,0.002678,0.000431,0.000235
30456000,0.0324,0.013523,0.002678,0.000431,0.000353
30457000,0.0324,0.013523,0.002678,0.000431,0.000470
30458000,0.0324,0.013523,0.002678,0.000431,0.000353
30459000,0.0324,0.013523,0.002678,0.000431,0.000235
30460000,0.0324,0.013523,0.002678,0.000431,0.000353
30461000,0.0324,0.013523,0.002678,0.000431,0.000353
30462000,0.0324,0.013523,0.002678,0.000431,0.000235
30463000,0.0324,0.013523,0.002678,0.000431,0.000353
30464000,0.0324,0.013523,0.002678,0.000431,0.000470
30465000,0.0324,0.013523,0.002678,0.000431,0.000353
30466000,0.0324,0.013523,0.002678,0.000431,0.000235
30467000,0.0324,0.013523,0.002678,0.000431,0.000353
30468000,0.0324,0.013523,0.002678,0.000431,0.000353
30469000,0.0324,0.013523,0.002678,0.000431,0.000235
30470000,0.0324,0.013523,0.002678,0.000431,0.000353
30471000,0.0324,0.013523,0.002678,0.000431,0.000470
30472000,0.0324,0.013523,0.002678,0.000431,0.000353
30473000,0.0324,0.013523,0.002678,0.000431,0.000235
30474000,0.0324,0.013523,0.002678,0.000431,0.000353
30475000,0.0324,0.013523,0.002678,0.000431,0.000353
30476000,0.0324,0.013523,0.002678,0.000431,0.000235
30477000,0.0324,0.013523,0.002678,0.000431,0.000353
30478000,0.0324,0.013523,0.002678,0.000431,0.000470
30479000,0.0324,0.013523,0.002678,0.000431,0.000353
30480000,0.0324,0.013523,0.002678,0.000431,0.000235
30481000,0.0324,0.013523,0.002678,0.000431,0.000353
30482000,0.0324,0.013523,0.002678,0.000431,0.000353
30483000,0.0324,0.013523,0.002678,0.000431,0.000235
30484000,0.0324,0.013523,0.002678,0.000431,0.000353
30485000,0.0324,0.013523,0.002678,0.000431,0.000470
30486000,0.0324,0.013523,0.002678,0.000431,0.000353
30487000,0.0324,0.013523,0.002678,0.000431,0.000235
30488000,0.0324,0.013523,0.002678,0.000431,0.000353
30489000,0.0324,0.013523,0.002678,0.000431,0.000353
30490000,0.0324,0.013523,0.002678,0.000431,0.000235
30491000,0.0324,0.013523,0.002678,0.000431,0.000353
30492000,0.0324,0.013523,0.002678,0.000431,0.000470
30493000,0.0324,0.013523,0.002678,0.000431,0.000353
30494000,0.0324,0.013523,0.002678,0.000431,0.000118
30495000,0.0324,0.013523,0.002678,0.000431,0.000470
30496000,0.0324,0.013523,0.002678,0.000431,0.000353
30497000,0.0324,0.013523,0.002678,0.000431,0.000235
30498000,0.0324,0.013523,0.002678,0.000431,0.000353
30499000,0.0324,0.013523,0.002678,0.000431,0.000470
30500000,0.0324,0.013523,0.002678,0.000431,0.000353
30501000,0.0324,0.013523,0.002678,0.000431,0.000118
30502000,0.0324,0.013523,0.002678,0.000431,0.000470
30503000,0.0324,0.013523,0.002678,0.000431,0.000353
30504000,0.0324,0.013523,0.002678,0.000431,0.000235
30505000,0.0324,0.013523,0.002678,0.000431,0.000353
30506000,0.0324,0.013523,0.002678,0.000431,0.000470
30507000,0.0324,0.013523,0.002678,0.000431,0.000353
30508000,0.0324,0.013523,0.002678,0.000431,0.000118
30509000,0.0324,0.013523,0.002678,0.000431,0.000470
30510000,0.0324,0.013523,0.002678,0.000431,0.000353
30511000,0.0324,0.013523,0.002678,0.000431,0.000235
30512000,0.0324,0.013523,0.002678,0.000431,0.000353
30513000,0.0324,0.013523,0.002678,0.000431,0.000470
30514000,0.0324,0.013523,0.002678,0.000431,0.000353
30515000,0.0324,0.013523,0.002678,0.000431,0.000118
30516000,0.0324,0.013523,0.002678,0.000431,0.000470
30517000,0.0324,0.013523,0.002678,0.000431,0.000353
30518000,0.0324,0.013523,0.002678,0.000431,0.000235
30519000,0.0324,0.013523,0.002678,0.000431,0.000353
30520000,0.0324,0.013523,0.002678,0.000431,0.000470
30521000,0.0324,0.013523,0.002678,0.000431,0.000235
30522000,0.0324,0.013523,0.002678,0.000431,0.000235
30523000,0.0324,0.013523,0.002678,0.000431,0.000470
30524000,0.0324,0.013523,0.002678,0.000431,0.000353
30525000,0.0324,0.013523,0.002678,0.000431,0.000235
30526000,0.0324,0.013523,0.002678,0.000431,0.000353
30527000,0.0324,0.013523,0.002678,0.000431,0.000470
30528000,0.0324,0.013523,0.002678,0.000431,0.000235
30529000,0.0324,0.013523,0.002678,0.000431,0.000235
30530000,0.0324,0.013523,0.002678,0.000431,0.000470
30531000,0.0324,0.013523,0.002678,0.000431,0.000353
30532000,0.0324,0.013523,0.002678,0.000431,0.000235
30533000,0.0324,0.013523,0.002678,0.000431,0.000353
30534000,0.0324,0.013523,0.002678,0.000431,0.000470
30535000,0.0324,0.013523,0.002678,0.000431,0.000235
30536000,0.0324,0.013523,0.002678,0.000431,0.000235
30537000,0.0324,0.013523,0.002678,0.000431,0.000470
30538000,0.0324,0.013523,0.002678,0.000431,0.000353
30539000,0.0324,0.013523,0.002678,0.000431,0.000235
30540000,0.0324,0.013523,0.002678,0.000431,0.000353
30541000,0.0324,0.013523,0.002678,0.000431,0.000470
30542000,0.0324,0.013523,0.002678,0.000431,0.000235
30543000,0.0324,0.013523,0.002678,0.000431,0.000235
30544000,0.0324,0.013523,0.002678,0.000431,0.000470
30545000,0.0324,0.013523,0.002678,0.000431,0.000353
30546000,0.0324,0.013523,0.002678,0.000431,0.000235
30547000,0.0324,0.013523,0.002678,0.000431,0.000353
30548000,0.0324,0.013523,0.002678,0.000431,0.000470
30549000,0.0324,0.013523,0.002678,0.000431,0.000235
30550000,0.0324,0.013523,0.002678,0.000431,0.000235
30551000,0.0324,0.013523,0.002678,0.000431,0.000470
30552000,0.0324,0.013523,0.002678,0.000431,0.000353
30553000,0.0324,0.013523,0.002678,0.000431,0.000235
30554000,0.0324,0.013523,0.002678,0.000431,0.000353
30555000,0.0324,0.013523,0.002678,0.000431,0.000470
30556000,0.0324,0.013523,0.002678,0.000431,0.000235
30557000,0.0324,0.013523,0.002678,0.000431,0.000235
30558000,0.0324,0.013523,0.002678,0.000431,0.000470
30559000,0.0324,0.013523,0.002678,0.000431,0.000353
30560000,0.0324,0.013523,0.002678,0.000431,0.000235
30561000,0.0324,0.013523,0.002678,0.000431,0.000353
30562000,0.0324,0.013523,0.002678,0.000431,0.000470
30563000,0.0324,0.013523,0.002678,0.000431,0.000118
30564000,0.0324,0.013523,0.002678,0.000431,0.000353
30565000,0.0324,0.013523,0.002678,0.000431,0.000470
30566000,0.0324,0.013523,0.002678,0.000431,0.000353
30567000,0.0324,0.013523,0.002678,0.000431,0.000235
30568000,0.0324,0.013523,0.002678,0.000431,0.000353
30569000,0.0324,0.013523,0.002678,0.000431,0.000470
30570000,0.0324,0.013523,0.002678,0.000431,0.000118
30571000,0.0324,0.013523,0.002678,0.000431,0.000353
30572000,0.0324,0.013523,0.002678,0.000431,0.000470
30573000,0.0324,0.013523,0.002678,0.000431,0.000353
30574000,0.0324,0.013523,0.002678,0.000431,0.000235
30575000,0.0324,0.013523,0.002678,0.000431,0.000353
30576000,0.0324,0.013523,0.002678,0.000431,0.000470
30577000,0.0324,0.013523,0.002678,0.000431,0.000118
30578000,0.0324,0.013523,0.002678,0.000431,0.000353
30579000,0.0324,0.013523,0.002678,0.000431,0.000470
30580000,0.0324,0.013523,0.002678,0.000431,0.000353
30581000,0.0324,0.013523,0.002678,0.000431,0.000235
30582000,0.0324,0.013523,0.002678,0.000431,0.000353
30583000,0.0324,0.013523,0.002678,0.000431,0.000353
30584000,0.0324,0.013523,0.002678,0.000431,0.000235
30585000,0.0324,0.013523,0.002678,0.000431,0.000353
30586000,0.0324,0.013523,0.002678,0.000431,0.000470
30587000,0.0324,0.013523,0.002678,0.000431,0.000353
30588000,0.0324,0.013523,0.002678,0.000431,0.000235
30589000,0.0324,0.013523,0.002678,0.000431,0.000353
30590000,0.0324,0.013523,0.002678,0.000431,0.000353
30591000,0.0324,0.013523,0.002678,0.000431,0.000235
30592000,0.0324,0.013523,0.002678,0.000431,0.000353
30593000,0.0324,0.013523,0.002678,0.000431,0.000470
30594000,0.0324,0.013523,0.002678,0.000431,0.000353
30595000,0.0324,0.013523,0.002678,0.000431,0.000235
30596000,0.0324,0.013523,0.002678,0.000431,0.000353
30597000,0.0324,0.013523,0.002678,0.000431,0.000353
30598000,0.0324,0.013523,0.002678,0.000431,0.000235
30599000,0.0324,0.013523,0.002678,0.000431,0.000353
30600000,0.0324,0.013523,0.002678,0.000431,0.000470
30601000,0.0324,0.013523,0.002678,0.000431,0.000353
30602000,0.0324,0.013523,0.002678,0.000431,0.000235
30603000,0.0324,0.013523,0.002678,0.000431,0.000353
30604000,0.0324,0.013523,0.002678,0.000431,0.000353
30605000,0.0324,0.013523,0.002678,0.000431,0.000235
30606000,0.0324,0.013523,0.002678,0.000431,0.000353
30607000,0.0324,0.013523,0.002678,0.000431,0.000470
30608000,0.0324,0.013523,0.002678,0.000431,0.000353
30609000,0.0324,0.013523,0.002678,0.000431,0.000235
30610000,0.0324,0.013523,0.002678,0.000431,0.000353
30611000,0.0324,0.013523,0.002678,0.000431,0.000353
30612000,0.0324,0.013523,0.002678,0.000431,0.000235
30613000,0.0324,0.013523,0.002678,0.000431,0.000353
30614000,0.0324,0.013523,0.002678,0.000431,0.000470
30615000,0.0324,0.013523,0.002678,0.000431,0.000353
30616000,0.0324,0.013523,0.002678,0.000431,0.000235
30617000,0.0324,0.013523,0.002678,0.000431,0.000353
30618000,0.0324,0.013523,0.002678,0.000431,0.000353
30619000,0.0324,0.013523,0.002678,0.000431,0.000235
30620000,0.0324,0.013523,0.002678,0.000431,0.000353
30621000,0.0324,0.013523,0.002678,0.000431,0.000470
30622000,0.0324,0.013523,0.002678,0.000431,0.000353
30623000,0.0324,0.013523,0.002678,0.000431,0.000235
30624000,0.0324,0.013523,0.002678,0.000431,0.000353
30625000,0.0324,0.013523,0.002678,0.000431,0.000353
30626000,0.0324,0.013523,0.002678,0.000431,0.000235
30627000,0.0324,0.013523,0.002678,0.000431,0.000353
30628000,0.0324,0.013523,0.002678,0.000431,0.000470
30629000,0.0324,0.013523,0.002678,0.000431,0.000353
30630000,0.0324,0.013523,0.002678,0.000431,0.000235
30631000,0.0324,0.013523,0.002678,0.000431,0.000353
30632000,0.0324,0.013523,0.002678,0.000431,0.000353
30633000,0.0324,0.013523,0.002678,0.000431,0.000235
30634000,0.0324,0.013523,0.002678,0.000431,0.000353
30635000,0.0324,0.013523,0.002678,0.000431,0.000470
30636000,0.0324,0.013523,0.002678,0.000431,0.000353
30637000,0.0324,0.013523,0.002678,0.000431,0.000118
30638000,0.0324,0.013523,0.002678,0.000431,0.000470
30639000,0.0324,0.013523,0.002678,0.000431,0.000353
30640000,0.0324,0.013523,0.002678,0.000431,0.000235
30641000,0.0324,0.013523,0.002678,0.000431,0.000353
30642000,0.0324,0.013523,0.002678,0.000431,0.000470
30643000,0.0324,0.013523,0.002678,0.000431,0.000353
30644000,0.0324,0.013523,0.002678,0.000431,0.000118
30645000,0.0324,0.013523,0.002678,0.000431,0.000470
30646000,0.0324,0.013523,0.002678,0.000431,0.000353
30647000,0.0324,0.013523,0.002678,0.000431,0.000235
30648000,0.0324,0.013523,0.002678,0.000431,0.000353
30649000,0.0324,0.013523,0.002678,0.000431,0.000470
30650000,0.0324,0.013523,0.002678,0.000431,0.000353
30651000,0.0324,0.013523,0.002678,0.000431,0.000118
30652000,0.0324,0.013523,0.002678,0.000431,0.000470
30653000,0.0324,0.013523,0.002678,0.000431,0.000353
30654000,0.0324,0.013523,0.002678,0.000431,0.000235
30655000,0.0324,0.013523,0.002678,0.000431,0.000353
30656000,0.0324,0.013523,0.002678,0.000431,0.000470
30657000,0.0324,0.013523,0.002678,0.000431,0.000235
30658000,0.0324,0.013523,0.002678,0.000431,0.000235
30659000,0.0324,0.013523,0.002678,0.000431,0.000470
30660000,0.0324,0.013523,0.002678,0.000431,0.000353
30661000,0.0324,0.013523,0.002678,0.000431,0.000235
30662000,0.0324,0.013523,0.002678,0.000431,0.000353
30663000,0.0324,0.013523,0.002678,0.000431,0.000470
30664000,0.0324,0.013523,0.002678,0.000431,0.000235
30665000,0.0324,0.013523,0.002678,0.000431,0.000235
30666000,0.0324,0.013523,0.002678,0.000431,0.000470
30667000,0.0324,0.013523,0.002678,0.000431,0.000353
30668000,0.0324,0.013523,0.002678,0.000431,0.000235
30669000,0.0324,0.013523,0.002678,0.000431,0.000353
30670000,0.0324,0.013523,0.002678,0.000431,0.000470
30671000,0.0324,0.013523,0.002678,0.000431,0.000235
30672000,0.0324,0.013523,0.002678,0.000431,0.000235
30673000,0.0324,0.013523,0.002678,0.000431,0.000470
30674000,0.0324,0.013523,0.002678,0.000431,0.000353
30675000,0.0324,0.013523,0.002678,0.000431,0.000235
30676000,0.0324,0.013523,0.002678,0.000431,0.000353
30677000,0.0324,0.013523,0.002678,0.000431,0.000470
30678000,0.0324,0.013523,0.002678,0.000431,0.000235
30679000,0.0324,0.013523,0.002678,0.000431,0.000235
30680000,0.0324,0.013523,0.002678,0.000431,0.000470
30681000,0.0324,0.013523,0.002678,0.000431,0.000353
30682000,0.0324,0.013523,0.002678,0.000431,0.000235
30683000,0.0324,0.013523,0.002678,0.000431,0.000353
30684000,0.0324,0.013523,0.002678,0.000431,0.000470
30685000,0.0324,0.013523,0.002678,0.000431,0.000235
30686000,0.0324,0.013523,0.002678,0.000431,0.000235
30687000,0.0324,0.013523,0.002678,0.000431,0.000470
30688000,0.0324,0.013523,0.002678,0.000431,0.000353
30689000,0.0324,0.013523,0.002678,0.000431,0.000235
30690000,0.0324,0.013523,0.002678,0.000431,0.000353
30691000,0.0324,0.013523,0.002678,0.000431,0.000470
30692000,0.0324,0.013523,0.002678,0.000431,0.000235
30693000,0.0324,0.013523,0.002678,0.000431,0.000235
30694000,0.0324,0.013523,0.002678,0.000431,0.000470
30695000,0.0324,0.013523,0.002678,0.000431,0.000353
30696000,0.0324,0.013523,0.002678,0.000431,0.000235
30697000,0.0324,0.013523,0.002678,0.000431,0.000353
30698000,0.0324,0.013523,0.002678,0.000431,0.000470
30699000,0.0324,0.013523,0.002678,0.000431,0.000118
30700000,0.0324,0.013523,0.002678,0.000431,0.000353
30701000,0.0324,0.013523,0.002678,0.000431,0.000470
30702000,0.0324,0.013523,0.002678,0.000431,0.000353
30703000,0.0324,0.013523,0.002678,0.000431,0.000235
30704000,0.0324,0.013523,0.002678,0.000431,0.000353
30705000,0.0324,0.013523,0.002678,0.000431,0.000470
30706000,0.0324,0.013523,0.002678,0.000431,0.000118
30707000,0.0324,0.013523,0.002678,0.000431,0.000353
30708000,0.0324,0.013523,0.002678,0.000431,0.000470
30709000,0.0324,0.013523,0.002678,0.000431,0.000353
30710000,0.0324,0.013523,0.002678,0.000431,0.000235
30711000,0.0324,0.013523,0.002678,0.000431,0.000353
30712000,0.0324,0.013523,0.002678,0.000431,0.000470
30713000,0.0324,0.013523,0.002678,0.000431,0.000118
30714000,0.0324,0.013523,0.002678,0.000431,0.000353
30715000,0.0324,0.013523,0.002678,0.000431,0.000470
30716000,0.0324,0.013523,0.002678,0.000431,0.000353
30717000,0.0324,0.013523,0.002678,0.000431,0.000235
30718000,0.0324,0.013523,0.002678,0.000431,0.000353
30719000,0.0324,0.013523,0.002678,0.000431,0.000470
30720000,0.0324,0.013523,0.002678,0.000431,0.000118
30721000,0.0324,0.013523,0.002678,0.000431,0.000353
30722000,0.0324,0.013523,0.002678,0.000431,0.000470
30723000,0.0324,0.013523,0.002678,0.000431,0.000353
30724000,0.0324,0.013523,0.002678,0.000431,0.000235
30725000,0.0324,0.013523,0.002678,0.000431,0.000353
30726000,0.0324,0.013523,0.002678,0.000431,0.000353
30727000,0.0324,0.013523,0.002678,0.000431,0.000235
30728000,0.0324,0.013523,0.002678,0.000431,0.000353
30729000,0.0324,0.013523,0.002678,0.000431,0.000470
30730000,0.0324,0.013523,0.002678,0.000431,0.000353
30731000,0.0324,0.013523,0.002678,0.000431,0.000235
30732000,0.0324,0.013523,0.002678,0.000431,0.000353
30733000,0.0324,0.013523,0.002678,0.000431,0.000353
30734000,0.0324,0.013523,0.002678,0.000431,0.000235
30735000,0.0324,0.013523,0.002678,0.000431,0.000353
30736000,0.0324,0.013523,0.002678,0.000431,0.000470
30737000,0.0324,0.013523,0.002678,0.000431,0.000353
30738000,0.0324,0.013523,0.002678,0.000431,0.000235
30739000,0.0324,0.013523,0.002678,0.000431,0.000353
30740000,0.0324,0.013523,0.002678,0.000431,0.000353
30741000,0.0324,0.013523,0.002678,0.000431,0.000235
30742000,0.0324,0.013523,0.002678,0.000431,0.000353
30743000,0.0324,0.013523,0.002678,0.000431,0.000470
30744000,0.0324,0.013523,0.002678,0.000431,0.000353
30745000,0.0324,0.013523,0.002678,0.000431,0.000235
30746000,0.0324,0.013523,0.002678,0.000431,0.000353
30747000,0.0324,0.013523,0.002678,0.000431,0.000353
30748000,0.0324,0.013523,0.002678,0.000431,0.000235
30749000,0.0324,0.013523,0.002678,0.000431,0.000353
30750000,0.0324,0.013523,0.002678,0.000431,0.000470
30751000,0.0324,0.013523,0.002678,0.000431,0.000353
30752000,0.0324,0.013523,0.002678,0.000431,0.000235
30753000,0.0324,0.013523,0.002678,0.000431,0.000353
30754000,0.0324,0.013523,0.002678,0.000431,0.000353
30755000,0.0324,0.013523,0.002678,0.000431,0.000235
30756000,0.0324,0.013523,0.002678,0.000431,0.000353
30757000,0.0324,0.013523,0.002678,0.000431,0.000470
30758000,0.0324,0.013523,0.002678,0.000431,0.000353
30759000,0.0324,0.013523,0.002678,0.000431,0.000235
30760000,0.0324,0.013523,0.002678,0.000431,0.000353
30761000,0.0324,0.013523,0.002678,0.000431,0.000353
30762000,0.0324,0.013523,0.002678,0.000431,0.000235
30763000,0.0324,0.013523,0.002678,0.000431,0.000353
30764000,0.0324,0.013523,0.002678,0.000431,0.000470
30765000,0.0324,0.013523,0.002678,0.000431,0.000353
30766000,0.0324,0.013523,0.002678,0.000431,0.000235
30767000,0.0324,0.013523,0.002678,0.000431,0.000353
30768000,0.0324,0.013523,0.002678,0.000431,0.000353
30769000,0.0324,0.013523,0.002678,0.000431,0.000235
30770000,0.0324,0.013523,0.002678,0.000431,0.000353
30771000,0.0324,0.013523,0.002678,0.000431,0.000470
30772000,0.0324,0.013523,0.002678,0.000431,0.000353
30773000,0.0324,0.013523,0.002678,0.000431,0.000235
30774000,0.0324,0.013523,0.002678,0.000431,0.000353
30775000,0.0324,0.013523,0.002678,0.000431,0.000353
30776000,0.0324,0.013523,0.002678,0.000431,0.000235
30777000,0.0324,0.013523,0.002678,0.000431,0.000353
30778000,0.0324,0.013523,0.002678,0.000431,0.000470
30779000,0.0324,0.013523,0.002678,0.000431,0.000353
30780000,0.0324,0.013523,0.002678,0.000431,0.000118
30781000,0.0324,0.013523,0.002678,0.000431,0.000470
30782000,0.0324,0.013523,0.002678,0.000431,0.000353
30783000,0.0324,0.013523,0.002678,0.000431,0.000235
30784000,0.0324,0.013523,0.002678,0.000431,0.000353
30785000,0.0324,0.013523,0.002678,0.000431,0.000470
30786000,0.0324,0.013523,0.002678,0.000431,0.000353
30787000,0.0324,0.013523,0.002678,0.000431,0.000118
30788000,0.0324,0.013523,0.002678,0.000431,0.000470
30789000,0.0324,0.013523,0.002678,0.000431,0.000353
30790000,0.0324,0.013523,0.002678,0.000431,0.000235
30791000,0.0324,0.013523,0.002678,0.000431,0.000353
30792000,0.0324,0.013523,0.002678,0.000431,0.000470
30793000,0.0324,0.013523,0.002678,0.000431,0.000353
30794000,0.0324,0.013523,0.002678,0.000431,0.000118
30795000,0.0324,0.013523,0.002678,0.000431,0.000470
30796000,0.0324,0.013523,0.002678,0.000431,0.000353
30797000,0.0324,0.013523,0.002678,0.000431,0.000235
30798000,0.0324,0.013523,0.002678,0.000431,0.000353
30799000,0.0324,0.013523,0.002678,0.000431,0.000470
30800000,0.0324,0.013523,0.002678,0.000431,0.000235
30801000,0.0324,0.013523,0.002678,0.000431,0.000235
30802000,0.0324,0.013523,0.002678,0.000431,0.000470
30803000,0.0324,0.013523,0.002678,0.000431,0.000353
30804000,0.0324,0.013523,0.002678,0.000431,0.000235
30805000,0.0324,0.013523,0.002678,0.000431,0.000353
30806000,0.0324,0.013523,0.002678,0.000431,0.000470
30807000,0.0324,0.013523,0.002678,0.000431,0.000235
30808000,0.0324,0.013523,0.002678,0.000431,0.000235
30809000,0.0324,0.013523,0.002678,0.000431,0.000470
30810000,0.0324,0.013523,0.002678,0.000431,0.000353
30811000,0.0324,0.013523,0.002678,0.000431,0.000235
30812000,0.0324,0.013523,0.002678,0.000431,0.000353
30813000,0.0324,0.013523,0.002678,0.000431,0.000470
30814000,0.0324,0.013523,0.002678,0.000431,0.000235
30815000,0.0324,0.013523,0.002678,0.000431,0.000235
30816000,0.0324,0.013523,0.002678,0.000431,0.000470
30817000,0.0324,0.013523,0.002678,0.000431,0.000353
30818000,0.0324,0.013523,0.002678,0.000431,0.000235
30819000,0.0324,0.013523,0.002678,0.000431,0.000353
30820000,0.0324,0.013523,0.002678,0.000431,0.000470
30821000,0.0324,0.013523,0.002678,0.000431,0.000235
30822000,0.0324,0.013523,0.002678,0.000431,0.000235
30823000,0.0324,0.013523,0.002678,0.000431,0.000470
30824000,0.0324,0.013523,0.002678,0.000431,0.000353
30825000,0.0324,0.013523,0.002678,0.000431,0.000235
30826000,0.0324,0.013523,0.002678,0.000431,0.000353
30827000,0.0324,0.013523,0.002678,0.000431,0.000470
30828000,0.0324,0.013523,0.002678,0.000431,0.000235
30829000,0.0324,0.013523,0.002678,0.000431,0.000235
30830000,0.0324,0.013523,0.002678,0.000431,0.000470
30831000,0.0324,0.013523,0.002678,0.000431,0.000353
30832000,0.0324,0.013523,0.002678,0.000431,0.000235
30833000,0.0324,0.013523,0.002678,0.000431,0.000353
30834000,0.0324,0.013523,0.002678,0.000431,0.000470
30835000,0.0324,0.013523,0.002678,0.000431,0.000235
30836000,0.0324,0.013523,0.002678,0.000431,0.000235
30837000,0.0324,0.013523,0.002678,0.000431,0.000470
30838000,0.0324,0.013523,0.002678,0.000431,0.000353
30839000,0.0324,0.013523,0.002678,0.000431,0.000235
30840000,0.0324,0.013523,0.002678,0.000431,0.000353
30841000,0.0324,0.013523,0.002678,0.000431,0.000470
30842000,0.0324,0.013523,0.002678,0.000431,0.000118
30843000,0.0324,0.013523,0.002678,0.000431,0.000353
30844000,0.0324,0.013523,0.002678,0.000431,0.000470
30845000,0.0324,0.013523,0.002678,0.000431,0.000353
30846000,0.0324,0.013523,0.002678,0.000431,0.000235
30847000,0.0324,0.013523,0.002678,0.000431,0.000353
30848000,0.0324,0.013523,0.002678,0.000431,0.000470
30849000,0.0324,0.013523,0.002678,0.000431,0.000118
30850000,0.0324,0.013523,0.002678,0.000431,0.000353
30851000,0.0324,0.013523,0.002678,0.000431,0.000470
30852000,0.0324,0.013523,0.002678,0.000431,0.000353
30853000,0.0324,0.013523,0.002678,0.000431,0.000235
30854000,0.0324,0.013523,0.002678,0.000431,0.000353
30855000,0.0324,0.013523,0.002678,0.000431,0.000470
30856000,0.0324,0.013523,0.002678,0.000431,0.000118
30857000,0.0324,0.013523,0.002678,0.000431,0.000353
30858000,0.0324,0.013523,0.002678,0.000431,0.000470
30859000,0.0324,0.013523,0.002678,0.000431,0.000353
30860000,0.0324,0.013523,0.002678,0.000431,0.000235
30861000,0.0324,0.013523,0.002678,0.000431,0.000353
30862000,0.0324,0.013523,0.002678,0.000431,0.000353
30863000,0.0324,0.013523,0.002678,0.000431,0.000235
30864000,0.0324,0.013523,0.002678,0.000431,0.000353
30865000,0.0324,0.013523,0.002678,0.000431,0.000470
30866000,0.0324,0.013523,0.002678,0.000431,0.000353
30867000,0.0324,0.013523,0.002678,0.000431,0.000235
30868000,0.0324,0.013523,0.002678,0.000431,0.000353
30869000,0.0324,0.013523,0.002678,0.000431,0.000353
30870000,0.0324,0.013523,0.002678,0.000431,0.000235
30871000,0.0324,0.013523,0.002678,0.000431,0.000353
30872000,0.0324,0.013523,0.002678,0.000431,0.000470
30873000,0.0324,0.013523,0.002678,0.000431,0.000353
30874000,0.0324,0.013523,0.002678,0.000431,0.000235
30875000,0.0324,0.013523,0.002678,0.000431,0.000353
30876000,0.0324,0.013523,0.002678,0.000431,0.000353
30877000,0.0324,0.013523,0.002678,0.000431,0.000235
30878000,0.0324,0.013523,0.002678,0.000431,0.000353
30879000,0.0324,0.013523,0.002678,0.000431,0.000470
30880000,0.0324,0.013523,0.002678,0.000431,0.000353
30881000,0.0324,0.013523,0.002678,0.000431,0.000235
30882000,0.0324,0.013523,0.002678,0.000431,0.000353
30883000,0.0324,0.013523,0.002678,0.000431,0.000353
30884000,0.0324,0.013523,0.002678,0.000431,0.000235
30885000,0.0324,0.013523,0.002678,0.000431,0.000353
30886000,0.0324,0.013523,0.002678,0.000431,0.000470
30887000,0.0324,0.013523,0.002678,0.000431,0.000353
30888000,0.0324,0.013523,0.002678,0.000431,0.000235
30889000,0.0324,0.013523,0.002678,0.000431,0.000353
30890000,0.0324,0.013523,0.002678,0.000431,0.000353
30891000,0.0324,0.013523,0.002678,0.000431,0.000235
30892000,0.0324,0.013523,0.002678,0.000431,0.000353
30893000,0.0324,0.013523,0.002678,0.000431,0.000470
30894000,0.0324,0.013523,0.002678,0.000431,0.000353
30895000,0.0324,0.013523,0.002678,0.000431,0.000235
30896000,0.0324,0.013523,0.002678,0.000431,0.000353
30897000,0.0324,0.013523,0.002678,0.000431,0.000353
30898000,0.0324,0.013523,0.002678,0.000431,0.000235
30899000,0.0324,0.013523,0.002678,0.000431,0.000353
30900000,0.0324,0.013523,0.002678,0.000431,0.000470
30901000,0.0324,0.013523,0.002678,0.000431,0.000353
30902000,0.0324,0.013523,0.002678,0.000431,0.000235
30903000,0.0324,0.013523,0.002678,0.000431,0.000353
30904000,0.0324,0.013523,0.002678,0.000431,0.000353
30905000,0.0324,0.013523,0.002678,0.000431,0.000235
30906000,0.0324,0.013523,0.002678,0.000431,0.000353
30907000,0.0324,0.013523,0.002678,0.000431,0.000470
30908000,0.0324,0.013523,0.002678,0.000431,0.000353
30909000,0.0324,0.013523,0.002678,0.000431,0.000235
30910000,0.0324,0.013523,0.002678,0.000431,0.000353
30911000,0.0324,0.013523,0.002678,0.000431,0.000353
30912000,0.0324,0.013523,0.002678,0.000431,0.000235
30913000,0.0324,0.013523,0.002678,0.000431,0.000353
30914000,0.0324,0.013523,0.002678,0.000431,0.000470
30915000,0.0324,0.013523,0.002678,0.000431,0.000353
30916000,0.0324,0.013523,0.002678,0.000431,0.000118
30917000,0.0324,0.013523,0.002678,0.000431,0.000470
30918000,0.0324,0.013523,0.002678,0.000431,0.000353
30919000,0.0324,0.013523,0.002678,0.000431,0.000235
30920000,0.0324,0.013523,0.002678,0.000431,0.000353
30921000,0.0324,0.013523,0.002678,0.000431,0.000470
30922000,0.0324,0.013523,0.002678,0.000431,0.000353
30923000,0.0324,0.013523,0.002678,0.000431,0.000118
30924000,0.0324,0.013523,0.002678,0.000431,0.000470
30925000,0.0324,0.013523,0.002678,0.000431,0.000353
30926000,0.0324,0.013523,0.002678,0.000431,0.000235
30927000,0.0324,0.013523,0.002678,0.000431,0.000353
30928000,0.0324,0.013523,0.002678,0.000431,0.000470
30929000,0.0324,0.013523,0.002678,0.000431,0.000353
30930000,0.0324,0.013523,0.002678,0.000431,0.000118
30931000,0.0324,0.013523,0.002678,0.000431,0.000470
30932000,0.0324,0.013523,0.002678,0.000431,0.000353
30933000,0.0324,0.013523,0.002678,0.000431,0.000235
30934000,0.0324,0.013523,0.002678,0.000431,0.000353
30935000,0.0324,0.013523,0.002678,0.000431,0.000470
30936000,0.0324,0.013523,0.002678,0.000431,0.000353
30937000,0.0324,0.013523,0.002678,0.000431,0.000118
30938000,0.0324,0.013523,0.002678,0.000431,0.000470
30939000,0.0324,0.013523,0.002678,0.000431,0.000353
30940000,0.0324,0.013523,0.002678,0.000431,0.000235
30941000,0.0324,0.013523,0.002678,0.000431,0.000353
30942000,0.0324,0.013523,0.002678,0.000431,0.000470
30943000,0.0324,0.013523,0.002678,0.000431,0.000235
30944000,0.0324,0.013523,0.002678,0.000431,0.000235
30945000,0.0324,0.013523,0.002678,0.000431,0.000470
30946000,0.0324,0.013523,0.002678,0.000431,0.000353
30947000,0.0324,0.013523,0.002678,0.000431,0.000235
30948000,0.0324,0.013523,0.002678,0.000431,0.000353
30949000,0.0324,0.013523,0.002678,0.000431,0.000470
30950000,0.0324,0.013523,0.002678,0.000431,0.000235
30951000,0.0324,0.013523,0.002678,0.000431,0.000235
30952000,0.0324,0.013523,0.002678,0.000431,0.000470
30953000,0.0324,0.013523,0.002678,0.000431,0.000353
30954000,0.0324,0.013523,0.002678,0.000431,0.000235
30955000,0.0324,0.013523,0.002678,0.000431,0.000353
30956000,0.0324,0.013523,0.002678,0.000431,0.000470
30957000,0.0324,0.013523,0.002678,0.000431,0.000235
30958000,0.0324,0.013523,0.002678,0.000431,0.000235
30959000,0.0324,0.013523,0.002678,0.000431,0.000470
30960000,0.0324,0.013523,0.002678,0.000431,0.000353
30961000,0.0324,0.013523,0.002678,0.000431,0.000235
30962000,0.0324,0.013523,0.002678,0.000431,0.000353
30963000,0.0324,0.013523,0.002678,0.000431,0.000470
30964000,0.0324,0.013523,0.002678,0.000431,0.000235
30965000,0.0324,0.013523,0.002678,0.000431,0.000235
30966000,0.0324,0.013523,0.002678,0.000431,0.000470
30967000,0.0324,0.013523,0.002678,0.000431,0.000353
30968000,0.0324,0.013523,0.002678,0.000431,0.000235
30969000,0.0324,0.013523,0.002678,0.000431,0.000353
30970000,0.0324,0.013523,0.002678,0.000431,0.000470
30971000,0.0324,0.013523,0.002678,0.000431,0.000235
30972000,0.0324,0.013523,0.002678,0.000431,0.000235
30973000,0.0324,0.013523,0.002678,0.000431,0.000470
30974000,0.0324,0.013523,0.002678,0.000431,0.000353
30975000,0.0324,0.013523,0.002678,0.000431,0.000235
30976000,0.0324,0.013523,0.002678,0.000431,0.000353
30977000,0.0324,0.013523,0.002678,0.000431,0.000470
30978000,0.0324,0.013523,0.002678,0.000431,0.000235
30979000,0.0324,0.013523,0.002678,0.000431,0.000235
30980000,0.0324,0.013523,0.002678,0.000431,0.000470
30981000,0.0324,0.013523,0.002678,0.000431,0.000353
30982000,0.0324,0.013523,0.002678,0.000431,0.000235
30983000,0.0324,0.013523,0.002678,0.000431,0.000353
30984000,0.0324,0.013523,0.002678,0.000431,0.000470
30985000,0.0324,0.013523,0.002678,0.000431,0.000118
30986000,0.0324,0.013523,0.002678,0.000431,0.000353
30987000,0.0324,0.013523,0.002678,0.000431,0.000470
30988000,0.0324,0.013523,0.002678,0.000431,0.000353
30989000,0.0324,0.013523,0.002678,0.000431,0.000235
30990000,0.0324,0.013523,0.002678,0.000431,0.000353
30991000,0.0324,0.013523,0.002678,0.000431,0.000470
30992000,0.0324,0.013523,0.002678,0.000431,0.000118
30993000,0.0324,0.013523,0.002678,0.000431,0.000353
30994000,0.0324,0.013523,0.002678,0.000431,0.000470
30995000,0.0324,0.013523,0.002678,0.000431,0.000353
30996000,0.0324,0.013523,0.002678,0.000431,0.000235
30997000,0.0324,0.013523,0.002678,0.000431,0.000353
30998000,0.0324,0.013523,0.002678,0.000431,0.000470
30999000,0.0324,0.013523,0.002678,0.000431,0.000118
