Cycle,Area(mm^2),PeakDynamic(W),SubthresholdLeakage(W),GateLeakage(W),RunTimeDynamic(W)
26000000,0.0324,0.013523,0.002678,0.000431,0.000235
26001000,0.0324,0.013523,0.002678,0.000431,0.000470
26002000,0.0324,0.013523,0.002678,0.000431,0.000353
26003000,0.0324,0.013523,0.002678,0.000431,0.000235
26004000,0.0324,0.013523,0.002678,0.000431,0.000353
26005000,0.0324,0.013523,0.002678,0.000431,0.000470
26006000,0.0324,0.013523,0.002678,0.000431,0.000118
26007000,0.0324,0.013523,0.002678,0.000431,0.000353
26008000,0.0324,0.013523,0.002678,0.000431,0.000470
26009000,0.0324,0.013523,0.002678,0.000431,0.000353
26010000,0.0324,0.013523,0.002678,0.000431,0.000235
26011000,0.0324,0.013523,0.002678,0.000431,0.000353
26012000,0.0324,0.013523,0.002678,0.000431,0.000470
26013000,0.0324,0.013523,0.002678,0.000431,0.000118
26014000,0.0324,0.013523,0.002678,0.000431,0.000353
26015000,0.0324,0.013523,0.002678,0.000431,0.000470
26016000,0.0324,0.013523,0.002678,0.000431,0.000353
26017000,0.0324,0.013523,0.002678,0.000431,0.000235
26018000,0.0324,0.013523,0.002678,0.000431,0.000353
26019000,0.0324,0.013523,0.002678,0.000431,0.000353
26020000,0.0324,0.013523,0.002678,0.000431,0.000235
26021000,0.0324,0.013523,0.002678,0.000431,0.000353
26022000,0.0324,0.013523,0.002678,0.000431,0.000470
26023000,0.0324,0.013523,0.002678,0.000431,0.000353
26024000,0.0324,0.013523,0.002678,0.000431,0.000235
26025000,0.0324,0.013523,0.002678,0.000431,0.000353
26026000,0.0324,0.013523,0.002678,0.000431,0.000353
26027000,0.0324,0.013523,0.002678,0.000431,0.000235
26028000,0.0324,0.013523,0.002678,0.000431,0.000353
26029000,0.0324,0.013523,0.002678,0.000431,0.000470
26030000,0.0324,0.013523,0.002678,0.000431,0.000353
26031000,0.0324,0.013523,0.002678,0.000431,0.000118
26032000,0.0324,0.013523,0.002678,0.000431,0.000470
26033000,0.0324,0.013523,0.002678,0.000431,0.000353
26034000,0.0324,0.013523,0.002678,0.000431,0.000235
26035000,0.0324,0.013523,0.002678,0.000431,0.000353
26036000,0.0324,0.013523,0.002678,0.000431,0.000470
26037000,0.0324,0.013523,0.002678,0.000431,0.000353
26038000,0.0324,0.013523,0.002678,0.000431,0.000118
26039000,0.0324,0.013523,0.002678,0.000431,0.000470
26040000,0.0324,0.013523,0.002678,0.000431,0.000353
26041000,0.0324,0.013523,0.002678,0.000431,0.000235
26042000,0.0324,0.013523,0.002678,0.000431,0.000353
26043000,0.0324,0.013523,0.002678,0.000431,0.000470
26044000,0.0324,0.013523,0.002678,0.000431,0.000235
26045000,0.0324,0.013523,0.002678,0.000431,0.000235
26046000,0.0324,0.013523,0.002678,0.000431,0.000470
26047000,0.0324,0.013523,0.002678,0.000431,0.000353
26048000,0.0324,0.013523,0.002678,0.000431,0.000235
26049000,0.0324,0.013523,0.002678,0.000431,0.000353
26050000,0.0324,0.013523,0.002678,0.000431,0.000470
26051000,0.0324,0.013523,0.002678,0.000431,0.000235
26052000,0.0324,0.013523,0.002678,0.000431,0.000235
26053000,0.0324,0.013523,0.002678,0.000431,0.000470
26054000,0.0324,0.013523,0.002678,0.000431,0.000353
26055000,0.0324,0.013523,0.002678,0.000431,0.000235
26056000,0.0324,0.013523,0.002678,0.000431,0.000353
26057000,0.0324,0.013523,0.002678,0.000431,0.000470
26058000,0.0324,0.013523,0.002678,0.000431,0.000118
26059000,0.0324,0.013523,0.002678,0.000431,0.000353
26060000,0.0324,0.013523,0.002678,0.000431,0.000470
26061000,0.0324,0.013523,0.002678,0.000431,0.000353
26062000,0.0324,0.013523,0.002678,0.000431,0.000235
26063000,0.0324,0.013523,0.002678,0.000431,0.000353
26064000,0.0324,0.013523,0.002678,0.000431,0.000470
26065000,0.0324,0.013523,0.002678,0.000431,0.000118
26066000,0.0324,0.013523,0.002678,0.000431,0.000353
26067000,0.0324,0.013523,0.002678,0.000431,0.000470
26068000,0.0324,0.013523,0.002678,0.000431,0.000353
26069000,0.0324,0.013523,0.002678,0.000431,0.000235
26070000,0.0324,0.013523,0.002678,0.000431,0.000353
26071000,0.0324,0.013523,0.002678,0.000431,0.000470
26072000,0.0324,0.013523,0.002678,0.000431,0.000118
26073000,0.0324,0.013523,0.002678,0.000431,0.000353
26074000,0.0324,0.013523,0.002678,0.000431,0.000470
26075000,0.0324,0.013523,0.002678,0.000431,0.000353
26076000,0.0324,0.013523,0.002678,0.000431,0.000235
26077000,0.0324,0.013523,0.002678,0.000431,0.000353
26078000,0.0324,0.013523,0.002678,0.000431,0.000470
26079000,0.0324,0.013523,0.002678,0.000431,0.000118
26080000,0.0324,0.013523,0.002678,0.000431,0.000353
26081000,0.0324,0.013523,0.002678,0.000431,0.000470
26082000,0.0324,0.013523,0.002678,0.000431,0.000353
26083000,0.0324,0.013523,0.002678,0.000431,0.000235
26084000,0.0324,0.013523,0.002678,0.000431,0.000353
26085000,0.0324,0.013523,0.002678,0.000431,0.000353
26086000,0.0324,0.013523,0.002678,0.000431,0.000235
26087000,0.0324,0.013523,0.002678,0.000431,0.000353
26088000,0.0324,0.013523,0.002678,0.000431,0.000470
26089000,0.0324,0.013523,0.002678,0.000431,0.000353
26090000,0.0324,0.013523,0.002678,0.000431,0.000235
26091000,0.0324,0.013523,0.002678,0.000431,0.000353
26092000,0.0324,0.013523,0.002678,0.000431,0.000353
26093000,0.0324,0.013523,0.002678,0.000431,0.000235
26094000,0.0324,0.013523,0.002678,0.000431,0.000353
26095000,0.0324,0.013523,0.002678,0.000431,0.000470
26096000,0.0324,0.013523,0.002678,0.000431,0.000353
26097000,0.0324,0.013523,0.002678,0.000431,0.000235
26098000,0.0324,0.013523,0.002678,0.000431,0.000353
26099000,0.0324,0.013523,0.002678,0.000431,0.000353
26100000,0.0324,0.013523,0.002678,0.000431,0.000235
26101000,0.0324,0.013523,0.002678,0.000431,0.000353
26102000,0.0324,0.013523,0.002678,0.000431,0.000470
26103000,0.0324,0.013523,0.002678,0.000431,0.000353
26104000,0.0324,0.013523,0.002678,0.000431,0.000235
26105000,0.0324,0.013523,0.002678,0.000431,0.000353
26106000,0.0324,0.013523,0.002678,0.000431,0.000353
26107000,0.0324,0.013523,0.002678,0.000431,0.000235
26108000,0.0324,0.013523,0.002678,0.000431,0.000353
26109000,0.0324,0.013523,0.002678,0.000431,0.000470
26110000,0.0324,0.013523,0.002678,0.000431,0.000353
26111000,0.0324,0.013523,0.002678,0.000431,0.000235
26112000,0.0324,0.013523,0.002678,0.000431,0.000353
26113000,0.0324,0.013523,0.002678,0.000431,0.000353
26114000,0.0324,0.013523,0.002678,0.000431,0.000235
26115000,0.0324,0.013523,0.002678,0.000431,0.000353
26116000,0.0324,0.013523,0.002678,0.000431,0.000470
26117000,0.0324,0.013523,0.002678,0.000431,0.000353
26118000,0.0324,0.013523,0.002678,0.000431,0.000235
26119000,0.0324,0.013523,0.002678,0.000431,0.000353
26120000,0.0324,0.013523,0.002678,0.000431,0.000353
26121000,0.0324,0.013523,0.002678,0.000431,0.000235
26122000,0.0324,0.013523,0.002678,0.000431,0.000353
26123000,0.0324,0.013523,0.002678,0.000431,0.000470
26124000,0.0324,0.013523,0.002678,0.000431,0.000353
26125000,0.0324,0.013523,0.002678,0.000431,0.000235
26126000,0.0324,0.013523,0.002678,0.000431,0.000353
26127000,0.0324,0.013523,0.002678,0.000431,0.000353
26128000,0.0324,0.013523,0.002678,0.000431,0.000235
26129000,0.0324,0.013523,0.002678,0.000431,0.000353
26130000,0.0324,0.013523,0.002678,0.000431,0.000470
26131000,0.0324,0.013523,0.002678,0.000431,0.000353
26132000,0.0324,0.013523,0.002678,0.000431,0.000118
26133000,0.0324,0.013523,0.002678,0.000431,0.000470
26134000,0.0324,0.013523,0.002678,0.000431,0.000353
26135000,0.0324,0.013523,0.002678,0.000431,0.000235
26136000,0.0324,0.013523,0.002678,0.000431,0.000353
26137000,0.0324,0.013523,0.002678,0.000431,0.000470
26138000,0.0324,0.013523,0.002678,0.000431,0.000353
26139000,0.0324,0.013523,0.002678,0.000431,0.000118
26140000,0.0324,0.013523,0.002678,0.000431,0.000470
26141000,0.0324,0.013523,0.002678,0.000431,0.000353
26142000,0.0324,0.013523,0.002678,0.000431,0.000235
26143000,0.0324,0.013523,0.002678,0.000431,0.000353
26144000,0.0324,0.013523,0.002678,0.000431,0.000470
26145000,0.0324,0.013523,0.002678,0.000431,0.000353
26146000,0.0324,0.013523,0.002678,0.000431,0.000118
26147000,0.0324,0.013523,0.002678,0.000431,0.000470
26148000,0.0324,0.013523,0.002678,0.000431,0.000353
26149000,0.0324,0.013523,0.002678,0.000431,0.000235
26150000,0.0324,0.013523,0.002678,0.000431,0.000353
26151000,0.0324,0.013523,0.002678,0.000431,0.000470
26152000,0.0324,0.013523,0.002678,0.000431,0.000353
26153000,0.0324,0.013523,0.002678,0.000431,0.000118
26154000,0.0324,0.013523,0.002678,0.000431,0.000470
26155000,0.0324,0.013523,0.002678,0.000431,0.000353
26156000,0.0324,0.013523,0.002678,0.000431,0.000235
26157000,0.0324,0.013523,0.002678,0.000431,0.000353
26158000,0.0324,0.013523,0.002678,0.000431,0.000470
26159000,0.0324,0.013523,0.002678,0.000431,0.000235
26160000,0.0324,0.013523,0.002678,0.000431,0.000235
26161000,0.0324,0.013523,0.002678,0.000431,0.000470
26162000,0.0324,0.013523,0.002678,0.000431,0.000353
26163000,0.0324,0.013523,0.002678,0.000431,0.000235
26164000,0.0324,0.013523,0.002678,0.000431,0.000353
26165000,0.0324,0.013523,0.002678,0.000431,0.000470
26166000,0.0324,0.013523,0.002678,0.000431,0.000235
26167000,0.0324,0.013523,0.002678,0.000431,0.000235
26168000,0.0324,0.013523,0.002678,0.000431,0.000470
26169000,0.0324,0.013523,0.002678,0.000431,0.000353
26170000,0.0324,0.013523,0.002678,0.000431,0.000235
26171000,0.0324,0.013523,0.002678,0.000431,0.000353
26172000,0.0324,0.013523,0.002678,0.000431,0.000470
26173000,0.0324,0.013523,0.002678,0.000431,0.000235
26174000,0.0324,0.013523,0.002678,0.000431,0.000235
26175000,0.0324,0.013523,0.002678,0.000431,0.000470
26176000,0.0324,0.013523,0.002678,0.000431,0.000353
26177000,0.0324,0.013523,0.002678,0.000431,0.000235
26178000,0.0324,0.013523,0.002678,0.000431,0.000353
26179000,0.0324,0.013523,0.002678,0.000431,0.000470
26180000,0.0324,0.013523,0.002678,0.000431,0.000235
26181000,0.0324,0.013523,0.002678,0.000431,0.000235
26182000,0.0324,0.013523,0.002678,0.000431,0.000470
26183000,0.0324,0.013523,0.002678,0.000431,0.000353
26184000,0.0324,0.013523,0.002678,0.000431,0.000235
26185000,0.0324,0.013523,0.002678,0.000431,0.000353
26186000,0.0324,0.013523,0.002678,0.000431,0.000470
26187000,0.0324,0.013523,0.002678,0.000431,0.000235
26188000,0.0324,0.013523,0.002678,0.000431,0.000235
26189000,0.0324,0.013523,0.002678,0.000431,0.000470
26190000,0.0324,0.013523,0.002678,0.000431,0.000353
26191000,0.0324,0.013523,0.002678,0.000431,0.000235
26192000,0.0324,0.013523,0.002678,0.000431,0.000353
26193000,0.0324,0.013523,0.002678,0.000431,0.000470
26194000,0.0324,0.013523,0.002678,0.000431,0.000235
26195000,0.0324,0.013523,0.002678,0.000431,0.000235
26196000,0.0324,0.013523,0.002678,0.000431,0.000470
26197000,0.0324,0.013523,0.002678,0.000431,0.000353
26198000,0.0324,0.013523,0.002678,0.000431,0.000235
26199000,0.0324,0.013523,0.002678,0.000431,0.000353
26200000,0.0324,0.013523,0.002678,0.000431,0.000470
26201000,0.0324,0.013523,0.002678,0.000431,0.000118
26202000,0.0324,0.013523,0.002678,0.000431,0.000353
26203000,0.0324,0.013523,0.002678,0.000431,0.000470
26204000,0.0324,0.013523,0.002678,0.000431,0.000353
26205000,0.0324,0.013523,0.002678,0.000431,0.000235
26206000,0.0324,0.013523,0.002678,0.000431,0.000353
26207000,0.0324,0.013523,0.002678,0.000431,0.000470
26208000,0.0324,0.013523,0.002678,0.000431,0.000118
26209000,0.0324,0.013523,0.002678,0.000431,0.000353
26210000,0.0324,0.013523,0.002678,0.000431,0.000470
26211000,0.0324,0.013523,0.002678,0.000431,0.000353
26212000,0.0324,0.013523,0.002678,0.000431,0.000235
26213000,0.0324,0.013523,0.002678,0.000431,0.000353
26214000,0.0324,0.013523,0.002678,0.000431,0.000470
26215000,0.0324,0.013523,0.002678,0.000431,0.000118
26216000,0.0324,0.013523,0.002678,0.000431,0.000353
26217000,0.0324,0.013523,0.002678,0.000431,0.000470
26218000,0.0324,0.013523,0.002678,0.000431,0.000353
26219000,0.0324,0.013523,0.002678,0.000431,0.000235
26220000,0.0324,0.013523,0.002678,0.000431,0.000353
26221000,0.0324,0.013523,0.002678,0.000431,0.000353
26222000,0.0324,0.013523,0.002678,0.000431,0.000235
26223000,0.0324,0.013523,0.002678,0.000431,0.000353
26224000,0.0324,0.013523,0.002678,0.000431,0.000470
26225000,0.0324,0.013523,0.002678,0.000431,0.000353
26226000,0.0324,0.013523,0.002678,0.000431,0.000235
26227000,0.0324,0.013523,0.002678,0.000431,0.000353
26228000,0.0324,0.013523,0.002678,0.000431,0.000353
26229000,0.0324,0.013523,0.002678,0.000431,0.000235
26230000,0.0324,0.013523,0.002678,0.000431,0.000353
26231000,0.0324,0.013523,0.002678,0.000431,0.000470
26232000,0.0324,0.013523,0.002678,0.000431,0.000353
26233000,0.0324,0.013523,0.002678,0.000431,0.000235
26234000,0.0324,0.013523,0.002678,0.000431,0.000353
26235000,0.0324,0.013523,0.002678,0.000431,0.000353
26236000,0.0324,0.013523,0.002678,0.000431,0.000235
26237000,0.0324,0.013523,0.002678,0.000431,0.000353
26238000,0.0324,0.013523,0.002678,0.000431,0.000470
26239000,0.0324,0.013523,0.002678,0.000431,0.000353
26240000,0.0324,0.013523,0.002678,0.000431,0.000235
26241000,0.0324,0.013523,0.002678,0.000431,0.000353
26242000,0.0324,0.013523,0.002678,0.000431,0.000353
26243000,0.0324,0.013523,0.002678,0.000431,0.000235
26244000,0.0324,0.013523,0.002678,0.000431,0.000353
26245000,0.0324,0.013523,0.002678,0.000431,0.000470
26246000,0.0324,0.013523,0.002678,0.000431,0.000353
26247000,0.0324,0.013523,0.002678,0.000431,0.000235
26248000,0.0324,0.013523,0.002678,0.000431,0.000353
26249000,0.0324,0.013523,0.002678,0.000431,0.000353
26250000,0.0324,0.013523,0.002678,0.000431,0.000235
26251000,0.0324,0.013523,0.002678,0.000431,0.000353
26252000,0.0324,0.013523,0.002678,0.000431,0.000470
26253000,0.0324,0.013523,0.002678,0.000431,0.000353
26254000,0.0324,0.013523,0.002678,0.000431,0.000235
26255000,0.0324,0.013523,0.002678,0.000431,0.000353
26256000,0.0324,0.013523,0.002678,0.000431,0.000353
26257000,0.0324,0.013523,0.002678,0.000431,0.000235
26258000,0.0324,0.013523,0.002678,0.000431,0.000353
26259000,0.0324,0.013523,0.002678,0.000431,0.000470
26260000,0.0324,0.013523,0.002678,0.000431,0.000353
26261000,0.0324,0.013523,0.002678,0.000431,0.000235
26262000,0.0324,0.013523,0.002678,0.000431,0.000353
26263000,0.0324,0.013523,0.002678,0.000431,0.000353
26264000,0.0324,0.013523,0.002678,0.000431,0.000235
26265000,0.0324,0.013523,0.002678,0.000431,0.000353
26266000,0.0324,0.013523,0.002678,0.000431,0.000470
26267000,0.0324,0.013523,0.002678,0.000431,0.000353
26268000,0.0324,0.013523,0.002678,0.000431,0.000235
26269000,0.0324,0.013523,0.002678,0.000431,0.000353
26270000,0.0324,0.013523,0.002678,0.000431,0.000353
26271000,0.0324,0.013523,0.002678,0.000431,0.000235
26272000,0.0324,0.013523,0.002678,0.000431,0.000353
26273000,0.0324,0.013523,0.002678,0.000431,0.000470
26274000,0.0324,0.013523,0.002678,0.000431,0.000353
26275000,0.0324,0.013523,0.002678,0.000431,0.000118
26276000,0.0324,0.013523,0.002678,0.000431,0.000470
26277000,0.0324,0.013523,0.002678,0.000431,0.000353
26278000,0.0324,0.013523,0.002678,0.000431,0.000235
26279000,0.0324,0.013523,0.002678,0.000431,0.000353
26280000,0.0324,0.013523,0.002678,0.000431,0.000470
26281000,0.0324,0.013523,0.002678,0.000431,0.000353
26282000,0.0324,0.013523,0.002678,0.000431,0.000118
26283000,0.0324,0.013523,0.002678,0.000431,0.000470
26284000,0.0324,0.013523,0.002678,0.000431,0.000353
26285000,0.0324,0.013523,0.002678,0.000431,0.000235
26286000,0.0324,0.013523,0.002678,0.000431,0.000353
26287000,0.0324,0.013523,0.002678,0.000431,0.000470
26288000,0.0324,0.013523,0.002678,0.000431,0.000353
26289000,0.0324,0.013523,0.002678,0.000431,0.000118
26290000,0.0324,0.013523,0.002678,0.000431,0.000470
26291000,0.0324,0.013523,0.002678,0.000431,0.000353
26292000,0.0324,0.013523,0.002678,0.000431,0.000235
26293000,0.0324,0.013523,0.002678,0.000431,0.000353
26294000,0.0324,0.013523,0.002678,0.000431,0.000470
26295000,0.0324,0.013523,0.002678,0.000431,0.000235
26296000,0.0324,0.013523,0.002678,0.000431,0.000235
26297000,0.0324,0.013523,0.002678,0.000431,0.000470
26298000,0.0324,0.013523,0.002678,0.000431,0.000353
26299000,0.0324,0.013523,0.002678,0.000431,0.000235
26300000,0.0324,0.013523,0.002678,0.000431,0.000353
26301000,0.0324,0.013523,0.002678,0.000431,0.000470
26302000,0.0324,0.013523,0.002678,0.000431,0.000235
26303000,0.0324,0.013523,0.002678,0.000431,0.000235
26304000,0.0324,0.013523,0.002678,0.000431,0.000470
26305000,0.0324,0.013523,0.002678,0.000431,0.000353
26306000,0.0324,0.013523,0.002678,0.000431,0.000235
26307000,0.0324,0.013523,0.002678,0.000431,0.000353
26308000,0.0324,0.013523,0.002678,0.000431,0.000470
26309000,0.0324,0.013523,0.002678,0.000431,0.000235
26310000,0.0324,0.013523,0.002678,0.000431,0.000235
26311000,0.0324,0.013523,0.002678,0.000431,0.000470
26312000,0.0324,0.013523,0.002678,0.000431,0.000353
26313000,0.0324,0.013523,0.002678,0.000431,0.000235
26314000,0.0324,0.013523,0.002678,0.000431,0.000353
26315000,0.0324,0.013523,0.002678,0.000431,0.000470
26316000,0.0324,0.013523,0.002678,0.000431,0.000235
26317000,0.0324,0.013523,0.002678,0.000431,0.000235
26318000,0.0324,0.013523,0.002678,0.000431,0.000470
26319000,0.0324,0.013523,0.002678,0.000431,0.000353
26320000,0.0324,0.013523,0.002678,0.000431,0.000235
26321000,0.0324,0.013523,0.002678,0.000431,0.000353
26322000,0.0324,0.013523,0.002678,0.000431,0.000470
26323000,0.0324,0.013523,0.002678,0.000431,0.000235
26324000,0.0324,0.013523,0.002678,0.000431,0.000235
26325000,0.0324,0.013523,0.002678,0.000431,0.000470
26326000,0.0324,0.013523,0.002678,0.000431,0.000353
26327000,0.0324,0.013523,0.002678,0.000431,0.000235
26328000,0.0324,0.013523,0.002678,0.000431,0.000353
26329000,0.0324,0.013523,0.002678,0.000431,0.000470
26330000,0.0324,0.013523,0.002678,0.000431,0.000235
26331000,0.0324,0.013523,0.002678,0.000431,0.000235
26332000,0.0324,0.013523,0.002678,0.000431,0.000470
26333000,0.0324,0.013523,0.002678,0.000431,0.000353
26334000,0.0324,0.013523,0.002678,0.000431,0.000235
26335000,0.0324,0.013523,0.002678,0.000431,0.000353
26336000,0.0324,0.013523,0.002678,0.000431,0.000470
26337000,0.0324,0.013523,0.002678,0.000431,0.000118
26338000,0.0324,0.013523,0.002678,0.000431,0.000353
26339000,0.0324,0.013523,0.002678,0.000431,0.000470
26340000,0.0324,0.013523,0.002678,0.000431,0.000353
26341000,0.0324,0.013523,0.002678,0.000431,0.000235
26342000,0.0324,0.013523,0.002678,0.000431,0.000353
26343000,0.0324,0.013523,0.002678,0.000431,0.000470
26344000,0.0324,0.013523,0.002678,0.000431,0.000118
26345000,0.0324,0.013523,0.002678,0.000431,0.000353
26346000,0.0324,0.013523,0.002678,0.000431,0.000470
26347000,0.0324,0.013523,0.002678,0.000431,0.000353
26348000,0.0324,0.013523,0.002678,0.000431,0.000235
26349000,0.0324,0.013523,0.002678,0.000431,0.000353
26350000,0.0324,0.013523,0.002678,0.000431,0.000470
26351000,0.0324,0.013523,0.002678,0.000431,0.000118
26352000,0.0324,0.013523,0.002678,0.000431,0.000353
26353000,0.0324,0.013523,0.002678,0.000431,0.000470
26354000,0.0324,0.013523,0.002678,0.000431,0.000353
26355000,0.0324,0.013523,0.002678,0.000431,0.000235
26356000,0.0324,0.013523,0.002678,0.000431,0.000353
26357000,0.0324,0.013523,0.002678,0.000431,0.000470
26358000,0.0324,0.013523,0.002678,0.000431,0.000118
26359000,0.0324,0.013523,0.002678,0.000431,0.000353
26360000,0.0324,0.013523,0.002678,0.000431,0.000470
26361000,0.0324,0.013523,0.002678,0.000431,0.000353
26362000,0.0324,0.013523,0.002678,0.000431,0.000235
26363000,0.0324,0.013523,0.002678,0.000431,0.000353
26364000,0.0324,0.013523,0.002678,0.000431,0.000353
26365000,0.0324,0.013523,0.002678,0.000431,0.000235
26366000,0.0324,0.013523,0.002678,0.000431,0.000353
26367000,0.0324,0.013523,0.002678,0.000431,0.000470
26368000,0.0324,0.013523,0.002678,0.000431,0.000353
26369000,0.0324,0.013523,0.002678,0.000431,0.000235
26370000,0.0324,0.013523,0.002678,0.000431,0.000353
26371000,0.0324,0.013523,0.002678,0.000431,0.000353
26372000,0.0324,0.013523,0.002678,0.000431,0.000235
26373000,0.0324,0.013523,0.002678,0.000431,0.000353
26374000,0.0324,0.013523,0.002678,0.000431,0.000470
26375000,0.0324,0.013523,0.002678,0.000431,0.000353
26376000,0.0324,0.013523,0.002678,0.000431,0.000235
26377000,0.0324,0.013523,0.002678,0.000431,0.000353
26378000,0.0324,0.013523,0.002678,0.000431,0.000353
26379000,0.0324,0.013523,0.002678,0.000431,0.000235
26380000,0.0324,0.013523,0.002678,0.000431,0.000353
26381000,0.0324,0.013523,0.002678,0.000431,0.000470
26382000,0.0324,0.013523,0.002678,0.000431,0.000353
26383000,0.0324,0.013523,0.002678,0.000431,0.000235
26384000,0.0324,0.013523,0.002678,0.000431,0.000353
26385000,0.0324,0.013523,0.002678,0.000431,0.000353
26386000,0.0324,0.013523,0.002678,0.000431,0.000235
26387000,0.0324,0.013523,0.002678,0.000431,0.000353
26388000,0.0324,0.013523,0.002678,0.000431,0.000470
26389000,0.0324,0.013523,0.002678,0.000431,0.000353
26390000,0.0324,0.013523,0.002678,0.000431,0.000235
26391000,0.0324,0.013523,0.002678,0.000431,0.000353
26392000,0.0324,0.013523,0.002678,0.000431,0.000353
26393000,0.0324,0.013523,0.002678,0.000431,0.000235
26394000,0.0324,0.013523,0.002678,0.000431,0.000353
26395000,0.0324,0.013523,0.002678,0.000431,0.000470
26396000,0.0324,0.013523,0.002678,0.000431,0.000353
26397000,0.0324,0.013523,0.002678,0.000431,0.000235
26398000,0.0324,0.013523,0.002678,0.000431,0.000353
26399000,0.0324,0.013523,0.002678,0.000431,0.000353
26400000,0.0324,0.013523,0.002678,0.000431,0.000235
26401000,0.0324,0.013523,0.002678,0.000431,0.000353
26402000,0.0324,0.013523,0.002678,0.000431,0.000470
26403000,0.0324,0.013523,0.002678,0.000431,0.000353
26404000,0.0324,0.013523,0.002678,0.000431,0.000235
26405000,0.0324,0.013523,0.002678,0.000431,0.000353
26406000,0.0324,0.013523,0.002678,0.000431,0.000353
26407000,0.0324,0.013523,0.002678,0.000431,0.000235
26408000,0.0324,0.013523,0.002678,0.000431,0.000353
26409000,0.0324,0.013523,0.002678,0.000431,0.000470
26410000,0.0324,0.013523,0.002678,0.000431,0.000353
26411000,0.0324,0.013523,0.002678,0.000431,0.000118
26412000,0.0324,0.013523,0.002678,0.000431,0.000470
26413000,0.0324,0.013523,0.002678,0.000431,0.000353
26414000,0.0324,0.013523,0.002678,0.000431,0.000235
26415000,0.0324,0.013523,0.002678,0.000431,0.000353
26416000,0.0324,0.013523,0.002678,0.000431,0.000470
26417000,0.0324,0.013523,0.002678,0.000431,0.000353
26418000,0.0324,0.013523,0.002678,0.000431,0.000118
26419000,0.0324,0.013523,0.002678,0.000431,0.000470
26420000,0.0324,0.013523,0.002678,0.000431,0.000353
26421000,0.0324,0.013523,0.002678,0.000431,0.000235
26422000,0.0324,0.013523,0.002678,0.000431,0.000353
26423000,0.0324,0.013523,0.002678,0.000431,0.000470
26424000,0.0324,0.013523,0.002678,0.000431,0.000353
26425000,0.0324,0.013523,0.002678,0.000431,0.000118
26426000,0.0324,0.013523,0.002678,0.000431,0.000470
26427000,0.0324,0.013523,0.002678,0.000431,0.000353
26428000,0.0324,0.013523,0.002678,0.000431,0.000235
26429000,0.0324,0.013523,0.002678,0.000431,0.000353
26430000,0.0324,0.013523,0.002678,0.000431,0.000470
26431000,0.0324,0.013523,0.002678,0.000431,0.000353
26432000,0.0324,0.013523,0.002678,0.000431,0.000118
26433000,0.0324,0.013523,0.002678,0.000431,0.000470
26434000,0.0324,0.013523,0.002678,0.000431,0.000353
26435000,0.0324,0.013523,0.002678,0.000431,0.000235
26436000,0.0324,0.013523,0.002678,0.000431,0.000353
26437000,0.0324,0.013523,0.002678,0.000431,0.000470
26438000,0.0324,0.013523,0.002678,0.000431,0.000235
26439000,0.0324,0.013523,0.002678,0.000431,0.000235
26440000,0.0324,0.013523,0.002678,0.000431,0.000470
26441000,0.0324,0.013523,0.002678,0.000431,0.000353
26442000,0.0324,0.013523,0.002678,0.000431,0.000235
26443000,0.0324,0.013523,0.002678,0.000431,0.000353
26444000,0.0324,0.013523,0.002678,0.000431,0.000470
26445000,0.0324,0.013523,0.002678,0.000431,0.000235
26446000,0.0324,0.013523,0.002678,0.000431,0.000235
26447000,0.0324,0.013523,0.002678,0.000431,0.000470
26448000,0.0324,0.013523,0.002678,0.000431,0.000353
26449000,0.0324,0.013523,0.002678,0.000431,0.000235
26450000,0.0324,0.013523,0.002678,0.000431,0.000353
26451000,0.0324,0.013523,0.002678,0.000431,0.000470
26452000,0.0324,0.013523,0.002678,0.000431,0.000235
26453000,0.0324,0.013523,0.002678,0.000431,0.000235
26454000,0.0324,0.013523,0.002678,0.000431,0.000470
26455000,0.0324,0.013523,0.002678,0.000431,0.000353
26456000,0.0324,0.013523,0.002678,0.000431,0.000235
26457000,0.0324,0.013523,0.002678,0.000431,0.000353
26458000,0.0324,0.013523,0.002678,0.000431,0.000470
26459000,0.0324,0.013523,0.002678,0.000431,0.000235
26460000,0.0324,0.013523,0.002678,0.000431,0.000235
26461000,0.0324,0.013523,0.002678,0.000431,0.000470
26462000,0.0324,0.013523,0.002678,0.000431,0.000353
26463000,0.0324,0.013523,0.002678,0.000431,0.000235
26464000,0.0324,0.013523,0.002678,0.000431,0.000353
26465000,0.0324,0.013523,0.002678,0.000431,0.000470
26466000,0.0324,0.013523,0.002678,0.000431,0.000235
26467000,0.0324,0.013523,0.002678,0.000431,0.000235
26468000,0.0324,0.013523,0.002678,0.000431,0.000470
26469000,0.0324,0.013523,0.002678,0.000431,0.000353
26470000,0.0324,0.013523,0.002678,0.000431,0.000235
26471000,0.0324,0.013523,0.002678,0.000431,0.000353
26472000,0.0324,0.013523,0.002678,0.000431,0.000470
26473000,0.0324,0.013523,0.002678,0.000431,0.000235
26474000,0.0324,0.013523,0.002678,0.000431,0.000235
26475000,0.0324,0.013523,0.002678,0.000431,0.000470
26476000,0.0324,0.013523,0.002678,0.000431,0.000353
26477000,0.0324,0.013523,0.002678,0.000431,0.000235
26478000,0.0324,0.013523,0.002678,0.000431,0.000353
26479000,0.0324,0.013523,0.002678,0.000431,0.000470
26480000,0.0324,0.013523,0.002678,0.000431,0.000118
26481000,0.0324,0.013523,0.002678,0.000431,0.000353
26482000,0.0324,0.013523,0.002678,0.000431,0.000470
26483000,0.0324,0.013523,0.002678,0.000431,0.000353
26484000,0.0324,0.013523,0.002678,0.000431,0.000235
26485000,0.0324,0.013523,0.002678,0.000431,0.000353
26486000,0.0324,0.013523,0.002678,0.000431,0.000470
26487000,0.0324,0.013523,0.002678,0.000431,0.000118
26488000,0.0324,0.013523,0.002678,0.000431,0.000353
26489000,0.0324,0.013523,0.002678,0.000431,0.000470
26490000,0.0324,0.013523,0.002678,0.000431,0.000353
26491000,0.0324,0.013523,0.002678,0.000431,0.000235
26492000,0.0324,0.013523,0.002678,0.000431,0.000353
26493000,0.0324,0.013523,0.002678,0.000431,0.000470
26494000,0.0324,0.013523,0.002678,0.000431,0.000118
26495000,0.0324,0.013523,0.002678,0.000431,0.000353
26496000,0.0324,0.013523,0.002678,0.000431,0.000470
26497000,0.0324,0.013523,0.002678,0.000431,0.000353
26498000,0.0324,0.013523,0.002678,0.000431,0.000235
26499000,0.0324,0.013523,0.002678,0.000431,0.000353
26500000,0.0324,0.013523,0.002678,0.000431,0.000353
26501000,0.0324,0.013523,0.002678,0.000431,0.000235
26502000,0.0324,0.013523,0.002678,0.000431,0.000353
26503000,0.0324,0.013523,0.002678,0.000431,0.000470
26504000,0.0324,0.013523,0.002678,0.000431,0.000353
26505000,0.0324,0.013523,0.002678,0.000431,0.000235
26506000,0.0324,0.013523,0.002678,0.000431,0.000353
26507000,0.0324,0.013523,0.002678,0.000431,0.000353
26508000,0.0324,0.013523,0.002678,0.000431,0.000235
26509000,0.0324,0.013523,0.002678,0.000431,0.000353
26510000,0.0324,0.013523,0.002678,0.000431,0.000470
26511000,0.0324,0.013523,0.002678,0.000431,0.000353
26512000,0.0324,0.013523,0.002678,0.000431,0.000235
26513000,0.0324,0.013523,0.002678,0.000431,0.000353
26514000,0.0324,0.013523,0.002678,0.000431,0.000353
26515000,0.0324,0.013523,0.002678,0.000431,0.000235
26516000,0.0324,0.013523,0.002678,0.000431,0.000353
26517000,0.0324,0.013523,0.002678,0.000431,0.000470
26518000,0.0324,0.013523,0.002678,0.000431,0.000353
26519000,0.0324,0.013523,0.002678,0.000431,0.000235
26520000,0.0324,0.013523,0.002678,0.000431,0.000353
26521000,0.0324,0.013523,0.002678,0.000431,0.000353
26522000,0.0324,0.013523,0.002678,0.000431,0.000235
26523000,0.0324,0.013523,0.002678,0.000431,0.000353
26524000,0.0324,0.013523,0.002678,0.000431,0.000470
26525000,0.0324,0.013523,0.002678,0.000431,0.000353
26526000,0.0324,0.013523,0.002678,0.000431,0.000235
26527000,0.0324,0.013523,0.002678,0.000431,0.000353
26528000,0.0324,0.013523,0.002678,0.000431,0.000353
26529000,0.0324,0.013523,0.002678,0.000431,0.000235
26530000,0.0324,0.013523,0.002678,0.000431,0.000353
26531000,0.0324,0.013523,0.002678,0.000431,0.000470
26532000,0.0324,0.013523,0.002678,0.000431,0.000353
26533000,0.0324,0.013523,0.002678,0.000431,0.000235
26534000,0.0324,0.013523,0.002678,0.000431,0.000353
26535000,0.0324,0.013523,0.002678,0.000431,0.000353
26536000,0.0324,0.013523,0.002678,0.000431,0.000235
26537000,0.0324,0.013523,0.002678,0.000431,0.000353
26538000,0.0324,0.013523,0.002678,0.000431,0.000470
26539000,0.0324,0.013523,0.002678,0.000431,0.000353
26540000,0.0324,0.013523,0.002678,0.000431,0.000235
26541000,0.0324,0.013523,0.002678,0.000431,0.000353
26542000,0.0324,0.013523,0.002678,0.000431,0.000353
26543000,0.0324,0.013523,0.002678,0.000431,0.000235
26544000,0.0324,0.013523,0.002678,0.000431,0.000353
26545000,0.0324,0.013523,0.002678,0.000431,0.000470
26546000,0.0324,0.013523,0.002678,0.000431,0.000353
26547000,0.0324,0.013523,0.002678,0.000431,0.000235
26548000,0.0324,0.013523,0.002678,0.000431,0.000353
26549000,0.0324,0.013523,0.002678,0.000431,0.000353
26550000,0.0324,0.013523,0.002678,0.000431,0.000235
26551000,0.0324,0.013523,0.002678,0.000431,0.000353
26552000,0.0324,0.013523,0.002678,0.000431,0.000470
26553000,0.0324,0.013523,0.002678,0.000431,0.000353
26554000,0.0324,0.013523,0.002678,0.000431,0.000118
26555000,0.0324,0.013523,0.002678,0.000431,0.000470
26556000,0.0324,0.013523,0.002678,0.000431,0.000353
26557000,0.0324,0.013523,0.002678,0.000431,0.000235
26558000,0.0324,0.013523,0.002678,0.000431,0.000353
26559000,0.0324,0.013523,0.002678,0.000431,0.000470
26560000,0.0324,0.013523,0.002678,0.000431,0.000353
26561000,0.0324,0.013523,0.002678,0.000431,0.000118
26562000,0.0324,0.013523,0.002678,0.000431,0.000470
26563000,0.0324,0.013523,0.002678,0.000431,0.000353
26564000,0.0324,0.013523,0.002678,0.000431,0.000235
26565000,0.0324,0.013523,0.002678,0.000431,0.000353
26566000,0.0324,0.013523,0.002678,0.000431,0.000470
26567000,0.0324,0.013523,0.002678,0.000431,0.000353
26568000,0.0324,0.013523,0.002678,0.000431,0.000118
26569000,0.0324,0.013523,0.002678,0.000431,0.000470
26570000,0.0324,0.013523,0.002678,0.000431,0.000353
26571000,0.0324,0.013523,0.002678,0.000431,0.000235
26572000,0.0324,0.013523,0.002678,0.000431,0.000353
26573000,0.0324,0.013523,0.002678,0.000431,0.000470
26574000,0.0324,0.013523,0.002678,0.000431,0.000353
26575000,0.0324,0.013523,0.002678,0.000431,0.000118
26576000,0.0324,0.013523,0.002678,0.000431,0.000470
26577000,0.0324,0.013523,0.002678,0.000431,0.000353
26578000,0.0324,0.013523,0.002678,0.000431,0.000235
26579000,0.0324,0.013523,0.002678,0.000431,0.000353
26580000,0.0324,0.013523,0.002678,0.000431,0.000470
26581000,0.0324,0.013523,0.002678,0.000431,0.000235
26582000,0.0324,0.013523,0.002678,0.000431,0.000235
26583000,0.0324,0.013523,0.002678,0.000431,0.000470
26584000,0.0324,0.013523,0.002678,0.000431,0.000353
26585000,0.0324,0.013523,0.002678,0.000431,0.000235
26586000,0.0324,0.013523,0.002678,0.000431,0.000353
26587000,0.0324,0.013523,0.002678,0.000431,0.000470
26588000,0.0324,0.013523,0.002678,0.000431,0.000235
26589000,0.0324,0.013523,0.002678,0.000431,0.000235
26590000,0.0324,0.013523,0.002678,0.000431,0.000470
26591000,0.0324,0.013523,0.002678,0.000431,0.000353
26592000,0.0324,0.013523,0.002678,0.000431,0.000235
26593000,0.0324,0.013523,0.002678,0.000431,0.000353
26594000,0.0324,0.013523,0.002678,0.000431,0.000470
26595000,0.0324,0.013523,0.002678,0.000431,0.000235
26596000,0.0324,0.013523,0.002678,0.000431,0.000235
26597000,0.0324,0.013523,0.002678,0.000431,0.000470
26598000,0.0324,0.013523,0.002678,0.000431,0.000353
26599000,0.0324,0.013523,0.002678,0.000431,0.000235
26600000,0.0324,0.013523,0.002678,0.000431,0.000353
26601000,0.0324,0.013523,0.002678,0.000431,0.000470
26602000,0.0324,0.013523,0.002678,0.000431,0.000235
26603000,0.0324,0.013523,0.002678,0.000431,0.000235
26604000,0.0324,0.013523,0.002678,0.000431,0.000470
26605000,0.0324,0.013523,0.002678,0.000431,0.000353
26606000,0.0324,0.013523,0.002678,0.000431,0.000235
26607000,0.0324,0.013523,0.002678,0.000431,0.000353
26608000,0.0324,0.013523,0.002678,0.000431,0.000470
26609000,0.0324,0.013523,0.002678,0.000431,0.000235
26610000,0.0324,0.013523,0.002678,0.000431,0.000235
26611000,0.0324,0.013523,0.002678,0.000431,0.000470
26612000,0.0324,0.013523,0.002678,0.000431,0.000353
26613000,0.0324,0.013523,0.002678,0.000431,0.000235
26614000,0.0324,0.013523,0.002678,0.000431,0.000353
26615000,0.0324,0.013523,0.002678,0.000431,0.000470
26616000,0.0324,0.013523,0.002678,0.000431,0.000118
26617000,0.0324,0.013523,0.002678,0.000431,0.000353
26618000,0.0324,0.013523,0.002678,0.000431,0.000470
26619000,0.0324,0.013523,0.002678,0.000431,0.000353
26620000,0.0324,0.013523,0.002678,0.000431,0.000235
26621000,0.0324,0.013523,0.002678,0.000431,0.000353
26622000,0.0324,0.013523,0.002678,0.000431,0.000470
26623000,0.0324,0.013523,0.002678,0.000431,0.000118
26624000,0.0324,0.013523,0.002678,0.000431,0.000353
26625000,0.0324,0.013523,0.002678,0.000431,0.000470
26626000,0.0324,0.013523,0.002678,0.000431,0.000353
26627000,0.0324,0.013523,0.002678,0.000431,0.000235
26628000,0.0324,0.013523,0.002678,0.000431,0.000353
26629000,0.0324,0.013523,0.002678,0.000431,0.000470
26630000,0.0324,0.013523,0.002678,0.000431,0.000118
26631000,0.0324,0.013523,0.002678,0.000431,0.000353
26632000,0.0324,0.013523,0.002678,0.000431,0.000470
26633000,0.0324,0.013523,0.002678,0.000431,0.000353
26634000,0.0324,0.013523,0.002678,0.000431,0.000235
26635000,0.0324,0.013523,0.002678,0.000431,0.000353
26636000,0.0324,0.013523,0.002678,0.000431,0.000470
26637000,0.0324,0.013523,0.002678,0.000431,0.000118
26638000,0.0324,0.013523,0.002678,0.000431,0.000353
26639000,0.0324,0.013523,0.002678,0.000431,0.000470
26640000,0.0324,0.013523,0.002678,0.000431,0.000353
26641000,0.0324,0.013523,0.002678,0.000431,0.000235
26642000,0.0324,0.013523,0.002678,0.000431,0.000353
26643000,0.0324,0.013523,0.002678,0.000431,0.000353
26644000,0.0324,0.013523,0.002678,0.000431,0.000235
26645000,0.0324,0.013523,0.002678,0.000431,0.000353
26646000,0.0324,0.013523,0.002678,0.000431,0.000470
26647000,0.0324,0.013523,0.002678,0.000431,0.000353
26648000,0.0324,0.013523,0.002678,0.000431,0.000235
26649000,0.0324,0.013523,0.002678,0.000431,0.000353
26650000,0.0324,0.013523,0.002678,0.000431,0.000353
26651000,0.0324,0.013523,0.002678,0.000431,0.000235
26652000,0.0324,0.013523,0.002678,0.000431,0.000353
26653000,0.0324,0.013523,0.002678,0.000431,0.000470
26654000,0.0324,0.013523,0.002678,0.000431,0.000353
26655000,0.0324,0.013523,0.002678,0.000431,0.000235
26656000,0.0324,0.013523,0.002678,0.000431,0.000353
26657000,0.0324,0.013523,0.002678,0.000431,0.000353
26658000,0.0324,0.013523,0.002678,0.000431,0.000235
26659000,0.0324,0.013523,0.002678,0.000431,0.000353
26660000,0.0324,0.013523,0.002678,0.000431,0.000470
26661000,0.0324,0.013523,0.002678,0.000431,0.000353
26662000,0.0324,0.013523,0.002678,0.000431,0.000235
26663000,0.0324,0.013523,0.002678,0.000431,0.000353
26664000,0.0324,0.013523,0.002678,0.000431,0.000353
26665000,0.0324,0.013523,0.002678,0.000431,0.000235
26666000,0.0324,0.013523,0.002678,0.000431,0.000353
26667000,0.0324,0.013523,0.002678,0.000431,0.000470
26668000,0.0324,0.013523,0.002678,0.000431,0.000353
26669000,0.0324,0.013523,0.002678,0.000431,0.000235
26670000,0.0324,0.013523,0.002678,0.000431,0.000353
26671000,0.0324,0.013523,0.002678,0.000431,0.000353
26672000,0.0324,0.013523,0.002678,0.000431,0.000235
26673000,0.0324,0.013523,0.002678,0.000431,0.000353
26674000,0.0324,0.013523,0.002678,0.000431,0.000470
26675000,0.0324,0.013523,0.002678,0.000431,0.000353
26676000,0.0324,0.013523,0.002678,0.000431,0.000235
26677000,0.0324,0.013523,0.002678,0.000431,0.000353
26678000,0.0324,0.013523,0.002678,0.000431,0.000353
26679000,0.0324,0.013523,0.002678,0.000431,0.000235
26680000,0.0324,0.013523,0.002678,0.000431,0.000353
26681000,0.0324,0.013523,0.002678,0.000431,0.000470
26682000,0.0324,0.013523,0.002678,0.000431,0.000353
26683000,0.0324,0.013523,0.002678,0.000431,0.000235
26684000,0.0324,0.013523,0.002678,0.000431,0.000353
26685000,0.0324,0.013523,0.002678,0.000431,0.000353
26686000,0.0324,0.013523,0.002678,0.000431,0.000235
26687000,0.0324,0.013523,0.002678,0.000431,0.000353
26688000,0.0324,0.013523,0.002678,0.000431,0.000470
26689000,0.0324,0.013523,0.002678,0.000431,0.000353
26690000,0.0324,0.013523,0.002678,0.000431,0.000235
26691000,0.0324,0.013523,0.002678,0.000431,0.000353
26692000,0.0324,0.013523,0.002678,0.000431,0.000353
26693000,0.0324,0.013523,0.002678,0.000431,0.000235
26694000,0.0324,0.013523,0.002678,0.000431,0.000353
26695000,0.0324,0.013523,0.002678,0.000431,0.000470
26696000,0.0324,0.013523,0.002678,0.000431,0.000353
26697000,0.0324,0.013523,0.002678,0.000431,0.000118
26698000,0.0324,0.013523,0.002678,0.000431,0.000470
26699000,0.0324,0.013523,0.002678,0.000431,0.000353
26700000,0.0324,0.013523,0.002678,0.000431,0.000235
26701000,0.0324,0.013523,0.002678,0.000431,0.000353
26702000,0.0324,0.013523,0.002678,0.000431,0.000470
26703000,0.0324,0.013523,0.002678,0.000431,0.000353
26704000,0.0324,0.013523,0.002678,0.000431,0.000118
26705000,0.0324,0.013523,0.002678,0.000431,0.000470
26706000,0.0324,0.013523,0.002678,0.000431,0.000353
26707000,0.0324,0.013523,0.002678,0.000431,0.000235
26708000,0.0324,0.013523,0.002678,0.000431,0.000353
26709000,0.0324,0.013523,0.002678,0.000431,0.000470
26710000,0.0324,0.013523,0.002678,0.000431,0.000353
26711000,0.0324,0.013523,0.002678,0.000431,0.000118
26712000,0.0324,0.013523,0.002678,0.000431,0.000470
26713000,0.0324,0.013523,0.002678,0.000431,0.000353
26714000,0.0324,0.013523,0.002678,0.000431,0.000235
26715000,0.0324,0.013523,0.002678,0.000431,0.000353
26716000,0.0324,0.013523,0.002678,0.000431,0.000470
26717000,0.0324,0.013523,0.002678,0.000431,0.000235
26718000,0.0324,0.013523,0.002678,0.000431,0.000235
26719000,0.0324,0.013523,0.002678,0.000431,0.000470
26720000,0.0324,0.013523,0.002678,0.000431,0.000353
26721000,0.0324,0.013523,0.002678,0.000431,0.000235
26722000,0.0324,0.013523,0.002678,0.000431,0.000353
26723000,0.0324,0.013523,0.002678,0.000431,0.000470
26724000,0.0324,0.013523,0.002678,0.000431,0.000235
26725000,0.0324,0.013523,0.002678,0.000431,0.000235
26726000,0.0324,0.013523,0.002678,0.000431,0.000470
26727000,0.0324,0.013523,0.002678,0.000431,0.000353
26728000,0.0324,0.013523,0.002678,0.000431,0.000235
26729000,0.0324,0.013523,0.002678,0.000431,0.000353
26730000,0.0324,0.013523,0.002678,0.000431,0.000470
26731000,0.0324,0.013523,0.002678,0.000431,0.000235
26732000,0.0324,0.013523,0.002678,0.000431,0.000235
26733000,0.0324,0.013523,0.002678,0.000431,0.000470
26734000,0.0324,0.013523,0.002678,0.000431,0.000353
26735000,0.0324,0.013523,0.002678,0.000431,0.000235
26736000,0.0324,0.013523,0.002678,0.000431,0.000353
26737000,0.0324,0.013523,0.002678,0.000431,0.000470
26738000,0.0324,0.013523,0.002678,0.000431,0.000235
26739000,0.0324,0.013523,0.002678,0.000431,0.000235
26740000,0.0324,0.013523,0.002678,0.000431,0.000470
26741000,0.0324,0.013523,0.002678,0.000431,0.000353
26742000,0.0324,0.013523,0.002678,0.000431,0.000235
26743000,0.0324,0.013523,0.002678,0.000431,0.000353
26744000,0.0324,0.013523,0.002678,0.000431,0.000470
26745000,0.0324,0.013523,0.002678,0.000431,0.000235
26746000,0.0324,0.013523,0.002678,0.000431,0.000235
26747000,0.0324,0.013523,0.002678,0.000431,0.000470
26748000,0.0324,0.013523,0.002678,0.000431,0.000353
26749000,0.0324,0.013523,0.002678,0.000431,0.000235
26750000,0.0324,0.013523,0.002678,0.000431,0.000353
26751000,0.0324,0.013523,0.002678,0.000431,0.000470
26752000,0.0324,0.013523,0.002678,0.000431,0.000235
26753000,0.0324,0.013523,0.002678,0.000431,0.000235
26754000,0.0324,0.013523,0.002678,0.000431,0.000470
26755000,0.0324,0.013523,0.002678,0.000431,0.000353
26756000,0.0324,0.013523,0.002678,0.000431,0.000235
26757000,0.0324,0.013523,0.002678,0.000431,0.000353
26758000,0.0324,0.013523,0.002678,0.000431,0.000470
26759000,0.0324,0.013523,0.002678,0.000431,0.000118
26760000,0.0324,0.013523,0.002678,0.000431,0.000353
26761000,0.0324,0.013523,0.002678,0.000431,0.000470
26762000,0.0324,0.013523,0.002678,0.000431,0.000353
26763000,0.0324,0.013523,0.002678,0.000431,0.000235
26764000,0.0324,0.013523,0.002678,0.000431,0.000353
26765000,0.0324,0.013523,0.002678,0.000431,0.000470
26766000,0.0324,0.013523,0.002678,0.000431,0.000118
26767000,0.0324,0.013523,0.002678,0.000431,0.000353
26768000,0.0324,0.013523,0.002678,0.000431,0.000470
26769000,0.0324,0.013523,0.002678,0.000431,0.000353
26770000,0.0324,0.013523,0.002678,0.000431,0.000235
26771000,0.0324,0.013523,0.002678,0.000431,0.000353
26772000,0.0324,0.013523,0.002678,0.000431,0.000470
26773000,0.0324,0.013523,0.002678,0.000431,0.000118
26774000,0.0324,0.013523,0.002678,0.000431,0.000353
26775000,0.0324,0.013523,0.002678,0.000431,0.000470
26776000,0.0324,0.013523,0.002678,0.000431,0.000353
26777000,0.0324,0.013523,0.002678,0.000431,0.000235
26778000,0.0324,0.013523,0.002678,0.000431,0.000353
26779000,0.0324,0.013523,0.002678,0.000431,0.000470
26780000,0.0324,0.013523,0.002678,0.000431,0.000118
26781000,0.0324,0.013523,0.002678,0.000431,0.000353
26782000,0.0324,0.013523,0.002678,0.000431,0.000470
26783000,0.0324,0.013523,0.002678,0.000431,0.000353
26784000,0.0324,0.013523,0.002678,0.000431,0.000235
26785000,0.0324,0.013523,0.002678,0.000431,0.000353
26786000,0.0324,0.013523,0.002678,0.000431,0.000353
26787000,0.0324,0.013523,0.002678,0.000431,0.000235
26788000,0.0324,0.013523,0.002678,0.000431,0.000353
26789000,0.0324,0.013523,0.002678,0.000431,0.000470
26790000,0.0324,0.013523,0.002678,0.000431,0.000353
26791000,0.0324,0.013523,0.002678,0.000431,0.000235
26792000,0.0324,0.013523,0.002678,0.000431,0.000353
26793000,0.0324,0.013523,0.002678,0.000431,0.000353
26794000,0.0324,0.013523,0.002678,0.000431,0.000235
26795000,0.0324,0.013523,0.002678,0.000431,0.000353
26796000,0.0324,0.013523,0.002678,0.000431,0.000470
26797000,0.0324,0.013523,0.002678,0.000431,0.000353
26798000,0.0324,0.013523,0.002678,0.000431,0.000235
26799000,0.0324,0.013523,0.002678,0.000431,0.000353
26800000,0.0324,0.013523,0.002678,0.000431,0.000353
26801000,0.0324,0.013523,0.002678,0.000431,0.000235
26802000,0.0324,0.013523,0.002678,0.000431,0.000353
26803000,0.0324,0.013523,0.002678,0.000431,0.000470
26804000,0.0324,0.013523,0.002678,0.000431,0.000353
26805000,0.0324,0.013523,0.002678,0.000431,0.000235
26806000,0.0324,0.013523,0.002678,0.000431,0.000353
26807000,0.0324,0.013523,0.002678,0.000431,0.000353
26808000,0.0324,0.013523,0.002678,0.000431,0.000235
26809000,0.0324,0.013523,0.002678,0.000431,0.000353
26810000,0.0324,0.013523,0.002678,0.000431,0.000470
26811000,0.0324,0.013523,0.002678,0.000431,0.000353
26812000,0.0324,0.013523,0.002678,0.000431,0.000235
26813000,0.0324,0.013523,0.002678,0.000431,0.000353
26814000,0.0324,0.013523,0.002678,0.000431,0.000353
26815000,0.0324,0.013523,0.002678,0.000431,0.000235
26816000,0.0324,0.013523,0.002678,0.000431,0.000353
26817000,0.0324,0.013523,0.002678,0.000431,0.000470
26818000,0.0324,0.013523,0.002678,0.000431,0.000353
26819000,0.0324,0.013523,0.002678,0.000431,0.000235
26820000,0.0324,0.013523,0.002678,0.000431,0.000353
26821000,0.0324,0.013523,0.002678,0.000431,0.000353
26822000,0.0324,0.013523,0.002678,0.000431,0.000235
26823000,0.0324,0.013523,0.002678,0.000431,0.000353
26824000,0.0324,0.013523,0.002678,0.000431,0.000470
26825000,0.0324,0.013523,0.002678,0.000431,0.000353
26826000,0.0324,0.013523,0.002678,0.000431,0.000235
26827000,0.0324,0.013523,0.002678,0.000431,0.000353
26828000,0.0324,0.013523,0.002678,0.000431,0.000353
26829000,0.0324,0.013523,0.002678,0.000431,0.000235
26830000,0.0324,0.013523,0.002678,0.000431,0.000353
26831000,0.0324,0.013523,0.002678,0.000431,0.000470
26832000,0.0324,0.013523,0.002678,0.000431,0.000353
26833000,0.0324,0.013523,0.002678,0.000431,0.000118
26834000,0.0324,0.013523,0.002678,0.000431,0.000470
26835000,0.0324,0.013523,0.002678,0.000431,0.000353
26836000,0.0324,0.013523,0.002678,0.000431,0.000235
26837000,0.0324,0.013523,0.002678,0.000431,0.000353
26838000,0.0324,0.013523,0.002678,0.000431,0.000470
26839000,0.0324,0.013523,0.002678,0.000431,0.000353
26840000,0.0324,0.013523,0.002678,0.000431,0.000118
26841000,0.0324,0.013523,0.002678,0.000431,0.000470
26842000,0.0324,0.013523,0.002678,0.000431,0.000353
26843000,0.0324,0.013523,0.002678,0.000431,0.000235
26844000,0.0324,0.013523,0.002678,0.000431,0.000353
26845000,0.0324,0.013523,0.002678,0.000431,0.000470
26846000,0.0324,0.013523,0.002678,0.000431,0.000353
26847000,0.0324,0.013523,0.002678,0.000431,0.000118
26848000,0.0324,0.013523,0.002678,0.000431,0.000470
26849000,0.0324,0.013523,0.002678,0.000431,0.000353
26850000,0.0324,0.013523,0.002678,0.000431,0.000235
26851000,0.0324,0.013523,0.002678,0.000431,0.000353
26852000,0.0324,0.013523,0.002678,0.000431,0.000470
26853000,0.0324,0.013523,0.002678,0.000431,0.000353
26854000,0.0324,0.013523,0.002678,0.000431,0.000118
26855000,0.0324,0.013523,0.002678,0.000431,0.000470
26856000,0.0324,0.013523,0.002678,0.000431,0.000353
26857000,0.0324,0.013523,0.002678,0.000431,0.000235
26858000,0.0324,0.013523,0.002678,0.000431,0.000353
26859000,0.0324,0.013523,0.002678,0.000431,0.000470
26860000,0.0324,0.013523,0.002678,0.000431,0.000235
26861000,0.0324,0.013523,0.002678,0.000431,0.000235
26862000,0.0324,0.013523,0.002678,0.000431,0.000470
26863000,0.0324,0.013523,0.002678,0.000431,0.000353
26864000,0.0324,0.013523,0.002678,0.000431,0.000235
26865000,0.0324,0.013523,0.002678,0.000431,0.000353
26866000,0.0324,0.013523,0.002678,0.000431,0.000470
26867000,0.0324,0.013523,0.002678,0.000431,0.000235
26868000,0.0324,0.013523,0.002678,0.000431,0.000235
26869000,0.0324,0.013523,0.002678,0.000431,0.000470
26870000,0.0324,0.013523,0.002678,0.000431,0.000353
26871000,0.0324,0.013523,0.002678,0.000431,0.000235
26872000,0.0324,0.013523,0.002678,0.000431,0.000353
26873000,0.0324,0.013523,0.002678,0.000431,0.000470
26874000,0.0324,0.013523,0.002678,0.000431,0.000235
26875000,0.0324,0.013523,0.002678,0.000431,0.000235
26876000,0.0324,0.013523,0.002678,0.000431,0.000470
26877000,0.0324,0.013523,0.002678,0.000431,0.000353
26878000,0.0324,0.013523,0.002678,0.000431,0.000235
26879000,0.0324,0.013523,0.002678,0.000431,0.000353
26880000,0.0324,0.013523,0.002678,0.000431,0.000470
26881000,0.0324,0.013523,0.002678,0.000431,0.000235
26882000,0.0324,0.013523,0.002678,0.000431,0.000235
26883000,0.0324,0.013523,0.002678,0.000431,0.000470
26884000,0.0324,0.013523,0.002678,0.000431,0.000353
26885000,0.0324,0.013523,0.002678,0.000431,0.000235
26886000,0.0324,0.013523,0.002678,0.000431,0.000353
26887000,0.0324,0.013523,0.002678,0.000431,0.000470
26888000,0.0324,0.013523,0.002678,0.000431,0.000235
26889000,0.0324,0.013523,0.002678,0.000431,0.000235
26890000,0.0324,0.013523,0.002678,0.000431,0.000470
26891000,0.0324,0.013523,0.002678,0.000431,0.000353
26892000,0.0324,0.013523,0.002678,0.000431,0.000235
26893000,0.0324,0.013523,0.002678,0.000431,0.000353
26894000,0.0324,0.013523,0.002678,0.000431,0.000470
26895000,0.0324,0.013523,0.002678,0.000431,0.000235
26896000,0.0324,0.013523,0.002678,0.000431,0.000235
26897000,0.0324,0.013523,0.002678,0.000431,0.000470
26898000,0.0324,0.013523,0.002678,0.000431,0.000353
26899000,0.0324,0.013523,0.002678,0.000431,0.000235
26900000,0.0324,0.013523,0.002678,0.000431,0.000353
26901000,0.0324,0.013523,0.002678,0.000431,0.000470
26902000,0.0324,0.013523,0.002678,0.000431,0.000118
26903000,0.0324,0.013523,0.002678,0.000431,0.000353
26904000,0.0324,0.013523,0.002678,0.000431,0.000470
26905000,0.0324,0.013523,0.002678,0.000431,0.000353
26906000,0.0324,0.013523,0.002678,0.000431,0.000235
26907000,0.0324,0.013523,0.002678,0.000431,0.000353
26908000,0.0324,0.013523,0.002678,0.000431,0.000470
26909000,0.0324,0.013523,0.002678,0.000431,0.000118
26910000,0.0324,0.013523,0.002678,0.000431,0.000353
26911000,0.0324,0.013523,0.002678,0.000431,0.000470
26912000,0.0324,0.013523,0.002678,0.000431,0.000353
26913000,0.0324,0.013523,0.002678,0.000431,0.000235
26914000,0.0324,0.013523,0.002678,0.000431,0.000353
26915000,0.0324,0.013523,0.002678,0.000431,0.000470
26916000,0.0324,0.013523,0.002678,0.000431,0.000118
26917000,0.0324,0.013523,0.002678,0.000431,0.000353
26918000,0.0324,0.013523,0.002678,0.000431,0.000470
26919000,0.0324,0.013523,0.002678,0.000431,0.000353
26920000,0.0324,0.013523,0.002678,0.000431,0.000235
26921000,0.0324,0.013523,0.002678,0.000431,0.000353
26922000,0.0324,0.013523,0.002678,0.000431,0.000353
26923000,0.0324,0.013523,0.002678,0.000431,0.000235
26924000,0.0324,0.013523,0.002678,0.000431,0.000353
26925000,0.0324,0.013523,0.002678,0.000431,0.000470
26926000,0.0324,0.013523,0.002678,0.000431,0.000353
26927000,0.0324,0.013523,0.002678,0.000431,0.000235
26928000,0.0324,0.013523,0.002678,0.000431,0.000353
26929000,0.0324,0.013523,0.002678,0.000431,0.000353
26930000,0.0324,0.013523,0.002678,0.000431,0.000235
26931000,0.0324,0.013523,0.002678,0.000431,0.000353
26932000,0.0324,0.013523,0.002678,0.000431,0.000470
26933000,0.0324,0.013523,0.002678,0.000431,0.000353
26934000,0.0324,0.013523,0.002678,0.000431,0.000235
26935000,0.0324,0.013523,0.002678,0.000431,0.000353
26936000,0.0324,0.013523,0.002678,0.000431,0.000353
26937000,0.0324,0.013523,0.002678,0.000431,0.000235
26938000,0.0324,0.013523,0.002678,0.000431,0.000353
26939000,0.0324,0.013523,0.002678,0.000431,0.000470
26940000,0.0324,0.013523,0.002678,0.000431,0.000353
26941000,0.0324,0.013523,0.002678,0.000431,0.000235
26942000,0.0324,0.013523,0.002678,0.000431,0.000353
26943000,0.0324,0.013523,0.002678,0.000431,0.000353
26944000,0.0324,0.013523,0.002678,0.000431,0.000235
26945000,0.0324,0.013523,0.002678,0.000431,0.000353
26946000,0.0324,0.013523,0.002678,0.000431,0.000470
26947000,0.0324,0.013523,0.002678,0.000431,0.000353
26948000,0.0324,0.013523,0.002678,0.000431,0.000235
26949000,0.0324,0.013523,0.002678,0.000431,0.000353
26950000,0.0324,0.013523,0.002678,0.000431,0.000353
26951000,0.0324,0.013523,0.002678,0.000431,0.000235
26952000,0.0324,0.013523,0.002678,0.000431,0.000353
26953000,0.0324,0.013523,0.002678,0.000431,0.000470
26954000,0.0324,0.013523,0.002678,0.000431,0.000353
26955000,0.0324,0.013523,0.002678,0.000431,0.000235
26956000,0.0324,0.013523,0.002678,0.000431,0.000353
26957000,0.0324,0.013523,0.002678,0.000431,0.000353
26958000,0.0324,0.013523,0.002678,0.000431,0.000235
26959000,0.0324,0.013523,0.002678,0.000431,0.000353
26960000,0.0324,0.013523,0.002678,0.000431,0.000470
26961000,0.0324,0.013523,0.002678,0.000431,0.000353
26962000,0.0324,0.013523,0.002678,0.000431,0.000235
26963000,0.0324,0.013523,0.002678,0.000431,0.000353
26964000,0.0324,0.013523,0.002678,0.000431,0.000353
26965000,0.0324,0.013523,0.002678,0.000431,0.000235
26966000,0.0324,0.013523,0.002678,0.000431,0.000353
26967000,0.0324,0.013523,0.002678,0.000431,0.000470
26968000,0.0324,0.013523,0.002678,0.000431,0.000353
26969000,0.0324,0.013523,0.002678,0.000431,0.000235
26970000,0.0324,0.013523,0.002678,0.000431,0.000353
26971000,0.0324,0.013523,0.002678,0.000431,0.000353
26972000,0.0324,0.013523,0.002678,0.000431,0.000235
26973000,0.0324,0.013523,0.002678,0.000431,0.000353
26974000,0.0324,0.013523,0.002678,0.000431,0.000470
26975000,0.0324,0.013523,0.002678,0.000431,0.000353
26976000,0.0324,0.013523,0.002678,0.000431,0.000118
26977000,0.0324,0.013523,0.002678,0.000431,0.000470
26978000,0.0324,0.013523,0.002678,0.000431,0.000353
26979000,0.0324,0.013523,0.002678,0.000431,0.000235
26980000,0.0324,0.013523,0.002678,0.000431,0.000353
26981000,0.0324,0.013523,0.002678,0.000431,0.000470
26982000,0.0324,0.013523,0.002678,0.000431,0.000353
26983000,0.0324,0.013523,0.002678,0.000431,0.000118
26984000,0.0324,0.013523,0.002678,0.000431,0.000470
26985000,0.0324,0.013523,0.002678,0.000431,0.000353
26986000,0.0324,0.013523,0.002678,0.000431,0.000235
26987000,0.0324,0.013523,0.002678,0.000431,0.000353
26988000,0.0324,0.013523,0.002678,0.000431,0.000470
26989000,0.0324,0.013523,0.002678,0.000431,0.000353
26990000,0.0324,0.013523,0.002678,0.000431,0.000118
26991000,0.0324,0.013523,0.002678,0.000431,0.000470
26992000,0.0324,0.013523,0.002678,0.000431,0.000353
26993000,0.0324,0.013523,0.002678,0.000431,0.000235
26994000,0.0324,0.013523,0.002678,0.000431,0.000353
26995000,0.0324,0.013523,0.002678,0.000431,0.000470
26996000,0.0324,0.013523,0.002678,0.000431,0.000235
26997000,0.0324,0.013523,0.002678,0.000431,0.000235
26998000,0.0324,0.013523,0.002678,0.000431,0.000470
26999000,0.0324,0.013523,0.002678,0.000431,0.000353
