Cycle,Area(mm^2),PeakDynamic(W),SubthresholdLeakage(W),GateLeakage(W),RunTimeDynamic(W)
1000,0.0324,0.013523,0.002678,0.000431,0.000000
2000,0.0324,0.013523,0.002678,0.000431,0.000000
3000,0.0324,0.013523,0.002678,0.000431,0.000000
4000,0.0324,0.013523,0.002678,0.000431,0.000000
5000,0.0324,0.013523,0.002678,0.000431,0.000000
6000,0.0324,0.013523,0.002678,0.000431,1.746704
7000,0.0324,0.013523,0.002678,0.000431,1.298216
8000,0.0324,0.013523,0.002678,0.000431,1.901253
9000,0.0324,0.013523,0.002678,0.000431,1.020497
10000,0.0324,0.013523,0.002678,0.000431,0.918248
11000,0.0324,0.013523,0.002678,0.000431,1.414922
12000,0.0324,0.013523,0.002678,0.000431,1.265661
13000,0.0324,0.013523,0.002678,0.000431,1.310204
14000,0.0324,0.013523,0.002678,0.000431,1.243566
15000,0.0324,0.013523,0.002678,0.000431,1.346755
16000,0.0324,0.013523,0.002678,0.000431,1.391534
17000,0.0324,0.013523,0.002678,0.000431,1.288109
18000,0.0324,0.013523,0.002678,0.000431,1.256259
19000,0.0324,0.013523,0.002678,0.000431,1.390829
20000,0.0324,0.013523,0.002678,0.000431,1.398820
21000,0.0324,0.013523,0.002678,0.000431,1.527396
22000,0.0324,0.013523,0.002678,0.000431,1.527279
23000,0.0324,0.013523,0.002678,0.000431,1.593330
24000,0.0324,0.013523,0.002678,0.000431,1.533390
25000,0.0324,0.013523,0.002678,0.000431,1.487437
26000,0.0324,0.013523,0.002678,0.000431,1.592977
27000,0.0324,0.013523,0.002678,0.000431,1.612369
28000,0.0324,0.013523,0.002678,0.000431,1.466869
29000,0.0324,0.013523,0.002678,0.000431,1.598618
30000,0.0324,0.013523,0.002678,0.000431,1.569236
31000,0.0324,0.013523,0.002678,0.000431,1.405167
32000,0.0324,0.013523,0.002678,0.000431,1.533390
33000,0.0324,0.013523,0.002678,0.000431,1.561009
34000,0.0324,0.013523,0.002678,0.000431,1.513881
35000,0.0324,0.013523,0.002678,0.000431,1.618363
36000,0.0324,0.013523,0.002678,0.000431,1.608843
37000,0.0324,0.013523,0.002678,0.000431,1.594035
38000,0.0324,0.013523,0.002678,0.000431,1.755401
39000,0.0324,0.013523,0.002678,0.000431,1.773618
40000,0.0324,0.013523,0.002678,0.000431,1.741768
41000,0.0324,0.013523,0.002678,0.000431,1.820041
42000,0.0324,0.013523,0.002678,0.000431,1.560422
43000,0.0324,0.013523,0.002678,0.000431,1.679125
44000,0.0324,0.013523,0.002678,0.000431,1.740710
45000,0.0324,0.013523,0.002678,0.000431,1.557366
46000,0.0324,0.013523,0.002678,0.000431,1.628353
47000,0.0324,0.013523,0.002678,0.000431,1.718615
48000,0.0324,0.013523,0.002678,0.000431,1.562890
49000,0.0324,0.013523,0.002678,0.000431,1.473921
50000,0.0324,0.013523,0.002678,0.000431,1.885740
51000,0.0324,0.013523,0.002678,0.000431,1.489787
52000,0.0324,0.013523,0.002678,0.000431,1.579579
53000,0.0324,0.013523,0.002678,0.000431,1.885152
54000,0.0324,0.013523,0.002678,0.000431,1.797476
55000,0.0324,0.013523,0.002678,0.000431,1.627765
56000,0.0324,0.013523,0.002678,0.000431,1.776203
57000,0.0324,0.013523,0.002678,0.000431,1.637403
58000,0.0324,0.013523,0.002678,0.000431,1.498484
59000,0.0324,0.013523,0.002678,0.000431,1.769739
60000,0.0324,0.013523,0.002678,0.000431,1.783255
61000,0.0324,0.013523,0.002678,0.000431,1.359213
62000,0.0324,0.013523,0.002678,0.000431,1.640693
63000,0.0324,0.013523,0.002678,0.000431,1.887738
64000,0.0324,0.013523,0.002678,0.000431,1.584515
65000,0.0324,0.013523,0.002678,0.000431,1.807583
66000,0.0324,0.013523,0.002678,0.000431,1.898433
67000,0.0324,0.013523,0.002678,0.000431,1.727312
68000,0.0324,0.013523,0.002678,0.000431,1.439603
69000,0.0324,0.013523,0.002678,0.000431,0.817879
70000,0.0324,0.013523,0.002678,0.000431,0.055121
71000,0.0324,0.013523,0.002678,0.000431,0.006464
72000,0.0324,0.013523,0.002678,0.000431,0.004584
73000,0.0324,0.013523,0.002678,0.000431,0.004113
74000,0.0324,0.013523,0.002678,0.000431,0.002468
75000,0.0324,0.013523,0.002678,0.000431,0.003056
76000,0.0324,0.013523,0.002678,0.000431,0.002351
77000,0.0324,0.013523,0.002678,0.000431,0.001880
78000,0.0324,0.013523,0.002678,0.000431,0.001528
79000,0.0324,0.013523,0.002678,0.000431,0.001880
80000,0.0324,0.013523,0.002678,0.000431,0.001645
81000,0.0324,0.013523,0.002678,0.000431,0.001410
82000,0.0324,0.013523,0.002678,0.000431,0.001763
83000,0.0324,0.013523,0.002678,0.000431,0.001410
84000,0.0324,0.013523,0.002678,0.000431,0.001528
85000,0.0324,0.013523,0.002678,0.000431,0.001645
86000,0.0324,0.013523,0.002678,0.000431,0.001763
87000,0.0324,0.013523,0.002678,0.000431,0.000353
88000,0.0324,0.013523,0.002678,0.000431,0.000235
89000,0.0324,0.013523,0.002678,0.000431,0.000353
90000,0.0324,0.013523,0.002678,0.000431,0.000470
91000,0.0324,0.013523,0.002678,0.000431,0.000118
92000,0.0324,0.013523,0.002678,0.000431,0.000353
93000,0.0324,0.013523,0.002678,0.000431,0.000470
94000,0.0324,0.013523,0.002678,0.000431,0.000353
95000,0.0324,0.013523,0.002678,0.000431,0.000235
96000,0.0324,0.013523,0.002678,0.000431,0.000353
97000,0.0324,0.013523,0.002678,0.000431,0.000353
98000,0.0324,0.013523,0.002678,0.000431,0.000235
99000,0.0324,0.013523,0.002678,0.000431,0.000353
100000,0.0324,0.013523,0.002678,0.000431,0.000470
101000,0.0324,0.013523,0.002678,0.000431,0.000353
102000,0.0324,0.013523,0.002678,0.000431,0.000118
103000,0.0324,0.013523,0.002678,0.000431,0.000470
104000,0.0324,0.013523,0.002678,0.000431,0.000353
105000,0.0324,0.013523,0.002678,0.000431,0.000235
106000,0.0324,0.013523,0.002678,0.000431,0.000353
107000,0.0324,0.013523,0.002678,0.000431,0.000470
108000,0.0324,0.013523,0.002678,0.000431,0.000235
109000,0.0324,0.013523,0.002678,0.000431,0.000235
110000,0.0324,0.013523,0.002678,0.000431,0.000470
111000,0.0324,0.013523,0.002678,0.000431,0.000353
112000,0.0324,0.013523,0.002678,0.000431,0.000235
113000,0.0324,0.013523,0.002678,0.000431,0.000353
114000,0.0324,0.013523,0.002678,0.000431,0.000470
115000,0.0324,0.013523,0.002678,0.000431,0.000118
116000,0.0324,0.013523,0.002678,0.000431,0.000353
117000,0.0324,0.013523,0.002678,0.000431,0.000470
118000,0.0324,0.013523,0.002678,0.000431,0.000353
119000,0.0324,0.013523,0.002678,0.000431,0.000235
120000,0.0324,0.013523,0.002678,0.000431,0.000353
121000,0.0324,0.013523,0.002678,0.000431,0.000353
122000,0.0324,0.013523,0.002678,0.000431,0.000235
123000,0.0324,0.013523,0.002678,0.000431,0.000353
124000,0.0324,0.013523,0.002678,0.000431,0.000470
125000,0.0324,0.013523,0.002678,0.000431,0.000353
126000,0.0324,0.013523,0.002678,0.000431,0.000235
127000,0.0324,0.013523,0.002678,0.000431,0.000353
128000,0.0324,0.013523,0.002678,0.000431,0.000353
129000,0.0324,0.013523,0.002678,0.000431,0.000235
130000,0.0324,0.013523,0.002678,0.000431,0.000353
131000,0.0324,0.013523,0.002678,0.000431,0.000470
132000,0.0324,0.013523,0.002678,0.000431,0.000235
133000,0.0324,0.013523,0.002678,0.000431,0.000235
134000,0.0324,0.013523,0.002678,0.000431,0.000470
135000,0.0324,0.013523,0.002678,0.000431,0.000353
136000,0.0324,0.013523,0.002678,0.000431,0.000235
137000,0.0324,0.013523,0.002678,0.000431,0.000353
138000,0.0324,0.013523,0.002678,0.000431,0.000470
139000,0.0324,0.013523,0.002678,0.000431,0.000118
140000,0.0324,0.013523,0.002678,0.000431,0.000353
141000,0.0324,0.013523,0.002678,0.000431,0.000470
142000,0.0324,0.013523,0.002678,0.000431,0.000353
143000,0.0324,0.013523,0.002678,0.000431,0.000235
144000,0.0324,0.013523,0.002678,0.000431,0.000353
145000,0.0324,0.013523,0.002678,0.000431,0.000353
146000,0.0324,0.013523,0.002678,0.000431,0.000235
147000,0.0324,0.013523,0.002678,0.000431,0.000353
148000,0.0324,0.013523,0.002678,0.000431,0.000470
149000,0.0324,0.013523,0.002678,0.000431,0.000353
150000,0.0324,0.013523,0.002678,0.000431,0.000118
151000,0.0324,0.013523,0.002678,0.000431,0.000470
152000,0.0324,0.013523,0.002678,0.000431,0.000353
153000,0.0324,0.013523,0.002678,0.000431,0.000235
154000,0.0324,0.013523,0.002678,0.000431,0.000353
155000,0.0324,0.013523,0.002678,0.000431,0.000470
156000,0.0324,0.013523,0.002678,0.000431,0.000235
157000,0.0324,0.013523,0.002678,0.000431,0.000235
158000,0.0324,0.013523,0.002678,0.000431,0.000470
159000,0.0324,0.013523,0.002678,0.000431,0.000353
160000,0.0324,0.013523,0.002678,0.000431,0.000235
161000,0.0324,0.013523,0.002678,0.000431,0.000353
162000,0.0324,0.013523,0.002678,0.000431,0.000470
163000,0.0324,0.013523,0.002678,0.000431,0.000118
164000,0.0324,0.013523,0.002678,0.000431,0.000353
165000,0.0324,0.013523,0.002678,0.000431,0.000470
166000,0.0324,0.013523,0.002678,0.000431,0.000353
167000,0.0324,0.013523,0.002678,0.000431,0.000235
168000,0.0324,0.013523,0.002678,0.000431,0.000353
169000,0.0324,0.013523,0.002678,0.000431,0.000353
170000,0.0324,0.013523,0.002678,0.000431,0.000235
171000,0.0324,0.013523,0.002678,0.000431,0.000353
172000,0.0324,0.013523,0.002678,0.000431,0.000470
173000,0.0324,0.013523,0.002678,0.000431,0.000353
174000,0.0324,0.013523,0.002678,0.000431,0.000235
175000,0.0324,0.013523,0.002678,0.000431,0.000353
176000,0.0324,0.013523,0.002678,0.000431,0.000353
177000,0.0324,0.013523,0.002678,0.000431,0.000235
178000,0.0324,0.013523,0.002678,0.000431,0.000353
179000,0.0324,0.013523,0.002678,0.000431,0.000470
180000,0.0324,0.013523,0.002678,0.000431,0.000235
181000,0.0324,0.013523,0.002678,0.000431,0.000235
182000,0.0324,0.013523,0.002678,0.000431,0.000470
183000,0.0324,0.013523,0.002678,0.000431,0.000353
184000,0.0324,0.013523,0.002678,0.000431,0.000235
185000,0.0324,0.013523,0.002678,0.000431,0.000353
186000,0.0324,0.013523,0.002678,0.000431,0.000470
187000,0.0324,0.013523,0.002678,0.000431,0.000235
188000,0.0324,0.013523,0.002678,0.000431,0.000235
189000,0.0324,0.013523,0.002678,0.000431,0.000470
190000,0.0324,0.013523,0.002678,0.000431,0.000353
191000,0.0324,0.013523,0.002678,0.000431,0.000235
192000,0.0324,0.013523,0.002678,0.000431,0.000353
193000,0.0324,0.013523,0.002678,0.000431,0.000353
194000,0.0324,0.013523,0.002678,0.000431,0.000235
195000,0.0324,0.013523,0.002678,0.000431,0.000353
196000,0.0324,0.013523,0.002678,0.000431,0.000470
197000,0.0324,0.013523,0.002678,0.000431,0.000353
198000,0.0324,0.013523,0.002678,0.000431,0.000235
199000,0.0324,0.013523,0.002678,0.000431,0.000353
200000,0.0324,0.013523,0.002678,0.000431,0.000353
201000,0.0324,0.013523,0.002678,0.000431,0.000235
202000,0.0324,0.013523,0.002678,0.000431,0.000353
203000,0.0324,0.013523,0.002678,0.000431,0.000470
204000,0.0324,0.013523,0.002678,0.000431,0.000353
205000,0.0324,0.013523,0.002678,0.000431,0.000235
206000,0.0324,0.013523,0.002678,0.000431,0.000353
207000,0.0324,0.013523,0.002678,0.000431,0.000353
208000,0.0324,0.013523,0.002678,0.000431,0.000235
209000,0.0324,0.013523,0.002678,0.000431,0.000353
210000,0.0324,0.013523,0.002678,0.000431,0.000470
211000,0.0324,0.013523,0.002678,0.000431,0.000353
212000,0.0324,0.013523,0.002678,0.000431,0.000118
213000,0.0324,0.013523,0.002678,0.000431,0.000470
214000,0.0324,0.013523,0.002678,0.000431,0.000353
215000,0.0324,0.013523,0.002678,0.000431,0.000235
216000,0.0324,0.013523,0.002678,0.000431,0.000353
217000,0.0324,0.013523,0.002678,0.000431,0.000470
218000,0.0324,0.013523,0.002678,0.000431,0.000353
219000,0.0324,0.013523,0.002678,0.000431,0.000118
220000,0.0324,0.013523,0.002678,0.000431,0.000470
221000,0.0324,0.013523,0.002678,0.000431,0.000353
222000,0.0324,0.013523,0.002678,0.000431,0.000235
223000,0.0324,0.013523,0.002678,0.000431,0.000353
224000,0.0324,0.013523,0.002678,0.000431,0.000470
225000,0.0324,0.013523,0.002678,0.000431,0.000353
226000,0.0324,0.013523,0.002678,0.000431,0.000118
227000,0.0324,0.013523,0.002678,0.000431,0.000470
228000,0.0324,0.013523,0.002678,0.000431,0.000353
229000,0.0324,0.013523,0.002678,0.000431,0.000235
230000,0.0324,0.013523,0.002678,0.000431,0.000353
231000,0.0324,0.013523,0.002678,0.000431,0.000470
232000,0.0324,0.013523,0.002678,0.000431,0.000353
233000,0.0324,0.013523,0.002678,0.000431,0.000118
234000,0.0324,0.013523,0.002678,0.000431,0.000470
235000,0.0324,0.013523,0.002678,0.000431,0.000353
236000,0.0324,0.013523,0.002678,0.000431,0.000235
237000,0.0324,0.013523,0.002678,0.000431,0.000353
238000,0.0324,0.013523,0.002678,0.000431,0.000470
239000,0.0324,0.013523,0.002678,0.000431,0.000235
240000,0.0324,0.013523,0.002678,0.000431,0.000235
241000,0.0324,0.013523,0.002678,0.000431,0.000470
242000,0.0324,0.013523,0.002678,0.000431,0.000353
243000,0.0324,0.013523,0.002678,0.000431,0.000235
244000,0.0324,0.013523,0.002678,0.000431,0.000353
245000,0.0324,0.013523,0.002678,0.000431,0.000470
246000,0.0324,0.013523,0.002678,0.000431,0.000235
247000,0.0324,0.013523,0.002678,0.000431,0.000235
248000,0.0324,0.013523,0.002678,0.000431,0.000470
249000,0.0324,0.013523,0.002678,0.000431,0.000353
250000,0.0324,0.013523,0.002678,0.000431,0.000235
251000,0.0324,0.013523,0.002678,0.000431,0.000353
252000,0.0324,0.013523,0.002678,0.000431,0.000470
253000,0.0324,0.013523,0.002678,0.000431,0.000235
254000,0.0324,0.013523,0.002678,0.000431,0.000235
255000,0.0324,0.013523,0.002678,0.000431,0.000470
256000,0.0324,0.013523,0.002678,0.000431,0.000353
257000,0.0324,0.013523,0.002678,0.000431,0.000235
258000,0.0324,0.013523,0.002678,0.000431,0.000353
259000,0.0324,0.013523,0.002678,0.000431,0.000470
260000,0.0324,0.013523,0.002678,0.000431,0.000235
261000,0.0324,0.013523,0.002678,0.000431,0.000235
262000,0.0324,0.013523,0.002678,0.000431,0.000470
263000,0.0324,0.013523,0.002678,0.000431,0.000353
264000,0.0324,0.013523,0.002678,0.000431,0.000235
265000,0.0324,0.013523,0.002678,0.000431,0.000353
266000,0.0324,0.013523,0.002678,0.000431,0.000470
267000,0.0324,0.013523,0.002678,0.000431,0.000235
268000,0.0324,0.013523,0.002678,0.000431,0.000235
269000,0.0324,0.013523,0.002678,0.000431,0.000470
270000,0.0324,0.013523,0.002678,0.000431,0.000353
271000,0.0324,0.013523,0.002678,0.000431,0.000235
272000,0.0324,0.013523,0.002678,0.000431,0.000353
273000,0.0324,0.013523,0.002678,0.000431,0.000470
274000,0.0324,0.013523,0.002678,0.000431,0.000235
275000,0.0324,0.013523,0.002678,0.000431,0.000235
276000,0.0324,0.013523,0.002678,0.000431,0.000470
277000,0.0324,0.013523,0.002678,0.000431,0.000353
278000,0.0324,0.013523,0.002678,0.000431,0.000235
279000,0.0324,0.013523,0.002678,0.000431,0.000353
280000,0.0324,0.013523,0.002678,0.000431,0.000470
281000,0.0324,0.013523,0.002678,0.000431,0.000118
282000,0.0324,0.013523,0.002678,0.000431,0.000353
283000,0.0324,0.013523,0.002678,0.000431,0.000470
284000,0.0324,0.013523,0.002678,0.000431,0.000353
285000,0.0324,0.013523,0.002678,0.000431,0.000235
286000,0.0324,0.013523,0.002678,0.000431,0.000353
287000,0.0324,0.013523,0.002678,0.000431,0.000470
288000,0.0324,0.013523,0.002678,0.000431,0.000118
289000,0.0324,0.013523,0.002678,0.000431,0.000353
290000,0.0324,0.013523,0.002678,0.000431,0.000470
291000,0.0324,0.013523,0.002678,0.000431,0.000353
292000,0.0324,0.013523,0.002678,0.000431,0.000235
293000,0.0324,0.013523,0.002678,0.000431,0.000353
294000,0.0324,0.013523,0.002678,0.000431,0.000470
295000,0.0324,0.013523,0.002678,0.000431,0.000118
296000,0.0324,0.013523,0.002678,0.000431,0.000353
297000,0.0324,0.013523,0.002678,0.000431,0.000470
298000,0.0324,0.013523,0.002678,0.000431,0.000353
299000,0.0324,0.013523,0.002678,0.000431,0.000235
300000,0.0324,0.013523,0.002678,0.000431,0.000353
301000,0.0324,0.013523,0.002678,0.000431,0.000353
302000,0.0324,0.013523,0.002678,0.000431,0.000235
303000,0.0324,0.013523,0.002678,0.000431,0.000353
304000,0.0324,0.013523,0.002678,0.000431,0.000470
305000,0.0324,0.013523,0.002678,0.000431,0.000353
306000,0.0324,0.013523,0.002678,0.000431,0.000235
307000,0.0324,0.013523,0.002678,0.000431,0.000353
308000,0.0324,0.013523,0.002678,0.000431,0.000353
309000,0.0324,0.013523,0.002678,0.000431,0.000235
310000,0.0324,0.013523,0.002678,0.000431,0.000353
311000,0.0324,0.013523,0.002678,0.000431,0.000470
312000,0.0324,0.013523,0.002678,0.000431,0.000353
313000,0.0324,0.013523,0.002678,0.000431,0.000235
314000,0.0324,0.013523,0.002678,0.000431,0.000353
315000,0.0324,0.013523,0.002678,0.000431,0.000353
316000,0.0324,0.013523,0.002678,0.000431,0.000235
317000,0.0324,0.013523,0.002678,0.000431,0.000353
318000,0.0324,0.013523,0.002678,0.000431,0.000470
319000,0.0324,0.013523,0.002678,0.000431,0.000353
320000,0.0324,0.013523,0.002678,0.000431,0.000235
321000,0.0324,0.013523,0.002678,0.000431,0.000353
322000,0.0324,0.013523,0.002678,0.000431,0.000353
323000,0.0324,0.013523,0.002678,0.000431,0.000235
324000,0.0324,0.013523,0.002678,0.000431,0.000353
325000,0.0324,0.013523,0.002678,0.000431,0.000470
326000,0.0324,0.013523,0.002678,0.000431,0.000353
327000,0.0324,0.013523,0.002678,0.000431,0.000235
328000,0.0324,0.013523,0.002678,0.000431,0.000353
329000,0.0324,0.013523,0.002678,0.000431,0.000353
330000,0.0324,0.013523,0.002678,0.000431,0.000235
331000,0.0324,0.013523,0.002678,0.000431,0.000353
332000,0.0324,0.013523,0.002678,0.000431,0.000470
333000,0.0324,0.013523,0.002678,0.000431,0.000353
334000,0.0324,0.013523,0.002678,0.000431,0.000235
335000,0.0324,0.013523,0.002678,0.000431,0.000353
336000,0.0324,0.013523,0.002678,0.000431,0.000353
337000,0.0324,0.013523,0.002678,0.000431,0.000235
338000,0.0324,0.013523,0.002678,0.000431,0.000353
339000,0.0324,0.013523,0.002678,0.000431,0.000470
340000,0.0324,0.013523,0.002678,0.000431,0.000353
341000,0.0324,0.013523,0.002678,0.000431,0.000235
342000,0.0324,0.013523,0.002678,0.000431,0.000353
343000,0.0324,0.013523,0.002678,0.000431,0.000353
344000,0.0324,0.013523,0.002678,0.000431,0.000235
345000,0.0324,0.013523,0.002678,0.000431,0.000353
346000,0.0324,0.013523,0.002678,0.000431,0.000470
347000,0.0324,0.013523,0.002678,0.000431,0.000353
348000,0.0324,0.013523,0.002678,0.000431,0.000235
349000,0.0324,0.013523,0.002678,0.000431,0.000353
350000,0.0324,0.013523,0.002678,0.000431,0.000353
351000,0.0324,0.013523,0.002678,0.000431,0.000235
352000,0.0324,0.013523,0.002678,0.000431,0.000353
353000,0.0324,0.013523,0.002678,0.000431,0.000470
354000,0.0324,0.013523,0.002678,0.000431,0.000353
355000,0.0324,0.013523,0.002678,0.000431,0.000118
356000,0.0324,0.013523,0.002678,0.000431,0.000470
357000,0.0324,0.013523,0.002678,0.000431,0.000353
358000,0.0324,0.013523,0.002678,0.000431,0.000235
359000,0.0324,0.013523,0.002678,0.000431,0.000353
360000,0.0324,0.013523,0.002678,0.000431,0.000470
361000,0.0324,0.013523,0.002678,0.000431,0.000353
362000,0.0324,0.013523,0.002678,0.000431,0.000118
363000,0.0324,0.013523,0.002678,0.000431,0.000470
364000,0.0324,0.013523,0.002678,0.000431,0.000353
365000,0.0324,0.013523,0.002678,0.000431,0.000235
366000,0.0324,0.013523,0.002678,0.000431,0.000353
367000,0.0324,0.013523,0.002678,0.000431,0.000470
368000,0.0324,0.013523,0.002678,0.000431,0.000353
369000,0.0324,0.013523,0.002678,0.000431,0.000118
370000,0.0324,0.013523,0.002678,0.000431,0.000470
371000,0.0324,0.013523,0.002678,0.000431,0.000353
372000,0.0324,0.013523,0.002678,0.000431,0.000235
373000,0.0324,0.013523,0.002678,0.000431,0.000353
374000,0.0324,0.013523,0.002678,0.000431,0.000470
375000,0.0324,0.013523,0.002678,0.000431,0.000235
376000,0.0324,0.013523,0.002678,0.000431,0.000235
377000,0.0324,0.013523,0.002678,0.000431,0.000470
378000,0.0324,0.013523,0.002678,0.000431,0.000353
379000,0.0324,0.013523,0.002678,0.000431,0.000235
380000,0.0324,0.013523,0.002678,0.000431,0.000353
381000,0.0324,0.013523,0.002678,0.000431,0.000470
382000,0.0324,0.013523,0.002678,0.000431,0.000235
383000,0.0324,0.013523,0.002678,0.000431,0.000235
384000,0.0324,0.013523,0.002678,0.000431,0.000470
385000,0.0324,0.013523,0.002678,0.000431,0.000353
386000,0.0324,0.013523,0.002678,0.000431,0.000235
387000,0.0324,0.013523,0.002678,0.000431,0.000353
388000,0.0324,0.013523,0.002678,0.000431,0.000470
389000,0.0324,0.013523,0.002678,0.000431,0.000235
390000,0.0324,0.013523,0.002678,0.000431,0.000235
391000,0.0324,0.013523,0.002678,0.000431,0.000470
392000,0.0324,0.013523,0.002678,0.000431,0.000353
393000,0.0324,0.013523,0.002678,0.000431,0.000235
394000,0.0324,0.013523,0.002678,0.000431,0.000353
395000,0.0324,0.013523,0.002678,0.000431,0.000470
396000,0.0324,0.013523,0.002678,0.000431,0.000235
397000,0.0324,0.013523,0.002678,0.000431,0.000235
398000,0.0324,0.013523,0.002678,0.000431,0.000470
399000,0.0324,0.013523,0.002678,0.000431,0.000353
400000,0.0324,0.013523,0.002678,0.000431,0.000235
401000,0.0324,0.013523,0.002678,0.000431,0.000353
402000,0.0324,0.013523,0.002678,0.000431,0.000470
403000,0.0324,0.013523,0.002678,0.000431,0.000235
404000,0.0324,0.013523,0.002678,0.000431,0.000235
405000,0.0324,0.013523,0.002678,0.000431,0.000470
406000,0.0324,0.013523,0.002678,0.000431,0.000353
407000,0.0324,0.013523,0.002678,0.000431,0.000235
408000,0.0324,0.013523,0.002678,0.000431,0.000353
409000,0.0324,0.013523,0.002678,0.000431,0.000470
410000,0.0324,0.013523,0.002678,0.000431,0.000235
411000,0.0324,0.013523,0.002678,0.000431,0.000235
412000,0.0324,0.013523,0.002678,0.000431,0.000470
413000,0.0324,0.013523,0.002678,0.000431,0.000353
414000,0.0324,0.013523,0.002678,0.000431,0.000235
415000,0.0324,0.013523,0.002678,0.000431,0.000353
416000,0.0324,0.013523,0.002678,0.000431,0.000470
417000,0.0324,0.013523,0.002678,0.000431,0.000118
418000,0.0324,0.013523,0.002678,0.000431,0.000353
419000,0.0324,0.013523,0.002678,0.000431,0.000470
420000,0.0324,0.013523,0.002678,0.000431,0.000353
421000,0.0324,0.013523,0.002678,0.000431,0.000235
422000,0.0324,0.013523,0.002678,0.000431,0.000353
423000,0.0324,0.013523,0.002678,0.000431,0.000470
424000,0.0324,0.013523,0.002678,0.000431,0.000118
425000,0.0324,0.013523,0.002678,0.000431,0.000353
426000,0.0324,0.013523,0.002678,0.000431,0.000470
427000,0.0324,0.013523,0.002678,0.000431,0.000353
428000,0.0324,0.013523,0.002678,0.000431,0.000235
429000,0.0324,0.013523,0.002678,0.000431,0.000353
430000,0.0324,0.013523,0.002678,0.000431,0.000470
431000,0.0324,0.013523,0.002678,0.000431,0.000118
432000,0.0324,0.013523,0.002678,0.000431,0.000353
433000,0.0324,0.013523,0.002678,0.000431,0.000470
434000,0.0324,0.013523,0.002678,0.000431,0.000353
435000,0.0324,0.013523,0.002678,0.000431,0.000235
436000,0.0324,0.013523,0.002678,0.000431,0.000353
437000,0.0324,0.013523,0.002678,0.000431,0.000470
438000,0.0324,0.013523,0.002678,0.000431,0.000118
439000,0.0324,0.013523,0.002678,0.000431,0.000353
440000,0.0324,0.013523,0.002678,0.000431,0.000470
441000,0.0324,0.013523,0.002678,0.000431,0.000353
442000,0.0324,0.013523,0.002678,0.000431,0.000235
443000,0.0324,0.013523,0.002678,0.000431,0.000353
444000,0.0324,0.013523,0.002678,0.000431,0.000353
445000,0.0324,0.013523,0.002678,0.000431,0.000235
446000,0.0324,0.013523,0.002678,0.000431,0.000353
447000,0.0324,0.013523,0.002678,0.000431,0.000470
448000,0.0324,0.013523,0.002678,0.000431,0.000353
449000,0.0324,0.013523,0.002678,0.000431,0.000235
450000,0.0324,0.013523,0.002678,0.000431,0.000353
451000,0.0324,0.013523,0.002678,0.000431,0.000353
452000,0.0324,0.013523,0.002678,0.000431,0.000235
453000,0.0324,0.013523,0.002678,0.000431,0.000353
454000,0.0324,0.013523,0.002678,0.000431,0.000470
455000,0.0324,0.013523,0.002678,0.000431,0.000353
456000,0.0324,0.013523,0.002678,0.000431,0.000235
457000,0.0324,0.013523,0.002678,0.000431,0.000353
458000,0.0324,0.013523,0.002678,0.000431,0.000353
459000,0.0324,0.013523,0.002678,0.000431,0.000235
460000,0.0324,0.013523,0.002678,0.000431,0.000353
461000,0.0324,0.013523,0.002678,0.000431,0.000470
462000,0.0324,0.013523,0.002678,0.000431,0.000353
463000,0.0324,0.013523,0.002678,0.000431,0.000235
464000,0.0324,0.013523,0.002678,0.000431,0.000353
465000,0.0324,0.013523,0.002678,0.000431,0.000353
466000,0.0324,0.013523,0.002678,0.000431,0.000235
467000,0.0324,0.013523,0.002678,0.000431,0.000353
468000,0.0324,0.013523,0.002678,0.000431,0.000470
469000,0.0324,0.013523,0.002678,0.000431,0.000353
470000,0.0324,0.013523,0.002678,0.000431,0.000235
471000,0.0324,0.013523,0.002678,0.000431,0.000353
472000,0.0324,0.013523,0.002678,0.000431,0.000353
473000,0.0324,0.013523,0.002678,0.000431,0.000235
474000,0.0324,0.013523,0.002678,0.000431,0.000353
475000,0.0324,0.013523,0.002678,0.000431,0.000470
476000,0.0324,0.013523,0.002678,0.000431,0.000353
477000,0.0324,0.013523,0.002678,0.000431,0.000235
478000,0.0324,0.013523,0.002678,0.000431,0.000353
479000,0.0324,0.013523,0.002678,0.000431,0.000353
480000,0.0324,0.013523,0.002678,0.000431,0.000235
481000,0.0324,0.013523,0.002678,0.000431,0.000353
482000,0.0324,0.013523,0.002678,0.000431,0.000470
483000,0.0324,0.013523,0.002678,0.000431,0.000353
484000,0.0324,0.013523,0.002678,0.000431,0.000235
485000,0.0324,0.013523,0.002678,0.000431,0.000353
486000,0.0324,0.013523,0.002678,0.000431,0.000353
487000,0.0324,0.013523,0.002678,0.000431,0.000235
488000,0.0324,0.013523,0.002678,0.000431,0.000353
489000,0.0324,0.013523,0.002678,0.000431,0.000470
490000,0.0324,0.013523,0.002678,0.000431,0.000353
491000,0.0324,0.013523,0.002678,0.000431,0.000235
492000,0.0324,0.013523,0.002678,0.000431,0.000353
493000,0.0324,0.013523,0.002678,0.000431,0.000353
494000,0.0324,0.013523,0.002678,0.000431,0.000235
495000,0.0324,0.013523,0.002678,0.000431,0.000353
496000,0.0324,0.013523,0.002678,0.000431,0.000470
497000,0.0324,0.013523,0.002678,0.000431,0.000353
498000,0.0324,0.013523,0.002678,0.000431,0.000118
499000,0.0324,0.013523,0.002678,0.000431,0.000470
500000,0.0324,0.013523,0.002678,0.000431,0.000353
501000,0.0324,0.013523,0.002678,0.000431,0.000235
502000,0.0324,0.013523,0.002678,0.000431,0.000353
503000,0.0324,0.013523,0.002678,0.000431,0.000470
504000,0.0324,0.013523,0.002678,0.000431,0.000353
505000,0.0324,0.013523,0.002678,0.000431,0.000118
506000,0.0324,0.013523,0.002678,0.000431,0.000470
507000,0.0324,0.013523,0.002678,0.000431,0.000353
508000,0.0324,0.013523,0.002678,0.000431,0.000235
509000,0.0324,0.013523,0.002678,0.000431,0.000353
510000,0.0324,0.013523,0.002678,0.000431,0.000470
511000,0.0324,0.013523,0.002678,0.000431,0.000353
512000,0.0324,0.013523,0.002678,0.000431,0.000118
513000,0.0324,0.013523,0.002678,0.000431,0.000470
514000,0.0324,0.013523,0.002678,0.000431,0.000353
515000,0.0324,0.013523,0.002678,0.000431,0.000235
516000,0.0324,0.013523,0.002678,0.000431,0.000353
517000,0.0324,0.013523,0.002678,0.000431,0.000470
518000,0.0324,0.013523,0.002678,0.000431,0.000235
519000,0.0324,0.013523,0.002678,0.000431,0.000235
520000,0.0324,0.013523,0.002678,0.000431,0.000470
521000,0.0324,0.013523,0.002678,0.000431,0.000353
522000,0.0324,0.013523,0.002678,0.000431,0.000235
523000,0.0324,0.013523,0.002678,0.000431,0.000353
524000,0.0324,0.013523,0.002678,0.000431,0.000470
525000,0.0324,0.013523,0.002678,0.000431,0.000235
526000,0.0324,0.013523,0.002678,0.000431,0.000235
527000,0.0324,0.013523,0.002678,0.000431,0.000470
528000,0.0324,0.013523,0.002678,0.000431,0.000353
529000,0.0324,0.013523,0.002678,0.000431,0.000235
530000,0.0324,0.013523,0.002678,0.000431,0.000353
531000,0.0324,0.013523,0.002678,0.000431,0.000470
532000,0.0324,0.013523,0.002678,0.000431,0.000235
533000,0.0324,0.013523,0.002678,0.000431,0.000235
534000,0.0324,0.013523,0.002678,0.000431,0.000470
535000,0.0324,0.013523,0.002678,0.000431,0.000353
536000,0.0324,0.013523,0.002678,0.000431,0.000235
537000,0.0324,0.013523,0.002678,0.000431,0.000353
538000,0.0324,0.013523,0.002678,0.000431,0.000470
539000,0.0324,0.013523,0.002678,0.000431,0.000235
540000,0.0324,0.013523,0.002678,0.000431,0.000235
541000,0.0324,0.013523,0.002678,0.000431,0.000470
542000,0.0324,0.013523,0.002678,0.000431,0.000353
543000,0.0324,0.013523,0.002678,0.000431,0.000235
544000,0.0324,0.013523,0.002678,0.000431,0.000353
545000,0.0324,0.013523,0.002678,0.000431,0.000470
546000,0.0324,0.013523,0.002678,0.000431,0.000235
547000,0.0324,0.013523,0.002678,0.000431,0.000235
548000,0.0324,0.013523,0.002678,0.000431,0.000470
549000,0.0324,0.013523,0.002678,0.000431,0.000353
550000,0.0324,0.013523,0.002678,0.000431,0.000235
551000,0.0324,0.013523,0.002678,0.000431,0.000353
552000,0.0324,0.013523,0.002678,0.000431,0.000470
553000,0.0324,0.013523,0.002678,0.000431,0.000235
554000,0.0324,0.013523,0.002678,0.000431,0.000235
555000,0.0324,0.013523,0.002678,0.000431,0.000470
556000,0.0324,0.013523,0.002678,0.000431,0.000353
557000,0.0324,0.013523,0.002678,0.000431,0.000235
558000,0.0324,0.013523,0.002678,0.000431,0.000353
559000,0.0324,0.013523,0.002678,0.000431,0.000470
560000,0.0324,0.013523,0.002678,0.000431,0.000118
561000,0.0324,0.013523,0.002678,0.000431,0.000353
562000,0.0324,0.013523,0.002678,0.000431,0.000470
563000,0.0324,0.013523,0.002678,0.000431,0.000353
564000,0.0324,0.013523,0.002678,0.000431,0.000235
565000,0.0324,0.013523,0.002678,0.000431,0.000353
566000,0.0324,0.013523,0.002678,0.000431,0.000470
567000,0.0324,0.013523,0.002678,0.000431,0.000118
568000,0.0324,0.013523,0.002678,0.000431,0.000353
569000,0.0324,0.013523,0.002678,0.000431,0.000470
570000,0.0324,0.013523,0.002678,0.000431,0.000353
571000,0.0324,0.013523,0.002678,0.000431,0.000235
572000,0.0324,0.013523,0.002678,0.000431,0.000353
573000,0.0324,0.013523,0.002678,0.000431,0.000470
574000,0.0324,0.013523,0.002678,0.000431,0.000118
575000,0.0324,0.013523,0.002678,0.000431,0.000353
576000,0.0324,0.013523,0.002678,0.000431,0.000470
577000,0.0324,0.013523,0.002678,0.000431,0.000353
578000,0.0324,0.013523,0.002678,0.000431,0.000235
579000,0.0324,0.013523,0.002678,0.000431,0.000353
580000,0.0324,0.013523,0.002678,0.000431,0.000353
581000,0.0324,0.013523,0.002678,0.000431,0.000235
582000,0.0324,0.013523,0.002678,0.000431,0.000353
583000,0.0324,0.013523,0.002678,0.000431,0.000470
584000,0.0324,0.013523,0.002678,0.000431,0.000353
585000,0.0324,0.013523,0.002678,0.000431,0.000235
586000,0.0324,0.013523,0.002678,0.000431,0.000353
587000,0.0324,0.013523,0.002678,0.000431,0.000353
588000,0.0324,0.013523,0.002678,0.000431,0.000235
589000,0.0324,0.013523,0.002678,0.000431,0.000353
590000,0.0324,0.013523,0.002678,0.000431,0.000470
591000,0.0324,0.013523,0.002678,0.000431,0.000353
592000,0.0324,0.013523,0.002678,0.000431,0.000235
593000,0.0324,0.013523,0.002678,0.000431,0.000353
594000,0.0324,0.013523,0.002678,0.000431,0.000353
595000,0.0324,0.013523,0.002678,0.000431,0.000235
596000,0.0324,0.013523,0.002678,0.000431,0.000353
597000,0.0324,0.013523,0.002678,0.000431,0.000470
598000,0.0324,0.013523,0.002678,0.000431,0.000353
599000,0.0324,0.013523,0.002678,0.000431,0.000235
600000,0.0324,0.013523,0.002678,0.000431,0.000353
601000,0.0324,0.013523,0.002678,0.000431,0.000353
602000,0.0324,0.013523,0.002678,0.000431,0.000235
603000,0.0324,0.013523,0.002678,0.000431,0.000353
604000,0.0324,0.013523,0.002678,0.000431,0.000470
605000,0.0324,0.013523,0.002678,0.000431,0.000353
606000,0.0324,0.013523,0.002678,0.000431,0.000235
607000,0.0324,0.013523,0.002678,0.000431,0.000353
608000,0.0324,0.013523,0.002678,0.000431,0.000353
609000,0.0324,0.013523,0.002678,0.000431,0.000235
610000,0.0324,0.013523,0.002678,0.000431,0.000353
611000,0.0324,0.013523,0.002678,0.000431,0.000470
612000,0.0324,0.013523,0.002678,0.000431,0.000353
613000,0.0324,0.013523,0.002678,0.000431,0.000235
614000,0.0324,0.013523,0.002678,0.000431,0.000353
615000,0.0324,0.013523,0.002678,0.000431,0.000353
616000,0.0324,0.013523,0.002678,0.000431,0.000235
617000,0.0324,0.013523,0.002678,0.000431,0.000353
618000,0.0324,0.013523,0.002678,0.000431,0.000470
619000,0.0324,0.013523,0.002678,0.000431,0.000353
620000,0.0324,0.013523,0.002678,0.000431,0.000235
621000,0.0324,0.013523,0.002678,0.000431,0.000353
622000,0.0324,0.013523,0.002678,0.000431,0.000353
623000,0.0324,0.013523,0.002678,0.000431,0.000235
624000,0.0324,0.013523,0.002678,0.000431,0.000353
625000,0.0324,0.013523,0.002678,0.000431,0.000470
626000,0.0324,0.013523,0.002678,0.000431,0.000353
627000,0.0324,0.013523,0.002678,0.000431,0.000235
628000,0.0324,0.013523,0.002678,0.000431,0.000353
629000,0.0324,0.013523,0.002678,0.000431,0.000353
630000,0.0324,0.013523,0.002678,0.000431,0.000235
631000,0.0324,0.013523,0.002678,0.000431,0.000353
632000,0.0324,0.013523,0.002678,0.000431,0.000470
633000,0.0324,0.013523,0.002678,0.000431,0.000353
634000,0.0324,0.013523,0.002678,0.000431,0.000118
635000,0.0324,0.013523,0.002678,0.000431,0.000470
636000,0.0324,0.013523,0.002678,0.000431,0.000353
637000,0.0324,0.013523,0.002678,0.000431,0.000235
638000,0.0324,0.013523,0.002678,0.000431,0.000353
639000,0.0324,0.013523,0.002678,0.000431,0.000470
640000,0.0324,0.013523,0.002678,0.000431,0.000353
641000,0.0324,0.013523,0.002678,0.000431,0.000118
642000,0.0324,0.013523,0.002678,0.000431,0.000470
643000,0.0324,0.013523,0.002678,0.000431,0.000353
644000,0.0324,0.013523,0.002678,0.000431,0.000235
645000,0.0324,0.013523,0.002678,0.000431,0.000353
646000,0.0324,0.013523,0.002678,0.000431,0.000470
647000,0.0324,0.013523,0.002678,0.000431,0.000353
648000,0.0324,0.013523,0.002678,0.000431,0.000118
649000,0.0324,0.013523,0.002678,0.000431,0.000470
650000,0.0324,0.013523,0.002678,0.000431,0.000353
651000,0.0324,0.013523,0.002678,0.000431,0.000235
652000,0.0324,0.013523,0.002678,0.000431,0.000353
653000,0.0324,0.013523,0.002678,0.000431,0.000470
654000,0.0324,0.013523,0.002678,0.000431,0.000353
655000,0.0324,0.013523,0.002678,0.000431,0.000118
656000,0.0324,0.013523,0.002678,0.000431,0.000470
657000,0.0324,0.013523,0.002678,0.000431,0.000353
658000,0.0324,0.013523,0.002678,0.000431,0.000235
659000,0.0324,0.013523,0.002678,0.000431,0.000353
660000,0.0324,0.013523,0.002678,0.000431,0.000470
661000,0.0324,0.013523,0.002678,0.000431,0.000235
662000,0.0324,0.013523,0.002678,0.000431,0.000235
663000,0.0324,0.013523,0.002678,0.000431,0.000470
664000,0.0324,0.013523,0.002678,0.000431,0.000353
665000,0.0324,0.013523,0.002678,0.000431,0.000235
666000,0.0324,0.013523,0.002678,0.000431,0.000353
667000,0.0324,0.013523,0.002678,0.000431,0.000470
668000,0.0324,0.013523,0.002678,0.000431,0.000235
669000,0.0324,0.013523,0.002678,0.000431,0.000235
670000,0.0324,0.013523,0.002678,0.000431,0.000470
671000,0.0324,0.013523,0.002678,0.000431,0.000353
672000,0.0324,0.013523,0.002678,0.000431,0.000235
673000,0.0324,0.013523,0.002678,0.000431,0.000353
674000,0.0324,0.013523,0.002678,0.000431,0.000470
675000,0.0324,0.013523,0.002678,0.000431,0.000235
676000,0.0324,0.013523,0.002678,0.000431,0.000235
677000,0.0324,0.013523,0.002678,0.000431,0.000470
678000,0.0324,0.013523,0.002678,0.000431,0.000353
679000,0.0324,0.013523,0.002678,0.000431,0.000235
680000,0.0324,0.013523,0.002678,0.000431,0.000353
681000,0.0324,0.013523,0.002678,0.000431,0.000470
682000,0.0324,0.013523,0.002678,0.000431,0.000235
683000,0.0324,0.013523,0.002678,0.000431,0.000235
684000,0.0324,0.013523,0.002678,0.000431,0.000470
685000,0.0324,0.013523,0.002678,0.000431,0.000353
686000,0.0324,0.013523,0.002678,0.000431,0.000235
687000,0.0324,0.013523,0.002678,0.000431,0.000353
688000,0.0324,0.013523,0.002678,0.000431,0.000470
689000,0.0324,0.013523,0.002678,0.000431,0.000235
690000,0.0324,0.013523,0.002678,0.000431,0.000235
691000,0.0324,0.013523,0.002678,0.000431,0.000470
692000,0.0324,0.013523,0.002678,0.000431,0.000353
693000,0.0324,0.013523,0.002678,0.000431,0.000235
694000,0.0324,0.013523,0.002678,0.000431,0.000353
695000,0.0324,0.013523,0.002678,0.000431,0.000470
696000,0.0324,0.013523,0.002678,0.000431,0.000235
697000,0.0324,0.013523,0.002678,0.000431,0.000235
698000,0.0324,0.013523,0.002678,0.000431,0.000470
699000,0.0324,0.013523,0.002678,0.000431,0.000353
700000,0.0324,0.013523,0.002678,0.000431,0.000235
701000,0.0324,0.013523,0.002678,0.000431,0.000353
702000,0.0324,0.013523,0.002678,0.000431,0.000470
703000,0.0324,0.013523,0.002678,0.000431,0.000118
704000,0.0324,0.013523,0.002678,0.000431,0.000353
705000,0.0324,0.013523,0.002678,0.000431,0.000470
706000,0.0324,0.013523,0.002678,0.000431,0.000353
707000,0.0324,0.013523,0.002678,0.000431,0.000235
708000,0.0324,0.013523,0.002678,0.000431,0.000353
709000,0.0324,0.013523,0.002678,0.000431,0.000470
710000,0.0324,0.013523,0.002678,0.000431,0.000118
711000,0.0324,0.013523,0.002678,0.000431,0.000353
712000,0.0324,0.013523,0.002678,0.000431,0.000470
713000,0.0324,0.013523,0.002678,0.000431,0.000353
714000,0.0324,0.013523,0.002678,0.000431,0.000235
715000,0.0324,0.013523,0.002678,0.000431,0.000353
716000,0.0324,0.013523,0.002678,0.000431,0.000470
717000,0.0324,0.013523,0.002678,0.000431,0.000118
718000,0.0324,0.013523,0.002678,0.000431,0.000353
719000,0.0324,0.013523,0.002678,0.000431,0.000470
720000,0.0324,0.013523,0.002678,0.000431,0.000353
721000,0.0324,0.013523,0.002678,0.000431,0.000235
722000,0.0324,0.013523,0.002678,0.000431,0.000353
723000,0.0324,0.013523,0.002678,0.000431,0.000353
724000,0.0324,0.013523,0.002678,0.000431,0.000235
725000,0.0324,0.013523,0.002678,0.000431,0.000353
726000,0.0324,0.013523,0.002678,0.000431,0.000470
727000,0.0324,0.013523,0.002678,0.000431,0.000353
728000,0.0324,0.013523,0.002678,0.000431,0.000235
729000,0.0324,0.013523,0.002678,0.000431,0.000353
730000,0.0324,0.013523,0.002678,0.000431,0.000353
731000,0.0324,0.013523,0.002678,0.000431,0.000235
732000,0.0324,0.013523,0.002678,0.000431,0.000353
733000,0.0324,0.013523,0.002678,0.000431,0.000470
734000,0.0324,0.013523,0.002678,0.000431,0.000353
735000,0.0324,0.013523,0.002678,0.000431,0.000235
736000,0.0324,0.013523,0.002678,0.000431,0.000353
737000,0.0324,0.013523,0.002678,0.000431,0.000353
738000,0.0324,0.013523,0.002678,0.000431,0.000235
739000,0.0324,0.013523,0.002678,0.000431,0.000353
740000,0.0324,0.013523,0.002678,0.000431,0.000470
741000,0.0324,0.013523,0.002678,0.000431,0.000353
742000,0.0324,0.013523,0.002678,0.000431,0.000235
743000,0.0324,0.013523,0.002678,0.000431,0.000353
744000,0.0324,0.013523,0.002678,0.000431,0.000353
745000,0.0324,0.013523,0.002678,0.000431,0.000235
746000,0.0324,0.013523,0.002678,0.000431,0.000353
747000,0.0324,0.013523,0.002678,0.000431,0.000470
748000,0.0324,0.013523,0.002678,0.000431,0.000353
749000,0.0324,0.013523,0.002678,0.000431,0.000235
750000,0.0324,0.013523,0.002678,0.000431,0.000353
751000,0.0324,0.013523,0.002678,0.000431,0.000353
752000,0.0324,0.013523,0.002678,0.000431,0.000235
753000,0.0324,0.013523,0.002678,0.000431,0.000353
754000,0.0324,0.013523,0.002678,0.000431,0.000470
755000,0.0324,0.013523,0.002678,0.000431,0.000353
756000,0.0324,0.013523,0.002678,0.000431,0.000235
757000,0.0324,0.013523,0.002678,0.000431,0.000353
758000,0.0324,0.013523,0.002678,0.000431,0.000353
759000,0.0324,0.013523,0.002678,0.000431,0.000235
760000,0.0324,0.013523,0.002678,0.000431,0.000353
761000,0.0324,0.013523,0.002678,0.000431,0.000470
762000,0.0324,0.013523,0.002678,0.000431,0.000353
763000,0.0324,0.013523,0.002678,0.000431,0.000235
764000,0.0324,0.013523,0.002678,0.000431,0.000353
765000,0.0324,0.013523,0.002678,0.000431,0.000353
766000,0.0324,0.013523,0.002678,0.000431,0.000235
767000,0.0324,0.013523,0.002678,0.000431,0.000353
768000,0.0324,0.013523,0.002678,0.000431,0.000470
769000,0.0324,0.013523,0.002678,0.000431,0.000353
770000,0.0324,0.013523,0.002678,0.000431,0.000235
771000,0.0324,0.013523,0.002678,0.000431,0.000353
772000,0.0324,0.013523,0.002678,0.000431,0.000353
773000,0.0324,0.013523,0.002678,0.000431,0.000235
774000,0.0324,0.013523,0.002678,0.000431,0.000353
775000,0.0324,0.013523,0.002678,0.000431,0.000470
776000,0.0324,0.013523,0.002678,0.000431,0.000353
777000,0.0324,0.013523,0.002678,0.000431,0.000118
778000,0.0324,0.013523,0.002678,0.000431,0.000470
779000,0.0324,0.013523,0.002678,0.000431,0.000353
780000,0.0324,0.013523,0.002678,0.000431,0.000235
781000,0.0324,0.013523,0.002678,0.000431,0.000353
782000,0.0324,0.013523,0.002678,0.000431,0.000470
783000,0.0324,0.013523,0.002678,0.000431,0.000353
784000,0.0324,0.013523,0.002678,0.000431,0.000118
785000,0.0324,0.013523,0.002678,0.000431,0.000470
786000,0.0324,0.013523,0.002678,0.000431,0.000353
787000,0.0324,0.013523,0.002678,0.000431,0.000235
788000,0.0324,0.013523,0.002678,0.000431,0.000353
789000,0.0324,0.013523,0.002678,0.000431,0.000470
790000,0.0324,0.013523,0.002678,0.000431,0.000353
791000,0.0324,0.013523,0.002678,0.000431,0.000118
792000,0.0324,0.013523,0.002678,0.000431,0.000470
793000,0.0324,0.013523,0.002678,0.000431,0.000353
794000,0.0324,0.013523,0.002678,0.000431,0.000235
795000,0.0324,0.013523,0.002678,0.000431,0.000353
796000,0.0324,0.013523,0.002678,0.000431,0.000470
797000,0.0324,0.013523,0.002678,0.000431,0.000235
798000,0.0324,0.013523,0.002678,0.000431,0.000235
799000,0.0324,0.013523,0.002678,0.000431,0.000470
800000,0.0324,0.013523,0.002678,0.000431,0.000353
801000,0.0324,0.013523,0.002678,0.000431,0.000235
802000,0.0324,0.013523,0.002678,0.000431,0.000353
803000,0.0324,0.013523,0.002678,0.000431,0.000470
804000,0.0324,0.013523,0.002678,0.000431,0.000235
805000,0.0324,0.013523,0.002678,0.000431,0.000235
806000,0.0324,0.013523,0.002678,0.000431,0.000470
807000,0.0324,0.013523,0.002678,0.000431,0.000353
808000,0.0324,0.013523,0.002678,0.000431,0.000235
809000,0.0324,0.013523,0.002678,0.000431,0.000353
810000,0.0324,0.013523,0.002678,0.000431,0.000470
811000,0.0324,0.013523,0.002678,0.000431,0.000235
812000,0.0324,0.013523,0.002678,0.000431,0.000235
813000,0.0324,0.013523,0.002678,0.000431,0.000470
814000,0.0324,0.013523,0.002678,0.000431,0.000353
815000,0.0324,0.013523,0.002678,0.000431,0.000235
816000,0.0324,0.013523,0.002678,0.000431,0.000353
817000,0.0324,0.013523,0.002678,0.000431,0.000470
818000,0.0324,0.013523,0.002678,0.000431,0.000235
819000,0.0324,0.013523,0.002678,0.000431,0.000235
820000,0.0324,0.013523,0.002678,0.000431,0.000470
821000,0.0324,0.013523,0.002678,0.000431,0.000353
822000,0.0324,0.013523,0.002678,0.000431,0.000235
823000,0.0324,0.013523,0.002678,0.000431,0.000353
824000,0.0324,0.013523,0.002678,0.000431,0.000470
825000,0.0324,0.013523,0.002678,0.000431,0.000235
826000,0.0324,0.013523,0.002678,0.000431,0.000235
827000,0.0324,0.013523,0.002678,0.000431,0.000470
828000,0.0324,0.013523,0.002678,0.000431,0.000353
829000,0.0324,0.013523,0.002678,0.000431,0.000235
830000,0.0324,0.013523,0.002678,0.000431,0.000353
831000,0.0324,0.013523,0.002678,0.000431,0.000470
832000,0.0324,0.013523,0.002678,0.000431,0.000235
833000,0.0324,0.013523,0.002678,0.000431,0.000235
834000,0.0324,0.013523,0.002678,0.000431,0.000470
835000,0.0324,0.013523,0.002678,0.000431,0.000353
836000,0.0324,0.013523,0.002678,0.000431,0.000235
837000,0.0324,0.013523,0.002678,0.000431,0.000353
838000,0.0324,0.013523,0.002678,0.000431,0.000470
839000,0.0324,0.013523,0.002678,0.000431,0.000118
840000,0.0324,0.013523,0.002678,0.000431,0.000353
841000,0.0324,0.013523,0.002678,0.000431,0.000470
842000,0.0324,0.013523,0.002678,0.000431,0.000353
843000,0.0324,0.013523,0.002678,0.000431,0.000235
844000,0.0324,0.013523,0.002678,0.000431,0.000353
845000,0.0324,0.013523,0.002678,0.000431,0.000470
846000,0.0324,0.013523,0.002678,0.000431,0.000118
847000,0.0324,0.013523,0.002678,0.000431,0.000353
848000,0.0324,0.013523,0.002678,0.000431,0.000470
849000,0.0324,0.013523,0.002678,0.000431,0.000353
850000,0.0324,0.013523,0.002678,0.000431,0.000235
851000,0.0324,0.013523,0.002678,0.000431,0.000353
852000,0.0324,0.013523,0.002678,0.000431,0.000470
853000,0.0324,0.013523,0.002678,0.000431,0.000118
854000,0.0324,0.013523,0.002678,0.000431,0.000353
855000,0.0324,0.013523,0.002678,0.000431,0.000470
856000,0.0324,0.013523,0.002678,0.000431,0.000353
857000,0.0324,0.013523,0.002678,0.000431,0.000235
858000,0.0324,0.013523,0.002678,0.000431,0.000353
859000,0.0324,0.013523,0.002678,0.000431,0.000470
860000,0.0324,0.013523,0.002678,0.000431,0.000118
861000,0.0324,0.013523,0.002678,0.000431,0.000353
862000,0.0324,0.013523,0.002678,0.000431,0.000470
863000,0.0324,0.013523,0.002678,0.000431,0.000353
864000,0.0324,0.013523,0.002678,0.000431,0.000235
865000,0.0324,0.013523,0.002678,0.000431,0.000353
866000,0.0324,0.013523,0.002678,0.000431,0.000353
867000,0.0324,0.013523,0.002678,0.000431,0.000235
868000,0.0324,0.013523,0.002678,0.000431,0.000353
869000,0.0324,0.013523,0.002678,0.000431,0.000470
870000,0.0324,0.013523,0.002678,0.000431,0.000353
871000,0.0324,0.013523,0.002678,0.000431,0.000235
872000,0.0324,0.013523,0.002678,0.000431,0.000353
873000,0.0324,0.013523,0.002678,0.000431,0.000353
874000,0.0324,0.013523,0.002678,0.000431,0.000235
875000,0.0324,0.013523,0.002678,0.000431,0.000353
876000,0.0324,0.013523,0.002678,0.000431,0.000470
877000,0.0324,0.013523,0.002678,0.000431,0.000353
878000,0.0324,0.013523,0.002678,0.000431,0.000235
879000,0.0324,0.013523,0.002678,0.000431,0.000353
880000,0.0324,0.013523,0.002678,0.000431,0.000353
881000,0.0324,0.013523,0.002678,0.000431,0.000235
882000,0.0324,0.013523,0.002678,0.000431,0.000353
883000,0.0324,0.013523,0.002678,0.000431,0.000470
884000,0.0324,0.013523,0.002678,0.000431,0.000353
885000,0.0324,0.013523,0.002678,0.000431,0.000235
886000,0.0324,0.013523,0.002678,0.000431,0.000353
887000,0.0324,0.013523,0.002678,0.000431,0.000353
888000,0.0324,0.013523,0.002678,0.000431,0.000235
889000,0.0324,0.013523,0.002678,0.000431,0.000353
890000,0.0324,0.013523,0.002678,0.000431,0.000470
891000,0.0324,0.013523,0.002678,0.000431,0.000353
892000,0.0324,0.013523,0.002678,0.000431,0.000235
893000,0.0324,0.013523,0.002678,0.000431,0.000353
894000,0.0324,0.013523,0.002678,0.000431,0.000353
895000,0.0324,0.013523,0.002678,0.000431,0.000235
896000,0.0324,0.013523,0.002678,0.000431,0.000353
897000,0.0324,0.013523,0.002678,0.000431,0.000470
898000,0.0324,0.013523,0.002678,0.000431,0.000353
899000,0.0324,0.013523,0.002678,0.000431,0.000235
900000,0.0324,0.013523,0.002678,0.000431,0.000353
901000,0.0324,0.013523,0.002678,0.000431,0.000353
902000,0.0324,0.013523,0.002678,0.000431,0.000235
903000,0.0324,0.013523,0.002678,0.000431,0.000353
904000,0.0324,0.013523,0.002678,0.000431,0.000470
905000,0.0324,0.013523,0.002678,0.000431,0.000353
906000,0.0324,0.013523,0.002678,0.000431,0.000235
907000,0.0324,0.013523,0.002678,0.000431,0.000353
908000,0.0324,0.013523,0.002678,0.000431,0.000353
909000,0.0324,0.013523,0.002678,0.000431,0.000235
910000,0.0324,0.013523,0.002678,0.000431,0.000353
911000,0.0324,0.013523,0.002678,0.000431,0.000470
912000,0.0324,0.013523,0.002678,0.000431,0.000353
913000,0.0324,0.013523,0.002678,0.000431,0.000118
914000,0.0324,0.013523,0.002678,0.000431,0.000470
915000,0.0324,0.013523,0.002678,0.000431,0.000353
916000,0.0324,0.013523,0.002678,0.000431,0.000235
917000,0.0324,0.013523,0.002678,0.000431,0.000353
918000,0.0324,0.013523,0.002678,0.000431,0.000470
919000,0.0324,0.013523,0.002678,0.000431,0.000353
920000,0.0324,0.013523,0.002678,0.000431,0.000118
921000,0.0324,0.013523,0.002678,0.000431,0.000470
922000,0.0324,0.013523,0.002678,0.000431,0.000353
923000,0.0324,0.013523,0.002678,0.000431,0.000235
924000,0.0324,0.013523,0.002678,0.000431,0.000353
925000,0.0324,0.013523,0.002678,0.000431,0.000470
926000,0.0324,0.013523,0.002678,0.000431,0.000353
927000,0.0324,0.013523,0.002678,0.000431,0.000118
928000,0.0324,0.013523,0.002678,0.000431,0.000470
929000,0.0324,0.013523,0.002678,0.000431,0.000353
930000,0.0324,0.013523,0.002678,0.000431,0.000235
931000,0.0324,0.013523,0.002678,0.000431,0.000353
932000,0.0324,0.013523,0.002678,0.000431,0.000470
933000,0.0324,0.013523,0.002678,0.000431,0.000353
934000,0.0324,0.013523,0.002678,0.000431,0.000118
935000,0.0324,0.013523,0.002678,0.000431,0.000470
936000,0.0324,0.013523,0.002678,0.000431,0.000353
937000,0.0324,0.013523,0.002678,0.000431,0.000235
938000,0.0324,0.013523,0.002678,0.000431,0.000353
939000,0.0324,0.013523,0.002678,0.000431,0.000470
940000,0.0324,0.013523,0.002678,0.000431,0.000235
941000,0.0324,0.013523,0.002678,0.000431,0.000235
942000,0.0324,0.013523,0.002678,0.000431,0.000470
943000,0.0324,0.013523,0.002678,0.000431,0.000353
944000,0.0324,0.013523,0.002678,0.000431,0.000235
945000,0.0324,0.013523,0.002678,0.000431,0.000353
946000,0.0324,0.013523,0.002678,0.000431,0.000470
947000,0.0324,0.013523,0.002678,0.000431,0.000235
948000,0.0324,0.013523,0.002678,0.000431,0.000235
949000,0.0324,0.013523,0.002678,0.000431,0.000470
950000,0.0324,0.013523,0.002678,0.000431,0.000353
951000,0.0324,0.013523,0.002678,0.000431,0.000235
952000,0.0324,0.013523,0.002678,0.000431,0.000353
953000,0.0324,0.013523,0.002678,0.000431,0.000470
954000,0.0324,0.013523,0.002678,0.000431,0.000235
955000,0.0324,0.013523,0.002678,0.000431,0.000235
956000,0.0324,0.013523,0.002678,0.000431,0.000470
957000,0.0324,0.013523,0.002678,0.000431,0.000353
958000,0.0324,0.013523,0.002678,0.000431,0.000235
959000,0.0324,0.013523,0.002678,0.000431,0.000353
960000,0.0324,0.013523,0.002678,0.000431,0.000470
961000,0.0324,0.013523,0.002678,0.000431,0.000235
962000,0.0324,0.013523,0.002678,0.000431,0.000235
963000,0.0324,0.013523,0.002678,0.000431,0.000470
964000,0.0324,0.013523,0.002678,0.000431,0.000353
965000,0.0324,0.013523,0.002678,0.000431,0.000235
966000,0.0324,0.013523,0.002678,0.000431,0.000353
967000,0.0324,0.013523,0.002678,0.000431,0.000470
968000,0.0324,0.013523,0.002678,0.000431,0.000235
969000,0.0324,0.013523,0.002678,0.000431,0.000235
970000,0.0324,0.013523,0.002678,0.000431,0.000470
971000,0.0324,0.013523,0.002678,0.000431,0.000353
972000,0.0324,0.013523,0.002678,0.000431,0.000235
973000,0.0324,0.013523,0.002678,0.000431,0.000353
974000,0.0324,0.013523,0.002678,0.000431,0.000470
975000,0.0324,0.013523,0.002678,0.000431,0.000235
976000,0.0324,0.013523,0.002678,0.000431,0.000235
977000,0.0324,0.013523,0.002678,0.000431,0.000470
978000,0.0324,0.013523,0.002678,0.000431,0.000353
979000,0.0324,0.013523,0.002678,0.000431,0.000235
980000,0.0324,0.013523,0.002678,0.000431,0.000353
981000,0.0324,0.013523,0.002678,0.000431,0.000470
982000,0.0324,0.013523,0.002678,0.000431,0.000118
983000,0.0324,0.013523,0.002678,0.000431,0.000353
984000,0.0324,0.013523,0.002678,0.000431,0.000470
985000,0.0324,0.013523,0.002678,0.000431,0.000353
986000,0.0324,0.013523,0.002678,0.000431,0.000235
987000,0.0324,0.013523,0.002678,0.000431,0.000353
988000,0.0324,0.013523,0.002678,0.000431,0.000470
989000,0.0324,0.013523,0.002678,0.000431,0.000118
990000,0.0324,0.013523,0.002678,0.000431,0.000353
991000,0.0324,0.013523,0.002678,0.000431,0.000470
992000,0.0324,0.013523,0.002678,0.000431,0.000353
993000,0.0324,0.013523,0.002678,0.000431,0.000235
994000,0.0324,0.013523,0.002678,0.000431,0.000353
995000,0.0324,0.013523,0.002678,0.000431,0.000470
996000,0.0324,0.013523,0.002678,0.000431,0.000118
997000,0.0324,0.013523,0.002678,0.000431,0.000353
998000,0.0324,0.013523,0.002678,0.000431,0.000470
999000,0.0324,0.013523,0.002678,0.000431,0.000353
