Cycle,Area(mm^2),PeakDynamic(W),SubthresholdLeakage(W),GateLeakage(W),RunTimeDynamic(W)
3000000,0.0324,0.013523,0.002678,0.000431,0.746539
3001000,0.0324,0.013523,0.002678,0.000431,0.675552
3002000,0.0324,0.013523,0.002678,0.000431,0.591754
3003000,0.0324,0.013523,0.002678,0.000431,0.690831
3004000,0.0324,0.013523,0.002678,0.000431,0.622782
3005000,0.0324,0.013523,0.002678,0.000431,0.529347
3006000,0.0324,0.013523,0.002678,0.000431,0.489505
3007000,0.0324,0.013523,0.002678,0.000431,0.438028
3008000,0.0324,0.013523,0.002678,0.000431,0.376090
3009000,0.0324,0.013523,0.002678,0.000431,0.334955
3010000,0.0324,0.013523,0.002678,0.000431,0.305691
3011000,0.0324,0.013523,0.002678,0.000431,0.358814
3012000,0.0324,0.013523,0.002678,0.000431,0.502786
3013000,0.0324,0.013523,0.002678,0.000431,0.369861
3014000,0.0324,0.013523,0.002678,0.000431,0.443199
3015000,0.0324,0.013523,0.002678,0.000431,0.445314
3016000,0.0324,0.013523,0.002678,0.000431,0.382084
3017000,0.0324,0.013523,0.002678,0.000431,0.408763
3018000,0.0324,0.013523,0.002678,0.000431,0.343300
3019000,0.0324,0.013523,0.002678,0.000431,0.309217
3020000,0.0324,0.013523,0.002678,0.000431,0.355523
3021000,0.0324,0.013523,0.002678,0.000431,0.481278
3022000,0.0324,0.013523,0.002678,0.000431,0.572715
3023000,0.0324,0.013523,0.002678,0.000431,0.439673
3024000,0.0324,0.013523,0.002678,0.000431,0.430388
3025000,0.0324,0.013523,0.002678,0.000431,0.420163
3026000,0.0324,0.013523,0.002678,0.000431,0.492796
3027000,0.0324,0.013523,0.002678,0.000431,0.518652
3028000,0.0324,0.013523,0.002678,0.000431,0.507487
3029000,0.0324,0.013523,0.002678,0.000431,0.629598
3030000,0.0324,0.013523,0.002678,0.000431,0.514891
3031000,0.0324,0.013523,0.002678,0.000431,0.493853
3032000,0.0324,0.013523,0.002678,0.000431,0.601157
3033000,0.0324,0.013523,0.002678,0.000431,0.594105
3034000,0.0324,0.013523,0.002678,0.000431,0.520180
3035000,0.0324,0.013523,0.002678,0.000431,0.716334
3036000,0.0324,0.013523,0.002678,0.000431,0.626190
3037000,0.0324,0.013523,0.002678,0.000431,0.587993
3038000,0.0324,0.013523,0.002678,0.000431,0.533225
3039000,0.0324,0.013523,0.002678,0.000431,0.613850
3040000,0.0324,0.013523,0.002678,0.000431,0.783795
3041000,0.0324,0.013523,0.002678,0.000431,0.577416
3042000,0.0324,0.013523,0.002678,0.000431,0.491973
3043000,0.0324,0.013523,0.002678,0.000431,0.544861
3044000,0.0324,0.013523,0.002678,0.000431,0.514656
3045000,0.0324,0.013523,0.002678,0.000431,0.520885
3046000,0.0324,0.013523,0.002678,0.000431,0.565076
3047000,0.0324,0.013523,0.002678,0.000431,0.522530
3048000,0.0324,0.013523,0.002678,0.000431,0.593400
3049000,0.0324,0.013523,0.002678,0.000431,0.575418
3050000,0.0324,0.013523,0.002678,0.000431,0.471758
3051000,0.0324,0.013523,0.002678,0.000431,0.494206
3052000,0.0324,0.013523,0.002678,0.000431,0.518417
3053000,0.0324,0.013523,0.002678,0.000431,0.549209
3054000,0.0324,0.013523,0.002678,0.000431,0.464824
3055000,0.0324,0.013523,0.002678,0.000431,0.489035
3056000,0.0324,0.013523,0.002678,0.000431,0.557906
3057000,0.0324,0.013523,0.002678,0.000431,0.584115
3058000,0.0324,0.013523,0.002678,0.000431,0.592225
3059000,0.0324,0.013523,0.002678,0.000431,0.621842
3060000,0.0324,0.013523,0.002678,0.000431,0.654867
3061000,0.0324,0.013523,0.002678,0.000431,0.522530
3062000,0.0324,0.013523,0.002678,0.000431,0.583292
3063000,0.0324,0.013523,0.002678,0.000431,0.575418
3064000,0.0324,0.013523,0.002678,0.000431,0.502080
3065000,0.0324,0.013523,0.002678,0.000431,0.509367
3066000,0.0324,0.013523,0.002678,0.000431,0.464119
3067000,0.0324,0.013523,0.002678,0.000431,0.394895
3068000,0.0324,0.013523,0.002678,0.000431,0.415110
3069000,0.0324,0.013523,0.002678,0.000431,0.501140
3070000,0.0324,0.013523,0.002678,0.000431,0.448017
3071000,0.0324,0.013523,0.002678,0.000431,0.460475
3072000,0.0324,0.013523,0.002678,0.000431,0.490798
3073000,0.0324,0.013523,0.002678,0.000431,0.480808
3074000,0.0324,0.013523,0.002678,0.000431,0.613850
3075000,0.0324,0.013523,0.002678,0.000431,0.634770
3076000,0.0324,0.013523,0.002678,0.000431,0.466587
3077000,0.0324,0.013523,0.002678,0.000431,0.628188
3078000,0.0324,0.013523,0.002678,0.000431,0.612674
3079000,0.0324,0.013523,0.002678,0.000431,0.693651
3080000,0.0324,0.013523,0.002678,0.000431,0.617023
3081000,0.0324,0.013523,0.002678,0.000431,0.700350
3082000,0.0324,0.013523,0.002678,0.000431,0.731378
3083000,0.0324,0.013523,0.002678,0.000431,0.645465
3084000,0.0324,0.013523,0.002678,0.000431,0.722798
3085000,0.0324,0.013523,0.002678,0.000431,0.795901
3086000,0.0324,0.013523,0.002678,0.000431,0.728440
3087000,0.0324,0.013523,0.002678,0.000431,0.668383
3088000,0.0324,0.013523,0.002678,0.000431,0.582000
3089000,0.0324,0.013523,0.002678,0.000431,0.558141
3090000,0.0324,0.013523,0.002678,0.000431,0.531697
3091000,0.0324,0.013523,0.002678,0.000431,0.516771
3092000,0.0324,0.013523,0.002678,0.000431,0.562725
3093000,0.0324,0.013523,0.002678,0.000431,0.499377
3094000,0.0324,0.013523,0.002678,0.000431,0.442259
3095000,0.0324,0.013523,0.002678,0.000431,0.472698
3096000,0.0324,0.013523,0.002678,0.000431,0.511130
3097000,0.0324,0.013523,0.002678,0.000431,0.489387
3098000,0.0324,0.013523,0.002678,0.000431,0.507487
3099000,0.0324,0.013523,0.002678,0.000431,0.413582
3100000,0.0324,0.013523,0.002678,0.000431,0.402534
3101000,0.0324,0.013523,0.002678,0.000431,0.389841
3102000,0.0324,0.013523,0.002678,0.000431,0.402416
3103000,0.0324,0.013523,0.002678,0.000431,0.479633
3104000,0.0324,0.013523,0.002678,0.000431,0.402887
3105000,0.0324,0.013523,0.002678,0.000431,0.462356
3106000,0.0324,0.013523,0.002678,0.000431,0.468350
3107000,0.0324,0.013523,0.002678,0.000431,0.379263
3108000,0.0324,0.013523,0.002678,0.000431,0.418635
3109000,0.0324,0.013523,0.002678,0.000431,0.471758
3110000,0.0324,0.013523,0.002678,0.000431,0.461298
3111000,0.0324,0.013523,0.002678,0.000431,0.452836
3112000,0.0324,0.013523,0.002678,0.000431,0.397950
3113000,0.0324,0.013523,0.002678,0.000431,0.367041
3114000,0.0324,0.013523,0.002678,0.000431,0.341537
3115000,0.0324,0.013523,0.002678,0.000431,0.326376
3116000,0.0324,0.013523,0.002678,0.000431,0.357873
3117000,0.0324,0.013523,0.002678,0.000431,0.436852
3118000,0.0324,0.013523,0.002678,0.000431,0.360576
3119000,0.0324,0.013523,0.002678,0.000431,0.484334
3120000,0.0324,0.013523,0.002678,0.000431,0.522413
3121000,0.0324,0.013523,0.002678,0.000431,0.534753
3122000,0.0324,0.013523,0.002678,0.000431,0.670498
3123000,0.0324,0.013523,0.002678,0.000431,0.633594
3124000,0.0324,0.013523,0.002678,0.000431,0.643232
3125000,0.0324,0.013523,0.002678,0.000431,0.588346
3126000,0.0324,0.013523,0.002678,0.000431,0.519827
3127000,0.0324,0.013523,0.002678,0.000431,0.507017
3128000,0.0324,0.013523,0.002678,0.000431,0.514656
3129000,0.0324,0.013523,0.002678,0.000431,0.494088
3130000,0.0324,0.013523,0.002678,0.000431,0.497849
3131000,0.0324,0.013523,0.002678,0.000431,0.495146
3132000,0.0324,0.013523,0.002678,0.000431,0.507252
3133000,0.0324,0.013523,0.002678,0.000431,0.508074
3134000,0.0324,0.013523,0.002678,0.000431,0.604682
3135000,0.0324,0.013523,0.002678,0.000431,0.591167
3136000,0.0324,0.013523,0.002678,0.000431,0.619491
3137000,0.0324,0.013523,0.002678,0.000431,0.485391
3138000,0.0324,0.013523,0.002678,0.000431,0.509485
3139000,0.0324,0.013523,0.002678,0.000431,0.530640
3140000,0.0324,0.013523,0.002678,0.000431,0.478340
3141000,0.0324,0.013523,0.002678,0.000431,0.502198
3142000,0.0324,0.013523,0.002678,0.000431,0.470465
3143000,0.0324,0.013523,0.002678,0.000431,0.429801
3144000,0.0324,0.013523,0.002678,0.000431,0.479162
3145000,0.0324,0.013523,0.002678,0.000431,0.552147
3146000,0.0324,0.013523,0.002678,0.000431,0.420516
3147000,0.0324,0.013523,0.002678,0.000431,0.407705
3148000,0.0324,0.013523,0.002678,0.000431,0.416637
3149000,0.0324,0.013523,0.002678,0.000431,0.482336
3150000,0.0324,0.013523,0.002678,0.000431,0.538867
3151000,0.0324,0.013523,0.002678,0.000431,0.552735
3152000,0.0324,0.013523,0.002678,0.000431,0.517359
3153000,0.0324,0.013523,0.002678,0.000431,0.522530
3154000,0.0324,0.013523,0.002678,0.000431,0.664387
3155000,0.0324,0.013523,0.002678,0.000431,0.560844
3156000,0.0324,0.013523,0.002678,0.000431,0.483276
3157000,0.0324,0.013523,0.002678,0.000431,0.627600
3158000,0.0324,0.013523,0.002678,0.000431,0.701056
3159000,0.0324,0.013523,0.002678,0.000431,0.687657
3160000,0.0324,0.013523,0.002678,0.000431,0.730320
3161000,0.0324,0.013523,0.002678,0.000431,0.596220
3162000,0.0324,0.013523,0.002678,0.000431,0.554263
3163000,0.0324,0.013523,0.002678,0.000431,0.533578
3164000,0.0324,0.013523,0.002678,0.000431,0.476577
3165000,0.0324,0.013523,0.002678,0.000431,0.437792
3166000,0.0324,0.013523,0.002678,0.000431,0.403122
3167000,0.0324,0.013523,0.002678,0.000431,0.393602
3168000,0.0324,0.013523,0.002678,0.000431,0.357403
3169000,0.0324,0.013523,0.002678,0.000431,0.352467
3170000,0.0324,0.013523,0.002678,0.000431,0.322497
3171000,0.0324,0.013523,0.002678,0.000431,0.321440
3172000,0.0324,0.013523,0.002678,0.000431,0.297699
3173000,0.0324,0.013523,0.002678,0.000431,0.284301
3174000,0.0324,0.013523,0.002678,0.000431,0.270197
3175000,0.0324,0.013523,0.002678,0.000431,0.261383
3176000,0.0324,0.013523,0.002678,0.000431,0.261383
3177000,0.0324,0.013523,0.002678,0.000431,0.245986
3178000,0.0324,0.013523,0.002678,0.000431,0.237407
3179000,0.0324,0.013523,0.002678,0.000431,0.232001
3180000,0.0324,0.013523,0.002678,0.000431,0.220483
3181000,0.0324,0.013523,0.002678,0.000431,0.220600
3182000,0.0324,0.013523,0.002678,0.000431,0.204146
3183000,0.0324,0.013523,0.002678,0.000431,0.205792
3184000,0.0324,0.013523,0.002678,0.000431,0.198740
3185000,0.0324,0.013523,0.002678,0.000431,0.189455
3186000,0.0324,0.013523,0.002678,0.000431,0.180406
3187000,0.0324,0.013523,0.002678,0.000431,0.175235
3188000,0.0324,0.013523,0.002678,0.000431,0.176175
3189000,0.0324,0.013523,0.002678,0.000431,0.176645
3190000,0.0324,0.013523,0.002678,0.000431,0.169123
3191000,0.0324,0.013523,0.002678,0.000431,0.162659
3192000,0.0324,0.013523,0.002678,0.000431,0.163129
3193000,0.0324,0.013523,0.002678,0.000431,0.161954
3194000,0.0324,0.013523,0.002678,0.000431,0.153022
3195000,0.0324,0.013523,0.002678,0.000431,0.155137
3196000,0.0324,0.013523,0.002678,0.000431,0.159016
3197000,0.0324,0.013523,0.002678,0.000431,0.144442
3198000,0.0324,0.013523,0.002678,0.000431,0.142914
3199000,0.0324,0.013523,0.002678,0.000431,0.143384
3200000,0.0324,0.013523,0.002678,0.000431,0.138801
3201000,0.0324,0.013523,0.002678,0.000431,0.135040
3202000,0.0324,0.013523,0.002678,0.000431,0.136920
3203000,0.0324,0.013523,0.002678,0.000431,0.131984
3204000,0.0324,0.013523,0.002678,0.000431,0.131044
3205000,0.0324,0.013523,0.002678,0.000431,0.128223
3206000,0.0324,0.013523,0.002678,0.000431,0.123287
3207000,0.0324,0.013523,0.002678,0.000431,0.120349
3208000,0.0324,0.013523,0.002678,0.000431,0.123405
3209000,0.0324,0.013523,0.002678,0.000431,0.116470
3210000,0.0324,0.013523,0.002678,0.000431,0.118233
3211000,0.0324,0.013523,0.002678,0.000431,0.113532
3212000,0.0324,0.013523,0.002678,0.000431,0.117058
3213000,0.0324,0.013523,0.002678,0.000431,0.111417
3214000,0.0324,0.013523,0.002678,0.000431,0.111769
3215000,0.0324,0.013523,0.002678,0.000431,0.110359
3216000,0.0324,0.013523,0.002678,0.000431,0.109536
3217000,0.0324,0.013523,0.002678,0.000431,0.105893
3218000,0.0324,0.013523,0.002678,0.000431,0.101192
3219000,0.0324,0.013523,0.002678,0.000431,0.103895
3220000,0.0324,0.013523,0.002678,0.000431,0.101192
3221000,0.0324,0.013523,0.002678,0.000431,0.096373
3222000,0.0324,0.013523,0.002678,0.000431,0.100134
3223000,0.0324,0.013523,0.002678,0.000431,0.096373
3224000,0.0324,0.013523,0.002678,0.000431,0.091319
3225000,0.0324,0.013523,0.002678,0.000431,0.092965
3226000,0.0324,0.013523,0.002678,0.000431,0.090027
3227000,0.0324,0.013523,0.002678,0.000431,0.090614
3228000,0.0324,0.013523,0.002678,0.000431,0.088499
3229000,0.0324,0.013523,0.002678,0.000431,0.091319
3230000,0.0324,0.013523,0.002678,0.000431,0.086501
3231000,0.0324,0.013523,0.002678,0.000431,0.089086
3232000,0.0324,0.013523,0.002678,0.000431,0.085796
3233000,0.0324,0.013523,0.002678,0.000431,0.088381
3234000,0.0324,0.013523,0.002678,0.000431,0.090379
3235000,0.0324,0.013523,0.002678,0.000431,0.081212
3236000,0.0324,0.013523,0.002678,0.000431,0.083445
3237000,0.0324,0.013523,0.002678,0.000431,0.084620
3238000,0.0324,0.013523,0.002678,0.000431,0.080859
3239000,0.0324,0.013523,0.002678,0.000431,0.080272
3240000,0.0324,0.013523,0.002678,0.000431,0.080742
3241000,0.0324,0.013523,0.002678,0.000431,0.079684
3242000,0.0324,0.013523,0.002678,0.000431,0.076746
3243000,0.0324,0.013523,0.002678,0.000431,0.076393
3244000,0.0324,0.013523,0.002678,0.000431,0.072632
3245000,0.0324,0.013523,0.002678,0.000431,0.073925
3246000,0.0324,0.013523,0.002678,0.000431,0.074043
3247000,0.0324,0.013523,0.002678,0.000431,0.071457
3248000,0.0324,0.013523,0.002678,0.000431,0.070634
3249000,0.0324,0.013523,0.002678,0.000431,0.071340
3250000,0.0324,0.013523,0.002678,0.000431,0.072985
3251000,0.0324,0.013523,0.002678,0.000431,0.068754
3252000,0.0324,0.013523,0.002678,0.000431,0.070399
3253000,0.0324,0.013523,0.002678,0.000431,0.070282
3254000,0.0324,0.013523,0.002678,0.000431,0.066521
3255000,0.0324,0.013523,0.002678,0.000431,0.068872
3256000,0.0324,0.013523,0.002678,0.000431,0.065933
3257000,0.0324,0.013523,0.002678,0.000431,0.069224
3258000,0.0324,0.013523,0.002678,0.000431,0.064641
3259000,0.0324,0.013523,0.002678,0.000431,0.064876
3260000,0.0324,0.013523,0.002678,0.000431,0.064288
3261000,0.0324,0.013523,0.002678,0.000431,0.067461
3262000,0.0324,0.013523,0.002678,0.000431,0.063230
3263000,0.0324,0.013523,0.002678,0.000431,0.063113
3264000,0.0324,0.013523,0.002678,0.000431,0.066403
3265000,0.0324,0.013523,0.002678,0.000431,0.060057
3266000,0.0324,0.013523,0.002678,0.000431,0.060409
3267000,0.0324,0.013523,0.002678,0.000431,0.061937
3268000,0.0324,0.013523,0.002678,0.000431,0.058764
3269000,0.0324,0.013523,0.002678,0.000431,0.056884
3270000,0.0324,0.013523,0.002678,0.000431,0.061232
3271000,0.0324,0.013523,0.002678,0.000431,0.057706
3272000,0.0324,0.013523,0.002678,0.000431,0.056884
3273000,0.0324,0.013523,0.002678,0.000431,0.057354
3274000,0.0324,0.013523,0.002678,0.000431,0.058999
3275000,0.0324,0.013523,0.002678,0.000431,0.058764
3276000,0.0324,0.013523,0.002678,0.000431,0.056531
3277000,0.0324,0.013523,0.002678,0.000431,0.059939
3278000,0.0324,0.013523,0.002678,0.000431,0.059234
3279000,0.0324,0.013523,0.002678,0.000431,0.056649
3280000,0.0324,0.013523,0.002678,0.000431,0.057119
3281000,0.0324,0.013523,0.002678,0.000431,0.055708
3282000,0.0324,0.013523,0.002678,0.000431,0.053123
3283000,0.0324,0.013523,0.002678,0.000431,0.055121
3284000,0.0324,0.013523,0.002678,0.000431,0.053593
3285000,0.0324,0.013523,0.002678,0.000431,0.050537
3286000,0.0324,0.013523,0.002678,0.000431,0.050890
3287000,0.0324,0.013523,0.002678,0.000431,0.051477
3288000,0.0324,0.013523,0.002678,0.000431,0.050185
3289000,0.0324,0.013523,0.002678,0.000431,0.049949
3290000,0.0324,0.013523,0.002678,0.000431,0.050302
3291000,0.0324,0.013523,0.002678,0.000431,0.050302
3292000,0.0324,0.013523,0.002678,0.000431,0.046306
3293000,0.0324,0.013523,0.002678,0.000431,0.048422
3294000,0.0324,0.013523,0.002678,0.000431,0.046776
3295000,0.0324,0.013523,0.002678,0.000431,0.048304
3296000,0.0324,0.013523,0.002678,0.000431,0.049714
3297000,0.0324,0.013523,0.002678,0.000431,0.047011
3298000,0.0324,0.013523,0.002678,0.000431,0.048187
3299000,0.0324,0.013523,0.002678,0.000431,0.046071
3300000,0.0324,0.013523,0.002678,0.000431,0.045483
3301000,0.0324,0.013523,0.002678,0.000431,0.045836
3302000,0.0324,0.013523,0.002678,0.000431,0.046071
3303000,0.0324,0.013523,0.002678,0.000431,0.044778
3304000,0.0324,0.013523,0.002678,0.000431,0.046424
3305000,0.0324,0.013523,0.002678,0.000431,0.044778
3306000,0.0324,0.013523,0.002678,0.000431,0.045366
3307000,0.0324,0.013523,0.002678,0.000431,0.045954
3308000,0.0324,0.013523,0.002678,0.000431,0.045601
3309000,0.0324,0.013523,0.002678,0.000431,0.044308
3310000,0.0324,0.013523,0.002678,0.000431,0.043485
3311000,0.0324,0.013523,0.002678,0.000431,0.046071
3312000,0.0324,0.013523,0.002678,0.000431,0.043956
3313000,0.0324,0.013523,0.002678,0.000431,0.043250
3314000,0.0324,0.013523,0.002678,0.000431,0.044661
3315000,0.0324,0.013523,0.002678,0.000431,0.045248
3316000,0.0324,0.013523,0.002678,0.000431,0.045013
3317000,0.0324,0.013523,0.002678,0.000431,0.044426
3318000,0.0324,0.013523,0.002678,0.000431,0.047011
3319000,0.0324,0.013523,0.002678,0.000431,0.043133
3320000,0.0324,0.013523,0.002678,0.000431,0.046659
3321000,0.0324,0.013523,0.002678,0.000431,0.042780
3322000,0.0324,0.013523,0.002678,0.000431,0.040900
3323000,0.0324,0.013523,0.002678,0.000431,0.043250
3324000,0.0324,0.013523,0.002678,0.000431,0.042310
3325000,0.0324,0.013523,0.002678,0.000431,0.040312
3326000,0.0324,0.013523,0.002678,0.000431,0.040900
3327000,0.0324,0.013523,0.002678,0.000431,0.042663
3328000,0.0324,0.013523,0.002678,0.000431,0.039725
3329000,0.0324,0.013523,0.002678,0.000431,0.039960
3330000,0.0324,0.013523,0.002678,0.000431,0.041017
3331000,0.0324,0.013523,0.002678,0.000431,0.041958
3332000,0.0324,0.013523,0.002678,0.000431,0.041723
3333000,0.0324,0.013523,0.002678,0.000431,0.041487
3334000,0.0324,0.013523,0.002678,0.000431,0.040782
3335000,0.0324,0.013523,0.002678,0.000431,0.038549
3336000,0.0324,0.013523,0.002678,0.000431,0.041252
3337000,0.0324,0.013523,0.002678,0.000431,0.039019
3338000,0.0324,0.013523,0.002678,0.000431,0.040195
3339000,0.0324,0.013523,0.002678,0.000431,0.039254
3340000,0.0324,0.013523,0.002678,0.000431,0.041840
3341000,0.0324,0.013523,0.002678,0.000431,0.038902
3342000,0.0324,0.013523,0.002678,0.000431,0.038902
3343000,0.0324,0.013523,0.002678,0.000431,0.038902
3344000,0.0324,0.013523,0.002678,0.000431,0.038079
3345000,0.0324,0.013523,0.002678,0.000431,0.036316
3346000,0.0324,0.013523,0.002678,0.000431,0.036434
3347000,0.0324,0.013523,0.002678,0.000431,0.041487
3348000,0.0324,0.013523,0.002678,0.000431,0.037609
3349000,0.0324,0.013523,0.002678,0.000431,0.038667
3350000,0.0324,0.013523,0.002678,0.000431,0.038432
3351000,0.0324,0.013523,0.002678,0.000431,0.037491
3352000,0.0324,0.013523,0.002678,0.000431,0.039607
3353000,0.0324,0.013523,0.002678,0.000431,0.038079
3354000,0.0324,0.013523,0.002678,0.000431,0.039489
3355000,0.0324,0.013523,0.002678,0.000431,0.037256
3356000,0.0324,0.013523,0.002678,0.000431,0.038197
3357000,0.0324,0.013523,0.002678,0.000431,0.039019
3358000,0.0324,0.013523,0.002678,0.000431,0.037374
3359000,0.0324,0.013523,0.002678,0.000431,0.035729
3360000,0.0324,0.013523,0.002678,0.000431,0.039607
3361000,0.0324,0.013523,0.002678,0.000431,0.035964
3362000,0.0324,0.013523,0.002678,0.000431,0.036904
3363000,0.0324,0.013523,0.002678,0.000431,0.039842
3364000,0.0324,0.013523,0.002678,0.000431,0.036199
3365000,0.0324,0.013523,0.002678,0.000431,0.037256
3366000,0.0324,0.013523,0.002678,0.000431,0.038667
3367000,0.0324,0.013523,0.002678,0.000431,0.036904
3368000,0.0324,0.013523,0.002678,0.000431,0.037021
3369000,0.0324,0.013523,0.002678,0.000431,0.034671
3370000,0.0324,0.013523,0.002678,0.000431,0.037609
3371000,0.0324,0.013523,0.002678,0.000431,0.036904
3372000,0.0324,0.013523,0.002678,0.000431,0.035611
3373000,0.0324,0.013523,0.002678,0.000431,0.037021
3374000,0.0324,0.013523,0.002678,0.000431,0.035376
3375000,0.0324,0.013523,0.002678,0.000431,0.035846
3376000,0.0324,0.013523,0.002678,0.000431,0.035964
3377000,0.0324,0.013523,0.002678,0.000431,0.036434
3378000,0.0324,0.013523,0.002678,0.000431,0.034083
3379000,0.0324,0.013523,0.002678,0.000431,0.034436
3380000,0.0324,0.013523,0.002678,0.000431,0.035141
3381000,0.0324,0.013523,0.002678,0.000431,0.036199
3382000,0.0324,0.013523,0.002678,0.000431,0.035964
3383000,0.0324,0.013523,0.002678,0.000431,0.036551
3384000,0.0324,0.013523,0.002678,0.000431,0.034906
3385000,0.0324,0.013523,0.002678,0.000431,0.034671
3386000,0.0324,0.013523,0.002678,0.000431,0.036434
3387000,0.0324,0.013523,0.002678,0.000431,0.034201
3388000,0.0324,0.013523,0.002678,0.000431,0.036434
3389000,0.0324,0.013523,0.002678,0.000431,0.036316
3390000,0.0324,0.013523,0.002678,0.000431,0.034906
3391000,0.0324,0.013523,0.002678,0.000431,0.035141
3392000,0.0324,0.013523,0.002678,0.000431,0.034788
3393000,0.0324,0.013523,0.002678,0.000431,0.035494
3394000,0.0324,0.013523,0.002678,0.000431,0.034318
3395000,0.0324,0.013523,0.002678,0.000431,0.034436
3396000,0.0324,0.013523,0.002678,0.000431,0.033966
3397000,0.0324,0.013523,0.002678,0.000431,0.032673
3398000,0.0324,0.013523,0.002678,0.000431,0.034201
3399000,0.0324,0.013523,0.002678,0.000431,0.034788
3400000,0.0324,0.013523,0.002678,0.000431,0.034083
3401000,0.0324,0.013523,0.002678,0.000431,0.033378
3402000,0.0324,0.013523,0.002678,0.000431,0.034671
3403000,0.0324,0.013523,0.002678,0.000431,0.034083
3404000,0.0324,0.013523,0.002678,0.000431,0.033143
3405000,0.0324,0.013523,0.002678,0.000431,0.032908
3406000,0.0324,0.013523,0.002678,0.000431,0.033613
3407000,0.0324,0.013523,0.002678,0.000431,0.033025
3408000,0.0324,0.013523,0.002678,0.000431,0.033496
3409000,0.0324,0.013523,0.002678,0.000431,0.034318
3410000,0.0324,0.013523,0.002678,0.000431,0.031498
3411000,0.0324,0.013523,0.002678,0.000431,0.032438
3412000,0.0324,0.013523,0.002678,0.000431,0.032908
3413000,0.0324,0.013523,0.002678,0.000431,0.032908
3414000,0.0324,0.013523,0.002678,0.000431,0.031968
3415000,0.0324,0.013523,0.002678,0.000431,0.033966
3416000,0.0324,0.013523,0.002678,0.000431,0.030792
3417000,0.0324,0.013523,0.002678,0.000431,0.032438
3418000,0.0324,0.013523,0.002678,0.000431,0.032908
3419000,0.0324,0.013523,0.002678,0.000431,0.031380
3420000,0.0324,0.013523,0.002678,0.000431,0.031733
3421000,0.0324,0.013523,0.002678,0.000431,0.032908
3422000,0.0324,0.013523,0.002678,0.000431,0.031262
3423000,0.0324,0.013523,0.002678,0.000431,0.030557
3424000,0.0324,0.013523,0.002678,0.000431,0.033143
3425000,0.0324,0.013523,0.002678,0.000431,0.029265
3426000,0.0324,0.013523,0.002678,0.000431,0.028794
3427000,0.0324,0.013523,0.002678,0.000431,0.031380
3428000,0.0324,0.013523,0.002678,0.000431,0.030440
3429000,0.0324,0.013523,0.002678,0.000431,0.029029
3430000,0.0324,0.013523,0.002678,0.000431,0.030087
3431000,0.0324,0.013523,0.002678,0.000431,0.029029
3432000,0.0324,0.013523,0.002678,0.000431,0.028677
3433000,0.0324,0.013523,0.002678,0.000431,0.029147
3434000,0.0324,0.013523,0.002678,0.000431,0.028794
3435000,0.0324,0.013523,0.002678,0.000431,0.028089
3436000,0.0324,0.013523,0.002678,0.000431,0.027502
3437000,0.0324,0.013523,0.002678,0.000431,0.028207
3438000,0.0324,0.013523,0.002678,0.000431,0.026326
3439000,0.0324,0.013523,0.002678,0.000431,0.027502
3440000,0.0324,0.013523,0.002678,0.000431,0.026326
3441000,0.0324,0.013523,0.002678,0.000431,0.027149
3442000,0.0324,0.013523,0.002678,0.000431,0.027149
3443000,0.0324,0.013523,0.002678,0.000431,0.025856
3444000,0.0324,0.013523,0.002678,0.000431,0.026679
3445000,0.0324,0.013523,0.002678,0.000431,0.026326
3446000,0.0324,0.013523,0.002678,0.000431,0.026326
3447000,0.0324,0.013523,0.002678,0.000431,0.025856
3448000,0.0324,0.013523,0.002678,0.000431,0.026914
3449000,0.0324,0.013523,0.002678,0.000431,0.026561
3450000,0.0324,0.013523,0.002678,0.000431,0.024681
3451000,0.0324,0.013523,0.002678,0.000431,0.027737
3452000,0.0324,0.013523,0.002678,0.000431,0.024681
3453000,0.0324,0.013523,0.002678,0.000431,0.026091
3454000,0.0324,0.013523,0.002678,0.000431,0.025974
3455000,0.0324,0.013523,0.002678,0.000431,0.027149
3456000,0.0324,0.013523,0.002678,0.000431,0.024563
3457000,0.0324,0.013523,0.002678,0.000431,0.026561
3458000,0.0324,0.013523,0.002678,0.000431,0.027502
3459000,0.0324,0.013523,0.002678,0.000431,0.025151
3460000,0.0324,0.013523,0.002678,0.000431,0.026796
3461000,0.0324,0.013523,0.002678,0.000431,0.025739
3462000,0.0324,0.013523,0.002678,0.000431,0.026091
3463000,0.0324,0.013523,0.002678,0.000431,0.024916
3464000,0.0324,0.013523,0.002678,0.000431,0.026561
3465000,0.0324,0.013523,0.002678,0.000431,0.025504
3466000,0.0324,0.013523,0.002678,0.000431,0.024563
3467000,0.0324,0.013523,0.002678,0.000431,0.025621
3468000,0.0324,0.013523,0.002678,0.000431,0.027619
3469000,0.0324,0.013523,0.002678,0.000431,0.023506
3470000,0.0324,0.013523,0.002678,0.000431,0.025269
3471000,0.0324,0.013523,0.002678,0.000431,0.025034
3472000,0.0324,0.013523,0.002678,0.000431,0.024446
3473000,0.0324,0.013523,0.002678,0.000431,0.026561
3474000,0.0324,0.013523,0.002678,0.000431,0.024446
3475000,0.0324,0.013523,0.002678,0.000431,0.025504
3476000,0.0324,0.013523,0.002678,0.000431,0.025269
3477000,0.0324,0.013523,0.002678,0.000431,0.024798
3478000,0.0324,0.013523,0.002678,0.000431,0.025034
3479000,0.0324,0.013523,0.002678,0.000431,0.025504
3480000,0.0324,0.013523,0.002678,0.000431,0.025151
3481000,0.0324,0.013523,0.002678,0.000431,0.024328
3482000,0.0324,0.013523,0.002678,0.000431,0.025269
3483000,0.0324,0.013523,0.002678,0.000431,0.024093
3484000,0.0324,0.013523,0.002678,0.000431,0.024328
3485000,0.0324,0.013523,0.002678,0.000431,0.024328
3486000,0.0324,0.013523,0.002678,0.000431,0.025034
3487000,0.0324,0.013523,0.002678,0.000431,0.024916
3488000,0.0324,0.013523,0.002678,0.000431,0.023506
3489000,0.0324,0.013523,0.002678,0.000431,0.025034
3490000,0.0324,0.013523,0.002678,0.000431,0.023858
3491000,0.0324,0.013523,0.002678,0.000431,0.023623
3492000,0.0324,0.013523,0.002678,0.000431,0.025386
3493000,0.0324,0.013523,0.002678,0.000431,0.023741
3494000,0.0324,0.013523,0.002678,0.000431,0.023623
3495000,0.0324,0.013523,0.002678,0.000431,0.024211
3496000,0.0324,0.013523,0.002678,0.000431,0.024446
3497000,0.0324,0.013523,0.002678,0.000431,0.024681
3498000,0.0324,0.013523,0.002678,0.000431,0.023976
3499000,0.0324,0.013523,0.002678,0.000431,0.024328
3500000,0.0324,0.013523,0.002678,0.000431,0.023623
3501000,0.0324,0.013523,0.002678,0.000431,0.023506
3502000,0.0324,0.013523,0.002678,0.000431,0.024211
3503000,0.0324,0.013523,0.002678,0.000431,0.023036
3504000,0.0324,0.013523,0.002678,0.000431,0.023506
3505000,0.0324,0.013523,0.002678,0.000431,0.024328
3506000,0.0324,0.013523,0.002678,0.000431,0.023036
3507000,0.0324,0.013523,0.002678,0.000431,0.023036
3508000,0.0324,0.013523,0.002678,0.000431,0.023623
3509000,0.0324,0.013523,0.002678,0.000431,0.023388
3510000,0.0324,0.013523,0.002678,0.000431,0.024563
3511000,0.0324,0.013523,0.002678,0.000431,0.022683
3512000,0.0324,0.013523,0.002678,0.000431,0.022800
3513000,0.0324,0.013523,0.002678,0.000431,0.022683
3514000,0.0324,0.013523,0.002678,0.000431,0.023271
3515000,0.0324,0.013523,0.002678,0.000431,0.022683
3516000,0.0324,0.013523,0.002678,0.000431,0.023858
3517000,0.0324,0.013523,0.002678,0.000431,0.022565
3518000,0.0324,0.013523,0.002678,0.000431,0.024093
3519000,0.0324,0.013523,0.002678,0.000431,0.020920
3520000,0.0324,0.013523,0.002678,0.000431,0.020567
3521000,0.0324,0.013523,0.002678,0.000431,0.020215
3522000,0.0324,0.013523,0.002678,0.000431,0.019510
3523000,0.0324,0.013523,0.002678,0.000431,0.019627
3524000,0.0324,0.013523,0.002678,0.000431,0.020215
3525000,0.0324,0.013523,0.002678,0.000431,0.019980
3526000,0.0324,0.013523,0.002678,0.000431,0.019627
3527000,0.0324,0.013523,0.002678,0.000431,0.020920
3528000,0.0324,0.013523,0.002678,0.000431,0.019862
3529000,0.0324,0.013523,0.002678,0.000431,0.019862
3530000,0.0324,0.013523,0.002678,0.000431,0.020215
3531000,0.0324,0.013523,0.002678,0.000431,0.019980
3532000,0.0324,0.013523,0.002678,0.000431,0.020215
3533000,0.0324,0.013523,0.002678,0.000431,0.020097
3534000,0.0324,0.013523,0.002678,0.000431,0.019980
3535000,0.0324,0.013523,0.002678,0.000431,0.019862
3536000,0.0324,0.013523,0.002678,0.000431,0.019980
3537000,0.0324,0.013523,0.002678,0.000431,0.021155
3538000,0.0324,0.013523,0.002678,0.000431,0.019040
3539000,0.0324,0.013523,0.002678,0.000431,0.019040
3540000,0.0324,0.013523,0.002678,0.000431,0.019980
3541000,0.0324,0.013523,0.002678,0.000431,0.019980
3542000,0.0324,0.013523,0.002678,0.000431,0.019157
3543000,0.0324,0.013523,0.002678,0.000431,0.019627
3544000,0.0324,0.013523,0.002678,0.000431,0.021155
3545000,0.0324,0.013523,0.002678,0.000431,0.019745
3546000,0.0324,0.013523,0.002678,0.000431,0.019157
3547000,0.0324,0.013523,0.002678,0.000431,0.021625
3548000,0.0324,0.013523,0.002678,0.000431,0.019980
3549000,0.0324,0.013523,0.002678,0.000431,0.019510
3550000,0.0324,0.013523,0.002678,0.000431,0.020450
3551000,0.0324,0.013523,0.002678,0.000431,0.018922
3552000,0.0324,0.013523,0.002678,0.000431,0.018687
3553000,0.0324,0.013523,0.002678,0.000431,0.019510
3554000,0.0324,0.013523,0.002678,0.000431,0.019510
3555000,0.0324,0.013523,0.002678,0.000431,0.019157
3556000,0.0324,0.013523,0.002678,0.000431,0.018805
3557000,0.0324,0.013523,0.002678,0.000431,0.019275
3558000,0.0324,0.013523,0.002678,0.000431,0.019745
3559000,0.0324,0.013523,0.002678,0.000431,0.019745
3560000,0.0324,0.013523,0.002678,0.000431,0.019627
3561000,0.0324,0.013523,0.002678,0.000431,0.019510
3562000,0.0324,0.013523,0.002678,0.000431,0.018334
3563000,0.0324,0.013523,0.002678,0.000431,0.019627
3564000,0.0324,0.013523,0.002678,0.000431,0.018687
3565000,0.0324,0.013523,0.002678,0.000431,0.019862
3566000,0.0324,0.013523,0.002678,0.000431,0.019510
3567000,0.0324,0.013523,0.002678,0.000431,0.019157
3568000,0.0324,0.013523,0.002678,0.000431,0.018217
3569000,0.0324,0.013523,0.002678,0.000431,0.019510
3570000,0.0324,0.013523,0.002678,0.000431,0.018922
3571000,0.0324,0.013523,0.002678,0.000431,0.019157
3572000,0.0324,0.013523,0.002678,0.000431,0.019862
3573000,0.0324,0.013523,0.002678,0.000431,0.018687
3574000,0.0324,0.013523,0.002678,0.000431,0.020802
3575000,0.0324,0.013523,0.002678,0.000431,0.017747
3576000,0.0324,0.013523,0.002678,0.000431,0.017982
3577000,0.0324,0.013523,0.002678,0.000431,0.019392
3578000,0.0324,0.013523,0.002678,0.000431,0.017277
3579000,0.0324,0.013523,0.002678,0.000431,0.018452
3580000,0.0324,0.013523,0.002678,0.000431,0.019275
3581000,0.0324,0.013523,0.002678,0.000431,0.018099
3582000,0.0324,0.013523,0.002678,0.000431,0.020097
3583000,0.0324,0.013523,0.002678,0.000431,0.018805
3584000,0.0324,0.013523,0.002678,0.000431,0.018217
3585000,0.0324,0.013523,0.002678,0.000431,0.019275
3586000,0.0324,0.013523,0.002678,0.000431,0.017864
3587000,0.0324,0.013523,0.002678,0.000431,0.019392
3588000,0.0324,0.013523,0.002678,0.000431,0.018805
3589000,0.0324,0.013523,0.002678,0.000431,0.019157
3590000,0.0324,0.013523,0.002678,0.000431,0.017629
3591000,0.0324,0.013523,0.002678,0.000431,0.017629
3592000,0.0324,0.013523,0.002678,0.000431,0.019510
3593000,0.0324,0.013523,0.002678,0.000431,0.018569
3594000,0.0324,0.013523,0.002678,0.000431,0.017042
3595000,0.0324,0.013523,0.002678,0.000431,0.018217
3596000,0.0324,0.013523,0.002678,0.000431,0.018569
3597000,0.0324,0.013523,0.002678,0.000431,0.017159
3598000,0.0324,0.013523,0.002678,0.000431,0.018217
3599000,0.0324,0.013523,0.002678,0.000431,0.019627
3600000,0.0324,0.013523,0.002678,0.000431,0.015279
3601000,0.0324,0.013523,0.002678,0.000431,0.016924
3602000,0.0324,0.013523,0.002678,0.000431,0.016571
3603000,0.0324,0.013523,0.002678,0.000431,0.015044
3604000,0.0324,0.013523,0.002678,0.000431,0.016571
3605000,0.0324,0.013523,0.002678,0.000431,0.017277
3606000,0.0324,0.013523,0.002678,0.000431,0.016454
3607000,0.0324,0.013523,0.002678,0.000431,0.016219
3608000,0.0324,0.013523,0.002678,0.000431,0.014926
3609000,0.0324,0.013523,0.002678,0.000431,0.015984
3610000,0.0324,0.013523,0.002678,0.000431,0.015984
3611000,0.0324,0.013523,0.002678,0.000431,0.016219
3612000,0.0324,0.013523,0.002678,0.000431,0.015984
3613000,0.0324,0.013523,0.002678,0.000431,0.016101
3614000,0.0324,0.013523,0.002678,0.000431,0.016454
3615000,0.0324,0.013523,0.002678,0.000431,0.016689
3616000,0.0324,0.013523,0.002678,0.000431,0.015749
3617000,0.0324,0.013523,0.002678,0.000431,0.017277
3618000,0.0324,0.013523,0.002678,0.000431,0.015044
3619000,0.0324,0.013523,0.002678,0.000431,0.016101
3620000,0.0324,0.013523,0.002678,0.000431,0.016571
3621000,0.0324,0.013523,0.002678,0.000431,0.015866
3622000,0.0324,0.013523,0.002678,0.000431,0.015631
3623000,0.0324,0.013523,0.002678,0.000431,0.016924
3624000,0.0324,0.013523,0.002678,0.000431,0.016219
3625000,0.0324,0.013523,0.002678,0.000431,0.016336
3626000,0.0324,0.013523,0.002678,0.000431,0.016101
3627000,0.0324,0.013523,0.002678,0.000431,0.016101
3628000,0.0324,0.013523,0.002678,0.000431,0.015749
3629000,0.0324,0.013523,0.002678,0.000431,0.016219
3630000,0.0324,0.013523,0.002678,0.000431,0.015749
3631000,0.0324,0.013523,0.002678,0.000431,0.015396
3632000,0.0324,0.013523,0.002678,0.000431,0.016219
3633000,0.0324,0.013523,0.002678,0.000431,0.016454
3634000,0.0324,0.013523,0.002678,0.000431,0.015866
3635000,0.0324,0.013523,0.002678,0.000431,0.016336
3636000,0.0324,0.013523,0.002678,0.000431,0.016219
3637000,0.0324,0.013523,0.002678,0.000431,0.016807
3638000,0.0324,0.013523,0.002678,0.000431,0.015866
3639000,0.0324,0.013523,0.002678,0.000431,0.016454
3640000,0.0324,0.013523,0.002678,0.000431,0.015396
3641000,0.0324,0.013523,0.002678,0.000431,0.014221
3642000,0.0324,0.013523,0.002678,0.000431,0.016571
3643000,0.0324,0.013523,0.002678,0.000431,0.015396
3644000,0.0324,0.013523,0.002678,0.000431,0.014573
3645000,0.0324,0.013523,0.002678,0.000431,0.015749
3646000,0.0324,0.013523,0.002678,0.000431,0.014926
3647000,0.0324,0.013523,0.002678,0.000431,0.015749
3648000,0.0324,0.013523,0.002678,0.000431,0.015514
3649000,0.0324,0.013523,0.002678,0.000431,0.015161
3650000,0.0324,0.013523,0.002678,0.000431,0.015396
3651000,0.0324,0.013523,0.002678,0.000431,0.015279
3652000,0.0324,0.013523,0.002678,0.000431,0.015279
3653000,0.0324,0.013523,0.002678,0.000431,0.014691
3654000,0.0324,0.013523,0.002678,0.000431,0.015631
3655000,0.0324,0.013523,0.002678,0.000431,0.015631
3656000,0.0324,0.013523,0.002678,0.000431,0.014221
3657000,0.0324,0.013523,0.002678,0.000431,0.016101
3658000,0.0324,0.013523,0.002678,0.000431,0.015396
3659000,0.0324,0.013523,0.002678,0.000431,0.015279
3660000,0.0324,0.013523,0.002678,0.000431,0.015514
3661000,0.0324,0.013523,0.002678,0.000431,0.015984
3662000,0.0324,0.013523,0.002678,0.000431,0.014926
3663000,0.0324,0.013523,0.002678,0.000431,0.015396
3664000,0.0324,0.013523,0.002678,0.000431,0.016219
3665000,0.0324,0.013523,0.002678,0.000431,0.014691
3666000,0.0324,0.013523,0.002678,0.000431,0.015044
3667000,0.0324,0.013523,0.002678,0.000431,0.015514
3668000,0.0324,0.013523,0.002678,0.000431,0.015749
3669000,0.0324,0.013523,0.002678,0.000431,0.015984
3670000,0.0324,0.013523,0.002678,0.000431,0.014573
3671000,0.0324,0.013523,0.002678,0.000431,0.014809
3672000,0.0324,0.013523,0.002678,0.000431,0.014221
3673000,0.0324,0.013523,0.002678,0.000431,0.015631
3674000,0.0324,0.013523,0.002678,0.000431,0.014809
3675000,0.0324,0.013523,0.002678,0.000431,0.014338
3676000,0.0324,0.013523,0.002678,0.000431,0.015161
3677000,0.0324,0.013523,0.002678,0.000431,0.014926
3678000,0.0324,0.013523,0.002678,0.000431,0.014691
3679000,0.0324,0.013523,0.002678,0.000431,0.014456
3680000,0.0324,0.013523,0.002678,0.000431,0.014573
3681000,0.0324,0.013523,0.002678,0.000431,0.014221
3682000,0.0324,0.013523,0.002678,0.000431,0.014573
3683000,0.0324,0.013523,0.002678,0.000431,0.015161
3684000,0.0324,0.013523,0.002678,0.000431,0.013868
3685000,0.0324,0.013523,0.002678,0.000431,0.013868
3686000,0.0324,0.013523,0.002678,0.000431,0.013986
3687000,0.0324,0.013523,0.002678,0.000431,0.013868
3688000,0.0324,0.013523,0.002678,0.000431,0.013046
3689000,0.0324,0.013523,0.002678,0.000431,0.015514
3690000,0.0324,0.013523,0.002678,0.000431,0.013281
3691000,0.0324,0.013523,0.002678,0.000431,0.013751
3692000,0.0324,0.013523,0.002678,0.000431,0.014809
3693000,0.0324,0.013523,0.002678,0.000431,0.013516
3694000,0.0324,0.013523,0.002678,0.000431,0.014221
3695000,0.0324,0.013523,0.002678,0.000431,0.013633
3696000,0.0324,0.013523,0.002678,0.000431,0.012811
3697000,0.0324,0.013523,0.002678,0.000431,0.013633
3698000,0.0324,0.013523,0.002678,0.000431,0.012928
3699000,0.0324,0.013523,0.002678,0.000431,0.012811
3700000,0.0324,0.013523,0.002678,0.000431,0.013163
3701000,0.0324,0.013523,0.002678,0.000431,0.012458
3702000,0.0324,0.013523,0.002678,0.000431,0.013986
3703000,0.0324,0.013523,0.002678,0.000431,0.013163
3704000,0.0324,0.013523,0.002678,0.000431,0.013281
3705000,0.0324,0.013523,0.002678,0.000431,0.013751
3706000,0.0324,0.013523,0.002678,0.000431,0.012458
3707000,0.0324,0.013523,0.002678,0.000431,0.013398
3708000,0.0324,0.013523,0.002678,0.000431,0.013281
3709000,0.0324,0.013523,0.002678,0.000431,0.013751
3710000,0.0324,0.013523,0.002678,0.000431,0.013398
3711000,0.0324,0.013523,0.002678,0.000431,0.013163
3712000,0.0324,0.013523,0.002678,0.000431,0.013751
3713000,0.0324,0.013523,0.002678,0.000431,0.011988
3714000,0.0324,0.013523,0.002678,0.000431,0.012105
3715000,0.0324,0.013523,0.002678,0.000431,0.012811
3716000,0.0324,0.013523,0.002678,0.000431,0.011988
3717000,0.0324,0.013523,0.002678,0.000431,0.013281
3718000,0.0324,0.013523,0.002678,0.000431,0.011635
3719000,0.0324,0.013523,0.002678,0.000431,0.013633
3720000,0.0324,0.013523,0.002678,0.000431,0.012340
3721000,0.0324,0.013523,0.002678,0.000431,0.012340
3722000,0.0324,0.013523,0.002678,0.000431,0.013281
3723000,0.0324,0.013523,0.002678,0.000431,0.012576
3724000,0.0324,0.013523,0.002678,0.000431,0.010930
3725000,0.0324,0.013523,0.002678,0.000431,0.013751
3726000,0.0324,0.013523,0.002678,0.000431,0.012340
3727000,0.0324,0.013523,0.002678,0.000431,0.012693
3728000,0.0324,0.013523,0.002678,0.000431,0.012811
3729000,0.0324,0.013523,0.002678,0.000431,0.012811
3730000,0.0324,0.013523,0.002678,0.000431,0.011870
3731000,0.0324,0.013523,0.002678,0.000431,0.012576
3732000,0.0324,0.013523,0.002678,0.000431,0.012928
3733000,0.0324,0.013523,0.002678,0.000431,0.012340
3734000,0.0324,0.013523,0.002678,0.000431,0.012811
3735000,0.0324,0.013523,0.002678,0.000431,0.012811
3736000,0.0324,0.013523,0.002678,0.000431,0.012340
3737000,0.0324,0.013523,0.002678,0.000431,0.012458
3738000,0.0324,0.013523,0.002678,0.000431,0.013163
3739000,0.0324,0.013523,0.002678,0.000431,0.012693
3740000,0.0324,0.013523,0.002678,0.000431,0.013633
3741000,0.0324,0.013523,0.002678,0.000431,0.011753
3742000,0.0324,0.013523,0.002678,0.000431,0.011635
3743000,0.0324,0.013523,0.002678,0.000431,0.011870
3744000,0.0324,0.013523,0.002678,0.000431,0.011518
3745000,0.0324,0.013523,0.002678,0.000431,0.011635
3746000,0.0324,0.013523,0.002678,0.000431,0.011635
3747000,0.0324,0.013523,0.002678,0.000431,0.012458
3748000,0.0324,0.013523,0.002678,0.000431,0.011518
3749000,0.0324,0.013523,0.002678,0.000431,0.011870
3750000,0.0324,0.013523,0.002678,0.000431,0.012105
3751000,0.0324,0.013523,0.002678,0.000431,0.012223
3752000,0.0324,0.013523,0.002678,0.000431,0.011635
3753000,0.0324,0.013523,0.002678,0.000431,0.011988
3754000,0.0324,0.013523,0.002678,0.000431,0.012223
3755000,0.0324,0.013523,0.002678,0.000431,0.011753
3756000,0.0324,0.013523,0.002678,0.000431,0.011635
3757000,0.0324,0.013523,0.002678,0.000431,0.012340
3758000,0.0324,0.013523,0.002678,0.000431,0.011753
3759000,0.0324,0.013523,0.002678,0.000431,0.011400
3760000,0.0324,0.013523,0.002678,0.000431,0.011988
3761000,0.0324,0.013523,0.002678,0.000431,0.011635
3762000,0.0324,0.013523,0.002678,0.000431,0.011870
3763000,0.0324,0.013523,0.002678,0.000431,0.011870
3764000,0.0324,0.013523,0.002678,0.000431,0.012105
3765000,0.0324,0.013523,0.002678,0.000431,0.011635
3766000,0.0324,0.013523,0.002678,0.000431,0.011870
3767000,0.0324,0.013523,0.002678,0.000431,0.012576
3768000,0.0324,0.013523,0.002678,0.000431,0.011635
3769000,0.0324,0.013523,0.002678,0.000431,0.011635
3770000,0.0324,0.013523,0.002678,0.000431,0.012576
3771000,0.0324,0.013523,0.002678,0.000431,0.011400
3772000,0.0324,0.013523,0.002678,0.000431,0.011988
3773000,0.0324,0.013523,0.002678,0.000431,0.011400
3774000,0.0324,0.013523,0.002678,0.000431,0.011165
3775000,0.0324,0.013523,0.002678,0.000431,0.010930
3776000,0.0324,0.013523,0.002678,0.000431,0.011400
3777000,0.0324,0.013523,0.002678,0.000431,0.011283
3778000,0.0324,0.013523,0.002678,0.000431,0.010460
3779000,0.0324,0.013523,0.002678,0.000431,0.010813
3780000,0.0324,0.013523,0.002678,0.000431,0.010930
3781000,0.0324,0.013523,0.002678,0.000431,0.011400
3782000,0.0324,0.013523,0.002678,0.000431,0.011400
3783000,0.0324,0.013523,0.002678,0.000431,0.011048
3784000,0.0324,0.013523,0.002678,0.000431,0.011048
3785000,0.0324,0.013523,0.002678,0.000431,0.010578
3786000,0.0324,0.013523,0.002678,0.000431,0.011753
3787000,0.0324,0.013523,0.002678,0.000431,0.011165
3788000,0.0324,0.013523,0.002678,0.000431,0.009050
3789000,0.0324,0.013523,0.002678,0.000431,0.009872
3790000,0.0324,0.013523,0.002678,0.000431,0.009990
3791000,0.0324,0.013523,0.002678,0.000431,0.009167
3792000,0.0324,0.013523,0.002678,0.000431,0.009050
3793000,0.0324,0.013523,0.002678,0.000431,0.009637
3794000,0.0324,0.013523,0.002678,0.000431,0.009990
3795000,0.0324,0.013523,0.002678,0.000431,0.008109
3796000,0.0324,0.013523,0.002678,0.000431,0.010342
3797000,0.0324,0.013523,0.002678,0.000431,0.009872
3798000,0.0324,0.013523,0.002678,0.000431,0.009285
3799000,0.0324,0.013523,0.002678,0.000431,0.010107
3800000,0.0324,0.013523,0.002678,0.000431,0.009637
3801000,0.0324,0.013523,0.002678,0.000431,0.008697
3802000,0.0324,0.013523,0.002678,0.000431,0.010225
3803000,0.0324,0.013523,0.002678,0.000431,0.009402
3804000,0.0324,0.013523,0.002678,0.000431,0.009402
3805000,0.0324,0.013523,0.002678,0.000431,0.009050
3806000,0.0324,0.013523,0.002678,0.000431,0.009520
3807000,0.0324,0.013523,0.002678,0.000431,0.009990
3808000,0.0324,0.013523,0.002678,0.000431,0.009872
3809000,0.0324,0.013523,0.002678,0.000431,0.009402
3810000,0.0324,0.013523,0.002678,0.000431,0.009402
3811000,0.0324,0.013523,0.002678,0.000431,0.010225
3812000,0.0324,0.013523,0.002678,0.000431,0.008580
3813000,0.0324,0.013523,0.002678,0.000431,0.008815
3814000,0.0324,0.013523,0.002678,0.000431,0.008932
3815000,0.0324,0.013523,0.002678,0.000431,0.008580
3816000,0.0324,0.013523,0.002678,0.000431,0.008815
3817000,0.0324,0.013523,0.002678,0.000431,0.008697
3818000,0.0324,0.013523,0.002678,0.000431,0.008580
3819000,0.0324,0.013523,0.002678,0.000431,0.008580
3820000,0.0324,0.013523,0.002678,0.000431,0.008932
3821000,0.0324,0.013523,0.002678,0.000431,0.008462
3822000,0.0324,0.013523,0.002678,0.000431,0.008697
3823000,0.0324,0.013523,0.002678,0.000431,0.009050
3824000,0.0324,0.013523,0.002678,0.000431,0.009167
3825000,0.0324,0.013523,0.002678,0.000431,0.008462
3826000,0.0324,0.013523,0.002678,0.000431,0.008932
3827000,0.0324,0.013523,0.002678,0.000431,0.008462
3828000,0.0324,0.013523,0.002678,0.000431,0.008932
3829000,0.0324,0.013523,0.002678,0.000431,0.008697
3830000,0.0324,0.013523,0.002678,0.000431,0.008815
3831000,0.0324,0.013523,0.002678,0.000431,0.008815
3832000,0.0324,0.013523,0.002678,0.000431,0.008932
3833000,0.0324,0.013523,0.002678,0.000431,0.009402
3834000,0.0324,0.013523,0.002678,0.000431,0.008462
3835000,0.0324,0.013523,0.002678,0.000431,0.008109
3836000,0.0324,0.013523,0.002678,0.000431,0.007757
3837000,0.0324,0.013523,0.002678,0.000431,0.007874
3838000,0.0324,0.013523,0.002678,0.000431,0.008462
3839000,0.0324,0.013523,0.002678,0.000431,0.008227
3840000,0.0324,0.013523,0.002678,0.000431,0.008345
3841000,0.0324,0.013523,0.002678,0.000431,0.008580
3842000,0.0324,0.013523,0.002678,0.000431,0.007404
3843000,0.0324,0.013523,0.002678,0.000431,0.008462
3844000,0.0324,0.013523,0.002678,0.000431,0.007874
3845000,0.0324,0.013523,0.002678,0.000431,0.007639
3846000,0.0324,0.013523,0.002678,0.000431,0.008109
3847000,0.0324,0.013523,0.002678,0.000431,0.008109
3848000,0.0324,0.013523,0.002678,0.000431,0.007757
3849000,0.0324,0.013523,0.002678,0.000431,0.008345
3850000,0.0324,0.013523,0.002678,0.000431,0.007522
3851000,0.0324,0.013523,0.002678,0.000431,0.007992
3852000,0.0324,0.013523,0.002678,0.000431,0.008109
3853000,0.0324,0.013523,0.002678,0.000431,0.007639
3854000,0.0324,0.013523,0.002678,0.000431,0.007992
3855000,0.0324,0.013523,0.002678,0.000431,0.008109
3856000,0.0324,0.013523,0.002678,0.000431,0.008345
3857000,0.0324,0.013523,0.002678,0.000431,0.007874
3858000,0.0324,0.013523,0.002678,0.000431,0.007874
3859000,0.0324,0.013523,0.002678,0.000431,0.007757
3860000,0.0324,0.013523,0.002678,0.000431,0.008580
3861000,0.0324,0.013523,0.002678,0.000431,0.008345
3862000,0.0324,0.013523,0.002678,0.000431,0.007522
3863000,0.0324,0.013523,0.002678,0.000431,0.007169
3864000,0.0324,0.013523,0.002678,0.000431,0.007639
3865000,0.0324,0.013523,0.002678,0.000431,0.007404
3866000,0.0324,0.013523,0.002678,0.000431,0.007757
3867000,0.0324,0.013523,0.002678,0.000431,0.007169
3868000,0.0324,0.013523,0.002678,0.000431,0.007404
3869000,0.0324,0.013523,0.002678,0.000431,0.007757
3870000,0.0324,0.013523,0.002678,0.000431,0.007404
3871000,0.0324,0.013523,0.002678,0.000431,0.007639
3872000,0.0324,0.013523,0.002678,0.000431,0.007052
3873000,0.0324,0.013523,0.002678,0.000431,0.008345
3874000,0.0324,0.013523,0.002678,0.000431,0.006111
3875000,0.0324,0.013523,0.002678,0.000431,0.006934
3876000,0.0324,0.013523,0.002678,0.000431,0.008109
3877000,0.0324,0.013523,0.002678,0.000431,0.006934
3878000,0.0324,0.013523,0.002678,0.000431,0.006934
3879000,0.0324,0.013523,0.002678,0.000431,0.008345
3880000,0.0324,0.013523,0.002678,0.000431,0.006817
3881000,0.0324,0.013523,0.002678,0.000431,0.007169
3882000,0.0324,0.013523,0.002678,0.000431,0.007874
3883000,0.0324,0.013523,0.002678,0.000431,0.007639
3884000,0.0324,0.013523,0.002678,0.000431,0.007169
3885000,0.0324,0.013523,0.002678,0.000431,0.007522
3886000,0.0324,0.013523,0.002678,0.000431,0.006934
3887000,0.0324,0.013523,0.002678,0.000431,0.007639
3888000,0.0324,0.013523,0.002678,0.000431,0.006582
3889000,0.0324,0.013523,0.002678,0.000431,0.007522
3890000,0.0324,0.013523,0.002678,0.000431,0.007169
3891000,0.0324,0.013523,0.002678,0.000431,0.007169
3892000,0.0324,0.013523,0.002678,0.000431,0.007404
3893000,0.0324,0.013523,0.002678,0.000431,0.007287
3894000,0.0324,0.013523,0.002678,0.000431,0.007874
3895000,0.0324,0.013523,0.002678,0.000431,0.007404
3896000,0.0324,0.013523,0.002678,0.000431,0.007757
3897000,0.0324,0.013523,0.002678,0.000431,0.007992
3898000,0.0324,0.013523,0.002678,0.000431,0.007639
3899000,0.0324,0.013523,0.002678,0.000431,0.007522
3900000,0.0324,0.013523,0.002678,0.000431,0.007287
3901000,0.0324,0.013523,0.002678,0.000431,0.007639
3902000,0.0324,0.013523,0.002678,0.000431,0.007287
3903000,0.0324,0.013523,0.002678,0.000431,0.007874
3904000,0.0324,0.013523,0.002678,0.000431,0.007169
3905000,0.0324,0.013523,0.002678,0.000431,0.007169
3906000,0.0324,0.013523,0.002678,0.000431,0.008109
3907000,0.0324,0.013523,0.002678,0.000431,0.006699
3908000,0.0324,0.013523,0.002678,0.000431,0.007522
3909000,0.0324,0.013523,0.002678,0.000431,0.007404
3910000,0.0324,0.013523,0.002678,0.000431,0.007169
3911000,0.0324,0.013523,0.002678,0.000431,0.007404
3912000,0.0324,0.013523,0.002678,0.000431,0.007874
3913000,0.0324,0.013523,0.002678,0.000431,0.007052
3914000,0.0324,0.013523,0.002678,0.000431,0.007287
3915000,0.0324,0.013523,0.002678,0.000431,0.007992
3916000,0.0324,0.013523,0.002678,0.000431,0.007052
3917000,0.0324,0.013523,0.002678,0.000431,0.007874
3918000,0.0324,0.013523,0.002678,0.000431,0.007052
3919000,0.0324,0.013523,0.002678,0.000431,0.007169
3920000,0.0324,0.013523,0.002678,0.000431,0.007992
3921000,0.0324,0.013523,0.002678,0.000431,0.007404
3922000,0.0324,0.013523,0.002678,0.000431,0.006582
3923000,0.0324,0.013523,0.002678,0.000431,0.007874
3924000,0.0324,0.013523,0.002678,0.000431,0.006817
3925000,0.0324,0.013523,0.002678,0.000431,0.007522
3926000,0.0324,0.013523,0.002678,0.000431,0.007757
3927000,0.0324,0.013523,0.002678,0.000431,0.006934
3928000,0.0324,0.013523,0.002678,0.000431,0.007639
3929000,0.0324,0.013523,0.002678,0.000431,0.008227
3930000,0.0324,0.013523,0.002678,0.000431,0.007169
3931000,0.0324,0.013523,0.002678,0.000431,0.007522
3932000,0.0324,0.013523,0.002678,0.000431,0.007874
3933000,0.0324,0.013523,0.002678,0.000431,0.006582
3934000,0.0324,0.013523,0.002678,0.000431,0.007404
3935000,0.0324,0.013523,0.002678,0.000431,0.007757
3936000,0.0324,0.013523,0.002678,0.000431,0.007287
3937000,0.0324,0.013523,0.002678,0.000431,0.007874
3938000,0.0324,0.013523,0.002678,0.000431,0.007639
3939000,0.0324,0.013523,0.002678,0.000431,0.006934
3940000,0.0324,0.013523,0.002678,0.000431,0.007639
3941000,0.0324,0.013523,0.002678,0.000431,0.007052
3942000,0.0324,0.013523,0.002678,0.000431,0.006699
3943000,0.0324,0.013523,0.002678,0.000431,0.008345
3944000,0.0324,0.013523,0.002678,0.000431,0.007287
3945000,0.0324,0.013523,0.002678,0.000431,0.007757
3946000,0.0324,0.013523,0.002678,0.000431,0.006934
3947000,0.0324,0.013523,0.002678,0.000431,0.007522
3948000,0.0324,0.013523,0.002678,0.000431,0.006934
3949000,0.0324,0.013523,0.002678,0.000431,0.007522
3950000,0.0324,0.013523,0.002678,0.000431,0.007639
3951000,0.0324,0.013523,0.002678,0.000431,0.007404
3952000,0.0324,0.013523,0.002678,0.000431,0.007992
3953000,0.0324,0.013523,0.002678,0.000431,0.007522
3954000,0.0324,0.013523,0.002678,0.000431,0.007052
3955000,0.0324,0.013523,0.002678,0.000431,0.007874
3956000,0.0324,0.013523,0.002678,0.000431,0.007757
3957000,0.0324,0.013523,0.002678,0.000431,0.007287
3958000,0.0324,0.013523,0.002678,0.000431,0.007757
3959000,0.0324,0.013523,0.002678,0.000431,0.006934
3960000,0.0324,0.013523,0.002678,0.000431,0.007522
3961000,0.0324,0.013523,0.002678,0.000431,0.007522
3962000,0.0324,0.013523,0.002678,0.000431,0.007757
3963000,0.0324,0.013523,0.002678,0.000431,0.007169
3964000,0.0324,0.013523,0.002678,0.000431,0.007992
3965000,0.0324,0.013523,0.002678,0.000431,0.007287
3966000,0.0324,0.013523,0.002678,0.000431,0.006817
3967000,0.0324,0.013523,0.002678,0.000431,0.007874
3968000,0.0324,0.013523,0.002678,0.000431,0.007052
3969000,0.0324,0.013523,0.002678,0.000431,0.007522
3970000,0.0324,0.013523,0.002678,0.000431,0.007287
3971000,0.0324,0.013523,0.002678,0.000431,0.007992
3972000,0.0324,0.013523,0.002678,0.000431,0.006934
3973000,0.0324,0.013523,0.002678,0.000431,0.007169
3974000,0.0324,0.013523,0.002678,0.000431,0.007522
3975000,0.0324,0.013523,0.002678,0.000431,0.007874
3976000,0.0324,0.013523,0.002678,0.000431,0.007169
3977000,0.0324,0.013523,0.002678,0.000431,0.007522
3978000,0.0324,0.013523,0.002678,0.000431,0.007874
3979000,0.0324,0.013523,0.002678,0.000431,0.007522
3980000,0.0324,0.013523,0.002678,0.000431,0.007169
3981000,0.0324,0.013523,0.002678,0.000431,0.007522
3982000,0.0324,0.013523,0.002678,0.000431,0.007522
3983000,0.0324,0.013523,0.002678,0.000431,0.007287
3984000,0.0324,0.013523,0.002678,0.000431,0.007757
3985000,0.0324,0.013523,0.002678,0.000431,0.006817
3986000,0.0324,0.013523,0.002678,0.000431,0.008109
3987000,0.0324,0.013523,0.002678,0.000431,0.007287
3988000,0.0324,0.013523,0.002678,0.000431,0.007169
3989000,0.0324,0.013523,0.002678,0.000431,0.007052
3990000,0.0324,0.013523,0.002678,0.000431,0.007522
3991000,0.0324,0.013523,0.002678,0.000431,0.007404
3992000,0.0324,0.013523,0.002678,0.000431,0.007287
3993000,0.0324,0.013523,0.002678,0.000431,0.008109
3994000,0.0324,0.013523,0.002678,0.000431,0.006934
3995000,0.0324,0.013523,0.002678,0.000431,0.007287
3996000,0.0324,0.013523,0.002678,0.000431,0.007639
3997000,0.0324,0.013523,0.002678,0.000431,0.008109
3998000,0.0324,0.013523,0.002678,0.000431,0.007052
3999000,0.0324,0.013523,0.002678,0.000431,0.007052
