Cycle,Area(mm^2),PeakDynamic(W),SubthresholdLeakage(W),GateLeakage(W),RunTimeDynamic(W)
4000000,0.0324,0.013523,0.002678,0.000431,0.317679
4001000,0.0324,0.013523,0.002678,0.000431,0.324260
4002000,0.0324,0.013523,0.002678,0.000431,0.319912
4003000,0.0324,0.013523,0.002678,0.000431,0.308511
4004000,0.0324,0.013523,0.002678,0.000431,0.313800
4005000,0.0324,0.013523,0.002678,0.000431,0.333780
4006000,0.0324,0.013523,0.002678,0.000431,0.320382
4007000,0.0324,0.013523,0.002678,0.000431,0.316386
4008000,0.0324,0.013523,0.002678,0.000431,0.313095
4009000,0.0324,0.013523,0.002678,0.000431,0.313683
4010000,0.0324,0.013523,0.002678,0.000431,0.319324
4011000,0.0324,0.013523,0.002678,0.000431,0.330489
4012000,0.0324,0.013523,0.002678,0.000431,0.318384
4013000,0.0324,0.013523,0.002678,0.000431,0.321322
4014000,0.0324,0.013523,0.002678,0.000431,0.323673
4015000,0.0324,0.013523,0.002678,0.000431,0.328726
4016000,0.0324,0.013523,0.002678,0.000431,0.324965
4017000,0.0324,0.013523,0.002678,0.000431,0.324965
4018000,0.0324,0.013523,0.002678,0.000431,0.322262
4019000,0.0324,0.013523,0.002678,0.000431,0.310274
4020000,0.0324,0.013523,0.002678,0.000431,0.315446
4021000,0.0324,0.013523,0.002678,0.000431,0.322732
4022000,0.0324,0.013523,0.002678,0.000431,0.326376
4023000,0.0324,0.013523,0.002678,0.000431,0.309804
4024000,0.0324,0.013523,0.002678,0.000431,0.319442
4025000,0.0324,0.013523,0.002678,0.000431,0.311802
4026000,0.0324,0.013523,0.002678,0.000431,0.316033
4027000,0.0324,0.013523,0.002678,0.000431,0.311450
4028000,0.0324,0.013523,0.002678,0.000431,0.315563
4029000,0.0324,0.013523,0.002678,0.000431,0.312860
4030000,0.0324,0.013523,0.002678,0.000431,0.312390
4031000,0.0324,0.013523,0.002678,0.000431,0.309334
4032000,0.0324,0.013523,0.002678,0.000431,0.321557
4033000,0.0324,0.013523,0.002678,0.000431,0.311215
4034000,0.0324,0.013523,0.002678,0.000431,0.332017
4035000,0.0324,0.013523,0.002678,0.000431,0.331429
4036000,0.0324,0.013523,0.002678,0.000431,0.329196
4037000,0.0324,0.013523,0.002678,0.000431,0.324025
4038000,0.0324,0.013523,0.002678,0.000431,0.316621
4039000,0.0324,0.013523,0.002678,0.000431,0.326141
4040000,0.0324,0.013523,0.002678,0.000431,0.323320
4041000,0.0324,0.013523,0.002678,0.000431,0.334250
4042000,0.0324,0.013523,0.002678,0.000431,0.306866
4043000,0.0324,0.013523,0.002678,0.000431,0.310862
4044000,0.0324,0.013523,0.002678,0.000431,0.326258
4045000,0.0324,0.013523,0.002678,0.000431,0.311920
4046000,0.0324,0.013523,0.002678,0.000431,0.295818
4047000,0.0324,0.013523,0.002678,0.000431,0.308394
4048000,0.0324,0.013523,0.002678,0.000431,0.317326
4049000,0.0324,0.013523,0.002678,0.000431,0.314623
4050000,0.0324,0.013523,0.002678,0.000431,0.336013
4051000,0.0324,0.013523,0.002678,0.000431,0.318031
4052000,0.0324,0.013523,0.002678,0.000431,0.318149
4053000,0.0324,0.013523,0.002678,0.000431,0.321910
4054000,0.0324,0.013523,0.002678,0.000431,0.319912
4055000,0.0324,0.013523,0.002678,0.000431,0.327198
4056000,0.0324,0.013523,0.002678,0.000431,0.328139
4057000,0.0324,0.013523,0.002678,0.000431,0.317091
4058000,0.0324,0.013523,0.002678,0.000431,0.307101
4059000,0.0324,0.013523,0.002678,0.000431,0.311332
4060000,0.0324,0.013523,0.002678,0.000431,0.308982
4061000,0.0324,0.013523,0.002678,0.000431,0.318971
4062000,0.0324,0.013523,0.002678,0.000431,0.311567
4063000,0.0324,0.013523,0.002678,0.000431,0.308982
4064000,0.0324,0.013523,0.002678,0.000431,0.321675
4065000,0.0324,0.013523,0.002678,0.000431,0.315916
4066000,0.0324,0.013523,0.002678,0.000431,0.317914
4067000,0.0324,0.013523,0.002678,0.000431,0.307806
4068000,0.0324,0.013523,0.002678,0.000431,0.305573
4069000,0.0324,0.013523,0.002678,0.000431,0.310039
4070000,0.0324,0.013523,0.002678,0.000431,0.313330
4071000,0.0324,0.013523,0.002678,0.000431,0.324378
4072000,0.0324,0.013523,0.002678,0.000431,0.325083
4073000,0.0324,0.013523,0.002678,0.000431,0.315328
4074000,0.0324,0.013523,0.002678,0.000431,0.316738
4075000,0.0324,0.013523,0.002678,0.000431,0.316033
4076000,0.0324,0.013523,0.002678,0.000431,0.322027
4077000,0.0324,0.013523,0.002678,0.000431,0.328609
4078000,0.0324,0.013523,0.002678,0.000431,0.321205
4079000,0.0324,0.013523,0.002678,0.000431,0.318149
4080000,0.0324,0.013523,0.002678,0.000431,0.320969
4081000,0.0324,0.013523,0.002678,0.000431,0.325671
4082000,0.0324,0.013523,0.002678,0.000431,0.324495
4083000,0.0324,0.013523,0.002678,0.000431,0.319559
4084000,0.0324,0.013523,0.002678,0.000431,0.327786
4085000,0.0324,0.013523,0.002678,0.000431,0.321910
4086000,0.0324,0.013523,0.002678,0.000431,0.322027
4087000,0.0324,0.013523,0.002678,0.000431,0.320734
4088000,0.0324,0.013523,0.002678,0.000431,0.319442
4089000,0.0324,0.013523,0.002678,0.000431,0.332840
4090000,0.0324,0.013523,0.002678,0.000431,0.325788
4091000,0.0324,0.013523,0.002678,0.000431,0.325436
4092000,0.0324,0.013523,0.002678,0.000431,0.316386
4093000,0.0324,0.013523,0.002678,0.000431,0.346708
4094000,0.0324,0.013523,0.002678,0.000431,0.323555
4095000,0.0324,0.013523,0.002678,0.000431,0.317561
4096000,0.0324,0.013523,0.002678,0.000431,0.317679
4097000,0.0324,0.013523,0.002678,0.000431,0.325083
4098000,0.0324,0.013523,0.002678,0.000431,0.308629
4099000,0.0324,0.013523,0.002678,0.000431,0.311450
4100000,0.0324,0.013523,0.002678,0.000431,0.311567
4101000,0.0324,0.013523,0.002678,0.000431,0.317561
4102000,0.0324,0.013523,0.002678,0.000431,0.318971
4103000,0.0324,0.013523,0.002678,0.000431,0.316033
4104000,0.0324,0.013523,0.002678,0.000431,0.304986
4105000,0.0324,0.013523,0.002678,0.000431,0.312507
4106000,0.0324,0.013523,0.002678,0.000431,0.304986
4107000,0.0324,0.013523,0.002678,0.000431,0.319207
4108000,0.0324,0.013523,0.002678,0.000431,0.319089
4109000,0.0324,0.013523,0.002678,0.000431,0.325788
4110000,0.0324,0.013523,0.002678,0.000431,0.315681
4111000,0.0324,0.013523,0.002678,0.000431,0.314270
4112000,0.0324,0.013523,0.002678,0.000431,0.318971
4113000,0.0324,0.013523,0.002678,0.000431,0.314035
4114000,0.0324,0.013523,0.002678,0.000431,0.323203
4115000,0.0324,0.013523,0.002678,0.000431,0.314153
4116000,0.0324,0.013523,0.002678,0.000431,0.309569
4117000,0.0324,0.013523,0.002678,0.000431,0.310157
4118000,0.0324,0.013523,0.002678,0.000431,0.317209
4119000,0.0324,0.013523,0.002678,0.000431,0.314740
4120000,0.0324,0.013523,0.002678,0.000431,0.312272
4121000,0.0324,0.013523,0.002678,0.000431,0.318266
4122000,0.0324,0.013523,0.002678,0.000431,0.311567
4123000,0.0324,0.013523,0.002678,0.000431,0.319912
4124000,0.0324,0.013523,0.002678,0.000431,0.319677
4125000,0.0324,0.013523,0.002678,0.000431,0.319207
4126000,0.0324,0.013523,0.002678,0.000431,0.316151
4127000,0.0324,0.013523,0.002678,0.000431,0.332487
4128000,0.0324,0.013523,0.002678,0.000431,0.317444
4129000,0.0324,0.013523,0.002678,0.000431,0.316503
4130000,0.0324,0.013523,0.002678,0.000431,0.318619
4131000,0.0324,0.013523,0.002678,0.000431,0.305808
4132000,0.0324,0.013523,0.002678,0.000431,0.315211
4133000,0.0324,0.013523,0.002678,0.000431,0.309922
4134000,0.0324,0.013523,0.002678,0.000431,0.323203
4135000,0.0324,0.013523,0.002678,0.000431,0.320734
4136000,0.0324,0.013523,0.002678,0.000431,0.320969
4137000,0.0324,0.013523,0.002678,0.000431,0.319442
4138000,0.0324,0.013523,0.002678,0.000431,0.319677
4139000,0.0324,0.013523,0.002678,0.000431,0.318736
4140000,0.0324,0.013523,0.002678,0.000431,0.320852
4141000,0.0324,0.013523,0.002678,0.000431,0.318384
4142000,0.0324,0.013523,0.002678,0.000431,0.303928
4143000,0.0324,0.013523,0.002678,0.000431,0.317091
4144000,0.0324,0.013523,0.002678,0.000431,0.345180
4145000,0.0324,0.013523,0.002678,0.000431,0.310627
4146000,0.0324,0.013523,0.002678,0.000431,0.310627
4147000,0.0324,0.013523,0.002678,0.000431,0.309452
4148000,0.0324,0.013523,0.002678,0.000431,0.318384
4149000,0.0324,0.013523,0.002678,0.000431,0.317914
4150000,0.0324,0.013523,0.002678,0.000431,0.324143
4151000,0.0324,0.013523,0.002678,0.000431,0.331900
4152000,0.0324,0.013523,0.002678,0.000431,0.325788
4153000,0.0324,0.013523,0.002678,0.000431,0.320147
4154000,0.0324,0.013523,0.002678,0.000431,0.328256
4155000,0.0324,0.013523,0.002678,0.000431,0.327551
4156000,0.0324,0.013523,0.002678,0.000431,0.316503
4157000,0.0324,0.013523,0.002678,0.000431,0.318854
4158000,0.0324,0.013523,0.002678,0.000431,0.318031
4159000,0.0324,0.013523,0.002678,0.000431,0.329784
4160000,0.0324,0.013523,0.002678,0.000431,0.310745
4161000,0.0324,0.013523,0.002678,0.000431,0.305221
4162000,0.0324,0.013523,0.002678,0.000431,0.311920
4163000,0.0324,0.013523,0.002678,0.000431,0.317796
4164000,0.0324,0.013523,0.002678,0.000431,0.313565
4165000,0.0324,0.013523,0.002678,0.000431,0.324143
4166000,0.0324,0.013523,0.002678,0.000431,0.323085
4167000,0.0324,0.013523,0.002678,0.000431,0.325436
4168000,0.0324,0.013523,0.002678,0.000431,0.315093
4169000,0.0324,0.013523,0.002678,0.000431,0.317209
4170000,0.0324,0.013523,0.002678,0.000431,0.323085
4171000,0.0324,0.013523,0.002678,0.000431,0.309099
4172000,0.0324,0.013523,0.002678,0.000431,0.315211
4173000,0.0324,0.013523,0.002678,0.000431,0.336248
4174000,0.0324,0.013523,0.002678,0.000431,0.325553
4175000,0.0324,0.013523,0.002678,0.000431,0.321440
4176000,0.0324,0.013523,0.002678,0.000431,0.331547
4177000,0.0324,0.013523,0.002678,0.000431,0.320734
4178000,0.0324,0.013523,0.002678,0.000431,0.329196
4179000,0.0324,0.013523,0.002678,0.000431,0.330019
4180000,0.0324,0.013523,0.002678,0.000431,0.318149
4181000,0.0324,0.013523,0.002678,0.000431,0.324260
4182000,0.0324,0.013523,0.002678,0.000431,0.317091
4183000,0.0324,0.013523,0.002678,0.000431,0.315446
4184000,0.0324,0.013523,0.002678,0.000431,0.324378
4185000,0.0324,0.013523,0.002678,0.000431,0.342007
4186000,0.0324,0.013523,0.002678,0.000431,0.326141
4187000,0.0324,0.013523,0.002678,0.000431,0.333545
4188000,0.0324,0.013523,0.002678,0.000431,0.327198
4189000,0.0324,0.013523,0.002678,0.000431,0.332605
4190000,0.0324,0.013523,0.002678,0.000431,0.326611
4191000,0.0324,0.013523,0.002678,0.000431,0.301342
4192000,0.0324,0.013523,0.002678,0.000431,0.312037
4193000,0.0324,0.013523,0.002678,0.000431,0.320382
4194000,0.0324,0.013523,0.002678,0.000431,0.307219
4195000,0.0324,0.013523,0.002678,0.000431,0.327904
4196000,0.0324,0.013523,0.002678,0.000431,0.319442
4197000,0.0324,0.013523,0.002678,0.000431,0.323555
4198000,0.0324,0.013523,0.002678,0.000431,0.330489
4199000,0.0324,0.013523,0.002678,0.000431,0.324143
4200000,0.0324,0.013523,0.002678,0.000431,0.324965
4201000,0.0324,0.013523,0.002678,0.000431,0.319442
4202000,0.0324,0.013523,0.002678,0.000431,0.328021
4203000,0.0324,0.013523,0.002678,0.000431,0.315681
4204000,0.0324,0.013523,0.002678,0.000431,0.316856
4205000,0.0324,0.013523,0.002678,0.000431,0.322262
4206000,0.0324,0.013523,0.002678,0.000431,0.315681
4207000,0.0324,0.013523,0.002678,0.000431,0.317091
4208000,0.0324,0.013523,0.002678,0.000431,0.318384
4209000,0.0324,0.013523,0.002678,0.000431,0.311097
4210000,0.0324,0.013523,0.002678,0.000431,0.332487
4211000,0.0324,0.013523,0.002678,0.000431,0.318854
4212000,0.0324,0.013523,0.002678,0.000431,0.334133
4213000,0.0324,0.013523,0.002678,0.000431,0.321440
4214000,0.0324,0.013523,0.002678,0.000431,0.320969
4215000,0.0324,0.013523,0.002678,0.000431,0.316033
4216000,0.0324,0.013523,0.002678,0.000431,0.314035
4217000,0.0324,0.013523,0.002678,0.000431,0.320734
4218000,0.0324,0.013523,0.002678,0.000431,0.318619
4219000,0.0324,0.013523,0.002678,0.000431,0.327904
4220000,0.0324,0.013523,0.002678,0.000431,0.335896
4221000,0.0324,0.013523,0.002678,0.000431,0.325083
4222000,0.0324,0.013523,0.002678,0.000431,0.305926
4223000,0.0324,0.013523,0.002678,0.000431,0.307571
4224000,0.0324,0.013523,0.002678,0.000431,0.310862
4225000,0.0324,0.013523,0.002678,0.000431,0.328021
4226000,0.0324,0.013523,0.002678,0.000431,0.329667
4227000,0.0324,0.013523,0.002678,0.000431,0.324965
4228000,0.0324,0.013523,0.002678,0.000431,0.321557
4229000,0.0324,0.013523,0.002678,0.000431,0.315446
4230000,0.0324,0.013523,0.002678,0.000431,0.323438
4231000,0.0324,0.013523,0.002678,0.000431,0.324495
4232000,0.0324,0.013523,0.002678,0.000431,0.325553
4233000,0.0324,0.013523,0.002678,0.000431,0.311450
4234000,0.0324,0.013523,0.002678,0.000431,0.305103
4235000,0.0324,0.013523,0.002678,0.000431,0.304868
4236000,0.0324,0.013523,0.002678,0.000431,0.320969
4237000,0.0324,0.013523,0.002678,0.000431,0.322615
4238000,0.0324,0.013523,0.002678,0.000431,0.320617
4239000,0.0324,0.013523,0.002678,0.000431,0.324495
4240000,0.0324,0.013523,0.002678,0.000431,0.336836
4241000,0.0324,0.013523,0.002678,0.000431,0.312978
4242000,0.0324,0.013523,0.002678,0.000431,0.318619
4243000,0.0324,0.013523,0.002678,0.000431,0.322497
4244000,0.0324,0.013523,0.002678,0.000431,0.317444
4245000,0.0324,0.013523,0.002678,0.000431,0.332017
4246000,0.0324,0.013523,0.002678,0.000431,0.330489
4247000,0.0324,0.013523,0.002678,0.000431,0.341302
4248000,0.0324,0.013523,0.002678,0.000431,0.332840
4249000,0.0324,0.013523,0.002678,0.000431,0.328609
4250000,0.0324,0.013523,0.002678,0.000431,0.350822
4251000,0.0324,0.013523,0.002678,0.000431,0.347178
4252000,0.0324,0.013523,0.002678,0.000431,0.324378
4253000,0.0324,0.013523,0.002678,0.000431,0.311215
4254000,0.0324,0.013523,0.002678,0.000431,0.320029
4255000,0.0324,0.013523,0.002678,0.000431,0.314153
4256000,0.0324,0.013523,0.002678,0.000431,0.320029
4257000,0.0324,0.013523,0.002678,0.000431,0.315093
4258000,0.0324,0.013523,0.002678,0.000431,0.338951
4259000,0.0324,0.013523,0.002678,0.000431,0.325200
4260000,0.0324,0.013523,0.002678,0.000431,0.336248
4261000,0.0324,0.013523,0.002678,0.000431,0.330842
4262000,0.0324,0.013523,0.002678,0.000431,0.324260
4263000,0.0324,0.013523,0.002678,0.000431,0.328609
4264000,0.0324,0.013523,0.002678,0.000431,0.327551
4265000,0.0324,0.013523,0.002678,0.000431,0.323908
4266000,0.0324,0.013523,0.002678,0.000431,0.325788
4267000,0.0324,0.013523,0.002678,0.000431,0.335073
4268000,0.0324,0.013523,0.002678,0.000431,0.330724
4269000,0.0324,0.013523,0.002678,0.000431,0.328021
4270000,0.0324,0.013523,0.002678,0.000431,0.312860
4271000,0.0324,0.013523,0.002678,0.000431,0.308982
4272000,0.0324,0.013523,0.002678,0.000431,0.320382
4273000,0.0324,0.013523,0.002678,0.000431,0.315916
4274000,0.0324,0.013523,0.002678,0.000431,0.336483
4275000,0.0324,0.013523,0.002678,0.000431,0.331782
4276000,0.0324,0.013523,0.002678,0.000431,0.330842
4277000,0.0324,0.013523,0.002678,0.000431,0.332135
4278000,0.0324,0.013523,0.002678,0.000431,0.340362
4279000,0.0324,0.013523,0.002678,0.000431,0.330842
4280000,0.0324,0.013523,0.002678,0.000431,0.328256
4281000,0.0324,0.013523,0.002678,0.000431,0.338011
4282000,0.0324,0.013523,0.002678,0.000431,0.324730
4283000,0.0324,0.013523,0.002678,0.000431,0.333545
4284000,0.0324,0.013523,0.002678,0.000431,0.324378
4285000,0.0324,0.013523,0.002678,0.000431,0.323555
4286000,0.0324,0.013523,0.002678,0.000431,0.319794
4287000,0.0324,0.013523,0.002678,0.000431,0.314623
4288000,0.0324,0.013523,0.002678,0.000431,0.321675
4289000,0.0324,0.013523,0.002678,0.000431,0.318854
4290000,0.0324,0.013523,0.002678,0.000431,0.308864
4291000,0.0324,0.013523,0.002678,0.000431,0.320264
4292000,0.0324,0.013523,0.002678,0.000431,0.317561
4293000,0.0324,0.013523,0.002678,0.000431,0.307454
4294000,0.0324,0.013523,0.002678,0.000431,0.319677
4295000,0.0324,0.013523,0.002678,0.000431,0.338951
4296000,0.0324,0.013523,0.002678,0.000431,0.304868
4297000,0.0324,0.013523,0.002678,0.000431,0.336248
4298000,0.0324,0.013523,0.002678,0.000431,0.325788
4299000,0.0324,0.013523,0.002678,0.000431,0.337658
4300000,0.0324,0.013523,0.002678,0.000431,0.327081
4301000,0.0324,0.013523,0.002678,0.000431,0.320734
4302000,0.0324,0.013523,0.002678,0.000431,0.306749
4303000,0.0324,0.013523,0.002678,0.000431,0.326493
4304000,0.0324,0.013523,0.002678,0.000431,0.304868
4305000,0.0324,0.013523,0.002678,0.000431,0.313448
4306000,0.0324,0.013523,0.002678,0.000431,0.308747
4307000,0.0324,0.013523,0.002678,0.000431,0.313330
4308000,0.0324,0.013523,0.002678,0.000431,0.309922
4309000,0.0324,0.013523,0.002678,0.000431,0.318149
4310000,0.0324,0.013523,0.002678,0.000431,0.328844
4311000,0.0324,0.013523,0.002678,0.000431,0.318149
4312000,0.0324,0.013523,0.002678,0.000431,0.337423
4313000,0.0324,0.013523,0.002678,0.000431,0.320617
4314000,0.0324,0.013523,0.002678,0.000431,0.316503
4315000,0.0324,0.013523,0.002678,0.000431,0.317091
4316000,0.0324,0.013523,0.002678,0.000431,0.310745
4317000,0.0324,0.013523,0.002678,0.000431,0.313330
4318000,0.0324,0.013523,0.002678,0.000431,0.330489
4319000,0.0324,0.013523,0.002678,0.000431,0.330372
4320000,0.0324,0.013523,0.002678,0.000431,0.321675
4321000,0.0324,0.013523,0.002678,0.000431,0.330019
4322000,0.0324,0.013523,0.002678,0.000431,0.351879
4323000,0.0324,0.013523,0.002678,0.000431,0.340009
4324000,0.0324,0.013523,0.002678,0.000431,0.329549
4325000,0.0324,0.013523,0.002678,0.000431,0.321322
4326000,0.0324,0.013523,0.002678,0.000431,0.329784
4327000,0.0324,0.013523,0.002678,0.000431,0.314388
4328000,0.0324,0.013523,0.002678,0.000431,0.314153
4329000,0.0324,0.013523,0.002678,0.000431,0.301225
4330000,0.0324,0.013523,0.002678,0.000431,0.326846
4331000,0.0324,0.013523,0.002678,0.000431,0.316503
4332000,0.0324,0.013523,0.002678,0.000431,0.308159
4333000,0.0324,0.013523,0.002678,0.000431,0.311332
4334000,0.0324,0.013523,0.002678,0.000431,0.314858
4335000,0.0324,0.013523,0.002678,0.000431,0.322967
4336000,0.0324,0.013523,0.002678,0.000431,0.319207
4337000,0.0324,0.013523,0.002678,0.000431,0.317914
4338000,0.0324,0.013523,0.002678,0.000431,0.306749
4339000,0.0324,0.013523,0.002678,0.000431,0.318971
4340000,0.0324,0.013523,0.002678,0.000431,0.320499
4341000,0.0324,0.013523,0.002678,0.000431,0.328609
4342000,0.0324,0.013523,0.002678,0.000431,0.317326
4343000,0.0324,0.013523,0.002678,0.000431,0.306513
4344000,0.0324,0.013523,0.002678,0.000431,0.313565
4345000,0.0324,0.013523,0.002678,0.000431,0.319089
4346000,0.0324,0.013523,0.002678,0.000431,0.321205
4347000,0.0324,0.013523,0.002678,0.000431,0.314505
4348000,0.0324,0.013523,0.002678,0.000431,0.320617
4349000,0.0324,0.013523,0.002678,0.000431,0.316033
4350000,0.0324,0.013523,0.002678,0.000431,0.314976
4351000,0.0324,0.013523,0.002678,0.000431,0.326258
4352000,0.0324,0.013523,0.002678,0.000431,0.318384
4353000,0.0324,0.013523,0.002678,0.000431,0.321910
4354000,0.0324,0.013523,0.002678,0.000431,0.338951
4355000,0.0324,0.013523,0.002678,0.000431,0.314035
4356000,0.0324,0.013523,0.002678,0.000431,0.325083
4357000,0.0324,0.013523,0.002678,0.000431,0.335308
4358000,0.0324,0.013523,0.002678,0.000431,0.335425
4359000,0.0324,0.013523,0.002678,0.000431,0.322732
4360000,0.0324,0.013523,0.002678,0.000431,0.307689
4361000,0.0324,0.013523,0.002678,0.000431,0.311215
4362000,0.0324,0.013523,0.002678,0.000431,0.320382
4363000,0.0324,0.013523,0.002678,0.000431,0.321440
4364000,0.0324,0.013523,0.002678,0.000431,0.310157
4365000,0.0324,0.013523,0.002678,0.000431,0.304986
4366000,0.0324,0.013523,0.002678,0.000431,0.318736
4367000,0.0324,0.013523,0.002678,0.000431,0.320734
4368000,0.0324,0.013523,0.002678,0.000431,0.338834
4369000,0.0324,0.013523,0.002678,0.000431,0.327081
4370000,0.0324,0.013523,0.002678,0.000431,0.309569
4371000,0.0324,0.013523,0.002678,0.000431,0.309569
4372000,0.0324,0.013523,0.002678,0.000431,0.324025
4373000,0.0324,0.013523,0.002678,0.000431,0.321322
4374000,0.0324,0.013523,0.002678,0.000431,0.331665
4375000,0.0324,0.013523,0.002678,0.000431,0.318384
4376000,0.0324,0.013523,0.002678,0.000431,0.311802
4377000,0.0324,0.013523,0.002678,0.000431,0.325671
4378000,0.0324,0.013523,0.002678,0.000431,0.315798
4379000,0.0324,0.013523,0.002678,0.000431,0.322262
4380000,0.0324,0.013523,0.002678,0.000431,0.320969
4381000,0.0324,0.013523,0.002678,0.000431,0.331312
4382000,0.0324,0.013523,0.002678,0.000431,0.321792
4383000,0.0324,0.013523,0.002678,0.000431,0.310980
4384000,0.0324,0.013523,0.002678,0.000431,0.313330
4385000,0.0324,0.013523,0.002678,0.000431,0.306161
4386000,0.0324,0.013523,0.002678,0.000431,0.306866
4387000,0.0324,0.013523,0.002678,0.000431,0.318736
4388000,0.0324,0.013523,0.002678,0.000431,0.332017
4389000,0.0324,0.013523,0.002678,0.000431,0.312155
4390000,0.0324,0.013523,0.002678,0.000431,0.321910
4391000,0.0324,0.013523,0.002678,0.000431,0.321675
4392000,0.0324,0.013523,0.002678,0.000431,0.339421
4393000,0.0324,0.013523,0.002678,0.000431,0.321322
4394000,0.0324,0.013523,0.002678,0.000431,0.312037
4395000,0.0324,0.013523,0.002678,0.000431,0.322262
4396000,0.0324,0.013523,0.002678,0.000431,0.318266
4397000,0.0324,0.013523,0.002678,0.000431,0.314623
4398000,0.0324,0.013523,0.002678,0.000431,0.324025
4399000,0.0324,0.013523,0.002678,0.000431,0.322262
4400000,0.0324,0.013523,0.002678,0.000431,0.311097
4401000,0.0324,0.013523,0.002678,0.000431,0.313683
4402000,0.0324,0.013523,0.002678,0.000431,0.328374
4403000,0.0324,0.013523,0.002678,0.000431,0.315211
4404000,0.0324,0.013523,0.002678,0.000431,0.314388
4405000,0.0324,0.013523,0.002678,0.000431,0.326376
4406000,0.0324,0.013523,0.002678,0.000431,0.340244
4407000,0.0324,0.013523,0.002678,0.000431,0.327198
4408000,0.0324,0.013523,0.002678,0.000431,0.308394
4409000,0.0324,0.013523,0.002678,0.000431,0.311097
4410000,0.0324,0.013523,0.002678,0.000431,0.329431
4411000,0.0324,0.013523,0.002678,0.000431,0.312155
4412000,0.0324,0.013523,0.002678,0.000431,0.319207
4413000,0.0324,0.013523,0.002678,0.000431,0.302400
4414000,0.0324,0.013523,0.002678,0.000431,0.336013
4415000,0.0324,0.013523,0.002678,0.000431,0.338246
4416000,0.0324,0.013523,0.002678,0.000431,0.344240
4417000,0.0324,0.013523,0.002678,0.000431,0.331782
4418000,0.0324,0.013523,0.002678,0.000431,0.318619
4419000,0.0324,0.013523,0.002678,0.000431,0.323203
4420000,0.0324,0.013523,0.002678,0.000431,0.344945
4421000,0.0324,0.013523,0.002678,0.000431,0.319324
4422000,0.0324,0.013523,0.002678,0.000431,0.320852
4423000,0.0324,0.013523,0.002678,0.000431,0.316033
4424000,0.0324,0.013523,0.002678,0.000431,0.321675
4425000,0.0324,0.013523,0.002678,0.000431,0.319442
4426000,0.0324,0.013523,0.002678,0.000431,0.325200
4427000,0.0324,0.013523,0.002678,0.000431,0.317796
4428000,0.0324,0.013523,0.002678,0.000431,0.314858
4429000,0.0324,0.013523,0.002678,0.000431,0.312860
4430000,0.0324,0.013523,0.002678,0.000431,0.321675
4431000,0.0324,0.013523,0.002678,0.000431,0.328256
4432000,0.0324,0.013523,0.002678,0.000431,0.331194
4433000,0.0324,0.013523,0.002678,0.000431,0.345180
4434000,0.0324,0.013523,0.002678,0.000431,0.326023
4435000,0.0324,0.013523,0.002678,0.000431,0.335660
4436000,0.0324,0.013523,0.002678,0.000431,0.335308
4437000,0.0324,0.013523,0.002678,0.000431,0.321910
4438000,0.0324,0.013523,0.002678,0.000431,0.326846
4439000,0.0324,0.013523,0.002678,0.000431,0.327786
4440000,0.0324,0.013523,0.002678,0.000431,0.338481
4441000,0.0324,0.013523,0.002678,0.000431,0.324025
4442000,0.0324,0.013523,0.002678,0.000431,0.316503
4443000,0.0324,0.013523,0.002678,0.000431,0.316621
4444000,0.0324,0.013523,0.002678,0.000431,0.315681
4445000,0.0324,0.013523,0.002678,0.000431,0.326258
4446000,0.0324,0.013523,0.002678,0.000431,0.331312
4447000,0.0324,0.013523,0.002678,0.000431,0.320499
4448000,0.0324,0.013523,0.002678,0.000431,0.343182
4449000,0.0324,0.013523,0.002678,0.000431,0.323438
4450000,0.0324,0.013523,0.002678,0.000431,0.326376
4451000,0.0324,0.013523,0.002678,0.000431,0.330489
4452000,0.0324,0.013523,0.002678,0.000431,0.314270
4453000,0.0324,0.013523,0.002678,0.000431,0.332840
4454000,0.0324,0.013523,0.002678,0.000431,0.321557
4455000,0.0324,0.013523,0.002678,0.000431,0.314505
4456000,0.0324,0.013523,0.002678,0.000431,0.327316
4457000,0.0324,0.013523,0.002678,0.000431,0.324260
4458000,0.0324,0.013523,0.002678,0.000431,0.329549
4459000,0.0324,0.013523,0.002678,0.000431,0.322380
4460000,0.0324,0.013523,0.002678,0.000431,0.325318
4461000,0.0324,0.013523,0.002678,0.000431,0.321910
4462000,0.0324,0.013523,0.002678,0.000431,0.342007
4463000,0.0324,0.013523,0.002678,0.000431,0.333545
4464000,0.0324,0.013523,0.002678,0.000431,0.329314
4465000,0.0324,0.013523,0.002678,0.000431,0.330019
4466000,0.0324,0.013523,0.002678,0.000431,0.306866
4467000,0.0324,0.013523,0.002678,0.000431,0.315093
4468000,0.0324,0.013523,0.002678,0.000431,0.328961
4469000,0.0324,0.013523,0.002678,0.000431,0.341067
4470000,0.0324,0.013523,0.002678,0.000431,0.340714
4471000,0.0324,0.013523,0.002678,0.000431,0.338834
4472000,0.0324,0.013523,0.002678,0.000431,0.338834
4473000,0.0324,0.013523,0.002678,0.000431,0.332017
4474000,0.0324,0.013523,0.002678,0.000431,0.304751
4475000,0.0324,0.013523,0.002678,0.000431,0.327904
4476000,0.0324,0.013523,0.002678,0.000431,0.315798
4477000,0.0324,0.013523,0.002678,0.000431,0.325788
4478000,0.0324,0.013523,0.002678,0.000431,0.325553
4479000,0.0324,0.013523,0.002678,0.000431,0.325083
4480000,0.0324,0.013523,0.002678,0.000431,0.329784
4481000,0.0324,0.013523,0.002678,0.000431,0.324143
4482000,0.0324,0.013523,0.002678,0.000431,0.320852
4483000,0.0324,0.013523,0.002678,0.000431,0.331194
4484000,0.0324,0.013523,0.002678,0.000431,0.323908
4485000,0.0324,0.013523,0.002678,0.000431,0.340127
4486000,0.0324,0.013523,0.002678,0.000431,0.329431
4487000,0.0324,0.013523,0.002678,0.000431,0.344710
4488000,0.0324,0.013523,0.002678,0.000431,0.326376
4489000,0.0324,0.013523,0.002678,0.000431,0.338481
4490000,0.0324,0.013523,0.002678,0.000431,0.316974
4491000,0.0324,0.013523,0.002678,0.000431,0.332252
4492000,0.0324,0.013523,0.002678,0.000431,0.316856
4493000,0.0324,0.013523,0.002678,0.000431,0.323790
4494000,0.0324,0.013523,0.002678,0.000431,0.325671
4495000,0.0324,0.013523,0.002678,0.000431,0.318501
4496000,0.0324,0.013523,0.002678,0.000431,0.321087
4497000,0.0324,0.013523,0.002678,0.000431,0.326141
4498000,0.0324,0.013523,0.002678,0.000431,0.333663
4499000,0.0324,0.013523,0.002678,0.000431,0.318736
4500000,0.0324,0.013523,0.002678,0.000431,0.324730
4501000,0.0324,0.013523,0.002678,0.000431,0.344358
4502000,0.0324,0.013523,0.002678,0.000431,0.329079
4503000,0.0324,0.013523,0.002678,0.000431,0.320969
4504000,0.0324,0.013523,0.002678,0.000431,0.325553
4505000,0.0324,0.013523,0.002678,0.000431,0.330724
4506000,0.0324,0.013523,0.002678,0.000431,0.327198
4507000,0.0324,0.013523,0.002678,0.000431,0.341537
4508000,0.0324,0.013523,0.002678,0.000431,0.322497
4509000,0.0324,0.013523,0.002678,0.000431,0.319442
4510000,0.0324,0.013523,0.002678,0.000431,0.323203
4511000,0.0324,0.013523,0.002678,0.000431,0.331077
4512000,0.0324,0.013523,0.002678,0.000431,0.316856
4513000,0.0324,0.013523,0.002678,0.000431,0.315328
4514000,0.0324,0.013523,0.002678,0.000431,0.319089
4515000,0.0324,0.013523,0.002678,0.000431,0.313800
4516000,0.0324,0.013523,0.002678,0.000431,0.331547
4517000,0.0324,0.013523,0.002678,0.000431,0.347061
4518000,0.0324,0.013523,0.002678,0.000431,0.339421
4519000,0.0324,0.013523,0.002678,0.000431,0.358226
4520000,0.0324,0.013523,0.002678,0.000431,0.340714
4521000,0.0324,0.013523,0.002678,0.000431,0.333427
4522000,0.0324,0.013523,0.002678,0.000431,0.324613
4523000,0.0324,0.013523,0.002678,0.000431,0.317444
4524000,0.0324,0.013523,0.002678,0.000431,0.307219
4525000,0.0324,0.013523,0.002678,0.000431,0.323320
4526000,0.0324,0.013523,0.002678,0.000431,0.321440
4527000,0.0324,0.013523,0.002678,0.000431,0.312272
4528000,0.0324,0.013523,0.002678,0.000431,0.327081
4529000,0.0324,0.013523,0.002678,0.000431,0.336248
4530000,0.0324,0.013523,0.002678,0.000431,0.324495
4531000,0.0324,0.013523,0.002678,0.000431,0.317091
4532000,0.0324,0.013523,0.002678,0.000431,0.332252
4533000,0.0324,0.013523,0.002678,0.000431,0.336836
4534000,0.0324,0.013523,0.002678,0.000431,0.318971
4535000,0.0324,0.013523,0.002678,0.000431,0.325318
4536000,0.0324,0.013523,0.002678,0.000431,0.318149
4537000,0.0324,0.013523,0.002678,0.000431,0.322027
4538000,0.0324,0.013523,0.002678,0.000431,0.323320
4539000,0.0324,0.013523,0.002678,0.000431,0.331547
4540000,0.0324,0.013523,0.002678,0.000431,0.329549
4541000,0.0324,0.013523,0.002678,0.000431,0.331077
4542000,0.0324,0.013523,0.002678,0.000431,0.326963
4543000,0.0324,0.013523,0.002678,0.000431,0.334485
4544000,0.0324,0.013523,0.002678,0.000431,0.320734
4545000,0.0324,0.013523,0.002678,0.000431,0.327786
4546000,0.0324,0.013523,0.002678,0.000431,0.354818
4547000,0.0324,0.013523,0.002678,0.000431,0.330137
4548000,0.0324,0.013523,0.002678,0.000431,0.324260
4549000,0.0324,0.013523,0.002678,0.000431,0.312978
4550000,0.0324,0.013523,0.002678,0.000431,0.315563
4551000,0.0324,0.013523,0.002678,0.000431,0.325318
4552000,0.0324,0.013523,0.002678,0.000431,0.330959
4553000,0.0324,0.013523,0.002678,0.000431,0.338364
4554000,0.0324,0.013523,0.002678,0.000431,0.315916
4555000,0.0324,0.013523,0.002678,0.000431,0.329314
4556000,0.0324,0.013523,0.002678,0.000431,0.322262
4557000,0.0324,0.013523,0.002678,0.000431,0.306161
4558000,0.0324,0.013523,0.002678,0.000431,0.304398
4559000,0.0324,0.013523,0.002678,0.000431,0.308629
4560000,0.0324,0.013523,0.002678,0.000431,0.306396
4561000,0.0324,0.013523,0.002678,0.000431,0.316974
4562000,0.0324,0.013523,0.002678,0.000431,0.313565
4563000,0.0324,0.013523,0.002678,0.000431,0.317091
4564000,0.0324,0.013523,0.002678,0.000431,0.335190
4565000,0.0324,0.013523,0.002678,0.000431,0.312272
4566000,0.0324,0.013523,0.002678,0.000431,0.332017
4567000,0.0324,0.013523,0.002678,0.000431,0.320264
4568000,0.0324,0.013523,0.002678,0.000431,0.332487
4569000,0.0324,0.013523,0.002678,0.000431,0.329549
4570000,0.0324,0.013523,0.002678,0.000431,0.309334
4571000,0.0324,0.013523,0.002678,0.000431,0.321087
4572000,0.0324,0.013523,0.002678,0.000431,0.325553
4573000,0.0324,0.013523,0.002678,0.000431,0.330489
4574000,0.0324,0.013523,0.002678,0.000431,0.313800
4575000,0.0324,0.013523,0.002678,0.000431,0.329549
4576000,0.0324,0.013523,0.002678,0.000431,0.325200
4577000,0.0324,0.013523,0.002678,0.000431,0.321087
4578000,0.0324,0.013523,0.002678,0.000431,0.325671
4579000,0.0324,0.013523,0.002678,0.000431,0.324378
4580000,0.0324,0.013523,0.002678,0.000431,0.307336
4581000,0.0324,0.013523,0.002678,0.000431,0.321557
4582000,0.0324,0.013523,0.002678,0.000431,0.330254
4583000,0.0324,0.013523,0.002678,0.000431,0.326493
4584000,0.0324,0.013523,0.002678,0.000431,0.341772
4585000,0.0324,0.013523,0.002678,0.000431,0.316856
4586000,0.0324,0.013523,0.002678,0.000431,0.326963
4587000,0.0324,0.013523,0.002678,0.000431,0.323555
4588000,0.0324,0.013523,0.002678,0.000431,0.336131
4589000,0.0324,0.013523,0.002678,0.000431,0.336131
4590000,0.0324,0.013523,0.002678,0.000431,0.318266
4591000,0.0324,0.013523,0.002678,0.000431,0.317091
4592000,0.0324,0.013523,0.002678,0.000431,0.313565
4593000,0.0324,0.013523,0.002678,0.000431,0.340714
4594000,0.0324,0.013523,0.002678,0.000431,0.323908
4595000,0.0324,0.013523,0.002678,0.000431,0.320617
4596000,0.0324,0.013523,0.002678,0.000431,0.315681
4597000,0.0324,0.013523,0.002678,0.000431,0.325200
4598000,0.0324,0.013523,0.002678,0.000431,0.330607
4599000,0.0324,0.013523,0.002678,0.000431,0.304633
4600000,0.0324,0.013523,0.002678,0.000431,0.303810
4601000,0.0324,0.013523,0.002678,0.000431,0.319677
4602000,0.0324,0.013523,0.002678,0.000431,0.318736
4603000,0.0324,0.013523,0.002678,0.000431,0.321675
4604000,0.0324,0.013523,0.002678,0.000431,0.329902
4605000,0.0324,0.013523,0.002678,0.000431,0.316738
4606000,0.0324,0.013523,0.002678,0.000431,0.314976
4607000,0.0324,0.013523,0.002678,0.000431,0.321792
4608000,0.0324,0.013523,0.002678,0.000431,0.321910
4609000,0.0324,0.013523,0.002678,0.000431,0.331194
4610000,0.0324,0.013523,0.002678,0.000431,0.311685
4611000,0.0324,0.013523,0.002678,0.000431,0.312625
4612000,0.0324,0.013523,0.002678,0.000431,0.314976
4613000,0.0324,0.013523,0.002678,0.000431,0.312272
4614000,0.0324,0.013523,0.002678,0.000431,0.310980
4615000,0.0324,0.013523,0.002678,0.000431,0.318501
4616000,0.0324,0.013523,0.002678,0.000431,0.305103
4617000,0.0324,0.013523,0.002678,0.000431,0.319324
4618000,0.0324,0.013523,0.002678,0.000431,0.333898
4619000,0.0324,0.013523,0.002678,0.000431,0.319912
4620000,0.0324,0.013523,0.002678,0.000431,0.312507
4621000,0.0324,0.013523,0.002678,0.000431,0.316856
4622000,0.0324,0.013523,0.002678,0.000431,0.332370
4623000,0.0324,0.013523,0.002678,0.000431,0.320969
4624000,0.0324,0.013523,0.002678,0.000431,0.320617
4625000,0.0324,0.013523,0.002678,0.000431,0.336953
4626000,0.0324,0.013523,0.002678,0.000431,0.323673
4627000,0.0324,0.013523,0.002678,0.000431,0.314270
4628000,0.0324,0.013523,0.002678,0.000431,0.330607
4629000,0.0324,0.013523,0.002678,0.000431,0.320029
4630000,0.0324,0.013523,0.002678,0.000431,0.310157
4631000,0.0324,0.013523,0.002678,0.000431,0.313683
4632000,0.0324,0.013523,0.002678,0.000431,0.322145
4633000,0.0324,0.013523,0.002678,0.000431,0.330724
4634000,0.0324,0.013523,0.002678,0.000431,0.329314
4635000,0.0324,0.013523,0.002678,0.000431,0.305456
4636000,0.0324,0.013523,0.002678,0.000431,0.316268
4637000,0.0324,0.013523,0.002678,0.000431,0.312860
4638000,0.0324,0.013523,0.002678,0.000431,0.336601
4639000,0.0324,0.013523,0.002678,0.000431,0.324143
4640000,0.0324,0.013523,0.002678,0.000431,0.320029
4641000,0.0324,0.013523,0.002678,0.000431,0.314035
4642000,0.0324,0.013523,0.002678,0.000431,0.303693
4643000,0.0324,0.013523,0.002678,0.000431,0.297229
4644000,0.0324,0.013523,0.002678,0.000431,0.321322
4645000,0.0324,0.013523,0.002678,0.000431,0.319089
4646000,0.0324,0.013523,0.002678,0.000431,0.314388
4647000,0.0324,0.013523,0.002678,0.000431,0.313918
4648000,0.0324,0.013523,0.002678,0.000431,0.319794
4649000,0.0324,0.013523,0.002678,0.000431,0.322615
4650000,0.0324,0.013523,0.002678,0.000431,0.324025
4651000,0.0324,0.013523,0.002678,0.000431,0.313330
4652000,0.0324,0.013523,0.002678,0.000431,0.305221
4653000,0.0324,0.013523,0.002678,0.000431,0.319442
4654000,0.0324,0.013523,0.002678,0.000431,0.320382
4655000,0.0324,0.013523,0.002678,0.000431,0.329902
4656000,0.0324,0.013523,0.002678,0.000431,0.331312
4657000,0.0324,0.013523,0.002678,0.000431,0.318501
4658000,0.0324,0.013523,0.002678,0.000431,0.324378
4659000,0.0324,0.013523,0.002678,0.000431,0.308159
4660000,0.0324,0.013523,0.002678,0.000431,0.324613
4661000,0.0324,0.013523,0.002678,0.000431,0.332135
4662000,0.0324,0.013523,0.002678,0.000431,0.316974
4663000,0.0324,0.013523,0.002678,0.000431,0.312155
4664000,0.0324,0.013523,0.002678,0.000431,0.320734
4665000,0.0324,0.013523,0.002678,0.000431,0.319207
4666000,0.0324,0.013523,0.002678,0.000431,0.321205
4667000,0.0324,0.013523,0.002678,0.000431,0.327904
4668000,0.0324,0.013523,0.002678,0.000431,0.316856
4669000,0.0324,0.013523,0.002678,0.000431,0.324965
4670000,0.0324,0.013523,0.002678,0.000431,0.303693
4671000,0.0324,0.013523,0.002678,0.000431,0.302047
4672000,0.0324,0.013523,0.002678,0.000431,0.316386
4673000,0.0324,0.013523,0.002678,0.000431,0.307571
4674000,0.0324,0.013523,0.002678,0.000431,0.321557
4675000,0.0324,0.013523,0.002678,0.000431,0.310745
4676000,0.0324,0.013523,0.002678,0.000431,0.323085
4677000,0.0324,0.013523,0.002678,0.000431,0.332840
4678000,0.0324,0.013523,0.002678,0.000431,0.349529
4679000,0.0324,0.013523,0.002678,0.000431,0.340949
4680000,0.0324,0.013523,0.002678,0.000431,0.328844
4681000,0.0324,0.013523,0.002678,0.000431,0.359989
4682000,0.0324,0.013523,0.002678,0.000431,0.358461
4683000,0.0324,0.013523,0.002678,0.000431,0.378558
4684000,0.0324,0.013523,0.002678,0.000431,0.340832
4685000,0.0324,0.013523,0.002678,0.000431,0.339892
4686000,0.0324,0.013523,0.002678,0.000431,0.359049
4687000,0.0324,0.013523,0.002678,0.000431,0.361164
4688000,0.0324,0.013523,0.002678,0.000431,0.339421
4689000,0.0324,0.013523,0.002678,0.000431,0.326611
4690000,0.0324,0.013523,0.002678,0.000431,0.332840
4691000,0.0324,0.013523,0.002678,0.000431,0.324025
4692000,0.0324,0.013523,0.002678,0.000431,0.328491
4693000,0.0324,0.013523,0.002678,0.000431,0.330137
4694000,0.0324,0.013523,0.002678,0.000431,0.321557
4695000,0.0324,0.013523,0.002678,0.000431,0.326376
4696000,0.0324,0.013523,0.002678,0.000431,0.322850
4697000,0.0324,0.013523,0.002678,0.000431,0.336366
4698000,0.0324,0.013523,0.002678,0.000431,0.309687
4699000,0.0324,0.013523,0.002678,0.000431,0.326846
4700000,0.0324,0.013523,0.002678,0.000431,0.330724
4701000,0.0324,0.013523,0.002678,0.000431,0.330959
4702000,0.0324,0.013523,0.002678,0.000431,0.334133
4703000,0.0324,0.013523,0.002678,0.000431,0.334133
4704000,0.0324,0.013523,0.002678,0.000431,0.336953
4705000,0.0324,0.013523,0.002678,0.000431,0.335543
4706000,0.0324,0.013523,0.002678,0.000431,0.339892
4707000,0.0324,0.013523,0.002678,0.000431,0.317914
4708000,0.0324,0.013523,0.002678,0.000431,0.328726
4709000,0.0324,0.013523,0.002678,0.000431,0.318736
4710000,0.0324,0.013523,0.002678,0.000431,0.313565
4711000,0.0324,0.013523,0.002678,0.000431,0.335425
4712000,0.0324,0.013523,0.002678,0.000431,0.336366
4713000,0.0324,0.013523,0.002678,0.000431,0.323790
4714000,0.0324,0.013523,0.002678,0.000431,0.334838
4715000,0.0324,0.013523,0.002678,0.000431,0.342007
4716000,0.0324,0.013523,0.002678,0.000431,0.326023
4717000,0.0324,0.013523,0.002678,0.000431,0.323320
4718000,0.0324,0.013523,0.002678,0.000431,0.316621
4719000,0.0324,0.013523,0.002678,0.000431,0.318619
4720000,0.0324,0.013523,0.002678,0.000431,0.338951
4721000,0.0324,0.013523,0.002678,0.000431,0.331900
4722000,0.0324,0.013523,0.002678,0.000431,0.319442
4723000,0.0324,0.013523,0.002678,0.000431,0.344475
4724000,0.0324,0.013523,0.002678,0.000431,0.324848
4725000,0.0324,0.013523,0.002678,0.000431,0.335543
4726000,0.0324,0.013523,0.002678,0.000431,0.327904
4727000,0.0324,0.013523,0.002678,0.000431,0.313448
4728000,0.0324,0.013523,0.002678,0.000431,0.315446
4729000,0.0324,0.013523,0.002678,0.000431,0.325671
4730000,0.0324,0.013523,0.002678,0.000431,0.317326
4731000,0.0324,0.013523,0.002678,0.000431,0.332017
4732000,0.0324,0.013523,0.002678,0.000431,0.363985
4733000,0.0324,0.013523,0.002678,0.000431,0.371036
4734000,0.0324,0.013523,0.002678,0.000431,0.327786
4735000,0.0324,0.013523,0.002678,0.000431,0.313330
4736000,0.0324,0.013523,0.002678,0.000431,0.331312
4737000,0.0324,0.013523,0.002678,0.000431,0.325083
4738000,0.0324,0.013523,0.002678,0.000431,0.323085
4739000,0.0324,0.013523,0.002678,0.000431,0.323320
4740000,0.0324,0.013523,0.002678,0.000431,0.323085
4741000,0.0324,0.013523,0.002678,0.000431,0.322380
4742000,0.0324,0.013523,0.002678,0.000431,0.337306
4743000,0.0324,0.013523,0.002678,0.000431,0.345650
4744000,0.0324,0.013523,0.002678,0.000431,0.342242
4745000,0.0324,0.013523,0.002678,0.000431,0.339186
4746000,0.0324,0.013523,0.002678,0.000431,0.319324
4747000,0.0324,0.013523,0.002678,0.000431,0.338716
4748000,0.0324,0.013523,0.002678,0.000431,0.324025
4749000,0.0324,0.013523,0.002678,0.000431,0.330019
4750000,0.0324,0.013523,0.002678,0.000431,0.323908
4751000,0.0324,0.013523,0.002678,0.000431,0.316974
4752000,0.0324,0.013523,0.002678,0.000431,0.314270
4753000,0.0324,0.013523,0.002678,0.000431,0.322380
4754000,0.0324,0.013523,0.002678,0.000431,0.326258
4755000,0.0324,0.013523,0.002678,0.000431,0.322615
4756000,0.0324,0.013523,0.002678,0.000431,0.318736
4757000,0.0324,0.013523,0.002678,0.000431,0.320029
4758000,0.0324,0.013523,0.002678,0.000431,0.322732
4759000,0.0324,0.013523,0.002678,0.000431,0.329196
4760000,0.0324,0.013523,0.002678,0.000431,0.347178
4761000,0.0324,0.013523,0.002678,0.000431,0.322145
4762000,0.0324,0.013523,0.002678,0.000431,0.327669
4763000,0.0324,0.013523,0.002678,0.000431,0.345415
4764000,0.0324,0.013523,0.002678,0.000431,0.346943
4765000,0.0324,0.013523,0.002678,0.000431,0.329784
4766000,0.0324,0.013523,0.002678,0.000431,0.316621
4767000,0.0324,0.013523,0.002678,0.000431,0.318854
4768000,0.0324,0.013523,0.002678,0.000431,0.314035
4769000,0.0324,0.013523,0.002678,0.000431,0.309804
4770000,0.0324,0.013523,0.002678,0.000431,0.310392
4771000,0.0324,0.013523,0.002678,0.000431,0.327786
4772000,0.0324,0.013523,0.002678,0.000431,0.326376
4773000,0.0324,0.013523,0.002678,0.000431,0.312978
4774000,0.0324,0.013523,0.002678,0.000431,0.321440
4775000,0.0324,0.013523,0.002678,0.000431,0.330254
4776000,0.0324,0.013523,0.002678,0.000431,0.315211
4777000,0.0324,0.013523,0.002678,0.000431,0.311215
4778000,0.0324,0.013523,0.002678,0.000431,0.344710
4779000,0.0324,0.013523,0.002678,0.000431,0.336718
4780000,0.0324,0.013523,0.002678,0.000431,0.319442
4781000,0.0324,0.013523,0.002678,0.000431,0.318384
4782000,0.0324,0.013523,0.002678,0.000431,0.315093
4783000,0.0324,0.013523,0.002678,0.000431,0.333545
4784000,0.0324,0.013523,0.002678,0.000431,0.332135
4785000,0.0324,0.013523,0.002678,0.000431,0.334250
4786000,0.0324,0.013523,0.002678,0.000431,0.348824
4787000,0.0324,0.013523,0.002678,0.000431,0.340009
4788000,0.0324,0.013523,0.002678,0.000431,0.324495
4789000,0.0324,0.013523,0.002678,0.000431,0.318384
4790000,0.0324,0.013523,0.002678,0.000431,0.315798
4791000,0.0324,0.013523,0.002678,0.000431,0.305573
4792000,0.0324,0.013523,0.002678,0.000431,0.306161
4793000,0.0324,0.013523,0.002678,0.000431,0.314035
4794000,0.0324,0.013523,0.002678,0.000431,0.313213
4795000,0.0324,0.013523,0.002678,0.000431,0.319442
4796000,0.0324,0.013523,0.002678,0.000431,0.308864
4797000,0.0324,0.013523,0.002678,0.000431,0.304516
4798000,0.0324,0.013523,0.002678,0.000431,0.316738
4799000,0.0324,0.013523,0.002678,0.000431,0.305338
4800000,0.0324,0.013523,0.002678,0.000431,0.315328
4801000,0.0324,0.013523,0.002678,0.000431,0.319559
4802000,0.0324,0.013523,0.002678,0.000431,0.314153
4803000,0.0324,0.013523,0.002678,0.000431,0.317209
4804000,0.0324,0.013523,0.002678,0.000431,0.319794
4805000,0.0324,0.013523,0.002678,0.000431,0.309569
4806000,0.0324,0.013523,0.002678,0.000431,0.327198
4807000,0.0324,0.013523,0.002678,0.000431,0.310862
4808000,0.0324,0.013523,0.002678,0.000431,0.327434
4809000,0.0324,0.013523,0.002678,0.000431,0.317209
4810000,0.0324,0.013523,0.002678,0.000431,0.319912
4811000,0.0324,0.013523,0.002678,0.000431,0.325671
4812000,0.0324,0.013523,0.002678,0.000431,0.321087
4813000,0.0324,0.013523,0.002678,0.000431,0.318619
4814000,0.0324,0.013523,0.002678,0.000431,0.327198
4815000,0.0324,0.013523,0.002678,0.000431,0.318619
4816000,0.0324,0.013523,0.002678,0.000431,0.328491
4817000,0.0324,0.013523,0.002678,0.000431,0.319794
4818000,0.0324,0.013523,0.002678,0.000431,0.322732
4819000,0.0324,0.013523,0.002678,0.000431,0.336953
4820000,0.0324,0.013523,0.002678,0.000431,0.319324
4821000,0.0324,0.013523,0.002678,0.000431,0.308276
4822000,0.0324,0.013523,0.002678,0.000431,0.309099
4823000,0.0324,0.013523,0.002678,0.000431,0.310980
4824000,0.0324,0.013523,0.002678,0.000431,0.317444
4825000,0.0324,0.013523,0.002678,0.000431,0.322967
4826000,0.0324,0.013523,0.002678,0.000431,0.316268
4827000,0.0324,0.013523,0.002678,0.000431,0.319089
4828000,0.0324,0.013523,0.002678,0.000431,0.317326
4829000,0.0324,0.013523,0.002678,0.000431,0.319559
4830000,0.0324,0.013523,0.002678,0.000431,0.346238
4831000,0.0324,0.013523,0.002678,0.000431,0.338951
4832000,0.0324,0.013523,0.002678,0.000431,0.349529
4833000,0.0324,0.013523,0.002678,0.000431,0.309217
4834000,0.0324,0.013523,0.002678,0.000431,0.321205
4835000,0.0324,0.013523,0.002678,0.000431,0.327316
4836000,0.0324,0.013523,0.002678,0.000431,0.321322
4837000,0.0324,0.013523,0.002678,0.000431,0.313565
4838000,0.0324,0.013523,0.002678,0.000431,0.324143
4839000,0.0324,0.013523,0.002678,0.000431,0.306984
4840000,0.0324,0.013523,0.002678,0.000431,0.318384
4841000,0.0324,0.013523,0.002678,0.000431,0.328021
4842000,0.0324,0.013523,0.002678,0.000431,0.360929
4843000,0.0324,0.013523,0.002678,0.000431,0.321792
4844000,0.0324,0.013523,0.002678,0.000431,0.312625
4845000,0.0324,0.013523,0.002678,0.000431,0.321910
4846000,0.0324,0.013523,0.002678,0.000431,0.318736
4847000,0.0324,0.013523,0.002678,0.000431,0.326493
4848000,0.0324,0.013523,0.002678,0.000431,0.308511
4849000,0.0324,0.013523,0.002678,0.000431,0.324613
4850000,0.0324,0.013523,0.002678,0.000431,0.312860
4851000,0.0324,0.013523,0.002678,0.000431,0.324965
4852000,0.0324,0.013523,0.002678,0.000431,0.307336
4853000,0.0324,0.013523,0.002678,0.000431,0.297699
4854000,0.0324,0.013523,0.002678,0.000431,0.302165
4855000,0.0324,0.013523,0.002678,0.000431,0.314858
4856000,0.0324,0.013523,0.002678,0.000431,0.308511
4857000,0.0324,0.013523,0.002678,0.000431,0.302870
4858000,0.0324,0.013523,0.002678,0.000431,0.309334
4859000,0.0324,0.013523,0.002678,0.000431,0.310157
4860000,0.0324,0.013523,0.002678,0.000431,0.314740
4861000,0.0324,0.013523,0.002678,0.000431,0.312625
4862000,0.0324,0.013523,0.002678,0.000431,0.328609
4863000,0.0324,0.013523,0.002678,0.000431,0.351997
4864000,0.0324,0.013523,0.002678,0.000431,0.311685
4865000,0.0324,0.013523,0.002678,0.000431,0.310862
4866000,0.0324,0.013523,0.002678,0.000431,0.325906
4867000,0.0324,0.013523,0.002678,0.000431,0.311097
4868000,0.0324,0.013523,0.002678,0.000431,0.308747
4869000,0.0324,0.013523,0.002678,0.000431,0.318031
4870000,0.0324,0.013523,0.002678,0.000431,0.311332
4871000,0.0324,0.013523,0.002678,0.000431,0.317444
4872000,0.0324,0.013523,0.002678,0.000431,0.318031
4873000,0.0324,0.013523,0.002678,0.000431,0.321557
4874000,0.0324,0.013523,0.002678,0.000431,0.317561
4875000,0.0324,0.013523,0.002678,0.000431,0.308864
4876000,0.0324,0.013523,0.002678,0.000431,0.335425
4877000,0.0324,0.013523,0.002678,0.000431,0.314740
4878000,0.0324,0.013523,0.002678,0.000431,0.313565
4879000,0.0324,0.013523,0.002678,0.000431,0.320499
4880000,0.0324,0.013523,0.002678,0.000431,0.330489
4881000,0.0324,0.013523,0.002678,0.000431,0.312037
4882000,0.0324,0.013523,0.002678,0.000431,0.328139
4883000,0.0324,0.013523,0.002678,0.000431,0.321557
4884000,0.0324,0.013523,0.002678,0.000431,0.318266
4885000,0.0324,0.013523,0.002678,0.000431,0.328374
4886000,0.0324,0.013523,0.002678,0.000431,0.316738
4887000,0.0324,0.013523,0.002678,0.000431,0.314505
4888000,0.0324,0.013523,0.002678,0.000431,0.323673
4889000,0.0324,0.013523,0.002678,0.000431,0.320264
4890000,0.0324,0.013523,0.002678,0.000431,0.322380
4891000,0.0324,0.013523,0.002678,0.000431,0.326023
4892000,0.0324,0.013523,0.002678,0.000431,0.313330
4893000,0.0324,0.013523,0.002678,0.000431,0.328961
4894000,0.0324,0.013523,0.002678,0.000431,0.332252
4895000,0.0324,0.013523,0.002678,0.000431,0.324143
4896000,0.0324,0.013523,0.002678,0.000431,0.313330
4897000,0.0324,0.013523,0.002678,0.000431,0.295348
4898000,0.0324,0.013523,0.002678,0.000431,0.298051
4899000,0.0324,0.013523,0.002678,0.000431,0.309804
4900000,0.0324,0.013523,0.002678,0.000431,0.311920
4901000,0.0324,0.013523,0.002678,0.000431,0.320147
4902000,0.0324,0.013523,0.002678,0.000431,0.317209
4903000,0.0324,0.013523,0.002678,0.000431,0.309099
4904000,0.0324,0.013523,0.002678,0.000431,0.304516
4905000,0.0324,0.013523,0.002678,0.000431,0.302047
4906000,0.0324,0.013523,0.002678,0.000431,0.323438
4907000,0.0324,0.013523,0.002678,0.000431,0.301577
4908000,0.0324,0.013523,0.002678,0.000431,0.310274
4909000,0.0324,0.013523,0.002678,0.000431,0.311450
4910000,0.0324,0.013523,0.002678,0.000431,0.315093
4911000,0.0324,0.013523,0.002678,0.000431,0.326846
4912000,0.0324,0.013523,0.002678,0.000431,0.320617
4913000,0.0324,0.013523,0.002678,0.000431,0.308511
4914000,0.0324,0.013523,0.002678,0.000431,0.315093
4915000,0.0324,0.013523,0.002678,0.000431,0.303105
4916000,0.0324,0.013523,0.002678,0.000431,0.316621
4917000,0.0324,0.013523,0.002678,0.000431,0.300049
4918000,0.0324,0.013523,0.002678,0.000431,0.303223
4919000,0.0324,0.013523,0.002678,0.000431,0.315093
4920000,0.0324,0.013523,0.002678,0.000431,0.316033
4921000,0.0324,0.013523,0.002678,0.000431,0.327669
4922000,0.0324,0.013523,0.002678,0.000431,0.330372
4923000,0.0324,0.013523,0.002678,0.000431,0.303458
4924000,0.0324,0.013523,0.002678,0.000431,0.314153
4925000,0.0324,0.013523,0.002678,0.000431,0.340009
4926000,0.0324,0.013523,0.002678,0.000431,0.311685
4927000,0.0324,0.013523,0.002678,0.000431,0.321087
4928000,0.0324,0.013523,0.002678,0.000431,0.308511
4929000,0.0324,0.013523,0.002678,0.000431,0.303693
4930000,0.0324,0.013523,0.002678,0.000431,0.320852
4931000,0.0324,0.013523,0.002678,0.000431,0.321440
4932000,0.0324,0.013523,0.002678,0.000431,0.308864
4933000,0.0324,0.013523,0.002678,0.000431,0.318384
4934000,0.0324,0.013523,0.002678,0.000431,0.312272
4935000,0.0324,0.013523,0.002678,0.000431,0.318501
4936000,0.0324,0.013523,0.002678,0.000431,0.339069
4937000,0.0324,0.013523,0.002678,0.000431,0.329902
4938000,0.0324,0.013523,0.002678,0.000431,0.322967
4939000,0.0324,0.013523,0.002678,0.000431,0.321557
4940000,0.0324,0.013523,0.002678,0.000431,0.328021
4941000,0.0324,0.013523,0.002678,0.000431,0.334133
4942000,0.0324,0.013523,0.002678,0.000431,0.323203
4943000,0.0324,0.013523,0.002678,0.000431,0.328844
4944000,0.0324,0.013523,0.002678,0.000431,0.313800
4945000,0.0324,0.013523,0.002678,0.000431,0.312272
4946000,0.0324,0.013523,0.002678,0.000431,0.328609
4947000,0.0324,0.013523,0.002678,0.000431,0.308511
4948000,0.0324,0.013523,0.002678,0.000431,0.303810
4949000,0.0324,0.013523,0.002678,0.000431,0.339421
4950000,0.0324,0.013523,0.002678,0.000431,0.345415
4951000,0.0324,0.013523,0.002678,0.000431,0.344593
4952000,0.0324,0.013523,0.002678,0.000431,0.327434
4953000,0.0324,0.013523,0.002678,0.000431,0.326611
4954000,0.0324,0.013523,0.002678,0.000431,0.333427
4955000,0.0324,0.013523,0.002678,0.000431,0.312978
4956000,0.0324,0.013523,0.002678,0.000431,0.310392
4957000,0.0324,0.013523,0.002678,0.000431,0.299932
4958000,0.0324,0.013523,0.002678,0.000431,0.301695
4959000,0.0324,0.013523,0.002678,0.000431,0.309569
4960000,0.0324,0.013523,0.002678,0.000431,0.315093
4961000,0.0324,0.013523,0.002678,0.000431,0.314153
4962000,0.0324,0.013523,0.002678,0.000431,0.316268
4963000,0.0324,0.013523,0.002678,0.000431,0.312390
4964000,0.0324,0.013523,0.002678,0.000431,0.306984
4965000,0.0324,0.013523,0.002678,0.000431,0.314388
4966000,0.0324,0.013523,0.002678,0.000431,0.324965
4967000,0.0324,0.013523,0.002678,0.000431,0.316621
4968000,0.0324,0.013523,0.002678,0.000431,0.315563
4969000,0.0324,0.013523,0.002678,0.000431,0.305691
4970000,0.0324,0.013523,0.002678,0.000431,0.329079
4971000,0.0324,0.013523,0.002678,0.000431,0.334720
4972000,0.0324,0.013523,0.002678,0.000431,0.339069
4973000,0.0324,0.013523,0.002678,0.000431,0.340832
4974000,0.0324,0.013523,0.002678,0.000431,0.343182
4975000,0.0324,0.013523,0.002678,0.000431,0.322380
4976000,0.0324,0.013523,0.002678,0.000431,0.316268
4977000,0.0324,0.013523,0.002678,0.000431,0.323085
4978000,0.0324,0.013523,0.002678,0.000431,0.341889
4979000,0.0324,0.013523,0.002678,0.000431,0.329196
4980000,0.0324,0.013523,0.002678,0.000431,0.314505
4981000,0.0324,0.013523,0.002678,0.000431,0.312272
4982000,0.0324,0.013523,0.002678,0.000431,0.316386
4983000,0.0324,0.013523,0.002678,0.000431,0.319442
4984000,0.0324,0.013523,0.002678,0.000431,0.316386
4985000,0.0324,0.013523,0.002678,0.000431,0.318854
4986000,0.0324,0.013523,0.002678,0.000431,0.320382
4987000,0.0324,0.013523,0.002678,0.000431,0.317444
4988000,0.0324,0.013523,0.002678,0.000431,0.329902
4989000,0.0324,0.013523,0.002678,0.000431,0.331782
4990000,0.0324,0.013523,0.002678,0.000431,0.339656
4991000,0.0324,0.013523,0.002678,0.000431,0.321675
4992000,0.0324,0.013523,0.002678,0.000431,0.319442
4993000,0.0324,0.013523,0.002678,0.000431,0.314976
4994000,0.0324,0.013523,0.002678,0.000431,0.323790
4995000,0.0324,0.013523,0.002678,0.000431,0.314388
4996000,0.0324,0.013523,0.002678,0.000431,0.319677
4997000,0.0324,0.013523,0.002678,0.000431,0.344358
4998000,0.0324,0.013523,0.002678,0.000431,0.325906
4999000,0.0324,0.013523,0.002678,0.000431,0.328491
